Data from USB4F104151__142__11-08-11-092.txt Node

Date: Wed Mar 12 11:08:11 EDT 2025
User: louis
Spectrometer: USB4F10415
Trigger mode: 4
Integration Time (sec): 2.000000E-2
Scans to average: 1
Electric dark correction enabled: true
Nonlinearity correction enabled: false
Boxcar width: 0
XAxis mode: Wavelengths
Number of Pixels in Spectrum: 3648
>>>>>Begin Spectral Data<<<<<
178.204	-52.39
178.424	-52.39
178.644	-52.39
178.864	-60.59
179.084	-103.59
179.304	58.2
179.524	-48.3
179.744	-29.87
179.964	50
180.184	29.52
180.404	-13.48
180.624	9.05
180.844	-3.24
181.064	-52.39
181.283	-7.34
181.503	-19.63
181.723	27.48
181.943	-68.78
182.163	78.68
182.383	45.91
182.602	78.68
182.822	52.05
183.042	-7.34
183.262	19.29
183.482	-21.67
183.701	29.52
183.921	-21.67
184.141	35.67
184.361	21.33
184.58	17.24
184.8	-1.19
185.02	0.85
185.239	15.19
185.459	54.1
185.679	93.01
185.898	-7.34
186.118	74.58
186.338	-13.48
186.557	21.33
186.777	50
186.997	2.9
187.216	-54.44
187.436	111.44
187.655	41.81
187.875	58.2
188.095	21.33
188.314	60.24
188.534	68.44
188.753	72.53
188.973	27.48
189.192	111.44
189.412	25.43
189.631	13.14
189.851	-27.82
190.07	-52.39
190.29	17.24
190.509	37.72
190.729	29.52
190.948	76.63
191.168	95.06
191.387	62.29
191.607	4.95
191.826	-23.72
192.045	62.29
192.265	-7.34
192.484	76.63
192.704	25.43
192.923	66.39
193.142	21.33
193.362	47.96
193.581	39.76
193.8	-15.53
194.02	74.58
194.239	25.43
194.458	-50.35
194.678	13.14
194.897	-7.34
195.116	19.29
195.335	7
195.555	35.67
195.774	4.95
195.993	56.15
196.212	52.05
196.432	-7.34
196.651	37.72
196.87	-7.34
197.089	70.48
197.308	15.19
197.528	45.91
197.747	-72.87
197.966	43.86
198.185	-27.82
198.404	-19.63
198.623	-60.59
198.842	-44.2
199.062	78.68
199.281	29.52
199.5	45.91
199.719	-9.39
199.938	62.29
200.157	64.34
200.376	66.39
200.595	80.72
200.814	-17.58
201.033	-31.91
201.252	97.11
201.471	54.1
201.69	-11.43
201.909	58.2
202.128	-3.24
202.347	-1.19
202.566	21.33
202.785	-64.68
203.004	-17.58
203.223	58.2
203.442	-40.11
203.661	19.29
203.879	11.09
204.098	66.39
204.317	39.76
204.536	50
204.755	-19.63
204.974	119.64
205.193	37.72
205.411	21.33
205.63	86.87
205.849	64.34
206.068	-19.63
206.287	-3.24
206.505	-11.43
206.724	-9.39
206.943	25.43
207.162	-13.48
207.381	2.9
207.599	39.76
207.818	-29.87
208.037	-50.35
208.255	95.06
208.474	-7.34
208.693	58.2
208.911	-21.67
209.13	37.72
209.349	23.38
209.567	7
209.786	101.2
210.005	33.62
210.223	-3.24
210.442	-23.72
210.661	-3.24
210.879	25.43
211.098	41.81
211.316	78.68
211.535	33.62
211.753	11.09
211.972	37.72
212.191	23.38
212.409	50
212.628	39.76
212.846	2.9
213.065	2.9
213.283	54.1
213.502	43.86
213.72	29.52
213.938	17.24
214.157	-13.48
214.375	35.67
214.594	-25.77
214.812	21.33
215.031	93.01
215.249	2.9
215.467	70.48
215.686	33.62
215.904	-64.68
216.122	-7.34
216.341	-19.63
216.559	-25.77
216.778	52.05
216.996	2.9
217.214	33.62
217.432	-40.11
217.651	-36.01
217.869	2.9
218.087	0.85
218.306	17.24
218.524	39.76
218.742	9.05
218.96	-1.19
219.179	11.09
219.397	-13.48
219.615	78.68
219.833	-27.82
220.051	-1.19
220.27	29.52
220.488	25.43
220.706	60.24
220.924	-11.43
221.142	37.72
221.36	39.76
221.578	4.95
221.796	58.2
222.015	13.14
222.233	72.53
222.451	39.76
222.669	9.05
222.887	41.81
223.105	-3.24
223.323	-3.24
223.541	2.9
223.759	62.29
223.977	4.95
224.195	35.67
224.413	72.53
224.631	27.48
224.849	33.62
225.067	101.2
225.285	-7.34
225.503	-81.07
225.721	86.87
225.939	121.68
226.157	-13.48
226.375	33.62
226.592	-9.39
226.81	54.1
227.028	21.33
227.246	37.72
227.464	-3.24
227.682	95.06
227.9	58.2
228.117	4.95
228.335	-33.96
228.553	-64.68
228.771	2.9
228.989	117.59
229.206	-5.29
229.424	-29.87
229.642	68.44
229.86	52.05
230.077	11.09
230.295	60.24
230.513	7
230.731	41.81
230.948	17.24
231.166	93.01
231.384	52.05
231.601	97.11
231.819	-27.82
232.037	58.2
232.254	11.09
232.472	-5.29
232.689	29.52
232.907	7
233.125	11.09
233.342	54.1
233.56	33.62
233.777	-1.19
233.995	-27.82
234.213	62.29
234.43	-42.15
234.648	47.96
234.865	-44.2
235.083	56.15
235.3	-3.24
235.518	-13.48
235.735	41.81
235.953	35.67
236.17	-1.19
236.388	62.29
236.605	4.95
236.822	11.09
237.04	-5.29
237.257	13.14
237.475	13.14
237.692	58.2
237.909	23.38
238.127	62.29
238.344	56.15
238.562	70.48
238.779	11.09
238.996	-13.48
239.214	-58.54
239.431	62.29
239.648	37.72
239.865	47.96
240.083	52.05
240.3	19.29
240.517	-48.3
240.735	47.96
240.952	-7.34
241.169	45.91
241.386	7
241.603	9.05
241.821	7
242.038	66.39
242.255	54.1
242.472	-25.77
242.689	29.52
242.907	66.39
243.124	13.14
243.341	-23.72
243.558	-13.48
243.775	72.53
243.992	13.14
244.209	9.05
244.426	-40.11
244.643	-11.43
244.86	39.76
245.078	-9.39
245.295	-42.15
245.512	23.38
245.729	-36.01
245.946	15.19
246.163	58.2
246.38	-31.91
246.597	15.19
246.814	117.59
247.031	-17.58
247.248	17.24
247.464	35.67
247.681	21.33
247.898	21.33
248.115	66.39
248.332	-62.63
248.549	60.24
248.766	58.2
248.983	31.57
249.2	-15.53
249.417	15.19
249.633	66.39
249.85	21.33
250.067	-15.53
250.284	17.24
250.501	7
250.717	74.58
250.934	-54.44
251.151	31.57
251.368	17.24
251.585	19.29
251.801	7
252.018	37.72
252.235	52.05
252.451	-19.63
252.668	33.62
252.885	41.81
253.102	17.24
253.318	43.86
253.535	33.62
253.752	7
253.968	117.59
254.185	-5.29
254.401	-23.72
254.618	78.68
254.835	21.33
255.051	7
255.268	33.62
255.484	62.29
255.701	-31.91
255.917	41.81
256.134	-62.63
256.351	23.38
256.567	9.05
256.784	2.9
257	-21.67
257.217	60.24
257.433	-36.01
257.65	-17.58
257.866	37.72
258.082	17.24
258.299	-3.24
258.515	154.45
258.732	-7.34
258.948	-13.48
259.165	11.09
259.381	29.52
259.597	9.05
259.814	-31.91
260.03	58.2
260.246	13.14
260.463	93.01
260.679	39.76
260.895	-7.34
261.112	-11.43
261.328	35.67
261.544	-36.01
261.761	72.53
261.977	4.95
262.193	-31.91
262.409	93.01
262.626	21.33
262.842	52.05
263.058	41.81
263.274	31.57
263.49	-5.29
263.707	7
263.923	33.62
264.139	-13.48
264.355	-29.87
264.571	78.68
264.787	2.9
265.004	21.33
265.22	78.68
265.436	7
265.652	41.81
265.868	41.81
266.084	-1.19
266.3	15.19
266.516	-31.91
266.732	17.24
266.948	-5.29
267.164	-25.77
267.38	-11.43
267.596	4.95
267.812	-11.43
268.028	39.76
268.244	27.48
268.46	54.1
268.676	27.48
268.892	7
269.108	-46.25
269.324	-7.34
269.54	-25.77
269.756	-1.19
269.972	-23.72
270.188	35.67
270.403	-40.11
270.619	7
270.835	7
271.051	80.72
271.267	99.16
271.483	4.95
271.698	72.53
271.914	9.05
272.13	68.44
272.346	39.76
272.562	-1.19
272.777	19.29
272.993	-25.77
273.209	39.76
273.425	21.33
273.64	52.05
273.856	35.67
274.072	86.87
274.287	27.48
274.503	54.1
274.719	-31.91
274.934	-27.82
275.15	-52.39
275.366	29.52
275.581	2.9
275.797	62.29
276.012	27.48
276.228	-27.82
276.444	-40.11
276.659	-66.73
276.875	-44.2
277.09	29.52
277.306	29.52
277.521	58.2
277.737	-29.87
277.952	39.76
278.168	66.39
278.383	52.05
278.599	21.33
278.814	35.67
279.03	-48.3
279.245	27.48
279.461	13.14
279.676	66.39
279.892	21.33
280.107	29.52
280.322	11.09
280.538	33.62
280.753	41.81
280.969	-7.34
281.184	-15.53
281.399	19.29
281.615	-9.39
281.83	27.48
282.045	0.85
282.26	31.57
282.476	-46.25
282.691	31.57
282.906	17.24
283.122	0.85
283.337	21.33
283.552	86.87
283.767	-56.49
283.983	62.29
284.198	-27.82
284.413	-1.19
284.628	-29.87
284.843	23.38
285.058	39.76
285.274	-5.29
285.489	25.43
285.704	93.01
285.919	80.72
286.134	80.72
286.349	7
286.564	21.33
286.779	105.3
286.995	54.1
287.21	19.29
287.425	68.44
287.64	-79.02
287.855	82.77
288.07	39.76
288.285	90.96
288.5	23.38
288.715	-11.43
288.93	27.48
289.145	-58.54
289.36	21.33
289.575	84.82
289.79	-9.39
290.004	17.24
290.219	31.57
290.434	-9.39
290.649	15.19
290.864	-17.58
291.079	-9.39
291.294	37.72
291.509	11.09
291.724	54.1
291.938	2.9
292.153	60.24
292.368	-38.06
292.583	68.44
292.798	45.91
293.012	31.57
293.227	23.38
293.442	-5.29
293.657	43.86
293.871	17.24
294.086	62.29
294.301	25.43
294.516	-54.44
294.73	-1.19
294.945	-3.24
295.16	21.33
295.374	37.72
295.589	41.81
295.804	52.05
296.018	23.38
296.233	17.24
296.447	9.05
296.662	-7.34
296.877	54.1
297.091	-17.58
297.306	2.9
297.52	13.14
297.735	35.67
297.949	2.9
298.164	-23.72
298.378	-25.77
298.593	21.33
298.807	17.24
299.022	25.43
299.236	29.52
299.451	23.38
299.665	54.1
299.88	13.14
300.094	7
300.309	56.15
300.523	31.57
300.737	-13.48
300.952	33.62
301.166	45.91
301.381	-60.59
301.595	17.24
301.809	2.9
302.024	-13.48
302.238	37.72
302.452	60.24
302.667	-40.11
302.881	68.44
303.095	4.95
303.309	50
303.524	11.09
303.738	19.29
303.952	25.43
304.166	80.72
304.381	66.39
304.595	15.19
304.809	-23.72
305.023	19.29
305.237	2.9
305.452	4.95
305.666	13.14
305.88	86.87
306.094	43.86
306.308	109.4
306.522	-5.29
306.736	37.72
306.95	43.86
307.164	-23.72
307.379	47.96
307.593	21.33
307.807	15.19
308.021	70.48
308.235	-7.34
308.449	-54.44
308.663	0.85
308.877	58.2
309.091	39.76
309.305	15.19
309.519	-3.24
309.733	45.91
309.947	-3.24
310.161	-3.24
310.374	2.9
310.588	15.19
310.802	0.85
311.016	58.2
311.23	23.38
311.444	64.34
311.658	-36.01
311.872	70.48
312.085	-70.83
312.299	82.77
312.513	23.38
312.727	0.85
312.941	-13.48
313.154	-31.91
313.368	33.62
313.582	35.67
313.796	86.87
314.009	64.34
314.223	11.09
314.437	62.29
314.651	62.29
314.864	66.39
315.078	19.29
315.292	-9.39
315.505	0.85
315.719	86.87
315.933	58.2
316.146	-21.67
316.36	37.72
316.573	17.24
316.787	-25.77
317.001	19.29
317.214	-11.43
317.428	31.57
317.641	68.44
317.855	23.38
318.068	2.9
318.282	2.9
318.495	99.16
318.709	47.96
318.922	52.05
319.136	74.58
319.349	64.34
319.563	0.85
319.776	29.52
319.99	37.72
320.203	13.14
320.417	74.58
320.63	82.77
320.843	66.39
321.057	31.57
321.27	11.09
321.483	21.33
321.697	111.44
321.91	-3.24
322.124	43.86
322.337	86.87
322.55	56.15
322.763	107.35
322.977	93.01
323.19	4.95
323.403	47.96
323.617	-27.82
323.83	37.72
324.043	9.05
324.256	78.68
324.469	2.9
324.683	17.24
324.896	19.29
325.109	33.62
325.322	58.2
325.535	54.1
325.748	43.86
325.962	52.05
326.175	-19.63
326.388	-23.72
326.601	15.19
326.814	58.2
327.027	56.15
327.24	88.92
327.453	-9.39
327.666	-17.58
327.879	60.24
328.092	41.81
328.305	47.96
328.518	76.63
328.731	15.19
328.944	45.91
329.157	37.72
329.37	25.43
329.583	47.96
329.796	64.34
330.009	31.57
330.222	47.96
330.435	47.96
330.648	29.52
330.861	-25.77
331.073	47.96
331.286	78.68
331.499	52.05
331.712	31.57
331.925	54.1
332.138	41.81
332.35	33.62
332.563	-21.67
332.776	41.81
332.989	-3.24
333.202	25.43
333.414	-23.72
333.627	39.76
333.84	50
334.053	31.57
334.265	90.96
334.478	68.44
334.691	47.96
334.903	15.19
335.116	84.82
335.329	-7.34
335.541	27.48
335.754	19.29
335.966	-40.11
336.179	2.9
336.392	35.67
336.604	37.72
336.817	60.24
337.029	25.43
337.242	25.43
337.454	78.68
337.667	29.52
337.88	74.58
338.092	56.15
338.305	19.29
338.517	47.96
338.729	52.05
338.942	15.19
339.154	7
339.367	-11.43
339.579	37.72
339.792	19.29
340.004	13.14
340.217	45.91
340.429	-11.43
340.641	15.19
340.854	54.1
341.066	45.91
341.278	43.86
341.491	58.2
341.703	88.92
341.915	15.19
342.128	37.72
342.34	45.91
342.552	54.1
342.764	23.38
342.977	64.34
343.189	2.9
343.401	-3.24
343.613	19.29
343.826	17.24
344.038	11.09
344.25	13.14
344.462	62.29
344.674	13.14
344.886	45.91
345.099	66.39
345.311	-52.39
345.523	43.86
345.735	95.06
345.947	13.14
346.159	41.81
346.371	29.52
346.583	11.09
346.795	62.29
347.007	9.05
347.219	103.25
347.431	23.38
347.643	2.9
347.855	-48.3
348.067	64.34
348.279	43.86
348.491	105.3
348.703	45.91
348.915	0.85
349.127	68.44
349.339	33.62
349.551	41.81
349.763	54.1
349.975	-11.43
350.187	41.81
350.399	64.34
350.61	39.76
350.822	17.24
351.034	9.05
351.246	47.96
351.458	148.31
351.669	37.72
351.881	121.68
352.093	56.15
352.305	9.05
352.517	54.1
352.728	11.09
352.94	29.52
353.152	37.72
353.363	9.05
353.575	45.91
353.787	119.64
353.999	88.92
354.21	60.24
354.422	17.24
354.633	41.81
354.845	17.24
355.057	25.43
355.268	-40.11
355.48	37.72
355.692	-1.19
355.903	-31.91
356.115	2.9
356.326	33.62
356.538	17.24
356.749	15.19
356.961	37.72
357.172	21.33
357.384	-27.82
357.595	29.52
357.807	41.81
358.018	29.52
358.23	58.2
358.441	70.48
358.653	-15.53
358.864	39.76
359.075	47.96
359.287	41.81
359.498	84.82
359.709	45.91
359.921	50
360.132	2.9
360.344	37.72
360.555	52.05
360.766	47.96
360.977	56.15
361.189	37.72
361.4	-31.91
361.611	4.95
361.823	60.24
362.034	37.72
362.245	2.9
362.456	115.54
362.667	-29.87
362.879	37.72
363.09	93.01
363.301	154.45
363.512	76.63
363.723	-21.67
363.935	21.33
364.146	21.33
364.357	111.44
364.568	117.59
364.779	35.67
364.99	80.72
365.201	-66.73
365.412	72.53
365.623	31.57
365.834	25.43
366.045	2.9
366.256	50
366.467	4.95
366.678	41.81
366.889	33.62
367.1	45.91
367.311	86.87
367.522	13.14
367.733	70.48
367.944	78.68
368.155	43.86
368.366	136.02
368.577	37.72
368.788	68.44
368.999	54.1
369.209	72.53
369.42	64.34
369.631	52.05
369.842	60.24
370.053	88.92
370.264	17.24
370.474	-7.34
370.685	27.48
370.896	11.09
371.107	66.39
371.317	66.39
371.528	-19.63
371.739	19.29
371.95	35.67
372.16	78.68
372.371	37.72
372.582	-38.06
372.792	86.87
373.003	50
373.214	-19.63
373.424	41.81
373.635	-11.43
373.846	80.72
374.056	-33.96
374.267	9.05
374.477	47.96
374.688	31.57
374.898	2.9
375.109	39.76
375.319	23.38
375.53	80.72
375.74	47.96
375.951	136.02
376.161	11.09
376.372	72.53
376.582	29.52
376.793	15.19
377.003	66.39
377.214	56.15
377.424	23.38
377.635	31.57
377.845	-42.15
378.055	107.35
378.266	15.19
378.476	15.19
378.686	-3.24
378.897	17.24
379.107	-38.06
379.317	54.1
379.528	9.05
379.738	50
379.948	17.24
380.158	58.2
380.369	19.29
380.579	107.35
380.789	17.24
380.999	39.76
381.21	52.05
381.42	123.73
381.63	-9.39
381.84	54.1
382.05	74.58
382.261	88.92
382.471	41.81
382.681	27.48
382.891	76.63
383.101	47.96
383.311	25.43
383.521	-3.24
383.731	25.43
383.941	125.78
384.151	43.86
384.361	103.25
384.571	70.48
384.781	2.9
384.991	47.96
385.201	58.2
385.411	64.34
385.621	113.49
385.831	107.35
386.041	25.43
386.251	72.53
386.461	119.64
386.671	-3.24
386.881	54.1
387.091	-7.34
387.301	107.35
387.511	58.2
387.72	29.52
387.93	93.01
388.14	23.38
388.35	-40.11
388.56	11.09
388.769	43.86
388.979	76.63
389.189	19.29
389.399	4.95
389.609	19.29
389.818	43.86
390.028	156.5
390.238	35.67
390.447	-72.87
390.657	97.11
390.867	60.24
391.076	29.52
391.286	31.57
391.496	35.67
391.705	82.77
391.915	50
392.125	7
392.334	66.39
392.544	50
392.753	45.91
392.963	-3.24
393.172	17.24
393.382	7
393.591	111.44
393.801	39.76
394.01	90.96
394.22	62.29
394.429	97.11
394.639	25.43
394.848	66.39
395.058	29.52
395.267	107.35
395.477	50
395.686	103.25
395.895	72.53
396.105	9.05
396.314	72.53
396.524	56.15
396.733	54.1
396.942	158.55
397.152	54.1
397.361	56.15
397.57	64.34
397.78	74.58
397.989	109.4
398.198	107.35
398.407	111.44
398.617	95.06
398.826	39.76
399.035	88.92
399.244	111.44
399.453	50
399.663	95.06
399.872	201.55
400.081	64.34
400.29	162.64
400.499	95.06
400.708	129.88
400.917	70.48
401.127	90.96
401.336	74.58
401.545	189.27
401.754	115.54
401.963	115.54
402.172	88.92
402.381	95.06
402.59	76.63
402.799	138.07
403.008	170.83
403.217	140.12
403.426	101.2
403.635	111.44
403.844	107.35
404.053	142.16
404.262	142.16
404.471	183.12
404.68	136.02
404.888	219.99
405.097	138.07
405.306	144.21
405.515	234.32
405.724	95.06
405.933	199.51
406.142	90.96
406.35	181.07
406.559	107.35
406.768	43.86
406.977	191.31
407.185	109.4
407.394	170.83
407.603	117.59
407.812	236.37
408.02	234.32
408.229	265.04
408.438	185.17
408.646	209.75
408.855	189.27
409.064	303.95
409.272	246.61
409.481	275.28
409.69	283.47
409.898	217.94
410.107	297.81
410.315	297.81
410.524	258.9
410.733	328.53
410.941	299.86
411.15	312.14
411.358	320.34
411.567	353.1
411.775	398.16
411.984	353.1
412.192	445.26
412.401	379.73
412.609	537.42
412.818	418.64
413.026	447.31
413.234	529.23
413.443	369.49
413.651	432.97
413.86	533.33
414.068	615.24
414.276	527.18
414.485	588.62
414.693	600.91
414.901	621.39
415.11	568.14
415.318	633.68
415.526	635.72
415.734	684.87
415.943	740.17
416.151	787.27
416.359	813.9
416.567	795.47
416.776	799.56
416.984	836.42
417.192	942.92
417.4	934.73
417.608	881.48
417.817	936.78
418.025	1067.85
418.233	1020.74
418.441	1037.13
418.649	1133.38
418.857	1280.83
419.065	1131.33
419.273	1164.1
419.481	1231.68
419.689	1250.11
419.897	1358.66
420.105	1428.29
420.313	1428.29
420.521	1495.87
420.729	1477.44
420.937	1581.89
421.145	1641.28
421.353	1700.67
421.561	1876.79
421.769	1833.79
421.977	1872.7
422.185	1882.94
422.393	2032.44
422.601	2102.07
422.809	2108.21
423.017	2163.51
423.224	2200.37
423.432	2253.62
423.64	2292.53
423.848	2474.8
424.056	2317.11
424.263	2593.58
424.471	2601.77
424.679	2634.54
424.887	2837.29
425.094	2876.2
425.302	2829.1
425.51	3128.1
425.718	3128.1
425.925	3207.97
426.133	3226.4
426.341	3363.62
426.548	3418.91
426.756	3636
426.964	3633.95
427.171	3865.37
427.379	4051.74
427.586	3822.36
427.794	4016.92
428.001	4301.59
428.209	4657.93
428.417	4430.61
428.624	4786.96
428.832	4733.71
429.039	4619.02
429.247	4942.6
429.454	5149.45
429.662	5413.63
429.869	5169.93
430.076	5542.66
430.284	5462.79
430.491	5731.07
430.699	6003.45
430.906	5901.05
431.114	5948.15
431.321	6259.45
431.528	6281.97
431.736	6710
431.943	7164.65
432.15	6892.27
432.358	6916.84
432.565	7500.51
432.772	7357.16
432.979	7762.65
433.187	7883.49
433.394	7811.81
433.601	8321.75
433.808	8530.64
434.016	8444.63
434.223	8725.2
434.43	9159.37
434.637	9368.26
434.844	9513.67
435.052	9765.57
435.259	9659.07
435.466	9745.09
435.673	9581.25
435.88	10379.96
436.087	10932.91
436.294	11020.97
436.501	10586.8
436.708	10906.29
436.915	11201.19
437.122	11578.02
437.329	11858.59
437.537	12085.92
437.743	12237.47
437.95	12159.64
438.157	12839.57
438.364	13144.72
438.571	13220.49
438.778	13458.06
438.985	14606.97
439.192	13775.49
439.399	14342.78
439.606	14160.51
439.813	14959.22
440.02	15866.47
440.227	15684.2
440.433	15301.23
440.64	15848.04
440.847	15888.99
441.054	16204.38
441.261	17144.4
441.467	17039.95
441.674	17185.36
441.881	17750.6
442.088	17930.82
442.294	17766.98
442.501	18485.82
442.708	18516.54
442.914	19483.18
443.121	20150.82
443.328	19608.11
443.534	20933.14
443.741	20513.31
443.948	19776.04
444.154	21723.66
444.361	21463.57
444.568	21711.37
444.774	21758.47
444.981	21881.35
445.187	22430.21
445.394	23407.09
445.6	23087.61
445.807	25631.18
446.013	24320.48
446.22	24664.54
446.426	25610.7
446.633	25661.9
446.839	26667.45
447.046	25375.19
447.252	27144.63
447.459	26956.22
447.665	26878.4
447.871	28164.52
448.078	29272.47
448.284	27978.15
448.491	28748.19
448.697	29565.33
448.903	30392.71
449.11	30173.58
449.316	29737.36
449.522	30392.71
449.728	31164.79
449.935	31168.89
450.141	31232.38
450.347	31777.14
450.553	31062.4
450.76	31394.17
450.966	32190.83
451.172	31895.92
451.378	32801.12
451.584	32381.29
451.791	32776.55
451.997	32684.39
452.203	33390.94
452.409	33288.54
452.615	33233.24
452.821	31707.51
453.027	32018.8
453.233	33325.4
453.44	31893.87
453.646	32174.44
453.852	32063.85
454.058	32995.68
454.264	31924.59
454.47	32350.57
454.676	31558
454.882	32489.83
455.088	30001.55
455.294	30185.86
455.5	30531.97
455.705	31023.48
455.911	29796.75
456.117	28995.99
456.323	28590.5
456.529	27046.33
456.735	28375.46
456.941	27568.56
457.147	27062.71
457.352	26026.44
457.558	25774.54
457.764	26274.24
457.97	25610.7
458.176	25090.52
458.381	25289.17
458.587	23779.82
458.793	23644.65
458.999	22465.02
459.204	24107.49
459.41	23386.61
459.616	21983.75
459.821	21969.41
460.027	21950.98
460.233	21529.1
460.438	20288.03
460.644	20718.11
460.85	19546.67
461.055	19247.66
461.261	19415.6
461.466	17873.48
461.672	17132.11
461.878	18518.59
462.083	17529.42
462.289	17097.3
462.494	16980.56
462.7	16151.13
462.905	15639.14
463.111	16409.18
463.316	16433.75
463.522	16222.81
463.727	15886.95
463.932	15950.43
464.138	15696.49
464.343	15725.16
464.549	15370.86
464.754	15923.81
464.959	15776.36
465.165	15682.15
465.37	15172.21
465.575	14545.53
465.781	15159.92
465.986	15379.05
466.191	14850.67
466.397	14441.08
466.602	13462.15
466.807	14379.64
467.012	14166.65
467.218	14277.24
467.423	13990.53
467.628	14299.77
467.833	14631.54
468.038	14078.59
468.244	13826.69
468.449	14404.22
468.654	13701.76
468.859	13640.33
469.064	13642.37
