Data from USB4F104151__123__11-07-30-816.txt Node

Date: Wed Mar 12 11:07:30 EDT 2025
User: louis
Spectrometer: USB4F10415
Trigger mode: 4
Integration Time (sec): 2.000000E-2
Scans to average: 1
Electric dark correction enabled: true
Nonlinearity correction enabled: false
Boxcar width: 0
XAxis mode: Wavelengths
Number of Pixels in Spectrum: 3648
>>>>>Begin Spectral Data<<<<<
178.204	-99.16
178.424	-99.16
178.644	-99.16
178.864	-80.72
179.084	-54.1
179.304	-19.29
179.524	15.53
179.744	-54.1
179.964	56.49
180.184	9.39
180.404	-7
180.624	-9.05
180.844	-27.48
181.064	-4.95
181.283	-13.14
181.503	-15.19
181.723	68.78
181.943	11.43
182.163	23.72
182.383	-9.05
182.602	54.44
182.822	-37.72
183.042	-17.24
183.262	-27.48
183.482	33.96
183.701	21.67
183.921	7.34
184.141	-45.91
184.361	15.53
184.58	48.3
184.8	21.67
185.02	23.72
185.239	60.59
185.459	1.19
185.679	5.29
185.898	58.54
186.118	-45.91
186.338	52.39
186.557	42.15
186.777	36.01
186.997	70.83
187.216	15.53
187.436	44.2
187.655	48.3
187.875	31.91
188.095	-17.24
188.314	91.31
188.534	44.2
188.753	3.24
188.973	29.87
189.192	60.59
189.412	48.3
189.631	1.19
189.851	38.06
190.07	66.73
190.29	-17.24
190.509	68.78
190.729	15.53
190.948	76.97
191.168	111.78
191.387	76.97
191.607	-19.29
191.826	60.59
192.045	19.63
192.265	36.01
192.484	-2.9
192.704	7.34
192.923	5.29
193.142	72.87
193.362	29.87
193.581	87.21
193.8	95.4
194.02	33.96
194.239	-23.38
194.458	42.15
194.678	-29.52
194.897	-2.9
195.116	31.91
195.335	48.3
195.555	-41.81
195.774	-11.09
195.993	87.21
196.212	70.83
196.432	27.82
196.651	-21.33
196.87	21.67
197.089	91.31
197.308	19.63
197.528	-0.85
197.747	3.24
197.966	27.82
198.185	52.39
198.404	64.68
198.623	21.67
198.842	68.78
199.062	23.72
199.281	-29.52
199.5	-11.09
199.719	-2.9
199.938	13.48
200.157	58.54
200.376	29.87
200.595	-17.24
200.814	-39.76
201.033	5.29
201.252	42.15
201.471	42.15
201.69	5.29
201.909	44.2
202.128	93.35
202.347	27.82
202.566	15.53
202.785	19.63
203.004	-0.85
203.223	72.87
203.442	-31.57
203.661	-2.9
203.879	19.63
204.098	99.5
204.317	36.01
204.536	74.92
204.755	-9.05
204.974	56.49
205.193	25.77
205.411	136.36
205.63	-33.62
205.849	7.34
206.068	-19.29
206.287	33.96
206.505	13.48
206.724	3.24
206.943	97.45
207.162	64.68
207.381	46.25
207.599	95.4
207.818	60.59
208.037	72.87
208.255	-0.85
208.474	19.63
208.693	-11.09
208.911	-13.14
209.13	-35.67
209.349	-7
209.567	54.44
209.786	64.68
210.005	23.72
210.223	109.74
210.442	-17.24
210.661	87.21
210.879	3.24
211.098	105.64
211.316	17.58
211.535	19.63
211.753	38.06
211.972	27.82
212.191	-11.09
212.409	1.19
212.628	50.35
212.846	11.43
213.065	40.11
213.283	23.72
213.502	79.02
213.72	21.67
213.938	109.74
214.157	-7
214.375	36.01
214.594	-25.43
214.812	15.53
215.031	15.53
215.249	21.67
215.467	5.29
215.686	44.2
215.904	93.35
216.122	-4.95
216.341	76.97
216.559	-0.85
216.778	76.97
216.996	91.31
217.214	50.35
217.432	-0.85
217.651	27.82
217.869	68.78
218.087	64.68
218.306	56.49
218.524	105.64
218.742	19.63
218.96	25.77
219.179	21.67
219.397	23.72
219.615	58.54
219.833	-4.95
220.051	36.01
220.27	60.59
220.488	81.07
220.706	-0.85
220.924	95.4
221.142	-13.14
221.36	64.68
221.578	40.11
221.796	7.34
222.015	3.24
222.233	74.92
222.451	72.87
222.669	-13.14
222.887	62.63
223.105	68.78
223.323	109.74
223.541	-25.43
223.759	36.01
223.977	-13.14
224.195	128.17
224.413	70.83
224.631	103.59
224.849	-9.05
225.067	17.58
225.285	-25.43
225.503	79.02
225.721	40.11
225.939	89.26
226.157	40.11
226.375	36.01
226.592	48.3
226.81	9.39
227.028	-11.09
227.246	29.87
227.464	66.73
227.682	68.78
227.9	91.31
228.117	11.43
228.335	81.07
228.553	1.19
228.771	58.54
228.989	15.53
229.206	50.35
229.424	17.58
229.642	31.91
229.86	17.58
230.077	40.11
230.295	27.82
230.513	44.2
230.731	38.06
230.948	52.39
231.166	21.67
231.384	-52.05
231.601	-31.57
231.819	64.68
232.037	50.35
232.254	29.87
232.472	72.87
232.689	-4.95
232.907	126.12
233.125	11.43
233.342	15.53
233.56	-17.24
233.777	97.45
233.995	9.39
234.213	44.2
234.43	-29.52
234.648	15.53
234.865	31.91
235.083	79.02
235.3	42.15
235.518	11.43
235.735	68.78
235.953	23.72
236.17	-19.29
236.388	76.97
236.605	19.63
236.822	15.53
237.04	23.72
237.257	21.67
237.475	-4.95
237.692	109.74
237.909	113.83
238.127	9.39
238.344	13.48
238.562	11.43
238.779	15.53
238.996	31.91
239.214	31.91
239.431	68.78
239.648	42.15
239.865	3.24
240.083	68.78
240.3	44.2
240.517	17.58
240.735	42.15
240.952	23.72
241.169	-4.95
241.386	48.3
241.603	33.96
241.821	54.44
242.038	27.82
242.255	52.39
242.472	19.63
242.689	23.72
242.907	95.4
243.124	7.34
243.341	66.73
243.558	72.87
243.775	-37.72
243.992	44.2
244.209	68.78
244.426	111.78
244.643	83.11
244.86	58.54
245.078	36.01
245.295	93.35
245.512	38.06
245.729	31.91
245.946	60.59
246.163	62.63
246.38	42.15
246.597	-19.29
246.814	46.25
247.031	74.92
247.248	79.02
247.464	-0.85
247.681	-19.29
247.898	3.24
248.115	56.49
248.332	-27.48
248.549	76.97
248.766	36.01
248.983	9.39
249.2	46.25
249.417	23.72
249.633	36.01
249.85	31.91
250.067	38.06
250.284	101.55
250.501	46.25
250.717	68.78
250.934	-41.81
251.151	74.92
251.368	3.24
251.585	64.68
251.801	79.02
252.018	19.63
252.235	68.78
252.451	9.39
252.668	-25.43
252.885	56.49
253.102	85.16
253.318	33.96
253.535	-52.05
253.752	11.43
253.968	-7
254.185	38.06
254.401	29.87
254.618	76.97
254.835	-9.05
255.051	95.4
255.268	72.87
255.484	15.53
255.701	11.43
255.917	50.35
256.134	33.96
256.351	74.92
256.567	19.63
256.784	93.35
257	50.35
257.217	95.4
257.433	29.87
257.65	70.83
257.866	15.53
258.082	36.01
258.299	-4.95
258.515	68.78
258.732	109.74
258.948	42.15
259.165	29.87
259.381	3.24
259.597	48.3
259.814	52.39
260.03	-2.9
260.246	58.54
260.463	97.45
260.679	68.78
260.895	-33.62
261.112	111.78
261.328	64.68
261.544	46.25
261.761	44.2
261.977	17.58
262.193	23.72
262.409	31.91
262.626	95.4
262.842	103.59
263.058	50.35
263.274	132.26
263.49	-21.33
263.707	31.91
263.923	89.26
264.139	62.63
264.355	91.31
264.571	7.34
264.787	-64.34
265.004	62.63
265.22	19.63
265.436	62.63
265.652	25.77
265.868	46.25
266.084	44.2
266.3	48.3
266.516	54.44
266.732	117.93
266.948	-29.52
267.164	-0.85
267.38	19.63
267.596	68.78
267.812	95.4
268.028	19.63
268.244	48.3
268.46	48.3
268.676	27.82
268.892	62.63
269.108	11.43
269.324	95.4
269.54	44.2
269.756	40.11
269.972	15.53
270.188	-2.9
270.403	83.11
270.619	64.68
270.835	64.68
271.051	11.43
271.267	81.07
271.483	83.11
271.698	97.45
271.914	-58.2
272.13	93.35
272.346	64.68
272.562	-11.09
272.777	42.15
272.993	44.2
273.209	66.73
273.425	38.06
273.64	-25.43
273.856	62.63
274.072	3.24
274.287	42.15
274.503	68.78
274.719	58.54
274.934	54.44
275.15	23.72
275.366	87.21
275.581	13.48
275.797	117.93
276.012	56.49
276.228	23.72
276.444	105.64
276.659	60.59
276.875	3.24
277.09	5.29
277.306	23.72
277.521	97.45
277.737	11.43
277.952	52.39
278.168	-19.29
278.383	50.35
278.599	33.96
278.814	66.73
279.03	1.19
279.245	15.53
279.461	23.72
279.676	42.15
279.892	31.91
280.107	33.96
280.322	7.34
280.538	38.06
280.753	23.72
280.969	56.49
281.184	89.26
281.399	44.2
281.615	36.01
281.83	21.67
282.045	17.58
282.26	74.92
282.476	68.78
282.691	128.17
282.906	44.2
283.122	31.91
283.337	3.24
283.552	122.02
283.767	81.07
283.983	109.74
284.198	-2.9
284.413	50.35
284.628	15.53
284.843	11.43
285.058	11.43
285.274	25.77
285.489	-50
285.704	52.39
285.919	56.49
286.134	87.21
286.349	19.63
286.564	64.68
286.779	46.25
286.995	99.5
287.21	17.58
287.425	31.91
287.64	72.87
287.855	36.01
288.07	-2.9
288.285	33.96
288.5	93.35
288.715	-2.9
288.93	36.01
289.145	115.88
289.36	68.78
289.575	48.3
289.79	89.26
290.004	-9.05
290.219	60.59
290.434	7.34
290.649	38.06
290.864	38.06
291.079	25.77
291.294	48.3
291.509	107.69
291.724	38.06
291.938	62.63
292.153	48.3
292.368	33.96
292.583	21.67
292.798	66.73
293.012	79.02
293.227	83.11
293.442	-4.95
293.657	83.11
293.871	74.92
294.086	3.24
294.301	46.25
294.516	119.98
294.73	27.82
294.945	11.43
295.16	31.91
295.374	81.07
295.589	38.06
295.804	87.21
296.018	97.45
296.233	3.24
296.447	99.5
296.662	-9.05
296.877	40.11
297.091	40.11
297.306	-4.95
297.52	42.15
297.735	72.87
297.949	66.73
298.164	99.5
298.378	115.88
298.593	27.82
298.807	97.45
299.022	3.24
299.236	58.54
299.451	23.72
299.665	7.34
299.88	40.11
300.094	81.07
300.309	70.83
300.523	31.91
300.737	76.97
300.952	101.55
301.166	70.83
301.381	-0.85
301.595	9.39
301.809	105.64
302.024	-7
302.238	83.11
302.452	68.78
302.667	25.77
302.881	66.73
303.095	81.07
303.309	1.19
303.524	40.11
303.738	13.48
303.952	-15.19
304.166	68.78
304.381	-33.62
304.595	111.78
304.809	115.88
305.023	87.21
305.237	9.39
305.452	60.59
305.666	33.96
305.88	68.78
306.094	74.92
306.308	38.06
306.522	122.02
306.736	40.11
306.95	23.72
307.164	44.2
307.379	50.35
307.593	79.02
307.807	76.97
308.021	99.5
308.235	154.79
308.449	13.48
308.663	58.54
308.877	122.02
309.091	111.78
309.305	33.96
309.519	-0.85
309.733	-4.95
309.947	54.44
310.161	101.55
310.374	62.63
310.588	42.15
310.802	-0.85
311.016	13.48
311.23	-33.62
311.444	44.2
311.658	38.06
311.872	-2.9
312.085	17.58
312.299	85.16
312.513	17.58
312.727	91.31
312.941	3.24
313.154	27.82
313.368	48.3
313.582	64.68
313.796	56.49
314.009	3.24
314.223	54.44
314.437	7.34
314.651	50.35
314.864	38.06
315.078	21.67
315.292	15.53
315.505	23.72
315.719	60.59
315.933	31.91
316.146	89.26
316.36	66.73
316.573	64.68
316.787	31.91
317.001	85.16
317.214	85.16
317.428	76.97
317.641	79.02
317.855	-31.57
318.068	101.55
318.282	29.87
318.495	23.72
318.709	21.67
318.922	31.91
319.136	66.73
319.349	89.26
319.563	21.67
319.776	40.11
319.99	33.96
320.203	81.07
320.417	-11.09
320.63	23.72
320.843	68.78
321.057	11.43
321.27	148.65
321.483	72.87
321.697	109.74
321.91	89.26
322.124	74.92
322.337	54.44
322.55	31.91
322.763	48.3
322.977	-9.05
323.19	52.39
323.403	72.87
323.617	15.53
323.83	19.63
324.043	-45.91
324.256	117.93
324.469	-13.14
324.683	97.45
324.896	52.39
325.109	13.48
325.322	-13.14
325.535	-0.85
325.748	56.49
325.962	48.3
326.175	126.12
326.388	54.44
326.601	-2.9
326.814	89.26
327.027	15.53
327.24	91.31
327.453	3.24
327.666	99.5
327.879	56.49
328.092	68.78
328.305	38.06
328.518	99.5
328.731	48.3
328.944	23.72
329.157	56.49
329.37	29.87
329.583	40.11
329.796	91.31
330.009	23.72
330.222	-2.9
330.435	44.2
330.648	3.24
330.861	-37.72
331.073	9.39
331.286	46.25
331.499	64.68
331.712	36.01
331.925	58.54
332.138	89.26
332.35	33.96
332.563	17.58
332.776	105.64
332.989	17.58
333.202	97.45
333.414	101.55
333.627	-21.33
333.84	3.24
334.053	140.46
334.265	-4.95
334.478	15.53
334.691	29.87
334.903	62.63
335.116	64.68
335.329	58.54
335.541	50.35
335.754	99.5
335.966	3.24
336.179	1.19
336.392	72.87
336.604	-13.14
336.817	54.44
337.029	38.06
337.242	13.48
337.454	-25.43
337.667	103.59
337.88	54.44
338.092	140.46
338.305	-0.85
338.517	-29.52
338.729	56.49
338.942	66.73
339.154	76.97
339.367	15.53
339.579	81.07
339.792	64.68
340.004	70.83
340.217	31.91
340.429	74.92
340.641	13.48
340.854	-13.14
341.066	103.59
341.278	97.45
341.491	87.21
341.703	111.78
341.915	21.67
342.128	50.35
342.34	31.91
342.552	89.26
342.764	68.78
342.977	60.59
343.189	124.07
343.401	56.49
343.613	23.72
343.826	13.48
344.038	23.72
344.25	144.55
344.462	66.73
344.674	99.5
344.886	83.11
345.099	38.06
345.311	72.87
345.523	40.11
345.735	111.78
345.947	150.7
346.159	105.64
346.371	85.16
346.583	17.58
346.795	79.02
347.007	-27.48
347.219	103.59
347.431	89.26
347.643	46.25
347.855	97.45
348.067	148.65
348.279	50.35
348.491	46.25
348.703	99.5
348.915	103.59
349.127	-17.24
349.339	111.78
349.551	62.63
349.763	97.45
349.975	81.07
350.187	87.21
350.399	95.4
350.61	31.91
350.822	72.87
351.034	72.87
351.246	23.72
351.458	54.44
351.669	46.25
351.881	87.21
352.093	79.02
352.305	17.58
352.517	74.92
352.728	122.02
352.94	48.3
353.152	124.07
353.363	33.96
353.575	19.63
353.787	101.55
353.999	58.54
354.21	105.64
354.422	-43.86
354.633	81.07
354.845	27.82
355.057	-7
355.268	162.98
355.48	-25.43
355.692	27.82
355.903	-11.09
356.115	66.73
356.326	15.53
356.538	36.01
356.749	56.49
356.961	124.07
357.172	40.11
357.384	42.15
357.595	83.11
357.807	93.35
358.018	36.01
358.23	44.2
358.441	60.59
358.653	85.16
358.864	-0.85
359.075	122.02
359.287	68.78
359.498	158.89
359.709	99.5
359.921	56.49
360.132	85.16
360.344	72.87
360.555	62.63
360.766	74.92
360.977	-13.14
361.189	56.49
361.4	15.53
361.611	107.69
361.823	89.26
362.034	56.49
362.245	25.77
362.456	48.3
362.667	70.83
362.879	79.02
363.09	52.39
363.301	1.19
363.512	62.63
363.723	3.24
363.935	31.91
364.146	64.68
364.357	117.93
364.568	89.26
364.779	42.15
364.99	76.97
365.201	-2.9
365.412	113.83
365.623	40.11
365.834	122.02
366.045	81.07
366.256	87.21
366.467	76.97
366.678	79.02
366.889	60.59
367.1	56.49
367.311	44.2
367.522	-2.9
367.733	50.35
367.944	162.98
368.155	70.83
368.366	9.39
368.577	99.5
368.788	117.93
368.999	64.68
369.209	66.73
369.42	138.41
369.631	68.78
369.842	117.93
370.053	44.2
370.264	160.94
370.474	89.26
370.685	103.59
370.896	76.97
371.107	58.54
371.317	89.26
371.528	79.02
371.739	81.07
371.95	66.73
372.16	50.35
372.371	76.97
372.582	36.01
372.792	56.49
373.003	56.49
373.214	46.25
373.424	36.01
373.635	81.07
373.846	142.5
374.056	66.73
374.267	70.83
374.477	85.16
374.688	50.35
374.898	38.06
375.109	160.94
375.319	85.16
375.53	148.65
375.74	101.55
375.951	68.78
376.161	76.97
376.372	136.36
376.582	81.07
376.793	105.64
377.003	3.24
377.214	97.45
377.424	54.44
377.635	-7
377.845	21.67
378.055	111.78
378.266	27.82
378.476	79.02
378.686	58.54
378.897	54.44
379.107	42.15
379.317	115.88
379.528	103.59
379.738	76.97
379.948	15.53
380.158	46.25
380.369	76.97
380.579	62.63
380.789	-0.85
380.999	85.16
381.21	107.69
381.42	97.45
381.63	21.67
381.84	76.97
382.05	44.2
382.261	38.06
382.471	111.78
382.681	13.48
382.891	87.21
383.101	85.16
383.311	54.44
383.521	79.02
383.731	142.5
383.941	85.16
384.151	109.74
384.361	42.15
384.571	15.53
384.781	107.69
384.991	134.31
385.201	126.12
385.411	36.01
385.621	132.26
385.831	-9.05
386.041	154.79
386.251	-15.19
386.461	101.55
386.671	56.49
386.881	109.74
387.091	103.59
387.301	101.55
387.511	56.49
387.72	89.26
387.93	93.35
388.14	-2.9
388.35	83.11
388.56	152.74
388.769	60.59
388.979	42.15
389.189	128.17
389.399	44.2
389.609	58.54
389.818	117.93
390.028	85.16
390.238	119.98
390.447	124.07
390.657	89.26
390.867	74.92
391.076	79.02
391.286	150.7
391.496	109.74
391.705	99.5
391.915	175.27
392.125	17.58
392.334	56.49
392.544	93.35
392.753	158.89
392.963	117.93
393.172	115.88
393.382	44.2
393.591	115.88
393.801	87.21
394.01	146.6
394.22	95.4
394.429	87.21
394.639	81.07
394.848	124.07
395.058	99.5
395.267	144.55
395.477	142.5
395.686	154.79
395.895	179.37
396.105	115.88
396.314	89.26
396.524	111.78
396.733	72.87
396.942	150.7
397.152	105.64
397.361	74.92
397.57	171.18
397.78	103.59
397.989	179.37
398.198	195.75
398.407	81.07
398.617	105.64
398.826	76.97
399.035	126.12
399.244	87.21
399.453	175.27
399.663	152.74
399.872	109.74
400.081	124.07
400.29	138.41
400.499	134.31
400.708	214.18
400.917	146.6
401.127	132.26
401.336	148.65
401.545	179.37
401.754	218.28
401.963	171.18
402.172	154.79
402.381	99.5
402.59	93.35
402.799	152.74
403.008	158.89
403.217	130.22
403.426	158.89
403.635	195.75
403.844	144.55
404.053	140.46
404.262	160.94
404.471	195.75
404.68	150.7
404.888	240.81
405.097	165.03
405.306	242.85
405.515	257.19
405.724	257.19
405.933	253.09
406.142	187.56
406.35	281.77
406.559	281.77
406.768	201.9
406.977	312.49
407.185	251.05
407.394	330.92
407.603	275.62
407.812	349.35
408.02	345.25
408.229	275.62
408.438	380.07
408.646	296.1
408.855	337.06
409.064	375.97
409.272	380.07
409.481	408.74
409.69	388.26
409.898	404.64
410.107	421.03
410.315	384.16
410.524	418.98
410.733	537.76
410.941	457.89
411.15	513.19
411.358	574.63
411.567	558.24
411.775	593.06
411.984	502.95
412.192	504.99
412.401	617.63
412.609	674.98
412.818	691.36
413.026	650.4
413.234	687.26
413.443	742.56
413.651	713.89
413.86	699.55
414.068	828.57
414.276	828.57
414.485	765.09
414.693	842.91
414.901	830.62
415.11	955.55
415.318	967.84
415.526	1023.13
415.734	1045.66
415.943	1021.08
416.151	1037.47
416.359	1127.58
416.567	1158.3
416.776	1184.92
416.984	1336.47
417.192	1287.32
417.4	1383.57
417.608	1350.81
417.817	1449.11
418.025	1412.25
418.233	1508.5
418.441	1522.84
418.649	1614.99
418.857	1776.78
419.065	1813.65
419.273	1809.55
419.481	1809.55
419.689	2057.36
419.897	2079.88
420.105	2260.1
420.313	2135.18
420.521	2225.29
420.729	2264.2
420.937	2321.54
421.145	2274.44
421.353	2516.1
421.561	2694.27
421.769	2559.11
421.977	2798.72
422.185	2894.97
422.393	3013.76
422.601	3284.09
422.809	3054.72
423.017	3183.74
423.224	3157.11
423.432	3409.01
423.64	3372.15
423.848	3697.78
424.056	3658.87
424.263	3863.66
424.471	3990.64
424.679	3998.83
424.887	4166.76
425.094	4150.38
425.302	4254.83
425.51	4398.18
425.718	4721.76
425.925	4695.14
426.133	4953.18
426.341	5289.05
426.548	5518.42
426.756	5360.73
426.964	5477.46
427.171	5829.71
427.379	5874.77
427.586	5882.96
427.794	6222.92
428.001	6472.78
428.209	6747.2
428.417	6618.18
428.624	6968.38
428.832	7316.54
429.039	7105.6
429.247	7119.93
429.454	7830.58
429.662	8326.19
429.869	7789.62
430.076	8285.23
430.284	7984.18
430.491	8459.31
430.699	8899.62
430.906	9030.69
431.114	9022.5
431.321	9485.34
431.528	9575.45
431.736	10279.95
431.943	10726.41
432.15	10191.89
432.358	10290.19
432.565	10931.2
432.772	11017.22
432.979	11578.36
433.187	11580.41
433.394	11641.85
433.601	12671.98
433.808	12563.43
434.016	12479.47
434.223	13018.08
434.43	14021.59
434.637	13521.88
434.844	14343.12
435.052	14617.55
435.259	14650.32
435.466	14877.64
435.673	14656.46
435.88	15666.11
436.087	16425.9
436.294	16466.86
436.501	15956.92
436.708	16260.02
436.915	16978.86
437.122	17492.9
437.329	17468.32
437.537	18097.05
437.743	18592.65
437.95	18166.68
438.157	19256.2
438.364	19788.67
438.571	19792.76
438.778	19860.35
438.985	21957.47
439.192	21017.45
439.399	21631.84
439.606	21283.69
439.813	22512.47
440.02	24062.78
440.227	23290.7
440.433	22973.26
440.64	24077.12
440.847	23556.93
441.054	24273.72
441.261	25715.49
441.467	25565.99
441.674	25807.65
441.881	27044.62
442.088	26952.46
442.294	26567.45
442.501	27613.96
442.708	27939.58
442.914	28846.83
443.121	30180.06
443.328	29588.2
443.534	31408.84
443.741	30749.4
443.948	30118.62
444.154	32527.03
444.361	32078.53
444.568	32379.58
444.774	32322.24
444.981	32699.06
445.187	33591.98
445.394	35109.52
445.6	34738.84
445.807	37823.08
446.013	35881.61
446.22	37190.26
446.426	38134.37
446.633	38527.58
446.839	40268.36
447.046	38339.17
447.252	40475.2
447.459	40467.01
447.665	40456.77
447.871	41980.46
448.078	43557.39
448.284	41724.46
448.491	42770.97
448.697	44378.63
448.903	44827.13
449.11	45220.34
449.316	44317.19
449.522	45257.21
449.728	46481.89
449.935	46289.38
450.141	46555.62
450.347	47794.64
450.553	46156.27
450.76	46643.68
450.966	48226.76
451.172	47632.85
451.378	48447.94
451.584	47718.87
451.791	48902.59
451.997	48464.33
452.203	49508.79
452.409	49330.62
452.615	49297.85
452.821	46971.36
453.027	46907.87
453.233	49291.71
453.44	47356.38
453.646	47503.83
453.852	48155.08
454.058	48488.9
454.264	47034.84
454.47	48060.88
454.676	46832.1
454.882	48196.04
455.088	44653.06
455.294	44802.56
455.5	45570.55
455.705	45754.86
455.911	44081.67
456.117	43469.33
456.323	42648.1
456.529	40278.6
456.735	42224.17
456.941	41181.75
457.147	40340.04
457.352	39236.18
457.558	38941.27
457.764	38597.21
457.97	37896.81
458.176	37290.61
458.381	36901.5
458.587	35324.56
458.793	35486.35
458.999	33432.24
459.204	36059.78
459.41	35328.66
459.616	32670.39
459.821	32864.95
460.027	32869.05
460.233	31681.22
460.438	30071.52
460.644	30882.52
460.85	29448.94
461.055	29102.83
461.261	28850.93
461.466	26512.15
461.672	26002.21
461.878	27927.3
462.083	25824.03
462.289	25699.11
462.494	25525.03
462.7	24515.38
462.905	23354.18
463.111	24177.47
463.316	24140.6
463.522	23982.91
463.727	23599.94
463.932	23898.94
464.138	23610.18
464.343	23673.67
464.549	22784.85
464.754	23618.37
464.959	23415.62
465.165	22944.59
465.37	22598.48
465.575	22012.76
465.781	22770.51
465.986	22752.08
466.191	22041.43
466.397	21726.05
466.602	20407.16
466.807	21420.9
467.012	21384.04
467.218	21220.2
