Data from USB4F104151__132__11-07-47-580.txt Node

Date: Wed Mar 12 11:07:47 EDT 2025
User: louis
Spectrometer: USB4F10415
Trigger mode: 4
Integration Time (sec): 2.000000E-2
Scans to average: 1
Electric dark correction enabled: true
Nonlinearity correction enabled: false
Boxcar width: 0
XAxis mode: Wavelengths
Number of Pixels in Spectrum: 3648
>>>>>Begin Spectral Data<<<<<
178.204	-41.13
178.424	-41.13
178.644	-41.13
178.864	-100.52
179.084	-45.23
179.304	-26.79
179.524	16.21
179.744	46.93
179.964	18.26
180.184	10.07
180.404	14.17
180.624	-12.46
180.844	-49.32
181.064	-18.6
181.283	1.88
181.503	3.93
181.723	-4.27
181.943	-12.46
182.163	3.93
182.383	-59.56
182.602	59.22
182.822	22.36
183.042	10.07
183.262	-26.79
183.482	-4.27
183.701	-0.17
183.921	-10.41
184.141	-61.61
184.361	85.84
184.58	10.07
184.8	5.97
185.02	-2.22
185.239	-4.27
185.459	5.97
185.679	69.46
185.898	-53.42
186.118	-84.14
186.338	3.93
186.557	81.75
186.777	-26.79
186.997	-28.84
187.216	67.41
187.436	18.26
187.655	30.55
187.875	5.97
188.095	30.55
188.314	36.69
188.534	44.88
188.753	5.97
188.973	12.12
189.192	-20.65
189.412	10.07
189.631	-2.22
189.851	-39.08
190.07	-18.6
190.29	10.07
190.509	8.02
190.729	-77.99
190.948	44.88
191.168	38.74
191.387	-16.55
191.607	-28.84
191.826	57.17
192.045	-26.79
192.265	3.93
192.484	61.27
192.704	-51.37
192.923	12.12
193.142	79.7
193.362	53.08
193.581	69.46
193.8	51.03
194.02	38.74
194.239	26.45
194.458	12.12
194.678	18.26
194.897	-2.22
195.116	16.21
195.335	-26.79
195.555	32.6
195.774	34.64
195.993	-22.7
196.212	18.26
196.432	-4.27
196.651	1.88
196.87	20.31
197.089	61.27
197.308	10.07
197.528	-51.37
197.747	-22.7
197.966	-41.13
198.185	71.51
198.404	24.4
198.623	38.74
198.842	28.5
199.062	12.12
199.281	-0.17
199.5	-16.55
199.719	38.74
199.938	38.74
200.157	-6.31
200.376	69.46
200.595	20.31
200.814	38.74
201.033	-0.17
201.252	12.12
201.471	18.26
201.69	16.21
201.909	5.97
202.128	-47.27
202.347	-20.65
202.566	26.45
202.785	-37.03
203.004	38.74
203.223	-12.46
203.442	38.74
203.661	8.02
203.879	-75.95
204.098	24.4
204.317	14.17
204.536	12.12
204.755	40.79
204.974	-22.7
205.193	-39.08
205.411	12.12
205.63	28.5
205.849	104.28
206.068	20.31
206.287	30.55
206.505	30.55
206.724	-20.65
206.943	26.45
207.162	-10.41
207.381	-4.27
207.599	32.6
207.818	18.26
208.037	-0.17
208.255	28.5
208.474	-55.47
208.693	40.79
208.911	69.46
209.13	32.6
209.349	26.45
209.567	14.17
209.786	91.99
210.005	-4.27
210.223	5.97
210.442	-26.79
210.661	38.74
210.879	63.32
211.098	53.08
211.316	14.17
211.535	57.17
211.753	-14.51
211.972	77.65
212.191	-8.36
212.409	30.55
212.628	-0.17
212.846	-28.84
213.065	59.22
213.283	18.26
213.502	-51.37
213.72	10.07
213.938	38.74
214.157	5.97
214.375	53.08
214.594	16.21
214.812	3.93
215.031	16.21
215.249	-84.14
215.467	53.08
215.686	40.79
215.904	10.07
216.122	1.88
216.341	67.41
216.559	-37.03
216.778	30.55
216.996	67.41
217.214	-39.08
217.432	38.74
217.651	-24.75
217.869	30.55
218.087	-32.94
218.306	32.6
218.524	5.97
218.742	10.07
218.96	-2.22
219.179	-30.89
219.397	40.79
219.615	89.94
219.833	63.32
220.051	-0.17
220.27	51.03
220.488	42.84
220.706	48.98
220.924	10.07
221.142	38.74
221.36	10.07
221.578	30.55
221.796	38.74
222.015	32.6
222.233	46.93
222.451	42.84
222.669	1.88
222.887	20.31
223.105	16.21
223.323	-2.22
223.541	-12.46
223.759	26.45
223.977	22.36
224.195	-10.41
224.413	75.6
224.631	-2.22
224.849	24.4
225.067	5.97
225.285	32.6
225.503	16.21
225.721	8.02
225.939	38.74
226.157	-63.66
226.375	55.12
226.592	34.64
226.81	38.74
227.028	-20.65
227.246	124.76
227.464	-43.18
227.682	51.03
227.9	-2.22
228.117	118.61
228.335	-24.75
228.553	10.07
228.771	69.46
228.989	77.65
229.206	-26.79
229.424	-32.94
229.642	14.17
229.86	24.4
230.077	-10.41
230.295	42.84
230.513	87.89
230.731	8.02
230.948	-10.41
231.166	-32.94
231.384	40.79
231.601	24.4
231.819	5.97
232.037	51.03
232.254	8.02
232.472	16.21
232.689	-18.6
232.907	79.7
233.125	67.41
233.342	5.97
233.56	-6.31
233.777	-22.7
233.995	36.69
234.213	3.93
234.43	-2.22
234.648	-8.36
234.865	55.12
235.083	38.74
235.3	38.74
235.518	59.22
235.735	57.17
235.953	28.5
236.17	-30.89
236.388	-45.23
236.605	-4.27
236.822	55.12
237.04	-14.51
237.257	18.26
237.475	5.97
237.692	53.08
237.909	8.02
238.127	-12.46
238.344	22.36
238.562	16.21
238.779	-14.51
238.996	32.6
239.214	104.28
239.431	102.23
239.648	-34.99
239.865	28.5
240.083	-18.6
240.3	55.12
240.517	-10.41
240.735	40.79
240.952	34.64
241.169	30.55
241.386	10.07
241.603	28.5
241.821	-6.31
242.038	24.4
242.255	-14.51
242.472	-10.41
242.689	40.79
242.907	24.4
243.124	-20.65
243.341	-22.7
243.558	-10.41
243.775	14.17
243.992	-18.6
244.209	14.17
244.426	94.04
244.643	-12.46
244.86	48.98
245.078	-4.27
245.295	5.97
245.512	12.12
245.729	-53.42
245.946	44.88
246.163	28.5
246.38	42.84
246.597	81.75
246.814	-12.46
247.031	-14.51
247.248	-0.17
247.464	-10.41
247.681	96.08
247.898	120.66
248.115	28.5
248.332	-84.14
248.549	34.64
248.766	79.7
248.983	67.41
249.2	22.36
249.417	-18.6
249.633	40.79
249.85	61.27
250.067	100.18
250.284	18.26
250.501	36.69
250.717	3.93
250.934	34.64
251.151	22.36
251.368	-22.7
251.585	-14.51
251.801	-26.79
252.018	-39.08
252.235	55.12
252.451	34.64
252.668	34.64
252.885	16.21
253.102	28.5
253.318	16.21
253.535	-18.6
253.752	-61.61
253.968	-12.46
254.185	44.88
254.401	5.97
254.618	40.79
254.835	44.88
255.051	10.07
255.268	-4.27
255.484	59.22
255.701	10.07
255.917	75.6
256.134	-63.66
256.351	-28.84
256.567	38.74
256.784	16.21
257	-28.84
257.217	-53.42
257.433	57.17
257.65	87.89
257.866	63.32
258.082	34.64
258.299	-2.22
258.515	81.75
258.732	14.17
258.948	-26.79
259.165	36.69
259.381	-22.7
259.597	32.6
259.814	10.07
260.03	38.74
260.246	-28.84
260.463	73.56
260.679	42.84
260.895	18.26
261.112	8.02
261.328	48.98
261.544	-0.17
261.761	65.36
261.977	30.55
262.193	38.74
262.409	-22.7
262.626	87.89
262.842	26.45
263.058	-20.65
263.274	-2.22
263.49	75.6
263.707	26.45
263.923	61.27
264.139	18.26
264.355	5.97
264.571	71.51
264.787	71.51
265.004	61.27
265.22	-6.31
265.436	-4.27
265.652	-2.22
265.868	75.6
266.084	1.88
266.3	30.55
266.516	18.26
266.732	36.69
266.948	5.97
267.164	26.45
267.38	63.32
267.596	91.99
267.812	53.08
268.028	57.17
268.244	-10.41
268.46	26.45
268.676	77.65
268.892	77.65
269.108	-45.23
269.324	3.93
269.54	55.12
269.756	-18.6
269.972	-10.41
270.188	-18.6
270.403	63.32
270.619	-10.41
270.835	36.69
271.051	20.31
271.267	40.79
271.483	69.46
271.698	55.12
271.914	-55.47
272.13	-30.89
272.346	34.64
272.562	59.22
272.777	28.5
272.993	-73.9
273.209	87.89
273.425	16.21
273.64	5.97
273.856	53.08
274.072	94.04
274.287	-22.7
274.503	26.45
274.719	26.45
274.934	14.17
275.15	65.36
275.366	-22.7
275.581	77.65
275.797	24.4
276.012	73.56
276.228	34.64
276.444	20.31
276.659	65.36
276.875	-26.79
277.09	57.17
277.306	-14.51
277.521	36.69
277.737	16.21
277.952	28.5
278.168	8.02
278.383	-18.6
278.599	38.74
278.814	14.17
279.03	-55.47
279.245	38.74
279.461	12.12
279.676	36.69
279.892	30.55
280.107	-24.75
280.322	-41.13
280.538	42.84
280.753	65.36
280.969	32.6
281.184	46.93
281.399	91.99
281.615	-6.31
281.83	-2.22
282.045	48.98
282.26	-75.95
282.476	14.17
282.691	-20.65
282.906	-8.36
283.122	-59.56
283.337	3.93
283.552	48.98
283.767	-6.31
283.983	51.03
284.198	91.99
284.413	-2.22
284.628	-0.17
284.843	40.79
285.058	55.12
285.274	44.88
285.489	32.6
285.704	118.61
285.919	-77.99
286.134	57.17
286.349	42.84
286.564	12.12
286.779	38.74
286.995	71.51
287.21	-41.13
287.425	-20.65
287.64	-39.08
287.855	38.74
288.07	-16.55
288.285	-12.46
288.5	34.64
288.715	118.61
288.93	38.74
289.145	-4.27
289.36	42.84
289.575	55.12
289.79	53.08
290.004	5.97
290.219	34.64
290.434	91.99
290.649	-20.65
290.864	65.36
291.079	67.41
291.294	44.88
291.509	44.88
291.724	28.5
291.938	18.26
292.153	5.97
292.368	-24.75
292.583	38.74
292.798	-24.75
293.012	42.84
293.227	-32.94
293.442	53.08
293.657	83.8
293.871	-2.22
294.086	16.21
294.301	175.95
294.516	36.69
294.73	51.03
294.945	-32.94
295.16	-32.94
295.374	16.21
295.589	26.45
295.804	18.26
296.018	-28.84
296.233	75.6
296.447	-18.6
296.662	38.74
296.877	46.93
297.091	28.5
297.306	28.5
297.52	32.6
297.735	-22.7
297.949	38.74
298.164	24.4
298.378	5.97
298.593	-63.66
298.807	12.12
299.022	-0.17
299.236	145.24
299.451	14.17
299.665	20.31
299.88	5.97
300.094	-34.99
300.309	14.17
300.523	83.8
300.737	55.12
300.952	34.64
301.166	67.41
301.381	22.36
301.595	-10.41
301.809	-34.99
302.024	24.4
302.238	69.46
302.452	-10.41
302.667	-2.22
302.881	40.79
303.095	-26.79
303.309	59.22
303.524	-45.23
303.738	22.36
303.952	-0.17
304.166	73.56
304.381	-22.7
304.595	96.08
304.809	-0.17
305.023	46.93
305.237	-4.27
305.452	-2.22
305.666	65.36
305.88	73.56
306.094	-10.41
306.308	30.55
306.522	-26.79
306.736	30.55
306.95	22.36
307.164	1.88
307.379	18.26
307.593	30.55
307.807	1.88
308.021	14.17
308.235	-12.46
308.449	75.6
308.663	24.4
308.877	81.75
309.091	96.08
309.305	16.21
309.519	53.08
309.733	-4.27
309.947	-18.6
310.161	26.45
310.374	-37.03
310.588	46.93
310.802	28.5
311.016	-47.27
311.23	26.45
311.444	59.22
311.658	-0.17
311.872	53.08
312.085	98.13
312.299	75.6
312.513	51.03
312.727	67.41
312.941	36.69
313.154	12.12
313.368	-6.31
313.582	32.6
313.796	10.07
314.009	63.32
314.223	122.71
314.437	-43.18
314.651	63.32
314.864	34.64
315.078	3.93
315.292	16.21
315.505	-69.8
315.719	48.98
315.933	22.36
316.146	22.36
316.36	-6.31
316.573	94.04
316.787	42.84
317.001	77.65
317.214	-37.03
317.428	69.46
317.641	14.17
317.855	53.08
318.068	59.22
318.282	-45.23
318.495	83.8
318.709	112.47
318.922	-2.22
319.136	48.98
319.349	22.36
319.563	51.03
319.776	-2.22
319.99	-39.08
320.203	71.51
320.417	-10.41
320.63	69.46
320.843	75.6
321.057	10.07
321.27	28.5
321.483	38.74
321.697	104.28
321.91	-22.7
322.124	91.99
322.337	14.17
322.55	32.6
322.763	-16.55
322.977	-6.31
323.19	22.36
323.403	-18.6
323.617	5.97
323.83	30.55
324.043	32.6
324.256	5.97
324.469	38.74
324.683	118.61
324.896	42.84
325.109	24.4
325.322	-14.51
325.535	18.26
325.748	126.8
325.962	-22.7
326.175	-8.36
326.388	10.07
326.601	-14.51
326.814	98.13
327.027	53.08
327.24	67.41
327.453	-10.41
327.666	110.42
327.879	59.22
328.092	14.17
328.305	-6.31
328.518	-12.46
328.731	-4.27
328.944	-18.6
329.157	18.26
329.37	-2.22
329.583	67.41
329.796	34.64
330.009	-41.13
330.222	22.36
330.435	-2.22
330.648	63.32
330.861	46.93
331.073	57.17
331.286	8.02
331.499	53.08
331.712	-34.99
331.925	28.5
332.138	-4.27
332.35	30.55
332.563	-8.36
332.776	57.17
332.989	-37.03
333.202	85.84
333.414	36.69
333.627	30.55
333.84	-4.27
334.053	36.69
334.265	24.4
334.478	59.22
334.691	-22.7
334.903	63.32
335.116	-26.79
335.329	38.74
335.541	22.36
335.754	124.76
335.966	10.07
336.179	59.22
336.392	16.21
336.604	51.03
336.817	89.94
337.029	42.84
337.242	-49.32
337.454	26.45
337.667	124.76
337.88	100.18
338.092	124.76
338.305	83.8
338.517	40.79
338.729	96.08
338.942	73.56
339.154	12.12
339.367	67.41
339.579	46.93
339.792	5.97
340.004	38.74
340.217	48.98
340.429	30.55
340.641	-0.17
340.854	-4.27
341.066	55.12
341.278	91.99
341.491	79.7
341.703	28.5
341.915	48.98
342.128	24.4
342.34	14.17
342.552	40.79
342.764	5.97
342.977	57.17
343.189	20.31
343.401	-0.17
343.613	22.36
343.826	8.02
344.038	-51.37
344.25	116.56
344.462	18.26
344.674	32.6
344.886	116.56
345.099	53.08
345.311	26.45
345.523	73.56
345.735	26.45
345.947	83.8
346.159	59.22
346.371	83.8
346.583	-4.27
346.795	36.69
347.007	12.12
347.219	61.27
347.431	94.04
347.643	-6.31
347.855	-51.37
348.067	96.08
348.279	-24.75
348.491	75.6
348.703	102.23
348.915	-10.41
349.127	77.65
349.339	44.88
349.551	-2.22
349.763	44.88
349.975	-0.17
350.187	73.56
350.399	53.08
350.61	46.93
350.822	44.88
351.034	59.22
351.246	24.4
351.458	-12.46
351.669	38.74
351.881	120.66
352.093	98.13
352.305	20.31
352.517	51.03
352.728	32.6
352.94	48.98
353.152	-88.23
353.363	10.07
353.575	-4.27
353.787	42.84
353.999	65.36
354.21	38.74
354.422	10.07
354.633	57.17
354.845	34.64
355.057	24.4
355.268	73.56
355.48	94.04
355.692	-0.17
355.903	32.6
356.115	5.97
356.326	1.88
356.538	81.75
356.749	102.23
356.961	34.64
357.172	36.69
357.384	65.36
357.595	18.26
357.807	63.32
358.018	38.74
358.23	-2.22
358.441	69.46
358.653	89.94
358.864	32.6
359.075	61.27
359.287	-14.51
359.498	46.93
359.709	-10.41
359.921	42.84
360.132	32.6
360.344	73.56
360.555	55.12
360.766	-28.84
360.977	40.79
361.189	55.12
361.4	81.75
361.611	-2.22
361.823	83.8
362.034	30.55
362.245	14.17
362.456	34.64
362.667	38.74
362.879	-30.89
363.09	26.45
363.301	24.4
363.512	34.64
363.723	38.74
363.935	26.45
364.146	44.88
364.357	-24.75
364.568	94.04
364.779	20.31
364.99	36.69
365.201	55.12
365.412	128.85
365.623	48.98
365.834	-10.41
366.045	48.98
366.256	46.93
366.467	44.88
366.678	12.12
366.889	-10.41
367.1	32.6
367.311	-2.22
367.522	-22.7
367.733	20.31
367.944	10.07
368.155	-22.7
368.366	40.79
368.577	71.51
368.788	32.6
368.999	36.69
369.209	51.03
369.42	104.28
369.631	53.08
369.842	22.36
370.053	14.17
370.264	18.26
370.474	-2.22
370.685	-10.41
370.896	40.79
371.107	38.74
371.317	5.97
371.528	-14.51
371.739	124.76
371.95	-14.51
372.16	40.79
372.371	10.07
372.582	32.6
372.792	-4.27
373.003	20.31
373.214	-8.36
373.424	34.64
373.635	18.26
373.846	30.55
374.056	38.74
374.267	51.03
374.477	8.02
374.688	87.89
374.898	22.36
375.109	61.27
375.319	14.17
375.53	114.52
375.74	71.51
375.951	1.88
376.161	28.5
376.372	36.69
376.582	30.55
376.793	141.14
377.003	-32.94
377.214	5.97
377.424	79.7
377.635	40.79
377.845	67.41
378.055	87.89
378.266	-26.79
378.476	96.08
378.686	34.64
378.897	96.08
379.107	8.02
379.317	79.7
379.528	75.6
379.738	32.6
379.948	-47.27
380.158	55.12
380.369	14.17
380.579	16.21
380.789	-22.7
380.999	38.74
381.21	20.31
381.42	85.84
381.63	85.84
381.84	67.41
382.05	51.03
382.261	-0.17
382.471	77.65
382.681	42.84
382.891	20.31
383.101	77.65
383.311	81.75
383.521	61.27
383.731	16.21
383.941	1.88
384.151	5.97
384.361	10.07
384.571	10.07
384.781	-41.13
384.991	87.89
385.201	51.03
385.411	34.64
385.621	1.88
385.831	-12.46
386.041	14.17
386.251	30.55
386.461	28.5
386.671	26.45
386.881	32.6
387.091	40.79
387.301	87.89
387.511	55.12
387.72	87.89
387.93	106.32
388.14	-10.41
388.35	51.03
388.56	104.28
388.769	36.69
388.979	30.55
389.189	110.42
389.399	67.41
389.609	61.27
389.818	55.12
390.028	57.17
390.238	22.36
390.447	38.74
390.657	-26.79
390.867	-24.75
391.076	32.6
391.286	32.6
391.496	89.94
391.705	-20.65
391.915	83.8
392.125	71.51
392.334	5.97
392.544	114.52
392.753	-4.27
392.963	59.22
393.172	5.97
393.382	112.47
393.591	87.89
393.801	122.71
394.01	100.18
394.22	71.51
394.429	120.66
394.639	48.98
394.848	71.51
395.058	55.12
395.267	59.22
395.477	-10.41
395.686	75.6
395.895	67.41
396.105	81.75
396.314	141.14
396.524	16.21
396.733	85.84
396.942	46.93
397.152	79.7
397.361	139.09
397.57	40.79
397.78	67.41
397.989	135
398.198	75.6
398.407	20.31
398.617	79.7
398.826	77.65
399.035	-4.27
399.244	85.84
399.453	75.6
399.663	42.84
399.872	34.64
400.081	106.32
400.29	75.6
400.499	114.52
400.708	34.64
400.917	57.17
401.127	118.61
401.336	69.46
401.545	108.37
401.754	96.08
401.963	167.76
402.172	169.81
402.381	192.34
402.59	20.31
402.799	91.99
403.008	46.93
403.217	112.47
403.426	94.04
403.635	83.8
403.844	120.66
404.053	141.14
404.262	126.8
404.471	202.58
404.68	128.85
404.888	102.23
405.097	102.23
405.306	91.99
405.515	143.19
405.724	89.94
405.933	143.19
406.142	135
406.35	141.14
406.559	149.33
406.768	157.52
406.977	182.1
407.185	178
407.394	225.11
407.603	184.15
407.812	171.86
408.02	124.76
408.229	180.05
408.438	149.33
408.646	116.56
408.855	178
409.064	218.96
409.272	173.91
409.481	184.15
409.69	194.39
409.898	214.87
410.107	196.43
410.315	233.3
410.524	317.26
410.733	241.49
410.941	243.54
411.15	171.86
411.358	307.02
411.567	327.5
411.775	272.21
411.984	268.11
412.192	360.27
412.401	272.21
412.609	374.61
412.818	358.22
413.026	335.7
413.234	374.61
413.443	390.99
413.651	317.26
413.86	413.52
414.068	431.95
414.276	436.05
414.485	470.86
414.693	526.16
414.901	530.25
415.11	575.31
415.318	460.62
415.526	579.4
415.734	591.69
415.943	595.79
416.151	634.7
416.359	618.32
416.567	726.86
416.776	661.32
416.984	677.71
417.192	712.52
417.4	712.52
417.608	757.58
417.817	782.15
418.025	866.12
418.233	943.94
418.441	884.55
418.649	894.79
418.857	925.51
419.065	999.24
419.273	986.95
419.481	1038.15
419.689	1091.4
419.897	1167.17
420.105	1091.4
420.313	1169.22
420.521	1283.91
420.729	1208.13
420.937	1269.57
421.145	1261.38
421.353	1455.94
421.561	1382.21
421.769	1451.84
421.977	1541.95
422.185	1531.71
422.393	1623.87
422.601	1752.89
422.809	1802.04
423.017	1752.89
423.224	1689.4
423.432	1879.86
423.64	1761.08
423.848	2002.74
424.056	1984.31
424.263	2252.59
424.471	2195.25
424.679	2215.73
424.887	2262.83
425.094	2428.72
425.302	2416.43
425.51	2498.35
425.718	2584.37
425.925	2631.47
426.133	2563.89
426.341	2879.27
426.548	3016.49
426.756	2903.85
426.964	2903.85
427.171	3147.56
427.379	3174.18
427.586	3325.73
427.794	3372.83
428.001	3520.29
428.209	3692.32
428.417	3520.29
428.624	3807
428.832	3925.79
429.039	3925.79
429.247	3870.49
429.454	4232.98
429.662	4714.25
429.869	4263.7
430.076	4568.85
430.284	4521.74
430.491	4587.28
430.699	4808.46
430.906	4943.63
431.114	5033.74
431.321	5244.68
431.528	5213.96
431.736	5633.79
431.943	5912.32
432.15	5662.46
432.358	5646.08
432.565	6145.78
432.772	5986.04
432.979	6502.13
433.187	6291.19
433.394	6520.56
433.601	6780.65
433.808	6987.5
434.016	6821.61
434.223	7124.71
434.43	7802.59
434.637	7569.12
434.844	7896.8
435.052	8152.79
435.259	8074.97
435.466	8206.04
435.673	8136.41
435.88	8599.25
436.087	9217.74
436.294	9123.53
436.501	8847.05
436.708	9064.14
436.915	9266.89
437.122	9660.1
437.329	9680.58
437.537	9877.18
437.743	10518.2
437.95	10098.36
438.157	10598.07
438.364	11194.03
438.571	10579.64
438.778	11159.21
438.985	12113.56
439.192	11652.77
439.399	11845.28
439.606	11597.48
439.813	12166.81
440.02	12859.03
440.227	12836.5
440.433	12850.83
440.64	13422.22
440.847	12953.23
441.054	13524.61
441.261	14341.75
441.467	14270.08
441.674	14179.96
441.881	14950
442.088	14941.81
442.294	14923.38
442.501	15255.15
442.708	15365.74
442.914	16088.67
443.121	16674.39
443.328	16016.99
443.534	17544.78
443.741	16954.96
443.948	16655.96
444.154	17841.73
444.361	17874.5
444.568	18118.21
444.774	18163.26
444.981	18185.79
445.187	18736.7
445.394	19559.98
445.6	19093.04
445.807	21050.9
446.013	20287.01
446.22	20358.69
446.426	21089.81
446.633	21749.26
446.839	22287.87
447.046	21073.43
447.252	22480.38
447.459	22504.96
447.665	22459.9
447.871	23614.96
448.078	24442.34
448.284	23014.9
448.491	24124.9
448.697	24770.01
448.903	25173.46
449.11	25275.86
449.316	24741.34
449.522	25239
449.728	26080.71
449.935	26209.73
450.141	25968.07
450.347	26934.71
450.553	25978.31
450.76	26314.18
450.966	27233.72
451.172	26791.36
451.378	27272.63
451.584	26774.97
451.791	27618.74
451.997	27211.19
452.203	27973.03
452.409	27934.12
452.615	27600.3
452.821	26643.9
453.027	26408.39
453.233	27833.77
453.44	26484.16
453.646	26506.69
453.852	27125.18
454.058	27452.85
454.264	26387.91
454.47	27270.58
454.676	26607.04
454.882	27256.25
455.088	24980.95
455.294	25454.03
455.5	25630.16
455.705	26043.85
455.911	24722.91
456.117	24546.78
456.323	23926.25
456.529	22887.93
456.735	23535.09
456.941	23338.48
457.147	22719.99
457.352	21972.49
457.558	21954.05
457.764	21806.6
457.97	21663.24
458.176	21227.03
458.381	21143.06
458.587	20006.44
458.793	19908.13
458.999	18914.87
459.204	20258.34
459.41	19750.44
459.616	18427.45
459.821	18343.49
460.027	18290.24
460.233	17946.18
460.438	17393.23
460.644	17636.94
460.85	16662.1
461.055	16377.44
461.261	16236.13
461.466	14939.76
461.672	14839.41
461.878	15765.09
462.083	14769.78
462.289	14411.39
462.494	14253.69
462.7	13516.42
462.905	13153.93
463.111	13627.01
463.316	13782.66
463.522	13506.18
463.727	13424.26
463.932	13350.54
464.138	13356.68
464.343	13325.96
464.549	13166.22
464.754	13616.77
464.959	13155.98
465.165	13168.27
465.37	12652.18
465.575	12437.14
465.781	12482.2
465.986	13121.17
466.191	12351.13
466.397	12289.69
466.602	11511.46
466.807	12134.04
467.012	12238.49
467.218	12033.69
467.423	11878.05
467.628	12162.72
467.833	12490.39
468.038	11941.54
