Data from USB4F104151__2__11-04-29-737.txt Node

Date: Wed Mar 12 11:04:29 EDT 2025
User: louis
Spectrometer: USB4F10415
Trigger mode: 4
Integration Time (sec): 2.000000E-2
Scans to average: 1
Electric dark correction enabled: true
Nonlinearity correction enabled: false
Boxcar width: 0
XAxis mode: Wavelengths
Number of Pixels in Spectrum: 3648
>>>>>Begin Spectral Data<<<<<
178.204	-69.8
178.424	-69.8
178.644	-69.8
178.864	-90.28
179.084	-94.38
179.304	-63.66
179.524	44.88
179.744	22.36
179.964	-34.99
180.184	1.88
180.404	-0.17
180.624	40.79
180.844	30.55
181.064	-30.89
181.283	-20.65
181.503	24.4
181.723	-14.51
181.943	-63.66
182.163	48.98
182.383	20.31
182.602	-30.89
182.822	59.22
183.042	-28.84
183.262	-39.08
183.482	-49.32
183.701	8.02
183.921	24.4
184.141	14.17
184.361	40.79
184.58	-41.13
184.8	-51.37
185.02	-24.75
185.239	-12.46
185.459	-0.17
185.679	42.84
185.898	-32.94
186.118	-12.46
186.338	61.27
186.557	-6.31
186.777	20.31
186.997	63.32
187.216	16.21
187.436	14.17
187.655	36.69
187.875	10.07
188.095	20.31
188.314	18.26
188.534	100.18
188.753	57.17
188.973	20.31
189.192	46.93
189.412	-53.42
189.631	16.21
189.851	-26.79
190.07	48.98
190.29	42.84
190.509	53.08
190.729	-61.61
190.948	20.31
191.168	44.88
191.387	34.64
191.607	10.07
191.826	79.7
192.045	-6.31
192.265	-55.47
192.484	8.02
192.704	-10.41
192.923	55.12
193.142	44.88
193.362	26.45
193.581	65.36
193.8	-4.27
194.02	-18.6
194.239	14.17
194.458	-12.46
194.678	55.12
194.897	28.5
195.116	67.41
195.335	-20.65
195.555	73.56
195.774	36.69
195.993	26.45
196.212	-30.89
196.432	-20.65
196.651	16.21
196.87	18.26
197.089	-10.41
197.308	34.64
197.528	46.93
197.747	-63.66
197.966	18.26
198.185	1.88
198.404	-28.84
198.623	40.79
198.842	65.36
199.062	126.8
199.281	130.9
199.5	-30.89
199.719	16.21
199.938	73.56
200.157	79.7
200.376	36.69
200.595	73.56
200.814	22.36
201.033	40.79
201.252	53.08
201.471	-0.17
201.69	-8.36
201.909	44.88
202.128	51.03
202.347	73.56
202.566	5.97
202.785	-4.27
203.004	-41.13
203.223	24.4
203.442	-2.22
203.661	44.88
203.879	-49.32
204.098	67.41
204.317	-8.36
204.536	-0.17
204.755	81.75
204.974	46.93
205.193	106.32
205.411	46.93
205.63	24.4
205.849	14.17
206.068	46.93
206.287	-14.51
206.505	73.56
206.724	26.45
206.943	46.93
207.162	16.21
207.381	1.88
207.599	-49.32
207.818	26.45
208.037	59.22
208.255	24.4
208.474	20.31
208.693	20.31
208.911	-12.46
209.13	38.74
209.349	12.12
209.567	36.69
209.786	63.32
210.005	-8.36
210.223	-0.17
210.442	-77.99
210.661	-4.27
210.879	5.97
211.098	67.41
211.316	-34.99
211.535	61.27
211.753	-26.79
211.972	28.5
212.191	44.88
212.409	22.36
212.628	46.93
212.846	-4.27
213.065	36.69
213.283	65.36
213.502	-2.22
213.72	53.08
213.938	-16.55
214.157	32.6
214.375	61.27
214.594	1.88
214.812	53.08
215.031	12.12
215.249	10.07
215.467	38.74
215.686	83.8
215.904	73.56
216.122	-12.46
216.341	16.21
216.559	32.6
216.778	46.93
216.996	-22.7
217.214	32.6
217.432	-34.99
217.651	-41.13
217.869	28.5
218.087	75.6
218.306	91.99
218.524	-20.65
218.742	-73.9
218.96	3.93
219.179	67.41
219.397	-4.27
219.615	22.36
219.833	5.97
220.051	48.98
220.27	65.36
220.488	61.27
220.706	3.93
220.924	-45.23
221.142	-24.75
221.36	22.36
221.578	-32.94
221.796	-18.6
222.015	-10.41
222.233	-45.23
222.451	40.79
222.669	1.88
222.887	-20.65
223.105	-12.46
223.323	-18.6
223.541	32.6
223.759	48.98
223.977	22.36
224.195	81.75
224.413	-14.51
224.631	40.79
224.849	14.17
225.067	18.26
225.285	-14.51
225.503	30.55
225.721	-67.75
225.939	-37.03
226.157	38.74
226.375	71.51
226.592	-0.17
226.81	3.93
227.028	34.64
227.246	8.02
227.464	14.17
227.682	32.6
227.9	24.4
228.117	22.36
228.335	-32.94
228.553	71.51
228.771	89.94
228.989	8.02
229.206	-8.36
229.424	-2.22
229.642	3.93
229.86	-12.46
230.077	36.69
230.295	42.84
230.513	59.22
230.731	-10.41
230.948	12.12
231.166	46.93
231.384	67.41
231.601	-34.99
231.819	22.36
232.037	10.07
232.254	53.08
232.472	-4.27
232.689	-34.99
232.907	32.6
233.125	14.17
233.342	36.69
233.56	-12.46
233.777	3.93
233.995	3.93
234.213	18.26
234.43	8.02
234.648	16.21
234.865	85.84
235.083	114.52
235.3	57.17
235.518	1.88
235.735	40.79
235.953	73.56
236.17	65.36
236.388	30.55
236.605	-0.17
236.822	118.61
237.04	75.6
237.257	59.22
237.475	65.36
237.692	10.07
237.909	34.64
238.127	36.69
238.344	20.31
238.562	16.21
238.779	-16.55
238.996	5.97
239.214	32.6
239.431	100.18
239.648	-6.31
239.865	-10.41
240.083	10.07
240.3	-8.36
240.517	34.64
240.735	12.12
240.952	55.12
241.169	28.5
241.386	-0.17
241.603	20.31
241.821	-20.65
242.038	20.31
242.255	59.22
242.472	48.98
242.689	5.97
242.907	3.93
243.124	28.5
243.341	46.93
243.558	53.08
243.775	3.93
243.992	-18.6
244.209	24.4
244.426	63.32
244.643	10.07
244.86	30.55
245.078	-4.27
245.295	-24.75
245.512	28.5
245.729	-55.47
245.946	89.94
246.163	42.84
246.38	8.02
246.597	-22.7
246.814	34.64
247.031	-20.65
247.248	94.04
247.464	-43.18
247.681	65.36
247.898	57.17
248.115	8.02
248.332	22.36
248.549	-28.84
248.766	48.98
248.983	16.21
249.2	1.88
249.417	24.4
249.633	10.07
249.85	36.69
250.067	22.36
250.284	-86.19
250.501	65.36
250.717	42.84
250.934	-39.08
251.151	32.6
251.368	26.45
251.585	55.12
251.801	10.07
252.018	38.74
252.235	53.08
252.451	83.8
252.668	65.36
252.885	40.79
253.102	-71.85
253.318	3.93
253.535	8.02
253.752	1.88
253.968	30.55
254.185	-22.7
254.401	67.41
254.618	-12.46
254.835	-32.94
255.051	38.74
255.268	12.12
255.484	14.17
255.701	-18.6
255.917	12.12
256.134	57.17
256.351	63.32
256.567	42.84
256.784	5.97
257	-12.46
257.217	63.32
257.433	16.21
257.65	67.41
257.866	-4.27
258.082	22.36
258.299	24.4
258.515	1.88
258.732	-47.27
258.948	-2.22
259.165	-37.03
259.381	32.6
259.597	18.26
259.814	106.32
260.03	22.36
260.246	-12.46
260.463	-51.37
260.679	81.75
260.895	22.36
261.112	12.12
261.328	-8.36
261.544	85.84
261.761	65.36
261.977	100.18
262.193	10.07
262.409	85.84
262.626	-8.36
262.842	32.6
263.058	24.4
263.274	14.17
263.49	46.93
263.707	36.69
263.923	10.07
264.139	-47.27
264.355	-43.18
264.571	36.69
264.787	20.31
265.004	34.64
265.22	32.6
265.436	34.64
265.652	12.12
265.868	59.22
266.084	69.46
266.3	12.12
266.516	-32.94
266.732	-0.17
266.948	-10.41
267.164	53.08
267.38	65.36
267.596	14.17
267.812	24.4
268.028	1.88
268.244	36.69
268.46	34.64
268.676	10.07
268.892	30.55
269.108	48.98
269.324	-26.79
269.54	12.12
269.756	-45.23
269.972	-0.17
270.188	57.17
270.403	1.88
270.619	-2.22
270.835	-12.46
271.051	-32.94
271.267	-6.31
271.483	44.88
271.698	38.74
271.914	36.69
272.13	79.7
272.346	65.36
272.562	-22.7
272.777	67.41
272.993	1.88
273.209	5.97
273.425	69.46
273.64	-28.84
273.856	-6.31
274.072	-20.65
274.287	1.88
274.503	87.89
274.719	5.97
274.934	57.17
275.15	38.74
275.366	32.6
275.581	61.27
275.797	94.04
276.012	-65.71
276.228	-41.13
276.444	53.08
276.659	44.88
276.875	59.22
277.09	40.79
277.306	5.97
277.521	28.5
277.737	16.21
277.952	91.99
278.168	106.32
278.383	-14.51
278.599	-8.36
278.814	51.03
279.03	8.02
279.245	-32.94
279.461	40.79
279.676	94.04
279.892	-65.71
280.107	1.88
280.322	-0.17
280.538	10.07
280.753	-22.7
280.969	8.02
281.184	8.02
281.399	34.64
281.615	48.98
281.83	61.27
282.045	40.79
282.26	26.45
282.476	5.97
282.691	32.6
282.906	89.94
283.122	46.93
283.337	3.93
283.552	-45.23
283.767	24.4
283.983	59.22
284.198	-57.51
284.413	85.84
284.628	-2.22
284.843	-10.41
285.058	22.36
285.274	51.03
285.489	-43.18
285.704	73.56
285.919	12.12
286.134	53.08
286.349	16.21
286.564	61.27
286.779	28.5
286.995	34.64
287.21	-16.55
287.425	10.07
287.64	-45.23
287.855	40.79
288.07	-22.7
288.285	71.51
288.5	28.5
288.715	14.17
288.93	-30.89
289.145	3.93
289.36	-47.27
289.575	-41.13
289.79	63.32
290.004	61.27
290.219	38.74
290.434	30.55
290.649	12.12
290.864	-53.42
291.079	40.79
291.294	87.89
291.509	-8.36
291.724	-6.31
291.938	8.02
292.153	1.88
292.368	-41.13
292.583	-16.55
292.798	34.64
293.012	22.36
293.227	-12.46
293.442	141.14
293.657	98.13
293.871	-0.17
294.086	65.36
294.301	71.51
294.516	51.03
294.73	77.65
294.945	12.12
295.16	-47.27
295.374	-53.42
295.589	16.21
295.804	20.31
296.018	65.36
296.233	-24.75
296.447	36.69
296.662	24.4
296.877	71.51
297.091	61.27
297.306	28.5
297.52	-20.65
297.735	12.12
297.949	38.74
298.164	36.69
298.378	-8.36
298.593	46.93
298.807	-55.47
299.022	10.07
299.236	-12.46
299.451	-6.31
299.665	8.02
299.88	44.88
300.094	-4.27
300.309	8.02
300.523	53.08
300.737	91.99
300.952	46.93
301.166	65.36
301.381	65.36
301.595	1.88
301.809	-0.17
302.024	8.02
302.238	73.56
302.452	36.69
302.667	-12.46
302.881	-0.17
303.095	53.08
303.309	36.69
303.524	-20.65
303.738	-28.84
303.952	55.12
304.166	-2.22
304.381	-10.41
304.595	28.5
304.809	51.03
305.023	73.56
305.237	3.93
305.452	5.97
305.666	-41.13
305.88	69.46
306.094	73.56
306.308	42.84
306.522	-18.6
306.736	38.74
306.95	-6.31
307.164	44.88
307.379	22.36
307.593	30.55
307.807	69.46
308.021	102.23
308.235	-8.36
308.449	-10.41
308.663	59.22
308.877	110.42
309.091	53.08
309.305	3.93
309.519	36.69
309.733	44.88
309.947	-127.14
310.161	-45.23
310.374	-71.85
310.588	55.12
310.802	3.93
311.016	104.28
311.23	-4.27
311.444	14.17
311.658	69.46
311.872	12.12
312.085	46.93
312.299	44.88
312.513	8.02
312.727	44.88
312.941	28.5
313.154	12.12
313.368	57.17
313.582	46.93
313.796	59.22
314.009	-34.99
314.223	59.22
314.437	59.22
314.651	30.55
314.864	5.97
315.078	44.88
315.292	32.6
315.505	91.99
315.719	75.6
315.933	-45.23
316.146	-32.94
316.36	34.64
316.573	65.36
316.787	10.07
317.001	57.17
317.214	-0.17
317.428	96.08
317.641	-4.27
317.855	63.32
318.068	-30.89
318.282	8.02
318.495	94.04
318.709	81.75
318.922	-4.27
319.136	32.6
319.349	63.32
319.563	55.12
319.776	44.88
319.99	-8.36
320.203	28.5
320.417	83.8
320.63	12.12
320.843	59.22
321.057	8.02
321.27	48.98
321.483	53.08
321.697	71.51
321.91	61.27
322.124	98.13
322.337	16.21
322.55	32.6
322.763	18.26
322.977	-57.51
323.19	24.4
323.403	-69.8
323.617	48.98
323.83	94.04
324.043	34.64
324.256	3.93
324.469	-12.46
324.683	36.69
324.896	55.12
325.109	71.51
325.322	16.21
325.535	71.51
325.748	-61.61
325.962	48.98
326.175	1.88
326.388	-6.31
326.601	65.36
326.814	67.41
327.027	51.03
327.24	77.65
327.453	-0.17
327.666	20.31
327.879	30.55
328.092	83.8
328.305	55.12
328.518	-37.03
328.731	10.07
328.944	63.32
329.157	73.56
329.37	61.27
329.583	77.65
329.796	126.8
330.009	30.55
330.222	36.69
330.435	3.93
330.648	53.08
330.861	1.88
331.073	30.55
331.286	130.9
331.499	20.31
331.712	12.12
331.925	100.18
332.138	-18.6
332.35	71.51
332.563	135
332.776	57.17
332.989	3.93
333.202	16.21
333.414	-4.27
333.627	42.84
333.84	102.23
334.053	71.51
334.265	26.45
334.478	57.17
334.691	-32.94
334.903	-2.22
335.116	-6.31
335.329	-18.6
335.541	67.41
335.754	28.5
335.966	-12.46
336.179	-0.17
336.392	40.79
336.604	61.27
336.817	10.07
337.029	28.5
337.242	81.75
337.454	30.55
337.667	20.31
337.88	75.6
338.092	-0.17
338.305	-4.27
338.517	26.45
338.729	91.99
338.942	57.17
339.154	-12.46
339.367	-39.08
339.579	81.75
339.792	53.08
340.004	75.6
340.217	87.89
340.429	-6.31
340.641	24.4
340.854	67.41
341.066	-30.89
341.278	34.64
341.491	57.17
341.703	63.32
341.915	34.64
342.128	-12.46
342.34	-16.55
342.552	63.32
342.764	83.8
342.977	20.31
343.189	12.12
343.401	98.13
343.613	-26.79
343.826	38.74
344.038	38.74
344.25	1.88
344.462	26.45
344.674	8.02
344.886	-8.36
345.099	44.88
345.311	124.76
345.523	-8.36
345.735	44.88
345.947	65.36
346.159	-8.36
346.371	3.93
346.583	32.6
346.795	30.55
347.007	12.12
347.219	-10.41
347.431	48.98
347.643	28.5
347.855	1.88
348.067	42.84
348.279	28.5
348.491	79.7
348.703	-41.13
348.915	61.27
349.127	-67.75
349.339	-0.17
349.551	85.84
349.763	55.12
349.975	-0.17
350.187	10.07
350.399	77.65
350.61	40.79
350.822	36.69
351.034	116.56
351.246	67.41
351.458	-6.31
351.669	108.37
351.881	67.41
352.093	24.4
352.305	10.07
352.517	-12.46
352.728	44.88
352.94	63.32
353.152	135
353.363	36.69
353.575	38.74
353.787	81.75
353.999	-16.55
354.21	91.99
354.422	18.26
354.633	48.98
354.845	32.6
355.057	51.03
355.268	-10.41
355.48	59.22
355.692	-20.65
355.903	12.12
356.115	57.17
356.326	53.08
356.538	46.93
356.749	48.98
356.961	79.7
357.172	73.56
357.384	89.94
357.595	85.84
357.807	-47.27
358.018	-57.51
358.23	16.21
358.441	55.12
358.653	38.74
358.864	36.69
359.075	32.6
359.287	63.32
359.498	96.08
359.709	32.6
359.921	24.4
360.132	3.93
360.344	71.51
360.555	10.07
360.766	18.26
360.977	-16.55
361.189	-18.6
361.4	57.17
361.611	10.07
361.823	73.56
362.034	8.02
362.245	53.08
362.456	73.56
362.667	77.65
362.879	16.21
363.09	100.18
363.301	32.6
363.512	51.03
363.723	32.6
363.935	3.93
364.146	46.93
364.357	94.04
364.568	69.46
364.779	-47.27
364.99	65.36
365.201	24.4
365.412	98.13
365.623	3.93
365.834	53.08
366.045	94.04
366.256	87.89
366.467	34.64
366.678	69.46
366.889	32.6
367.1	28.5
367.311	20.31
367.522	16.21
367.733	10.07
367.944	40.79
368.155	3.93
368.366	53.08
368.577	87.89
368.788	46.93
368.999	69.46
369.209	-12.46
369.42	98.13
369.631	77.65
369.842	63.32
370.053	89.94
370.264	8.02
370.474	24.4
370.685	-59.56
370.896	34.64
371.107	5.97
371.317	59.22
371.528	5.97
371.739	46.93
371.95	42.84
372.16	32.6
372.371	-14.51
372.582	3.93
372.792	-0.17
373.003	55.12
373.214	12.12
373.424	51.03
373.635	32.6
373.846	53.08
374.056	32.6
374.267	38.74
374.477	81.75
374.688	36.69
374.898	108.37
375.109	34.64
375.319	26.45
375.53	75.6
375.74	108.37
375.951	48.98
376.161	22.36
376.372	122.71
376.582	-4.27
376.793	96.08
377.003	55.12
377.214	-12.46
377.424	79.7
377.635	116.56
377.845	71.51
378.055	81.75
378.266	81.75
378.476	44.88
378.686	42.84
378.897	57.17
379.107	22.36
379.317	89.94
379.528	63.32
379.738	24.4
379.948	-0.17
380.158	-18.6
380.369	75.6
380.579	48.98
380.789	38.74
380.999	126.8
381.21	118.61
381.42	53.08
381.63	12.12
381.84	69.46
382.05	81.75
382.261	75.6
382.471	69.46
382.681	36.69
382.891	44.88
383.101	30.55
383.311	24.4
383.521	69.46
383.731	112.47
383.941	38.74
384.151	-24.75
384.361	71.51
384.571	18.26
384.781	-12.46
384.991	163.67
385.201	46.93
385.411	110.42
385.621	5.97
385.831	87.89
386.041	-8.36
386.251	24.4
386.461	10.07
386.671	8.02
386.881	157.52
387.091	53.08
387.301	75.6
387.511	61.27
387.72	75.6
387.93	79.7
388.14	73.56
388.35	59.22
388.56	30.55
388.769	44.88
388.979	-2.22
389.189	-18.6
389.399	12.12
389.609	40.79
389.818	102.23
390.028	5.97
390.238	94.04
390.447	-10.41
390.657	10.07
390.867	69.46
391.076	-30.89
391.286	16.21
391.496	94.04
391.705	53.08
391.915	75.6
392.125	59.22
392.334	63.32
392.544	34.64
392.753	28.5
392.963	44.88
393.172	-12.46
393.382	77.65
393.591	94.04
393.801	53.08
394.01	165.71
394.22	55.12
394.429	122.71
394.639	79.7
394.848	104.28
395.058	96.08
395.267	89.94
395.477	53.08
395.686	85.84
395.895	94.04
396.105	175.95
396.314	122.71
396.524	73.56
396.733	85.84
396.942	130.9
397.152	57.17
397.361	-4.27
397.57	73.56
397.78	108.37
397.989	94.04
398.198	173.91
398.407	67.41
398.617	-8.36
398.826	85.84
399.035	40.79
399.244	130.9
399.453	143.19
399.663	116.56
399.872	65.36
400.081	36.69
400.29	96.08
400.499	137.04
400.708	124.76
400.917	98.13
401.127	24.4
401.336	143.19
401.545	149.33
401.754	102.23
401.963	149.33
402.172	139.09
402.381	57.17
402.59	77.65
402.799	98.13
403.008	143.19
403.217	122.71
403.426	118.61
403.635	98.13
403.844	169.81
404.053	98.13
404.262	89.94
404.471	223.06
404.68	128.85
404.888	163.67
405.097	116.56
405.306	137.04
405.515	85.84
405.724	155.47
405.933	114.52
406.142	71.51
406.35	192.34
406.559	192.34
406.768	157.52
406.977	182.1
407.185	188.24
407.394	208.72
407.603	167.76
407.812	216.91
408.02	264.02
408.229	276.31
408.438	257.87
408.646	221.01
408.855	302.93
409.064	268.11
409.272	286.54
409.481	304.98
409.69	245.59
409.898	282.45
410.107	255.83
410.315	290.64
410.524	337.74
410.733	321.36
410.941	333.65
411.15	360.27
411.358	423.76
411.567	386.9
411.775	442.19
411.984	438.09
412.192	409.42
412.401	409.42
412.609	515.92
412.818	493.39
413.026	606.03
413.234	573.26
413.443	505.68
413.651	534.35
413.86	560.97
414.068	626.51
414.276	603.98
414.485	675.66
414.693	651.08
414.901	751.43
415.11	769.87
415.318	716.62
415.526	753.48
415.734	876.36
415.943	825.16
416.151	737.1
416.359	855.88
416.567	855.88
416.776	882.5
416.984	1021.77
417.192	1050.44
417.4	1040.2
417.608	1058.63
417.817	1113.92
418.025	1220.42
418.233	1259.33
418.441	1281.86
418.649	1232.71
418.857	1417.02
419.065	1328.96
419.273	1394.5
419.481	1414.98
419.689	1511.23
419.897	1584.96
420.105	1576.77
420.313	1603.39
420.521	1677.12
420.729	1660.73
420.937	1763.13
421.145	1806.14
421.353	1986.36
421.561	2027.32
421.769	2172.72
421.977	2189.11
422.185	2131.76
422.393	2314.03
422.601	2395.95
422.809	2426.67
423.017	2492.21
423.224	2637.61
423.432	2682.67
423.64	2680.62
423.848	2918.18
424.056	2920.23
424.263	3100.45
424.471	3084.07
424.679	3178.28
424.887	3252
425.094	3381.03
425.302	3413.79
425.51	3524.38
425.718	3594.01
425.925	3647.26
426.133	3858.2
426.341	4159.25
426.548	4159.25
426.756	4198.17
426.964	4200.21
427.171	4574.99
427.379	4591.38
427.586	4679.44
427.794	4833.04
428.001	5123.85
428.209	5357.32
428.417	5138.18
428.624	5818.11
428.832	5531.39
429.039	5582.59
429.247	5472
429.454	6153.98
429.662	6508.27
429.869	6104.82
430.076	6532.85
430.284	6465.27
430.491	6778.61
430.699	7022.31
430.906	6903.53
431.114	7087.85
431.321	7462.63
431.528	7556.83
431.736	8117.98
431.943	8390.36
432.15	8214.23
432.358	8232.66
432.565	8816.33
432.772	8629.97
432.979	8939.21
433.187	9299.66
433.394	9336.52
433.601	10081.98
433.808	9907.9
434.016	9858.75
434.223	10225.34
434.43	11083.44
434.637	10677.94
434.844	11341.48
435.052	11734.69
435.259	11660.96
435.466	11634.34
435.673	11687.59
435.88	12320.41
436.087	13180.56
436.294	12945.04
436.501	12613.27
436.708	12707.48
436.915	13115.02
437.122	14059.13
437.329	14020.22
437.537	14409.34
437.743	14558.84
437.95	14622.33
438.157	15455.85
438.364	15838.82
438.571	15847.01
438.778	15918.69
438.985	17485.39
439.192	16821.84
439.399	17485.39
439.606	16807.51
439.813	17788.49
440.02	18892.34
440.227	18746.94
440.433	18253.37
440.64	19269.17
440.847	18779.7
441.054	19572.27
441.261	20735.51
441.467	20520.48
441.674	20944.41
441.881	21483.02
442.088	21628.43
442.294	21405.2
442.501	22095.36
442.708	22361.6
442.914	23254.51
443.121	24372.71
443.328	23496.17
443.534	25583.05
443.741	24669.66
443.948	24298.98
444.154	26158.53
444.361	26095.05
444.568	26250.69
444.774	26297.8
444.981	26402.24
445.187	27508.15
445.394	28210.6
445.6	28067.24
445.807	30807.42
446.013	29517.2
446.22	29883.79
446.426	31237.5
446.633	31079.8
446.839	31950.19
447.046	30635.39
447.252	32888.16
447.459	32761.19
447.665	32603.49
447.871	34059.6
448.078	35196.22
448.284	33799.51
448.491	34684.23
448.697	36345.13
448.903	36885.79
449.11	36545.83
449.316	36222.25
449.522	36478.25
449.728	37401.88
449.935	37569.82
450.141	37504.28
450.347	39073.03
450.553	37459.23
450.76	37428.51
450.966	38585.61
451.172	38483.21
451.378	39243.01
451.584	38696.2
451.791	39535.87
451.997	38892.8
452.203	39892.21
452.409	39951.6
452.615	39574.78
452.821	38255.89
453.027	37557.53
453.233	39668.98
453.44	37735.7
453.646	38610.18
453.852	38339.85
454.058	39021.83
454.264	37717.27
454.47	38929.67
454.676	37649.69
454.882	38540.55
455.088	35288.38
455.294	35761.46
455.5	36164.91
455.705	36494.63
455.911	35190.08
456.117	34256.2
456.323	33836.37
456.529	32077.16
456.735	33475.93
456.941	32718.18
457.147	31823.22
457.352	30983.55
457.558	30672.26
457.764	30539.14
457.97	29945.23
458.176	29349.27
458.381	29117.85
458.587	27690.41
458.793	27637.17
458.999	26252.74
459.204	28112.3
459.41	27461.04
459.616	25632.21
459.821	25624.01
460.027	25437.65
460.233	24753.63
460.438	23555.57
460.644	23973.35
460.85	22867.45
461.055	22791.67
461.261	22275.59
461.466	20979.22
461.672	20008.48
461.878	21771.79
462.083	20168.23
462.289	19717.67
462.494	19535.4
462.7	19060.27
462.905	18316.86
463.111	18996.79
463.316	18990.64
463.522	18693.69
463.727	18349.63
463.932	18439.74
464.138	18284.09
464.343	18550.33
464.549	17944.13
464.754	18400.83
464.959	18585.15
465.165	18425.4
465.37	17548.87
465.575	17172.05
465.781	17974.85
465.986	17970.76
466.191	17196.62
466.397	16819.8
466.602	16098.91
466.807	16715.35
467.012	16741.97
467.218	16651.86
467.423	16744.02
467.628	16528.99
467.833	17167.95
