Data from USB4F104151__83__11-06-35-183.txt Node

Date: Wed Mar 12 11:06:35 EDT 2025
User: louis
Spectrometer: USB4F10415
Trigger mode: 4
Integration Time (sec): 2.000000E-2
Scans to average: 1
Electric dark correction enabled: true
Nonlinearity correction enabled: false
Boxcar width: 0
XAxis mode: Wavelengths
Number of Pixels in Spectrum: 3648
>>>>>Begin Spectral Data<<<<<
178.204	-144.89
178.424	-144.89
178.644	-144.89
178.864	-101.89
179.084	-130.56
179.304	-15.87
179.524	-73.21
179.744	59.9
179.964	-32.26
180.184	12.8
180.404	10.75
180.624	12.8
180.844	-22.02
181.064	-7.68
181.283	70.14
181.503	-15.87
181.723	0.51
181.943	10.75
182.163	0.51
182.383	82.43
182.602	74.24
182.822	-36.35
183.042	39.42
183.262	-34.3
183.482	-44.54
183.701	35.33
183.921	29.18
184.141	12.8
184.361	25.09
184.58	-32.26
184.8	4.61
185.02	-1.54
185.239	49.66
185.459	35.33
185.679	37.38
185.898	-19.97
186.118	-26.11
186.338	6.66
186.557	20.99
186.777	27.14
186.997	-52.74
187.216	-32.26
187.436	25.09
187.655	31.23
187.875	47.62
188.095	-44.54
188.314	45.57
188.534	39.42
188.753	4.61
188.973	20.99
189.192	39.42
189.412	0.51
189.631	27.14
189.851	-32.26
190.07	-54.78
190.29	8.7
190.509	-87.55
190.729	-5.63
190.948	76.29
191.168	96.77
191.387	37.38
191.607	-87.55
191.826	25.09
192.045	-42.5
192.265	25.09
192.484	16.9
192.704	-40.45
192.923	-1.54
193.142	-1.54
193.362	20.99
193.581	41.47
193.8	23.04
194.02	82.43
194.239	-44.54
194.458	39.42
194.678	2.56
194.897	6.66
195.116	31.23
195.335	-1.54
195.555	12.8
195.774	29.18
195.993	-19.97
196.212	-3.58
196.432	53.76
196.651	-5.63
196.87	8.7
197.089	31.23
197.308	4.61
197.528	0.51
197.747	-60.93
197.966	-7.68
198.185	4.61
198.404	-15.87
198.623	-9.73
198.842	-9.73
199.062	61.95
199.281	6.66
199.5	-32.26
199.719	-38.4
199.938	2.56
200.157	29.18
200.376	31.23
200.595	74.24
200.814	-19.97
201.033	41.47
201.252	121.34
201.471	-15.87
201.69	18.94
201.909	6.66
202.128	-5.63
202.347	10.75
202.566	-26.11
202.785	72.19
203.004	-28.16
203.223	27.14
203.442	-69.12
203.661	-58.88
203.879	29.18
204.098	33.28
204.317	-50.69
204.536	43.52
204.755	51.71
204.974	12.8
205.193	23.04
205.411	-7.68
205.63	45.57
205.849	27.14
206.068	27.14
206.287	-36.35
206.505	33.28
206.724	-24.06
206.943	-11.78
207.162	20.99
207.381	8.7
207.599	0.51
207.818	-36.35
208.037	8.7
208.255	14.85
208.474	-3.58
208.693	82.43
208.911	-44.54
209.13	2.56
209.349	82.43
209.567	-17.92
209.786	-11.78
210.005	41.47
210.223	51.71
210.442	-40.45
210.661	41.47
210.879	-15.87
211.098	-38.4
211.316	43.52
211.535	-42.5
211.753	41.47
211.972	25.09
212.191	16.9
212.409	57.86
212.628	2.56
212.846	4.61
213.065	33.28
213.283	35.33
213.502	57.86
213.72	-3.58
213.938	100.86
214.157	-3.58
214.375	10.75
214.594	-69.12
214.812	29.18
215.031	8.7
215.249	0.51
215.467	-3.58
215.686	-42.5
215.904	61.95
216.122	-42.5
216.341	-1.54
216.559	53.76
216.778	29.18
216.996	0.51
217.214	100.86
217.432	8.7
217.651	96.77
217.869	-13.82
218.087	84.48
218.306	8.7
218.524	43.52
218.742	12.8
218.96	10.75
219.179	8.7
219.397	-13.82
219.615	59.9
219.833	57.86
220.051	-24.06
220.27	6.66
220.488	10.75
220.706	16.9
220.924	-17.92
221.142	43.52
221.36	-1.54
221.578	25.09
221.796	-3.58
222.015	12.8
222.233	25.09
222.451	59.9
222.669	-36.35
222.887	41.47
223.105	39.42
223.323	-22.02
223.541	-19.97
223.759	-19.97
223.977	-26.11
224.195	10.75
224.413	96.77
224.631	-11.78
224.849	33.28
225.067	29.18
225.285	25.09
225.503	31.23
225.721	27.14
225.939	72.19
226.157	59.9
226.375	6.66
226.592	-36.35
226.81	47.62
227.028	37.38
227.246	10.75
227.464	-1.54
227.682	-7.68
227.9	-11.78
228.117	41.47
228.335	29.18
228.553	-26.11
228.771	4.61
228.989	-1.54
229.206	-62.98
229.424	14.85
229.642	74.24
229.86	-1.54
230.077	-11.78
230.295	4.61
230.513	45.57
230.731	41.47
230.948	-24.06
231.166	74.24
231.384	12.8
231.601	-93.69
231.819	37.38
232.037	74.24
232.254	-3.58
232.472	27.14
232.689	41.47
232.907	47.62
233.125	-13.82
233.342	39.42
233.56	18.94
233.777	2.56
233.995	2.56
234.213	109.05
234.43	115.2
234.648	4.61
234.865	16.9
235.083	-17.92
235.3	-85.5
235.518	4.61
235.735	111.1
235.953	64
236.17	-3.58
236.388	-50.69
236.605	43.52
236.822	70.14
237.04	51.71
237.257	-7.68
237.475	29.18
237.692	8.7
237.909	45.57
238.127	-36.35
238.344	35.33
238.562	37.38
238.779	8.7
238.996	53.76
239.214	10.75
239.431	51.71
239.648	43.52
239.865	-34.3
240.083	-5.63
240.3	4.61
240.517	20.99
240.735	-26.11
240.952	-7.68
241.169	16.9
241.386	-50.69
241.603	-3.58
241.821	-54.78
242.038	29.18
242.255	-22.02
242.472	-9.73
242.689	49.66
242.907	33.28
243.124	-15.87
243.341	-28.16
243.558	-9.73
243.775	-34.3
243.992	-73.21
244.209	33.28
244.426	43.52
244.643	-5.63
244.86	43.52
245.078	12.8
245.295	-11.78
245.512	16.9
245.729	-30.21
245.946	33.28
246.163	8.7
246.38	53.76
246.597	-56.83
246.814	16.9
247.031	-28.16
247.248	-3.58
247.464	-36.35
247.681	35.33
247.898	-7.68
248.115	39.42
248.332	4.61
248.549	18.94
248.766	41.47
248.983	18.94
249.2	10.75
249.417	66.05
249.633	-44.54
249.85	-19.97
250.067	14.85
250.284	-32.26
250.501	-11.78
250.717	10.75
250.934	27.14
251.151	57.86
251.368	70.14
251.585	39.42
251.801	12.8
252.018	-5.63
252.235	33.28
252.451	29.18
252.668	35.33
252.885	53.76
253.102	49.66
253.318	70.14
253.535	6.66
253.752	-56.83
253.968	-19.97
254.185	-13.82
254.401	-15.87
254.618	4.61
254.835	-17.92
255.051	4.61
255.268	-7.68
255.484	-32.26
255.701	-46.59
255.917	10.75
256.134	25.09
256.351	64
256.567	55.81
256.784	-3.58
257	-56.83
257.217	-9.73
257.433	6.66
257.65	37.38
257.866	76.29
258.082	49.66
258.299	47.62
258.515	-9.73
258.732	-65.02
258.948	12.8
259.165	2.56
259.381	8.7
259.597	68.09
259.814	10.75
260.03	61.95
260.246	64
260.463	-24.06
260.679	2.56
260.895	20.99
261.112	12.8
261.328	20.99
261.544	6.66
261.761	45.57
261.977	-17.92
262.193	-13.82
262.409	64
262.626	27.14
262.842	33.28
263.058	31.23
263.274	66.05
263.49	-13.82
263.707	-40.45
263.923	20.99
264.139	29.18
264.355	-46.59
264.571	-15.87
264.787	57.86
265.004	-11.78
265.22	-44.54
265.436	-32.26
265.652	4.61
265.868	39.42
266.084	27.14
266.3	-22.02
266.516	-5.63
266.732	-95.74
266.948	18.94
267.164	51.71
267.38	-17.92
267.596	-9.73
267.812	8.7
268.028	-19.97
268.244	-9.73
268.46	-1.54
268.676	-11.78
268.892	33.28
269.108	25.09
269.324	33.28
269.54	-24.06
269.756	66.05
269.972	-38.4
270.188	-58.88
270.403	-44.54
270.619	35.33
270.835	49.66
271.051	-48.64
271.267	-19.97
271.483	-5.63
271.698	-3.58
271.914	25.09
272.13	-15.87
272.346	-52.74
272.562	33.28
272.777	78.33
272.993	4.61
273.209	-97.79
273.425	33.28
273.64	8.7
273.856	53.76
274.072	-48.64
274.287	-24.06
274.503	-7.68
274.719	-13.82
274.934	6.66
275.15	29.18
275.366	-42.5
275.581	37.38
275.797	-3.58
276.012	12.8
276.228	82.43
276.444	16.9
276.659	55.81
276.875	-3.58
277.09	-26.11
277.306	92.67
277.521	-13.82
277.737	14.85
277.952	25.09
278.168	-15.87
278.383	-9.73
278.599	29.18
278.814	16.9
279.03	70.14
279.245	4.61
279.461	-65.02
279.676	-42.5
279.892	-19.97
280.107	14.85
280.322	25.09
280.538	35.33
280.753	45.57
280.969	8.7
281.184	41.47
281.399	35.33
281.615	-19.97
281.83	37.38
282.045	8.7
282.26	-50.69
282.476	14.85
282.691	-7.68
282.906	-28.16
283.122	-5.63
283.337	-40.45
283.552	78.33
283.767	-19.97
283.983	49.66
284.198	27.14
284.413	72.19
284.628	-19.97
284.843	43.52
285.058	37.38
285.274	4.61
285.489	-34.3
285.704	-44.54
285.919	-26.11
286.134	-34.3
286.349	-40.45
286.564	96.77
286.779	16.9
286.995	8.7
287.21	-52.74
287.425	20.99
287.64	-17.92
287.855	-28.16
288.07	-60.93
288.285	33.28
288.5	33.28
288.715	37.38
288.93	-19.97
289.145	-17.92
289.36	47.62
289.575	4.61
289.79	-9.73
290.004	39.42
290.219	57.86
290.434	16.9
290.649	-24.06
290.864	-75.26
291.079	-13.82
291.294	86.53
291.509	25.09
291.724	-26.11
291.938	-7.68
292.153	33.28
292.368	59.9
292.583	-15.87
292.798	6.66
293.012	-108.03
293.227	31.23
293.442	37.38
293.657	53.76
293.871	-40.45
294.086	29.18
294.301	-9.73
294.516	92.67
294.73	8.7
294.945	37.38
295.16	23.04
295.374	-7.68
295.589	-15.87
295.804	10.75
296.018	-13.82
296.233	-1.54
296.447	53.76
296.662	-1.54
296.877	-1.54
297.091	6.66
297.306	2.56
297.52	-34.3
297.735	-19.97
297.949	20.99
298.164	-5.63
298.378	12.8
298.593	-9.73
298.807	0.51
299.022	10.75
299.236	64
299.451	-17.92
299.665	20.99
299.88	8.7
300.094	23.04
300.309	-11.78
300.523	-11.78
300.737	8.7
300.952	6.66
301.166	41.47
301.381	4.61
301.595	-17.92
301.809	18.94
302.024	35.33
302.238	16.9
302.452	72.19
302.667	0.51
302.881	92.67
303.095	64
303.309	18.94
303.524	4.61
303.738	25.09
303.952	-34.3
304.166	78.33
304.381	-40.45
304.595	68.09
304.809	0.51
305.023	12.8
305.237	8.7
305.452	2.56
305.666	20.99
305.88	31.23
306.094	-7.68
306.308	37.38
306.522	64
306.736	27.14
306.95	-24.06
307.164	-7.68
307.379	10.75
307.593	57.86
307.807	20.99
308.021	20.99
308.235	45.57
308.449	-11.78
308.663	-1.54
308.877	-17.92
309.091	20.99
309.305	53.76
309.519	-71.17
309.733	-28.16
309.947	29.18
310.161	27.14
310.374	61.95
310.588	29.18
310.802	4.61
311.016	-56.83
311.23	12.8
311.444	-5.63
311.658	25.09
311.872	10.75
312.085	37.38
312.299	88.57
312.513	33.28
312.727	45.57
312.941	-17.92
313.154	49.66
313.368	-5.63
313.582	55.81
313.796	2.56
314.009	47.62
314.223	12.8
314.437	-15.87
314.651	43.52
314.864	92.67
315.078	-73.21
315.292	45.57
315.505	-65.02
315.719	37.38
315.933	-7.68
316.146	74.24
316.36	-52.74
316.573	115.2
316.787	-3.58
317.001	76.29
317.214	-1.54
317.428	-11.78
317.641	-22.02
317.855	-50.69
318.068	0.51
318.282	-44.54
318.495	-7.68
318.709	2.56
318.922	-17.92
319.136	31.23
319.349	66.05
319.563	6.66
319.776	-28.16
319.99	43.52
320.203	92.67
320.417	20.99
320.63	-11.78
320.843	66.05
321.057	-7.68
321.27	-3.58
321.483	6.66
321.697	-11.78
321.91	27.14
322.124	72.19
322.337	64
322.55	14.85
322.763	35.33
322.977	72.19
323.19	-11.78
323.403	59.9
323.617	2.56
323.83	53.76
324.043	-19.97
324.256	-52.74
324.469	-67.07
324.683	55.81
324.896	33.28
325.109	8.7
325.322	-50.69
325.535	-19.97
325.748	27.14
325.962	-26.11
326.175	23.04
326.388	-15.87
326.601	45.57
326.814	88.57
327.027	2.56
327.24	-15.87
327.453	2.56
327.666	37.38
327.879	61.95
328.092	-5.63
328.305	-22.02
328.518	57.86
328.731	-26.11
328.944	33.28
329.157	90.62
329.37	51.71
329.583	43.52
329.796	31.23
330.009	12.8
330.222	53.76
330.435	66.05
330.648	47.62
330.861	33.28
331.073	-9.73
331.286	37.38
331.499	16.9
331.712	-11.78
331.925	14.85
332.138	-11.78
332.35	51.71
332.563	-34.3
332.776	31.23
332.989	35.33
333.202	16.9
333.414	14.85
333.627	39.42
333.84	10.75
334.053	109.05
334.265	-3.58
334.478	39.42
334.691	-1.54
334.903	49.66
335.116	-9.73
335.329	37.38
335.541	59.9
335.754	16.9
335.966	-44.54
336.179	12.8
336.392	18.94
336.604	57.86
336.817	-38.4
337.029	31.23
337.242	20.99
337.454	23.04
337.667	-32.26
337.88	51.71
338.092	4.61
338.305	-32.26
338.517	27.14
338.729	-67.07
338.942	12.8
339.154	57.86
339.367	-28.16
339.579	-15.87
339.792	12.8
340.004	31.23
340.217	25.09
340.429	23.04
340.641	68.09
340.854	20.99
341.066	6.66
341.278	49.66
341.491	51.71
341.703	25.09
341.915	-65.02
342.128	64
342.34	37.38
342.552	6.66
342.764	20.99
342.977	-15.87
343.189	8.7
343.401	33.28
343.613	-15.87
343.826	98.81
344.038	-15.87
344.25	-38.4
344.462	-77.31
344.674	27.14
344.886	23.04
345.099	-56.83
345.311	29.18
345.523	14.85
345.735	37.38
345.947	37.38
346.159	0.51
346.371	-17.92
346.583	6.66
346.795	25.09
347.007	-1.54
347.219	23.04
347.431	37.38
347.643	57.86
347.855	4.61
348.067	49.66
348.279	-50.69
348.491	12.8
348.703	43.52
348.915	47.62
349.127	25.09
349.339	-40.45
349.551	0.51
349.763	96.77
349.975	27.14
350.187	39.42
350.399	117.25
350.61	14.85
350.822	-15.87
351.034	70.14
351.246	-15.87
351.458	45.57
351.669	74.24
351.881	53.76
352.093	20.99
352.305	23.04
352.517	4.61
352.728	61.95
352.94	20.99
353.152	10.75
353.363	-11.78
353.575	-28.16
353.787	86.53
353.999	61.95
354.21	98.81
354.422	-36.35
354.633	-38.4
354.845	16.9
355.057	14.85
355.268	29.18
355.48	25.09
355.692	-7.68
355.903	27.14
356.115	-48.64
356.326	-30.21
356.538	43.52
356.749	25.09
356.961	16.9
357.172	16.9
357.384	43.52
357.595	25.09
357.807	43.52
358.018	-15.87
358.23	74.24
358.441	25.09
358.653	43.52
358.864	-17.92
359.075	18.94
359.287	27.14
359.498	25.09
359.709	64
359.921	72.19
360.132	61.95
360.344	14.85
360.555	-3.58
360.766	92.67
360.977	-3.58
361.189	70.14
361.4	18.94
361.611	64
361.823	-1.54
362.034	43.52
362.245	45.57
362.456	86.53
362.667	53.76
362.879	-7.68
363.09	-17.92
363.301	78.33
363.512	-71.17
363.723	45.57
363.935	29.18
364.146	-3.58
364.357	14.85
364.568	82.43
364.779	-34.3
364.99	10.75
365.201	-40.45
365.412	33.28
365.623	20.99
365.834	27.14
366.045	47.62
366.256	31.23
366.467	35.33
366.678	-40.45
366.889	109.05
367.1	-9.73
367.311	12.8
367.522	43.52
367.733	53.76
367.944	35.33
368.155	33.28
368.366	31.23
368.577	-11.78
368.788	39.42
368.999	-40.45
369.209	12.8
369.42	152.06
369.631	45.57
369.842	115.2
370.053	53.76
370.264	12.8
370.474	51.71
370.685	0.51
370.896	70.14
371.107	51.71
371.317	51.71
371.528	33.28
371.739	51.71
371.95	33.28
372.16	57.86
372.371	18.94
372.582	16.9
372.792	88.57
373.003	45.57
373.214	70.14
373.424	53.76
373.635	18.94
373.846	31.23
374.056	-32.26
374.267	43.52
374.477	-24.06
374.688	4.61
374.898	47.62
375.109	4.61
375.319	10.75
375.53	27.14
375.74	107.01
375.951	10.75
376.161	-40.45
376.372	51.71
376.582	47.62
376.793	82.43
377.003	-22.02
377.214	-22.02
377.424	20.99
377.635	2.56
377.845	25.09
378.055	37.38
378.266	59.9
378.476	12.8
378.686	66.05
378.897	10.75
379.107	-32.26
379.317	-3.58
379.528	-7.68
379.738	27.14
379.948	31.23
380.158	27.14
380.369	-89.6
380.579	-34.3
380.789	-1.54
380.999	31.23
381.21	-34.3
381.42	-13.82
381.63	27.14
381.84	-19.97
382.05	31.23
382.261	4.61
382.471	25.09
382.681	-15.87
382.891	8.7
383.101	92.67
383.311	-46.59
383.521	-1.54
383.731	51.71
383.941	25.09
384.151	0.51
384.361	88.57
384.571	-11.78
384.781	111.1
384.991	47.62
385.201	25.09
385.411	-26.11
385.621	129.53
385.831	39.42
386.041	-28.16
386.251	20.99
386.461	16.9
386.671	59.9
386.881	-1.54
387.091	37.38
387.301	51.71
387.511	37.38
387.72	-65.02
387.93	37.38
388.14	37.38
388.35	70.14
388.56	-24.06
388.769	-13.82
388.979	88.57
389.189	8.7
389.399	18.94
389.609	25.09
389.818	82.43
390.028	68.09
390.238	141.82
390.447	29.18
390.657	47.62
390.867	51.71
391.076	107.01
391.286	102.91
391.496	-40.45
391.705	23.04
391.915	64
392.125	66.05
392.334	2.56
392.544	127.49
392.753	49.66
392.963	84.48
393.172	27.14
393.382	-15.87
393.591	86.53
393.801	16.9
394.01	27.14
394.22	119.29
394.429	37.38
394.639	43.52
394.848	35.33
395.058	12.8
395.267	102.91
395.477	68.09
395.686	51.71
395.895	137.73
396.105	109.05
396.314	-22.02
396.524	53.76
396.733	98.81
396.942	82.43
397.152	55.81
397.361	33.28
397.57	55.81
397.78	70.14
397.989	68.09
398.198	90.62
398.407	88.57
398.617	78.33
398.826	88.57
399.035	115.2
399.244	80.38
399.453	23.04
399.663	117.25
399.872	-11.78
400.081	35.33
400.29	29.18
400.499	86.53
400.708	102.91
400.917	117.25
401.127	61.95
401.336	8.7
401.545	117.25
401.754	82.43
401.963	78.33
402.172	29.18
402.381	109.05
402.59	102.91
402.799	86.53
403.008	86.53
403.217	72.19
403.426	104.96
403.635	90.62
403.844	127.49
404.053	107.01
404.262	41.47
404.471	100.86
404.68	86.53
404.888	158.21
405.097	94.72
405.306	121.34
405.515	82.43
405.724	41.47
405.933	109.05
406.142	156.16
406.35	143.87
406.559	109.05
406.768	37.38
406.977	137.73
407.185	193.02
407.394	141.82
407.603	172.54
407.812	129.53
408.02	96.77
408.229	182.78
408.438	246.27
408.646	205.31
408.855	217.6
409.064	178.69
409.272	162.3
409.481	242.17
409.69	180.73
409.898	172.54
410.107	252.41
410.315	262.65
410.524	158.21
410.733	225.79
410.941	225.79
411.15	254.46
411.358	276.99
411.567	283.13
411.775	303.61
411.984	307.71
412.192	324.09
412.401	274.94
412.609	403.96
412.818	354.81
413.026	348.67
413.234	375.29
413.443	354.81
413.651	365.05
413.86	426.49
414.068	428.54
414.276	459.26
414.485	416.25
414.693	481.78
414.901	541.18
415.11	561.66
415.318	610.81
415.526	553.46
415.734	541.18
415.943	625.14
416.151	694.77
416.359	616.95
416.567	698.87
416.776	698.87
416.984	760.31
417.192	770.55
417.4	784.88
417.608	690.68
417.817	750.07
418.025	866.8
418.233	854.51
418.441	809.46
418.649	846.32
418.857	915.95
419.065	1008.11
419.273	928.24
419.481	1069.55
419.689	1067.5
419.897	1112.56
420.105	1157.61
420.313	1167.85
420.521	1282.54
420.729	1239.53
420.937	1237.49
421.145	1323.5
421.353	1456.62
421.561	1468.91
421.769	1501.67
421.977	1608.17
422.185	1583.59
422.393	1626.6
422.601	1741.29
422.809	1683.94
423.017	1729
423.224	1835.49
423.432	1962.47
423.64	1849.83
423.848	2081.25
424.056	2107.87
424.263	2142.69
424.471	2216.41
424.679	2224.61
424.887	2398.68
425.094	2357.72
425.302	2460.12
425.51	2472.41
425.718	2607.58
425.925	2552.28
426.133	2646.49
426.341	2900.44
426.548	2970.07
426.756	2939.35
426.964	3092.94
427.171	3232.21
427.379	3336.65
427.586	3365.32
427.794	3402.19
428.001	3654.09
428.209	3736.01
428.417	3660.23
428.624	3881.41
428.832	4041.15
429.039	3901.89
429.247	4026.82
429.454	4256.19
429.662	4747.7
429.869	4213.18
430.076	4565.43
430.284	4438.46
430.491	4604.35
430.699	5083.57
430.906	4940.21
431.114	5173.68
431.321	5188.02
431.528	5431.73
431.736	5601.71
431.943	5861.8
432.15	5681.58
432.358	5872.04
432.565	6209.95
432.772	6261.15
432.979	6300.06
433.187	6453.66
433.394	6705.56
433.601	7131.54
433.808	7037.33
434.016	6988.18
434.223	7440.78
434.43	7629.2
434.637	7651.72
434.844	7889.29
435.052	8421.76
435.259	8145.28
435.466	8296.83
435.673	8210.82
435.88	8655.23
436.087	9038.2
436.294	9302.39
436.501	8993.14
436.708	9023.86
436.915	9425.26
437.122	9894.25
437.329	9787.75
437.537	10148.2
437.743	10189.16
437.95	10285.41
438.157	10717.53
438.364	11073.88
438.571	11030.87
438.778	11297.11
438.985	12253.51
439.192	11893.07
439.399	12167.49
439.606	11841.87
439.813	12704.06
440.02	13142.33
440.227	13048.12
440.433	12904.76
440.64	13494.58
440.847	13363.51
441.054	13740.33
441.261	14299.43
441.467	14489.89
441.674	14620.96
441.881	15235.35
442.088	15005.98
442.294	15139.1
442.501	15313.17
442.708	15769.87
442.914	16314.63
443.121	17066.24
443.328	16431.37
443.534	17744.11
443.741	17172.73
443.948	17359.1
444.154	18184.43
444.361	18008.3
444.568	18104.56
444.774	18051.31
444.981	18481.38
445.187	18819.3
445.394	19837.14
445.6	19134.68
445.807	21424.31
446.013	20439.24
446.22	21004.48
446.426	21594.29
446.633	22012.08
446.839	22497.45
447.046	21772.47
447.252	23093.41
447.459	22958.24
447.665	22782.12
447.871	24004.75
448.078	24469.64
448.284	23314.59
448.491	24199.31
448.697	25004.16
448.903	25577.59
449.11	25491.58
449.316	25370.75
449.522	25700.47
449.728	26179.7
449.935	26458.22
450.141	26654.83
450.347	27373.66
450.553	26413.16
450.76	26253.42
450.966	27361.37
451.172	27072.61
451.378	27871.32
451.584	27088.99
451.791	28029.01
451.997	27707.48
452.203	28424.27
452.409	28053.59
452.615	27895.89
452.821	27025.51
453.027	26550.38
453.233	27912.28
453.44	27066.47
453.646	27527.26
453.852	27263.07
454.058	27652.19
454.264	26812.52
454.47	27514.97
454.676	26767.46
454.882	27617.37
455.088	25079.94
455.294	25413.76
455.5	25954.42
455.705	26054.77
455.911	24928.39
456.117	24615.05
456.323	23965.84
456.529	23259.29
456.735	24066.19
456.941	23394.46
457.147	23308.44
457.352	22599.85
457.558	22106.29
457.764	21944.5
457.97	21541.05
458.176	21414.07
458.381	20994.24
458.587	20091.09
458.793	19822.8
458.999	19298.52
459.204	20181.2
459.41	19681.49
459.616	18649.32
459.821	18837.73
460.027	18376.94
460.233	18258.15
460.438	17361.14
460.644	17307.9
460.85	16662.79
461.055	16392.45
461.261	16425.22
461.466	15096.09
461.672	14885.15
461.878	15669.52
462.083	14776.61
462.289	14233.89
462.494	14336.29
462.7	13656.37
462.905	13291.83
463.111	13848.88
463.316	13730.09
463.522	13562.16
463.727	13498.67
463.932	13545.78
464.138	13220.15
464.343	13461.81
464.549	12833.08
464.754	13363.51
464.959	13429.04
465.165	13291.83
465.37	12622.14
465.575	12128.58
465.781	12753.21
465.986	13003.07
466.191	12470.59
466.397	12360
466.602	11770.19
466.807	12118.34
467.012	11993.42
467.218	12222.79
467.423	11854.16
467.628	12073.29
467.833	12464.45
