Data from USB4F104151__181__11-09-31-943.txt Node

Date: Wed Mar 12 11:09:31 EDT 2025
User: louis
Spectrometer: USB4F10415
Trigger mode: 4
Integration Time (sec): 2.000000E-2
Scans to average: 1
Electric dark correction enabled: true
Nonlinearity correction enabled: false
Boxcar width: 0
XAxis mode: Wavelengths
Number of Pixels in Spectrum: 3648
>>>>>Begin Spectral Data<<<<<
178.204	43.69
178.424	43.69
178.644	43.69
178.864	-68.95
179.084	-62.8
179.304	35.5
179.524	-40.28
179.744	-13.65
179.964	-7.51
180.184	47.79
180.404	-11.61
180.624	6.83
180.844	-50.52
181.064	-54.61
181.283	-1.37
181.503	19.11
181.723	70.31
181.943	39.59
182.163	94.89
182.383	37.55
182.602	58.03
182.822	64.17
183.042	43.69
183.262	-30.04
183.482	2.73
183.701	55.98
183.921	-5.46
184.141	-25.94
184.361	41.64
184.58	10.92
184.8	66.22
185.02	53.93
185.239	78.51
185.459	21.16
185.679	29.35
185.898	-25.94
186.118	2.73
186.338	10.92
186.557	76.46
186.777	4.78
186.997	17.07
187.216	0.68
187.436	45.74
187.655	80.55
187.875	45.74
188.095	49.83
188.314	27.31
188.534	90.79
188.753	35.5
188.973	10.92
189.192	80.55
189.412	-21.85
189.631	-3.41
189.851	23.21
190.07	0.68
190.29	-13.65
190.509	15.02
190.729	41.64
190.948	-21.85
191.168	74.41
191.387	-23.89
191.607	17.07
191.826	4.78
192.045	33.45
192.265	76.46
192.484	43.69
192.704	33.45
192.923	27.31
193.142	94.89
193.362	23.21
193.581	109.22
193.8	31.4
194.02	88.75
194.239	17.07
194.458	-27.99
194.678	49.83
194.897	-3.41
195.116	31.4
195.335	15.02
195.555	49.83
195.774	53.93
195.993	-19.8
196.212	10.92
196.432	55.98
196.651	8.87
196.87	68.27
197.089	51.88
197.308	62.12
197.528	-71
197.747	-13.65
197.966	88.75
198.185	113.32
198.404	10.92
198.623	117.42
198.842	31.4
199.062	-19.8
199.281	107.18
199.5	-9.56
199.719	-68.95
199.938	-1.37
200.157	-5.46
200.376	31.4
200.595	80.55
200.814	-46.42
201.033	0.68
201.252	117.42
201.471	66.22
201.69	37.55
201.909	70.31
202.128	49.83
202.347	68.27
202.566	-30.04
202.785	-5.46
203.004	21.16
203.223	47.79
203.442	10.92
203.661	19.11
203.879	58.03
204.098	-42.32
204.317	60.07
204.536	49.83
204.755	27.31
204.974	88.75
205.193	76.46
205.411	66.22
205.63	19.11
205.849	41.64
206.068	12.97
206.287	0.68
206.505	41.64
206.724	49.83
206.943	70.31
207.162	62.12
207.381	15.02
207.599	25.26
207.818	55.98
208.037	19.11
208.255	31.4
208.474	12.97
208.693	60.07
208.911	25.26
209.13	-11.61
209.349	101.03
209.567	125.61
209.786	47.79
210.005	-85.33
210.223	12.97
210.442	0.68
210.661	121.51
210.879	88.75
211.098	-21.85
211.316	39.59
211.535	82.6
211.753	6.83
211.972	76.46
212.191	29.35
212.409	55.98
212.628	29.35
212.846	58.03
213.065	82.6
213.283	0.68
213.502	0.68
213.72	76.46
213.938	19.11
214.157	19.11
214.375	58.03
214.594	76.46
214.812	33.45
215.031	31.4
215.249	19.11
215.467	-9.56
215.686	10.92
215.904	51.88
216.122	6.83
216.341	4.78
216.559	82.6
216.778	47.79
216.996	6.83
217.214	41.64
217.432	31.4
217.651	31.4
217.869	6.83
218.087	41.64
218.306	-23.89
218.524	37.55
218.742	10.92
218.96	-34.13
219.179	-48.47
219.397	47.79
219.615	55.98
219.833	55.98
220.051	33.45
220.27	37.55
220.488	12.97
220.706	29.35
220.924	33.45
221.142	68.27
221.36	37.55
221.578	8.87
221.796	68.27
222.015	55.98
222.233	68.27
222.451	27.31
222.669	-3.41
222.887	62.12
223.105	12.97
223.323	41.64
223.541	17.07
223.759	76.46
223.977	62.12
224.195	51.88
224.413	23.21
224.631	45.74
224.849	17.07
225.067	84.65
225.285	58.03
225.503	2.73
225.721	-50.52
225.939	-34.13
226.157	88.75
226.375	43.69
226.592	-62.8
226.81	19.11
227.028	-36.18
227.246	55.98
227.464	-42.32
227.682	37.55
227.9	-7.51
228.117	37.55
228.335	-1.37
228.553	-21.85
228.771	19.11
228.989	64.17
229.206	10.92
229.424	64.17
229.642	-17.75
229.86	8.87
230.077	115.37
230.295	55.98
230.513	80.55
230.731	-9.56
230.948	8.87
231.166	82.6
231.384	19.11
231.601	90.79
231.819	15.02
232.037	105.13
232.254	49.83
232.472	-5.46
232.689	10.92
232.907	101.03
233.125	2.73
233.342	-13.65
233.56	37.55
233.777	60.07
233.995	-11.61
234.213	43.69
234.43	-50.52
234.648	33.45
234.865	-3.41
235.083	19.11
235.3	35.5
235.518	6.83
235.735	146.09
235.953	51.88
236.17	15.02
236.388	27.31
236.605	58.03
236.822	-9.56
237.04	17.07
237.257	33.45
237.475	31.4
237.692	35.5
237.909	98.99
238.127	-3.41
238.344	49.83
238.562	-13.65
238.779	-5.46
238.996	39.59
239.214	-75.09
239.431	-15.7
239.648	-9.56
239.865	55.98
240.083	2.73
240.3	-44.37
240.517	33.45
240.735	47.79
240.952	131.75
241.169	43.69
241.386	51.88
241.603	8.87
241.821	-15.7
242.038	49.83
242.255	43.69
242.472	2.73
242.689	15.02
242.907	2.73
243.124	19.11
243.341	-27.99
243.558	0.68
243.775	-15.7
243.992	31.4
244.209	27.31
244.426	8.87
244.643	82.6
244.86	33.45
245.078	15.02
245.295	39.59
245.512	19.11
245.729	35.5
245.946	-83.28
246.163	60.07
246.38	103.08
246.597	62.12
246.814	27.31
247.031	49.83
247.248	127.66
247.464	-64.85
247.681	-56.66
247.898	68.27
248.115	68.27
248.332	31.4
248.549	78.51
248.766	76.46
248.983	-25.94
249.2	10.92
249.417	58.03
249.633	74.41
249.85	35.5
250.067	37.55
250.284	29.35
250.501	45.74
250.717	35.5
250.934	-52.56
251.151	19.11
251.368	12.97
251.585	47.79
251.801	10.92
252.018	12.97
252.235	6.83
252.451	23.21
252.668	60.07
252.885	80.55
253.102	62.12
253.318	76.46
253.535	-11.61
253.752	35.5
253.968	27.31
254.185	-11.61
254.401	12.97
254.618	55.98
254.835	-5.46
255.051	31.4
255.268	80.55
255.484	-21.85
255.701	6.83
255.917	150.18
256.134	31.4
256.351	82.6
256.567	-56.66
256.784	74.41
257	-19.8
257.217	66.22
257.433	64.17
257.65	62.12
257.866	68.27
258.082	15.02
258.299	-34.13
258.515	15.02
258.732	35.5
258.948	19.11
259.165	17.07
259.381	15.02
259.597	55.98
259.814	49.83
260.03	6.83
260.246	-5.46
260.463	27.31
260.679	4.78
260.895	10.92
261.112	27.31
261.328	49.83
261.544	17.07
261.761	146.09
261.977	-36.18
262.193	-30.04
262.409	15.02
262.626	-34.13
262.842	25.26
263.058	103.08
263.274	64.17
263.49	-23.89
263.707	58.03
263.923	-11.61
264.139	-13.65
264.355	-13.65
264.571	92.84
264.787	-5.46
265.004	-9.56
265.22	94.89
265.436	25.26
265.652	23.21
265.868	76.46
266.084	29.35
266.3	68.27
266.516	76.46
266.732	45.74
266.948	25.26
267.164	58.03
267.38	51.88
267.596	107.18
267.812	135.85
268.028	-46.42
268.244	31.4
268.46	60.07
268.676	49.83
268.892	43.69
269.108	-15.7
269.324	17.07
269.54	2.73
269.756	47.79
269.972	29.35
270.188	74.41
270.403	-32.08
270.619	66.22
270.835	25.26
271.051	39.59
271.267	66.22
271.483	-13.65
271.698	-36.18
271.914	90.79
272.13	53.93
272.346	-25.94
272.562	49.83
272.777	35.5
272.993	47.79
273.209	94.89
273.425	-1.37
273.64	-17.75
273.856	10.92
274.072	10.92
274.287	-54.61
274.503	64.17
274.719	31.4
274.934	19.11
275.15	-32.08
275.366	21.16
275.581	45.74
275.797	-34.13
276.012	51.88
276.228	-5.46
276.444	-1.37
276.659	4.78
276.875	-1.37
277.09	23.21
277.306	80.55
277.521	27.31
277.737	37.55
277.952	64.17
278.168	-87.38
278.383	35.5
278.599	23.21
278.814	8.87
279.03	29.35
279.245	47.79
279.461	76.46
279.676	92.84
279.892	0.68
280.107	-32.08
280.322	60.07
280.538	2.73
280.753	-30.04
280.969	-5.46
281.184	23.21
281.399	25.26
281.615	8.87
281.83	35.5
282.045	-7.51
282.26	64.17
282.476	-19.8
282.691	27.31
282.906	27.31
283.122	45.74
283.337	-36.18
283.552	78.51
283.767	29.35
283.983	31.4
284.198	43.69
284.413	47.79
284.628	-11.61
284.843	17.07
285.058	-38.23
285.274	53.93
285.489	12.97
285.704	47.79
285.919	2.73
286.134	113.32
286.349	-13.65
286.564	62.12
286.779	43.69
286.995	45.74
287.21	-58.71
287.425	2.73
287.64	0.68
287.855	23.21
288.07	58.03
288.285	17.07
288.5	29.35
288.715	62.12
288.93	-25.94
289.145	35.5
289.36	90.79
289.575	35.5
289.79	43.69
290.004	47.79
290.219	-17.75
290.434	60.07
290.649	19.11
290.864	88.75
291.079	76.46
291.294	103.08
291.509	43.69
291.724	-40.28
291.938	70.31
292.153	-15.7
292.368	-30.04
292.583	84.65
292.798	19.11
293.012	-17.75
293.227	39.59
293.442	31.4
293.657	43.69
293.871	43.69
294.086	-46.42
294.301	10.92
294.516	33.45
294.73	2.73
294.945	25.26
295.16	23.21
295.374	0.68
295.589	109.22
295.804	-7.51
296.018	51.88
296.233	88.75
296.447	39.59
296.662	19.11
296.877	33.45
297.091	43.69
297.306	2.73
297.52	-23.89
297.735	60.07
297.949	-62.8
298.164	84.65
298.378	-30.04
298.593	37.55
298.807	-23.89
299.022	51.88
299.236	-1.37
299.451	-19.8
299.665	10.92
299.88	23.21
300.094	-13.65
300.309	-27.99
300.523	41.64
300.737	12.97
300.952	31.4
301.166	35.5
301.381	39.59
301.595	25.26
301.809	2.73
302.024	-21.85
302.238	-7.51
302.452	60.07
302.667	17.07
302.881	-5.46
303.095	21.16
303.309	31.4
303.524	107.18
303.738	-19.8
303.952	39.59
304.166	-9.56
304.381	25.26
304.595	74.41
304.809	17.07
305.023	8.87
305.237	21.16
305.452	19.11
305.666	15.02
305.88	-9.56
306.094	53.93
306.308	-25.94
306.522	-5.46
306.736	92.84
306.95	27.31
307.164	64.17
307.379	49.83
307.593	55.98
307.807	27.31
308.021	60.07
308.235	-13.65
308.449	60.07
308.663	27.31
308.877	94.89
309.091	72.36
309.305	129.7
309.519	2.73
309.733	25.26
309.947	-30.04
310.161	23.21
310.374	8.87
310.588	55.98
310.802	62.12
311.016	64.17
311.23	64.17
311.444	51.88
311.658	43.69
311.872	0.68
312.085	-13.65
312.299	64.17
312.513	31.4
312.727	64.17
312.941	27.31
313.154	66.22
313.368	55.98
313.582	-54.61
313.796	-3.41
314.009	33.45
314.223	80.55
314.437	39.59
314.651	17.07
314.864	27.31
315.078	41.64
315.292	60.07
315.505	64.17
315.719	76.46
315.933	47.79
316.146	27.31
316.36	62.12
316.573	80.55
316.787	49.83
317.001	2.73
317.214	-3.41
317.428	31.4
317.641	12.97
317.855	23.21
318.068	43.69
318.282	115.37
318.495	74.41
318.709	27.31
318.922	-13.65
319.136	74.41
319.349	15.02
319.563	-11.61
319.776	51.88
319.99	31.4
320.203	60.07
320.417	17.07
320.63	51.88
320.843	10.92
321.057	10.92
321.27	-40.28
321.483	-5.46
321.697	66.22
321.91	66.22
322.124	55.98
322.337	94.89
322.55	23.21
322.763	10.92
322.977	39.59
323.19	101.03
323.403	70.31
323.617	-11.61
323.83	109.22
324.043	64.17
324.256	76.46
324.469	80.55
324.683	35.5
324.896	55.98
325.109	103.08
325.322	21.16
325.535	27.31
325.748	68.27
325.962	4.78
326.175	64.17
326.388	21.16
326.601	27.31
326.814	-11.61
327.027	31.4
327.24	31.4
327.453	17.07
327.666	4.78
327.879	-11.61
328.092	45.74
328.305	45.74
328.518	45.74
328.731	21.16
328.944	94.89
329.157	41.64
329.37	88.75
329.583	76.46
329.796	35.5
330.009	15.02
330.222	64.17
330.435	27.31
330.648	66.22
330.861	23.21
331.073	10.92
331.286	37.55
331.499	31.4
331.712	33.45
331.925	19.11
332.138	-1.37
332.35	96.94
332.563	41.64
332.776	41.64
332.989	-21.85
333.202	37.55
333.414	25.26
333.627	6.83
333.84	51.88
334.053	12.97
334.265	19.11
334.478	60.07
334.691	17.07
334.903	21.16
335.116	55.98
335.329	-79.19
335.541	62.12
335.754	10.92
335.966	43.69
336.179	37.55
336.392	8.87
336.604	-25.94
336.817	49.83
337.029	66.22
337.242	60.07
337.454	19.11
337.667	35.5
337.88	39.59
338.092	37.55
338.305	8.87
338.517	82.6
338.729	43.69
338.942	35.5
339.154	-52.56
339.367	33.45
339.579	15.02
339.792	-46.42
340.004	47.79
340.217	43.69
340.429	47.79
340.641	19.11
340.854	-17.75
341.066	51.88
341.278	78.51
341.491	33.45
341.703	37.55
341.915	45.74
342.128	35.5
342.34	15.02
342.552	-9.56
342.764	2.73
342.977	37.55
343.189	64.17
343.401	37.55
343.613	-42.32
343.826	53.93
344.038	2.73
344.25	84.65
344.462	-7.51
344.674	94.89
344.886	33.45
345.099	37.55
345.311	23.21
345.523	-5.46
345.735	37.55
345.947	29.35
346.159	82.6
346.371	4.78
346.583	-21.85
346.795	53.93
347.007	31.4
347.219	15.02
347.431	55.98
347.643	76.46
347.855	27.31
348.067	19.11
348.279	51.88
348.491	62.12
348.703	49.83
348.915	72.36
349.127	12.97
349.339	27.31
349.551	58.03
349.763	103.08
349.975	31.4
350.187	109.22
350.399	51.88
350.61	-9.56
350.822	-1.37
351.034	39.59
351.246	51.88
351.458	105.13
351.669	19.11
351.881	125.61
352.093	78.51
352.305	88.75
352.517	43.69
352.728	35.5
352.94	8.87
353.152	27.31
353.363	37.55
353.575	49.83
353.787	33.45
353.999	70.31
354.21	84.65
354.422	-11.61
354.633	-3.41
354.845	58.03
355.057	76.46
355.268	31.4
355.48	51.88
355.692	-34.13
355.903	-30.04
356.115	66.22
356.326	41.64
356.538	115.37
356.749	23.21
356.961	60.07
357.172	-56.66
357.384	31.4
357.595	101.03
357.807	-19.8
358.018	2.73
358.23	41.64
358.441	25.26
358.653	103.08
358.864	-7.51
359.075	133.8
359.287	-36.18
359.498	25.26
359.709	70.31
359.921	82.6
360.132	41.64
360.344	39.59
360.555	29.35
360.766	74.41
360.977	23.21
361.189	53.93
361.4	25.26
361.611	64.17
361.823	64.17
362.034	82.6
362.245	-30.04
362.456	12.97
362.667	70.31
362.879	55.98
363.09	47.79
363.301	90.79
363.512	101.03
363.723	27.31
363.935	-9.56
364.146	76.46
364.357	86.7
364.568	21.16
364.779	8.87
364.99	39.59
365.201	2.73
365.412	47.79
365.623	35.5
365.834	78.51
366.045	88.75
366.256	35.5
366.467	39.59
366.678	92.84
366.889	47.79
367.1	-38.23
367.311	31.4
367.522	27.31
367.733	62.12
367.944	47.79
368.155	90.79
368.366	2.73
368.577	66.22
368.788	76.46
368.999	-9.56
369.209	37.55
369.42	119.46
369.631	111.27
369.842	39.59
370.053	-5.46
370.264	27.31
370.474	107.18
370.685	-1.37
370.896	8.87
371.107	58.03
371.317	-19.8
371.528	-17.75
371.739	39.59
371.95	21.16
372.16	101.03
372.371	-1.37
372.582	-42.32
372.792	35.5
373.003	62.12
373.214	23.21
373.424	37.55
373.635	41.64
373.846	144.04
374.056	23.21
374.267	51.88
374.477	0.68
374.688	31.4
374.898	29.35
375.109	64.17
375.319	90.79
375.53	29.35
375.74	27.31
375.951	-21.85
376.161	49.83
376.372	72.36
376.582	23.21
376.793	43.69
377.003	53.93
377.214	72.36
377.424	51.88
377.635	70.31
377.845	-1.37
378.055	25.26
378.266	-30.04
378.476	8.87
378.686	80.55
378.897	19.11
379.107	43.69
379.317	25.26
379.528	74.41
379.738	72.36
379.948	10.92
380.158	119.46
380.369	-52.56
380.579	166.57
380.789	2.73
380.999	58.03
381.21	39.59
381.42	-9.56
381.63	-27.99
381.84	43.69
382.05	94.89
382.261	33.45
382.471	51.88
382.681	6.83
382.891	10.92
383.101	-7.51
383.311	23.21
383.521	-56.66
383.731	98.99
383.941	41.64
384.151	58.03
384.361	6.83
384.571	-5.46
384.781	60.07
384.991	84.65
385.201	23.21
385.411	-23.89
385.621	15.02
385.831	6.83
386.041	37.55
386.251	60.07
386.461	21.16
386.671	6.83
386.881	35.5
387.091	35.5
387.301	51.88
387.511	55.98
387.72	121.51
387.93	55.98
388.14	68.27
388.35	25.26
388.56	39.59
388.769	60.07
388.979	51.88
389.189	33.45
389.399	53.93
389.609	58.03
389.818	39.59
390.028	27.31
390.238	64.17
390.447	0.68
390.657	35.5
390.867	82.6
391.076	31.4
391.286	74.41
391.496	45.74
391.705	45.74
391.915	10.92
392.125	-5.46
392.334	92.84
392.544	101.03
392.753	123.56
392.963	68.27
393.172	117.42
393.382	55.98
393.591	60.07
393.801	70.31
394.01	70.31
394.22	19.11
394.429	8.87
394.639	60.07
394.848	74.41
395.058	35.5
395.267	113.32
395.477	98.99
395.686	53.93
395.895	80.55
396.105	129.7
396.314	66.22
396.524	84.65
396.733	29.35
396.942	33.45
397.152	70.31
397.361	133.8
397.57	78.51
397.78	47.79
397.989	45.74
398.198	58.03
398.407	80.55
398.617	47.79
398.826	80.55
399.035	49.83
399.244	60.07
399.453	66.22
399.663	98.99
399.872	94.89
400.081	60.07
400.29	111.27
400.499	31.4
400.708	103.08
400.917	121.51
401.127	74.41
401.336	53.93
401.545	96.94
401.754	78.51
401.963	92.84
402.172	96.94
402.381	70.31
402.59	113.32
402.799	96.94
403.008	90.79
403.217	68.27
403.426	88.75
403.635	68.27
403.844	131.75
404.053	68.27
404.262	49.83
404.471	137.9
404.68	94.89
404.888	78.51
405.097	53.93
405.306	133.8
405.515	35.5
405.724	37.55
405.933	119.46
406.142	66.22
406.35	78.51
406.559	121.51
406.768	115.37
406.977	88.75
407.185	117.42
407.394	113.32
407.603	105.13
407.812	72.36
408.02	164.52
408.229	174.76
408.438	164.52
408.646	115.37
408.855	174.76
409.064	217.77
409.272	105.13
409.481	207.53
409.69	154.28
409.898	166.57
410.107	217.77
410.315	248.49
410.524	131.75
410.733	180.9
410.941	166.57
411.15	207.53
411.358	185
411.567	281.25
411.775	289.45
411.984	268.97
412.192	326.31
412.401	225.96
412.609	342.69
412.818	352.93
413.026	326.31
413.234	381.6
413.443	246.44
413.651	375.46
413.86	299.69
414.068	361.13
414.276	475.81
414.485	330.41
414.693	428.71
414.901	348.84
415.11	357.03
415.318	414.37
415.526	426.66
415.734	436.9
415.943	459.43
416.151	408.23
416.359	445.09
416.567	592.55
416.776	555.68
416.984	582.31
417.192	613.03
417.4	477.86
417.608	631.46
417.817	559.78
418.025	600.74
418.233	645.79
418.441	649.89
418.649	690.85
418.857	768.67
419.065	805.53
419.273	688.8
419.481	844.45
419.689	805.53
419.897	811.68
420.105	891.55
420.313	895.64
420.521	936.6
420.729	975.52
420.937	1053.34
421.145	1055.39
421.353	1088.15
421.561	1108.63
421.769	1114.78
421.977	1182.36
422.185	1254.04
422.393	1239.7
422.601	1370.77
422.809	1368.73
423.017	1391.25
423.224	1393.3
423.432	1452.69
423.64	1460.88
423.848	1534.61
424.056	1575.57
424.263	1657.49
424.471	1735.31
424.679	1649.3
424.887	1731.22
425.094	1786.51
425.302	1878.67
425.51	1862.29
425.718	2067.08
425.925	1929.87
426.133	2024.08
426.341	2112.14
426.548	2282.12
426.756	2394.76
426.964	2316.94
427.171	2439.81
427.379	2437.77
427.586	2435.72
427.794	2636.42
428.001	2671.23
428.209	2880.13
428.417	2851.46
428.624	2972.29
428.832	2949.76
429.039	2910.85
429.247	3064.44
429.454	3281.53
429.662	3424.89
429.869	3332.73
430.076	3506.81
430.284	3353.21
430.491	3474.04
430.699	3738.23
430.906	3768.95
431.114	3732.08
431.321	3803.76
431.528	4010.61
431.736	4256.36
431.943	4334.18
432.15	4319.85
432.358	4405.86
432.565	4655.72
432.772	4510.31
432.979	4809.31
433.187	4893.28
433.394	4854.37
433.601	5231.19
433.808	5136.99
434.016	5282.39
434.223	5452.38
434.43	5784.15
434.637	5679.7
434.844	5821.01
435.052	6132.3
435.259	6208.08
435.466	6064.72
435.673	6191.69
435.88	6593.09
436.087	6855.23
436.294	6722.12
436.501	6394.44
436.708	6773.32
436.915	7066.17
437.122	7170.62
437.329	7356.99
437.537	7643.7
437.743	7602.74
437.95	7688.76
438.157	8034.86
438.364	8317.48
438.571	8172.08
438.778	8198.7
438.985	9128.48
439.192	8641.06
439.399	8899.11
439.606	8704.55
439.813	9337.37
440.02	9628.18
440.227	9818.64
440.433	9628.18
440.64	9882.13
440.847	9761.3
441.054	10007.06
441.261	10707.46
441.467	10543.63
441.674	10646.02
441.881	11186.69
442.088	11147.78
442.294	11100.67
442.501	11237.89
442.708	11504.12
442.914	12091.89
443.121	12620.27
443.328	12012.02
443.534	13095.39
443.741	12669.42
443.948	12593.64
444.154	13470.17
444.361	13287.9
444.568	13443.55
444.774	13498.84
444.981	13461.98
445.187	14195.15
445.394	14567.88
445.6	14109.14
445.807	15628.73
446.013	14922.18
446.22	15434.18
446.426	15815.1
446.633	15911.35
446.839	16466.35
447.046	15878.58
447.252	16564.65
447.459	16933.29
447.665	16667.05
447.871	17441.18
448.078	18020.76
448.284	17152.42
448.491	17895.83
448.697	18336.15
448.903	18583.95
449.11	18905.48
449.316	18694.54
449.522	18983.3
449.728	19288.45
449.935	19626.37
450.141	19351.94
450.347	19980.67
450.553	19196.29
450.76	19366.28
450.966	20238.71
451.172	19712.38
451.378	20390.26
451.584	19689.85
451.791	20568.43
451.997	20459.89
452.203	21037.42
452.409	20812.14
452.615	20463.99
452.821	19999.1
453.027	19581.31
453.233	20484.47
453.44	19720.57
453.646	20199.8
453.852	20265.33
454.058	20453.75
454.264	19972.47
454.47	20228.47
454.676	19511.68
454.882	20353.4
455.088	18157.97
455.294	19018.12
455.5	19112.33
455.705	19263.88
455.911	18426.26
456.117	18364.82
456.323	18078.1
456.529	16980.39
456.735	17752.48
456.941	17277.35
457.147	17250.72
457.352	16417.2
457.558	16435.63
457.764	16173.49
457.97	16083.38
458.176	15577.53
458.381	15645.12
458.587	15067.59
458.793	14920.13
458.999	14189.01
459.204	14946.76
459.41	14686.67
459.616	13797.85
459.821	13799.9
460.027	13705.69
460.233	13468.13
460.438	12544.49
460.644	12890.6
460.85	12245.49
461.055	12126.71
461.261	12030.45
461.466	11348.48
461.672	10883.59
461.878	11571.71
462.083	10795.53
462.289	10705.42
462.494	10570.25
462.7	10127.89
462.905	9908.76
463.111	10195.47
463.316	10254.86
463.522	10125.84
463.727	9990.67
463.932	9726.49
464.138	9587.22
464.343	9826.84
464.549	9744.92
464.754	9818.64
464.959	9888.28
465.165	9591.32
465.37	9361.95
465.575	9069.09
465.781	9433.63
465.986	9263.65
466.191	9202.21
466.397	8931.87
466.602	8655.4
466.807	8794.66
467.012	8987.17
467.218	9032.22
467.423	8667.69
467.628	8786.47
467.833	8927.78
468.038	8774.18
468.244	8636.97
468.449	8843.81
468.654	8657.45
468.859	8555.05
