Data from USB4F104151__264__11-11-59-267.txt Node

Date: Wed Mar 12 11:11:59 EDT 2025
User: louis
Spectrometer: USB4F10415
Trigger mode: 4
Integration Time (sec): 2.000000E-2
Scans to average: 1
Electric dark correction enabled: true
Nonlinearity correction enabled: false
Boxcar width: 0
XAxis mode: Wavelengths
Number of Pixels in Spectrum: 3648
>>>>>Begin Spectral Data<<<<<
178.204	-23.38
178.424	-23.38
178.644	-23.38
178.864	-11.09
179.084	-125.78
179.304	25.77
179.524	9.39
179.744	13.48
179.964	11.43
180.184	-19.29
180.404	-2.9
180.624	62.63
180.844	-4.95
181.064	-47.96
181.283	17.58
181.503	-37.72
181.723	-27.48
181.943	-62.29
182.163	89.26
182.383	58.54
182.602	23.72
182.822	13.48
183.042	3.24
183.262	-68.44
183.482	25.77
183.701	19.63
183.921	21.67
184.141	1.19
184.361	44.2
184.58	-19.29
184.8	9.39
185.02	70.83
185.239	40.11
185.459	-2.9
185.679	13.48
185.898	-33.62
186.118	1.19
186.338	29.87
186.557	25.77
186.777	-45.91
186.997	-35.67
187.216	-23.38
187.436	130.22
187.655	83.11
187.875	19.63
188.095	40.11
188.314	52.39
188.534	15.53
188.753	-9.05
188.973	-35.67
189.192	25.77
189.412	-0.85
189.631	54.44
189.851	-35.67
190.07	68.78
190.29	-43.86
190.509	-27.48
190.729	68.78
190.948	36.01
191.168	66.73
191.387	74.92
191.607	17.58
191.826	-23.38
192.045	3.24
192.265	-35.67
192.484	27.82
192.704	19.63
192.923	15.53
193.142	79.02
193.362	50.35
193.581	17.58
193.8	-64.34
194.02	64.68
194.239	-17.24
194.458	52.39
194.678	17.58
194.897	-52.05
195.116	-17.24
195.335	-47.96
195.555	76.97
195.774	9.39
195.993	52.39
196.212	25.77
196.432	-25.43
196.651	79.02
196.87	-2.9
197.089	91.31
197.308	-9.05
197.528	60.59
197.747	5.29
197.966	21.67
198.185	-25.43
198.404	19.63
198.623	15.53
198.842	117.93
199.062	103.59
199.281	-27.48
199.5	-7
199.719	56.49
199.938	-13.14
200.157	36.01
200.376	-11.09
200.595	-23.38
200.814	21.67
201.033	-29.52
201.252	44.2
201.471	36.01
201.69	-13.14
201.909	31.91
202.128	33.96
202.347	3.24
202.566	11.43
202.785	3.24
203.004	48.3
203.223	105.64
203.442	25.77
203.661	79.02
203.879	23.72
204.098	56.49
204.317	40.11
204.536	-25.43
204.755	-35.67
204.974	21.67
205.193	5.29
205.411	-31.57
205.63	50.35
205.849	36.01
206.068	-13.14
206.287	95.4
206.505	68.78
206.724	-7
206.943	44.2
207.162	-23.38
207.381	-7
207.599	60.59
207.818	-2.9
208.037	3.24
208.255	-2.9
208.474	15.53
208.693	36.01
208.911	58.54
209.13	46.25
209.349	23.72
209.567	25.77
209.786	33.96
210.005	-47.96
210.223	-27.48
210.442	7.34
210.661	-13.14
210.879	-31.57
211.098	15.53
211.316	-47.96
211.535	29.87
211.753	-2.9
211.972	70.83
212.191	74.92
212.409	11.43
212.628	-70.48
212.846	66.73
213.065	-4.95
213.283	7.34
213.502	21.67
213.72	15.53
213.938	19.63
214.157	17.58
214.375	-47.96
214.594	42.15
214.812	-33.62
215.031	52.39
215.249	-56.15
215.467	89.26
215.686	17.58
215.904	33.96
216.122	-27.48
216.341	83.11
216.559	15.53
216.778	76.97
216.996	64.68
217.214	52.39
217.432	3.24
217.651	36.01
217.869	1.19
218.087	5.29
218.306	7.34
218.524	60.59
218.742	-23.38
218.96	40.11
219.179	19.63
219.397	74.92
219.615	52.39
219.833	13.48
220.051	23.72
220.27	40.11
220.488	-23.38
220.706	-41.81
220.924	42.15
221.142	21.67
221.36	-58.2
221.578	23.72
221.796	33.96
222.015	21.67
222.233	33.96
222.451	-2.9
222.669	13.48
222.887	-15.19
223.105	33.96
223.323	56.49
223.541	-7
223.759	29.87
223.977	-2.9
224.195	74.92
224.413	17.58
224.631	15.53
224.849	13.48
225.067	115.88
225.285	9.39
225.503	9.39
225.721	-56.15
225.939	74.92
226.157	44.2
226.375	111.78
226.592	-70.48
226.81	-19.29
227.028	50.35
227.246	21.67
227.464	-11.09
227.682	76.97
227.9	76.97
228.117	44.2
228.335	15.53
228.553	36.01
228.771	38.06
228.989	36.01
229.206	29.87
229.424	62.63
229.642	-58.2
229.86	40.11
230.077	-0.85
230.295	54.44
230.513	-19.29
230.731	48.3
230.948	58.54
231.166	50.35
231.384	-2.9
231.601	5.29
231.819	-23.38
232.037	119.98
232.254	21.67
232.472	64.68
232.689	42.15
232.907	13.48
233.125	50.35
233.342	-9.05
233.56	40.11
233.777	3.24
233.995	-39.76
234.213	48.3
234.43	46.25
234.648	19.63
234.865	31.91
235.083	54.44
235.3	-17.24
235.518	-21.33
235.735	1.19
235.953	56.49
236.17	13.48
236.388	-13.14
236.605	36.01
236.822	76.97
237.04	-23.38
237.257	-50
237.475	1.19
237.692	17.58
237.909	46.25
238.127	-7
238.344	52.39
238.562	21.67
238.779	11.43
238.996	-9.05
239.214	52.39
239.431	29.87
239.648	19.63
239.865	-9.05
240.083	-7
240.3	-31.57
240.517	79.02
240.735	15.53
240.952	40.11
241.169	31.91
241.386	21.67
241.603	-7
241.821	-9.05
242.038	33.96
242.255	60.59
242.472	42.15
242.689	-25.43
242.907	52.39
243.124	31.91
243.341	50.35
243.558	17.58
243.775	9.39
243.992	-0.85
244.209	42.15
244.426	64.68
244.643	56.49
244.86	-41.81
245.078	1.19
245.295	36.01
245.512	-19.29
245.729	-25.43
245.946	13.48
246.163	105.64
246.38	11.43
246.597	1.19
246.814	27.82
247.031	27.82
247.248	15.53
247.464	50.35
247.681	44.2
247.898	56.49
248.115	-35.67
248.332	-74.58
248.549	-13.14
248.766	19.63
248.983	36.01
249.2	-31.57
249.417	-31.57
249.633	-15.19
249.85	13.48
250.067	-17.24
250.284	99.5
250.501	27.82
250.717	36.01
250.934	48.3
251.151	64.68
251.368	52.39
251.585	105.64
251.801	1.19
252.018	5.29
252.235	70.83
252.451	15.53
252.668	33.96
252.885	40.11
253.102	56.49
253.318	52.39
253.535	3.24
253.752	-9.05
253.968	21.67
254.185	17.58
254.401	44.2
254.618	29.87
254.835	42.15
255.051	72.87
255.268	66.73
255.484	-72.53
255.701	-47.96
255.917	3.24
256.134	-70.48
256.351	50.35
256.567	-11.09
256.784	25.77
257	29.87
257.217	25.77
257.433	25.77
257.65	-21.33
257.866	-19.29
258.082	-4.95
258.299	23.72
258.515	27.82
258.732	-37.72
258.948	66.73
259.165	-25.43
259.381	-80.72
259.597	66.73
259.814	-58.2
260.03	-35.67
260.246	25.77
260.463	-23.38
260.679	68.78
260.895	-23.38
261.112	-9.05
261.328	29.87
261.544	-33.62
261.761	87.21
261.977	29.87
262.193	132.26
262.409	11.43
262.626	33.96
262.842	76.97
263.058	23.72
263.274	-9.05
263.49	38.06
263.707	9.39
263.923	7.34
264.139	87.21
264.355	87.21
264.571	50.35
264.787	-23.38
265.004	56.49
265.22	5.29
265.436	27.82
265.652	62.63
265.868	79.02
266.084	-0.85
266.3	58.54
266.516	31.91
266.732	50.35
266.948	3.24
267.164	-17.24
267.38	-27.48
267.596	50.35
267.812	25.77
268.028	-0.85
268.244	83.11
268.46	-29.52
268.676	-23.38
268.892	46.25
269.108	66.73
269.324	7.34
269.54	7.34
269.756	-7
269.972	-15.19
270.188	70.83
270.403	95.4
270.619	42.15
270.835	62.63
271.051	1.19
271.267	-7
271.483	89.26
271.698	74.92
271.914	-4.95
272.13	42.15
272.346	13.48
272.562	9.39
272.777	76.97
272.993	-15.19
273.209	56.49
273.425	21.67
273.64	-13.14
273.856	1.19
274.072	1.19
274.287	-35.67
274.503	9.39
274.719	58.54
274.934	15.53
275.15	-21.33
275.366	21.67
275.581	-19.29
275.797	1.19
276.012	58.54
276.228	17.58
276.444	58.54
276.659	40.11
276.875	21.67
277.09	27.82
277.306	1.19
277.521	3.24
277.737	-39.76
277.952	46.25
278.168	-7
278.383	42.15
278.599	31.91
278.814	62.63
279.03	-7
279.245	15.53
279.461	44.2
279.676	17.58
279.892	-17.24
280.107	17.58
280.322	-9.05
280.538	38.06
280.753	-23.38
280.969	68.78
281.184	-25.43
281.399	50.35
281.615	50.35
281.83	-52.05
282.045	27.82
282.26	42.15
282.476	46.25
282.691	-23.38
282.906	25.77
283.122	42.15
283.337	23.72
283.552	23.72
283.767	23.72
283.983	3.24
284.198	-0.85
284.413	21.67
284.628	-2.9
284.843	38.06
285.058	15.53
285.274	25.77
285.489	-88.92
285.704	-0.85
285.919	62.63
286.134	-0.85
286.349	-33.62
286.564	38.06
286.779	-62.29
286.995	25.77
287.21	-0.85
287.425	31.91
287.64	64.68
287.855	9.39
288.07	79.02
288.285	-2.9
288.5	-9.05
288.715	72.87
288.93	15.53
289.145	64.68
289.36	1.19
289.575	19.63
289.79	-15.19
290.004	40.11
290.219	17.58
290.434	42.15
290.649	48.3
290.864	42.15
291.079	13.48
291.294	-19.29
291.509	3.24
291.724	-7
291.938	44.2
292.153	-66.39
292.368	-11.09
292.583	48.3
292.798	3.24
293.012	87.21
293.227	50.35
293.442	72.87
293.657	-37.72
293.871	33.96
294.086	-45.91
294.301	74.92
294.516	-25.43
294.73	40.11
294.945	-11.09
295.16	5.29
295.374	54.44
295.589	40.11
295.804	23.72
296.018	70.83
296.233	21.67
296.447	25.77
296.662	46.25
296.877	33.96
297.091	27.82
297.306	38.06
297.52	-23.38
297.735	36.01
297.949	36.01
298.164	-2.9
298.378	15.53
298.593	48.3
298.807	17.58
299.022	-37.72
299.236	95.4
299.451	40.11
299.665	25.77
299.88	-64.34
300.094	-19.29
300.309	1.19
300.523	-41.81
300.737	19.63
300.952	-29.52
301.166	-11.09
301.381	9.39
301.595	19.63
301.809	-27.48
302.024	-43.86
302.238	-15.19
302.452	9.39
302.667	13.48
302.881	7.34
303.095	1.19
303.309	62.63
303.524	-29.52
303.738	5.29
303.952	11.43
304.166	-41.81
304.381	-27.48
304.595	160.94
304.809	1.19
305.023	29.87
305.237	5.29
305.452	-43.86
305.666	-39.76
305.88	29.87
306.094	54.44
306.308	-37.72
306.522	56.49
306.736	52.39
306.95	11.43
307.164	25.77
307.379	-13.14
307.593	42.15
307.807	42.15
308.021	52.39
308.235	25.77
308.449	-9.05
308.663	-50
308.877	3.24
309.091	40.11
309.305	56.49
309.519	-17.24
309.733	60.59
309.947	-78.68
310.161	27.82
310.374	11.43
310.588	50.35
310.802	23.72
311.016	-0.85
311.23	31.91
311.444	128.17
311.658	87.21
311.872	27.82
312.085	25.77
312.299	60.59
312.513	15.53
312.727	3.24
312.941	-31.57
313.154	31.91
313.368	9.39
313.582	-23.38
313.796	-25.43
314.009	21.67
314.223	56.49
314.437	-4.95
314.651	54.44
314.864	1.19
315.078	58.54
315.292	-15.19
315.505	36.01
315.719	60.59
315.933	25.77
316.146	13.48
316.36	-4.95
316.573	54.44
316.787	87.21
317.001	-35.67
317.214	-27.48
317.428	56.49
317.641	19.63
317.855	-41.81
318.068	-0.85
318.282	99.5
318.495	-25.43
318.709	46.25
318.922	17.58
319.136	122.02
319.349	42.15
319.563	103.59
319.776	-33.62
319.99	-39.76
320.203	50.35
320.417	13.48
320.63	50.35
320.843	97.45
321.057	44.2
321.27	-25.43
321.483	33.96
321.697	44.2
321.91	-13.14
322.124	62.63
322.337	48.3
322.55	-7
322.763	-27.48
322.977	58.54
323.19	46.25
323.403	15.53
323.617	36.01
323.83	62.63
324.043	44.2
324.256	42.15
324.469	-13.14
324.683	74.92
324.896	27.82
325.109	13.48
325.322	-31.57
325.535	72.87
325.748	-39.76
325.962	-31.57
326.175	42.15
326.388	60.59
326.601	68.78
326.814	1.19
327.027	-15.19
327.24	40.11
327.453	7.34
327.666	-13.14
327.879	23.72
328.092	40.11
328.305	25.77
328.518	17.58
328.731	13.48
328.944	21.67
329.157	46.25
329.37	7.34
329.583	38.06
329.796	33.96
330.009	50.35
330.222	64.68
330.435	74.92
330.648	66.73
330.861	50.35
331.073	-37.72
331.286	89.26
331.499	72.87
331.712	-15.19
331.925	-64.34
332.138	83.11
332.35	-15.19
332.563	58.54
332.776	70.83
332.989	13.48
333.202	36.01
333.414	-15.19
333.627	58.54
333.84	29.87
334.053	17.58
334.265	-27.48
334.478	-2.9
334.691	13.48
334.903	1.19
335.116	23.72
335.329	58.54
335.541	33.96
335.754	-29.52
335.966	15.53
336.179	-13.14
336.392	-23.38
336.604	-7
336.817	52.39
337.029	99.5
337.242	54.44
337.454	46.25
337.667	38.06
337.88	50.35
338.092	9.39
338.305	58.54
338.517	83.11
338.729	-43.86
338.942	36.01
339.154	13.48
339.367	29.87
339.579	62.63
339.792	17.58
340.004	11.43
340.217	-7
340.429	99.5
340.641	-15.19
340.854	-35.67
341.066	33.96
341.278	162.98
341.491	72.87
341.703	68.78
341.915	25.77
342.128	50.35
342.34	31.91
342.552	70.83
342.764	29.87
342.977	7.34
343.189	48.3
343.401	21.67
343.613	-33.62
343.826	-27.48
344.038	-23.38
344.25	89.26
344.462	40.11
344.674	-19.29
344.886	50.35
345.099	46.25
345.311	-31.57
345.523	9.39
345.735	-25.43
345.947	91.31
346.159	64.68
346.371	46.25
346.583	50.35
346.795	72.87
347.007	40.11
347.219	21.67
347.431	13.48
347.643	60.59
347.855	25.77
348.067	29.87
348.279	40.11
348.491	27.82
348.703	64.68
348.915	-56.15
349.127	-43.86
349.339	33.96
349.551	-25.43
349.763	21.67
349.975	72.87
350.187	62.63
350.399	40.11
350.61	-9.05
350.822	11.43
351.034	36.01
351.246	-35.67
351.458	56.49
351.669	31.91
351.881	103.59
352.093	31.91
352.305	36.01
352.517	-13.14
352.728	58.54
352.94	1.19
353.152	85.16
353.363	62.63
353.575	-9.05
353.787	42.15
353.999	-9.05
354.21	29.87
354.422	-35.67
354.633	13.48
354.845	23.72
355.057	1.19
355.268	40.11
355.48	66.73
355.692	38.06
355.903	70.83
356.115	64.68
356.326	15.53
356.538	21.67
356.749	40.11
356.961	62.63
357.172	62.63
357.384	85.16
357.595	36.01
357.807	58.54
358.018	60.59
358.23	9.39
358.441	19.63
358.653	-19.29
358.864	7.34
359.075	-2.9
359.287	3.24
359.498	76.97
359.709	83.11
359.921	25.77
360.132	5.29
360.344	99.5
360.555	3.24
360.766	48.3
360.977	-11.09
361.189	64.68
361.4	-27.48
361.611	126.12
361.823	7.34
362.034	13.48
362.245	7.34
362.456	36.01
362.667	33.96
362.879	38.06
363.09	-93.01
363.301	85.16
363.512	11.43
363.723	76.97
363.935	-7
364.146	23.72
364.357	-7
364.568	60.59
364.779	11.43
364.99	7.34
365.201	56.49
365.412	60.59
365.623	-9.05
365.834	9.39
366.045	38.06
366.256	64.68
366.467	119.98
366.678	38.06
366.889	17.58
367.1	-37.72
367.311	99.5
367.522	56.49
367.733	-23.38
367.944	9.39
368.155	13.48
368.366	105.64
368.577	-23.38
368.788	36.01
368.999	17.58
369.209	-39.76
369.42	62.63
369.631	25.77
369.842	21.67
370.053	33.96
370.264	48.3
370.474	-13.14
370.685	42.15
370.896	-4.95
371.107	107.69
371.317	17.58
371.528	7.34
371.739	56.49
371.95	29.87
372.16	72.87
372.371	33.96
372.582	33.96
372.792	27.82
373.003	9.39
373.214	74.92
373.424	46.25
373.635	17.58
373.846	9.39
374.056	23.72
374.267	25.77
374.477	5.29
374.688	-2.9
374.898	21.67
375.109	31.91
375.319	3.24
375.53	-4.95
375.74	33.96
375.951	3.24
376.161	-56.15
376.372	-13.14
376.582	-9.05
376.793	91.31
377.003	21.67
377.214	-17.24
377.424	13.48
377.635	33.96
377.845	-41.81
378.055	-7
378.266	17.58
378.476	15.53
378.686	-7
378.897	64.68
379.107	38.06
379.317	21.67
379.528	81.07
379.738	70.83
379.948	13.48
380.158	52.39
380.369	42.15
380.579	5.29
380.789	19.63
380.999	58.54
381.21	-25.43
381.42	132.26
381.63	56.49
381.84	-33.62
382.05	27.82
382.261	119.98
382.471	52.39
382.681	1.19
382.891	97.45
383.101	48.3
383.311	42.15
383.521	74.92
383.731	-4.95
383.941	33.96
384.151	97.45
384.361	48.3
384.571	42.15
384.781	56.49
384.991	48.3
385.201	50.35
385.411	11.43
385.621	74.92
385.831	-19.29
386.041	85.16
386.251	21.67
386.461	-11.09
386.671	36.01
386.881	33.96
387.091	-27.48
387.301	21.67
387.511	50.35
387.72	7.34
387.93	3.24
388.14	27.82
388.35	25.77
388.56	66.73
388.769	60.59
388.979	72.87
389.189	-9.05
389.399	58.54
389.609	52.39
389.818	-35.67
390.028	-17.24
390.238	9.39
390.447	48.3
390.657	79.02
390.867	31.91
391.076	50.35
391.286	87.21
391.496	101.55
391.705	33.96
391.915	29.87
392.125	38.06
392.334	62.63
392.544	48.3
392.753	54.44
392.963	17.58
393.172	74.92
393.382	56.49
393.591	93.35
393.801	15.53
394.01	38.06
394.22	-19.29
394.429	68.78
394.639	54.44
394.848	56.49
395.058	33.96
395.267	81.07
395.477	9.39
395.686	40.11
395.895	27.82
396.105	-7
396.314	64.68
396.524	89.26
396.733	1.19
396.942	17.58
397.152	72.87
397.361	91.31
397.57	42.15
397.78	11.43
397.989	76.97
398.198	117.93
398.407	79.02
398.617	-2.9
398.826	66.73
399.035	58.54
399.244	1.19
399.453	29.87
399.663	81.07
399.872	54.44
400.081	7.34
400.29	111.78
400.499	42.15
400.708	115.88
400.917	9.39
401.127	136.36
401.336	48.3
401.545	70.83
401.754	58.54
401.963	19.63
402.172	52.39
402.381	101.55
402.59	54.44
402.799	13.48
403.008	58.54
403.217	156.84
403.426	113.83
403.635	103.59
403.844	52.39
404.053	66.73
404.262	103.59
404.471	128.17
404.68	101.55
404.888	76.97
405.097	134.31
405.306	76.97
405.515	97.45
405.724	62.63
405.933	95.4
406.142	81.07
406.35	111.78
406.559	91.31
406.768	93.35
406.977	150.7
407.185	105.64
407.394	70.83
407.603	128.17
407.812	136.36
408.02	142.5
408.229	187.56
408.438	216.23
408.646	119.98
408.855	111.78
409.064	107.69
409.272	79.02
409.481	193.7
409.69	150.7
409.898	177.32
410.107	128.17
410.315	152.74
410.524	87.21
410.733	136.36
410.941	99.5
411.15	224.42
411.358	173.22
411.567	177.32
411.775	257.19
411.984	158.89
412.192	255.14
412.401	292.01
412.609	259.24
412.818	240.81
413.026	210.09
413.234	183.46
413.443	285.86
413.651	316.58
413.86	267.43
414.068	361.64
414.276	324.77
414.485	357.54
414.693	330.92
414.901	345.25
415.11	425.12
415.318	314.53
415.526	400.55
415.734	418.98
415.943	302.25
416.151	474.28
416.359	353.45
416.567	400.55
416.776	404.64
416.984	480.42
417.192	480.42
417.4	556.19
417.608	525.47
417.817	468.13
418.025	523.43
418.233	677.02
418.441	580.77
418.649	615.59
418.857	640.16
419.065	634.02
419.273	689.31
419.481	726.18
419.689	695.46
419.897	728.22
420.105	801.95
420.313	834.72
420.521	789.66
420.729	902.3
420.937	795.81
421.145	885.92
421.353	926.88
421.561	933.02
421.769	924.83
421.977	1014.94
422.185	1053.85
422.393	1047.71
422.601	1049.75
422.809	1137.82
423.017	1164.44
423.224	1162.39
423.432	1227.93
423.64	1150.11
423.848	1277.08
424.056	1279.13
424.263	1485.97
424.471	1418.39
424.679	1387.67
424.887	1543.32
425.094	1584.27
425.302	1703.06
425.51	1701.01
425.718	1739.92
425.925	1723.54
426.133	1651.86
426.341	1803.41
426.548	1873.04
426.756	1934.48
426.964	2014.35
427.171	2167.95
427.379	2043.02
427.586	2227.34
427.794	2296.97
428.001	2280.58
428.209	2417.8
428.417	2397.32
428.624	2503.81
428.832	2536.58
429.039	2479.24
429.247	2450.57
429.454	2915.45
429.662	2872.45
429.869	2847.87
430.076	3091.58
430.284	2958.46
430.491	2886.78
430.699	3073.15
430.906	3165.31
431.114	3302.52
431.321	3230.84
431.528	3261.56
431.736	3603.57
431.943	3853.42
432.15	3710.07
432.358	3607.67
432.565	3929.2
432.772	3925.1
432.979	4113.52
433.187	4211.82
433.394	4191.34
433.601	4506.73
433.808	4490.34
434.016	4451.43
434.223	4641.89
434.43	4924.51
434.637	4836.45
434.844	4996.19
435.052	5309.53
435.259	5225.56
435.466	5309.53
435.673	5225.56
435.88	5637.2
436.087	5825.62
436.294	5751.89
436.501	5780.56
436.708	5803.09
436.915	6089.81
437.122	6452.3
437.329	6329.42
437.537	6517.83
437.743	6392.91
437.95	6448.2
438.157	6825.03
438.364	6992.96
438.571	7115.84
438.778	7177.28
438.985	7982.13
439.192	7455.8
439.399	7566.39
439.606	7656.5
439.813	7998.51
440.02	8459.31
440.227	8254.51
440.433	8236.08
440.64	8559.66
440.847	8301.61
441.054	8604.71
441.261	9075.74
441.467	9045.02
441.674	9415.71
441.881	9401.37
442.088	9542.68
442.294	9452.57
442.501	9499.67
442.708	9794.58
442.914	10179.6
443.121	10882.05
443.328	10216.46
443.534	11211.78
443.741	10800.13
443.948	10667.02
444.154	11439.1
444.361	11148.29
444.568	11353.09
444.774	11543.55
444.981	11748.34
445.187	11891.7
445.394	12311.53
445.6	12422.13
445.807	13632.47
446.013	12725.22
446.22	13173.73
446.426	13605.85
446.633	13745.11
446.839	14046.16
447.046	13480.92
447.252	14248.91
447.459	14457.81
447.665	14193.62
447.871	14894.02
448.078	15381.44
448.284	14791.62
448.491	15233.99
448.697	15739.83
448.903	16053.17
449.11	15971.25
449.316	15858.62
449.522	16202.68
449.728	16681.9
449.935	16462.77
450.141	16673.71
450.347	17093.54
450.553	16593.84
450.76	16505.77
450.966	17038.25
451.172	17091.49
451.378	17466.27
451.584	17042.34
451.791	17488.8
451.997	17486.75
452.203	17752.99
452.409	17709.98
452.615	17699.74
452.821	16956.33
453.027	16786.35
453.233	17841.05
453.44	17173.41
453.646	16972.71
453.852	17130.41
454.058	17458.08
454.264	16944.04
454.47	17353.63
454.676	16780.2
454.882	17406.88
455.088	16106.42
455.294	16124.85
455.5	16647.08
455.705	16825.26
455.911	16110.52
456.117	15801.27
456.323	15356.86
456.529	14742.47
456.735	15399.87
456.941	14683.08
457.147	14599.12
457.352	14437.33
457.558	13949.91
457.764	14091.22
457.97	13806.55
458.176	13550.56
458.381	13460.45
458.587	12897.25
458.793	12786.66
458.999	12049.39
459.204	13075.43
459.41	12581.87
459.616	11965.43
459.821	11940.85
460.027	11756.54
460.233	11672.57
460.438	10961.92
460.644	11123.71
460.85	10492.94
461.055	10363.92
461.261	10400.78
461.466	9798.68
461.672	9366.56
461.878	9960.47
462.083	9491.48
462.289	9073.7
462.494	9112.61
462.7	8692.77
462.905	8524.84
463.111	8723.49
463.316	9081.89
463.522	8487.98
463.727	8588.33
463.932	8584.23
464.138	8629.29
464.343	8285.23
464.549	8088.62
464.754	8725.54
464.959	8506.41
465.165	8434.73
465.37	8152.11
465.575	7799.86
465.781	8160.3
465.986	8322.09
466.191	7816.24
466.397	7742.52
466.602	7349.31
466.807	7519.29
467.012	7697.46
467.218	7687.22
467.423	7418.94
467.628	7515.19
467.833	7787.57
468.038	7611.45
468.244	7345.21
468.449	7601.21
468.654	7390.27
468.859	7414.84
469.064	7515.19
469.269	7197.76
