Data from USB4F104151__248__11-11-37-569.txt Node

Date: Wed Mar 12 11:11:37 EDT 2025
User: louis
Spectrometer: USB4F10415
Trigger mode: 4
Integration Time (sec): 2.000000E-2
Scans to average: 1
Electric dark correction enabled: true
Nonlinearity correction enabled: false
Boxcar width: 0
XAxis mode: Wavelengths
Number of Pixels in Spectrum: 3648
>>>>>Begin Spectral Data<<<<<
178.204	-24.4
178.424	-24.4
178.644	-24.4
178.864	-73.56
179.084	-59.22
179.304	16.55
179.524	-81.75
179.744	-12.12
179.964	12.46
180.184	12.46
180.404	-20.31
180.624	49.32
180.844	43.18
181.064	-44.88
181.283	20.65
181.503	-59.22
181.723	63.66
181.943	-75.6
182.163	18.6
182.383	0.17
182.602	8.36
182.822	49.32
183.042	41.13
183.262	-14.17
183.482	-14.17
183.701	43.18
183.921	8.36
184.141	-69.46
184.361	34.99
184.58	2.22
184.8	65.71
185.02	47.27
185.239	16.55
185.459	30.89
185.679	77.99
185.898	43.18
186.118	-18.26
186.338	-1.88
186.557	116.9
186.777	-34.64
186.997	12.46
187.216	22.7
187.436	-1.88
187.655	6.31
187.875	6.31
188.095	-85.84
188.314	-1.88
188.534	59.56
188.753	0.17
188.973	30.89
189.192	-18.26
189.412	45.23
189.631	2.22
189.851	-16.21
190.07	14.51
190.29	32.94
190.509	24.75
190.729	16.55
190.948	73.9
191.168	94.38
191.387	-18.26
191.607	-22.36
191.826	51.37
192.045	28.84
192.265	34.99
192.484	45.23
192.704	2.22
192.923	-20.31
193.142	125.1
193.362	-18.26
193.581	65.71
193.8	26.79
194.02	61.61
194.239	-5.97
194.458	55.47
194.678	71.85
194.897	100.52
195.116	2.22
195.335	12.46
195.555	18.6
195.774	14.51
195.993	43.18
196.212	-10.07
196.432	-42.84
196.651	0.17
196.87	8.36
197.089	32.94
197.308	-16.21
197.528	-30.55
197.747	-38.74
197.966	-5.97
198.185	16.55
198.404	-38.74
198.623	-34.64
198.842	4.27
199.062	24.75
199.281	18.6
199.5	43.18
199.719	4.27
199.938	69.8
200.157	112.81
200.376	26.79
200.595	71.85
200.814	37.03
201.033	14.51
201.252	30.89
201.471	100.52
201.69	-10.07
201.909	34.99
202.128	39.08
202.347	8.36
202.566	20.65
202.785	-26.45
203.004	-28.5
203.223	80.04
203.442	10.41
203.661	4.27
203.879	-48.98
204.098	22.7
204.317	-12.12
204.536	-38.74
204.755	67.75
204.974	39.08
205.193	59.56
205.411	51.37
205.63	22.7
205.849	22.7
206.068	34.99
206.287	26.79
206.505	47.27
206.724	-87.89
206.943	10.41
207.162	10.41
207.381	-32.6
207.599	77.99
207.818	116.9
208.037	0.17
208.255	10.41
208.474	8.36
208.693	-36.69
208.911	-18.26
209.13	22.7
209.349	6.31
209.567	51.37
209.786	112.81
210.005	-24.4
210.223	12.46
210.442	34.99
210.661	0.17
210.879	2.22
211.098	77.99
211.316	-8.02
211.535	112.81
211.753	47.27
211.972	-71.51
212.191	16.55
212.409	-8.02
212.628	-57.17
212.846	20.65
213.065	-5.97
213.283	65.71
213.502	6.31
213.72	34.99
213.938	-5.97
214.157	-24.4
214.375	30.89
214.594	24.75
214.812	-28.5
215.031	2.22
215.249	0.17
215.467	-1.88
215.686	-20.31
215.904	18.6
216.122	-8.02
216.341	82.09
216.559	-5.97
216.778	116.9
216.996	16.55
217.214	26.79
217.432	43.18
217.651	16.55
217.869	28.84
218.087	6.31
218.306	-22.36
218.524	18.6
218.742	-3.93
218.96	-26.45
219.179	-30.55
219.397	47.27
219.615	8.36
219.833	43.18
220.051	47.27
220.27	82.09
220.488	12.46
220.706	100.52
220.924	30.89
221.142	118.95
221.36	8.36
221.578	14.51
221.796	8.36
222.015	22.7
222.233	67.75
222.451	47.27
222.669	10.41
222.887	39.08
223.105	63.66
223.323	-38.74
223.541	34.99
223.759	34.99
223.977	16.55
224.195	43.18
224.413	34.99
224.631	-3.93
224.849	0.17
225.067	80.04
225.285	-32.6
225.503	-10.07
225.721	61.61
225.939	6.31
226.157	-46.93
226.375	59.56
226.592	-10.07
226.81	49.32
227.028	30.89
227.246	-5.97
227.464	8.36
227.682	18.6
227.9	53.42
228.117	8.36
228.335	0.17
228.553	6.31
228.771	28.84
228.989	10.41
229.206	-5.97
229.424	-14.17
229.642	-22.36
229.86	18.6
230.077	-26.45
230.295	41.13
230.513	49.32
230.731	47.27
230.948	-14.17
231.166	-20.31
231.384	2.22
231.601	-26.45
231.819	82.09
232.037	-26.45
232.254	-44.88
232.472	30.89
232.689	30.89
232.907	49.32
233.125	-20.31
233.342	12.46
233.56	-14.17
233.777	-22.36
233.995	51.37
234.213	12.46
234.43	14.51
234.648	12.46
234.865	39.08
235.083	6.31
235.3	43.18
235.518	75.95
235.735	39.08
235.953	88.23
236.17	-3.93
236.388	32.94
236.605	47.27
236.822	24.75
237.04	22.7
237.257	-42.84
237.475	-26.45
237.692	59.56
237.909	-22.36
238.127	28.84
238.344	-12.12
238.562	41.13
238.779	53.42
238.996	34.99
239.214	34.99
239.431	34.99
239.648	43.18
239.865	61.61
240.083	-24.4
240.3	-22.36
240.517	-1.88
240.735	100.52
240.952	6.31
241.169	16.55
241.386	2.22
241.603	75.95
241.821	-14.17
242.038	45.23
242.255	41.13
242.472	12.46
242.689	18.6
242.907	-30.55
243.124	90.28
243.341	-40.79
243.558	22.7
243.775	-59.22
243.992	-14.17
244.209	8.36
244.426	108.71
244.643	22.7
244.86	51.37
245.078	24.75
245.295	45.23
245.512	-1.88
245.729	12.46
245.946	65.71
246.163	63.66
246.38	-18.26
246.597	14.51
246.814	39.08
247.031	12.46
247.248	-10.07
247.464	67.75
247.681	59.56
247.898	-14.17
248.115	55.47
248.332	-1.88
248.549	-18.26
248.766	14.51
248.983	-79.7
249.2	26.79
249.417	16.55
249.633	28.84
249.85	59.56
250.067	-5.97
250.284	30.89
250.501	26.79
250.717	24.75
250.934	-77.65
251.151	-10.07
251.368	43.18
251.585	67.75
251.801	-10.07
252.018	24.75
252.235	4.27
252.451	-34.64
252.668	12.46
252.885	80.04
253.102	2.22
253.318	6.31
253.535	-75.6
253.752	94.38
253.968	45.23
254.185	34.99
254.401	10.41
254.618	59.56
254.835	30.89
255.051	47.27
255.268	18.6
255.484	14.51
255.701	20.65
255.917	26.79
256.134	0.17
256.351	-14.17
256.567	-14.17
256.784	22.7
257	-14.17
257.217	-40.79
257.433	47.27
257.65	34.99
257.866	57.51
258.082	-14.17
258.299	-48.98
258.515	0.17
258.732	51.37
258.948	71.85
259.165	-38.74
259.381	-46.93
259.597	34.99
259.814	43.18
260.03	-38.74
260.246	-20.31
260.463	0.17
260.679	61.61
260.895	12.46
261.112	51.37
261.328	55.47
261.544	39.08
261.761	-36.69
261.977	-18.26
262.193	43.18
262.409	-40.79
262.626	-1.88
262.842	-14.17
263.058	18.6
263.274	43.18
263.49	67.75
263.707	8.36
263.923	39.08
264.139	32.94
264.355	30.89
264.571	49.32
264.787	24.75
265.004	-8.02
265.22	-36.69
265.436	37.03
265.652	-24.4
265.868	45.23
266.084	-40.79
266.3	-1.88
266.516	-26.45
266.732	22.7
266.948	39.08
267.164	41.13
267.38	20.65
267.596	45.23
267.812	39.08
268.028	4.27
268.244	-1.88
268.46	34.99
268.676	82.09
268.892	61.61
269.108	26.79
269.324	6.31
269.54	-14.17
269.756	110.76
269.972	30.89
270.188	37.03
270.403	-16.21
270.619	12.46
270.835	12.46
271.051	43.18
271.267	2.22
271.483	22.7
271.698	18.6
271.914	34.99
272.13	96.43
272.346	-28.5
272.562	24.75
272.777	18.6
272.993	53.42
273.209	-5.97
273.425	41.13
273.64	-26.45
273.856	104.62
274.072	24.75
274.287	-3.93
274.503	0.17
274.719	20.65
274.934	16.55
275.15	8.36
275.366	45.23
275.581	10.41
275.797	32.94
276.012	-12.12
276.228	4.27
276.444	32.94
276.659	41.13
276.875	-8.02
277.09	-14.17
277.306	37.03
277.521	8.36
277.737	37.03
277.952	30.89
278.168	28.84
278.383	-38.74
278.599	24.75
278.814	155.82
279.03	41.13
279.245	104.62
279.461	59.56
279.676	84.14
279.892	-22.36
280.107	47.27
280.322	-18.26
280.538	8.36
280.753	22.7
280.969	-38.74
281.184	39.08
281.399	69.8
281.615	-8.02
281.83	69.8
282.045	22.7
282.26	51.37
282.476	65.71
282.691	-18.26
282.906	14.51
283.122	59.56
283.337	26.79
283.552	37.03
283.767	-14.17
283.983	75.95
284.198	18.6
284.413	77.99
284.628	53.42
284.843	47.27
285.058	22.7
285.274	12.46
285.489	32.94
285.704	59.56
285.919	32.94
286.134	75.95
286.349	-5.97
286.564	6.31
286.779	65.71
286.995	10.41
287.21	24.75
287.425	16.55
287.64	-44.88
287.855	41.13
288.07	8.36
288.285	20.65
288.5	-12.12
288.715	12.46
288.93	-5.97
289.145	32.94
289.36	63.66
289.575	49.32
289.79	30.89
290.004	32.94
290.219	39.08
290.434	-12.12
290.649	-26.45
290.864	24.75
291.079	-10.07
291.294	26.79
291.509	24.75
291.724	-34.64
291.938	45.23
292.153	71.85
292.368	51.37
292.583	18.6
292.798	51.37
293.012	14.51
293.227	26.79
293.442	-5.97
293.657	24.75
293.871	28.84
294.086	80.04
294.301	47.27
294.516	41.13
294.73	71.85
294.945	-10.07
295.16	-3.93
295.374	69.8
295.589	10.41
295.804	-30.55
296.018	127.14
296.233	32.94
296.447	-3.93
296.662	2.22
296.877	8.36
297.091	55.47
297.306	-3.93
297.52	32.94
297.735	14.51
297.949	-1.88
298.164	32.94
298.378	51.37
298.593	10.41
298.807	22.7
299.022	90.28
299.236	34.99
299.451	-48.98
299.665	8.36
299.88	6.31
300.094	0.17
300.309	39.08
300.523	106.67
300.737	71.85
300.952	75.95
301.166	22.7
301.381	41.13
301.595	30.89
301.809	75.95
302.024	45.23
302.238	-3.93
302.452	49.32
302.667	24.75
302.881	55.47
303.095	2.22
303.309	20.65
303.524	-1.88
303.738	16.55
303.952	2.22
304.166	73.9
304.381	-12.12
304.595	80.04
304.809	-1.88
305.023	16.55
305.237	26.79
305.452	22.7
305.666	-18.26
305.88	80.04
306.094	16.55
306.308	65.71
306.522	59.56
306.736	-10.07
306.95	57.51
307.164	-8.02
307.379	-46.93
307.593	43.18
307.807	-16.21
308.021	73.9
308.235	51.37
308.449	-10.07
308.663	-22.36
308.877	51.37
309.091	8.36
309.305	-3.93
309.519	26.79
309.733	51.37
309.947	10.41
310.161	24.75
310.374	18.6
310.588	73.9
310.802	-22.36
311.016	-10.07
311.23	16.55
311.444	59.56
311.658	-12.12
311.872	39.08
312.085	18.6
312.299	43.18
312.513	110.76
312.727	26.79
312.941	-40.79
313.154	14.51
313.368	80.04
313.582	116.9
313.796	90.28
314.009	43.18
314.223	-3.93
314.437	47.27
314.651	-18.26
314.864	-36.69
315.078	34.99
315.292	28.84
315.505	-55.12
315.719	53.42
315.933	55.47
316.146	43.18
316.36	0.17
316.573	26.79
316.787	0.17
317.001	45.23
317.214	-46.93
317.428	6.31
317.641	4.27
317.855	51.37
318.068	32.94
318.282	69.8
318.495	71.85
318.709	92.33
318.922	24.75
319.136	8.36
319.349	67.75
319.563	0.17
319.776	92.33
319.99	-20.31
320.203	55.47
320.417	-5.97
320.63	18.6
320.843	77.99
321.057	24.75
321.27	45.23
321.483	84.14
321.697	18.6
321.91	-14.17
322.124	0.17
322.337	24.75
322.55	47.27
322.763	118.95
322.977	43.18
323.19	14.51
323.403	-8.02
323.617	30.89
323.83	12.46
324.043	0.17
324.256	34.99
324.469	55.47
324.683	32.94
324.896	-83.8
325.109	-55.12
325.322	-40.79
325.535	18.6
325.748	61.61
325.962	41.13
326.175	28.84
326.388	86.19
326.601	-8.02
326.814	26.79
327.027	18.6
327.24	77.99
327.453	-20.31
327.666	41.13
327.879	47.27
328.092	69.8
328.305	45.23
328.518	57.51
328.731	-42.84
328.944	80.04
329.157	-5.97
329.37	0.17
329.583	80.04
329.796	63.66
330.009	24.75
330.222	39.08
330.435	57.51
330.648	53.42
330.861	80.04
331.073	18.6
331.286	61.61
331.499	-12.12
331.712	-59.22
331.925	-10.07
332.138	73.9
332.35	67.75
332.563	94.38
332.776	77.99
332.989	22.7
333.202	32.94
333.414	34.99
333.627	43.18
333.84	-24.4
334.053	49.32
334.265	43.18
334.478	86.19
334.691	47.27
334.903	32.94
335.116	63.66
335.329	106.67
335.541	80.04
335.754	100.52
335.966	59.56
336.179	37.03
336.392	39.08
336.604	26.79
336.817	57.51
337.029	26.79
337.242	30.89
337.454	121
337.667	-14.17
337.88	55.47
338.092	6.31
338.305	22.7
338.517	0.17
338.729	30.89
338.942	-18.26
339.154	18.6
339.367	-28.5
339.579	-34.64
339.792	84.14
340.004	26.79
340.217	18.6
340.429	-40.79
340.641	6.31
340.854	28.84
341.066	20.65
341.278	55.47
341.491	94.38
341.703	137.38
341.915	45.23
342.128	18.6
342.34	39.08
342.552	-12.12
342.764	49.32
342.977	-3.93
343.189	88.23
343.401	47.27
343.613	12.46
343.826	43.18
344.038	-1.88
344.25	51.37
344.462	-48.98
344.674	-20.31
344.886	-5.97
345.099	12.46
345.311	39.08
345.523	28.84
345.735	0.17
345.947	65.71
346.159	55.47
346.371	24.75
346.583	0.17
346.795	69.8
347.007	8.36
347.219	71.85
347.431	10.41
347.643	6.31
347.855	6.31
348.067	90.28
348.279	34.99
348.491	20.65
348.703	4.27
348.915	75.95
349.127	24.75
349.339	-12.12
349.551	2.22
349.763	88.23
349.975	-26.45
350.187	86.19
350.399	57.51
350.61	39.08
350.822	24.75
351.034	63.66
351.246	67.75
351.458	67.75
351.669	67.75
351.881	37.03
352.093	39.08
352.305	34.99
352.517	16.55
352.728	39.08
352.94	34.99
353.152	47.27
353.363	-24.4
353.575	84.14
353.787	116.9
353.999	110.76
354.21	69.8
354.422	-24.4
354.633	47.27
354.845	41.13
355.057	14.51
355.268	43.18
355.48	28.84
355.692	20.65
355.903	-26.45
356.115	22.7
356.326	55.47
356.538	10.41
356.749	39.08
356.961	96.43
357.172	34.99
357.384	20.65
357.595	16.55
357.807	67.75
358.018	59.56
358.23	10.41
358.441	67.75
358.653	4.27
358.864	28.84
359.075	16.55
359.287	16.55
359.498	-8.02
359.709	84.14
359.921	67.75
360.132	77.99
360.344	18.6
360.555	55.47
360.766	108.71
360.977	18.6
361.189	94.38
361.4	0.17
361.611	39.08
361.823	106.67
362.034	-20.31
362.245	-8.02
362.456	55.47
362.667	67.75
362.879	14.51
363.09	22.7
363.301	80.04
363.512	22.7
363.723	32.94
363.935	90.28
364.146	75.95
364.357	12.46
364.568	100.52
364.779	-24.4
364.99	10.41
365.201	92.33
365.412	41.13
365.623	-36.69
365.834	75.95
366.045	47.27
366.256	-1.88
366.467	49.32
366.678	71.85
366.889	30.89
367.1	102.57
367.311	106.67
367.522	16.55
367.733	12.46
367.944	30.89
368.155	34.99
368.366	88.23
368.577	55.47
368.788	94.38
368.999	28.84
369.209	2.22
369.42	137.38
369.631	-38.74
369.842	65.71
370.053	-3.93
370.264	51.37
370.474	96.43
370.685	57.51
370.896	67.75
371.107	-42.84
371.317	18.6
371.528	18.6
371.739	32.94
371.95	65.71
372.16	59.56
372.371	-12.12
372.582	10.41
372.792	63.66
373.003	34.99
373.214	14.51
373.424	69.8
373.635	39.08
373.846	114.86
374.056	12.46
374.267	34.99
374.477	116.9
374.688	88.23
374.898	10.41
375.109	65.71
375.319	37.03
375.53	-16.21
375.74	16.55
375.951	59.56
376.161	6.31
376.372	47.27
376.582	26.79
376.793	6.31
377.003	80.04
377.214	37.03
377.424	71.85
377.635	55.47
377.845	10.41
378.055	67.75
378.266	-1.88
378.476	116.9
378.686	24.75
378.897	65.71
379.107	63.66
379.317	16.55
379.528	-75.6
379.738	34.99
379.948	84.14
380.158	41.13
380.369	14.51
380.579	55.47
380.789	34.99
380.999	47.27
381.21	51.37
381.42	84.14
381.63	20.65
381.84	96.43
382.05	45.23
382.261	84.14
382.471	14.51
382.681	16.55
382.891	-8.02
383.101	-5.97
383.311	98.47
383.521	16.55
383.731	-14.17
383.941	77.99
384.151	43.18
384.361	-16.21
384.571	34.99
384.781	59.56
384.991	108.71
385.201	116.9
385.411	63.66
385.621	16.55
385.831	63.66
386.041	57.51
386.251	-14.17
386.461	71.85
386.671	92.33
386.881	26.79
387.091	84.14
387.301	67.75
387.511	98.47
387.72	59.56
387.93	49.32
388.14	92.33
388.35	61.61
388.56	80.04
388.769	96.43
388.979	43.18
389.189	84.14
389.399	104.62
389.609	65.71
389.818	98.47
390.028	82.09
390.238	51.37
390.447	57.51
390.657	45.23
390.867	30.89
391.076	67.75
391.286	84.14
391.496	80.04
391.705	43.18
391.915	73.9
392.125	39.08
392.334	92.33
392.544	80.04
392.753	-14.17
392.963	63.66
393.172	92.33
393.382	57.51
393.591	96.43
393.801	37.03
394.01	82.09
394.22	22.7
394.429	102.57
394.639	80.04
394.848	49.32
395.058	65.71
395.267	86.19
395.477	49.32
395.686	168.1
395.895	108.71
396.105	82.09
396.314	92.33
396.524	123.05
396.733	20.65
396.942	34.99
397.152	59.56
397.361	118.95
397.57	110.76
397.78	41.13
397.989	104.62
398.198	104.62
398.407	139.43
398.617	125.1
398.826	96.43
399.035	116.9
399.244	61.61
399.453	118.95
399.663	61.61
399.872	123.05
400.081	114.86
400.29	108.71
400.499	131.24
400.708	145.58
400.917	57.51
401.127	88.23
401.336	139.43
401.545	135.34
401.754	100.52
401.963	129.19
402.172	145.58
402.381	61.61
402.59	86.19
402.799	125.1
403.008	186.54
403.217	69.8
403.426	84.14
403.635	137.38
403.844	125.1
404.053	139.43
404.262	188.58
404.471	243.88
404.68	180.39
404.888	170.15
405.097	137.38
405.306	145.58
405.515	174.25
405.724	118.95
405.933	280.74
406.142	157.86
406.35	225.45
406.559	192.68
406.768	243.88
406.977	198.82
407.185	198.82
407.394	268.45
407.603	141.48
407.812	241.83
408.02	272.55
408.229	170.15
408.438	264.36
408.646	196.78
408.855	333.99
409.064	245.93
409.272	278.69
409.481	235.69
409.69	309.41
409.898	297.13
410.107	309.41
410.315	370.85
410.524	348.33
410.733	391.33
410.941	413.86
411.15	352.42
411.358	417.96
411.567	381.09
411.775	407.72
411.984	503.97
412.192	458.92
412.401	475.3
412.609	452.77
412.818	635.04
413.026	596.13
413.234	526.5
413.443	579.75
413.651	594.08
413.86	594.08
414.068	659.62
414.276	712.86
414.485	696.48
414.693	706.72
414.901	757.92
415.11	737.44
415.318	739.49
415.526	811.17
415.734	835.74
415.943	864.41
416.151	913.56
416.359	891.04
416.567	1020.06
416.776	995.48
416.984	1040.54
417.192	1081.5
417.4	1106.07
417.608	1018.01
417.817	1106.07
418.025	1106.07
418.233	1247.38
418.441	1267.86
418.649	1206.42
418.857	1304.73
419.065	1415.32
419.273	1280.15
419.481	1378.45
419.689	1581.2
419.897	1544.34
420.105	1573.01
420.313	1595.54
420.521	1783.95
420.729	1802.38
420.937	1855.63
421.145	1818.77
421.353	1955.98
421.561	2144.39
421.769	2044.04
421.977	2269.32
422.185	2250.89
422.393	2295.94
422.601	2472.07
422.809	2490.5
423.017	2500.74
423.224	2586.76
423.432	2740.35
423.64	2664.58
423.848	2959.49
424.056	2930.81
424.263	3182.71
424.471	3096.7
424.679	3217.53
424.887	3334.26
425.094	3475.57
425.302	3545.2
425.51	3633.27
425.718	3682.42
425.925	3790.96
426.133	3919.98
426.341	3950.7
426.548	4348.01
426.756	4249.71
426.964	4356.2
427.171	4487.27
427.379	4616.29
427.586	4794.47
427.794	4911.2
428.001	5163.1
428.209	5511.25
428.417	5304.41
428.624	5539.93
428.832	5613.65
429.039	5728.34
429.247	5642.32
429.454	6162.51
429.662	6469.7
429.869	6215.76
430.076	6621.25
430.284	6377.55
430.491	6686.79
430.699	6895.68
430.906	7088.19
431.114	7008.32
431.321	7411.77
431.528	7520.31
431.736	7895.09
431.943	8273.96
432.15	8024.11
432.358	8267.82
432.565	8769.57
432.772	8828.96
432.979	9025.57
433.187	9052.19
433.394	9285.66
433.601	9824.28
433.808	9873.43
434.016	9832.47
434.223	10461.2
434.43	10854.41
434.637	10686.47
434.844	11313.15
435.052	11476.99
435.259	11821.05
435.466	11460.6
435.673	11468.8
435.88	12462.06
436.087	12699.62
436.294	12820.46
436.501	12519.4
436.708	12720.1
436.915	13334.5
437.122	13739.99
437.329	13737.95
437.537	14354.38
437.743	14577.61
437.95	14323.66
438.157	15165.38
438.364	15536.06
438.571	15790.01
438.778	15704
438.985	17125.29
439.192	16463.79
439.399	17272.74
439.606	16719.79
439.813	17670.05
440.02	18581.39
440.227	18108.31
440.433	18153.37
440.64	18753.42
440.847	18435.99
441.054	19017.61
441.261	20258.68
441.467	20125.56
441.674	20692.85
441.881	21235.56
442.088	21110.63
442.294	20930.41
442.501	21442.4
442.708	22097.75
442.914	22869.84
443.121	23705.41
443.328	23027.53
443.534	24792.88
443.741	24436.53
443.948	23807.81
444.154	25292.58
444.361	25315.11
444.568	25200.43
444.774	25458.47
444.981	25392.94
445.187	26509.08
445.394	27492.1
445.6	27297.55
445.807	29847.27
446.013	28536.57
446.22	28974.83
446.426	30121.7
446.633	29959.91
446.839	31160.02
447.046	29886.18
447.252	31923.91
447.459	31741.64
447.665	31616.71
447.871	33167.02
448.078	34549.4
448.284	32706.23
448.491	33769.13
448.697	34821.78
448.903	35454.61
449.11	35602.06
449.316	35196.56
449.522	35628.68
449.728	36583.04
449.935	36691.58
450.141	36562.56
450.347	37521.01
450.553	36607.61
450.76	36605.56
450.966	37617.26
451.172	37281.39
451.378	38637.15
451.584	38129.25
451.791	38352.48
451.997	38221.41
452.203	39112.28
452.409	39071.32
452.615	39034.46
452.821	37236.34
453.027	36828.79
453.233	39134.81
453.44	37934.7
453.646	37690.99
453.852	38098.53
454.058	38575.71
454.264	37285.49
454.47	38168.16
454.676	37123.7
454.882	38252.13
455.088	34999.96
455.294	35958.41
455.5	35778.18
455.705	36279.94
455.911	35020.44
456.117	34338.46
456.323	33777.32
456.529	32081.6
456.735	33337.01
456.941	32655.03
457.147	31964.87
457.352	31160.02
457.558	30621.4
457.764	30797.52
457.97	30191.33
458.176	29497.06
458.381	29519.59
458.587	28094.21
458.793	28049.15
458.999	26754.83
459.204	28233.47
459.41	27600.65
459.616	25667.36
459.821	25843.49
460.027	25745.19
460.233	25141.04
460.438	23899.97
460.644	24297.27
460.85	22869.84
461.055	22914.89
461.261	22839.12
461.466	20842.35
461.672	20606.83
461.878	21993.31
462.083	20287.35
462.289	20164.47
462.494	19935.1
462.7	18745.23
462.905	18491.28
463.111	19158.92
463.316	19208.07
463.522	18726.8
463.727	18806.67
463.932	18679.69
464.138	18667.41
464.343	18816.91
464.549	18083.73
464.754	18958.22
464.959	18632.59
465.165	18343.83
465.37	17762.2
465.575	17184.68
465.781	18063.26
465.986	17866.65
466.191	17534.88
466.397	17076.13
466.602	16248.75
466.807	17000.36
467.012	16996.26
467.218	16848.81
467.423	16441.26
467.628	16656.3
