Data from USB4F104151__5__11-04-33-797.txt Node

Date: Wed Mar 12 11:04:33 EDT 2025
User: louis
Spectrometer: USB4F10415
Trigger mode: 4
Integration Time (sec): 2.000000E-2
Scans to average: 1
Electric dark correction enabled: true
Nonlinearity correction enabled: false
Boxcar width: 0
XAxis mode: Wavelengths
Number of Pixels in Spectrum: 3648
>>>>>Begin Spectral Data<<<<<
178.204	-42.5
178.424	-42.5
178.644	-42.5
178.864	-44.54
179.084	-122.37
179.304	-28.16
179.524	-30.21
179.744	41.47
179.964	29.18
180.184	-11.78
180.404	-9.73
180.624	-3.58
180.844	-13.82
181.064	-60.93
181.283	14.85
181.503	25.09
181.723	47.62
181.943	-62.98
182.163	29.18
182.383	8.7
182.602	33.28
182.822	16.9
183.042	57.86
183.262	-11.78
183.482	55.81
183.701	43.52
183.921	55.81
184.141	59.9
184.361	33.28
184.58	37.38
184.8	33.28
185.02	78.33
185.239	80.38
185.459	-5.63
185.679	14.85
185.898	0.51
186.118	72.19
186.338	10.75
186.557	49.66
186.777	59.9
186.997	12.8
187.216	33.28
187.436	74.24
187.655	6.66
187.875	51.71
188.095	25.09
188.314	70.14
188.534	70.14
188.753	59.9
188.973	80.38
189.192	78.33
189.412	39.42
189.631	111.1
189.851	45.57
190.07	84.48
190.29	-48.64
190.509	33.28
190.729	49.66
190.948	109.05
191.168	70.14
191.387	115.2
191.607	72.19
191.826	35.33
192.045	29.18
192.265	72.19
192.484	25.09
192.704	18.94
192.923	-11.78
193.142	141.82
193.362	88.57
193.581	82.43
193.8	-3.58
194.02	37.38
194.239	27.14
194.458	-34.3
194.678	33.28
194.897	92.67
195.116	-28.16
195.335	74.24
195.555	33.28
195.774	41.47
195.993	41.47
196.212	23.04
196.432	35.33
196.651	84.48
196.87	29.18
197.089	25.09
197.308	78.33
197.528	43.52
197.747	-26.11
197.966	29.18
198.185	66.05
198.404	35.33
198.623	53.76
198.842	104.96
199.062	100.86
199.281	12.8
199.5	55.81
199.719	41.47
199.938	88.57
200.157	68.09
200.376	121.34
200.595	64
200.814	43.52
201.033	45.57
201.252	102.91
201.471	49.66
201.69	35.33
201.909	4.61
202.128	27.14
202.347	123.39
202.566	59.9
202.785	-34.3
203.004	49.66
203.223	109.05
203.442	47.62
203.661	12.8
203.879	-17.92
204.098	-13.82
204.317	66.05
204.536	53.76
204.755	10.75
204.974	29.18
205.193	119.29
205.411	82.43
205.63	64
205.849	-22.02
206.068	-30.21
206.287	25.09
206.505	39.42
206.724	-19.97
206.943	8.7
207.162	10.75
207.381	88.57
207.599	88.57
207.818	86.53
208.037	115.2
208.255	8.7
208.474	-5.63
208.693	61.95
208.911	-30.21
209.13	-7.68
209.349	57.86
209.567	23.04
209.786	70.14
210.005	84.48
210.223	47.62
210.442	-75.26
210.661	51.71
210.879	-15.87
211.098	49.66
211.316	45.57
211.535	8.7
211.753	80.38
211.972	25.09
212.191	41.47
212.409	2.56
212.628	33.28
212.846	-22.02
213.065	35.33
213.283	41.47
213.502	-3.58
213.72	49.66
213.938	51.71
214.157	59.9
214.375	35.33
214.594	68.09
214.812	70.14
215.031	64
215.249	-3.58
215.467	49.66
215.686	12.8
215.904	82.43
216.122	-30.21
216.341	109.05
216.559	14.85
216.778	18.94
216.996	53.76
217.214	27.14
217.432	-1.54
217.651	109.05
217.869	33.28
218.087	-19.97
218.306	111.1
218.524	31.23
218.742	84.48
218.96	53.76
219.179	2.56
219.397	35.33
219.615	109.05
219.833	78.33
220.051	-89.6
220.27	55.81
220.488	64
220.706	0.51
220.924	82.43
221.142	20.99
221.36	-11.78
221.578	45.57
221.796	33.28
222.015	35.33
222.233	72.19
222.451	6.66
222.669	47.62
222.887	111.1
223.105	82.43
223.323	57.86
223.541	70.14
223.759	-1.54
223.977	74.24
224.195	25.09
224.413	115.2
224.631	57.86
224.849	43.52
225.067	20.99
225.285	-17.92
225.503	-32.26
225.721	8.7
225.939	51.71
226.157	35.33
226.375	78.33
226.592	51.71
226.81	49.66
227.028	31.23
227.246	51.71
227.464	14.85
227.682	98.81
227.9	61.95
228.117	31.23
228.335	8.7
228.553	41.47
228.771	41.47
228.989	121.34
229.206	104.96
229.424	23.04
229.642	-9.73
229.86	80.38
230.077	-42.5
230.295	0.51
230.513	76.29
230.731	92.67
230.948	86.53
231.166	88.57
231.384	61.95
231.601	76.29
231.819	96.77
232.037	23.04
232.254	55.81
232.472	20.99
232.689	18.94
232.907	100.86
233.125	55.81
233.342	37.38
233.56	39.42
233.777	100.86
233.995	31.23
234.213	10.75
234.43	16.9
234.648	117.25
234.865	61.95
235.083	12.8
235.3	35.33
235.518	12.8
235.735	90.62
235.953	20.99
236.17	86.53
236.388	33.28
236.605	27.14
236.822	35.33
237.04	137.73
237.257	61.95
237.475	14.85
237.692	31.23
237.909	49.66
238.127	102.91
238.344	41.47
238.562	49.66
238.779	-44.54
238.996	29.18
239.214	-36.35
239.431	117.25
239.648	49.66
239.865	86.53
240.083	-3.58
240.3	33.28
240.517	-46.59
240.735	10.75
240.952	68.09
241.169	94.72
241.386	68.09
241.603	109.05
241.821	86.53
242.038	49.66
242.255	-15.87
242.472	-15.87
242.689	92.67
242.907	80.38
243.124	12.8
243.341	111.1
243.558	-62.98
243.775	-1.54
243.992	29.18
244.209	37.38
244.426	25.09
244.643	94.72
244.86	66.05
245.078	57.86
245.295	37.38
245.512	51.71
245.729	82.43
245.946	35.33
246.163	-32.26
246.38	78.33
246.597	-11.78
246.814	94.72
247.031	37.38
247.248	33.28
247.464	100.86
247.681	64
247.898	4.61
248.115	98.81
248.332	-7.68
248.549	14.85
248.766	82.43
248.983	16.9
249.2	6.66
249.417	27.14
249.633	2.56
249.85	31.23
250.067	82.43
250.284	53.76
250.501	61.95
250.717	98.81
250.934	51.71
251.151	-13.82
251.368	-3.58
251.585	51.71
251.801	-58.88
252.018	10.75
252.235	43.52
252.451	55.81
252.668	41.47
252.885	98.81
253.102	4.61
253.318	-13.82
253.535	51.71
253.752	74.24
253.968	-22.02
254.185	18.94
254.401	0.51
254.618	66.05
254.835	-48.64
255.051	117.25
255.268	33.28
255.484	74.24
255.701	45.57
255.917	-3.58
256.134	12.8
256.351	37.38
256.567	12.8
256.784	39.42
257	4.61
257.217	90.62
257.433	70.14
257.65	90.62
257.866	55.81
258.082	43.52
258.299	33.28
258.515	57.86
258.732	14.85
258.948	41.47
259.165	-13.82
259.381	2.56
259.597	-3.58
259.814	86.53
260.03	35.33
260.246	74.24
260.463	66.05
260.679	23.04
260.895	-28.16
261.112	82.43
261.328	-50.69
261.544	25.09
261.761	127.49
261.977	117.25
262.193	41.47
262.409	33.28
262.626	10.75
262.842	10.75
263.058	-13.82
263.274	66.05
263.49	25.09
263.707	20.99
263.923	20.99
264.139	29.18
264.355	57.86
264.571	25.09
264.787	45.57
265.004	29.18
265.22	66.05
265.436	10.75
265.652	41.47
265.868	-9.73
266.084	45.57
266.3	-42.5
266.516	53.76
266.732	57.86
266.948	49.66
267.164	29.18
267.38	72.19
267.596	35.33
267.812	74.24
268.028	96.77
268.244	55.81
268.46	88.57
268.676	86.53
268.892	59.9
269.108	25.09
269.324	45.57
269.54	51.71
269.756	12.8
269.972	25.09
270.188	82.43
270.403	-34.3
270.619	64
270.835	27.14
271.051	61.95
271.267	49.66
271.483	-26.11
271.698	57.86
271.914	129.53
272.13	33.28
272.346	43.52
272.562	76.29
272.777	111.1
272.993	-3.58
273.209	109.05
273.425	47.62
273.64	45.57
273.856	45.57
274.072	-15.87
274.287	23.04
274.503	76.29
274.719	-5.63
274.934	61.95
275.15	43.52
275.366	8.7
275.581	53.76
275.797	53.76
276.012	4.61
276.228	25.09
276.444	98.81
276.659	-19.97
276.875	47.62
277.09	29.18
277.306	41.47
277.521	49.66
277.737	25.09
277.952	76.29
278.168	59.9
278.383	72.19
278.599	-44.54
278.814	94.72
279.03	59.9
279.245	78.33
279.461	61.95
279.676	-3.58
279.892	55.81
280.107	18.94
280.322	2.56
280.538	80.38
280.753	12.8
280.969	39.42
281.184	59.9
281.399	27.14
281.615	2.56
281.83	70.14
282.045	82.43
282.26	4.61
282.476	53.76
282.691	119.29
282.906	2.56
283.122	66.05
283.337	37.38
283.552	27.14
283.767	51.71
283.983	45.57
284.198	51.71
284.413	64
284.628	-60.93
284.843	72.19
285.058	55.81
285.274	31.23
285.489	14.85
285.704	51.71
285.919	-3.58
286.134	51.71
286.349	53.76
286.564	49.66
286.779	135.68
286.995	23.04
287.21	0.51
287.425	90.62
287.64	102.91
287.855	47.62
288.07	-1.54
288.285	78.33
288.5	74.24
288.715	-11.78
288.93	23.04
289.145	61.95
289.36	27.14
289.575	39.42
289.79	109.05
290.004	-3.58
290.219	82.43
290.434	-17.92
290.649	45.57
290.864	29.18
291.079	88.57
291.294	80.38
291.509	119.29
291.724	33.28
291.938	66.05
292.153	59.9
292.368	-13.82
292.583	47.62
292.798	76.29
293.012	16.9
293.227	55.81
293.442	100.86
293.657	25.09
293.871	43.52
294.086	55.81
294.301	86.53
294.516	43.52
294.73	100.86
294.945	49.66
295.16	-15.87
295.374	66.05
295.589	82.43
295.804	35.33
296.018	78.33
296.233	94.72
296.447	8.7
296.662	53.76
296.877	90.62
297.091	41.47
297.306	117.25
297.52	-5.63
297.735	74.24
297.949	59.9
298.164	86.53
298.378	92.67
298.593	84.48
298.807	-42.5
299.022	-13.82
299.236	49.66
299.451	100.86
299.665	102.91
299.88	55.81
300.094	-44.54
300.309	66.05
300.523	14.85
300.737	45.57
300.952	70.14
301.166	86.53
301.381	51.71
301.595	78.33
301.809	8.7
302.024	41.47
302.238	74.24
302.452	16.9
302.667	29.18
302.881	25.09
303.095	104.96
303.309	-5.63
303.524	76.29
303.738	35.33
303.952	39.42
304.166	84.48
304.381	2.56
304.595	27.14
304.809	2.56
305.023	86.53
305.237	51.71
305.452	70.14
305.666	55.81
305.88	156.16
306.094	61.95
306.308	82.43
306.522	64
306.736	82.43
306.95	41.47
307.164	90.62
307.379	43.52
307.593	104.96
307.807	88.57
308.021	115.2
308.235	66.05
308.449	14.85
308.663	53.76
308.877	45.57
309.091	27.14
309.305	90.62
309.519	-40.45
309.733	25.09
309.947	-19.97
310.161	20.99
310.374	12.8
310.588	86.53
310.802	-30.21
311.016	47.62
311.23	70.14
311.444	104.96
311.658	-5.63
311.872	23.04
312.085	98.81
312.299	45.57
312.513	2.56
312.727	84.48
312.941	57.86
313.154	53.76
313.368	41.47
313.582	131.58
313.796	143.87
314.009	31.23
314.223	66.05
314.437	18.94
314.651	53.76
314.864	115.2
315.078	45.57
315.292	39.42
315.505	27.14
315.719	37.38
315.933	70.14
316.146	45.57
316.36	78.33
316.573	90.62
316.787	72.19
317.001	70.14
317.214	88.57
317.428	10.75
317.641	-1.54
317.855	43.52
318.068	55.81
318.282	74.24
318.495	61.95
318.709	102.91
318.922	49.66
319.136	64
319.349	127.49
319.563	49.66
319.776	82.43
319.99	68.09
320.203	102.91
320.417	78.33
320.63	113.15
320.843	55.81
321.057	57.86
321.27	74.24
321.483	31.23
321.697	25.09
321.91	86.53
322.124	31.23
322.337	107.01
322.55	86.53
322.763	78.33
322.977	66.05
323.19	37.38
323.403	10.75
323.617	125.44
323.83	57.86
324.043	47.62
324.256	53.76
324.469	57.86
324.683	14.85
324.896	88.57
325.109	113.15
325.322	27.14
325.535	45.57
325.748	78.33
325.962	14.85
326.175	37.38
326.388	86.53
326.601	104.96
326.814	14.85
327.027	70.14
327.24	64
327.453	41.47
327.666	57.86
327.879	41.47
328.092	20.99
328.305	111.1
328.518	20.99
328.731	18.94
328.944	64
329.157	115.2
329.37	53.76
329.583	158.21
329.796	145.92
330.009	4.61
330.222	66.05
330.435	-38.4
330.648	76.29
330.861	76.29
331.073	78.33
331.286	41.47
331.499	-1.54
331.712	84.48
331.925	41.47
332.138	66.05
332.35	94.72
332.563	31.23
332.776	64
332.989	2.56
333.202	70.14
333.414	119.29
333.627	102.91
333.84	61.95
334.053	16.9
334.265	86.53
334.478	107.01
334.691	25.09
334.903	4.61
335.116	14.85
335.329	64
335.541	90.62
335.754	37.38
335.966	61.95
336.179	53.76
336.392	12.8
336.604	111.1
336.817	45.57
337.029	8.7
337.242	98.81
337.454	98.81
337.667	88.57
337.88	129.53
338.092	70.14
338.305	49.66
338.517	27.14
338.729	82.43
338.942	133.63
339.154	20.99
339.367	125.44
339.579	12.8
339.792	61.95
340.004	88.57
340.217	86.53
340.429	68.09
340.641	49.66
340.854	49.66
341.066	96.77
341.278	113.15
341.491	107.01
341.703	27.14
341.915	37.38
342.128	70.14
342.34	72.19
342.552	35.33
342.764	-13.82
342.977	88.57
343.189	16.9
343.401	68.09
343.613	8.7
343.826	20.99
344.038	23.04
344.25	100.86
344.462	74.24
344.674	115.2
344.886	29.18
345.099	43.52
345.311	70.14
345.523	125.44
345.735	41.47
345.947	23.04
346.159	-1.54
346.371	76.29
346.583	23.04
346.795	45.57
347.007	107.01
347.219	119.29
347.431	45.57
347.643	47.62
347.855	47.62
348.067	82.43
348.279	82.43
348.491	18.94
348.703	80.38
348.915	49.66
349.127	49.66
349.339	4.61
349.551	117.25
349.763	51.71
349.975	70.14
350.187	90.62
350.399	107.01
350.61	78.33
350.822	-1.54
351.034	39.42
351.246	84.48
351.458	125.44
351.669	82.43
351.881	-19.97
352.093	61.95
352.305	53.76
352.517	143.87
352.728	43.52
352.94	-11.78
353.152	72.19
353.363	109.05
353.575	57.86
353.787	47.62
353.999	27.14
354.21	100.86
354.422	41.47
354.633	-1.54
354.845	80.38
355.057	25.09
355.268	70.14
355.48	90.62
355.692	61.95
355.903	64
356.115	123.39
356.326	2.56
356.538	96.77
356.749	45.57
356.961	43.52
357.172	90.62
357.384	2.56
357.595	55.81
357.807	14.85
358.018	57.86
358.23	47.62
358.441	45.57
358.653	20.99
358.864	12.8
359.075	68.09
359.287	-1.54
359.498	74.24
359.709	37.38
359.921	25.09
360.132	123.39
360.344	39.42
360.555	43.52
360.766	68.09
360.977	53.76
361.189	45.57
361.4	33.28
361.611	88.57
361.823	70.14
362.034	10.75
362.245	20.99
362.456	39.42
362.667	53.76
362.879	27.14
363.09	94.72
363.301	53.76
363.512	33.28
363.723	76.29
363.935	76.29
364.146	102.91
364.357	98.81
364.568	78.33
364.779	-19.97
364.99	53.76
365.201	0.51
365.412	98.81
365.623	-62.98
365.834	37.38
366.045	82.43
366.256	45.57
366.467	49.66
366.678	86.53
366.889	133.63
367.1	84.48
367.311	6.66
367.522	90.62
367.733	76.29
367.944	14.85
368.155	33.28
368.366	78.33
368.577	109.05
368.788	70.14
368.999	14.85
369.209	168.45
369.42	121.34
369.631	121.34
369.842	104.96
370.053	80.38
370.264	82.43
370.474	43.52
370.685	66.05
370.896	100.86
371.107	100.86
371.317	72.19
371.528	70.14
371.739	141.82
371.95	78.33
372.16	66.05
372.371	113.15
372.582	109.05
372.792	4.61
373.003	131.58
373.214	61.95
373.424	100.86
373.635	64
373.846	115.2
374.056	49.66
374.267	88.57
374.477	127.49
374.688	53.76
374.898	113.15
375.109	-3.58
375.319	27.14
375.53	35.33
375.74	57.86
375.951	78.33
376.161	98.81
376.372	104.96
376.582	23.04
376.793	80.38
377.003	57.86
377.214	119.29
377.424	111.1
377.635	158.21
377.845	57.86
378.055	88.57
378.266	59.9
378.476	94.72
378.686	29.18
378.897	102.91
379.107	80.38
379.317	55.81
379.528	-7.68
379.738	145.92
379.948	96.77
380.158	55.81
380.369	129.53
380.579	129.53
380.789	47.62
380.999	98.81
381.21	27.14
381.42	49.66
381.63	66.05
381.84	86.53
382.05	76.29
382.261	127.49
382.471	47.62
382.681	86.53
382.891	119.29
383.101	145.92
383.311	-7.68
383.521	107.01
383.731	104.96
383.941	78.33
384.151	94.72
384.361	55.81
384.571	107.01
384.781	59.9
384.991	129.53
385.201	129.53
385.411	88.57
385.621	23.04
385.831	100.86
386.041	119.29
386.251	66.05
386.461	80.38
386.671	66.05
386.881	76.29
387.091	12.8
387.301	74.24
387.511	51.71
387.72	125.44
387.93	76.29
388.14	72.19
388.35	141.82
388.56	145.92
388.769	92.67
388.979	102.91
389.189	61.95
389.399	98.81
389.609	53.76
389.818	129.53
390.028	135.68
390.238	57.86
390.447	76.29
390.657	127.49
390.867	125.44
391.076	53.76
391.286	76.29
391.496	100.86
391.705	43.52
391.915	86.53
392.125	92.67
392.334	68.09
392.544	20.99
392.753	139.77
392.963	92.67
393.172	96.77
393.382	84.48
393.591	68.09
393.801	154.11
394.01	88.57
394.22	37.38
394.429	115.2
394.639	55.81
394.848	178.69
395.058	127.49
395.267	117.25
395.477	201.21
395.686	90.62
395.895	137.73
396.105	154.11
396.314	182.78
396.524	18.94
396.733	127.49
396.942	223.74
397.152	45.57
397.361	162.3
397.57	39.42
397.78	76.29
397.989	131.58
398.198	158.21
398.407	113.15
398.617	164.35
398.826	139.77
399.035	131.58
399.244	70.14
399.453	33.28
399.663	123.39
399.872	113.15
400.081	98.81
400.29	139.77
400.499	84.48
400.708	225.79
400.917	178.69
401.127	201.21
401.336	92.67
401.545	143.87
401.754	96.77
401.963	158.21
402.172	127.49
402.381	135.68
402.59	154.11
402.799	193.02
403.008	129.53
403.217	215.55
403.426	137.73
403.635	172.54
403.844	162.3
404.053	102.91
404.262	131.58
404.471	127.49
404.68	184.83
404.888	201.21
405.097	229.88
405.306	170.49
405.515	199.16
405.724	197.12
405.933	178.69
406.142	229.88
406.35	250.36
406.559	254.46
406.768	262.65
406.977	297.47
407.185	182.78
407.394	207.36
407.603	238.08
407.812	246.27
408.02	309.76
408.229	369.15
408.438	283.13
408.646	346.62
408.855	274.94
409.064	393.72
409.272	340.47
409.481	348.67
409.69	274.94
409.898	328.19
410.107	410.11
410.315	391.67
410.524	365.05
410.733	428.54
410.941	348.67
411.15	442.87
411.358	483.83
411.567	442.87
411.775	440.83
411.984	387.58
412.192	455.16
412.401	451.07
412.609	590.33
412.818	582.14
413.026	537.08
413.234	563.7
413.443	662.01
413.651	664.05
413.86	676.34
414.068	707.06
414.276	739.83
414.485	756.21
414.693	788.98
414.901	711.16
415.11	778.74
415.318	754.16
415.526	879.09
415.734	870.9
415.943	1001.97
416.151	924.15
416.359	934.39
416.567	991.73
416.776	1016.3
416.984	1178.09
417.192	1063.41
417.4	1096.18
417.608	1049.07
417.817	1190.38
418.025	1264.11
418.233	1360.36
418.441	1311.21
418.649	1444.33
418.857	1421.8
419.065	1448.43
419.273	1542.63
419.481	1470.95
419.689	1624.55
419.897	1698.28
420.105	1655.27
420.313	1827.3
420.521	1837.54
420.729	1933.79
420.937	1886.69
421.145	2095.58
421.353	2122.21
421.561	2210.27
421.769	2183.65
421.977	2386.4
422.185	2357.72
422.393	2556.38
422.601	2720.21
422.809	2617.82
423.017	2691.54
423.224	2757.08
423.432	2875.86
423.64	2824.66
423.848	3064.27
424.056	3066.32
424.263	3301.84
424.471	3258.83
424.679	3271.12
424.887	3566.03
425.094	3649.99
425.302	3799.49
425.51	3801.54
425.718	3963.33
425.925	3949
426.133	4116.93
426.341	4211.14
426.548	4602.3
426.756	4489.66
426.964	4481.47
427.171	4972.98
427.379	5231.02
427.586	5134.77
427.794	5274.03
428.001	5499.31
428.209	5790.12
428.417	5650.86
428.624	6009.25
428.832	6015.4
429.039	5953.96
429.247	5958.05
429.454	6635.93
429.662	7010.71
429.869	6615.45
430.076	6957.46
430.284	6721.95
430.491	6963.61
430.699	7457.17
430.906	7522.7
431.114	7580.04
431.321	8139.14
431.528	8118.66
431.736	8612.22
431.943	8796.54
432.15	8794.49
432.358	8868.22
432.565	9300.34
432.772	9353.59
432.979	9824.62
433.187	10080.61
433.394	9922.92
433.601	10719.58
433.808	10819.93
434.016	10682.72
434.223	11194.71
434.43	11714.89
434.637	11598.16
434.844	11931.98
435.052	12638.53
435.259	12585.28
435.466	12589.38
435.673	12372.29
435.88	13224.25
436.087	14031.15
436.294	14102.82
436.501	13676.85
436.708	13816.11
436.915	14293.29
437.122	15077.66
437.329	15083.8
437.537	15560.98
437.743	15548.69
437.95	15456.53
438.157	16478.47
438.364	17301.75
438.571	16867.58
438.778	16875.77
438.985	18594.02
439.192	17979.63
439.399	18409.7
439.606	17981.68
439.813	18899.17
440.02	20236.49
440.227	19757.27
440.433	19724.5
440.64	20484.3
440.847	20224.2
441.054	21057.73
441.261	22134.96
441.467	22083.76
441.674	22108.33
441.881	23120.03
442.088	23283.87
442.294	22868.13
442.501	23541.91
442.708	24074.38
442.914	25069.7
443.121	26030.19
443.328	25288.83
443.534	27142.24
443.741	25999.48
443.948	26097.78
444.154	28211.28
444.361	27527.26
444.568	28190.8
444.774	28096.6
444.981	28653.64
445.187	29024.33
445.394	30423.09
445.6	29972.53
445.807	32583.69
446.013	31111.21
446.22	31819.8
446.426	32970.76
446.633	33120.26
446.839	34678.77
447.046	33015.82
447.252	34883.56
447.459	34740.21
447.665	34809.84
447.871	36249.56
448.078	37414.85
448.284	35930.08
448.491	36925.39
448.697	38252.47
448.903	38766.51
449.11	38784.94
449.316	38328.25
449.522	38875.05
449.728	39851.94
449.935	40253.34
450.141	40079.26
450.347	40902.54
450.553	39647.14
450.76	40206.23
450.966	41338.76
451.172	41019.28
451.378	41774.98
451.584	40701.84
451.791	41727.88
451.997	41865.09
452.203	42198.91
452.409	42151.8
452.615	42022.78
452.821	40486.81
453.027	40472.47
453.233	41992.06
453.44	39983.01
453.646	40654.74
453.852	40738.71
454.058	41648
454.264	40120.22
454.47	40728.47
454.676	40191.9
454.882	41375.62
455.088	37457.86
455.294	37910.46
455.5	38537.14
455.705	38899.63
455.911	37558.21
456.117	36919.24
456.323	35831.77
456.529	34019.32
456.735	35364.84
456.941	34605.04
457.147	34052.09
457.352	32761.87
457.558	32419.86
457.764	32266.26
457.97	31606.81
458.176	31158.31
458.381	30863.4
458.587	29392.96
458.793	29489.21
458.999	28092.5
459.204	30064.69
459.41	29300.8
459.616	27242.59
459.821	27482.2
460.027	27258.98
460.233	26605.67
460.438	25315.45
460.644	25657.46
460.85	24361.1
461.055	23924.88
461.261	23791.76
461.466	22038.7
461.672	21477.56
461.878	23066.78
462.083	21385.4
462.289	21409.98
462.494	20791.49
462.7	19802.32
462.905	19738.83
463.111	20381.9
463.316	20480.2
463.522	19759.31
463.727	19914.96
463.932	19607.76
464.138	19544.28
464.343	19859.66
464.549	19132.64
464.754	19732.69
464.959	19501.27
465.165	19513.56
465.37	18448.61
465.575	18186.47
465.781	18784.48
465.986	18819.3
466.191	18270.44
466.397	18082.03
466.602	17090.81
466.807	17504.5
467.012	17744.11
467.218	17832.18
