Data from USB4F104151__226__11-10-54-134.txt Node

Date: Wed Mar 12 11:10:54 EDT 2025
User: louis
Spectrometer: USB4F10415
Trigger mode: 4
Integration Time (sec): 2.000000E-2
Scans to average: 1
Electric dark correction enabled: true
Nonlinearity correction enabled: false
Boxcar width: 0
XAxis mode: Wavelengths
Number of Pixels in Spectrum: 3648
>>>>>Begin Spectral Data<<<<<
178.204	-120.49
178.424	-120.49
178.644	-120.49
178.864	-40.62
179.084	-106.15
179.304	43.35
179.524	-7.85
179.744	-9.9
179.964	24.92
180.184	-24.23
180.404	-40.62
180.624	16.73
180.844	0.34
181.064	-57
181.283	-30.38
181.503	35.16
181.723	49.49
181.943	-59.05
182.163	33.11
182.383	35.16
182.602	33.11
182.822	-5.8
183.042	94.55
183.262	2.39
183.482	53.59
183.701	-5.8
183.921	35.16
184.141	12.63
184.361	-28.33
184.58	10.58
184.8	22.87
185.02	84.31
185.239	35.16
185.459	43.35
185.679	37.2
185.898	10.58
186.118	49.49
186.338	72.02
186.557	35.16
186.777	-46.76
186.997	141.65
187.216	18.77
187.436	26.96
187.655	33.11
187.875	-1.71
188.095	69.97
188.314	-7.85
188.534	8.53
188.753	24.92
188.973	24.92
189.192	69.97
189.412	37.2
189.631	39.25
189.851	22.87
190.07	121.17
190.29	43.35
190.509	0.34
190.729	51.54
190.948	-20.14
191.168	78.16
191.387	2.39
191.607	-28.33
191.826	-11.95
192.045	98.64
192.265	-22.19
192.484	-3.75
192.704	0.34
192.923	24.92
193.142	96.6
193.362	41.3
193.581	59.73
193.8	-26.28
194.02	4.44
194.239	133.46
194.458	12.63
194.678	14.68
194.897	55.64
195.116	-16.04
195.335	12.63
195.555	-32.43
195.774	18.77
195.993	33.11
196.212	39.25
196.432	-38.57
196.651	63.83
196.87	39.25
197.089	119.12
197.308	-24.23
197.528	-16.04
197.747	-11.95
197.966	-13.99
198.185	119.12
198.404	72.02
198.623	8.53
198.842	20.82
199.062	55.64
199.281	14.68
199.5	-28.33
199.719	41.3
199.938	-46.76
200.157	31.06
200.376	31.06
200.595	18.77
200.814	-16.04
201.033	-18.09
201.252	35.16
201.471	6.49
201.69	80.21
201.909	61.78
202.128	31.06
202.347	125.27
202.566	10.58
202.785	6.49
203.004	35.16
203.223	65.88
203.442	35.16
203.661	84.31
203.879	-7.85
204.098	10.58
204.317	33.11
204.536	20.82
204.755	-9.9
204.974	-24.23
205.193	57.68
205.411	67.92
205.63	37.2
205.849	43.35
206.068	-18.09
206.287	84.31
206.505	45.4
206.724	69.97
206.943	-30.38
207.162	24.92
207.381	72.02
207.599	-42.67
207.818	59.73
208.037	-40.62
208.255	26.96
208.474	0.34
208.693	-11.95
208.911	35.16
209.13	61.78
209.349	-50.86
209.567	-1.71
209.786	-32.43
210.005	47.44
210.223	41.3
210.442	37.2
210.661	49.49
210.879	4.44
211.098	76.12
211.316	-11.95
211.535	29.01
211.753	47.44
211.972	-3.75
212.191	45.4
212.409	61.78
212.628	-32.43
212.846	10.58
213.065	4.44
213.283	61.78
213.502	41.3
213.72	43.35
213.938	-32.43
214.157	67.92
214.375	12.63
214.594	47.44
214.812	16.73
215.031	-40.62
215.249	84.31
215.467	-9.9
215.686	-38.57
215.904	39.25
216.122	33.11
216.341	76.12
216.559	2.39
216.778	108.88
216.996	-20.14
217.214	20.82
217.432	22.87
217.651	65.88
217.869	-24.23
218.087	26.96
218.306	49.49
218.524	63.83
218.742	31.06
218.96	59.73
219.179	0.34
219.397	57.68
219.615	12.63
219.833	76.12
220.051	33.11
220.27	0.34
220.488	-7.85
220.706	53.59
220.924	-3.75
221.142	-22.19
221.36	4.44
221.578	-3.75
221.796	-9.9
222.015	8.53
222.233	-20.14
222.451	57.68
222.669	14.68
222.887	33.11
223.105	-11.95
223.323	6.49
223.541	35.16
223.759	4.44
223.977	39.25
224.195	69.97
224.413	-1.71
224.631	35.16
224.849	-30.38
225.067	98.64
225.285	-75.43
225.503	88.4
225.721	33.11
225.939	51.54
226.157	14.68
226.375	123.22
226.592	29.01
226.81	16.73
227.028	80.21
227.246	37.2
227.464	53.59
227.682	37.2
227.9	29.01
228.117	69.97
228.335	61.78
228.553	35.16
228.771	16.73
228.989	47.44
229.206	10.58
229.424	12.63
229.642	61.78
229.86	2.39
230.077	102.74
230.295	84.31
230.513	92.5
230.731	110.93
230.948	69.97
231.166	-28.33
231.384	4.44
231.601	-24.23
231.819	55.64
232.037	-1.71
232.254	45.4
232.472	16.73
232.689	-16.04
232.907	57.68
233.125	61.78
233.342	-7.85
233.56	41.3
233.777	57.68
233.995	-73.39
234.213	76.12
234.43	67.92
234.648	47.44
234.865	-28.33
235.083	-28.33
235.3	72.02
235.518	35.16
235.735	-20.14
235.953	74.07
236.17	41.3
236.388	53.59
236.605	31.06
236.822	69.97
237.04	-40.62
237.257	31.06
237.475	-34.47
237.692	-20.14
237.909	39.25
238.127	-20.14
238.344	84.31
238.562	-67.24
238.779	-13.99
238.996	6.49
239.214	-7.85
239.431	65.88
239.648	41.3
239.865	2.39
240.083	8.53
240.3	80.21
240.517	0.34
240.735	16.73
240.952	41.3
241.169	43.35
241.386	49.49
241.603	41.3
241.821	33.11
242.038	131.41
242.255	55.64
242.472	-9.9
242.689	37.2
242.907	31.06
243.124	31.06
243.341	10.58
243.558	45.4
243.775	37.2
243.992	4.44
244.209	29.01
244.426	2.39
244.643	-9.9
244.86	-20.14
245.078	22.87
245.295	-1.71
245.512	-16.04
245.729	57.68
245.946	4.44
246.163	37.2
246.38	43.35
246.597	-9.9
246.814	14.68
247.031	41.3
247.248	121.17
247.464	47.44
247.681	4.44
247.898	-46.76
248.115	47.44
248.332	-46.76
248.549	108.88
248.766	78.16
248.983	41.3
249.2	-3.75
249.417	16.73
249.633	0.34
249.85	43.35
250.067	-24.23
250.284	80.21
250.501	-50.86
250.717	37.2
250.934	53.59
251.151	-32.43
251.368	-1.71
251.585	39.25
251.801	29.01
252.018	-24.23
252.235	29.01
252.451	37.2
252.668	-77.48
252.885	22.87
253.102	-32.43
253.318	8.53
253.535	-5.8
253.752	65.88
253.968	110.93
254.185	4.44
254.401	-24.23
254.618	29.01
254.835	-48.81
255.051	24.92
255.268	35.16
255.484	4.44
255.701	-20.14
255.917	51.54
256.134	6.49
256.351	8.53
256.567	14.68
256.784	18.77
257	-30.38
257.217	53.59
257.433	-13.99
257.65	69.97
257.866	35.16
258.082	-32.43
258.299	4.44
258.515	110.93
258.732	-11.95
258.948	10.58
259.165	10.58
259.381	-57
259.597	-50.86
259.814	53.59
260.03	29.01
260.246	-24.23
260.463	43.35
260.679	59.73
260.895	6.49
261.112	22.87
261.328	33.11
261.544	45.4
261.761	41.3
261.977	16.73
262.193	-20.14
262.409	24.92
262.626	-5.8
262.842	53.59
263.058	53.59
263.274	10.58
263.49	74.07
263.707	65.88
263.923	69.97
264.139	-9.9
264.355	33.11
264.571	47.44
264.787	31.06
265.004	22.87
265.22	29.01
265.436	67.92
265.652	12.63
265.868	24.92
266.084	12.63
266.3	-7.85
266.516	63.83
266.732	-18.09
266.948	4.44
267.164	16.73
267.38	29.01
267.596	43.35
267.812	57.68
268.028	47.44
268.244	-38.57
268.46	8.53
268.676	53.59
268.892	57.68
269.108	-36.52
269.324	37.2
269.54	78.16
269.756	43.35
269.972	20.82
270.188	69.97
270.403	-46.76
270.619	29.01
270.835	33.11
271.051	20.82
271.267	6.49
271.483	106.84
271.698	45.4
271.914	24.92
272.13	29.01
272.346	14.68
272.562	53.59
272.777	63.83
272.993	-22.19
273.209	65.88
273.425	92.5
273.64	-7.85
273.856	59.73
274.072	-24.23
274.287	20.82
274.503	41.3
274.719	14.68
274.934	12.63
275.15	61.78
275.366	41.3
275.581	-13.99
275.797	92.5
276.012	53.59
276.228	-67.24
276.444	22.87
276.659	72.02
276.875	63.83
277.09	33.11
277.306	74.07
277.521	-24.23
277.737	-13.99
277.952	2.39
278.168	-42.67
278.383	24.92
278.599	53.59
278.814	-52.91
279.03	24.92
279.245	102.74
279.461	20.82
279.676	69.97
279.892	26.96
280.107	53.59
280.322	51.54
280.538	125.27
280.753	-77.48
280.969	51.54
281.184	26.96
281.399	26.96
281.615	-3.75
281.83	14.68
282.045	55.64
282.26	-48.81
282.476	-3.75
282.691	49.49
282.906	37.2
283.122	55.64
283.337	74.07
283.552	-9.9
283.767	20.82
283.983	63.83
284.198	4.44
284.413	-26.28
284.628	-5.8
284.843	57.68
285.058	-40.62
285.274	14.68
285.489	33.11
285.704	59.73
285.919	-59.05
286.134	4.44
286.349	78.16
286.564	0.34
286.779	-18.09
286.995	16.73
287.21	-18.09
287.425	65.88
287.64	51.54
287.855	45.4
288.07	4.44
288.285	47.44
288.5	59.73
288.715	33.11
288.93	8.53
289.145	6.49
289.36	-28.33
289.575	65.88
289.79	45.4
290.004	-32.43
290.219	55.64
290.434	-24.23
290.649	-7.85
290.864	10.58
291.079	29.01
291.294	53.59
291.509	-16.04
291.724	4.44
291.938	6.49
292.153	45.4
292.368	6.49
292.583	16.73
292.798	41.3
293.012	4.44
293.227	14.68
293.442	-28.33
293.657	41.3
293.871	59.73
294.086	67.92
294.301	45.4
294.516	65.88
294.73	35.16
294.945	-22.19
295.16	16.73
295.374	22.87
295.589	43.35
295.804	-1.71
296.018	-16.04
296.233	57.68
296.447	4.44
296.662	43.35
296.877	10.58
297.091	92.5
297.306	131.41
297.52	45.4
297.735	45.4
297.949	8.53
298.164	-13.99
298.378	0.34
298.593	22.87
298.807	33.11
299.022	74.07
299.236	37.2
299.451	4.44
299.665	45.4
299.88	-32.43
300.094	82.26
300.309	76.12
300.523	45.4
300.737	20.82
300.952	16.73
301.166	16.73
301.381	65.88
301.595	-9.9
301.809	-18.09
302.024	-44.71
302.238	22.87
302.452	63.83
302.667	-1.71
302.881	86.36
303.095	53.59
303.309	43.35
303.524	14.68
303.738	61.78
303.952	43.35
304.166	24.92
304.381	-79.53
304.595	67.92
304.809	-13.99
305.023	41.3
305.237	-52.91
305.452	4.44
305.666	-52.91
305.88	129.36
306.094	0.34
306.308	94.55
306.522	-34.47
306.736	-11.95
306.95	-20.14
307.164	86.36
307.379	12.63
307.593	86.36
307.807	53.59
308.021	12.63
308.235	57.68
308.449	24.92
308.663	-38.57
308.877	33.11
309.091	14.68
309.305	43.35
309.519	10.58
309.733	98.64
309.947	-36.52
310.161	24.92
310.374	41.3
310.588	16.73
310.802	-40.62
311.016	24.92
311.23	-26.28
311.444	18.77
311.658	-5.8
311.872	80.21
312.085	-3.75
312.299	63.83
312.513	47.44
312.727	129.36
312.941	-24.23
313.154	84.31
313.368	82.26
313.582	12.63
313.796	16.73
314.009	-13.99
314.223	-5.8
314.437	33.11
314.651	72.02
314.864	-28.33
315.078	-28.33
315.292	-61.1
315.505	-36.52
315.719	51.54
315.933	29.01
316.146	14.68
316.36	26.96
316.573	106.84
316.787	16.73
317.001	-20.14
317.214	76.12
317.428	12.63
317.641	-9.9
317.855	8.53
318.068	88.4
318.282	-20.14
318.495	119.12
318.709	-30.38
318.922	37.2
319.136	65.88
319.349	78.16
319.563	-1.71
319.776	37.2
319.99	49.49
320.203	49.49
320.417	-30.38
320.63	98.64
320.843	94.55
321.057	-79.53
321.27	51.54
321.483	39.25
321.697	166.23
321.91	0.34
322.124	88.4
322.337	57.68
322.55	20.82
322.763	20.82
322.977	-24.23
323.19	-28.33
323.403	35.16
323.617	31.06
323.83	69.97
324.043	-11.95
324.256	92.5
324.469	16.73
324.683	110.93
324.896	-7.85
325.109	67.92
325.322	39.25
325.535	47.44
325.748	110.93
325.962	86.36
326.175	-3.75
326.388	33.11
326.601	78.16
326.814	-26.28
327.027	57.68
327.24	14.68
327.453	12.63
327.666	6.49
327.879	90.45
328.092	72.02
328.305	80.21
328.518	90.45
328.731	69.97
328.944	119.12
329.157	16.73
329.37	-5.8
329.583	76.12
329.796	63.83
330.009	-3.75
330.222	104.79
330.435	43.35
330.648	69.97
330.861	4.44
331.073	65.88
331.286	41.3
331.499	16.73
331.712	29.01
331.925	43.35
332.138	29.01
332.35	86.36
332.563	90.45
332.776	47.44
332.989	26.96
333.202	31.06
333.414	26.96
333.627	84.31
333.84	45.4
334.053	61.78
334.265	78.16
334.478	63.83
334.691	6.49
334.903	37.2
335.116	-32.43
335.329	6.49
335.541	-24.23
335.754	-24.23
335.966	-18.09
336.179	45.4
336.392	-7.85
336.604	59.73
336.817	104.79
337.029	12.63
337.242	86.36
337.454	53.59
337.667	14.68
337.88	22.87
338.092	98.64
338.305	100.69
338.517	-24.23
338.729	33.11
338.942	31.06
339.154	-34.47
339.367	-24.23
339.579	16.73
339.792	-32.43
340.004	78.16
340.217	49.49
340.429	82.26
340.641	-34.47
340.854	49.49
341.066	41.3
341.278	6.49
341.491	-24.23
341.703	49.49
341.915	-5.8
342.128	20.82
342.34	45.4
342.552	82.26
342.764	-26.28
342.977	33.11
343.189	90.45
343.401	26.96
343.613	-16.04
343.826	72.02
344.038	31.06
344.25	82.26
344.462	-7.85
344.674	12.63
344.886	-18.09
345.099	49.49
345.311	92.5
345.523	72.02
345.735	108.88
345.947	65.88
346.159	26.96
346.371	0.34
346.583	-83.63
346.795	-77.48
347.007	57.68
347.219	-3.75
347.431	18.77
347.643	72.02
347.855	-18.09
348.067	6.49
348.279	-22.19
348.491	-3.75
348.703	31.06
348.915	-36.52
349.127	61.78
349.339	43.35
349.551	24.92
349.763	-11.95
349.975	35.16
350.187	29.01
350.399	80.21
350.61	37.2
350.822	88.4
351.034	6.49
351.246	16.73
351.458	94.55
351.669	55.64
351.881	-20.14
352.093	43.35
352.305	26.96
352.517	80.21
352.728	76.12
352.94	43.35
353.152	100.69
353.363	24.92
353.575	33.11
353.787	121.17
353.999	57.68
354.21	43.35
354.422	49.49
354.633	-32.43
354.845	6.49
355.057	88.4
355.268	51.54
355.48	-20.14
355.692	-9.9
355.903	14.68
356.115	-16.04
356.326	-50.86
356.538	67.92
356.749	20.82
356.961	78.16
357.172	88.4
357.384	35.16
357.595	59.73
357.807	18.77
358.018	69.97
358.23	29.01
358.441	55.64
358.653	0.34
358.864	43.35
359.075	-9.9
359.287	6.49
359.498	26.96
359.709	100.69
359.921	-22.19
360.132	65.88
360.344	20.82
360.555	78.16
360.766	63.83
360.977	84.31
361.189	47.44
361.4	72.02
361.611	26.96
361.823	37.2
362.034	-7.85
362.245	33.11
362.456	14.68
362.667	88.4
362.879	-83.63
363.09	78.16
363.301	33.11
363.512	61.78
363.723	6.49
363.935	84.31
364.146	55.64
364.357	57.68
364.568	45.4
364.779	47.44
364.99	8.53
365.201	-5.8
365.412	61.78
365.623	24.92
365.834	-1.71
366.045	45.4
366.256	37.2
366.467	69.97
366.678	61.78
366.889	8.53
367.1	51.54
367.311	29.01
367.522	37.2
367.733	24.92
367.944	49.49
368.155	33.11
368.366	-50.86
368.577	47.44
368.788	-7.85
368.999	-18.09
369.209	69.97
369.42	24.92
369.631	78.16
369.842	-32.43
370.053	-3.75
370.264	72.02
370.474	45.4
370.685	33.11
370.896	78.16
371.107	45.4
371.317	69.97
371.528	39.25
371.739	86.36
371.95	41.3
372.16	55.64
372.371	-54.95
372.582	31.06
372.792	29.01
373.003	-3.75
373.214	22.87
373.424	72.02
373.635	49.49
373.846	51.54
374.056	106.84
374.267	22.87
374.477	123.22
374.688	51.54
374.898	4.44
375.109	18.77
375.319	45.4
375.53	86.36
375.74	63.83
375.951	12.63
376.161	-18.09
376.372	-26.28
376.582	0.34
376.793	22.87
377.003	6.49
377.214	26.96
377.424	49.49
377.635	20.82
377.845	88.4
378.055	18.77
378.266	129.36
378.476	59.73
378.686	10.58
378.897	53.59
379.107	43.35
379.317	51.54
379.528	51.54
379.738	33.11
379.948	53.59
380.158	96.6
380.369	49.49
380.579	2.39
380.789	12.63
380.999	26.96
381.21	20.82
381.42	61.78
381.63	55.64
381.84	45.4
382.05	-20.14
382.261	-7.85
382.471	69.97
382.681	47.44
382.891	14.68
383.101	39.25
383.311	26.96
383.521	-34.47
383.731	69.97
383.941	20.82
384.151	37.2
384.361	57.68
384.571	41.3
384.781	33.11
384.991	80.21
385.201	104.79
385.411	16.73
385.621	59.73
385.831	80.21
386.041	-48.81
386.251	18.77
386.461	59.73
386.671	12.63
386.881	72.02
387.091	-30.38
387.301	69.97
387.511	43.35
387.72	94.55
387.93	110.93
388.14	47.44
388.35	98.64
388.56	63.83
388.769	-28.33
388.979	-5.8
389.189	0.34
389.399	31.06
389.609	39.25
389.818	82.26
390.028	10.58
390.238	96.6
390.447	24.92
390.657	137.56
390.867	20.82
391.076	20.82
391.286	33.11
391.496	37.2
391.705	117.08
391.915	63.83
392.125	22.87
392.334	63.83
392.544	61.78
392.753	78.16
392.963	-52.91
393.172	92.5
393.382	82.26
393.591	65.88
393.801	106.84
394.01	37.2
394.22	98.64
394.429	24.92
394.639	76.12
394.848	-32.43
395.058	108.88
395.267	14.68
395.477	59.73
395.686	86.36
395.895	78.16
396.105	145.75
396.314	82.26
396.524	20.82
396.733	39.25
396.942	184.66
397.152	33.11
397.361	112.98
397.57	65.88
397.78	74.07
397.989	72.02
398.198	106.84
398.407	65.88
398.617	84.31
398.826	82.26
399.035	69.97
399.244	90.45
399.453	33.11
399.663	80.21
399.872	135.51
400.081	63.83
400.29	61.78
400.499	67.92
400.708	-7.85
400.917	147.8
401.127	117.08
401.336	59.73
401.545	96.6
401.754	145.75
401.963	35.16
402.172	96.6
402.381	53.59
402.59	127.32
402.799	98.64
403.008	90.45
403.217	123.22
403.426	76.12
403.635	90.45
403.844	125.27
404.053	45.4
404.262	45.4
404.471	112.98
404.68	92.5
404.888	115.03
405.097	84.31
405.306	168.27
405.515	96.6
405.724	67.92
405.933	209.23
406.142	121.17
406.35	155.99
406.559	59.73
406.768	112.98
406.977	102.74
407.185	190.8
407.394	190.8
407.603	149.84
407.812	147.8
408.02	176.47
408.229	256.34
408.438	123.22
408.646	186.71
408.855	170.32
409.064	231.76
409.272	229.71
409.481	205.14
409.69	160.08
409.898	244.05
410.107	305.49
410.315	266.58
410.524	254.29
410.733	291.15
410.941	258.39
411.15	235.86
411.358	260.43
411.567	303.44
411.775	342.35
411.984	299.34
412.192	381.26
412.401	366.93
412.609	393.55
412.818	401.74
413.026	411.98
413.234	356.69
413.443	420.17
413.651	377.17
413.86	407.89
414.068	471.37
414.276	457.04
414.485	493.9
414.693	452.94
414.901	543.05
415.11	506.19
415.318	532.81
415.526	489.81
415.734	452.94
415.943	631.12
416.151	586.06
416.359	588.11
416.567	624.97
416.776	700.75
416.984	641.36
417.192	756.04
417.4	751.95
417.608	706.89
417.817	741.71
418.025	831.82
418.233	784.71
418.441	835.91
418.649	919.88
418.857	926.02
419.065	954.69
419.273	911.69
419.481	1012.04
419.689	1038.66
419.897	1130.82
420.105	1147.2
420.313	1122.63
420.521	1190.21
420.729	1194.31
420.937	1225.03
421.145	1335.62
421.353	1327.43
421.561	1405.25
421.769	1421.63
421.977	1532.22
422.185	1507.65
422.393	1614.14
422.601	1732.92
422.809	1712.44
423.017	1648.96
423.224	1788.22
423.432	1831.23
423.64	1870.14
423.848	1986.87
424.056	1966.39
424.263	2091.32
424.471	2122.04
424.679	2138.42
424.887	2191.67
425.094	2408.75
425.302	2300.21
425.51	2500.91
425.718	2498.86
425.925	2478.38
426.133	2668.84
426.341	2758.96
426.548	2834.73
426.756	2812.2
426.964	2912.55
427.171	3076.39
427.379	3160.36
427.586	3305.76
427.794	3297.57
428.001	3531.04
428.209	3615.01
428.417	3578.14
428.624	3922.2
428.832	3719.45
429.039	3633.44
429.247	3815.71
429.454	4026.65
429.662	4382.99
429.869	4071.7
430.076	4428.05
430.284	4313.36
430.491	4505.87
430.699	4741.39
430.906	4860.17
431.114	4823.31
431.321	5042.44
431.528	5277.96
431.736	5476.61
431.943	5619.97
432.15	5570.82
432.358	5605.63
432.565	5828.86
432.772	5888.25
432.979	6119.67
433.187	6041.85
433.394	6213.88
433.601	6623.47
433.808	6658.29
434.016	6625.52
434.223	6795.5
434.43	7297.25
434.637	7114.98
434.844	7684.32
435.052	7956.7
435.259	7887.07
435.466	7866.59
435.673	7696.61
435.88	8333.53
436.087	8702.16
436.294	8630.48
436.501	8362.2
436.708	8675.54
436.915	8927.44
437.122	9359.56
437.329	9210.06
437.537	9623.75
437.743	9629.89
437.95	9740.48
438.157	10078.4
438.364	10703.03
438.571	10379.45
438.778	10461.37
438.985	11436.2
439.192	11180.2
439.399	11444.39
439.606	11122.86
439.813	11784.35
440.02	12441.75
440.227	12484.76
440.433	11968.67
440.64	12671.12
440.847	12431.51
441.054	12779.67
441.261	13514.89
441.467	13424.78
441.674	13881.47
441.881	14006.4
442.088	14274.68
442.294	14284.92
442.501	14370.94
442.708	14778.48
442.914	15433.83
443.121	15923.3
443.328	15347.82
443.534	16640.09
443.741	16191.58
443.948	15738.98
444.154	17109.07
444.361	16975.95
444.568	17049.68
444.774	17039.44
444.981	17467.47
445.187	17834.05
445.394	18403.39
445.6	18194.5
445.807	20019.24
446.013	19050.55
446.22	19630.12
446.426	19974.18
446.633	20490.27
446.839	21334.03
447.046	19927.08
447.252	21389.33
447.459	21272.59
447.665	21379.09
447.871	22001.67
448.078	22913.02
448.284	21866.5
448.491	22605.82
448.697	23216.12
448.903	23703.53
449.11	23681
449.316	23367.66
449.522	23629.8
449.728	24584.16
449.935	24674.27
450.141	24424.42
450.347	25321.43
450.553	24416.22
450.76	24952.79
450.966	25419.73
451.172	25135.06
451.378	25642.96
451.584	25329.62
451.791	25655.25
451.997	25792.46
452.203	26253.25
452.409	26070.98
452.615	25751.5
452.821	25227.22
453.027	24838.11
453.233	26109.89
453.44	24911.83
453.646	25167.83
453.852	25589.71
454.058	26019.78
454.264	24920.03
454.47	25618.38
454.676	24850.39
454.882	25720.78
455.088	23291.89
455.294	23824.36
455.5	23848.94
455.705	24377.31
455.911	23386.1
456.117	22880.25
456.323	22640.64
456.529	21250.07
456.735	22503.42
456.941	21835.78
457.147	21409.81
457.352	20733.98
457.558	20238.37
457.764	20344.86
457.97	20400.16
458.176	19609.64
458.381	19253.3
458.587	18913.33
458.793	18522.17
458.999	17639.5
459.204	18933.81
459.41	18561.08
459.616	17256.53
459.821	17098.83
460.027	17068.11
460.233	17023.06
460.438	15865.96
460.644	16134.24
460.85	15282.28
461.055	15216.75
461.261	15108.21
461.466	14096.51
461.672	13613.19
461.878	14645.37
462.083	13303.95
462.289	13191.31
462.494	13389.96
462.7	12755.09
462.905	12255.39
463.111	12904.59
463.316	12757.14
463.522	12394.65
463.727	12558.49
463.932	12443.8
464.138	12288.15
464.343	12322.97
464.549	11944.1
464.754	12445.85
464.959	12472.47
465.165	12112.03
465.37	11649.19
465.575	11399.34
465.781	11749.54
465.986	11890.85
466.191	11399.34
466.397	11180.2
466.602	10780.85
466.807	11016.37
467.012	11024.56
467.218	11075.76
467.423	10956.97
467.628	11063.47
467.833	11501.73
468.038	11184.3
468.244	10938.54
