Data from USB4F104151__88__11-06-42-328.txt Node

Date: Wed Mar 12 11:06:42 EDT 2025
User: louis
Spectrometer: USB4F10415
Trigger mode: 4
Integration Time (sec): 2.000000E-2
Scans to average: 1
Electric dark correction enabled: true
Nonlinearity correction enabled: false
Boxcar width: 0
XAxis mode: Wavelengths
Number of Pixels in Spectrum: 3648
>>>>>Begin Spectral Data<<<<<
178.204	-108.37
178.424	-108.37
178.644	-108.37
178.864	-42.84
179.084	-96.08
179.304	6.31
179.524	-40.79
179.744	69.8
179.964	55.47
180.184	-20.31
180.404	24.75
180.624	-75.6
180.844	4.27
181.064	28.84
181.283	-3.93
181.503	-14.17
181.723	-34.64
181.943	-48.98
182.163	47.27
182.383	24.75
182.602	2.22
182.822	34.99
183.042	39.08
183.262	-14.17
183.482	71.85
183.701	55.47
183.921	24.75
184.141	34.99
184.361	12.46
184.58	41.13
184.8	20.65
185.02	-32.6
185.239	196.78
185.459	84.14
185.679	24.75
185.898	-18.26
186.118	75.95
186.338	73.9
186.557	51.37
186.777	-16.21
186.997	61.61
187.216	-3.93
187.436	82.09
187.655	131.24
187.875	37.03
188.095	84.14
188.314	57.51
188.534	69.8
188.753	20.65
188.973	32.94
189.192	59.56
189.412	22.7
189.631	114.86
189.851	16.55
190.07	63.66
190.29	12.46
190.509	28.84
190.729	67.75
190.948	28.84
191.168	86.19
191.387	24.75
191.607	-20.31
191.826	14.51
192.045	30.89
192.265	-3.93
192.484	82.09
192.704	-5.97
192.923	-10.07
193.142	188.58
193.362	41.13
193.581	57.51
193.8	51.37
194.02	57.51
194.239	12.46
194.458	73.9
194.678	127.14
194.897	41.13
195.116	-42.84
195.335	86.19
195.555	118.95
195.774	71.85
195.993	53.42
196.212	63.66
196.432	45.23
196.651	80.04
196.87	-14.17
197.089	49.32
197.308	0.17
197.528	96.43
197.747	-16.21
197.966	-12.12
198.185	8.36
198.404	65.71
198.623	69.8
198.842	77.99
199.062	100.52
199.281	49.32
199.5	8.36
199.719	45.23
199.938	57.51
200.157	18.6
200.376	73.9
200.595	51.37
200.814	-8.02
201.033	-5.97
201.252	118.95
201.471	20.65
201.69	45.23
201.909	71.85
202.128	12.46
202.347	-24.4
202.566	-8.02
202.785	-16.21
203.004	-32.6
203.223	71.85
203.442	8.36
203.661	77.99
203.879	26.79
204.098	55.47
204.317	-55.12
204.536	8.36
204.755	-26.45
204.974	12.46
205.193	71.85
205.411	8.36
205.63	-8.02
205.849	57.51
206.068	-3.93
206.287	34.99
206.505	73.9
206.724	-26.45
206.943	45.23
207.162	18.6
207.381	45.23
207.599	16.55
207.818	41.13
208.037	59.56
208.255	-26.45
208.474	82.09
208.693	-3.93
208.911	71.85
209.13	16.55
209.349	55.47
209.567	57.51
209.786	86.19
210.005	22.7
210.223	43.18
210.442	24.75
210.661	34.99
210.879	0.17
211.098	-24.4
211.316	106.67
211.535	45.23
211.753	71.85
211.972	94.38
212.191	104.62
212.409	123.05
212.628	30.89
212.846	2.22
213.065	82.09
213.283	43.18
213.502	14.51
213.72	18.6
213.938	4.27
214.157	24.75
214.375	49.32
214.594	37.03
214.812	49.32
215.031	32.94
215.249	-18.26
215.467	-34.64
215.686	108.71
215.904	16.55
216.122	26.79
216.341	47.27
216.559	20.65
216.778	108.71
216.996	-16.21
217.214	-26.45
217.432	63.66
217.651	2.22
217.869	100.52
218.087	88.23
218.306	24.75
218.524	104.62
218.742	24.75
218.96	14.51
219.179	82.09
219.397	47.27
219.615	114.86
219.833	37.03
220.051	80.04
220.27	102.57
220.488	-32.6
220.706	34.99
220.924	4.27
221.142	49.32
221.36	-8.02
221.578	106.67
221.796	34.99
222.015	61.61
222.233	39.08
222.451	69.8
222.669	16.55
222.887	67.75
223.105	32.94
223.323	0.17
223.541	28.84
223.759	45.23
223.977	80.04
224.195	67.75
224.413	-3.93
224.631	37.03
224.849	98.47
225.067	51.37
225.285	41.13
225.503	-22.36
225.721	-36.69
225.939	-12.12
226.157	41.13
226.375	108.71
226.592	8.36
226.81	24.75
227.028	104.62
227.246	82.09
227.464	24.75
227.682	-32.6
227.9	57.51
228.117	82.09
228.335	55.47
228.553	8.36
228.771	45.23
228.989	88.23
229.206	34.99
229.424	51.37
229.642	-18.26
229.86	-22.36
230.077	41.13
230.295	90.28
230.513	30.89
230.731	49.32
230.948	94.38
231.166	90.28
231.384	8.36
231.601	57.51
231.819	112.81
232.037	18.6
232.254	55.47
232.472	24.75
232.689	-16.21
232.907	69.8
233.125	45.23
233.342	26.79
233.56	16.55
233.777	16.55
233.995	-10.07
234.213	80.04
234.43	6.31
234.648	24.75
234.865	84.14
235.083	61.61
235.3	73.9
235.518	22.7
235.735	80.04
235.953	63.66
236.17	34.99
236.388	49.32
236.605	55.47
236.822	49.32
237.04	32.94
237.257	22.7
237.475	121
237.692	77.99
237.909	71.85
238.127	86.19
238.344	4.27
238.562	86.19
238.779	-16.21
238.996	43.18
239.214	37.03
239.431	22.7
239.648	49.32
239.865	45.23
240.083	49.32
240.3	47.27
240.517	41.13
240.735	49.32
240.952	57.51
241.169	92.33
241.386	77.99
241.603	-38.74
241.821	4.27
242.038	114.86
242.255	24.75
242.472	-5.97
242.689	88.23
242.907	80.04
243.124	41.13
243.341	-28.5
243.558	75.95
243.775	41.13
243.992	30.89
244.209	104.62
244.426	82.09
244.643	8.36
244.86	55.47
245.078	61.61
245.295	37.03
245.512	94.38
245.729	18.6
245.946	-18.26
246.163	73.9
246.38	12.46
246.597	57.51
246.814	20.65
247.031	-3.93
247.248	86.19
247.464	16.55
247.681	63.66
247.898	14.51
248.115	80.04
248.332	-42.84
248.549	6.31
248.766	22.7
248.983	100.52
249.2	96.43
249.417	-14.17
249.633	18.6
249.85	90.28
250.067	6.31
250.284	26.79
250.501	55.47
250.717	67.75
250.934	-38.74
251.151	8.36
251.368	39.08
251.585	41.13
251.801	49.32
252.018	-26.45
252.235	24.75
252.451	0.17
252.668	0.17
252.885	82.09
253.102	4.27
253.318	32.94
253.535	73.9
253.752	16.55
253.968	67.75
254.185	94.38
254.401	57.51
254.618	37.03
254.835	47.27
255.051	12.46
255.268	86.19
255.484	20.65
255.701	49.32
255.917	94.38
256.134	26.79
256.351	71.85
256.567	45.23
256.784	24.75
257	94.38
257.217	129.19
257.433	92.33
257.65	24.75
257.866	102.57
258.082	-1.88
258.299	34.99
258.515	69.8
258.732	18.6
258.948	12.46
259.165	43.18
259.381	26.79
259.597	-34.64
259.814	94.38
260.03	112.81
260.246	61.61
260.463	55.47
260.679	-8.02
260.895	77.99
261.112	8.36
261.328	47.27
261.544	8.36
261.761	65.71
261.977	77.99
262.193	77.99
262.409	88.23
262.626	34.99
262.842	32.94
263.058	43.18
263.274	65.71
263.49	45.23
263.707	45.23
263.923	65.71
264.139	61.61
264.355	67.75
264.571	82.09
264.787	127.14
265.004	18.6
265.22	10.41
265.436	77.99
265.652	-3.93
265.868	4.27
266.084	8.36
266.3	28.84
266.516	32.94
266.732	0.17
266.948	49.32
267.164	37.03
267.38	49.32
267.596	-30.55
267.812	45.23
268.028	18.6
268.244	102.57
268.46	69.8
268.676	0.17
268.892	53.42
269.108	4.27
269.324	34.99
269.54	2.22
269.756	41.13
269.972	10.41
270.188	-8.02
270.403	32.94
270.619	32.94
270.835	22.7
271.051	-3.93
271.267	71.85
271.483	86.19
271.698	84.14
271.914	82.09
272.13	63.66
272.346	47.27
272.562	67.75
272.777	55.47
272.993	2.22
273.209	127.14
273.425	108.71
273.64	18.6
273.856	20.65
274.072	96.43
274.287	65.71
274.503	102.57
274.719	67.75
274.934	-10.07
275.15	65.71
275.366	41.13
275.581	55.47
275.797	59.56
276.012	32.94
276.228	47.27
276.444	164.01
276.659	28.84
276.875	65.71
277.09	82.09
277.306	71.85
277.521	92.33
277.737	86.19
277.952	45.23
278.168	69.8
278.383	32.94
278.599	57.51
278.814	110.76
279.03	14.51
279.245	61.61
279.461	118.95
279.676	80.04
279.892	18.6
280.107	84.14
280.322	41.13
280.538	80.04
280.753	57.51
280.969	84.14
281.184	6.31
281.399	39.08
281.615	26.79
281.83	53.42
282.045	4.27
282.26	4.27
282.476	24.75
282.691	77.99
282.906	86.19
283.122	43.18
283.337	22.7
283.552	53.42
283.767	65.71
283.983	12.46
284.198	12.46
284.413	123.05
284.628	-26.45
284.843	-8.02
285.058	129.19
285.274	-3.93
285.489	41.13
285.704	84.14
285.919	75.95
286.134	-46.93
286.349	12.46
286.564	80.04
286.779	90.28
286.995	-8.02
287.21	-53.08
287.425	82.09
287.64	-3.93
287.855	82.09
288.07	47.27
288.285	14.51
288.5	14.51
288.715	37.03
288.93	114.86
289.145	49.32
289.36	6.31
289.575	57.51
289.79	26.79
290.004	53.42
290.219	41.13
290.434	61.61
290.649	65.71
290.864	26.79
291.079	20.65
291.294	26.79
291.509	18.6
291.724	41.13
291.938	6.31
292.153	37.03
292.368	49.32
292.583	121
292.798	10.41
293.012	20.65
293.227	41.13
293.442	61.61
293.657	18.6
293.871	90.28
294.086	39.08
294.301	143.53
294.516	94.38
294.73	39.08
294.945	-3.93
295.16	-8.02
295.374	20.65
295.589	-18.26
295.804	28.84
296.018	59.56
296.233	16.55
296.447	8.36
296.662	28.84
296.877	63.66
297.091	-3.93
297.306	88.23
297.52	82.09
297.735	102.57
297.949	24.75
298.164	-3.93
298.378	51.37
298.593	63.66
298.807	12.46
299.022	20.65
299.236	77.99
299.451	94.38
299.665	6.31
299.88	30.89
300.094	67.75
300.309	75.95
300.523	88.23
300.737	82.09
300.952	39.08
301.166	53.42
301.381	55.47
301.595	63.66
301.809	30.89
302.024	75.95
302.238	28.84
302.452	30.89
302.667	28.84
302.881	-12.12
303.095	57.51
303.309	75.95
303.524	57.51
303.738	51.37
303.952	26.79
304.166	94.38
304.381	86.19
304.595	82.09
304.809	18.6
305.023	102.57
305.237	51.37
305.452	32.94
305.666	53.42
305.88	73.9
306.094	82.09
306.308	4.27
306.522	43.18
306.736	-12.12
306.95	88.23
307.164	55.47
307.379	-16.21
307.593	55.47
307.807	82.09
308.021	80.04
308.235	100.52
308.449	32.94
308.663	-1.88
308.877	55.47
309.091	41.13
309.305	57.51
309.519	22.7
309.733	28.84
309.947	20.65
310.161	6.31
310.374	80.04
310.588	32.94
310.802	61.61
311.016	-18.26
311.23	94.38
311.444	6.31
311.658	-22.36
311.872	69.8
312.085	106.67
312.299	86.19
312.513	90.28
312.727	30.89
312.941	55.47
313.154	82.09
313.368	47.27
313.582	90.28
313.796	24.75
314.009	37.03
314.223	82.09
314.437	63.66
314.651	73.9
314.864	32.94
315.078	59.56
315.292	47.27
315.505	16.55
315.719	34.99
315.933	20.65
316.146	16.55
316.36	65.71
316.573	53.42
316.787	30.89
317.001	108.71
317.214	121
317.428	0.17
317.641	49.32
317.855	55.47
318.068	43.18
318.282	59.56
318.495	65.71
318.709	63.66
318.922	59.56
319.136	67.75
319.349	84.14
319.563	84.14
319.776	121
319.99	-10.07
320.203	55.47
320.417	6.31
320.63	41.13
320.843	43.18
321.057	84.14
321.27	6.31
321.483	63.66
321.697	45.23
321.91	61.61
322.124	49.32
322.337	63.66
322.55	-8.02
322.763	55.47
322.977	22.7
323.19	39.08
323.403	61.61
323.617	75.95
323.83	2.22
324.043	69.8
324.256	20.65
324.469	41.13
324.683	59.56
324.896	55.47
325.109	80.04
325.322	32.94
325.535	55.47
325.748	-16.21
325.962	22.7
326.175	37.03
326.388	18.6
326.601	61.61
326.814	57.51
327.027	65.71
327.24	34.99
327.453	-42.84
327.666	37.03
327.879	100.52
328.092	37.03
328.305	86.19
328.518	90.28
328.731	45.23
328.944	96.43
329.157	67.75
329.37	4.27
329.583	131.24
329.796	90.28
330.009	55.47
330.222	-8.02
330.435	-3.93
330.648	47.27
330.861	20.65
331.073	55.47
331.286	-5.97
331.499	-24.4
331.712	53.42
331.925	22.7
332.138	63.66
332.35	63.66
332.563	24.75
332.776	0.17
332.989	90.28
333.202	4.27
333.414	75.95
333.627	57.51
333.84	80.04
334.053	34.99
334.265	30.89
334.478	37.03
334.691	20.65
334.903	63.66
335.116	26.79
335.329	55.47
335.541	51.37
335.754	45.23
335.966	41.13
336.179	55.47
336.392	73.9
336.604	47.27
336.817	100.52
337.029	30.89
337.242	34.99
337.454	75.95
337.667	0.17
337.88	32.94
338.092	69.8
338.305	-3.93
338.517	77.99
338.729	104.62
338.942	94.38
339.154	55.47
339.367	32.94
339.579	69.8
339.792	8.36
340.004	57.51
340.217	61.61
340.429	43.18
340.641	94.38
340.854	39.08
341.066	-28.5
341.278	24.75
341.491	90.28
341.703	96.43
341.915	47.27
342.128	53.42
342.34	82.09
342.552	53.42
342.764	88.23
342.977	82.09
343.189	49.32
343.401	98.47
343.613	51.37
343.826	59.56
344.038	39.08
344.25	32.94
344.462	-26.45
344.674	45.23
344.886	32.94
345.099	106.67
345.311	47.27
345.523	102.57
345.735	82.09
345.947	82.09
346.159	-16.21
346.371	55.47
346.583	12.46
346.795	86.19
347.007	16.55
347.219	98.47
347.431	94.38
347.643	32.94
347.855	14.51
348.067	61.61
348.279	104.62
348.491	71.85
348.703	61.61
348.915	43.18
349.127	63.66
349.339	123.05
349.551	67.75
349.763	71.85
349.975	88.23
350.187	145.58
350.399	112.81
350.61	98.47
350.822	16.55
351.034	0.17
351.246	92.33
351.458	20.65
351.669	30.89
351.881	10.41
352.093	106.67
352.305	143.53
352.517	82.09
352.728	118.95
352.94	6.31
353.152	125.1
353.363	49.32
353.575	94.38
353.787	80.04
353.999	98.47
354.21	30.89
354.422	67.75
354.633	73.9
354.845	88.23
355.057	51.37
355.268	63.66
355.48	90.28
355.692	24.75
355.903	96.43
356.115	32.94
356.326	90.28
356.538	180.39
356.749	37.03
356.961	47.27
357.172	-14.17
357.384	41.13
357.595	112.81
357.807	88.23
358.018	98.47
358.23	53.42
358.441	47.27
358.653	34.99
358.864	77.99
359.075	28.84
359.287	32.94
359.498	65.71
359.709	59.56
359.921	90.28
360.132	104.62
360.344	82.09
360.555	32.94
360.766	65.71
360.977	12.46
361.189	39.08
361.4	57.51
361.611	22.7
361.823	34.99
362.034	51.37
362.245	32.94
362.456	28.84
362.667	24.75
362.879	65.71
363.09	32.94
363.301	41.13
363.512	-30.55
363.723	106.67
363.935	67.75
364.146	118.95
364.357	34.99
364.568	80.04
364.779	28.84
364.99	118.95
365.201	30.89
365.412	2.22
365.623	45.23
365.834	32.94
366.045	147.62
366.256	45.23
366.467	20.65
366.678	65.71
366.889	18.6
367.1	8.36
367.311	125.1
367.522	16.55
367.733	108.71
367.944	207.02
368.155	-75.6
368.366	131.24
368.577	65.71
368.788	71.85
368.999	49.32
369.209	80.04
369.42	61.61
369.631	86.19
369.842	55.47
370.053	71.85
370.264	94.38
370.474	39.08
370.685	108.71
370.896	125.1
371.107	88.23
371.317	45.23
371.528	-14.17
371.739	61.61
371.95	88.23
372.16	106.67
372.371	12.46
372.582	116.9
372.792	86.19
373.003	71.85
373.214	77.99
373.424	49.32
373.635	63.66
373.846	88.23
374.056	-34.64
374.267	80.04
374.477	51.37
374.688	80.04
374.898	88.23
375.109	112.81
375.319	127.14
375.53	28.84
375.74	96.43
375.951	94.38
376.161	32.94
376.372	98.47
376.582	6.31
376.793	102.57
377.003	28.84
377.214	30.89
377.424	133.29
377.635	-10.07
377.845	61.61
378.055	106.67
378.266	6.31
378.476	98.47
378.686	51.37
378.897	96.43
379.107	65.71
379.317	41.13
379.528	32.94
379.738	65.71
379.948	-5.97
380.158	28.84
380.369	159.91
380.579	26.79
380.789	121
380.999	28.84
381.21	59.56
381.42	135.34
381.63	47.27
381.84	82.09
382.05	77.99
382.261	94.38
382.471	112.81
382.681	10.41
382.891	147.62
383.101	112.81
383.311	75.95
383.521	88.23
383.731	80.04
383.941	82.09
384.151	102.57
384.361	65.71
384.571	106.67
384.781	39.08
384.991	37.03
385.201	116.9
385.411	71.85
385.621	118.95
385.831	30.89
386.041	94.38
386.251	34.99
386.461	110.76
386.671	139.43
386.881	110.76
387.091	61.61
387.301	61.61
387.511	71.85
387.72	67.75
387.93	63.66
388.14	51.37
388.35	114.86
388.56	63.66
388.769	108.71
388.979	51.37
389.189	104.62
389.399	63.66
389.609	22.7
389.818	104.62
390.028	47.27
390.238	26.79
390.447	28.84
390.657	28.84
390.867	123.05
391.076	94.38
391.286	34.99
391.496	129.19
391.705	61.61
391.915	121
392.125	161.96
392.334	14.51
392.544	18.6
392.753	63.66
392.963	80.04
393.172	49.32
393.382	43.18
393.591	110.76
393.801	110.76
394.01	106.67
394.22	155.82
394.429	125.1
394.639	12.46
394.848	59.56
395.058	133.29
395.267	20.65
395.477	96.43
395.686	22.7
395.895	116.9
396.105	92.33
396.314	100.52
396.524	92.33
396.733	82.09
396.942	94.38
397.152	90.28
397.361	80.04
397.57	121
397.78	77.99
397.989	63.66
398.198	182.44
398.407	82.09
398.617	116.9
398.826	233.64
399.035	108.71
399.244	32.94
399.453	176.3
399.663	114.86
399.872	137.38
400.081	123.05
400.29	143.53
400.499	75.95
400.708	73.9
400.917	131.24
401.127	86.19
401.336	96.43
401.545	174.25
401.754	180.39
401.963	184.49
402.172	180.39
402.381	153.77
402.59	96.43
402.799	77.99
403.008	164.01
403.217	86.19
403.426	116.9
403.635	176.3
403.844	121
404.053	118.95
404.262	168.1
404.471	170.15
404.68	190.63
404.888	135.34
405.097	106.67
405.306	143.53
405.515	133.29
405.724	178.34
405.933	157.86
406.142	223.4
406.35	204.97
406.559	227.5
406.768	141.48
406.977	262.31
407.185	194.73
407.394	196.78
407.603	202.92
407.812	207.02
408.02	250.02
408.229	200.87
408.438	237.74
408.646	268.45
408.855	325.8
409.064	262.31
409.272	260.26
409.481	327.85
409.69	293.03
409.898	323.75
410.107	280.74
410.315	303.27
410.524	278.69
410.733	405.67
410.941	385.19
411.15	405.67
411.358	473.25
411.567	489.64
411.775	446.63
411.984	415.91
412.192	358.57
412.401	481.44
412.609	520.35
412.818	413.86
413.026	516.26
413.234	438.44
413.443	542.88
413.651	585.89
413.86	589.99
414.068	630.95
414.276	594.08
414.485	667.81
414.693	645.28
414.901	768.16
415.11	655.52
415.318	684.19
415.526	714.91
415.734	762.02
415.943	753.82
416.151	807.07
416.359	841.89
416.567	923.8
416.776	997.53
416.984	827.55
417.192	979.1
417.4	1020.06
417.608	977.05
417.817	1020.06
418.025	1130.65
418.233	1161.37
418.441	1202.33
418.649	1231
418.857	1314.97
419.065	1353.88
419.273	1388.69
419.481	1345.69
419.689	1388.69
419.897	1487
420.105	1433.75
420.313	1575.06
420.521	1665.17
420.729	1540.24
420.937	1638.55
421.145	1747.09
421.353	1683.6
421.561	1931.41
421.769	1953.93
421.977	2044.04
422.185	2093.19
422.393	2175.11
422.601	2334.86
422.809	2336.9
423.017	2334.86
423.224	2398.34
423.432	2367.62
423.64	2416.77
423.848	2691.2
424.056	2662.53
424.263	2775.17
424.471	2799.74
424.679	2852.99
424.887	3022.97
425.094	3229.82
425.302	3102.84
425.51	3145.85
425.718	3428.47
425.925	3358.84
426.133	3555.44
426.341	3715.19
426.548	3981.42
426.756	4008.05
426.964	3934.32
427.171	4186.22
427.379	4200.55
427.586	4315.24
427.794	4552.81
428.001	4735.07
428.209	5007.45
428.417	4923.49
428.624	5124.19
428.832	5281.88
429.039	5064.8
429.247	5226.59
429.454	5732.44
429.662	5992.53
429.869	5587.03
430.076	5970
430.284	5771.35
430.491	6197.32
430.699	6471.75
430.906	6428.74
431.114	6488.14
431.321	6918.21
431.528	6918.21
431.736	7299.13
431.943	7559.22
432.15	7434.3
432.358	7688.25
432.565	8024.11
432.772	7948.34
432.979	8181.81
433.187	8314.92
433.394	8583.21
433.601	9091.1
433.808	9117.73
434.016	9003.04
434.223	9605.14
434.43	10139.66
434.637	9895.96
434.844	10489.87
435.052	10698.76
435.259	10397.71
435.466	10532.87
435.673	10469.39
435.88	11399.16
436.087	12007.41
436.294	11984.88
436.501	11632.63
436.708	11864.05
436.915	12351.47
437.122	12832.74
437.329	12765.16
437.537	12937.19
437.743	13395.93
437.95	13320.16
438.157	13959.13
438.364	14471.12
438.571	14464.97
438.778	14720.97
438.985	16072.63
439.192	15187.91
439.399	15648.7
439.606	15427.52
439.813	16289.71
440.02	17266.6
440.227	16906.15
440.433	16799.66
440.64	17536.93
440.847	17502.11
441.054	17668
441.261	18835.34
441.467	18730.89
441.674	19083.14
441.881	19386.24
442.088	19363.72
442.294	19304.32
442.501	19935.1
442.708	20459.38
442.914	21262.18
443.121	21841.76
443.328	21575.52
443.534	23199.56
443.741	21864.29
443.948	22314.84
444.154	23813.95
444.361	23672.64
444.568	23531.33
444.774	23691.07
444.981	24012.6
445.187	24581.94
445.394	25499.43
445.6	25431.85
445.807	27875.07
446.013	26666.77
446.22	27395.85
446.426	28362.49
446.633	28473.08
446.839	29257.45
447.046	27995.9
447.252	29691.62
447.459	29777.64
447.665	29404.91
447.871	30750.42
448.078	32075.46
448.284	30346.97
448.491	31733.45
448.697	32716.47
448.903	33652.39
449.11	33035.95
449.316	32683.7
449.522	33400.49
449.728	34094.75
449.935	34735.77
450.141	34008.74
450.347	35280.53
450.553	34188.96
450.76	34424.48
450.966	35284.62
451.172	35045.01
451.378	35569.29
451.584	35192.47
451.791	35835.53
451.997	35690.12
452.203	36474.49
452.409	36222.59
452.615	35845.77
452.821	34913.94
453.027	34449.05
453.233	36351.62
453.44	34803.35
453.646	35481.23
453.852	35427.98
454.058	35815.05
454.264	34918.04
454.47	35346.06
454.676	34653.85
454.882	35745.42
455.088	32077.51
455.294	32845.49
455.5	33339.05
455.705	33943.2
455.911	32437.95
456.117	31749.83
456.323	31215.31
456.529	29740.77
456.735	30775
456.941	30140.13
457.147	29349.61
457.352	28522.23
457.558	28180.22
457.764	28288.76
457.97	27739.91
458.176	27178.76
458.381	27291.4
458.587	25730.85
458.793	26036
458.999	24526.64
459.204	26611.48
459.41	25458.47
459.616	23805.76
459.821	24153.91
460.027	23662.4
460.233	23373.64
460.438	22011.74
460.644	22427.48
460.85	21389.16
461.055	21333.86
461.261	20873.07
461.466	19111.82
461.672	18829.2
461.878	20361.08
462.083	19083.14
462.289	18790.28
462.494	18599.82
462.7	17473.44
462.905	17119.14
463.111	17803.16
463.316	17717.15
463.522	17559.45
463.727	17313.7
463.932	17395.62
464.138	17520.54
464.343	17278.88
464.549	16641.96
464.754	17350.56
464.959	17256.36
465.165	17004.46
465.37	16115.64
465.575	16193.46
465.781	16545.71
465.986	16746.41
466.191	16181.17
466.397	15722.43
466.602	15206.34
466.807	15638.46
467.012	15685.56
467.218	15663.04
467.423	15259.59
467.628	15431.62
467.833	16072.63
