Data from USB4F104151__240__11-11-23-651.txt Node

Date: Wed Mar 12 11:11:23 EDT 2025
User: louis
Spectrometer: USB4F10415
Trigger mode: 4
Integration Time (sec): 2.000000E-2
Scans to average: 1
Electric dark correction enabled: true
Nonlinearity correction enabled: false
Boxcar width: 0
XAxis mode: Wavelengths
Number of Pixels in Spectrum: 3648
>>>>>Begin Spectral Data<<<<<
178.204	-27.99
178.424	-27.99
178.644	-27.99
178.864	-75.09
179.084	-77.14
179.304	-66.9
179.524	19.11
179.744	29.35
179.964	19.11
180.184	-11.61
180.404	-21.85
180.624	-48.47
180.844	-1.37
181.064	58.03
181.283	25.26
181.503	-19.8
181.723	19.11
181.943	62.12
182.163	84.65
182.383	49.83
182.602	74.41
182.822	29.35
183.042	23.21
183.262	-27.99
183.482	17.07
183.701	2.73
183.921	15.02
184.141	-32.08
184.361	4.78
184.58	-3.41
184.8	0.68
185.02	47.79
185.239	60.07
185.459	-7.51
185.679	45.74
185.898	8.87
186.118	51.88
186.338	-5.46
186.557	-1.37
186.777	12.97
186.997	33.45
187.216	68.27
187.436	66.22
187.655	47.79
187.875	53.93
188.095	19.11
188.314	148.14
188.534	90.79
188.753	58.03
188.973	15.02
189.192	-34.13
189.412	78.51
189.631	-32.08
189.851	-5.46
190.07	41.64
190.29	35.5
190.509	17.07
190.729	115.37
190.948	25.26
191.168	119.46
191.387	60.07
191.607	21.16
191.826	88.75
192.045	19.11
192.265	41.64
192.484	37.55
192.704	-42.32
192.923	-32.08
193.142	58.03
193.362	-15.7
193.581	37.55
193.8	41.64
194.02	107.18
194.239	66.22
194.458	150.18
194.678	-48.47
194.897	82.6
195.116	76.46
195.335	68.27
195.555	37.55
195.774	17.07
195.993	64.17
196.212	17.07
196.432	-17.75
196.651	58.03
196.87	25.26
197.089	76.46
197.308	90.79
197.528	107.18
197.747	-34.13
197.966	68.27
198.185	74.41
198.404	35.5
198.623	-46.42
198.842	27.31
199.062	53.93
199.281	94.89
199.5	101.03
199.719	49.83
199.938	12.97
200.157	74.41
200.376	6.83
200.595	94.89
200.814	70.31
201.033	-15.7
201.252	-7.51
201.471	76.46
201.69	29.35
201.909	82.6
202.128	103.08
202.347	84.65
202.566	-5.46
202.785	45.74
203.004	45.74
203.223	107.18
203.442	23.21
203.661	70.31
203.879	29.35
204.098	88.75
204.317	23.21
204.536	15.02
204.755	35.5
204.974	62.12
205.193	84.65
205.411	82.6
205.63	64.17
205.849	45.74
206.068	12.97
206.287	74.41
206.505	-36.18
206.724	80.55
206.943	33.45
207.162	55.98
207.381	58.03
207.599	58.03
207.818	37.55
208.037	-15.7
208.255	-19.8
208.474	82.6
208.693	10.92
208.911	80.55
209.13	49.83
209.349	53.93
209.567	51.88
209.786	8.87
210.005	66.22
210.223	-13.65
210.442	0.68
210.661	49.83
210.879	-1.37
211.098	-5.46
211.316	74.41
211.535	55.98
211.753	109.23
211.972	86.7
212.191	29.35
212.409	88.75
212.628	-3.41
212.846	-7.51
213.065	4.78
213.283	82.6
213.502	-23.89
213.72	74.41
213.938	117.42
214.157	53.93
214.375	51.88
214.594	55.98
214.812	74.41
215.031	-48.47
215.249	109.23
215.467	119.46
215.686	33.45
215.904	47.79
216.122	-32.08
216.341	78.51
216.559	33.45
216.778	82.6
216.996	58.03
217.214	-32.08
217.432	66.22
217.651	17.07
217.869	49.83
218.087	80.55
218.306	37.55
218.524	101.03
218.742	10.92
218.96	37.55
219.179	45.74
219.397	51.88
219.615	64.17
219.833	-30.04
220.051	8.87
220.27	29.35
220.488	68.27
220.706	-36.18
220.924	55.98
221.142	2.73
221.36	107.18
221.578	74.41
221.796	68.27
222.015	45.74
222.233	78.51
222.451	66.22
222.669	19.11
222.887	86.7
223.105	45.74
223.323	31.4
223.541	-23.89
223.759	17.07
223.977	107.18
224.195	15.02
224.413	41.64
224.631	-19.8
224.849	53.93
225.067	127.66
225.285	31.4
225.503	10.92
225.721	6.83
225.939	27.31
226.157	-46.42
226.375	107.18
226.592	4.78
226.81	68.27
227.028	92.84
227.246	86.7
227.464	27.31
227.682	92.84
227.9	53.93
228.117	-3.41
228.335	51.88
228.553	12.97
228.771	4.78
228.989	47.79
229.206	-11.61
229.424	78.51
229.642	39.59
229.86	55.98
230.077	47.79
230.295	-21.85
230.513	-1.37
230.731	88.75
230.948	53.93
231.166	51.88
231.384	98.99
231.601	101.03
231.819	31.4
232.037	-5.46
232.254	-27.99
232.472	111.27
232.689	109.23
232.907	31.4
233.125	2.73
233.342	19.11
233.56	29.35
233.777	47.79
233.995	37.55
234.213	47.79
234.43	64.17
234.648	8.87
234.865	-3.41
235.083	39.59
235.3	-15.7
235.518	92.84
235.735	45.74
235.953	35.5
236.17	21.16
236.388	2.73
236.605	19.11
236.822	23.21
237.04	31.4
237.257	41.64
237.475	47.79
237.692	-36.18
237.909	-19.8
238.127	74.41
238.344	82.6
238.562	33.45
238.779	119.46
238.996	-27.99
239.214	53.93
239.431	8.87
239.648	55.98
239.865	27.31
240.083	119.46
240.3	15.02
240.517	35.5
240.735	-27.99
240.952	55.98
241.169	51.88
241.386	23.21
241.603	25.26
241.821	49.83
242.038	109.23
242.255	66.22
242.472	15.02
242.689	84.65
242.907	49.83
243.124	41.64
243.341	90.79
243.558	8.87
243.775	15.02
243.992	35.5
244.209	66.22
244.426	72.36
244.643	25.26
244.86	43.69
245.078	88.75
245.295	66.22
245.512	58.03
245.729	53.93
245.946	68.27
246.163	8.87
246.38	74.41
246.597	12.97
246.814	64.17
247.031	-1.37
247.248	88.75
247.464	62.12
247.681	-11.61
247.898	88.75
248.115	82.6
248.332	29.35
248.549	101.03
248.766	80.55
248.983	94.89
249.2	41.64
249.417	6.83
249.633	-17.75
249.85	45.74
250.067	41.64
250.284	78.51
250.501	76.46
250.717	103.08
250.934	21.16
251.151	12.97
251.368	12.97
251.585	84.65
251.801	17.07
252.018	-3.41
252.235	41.64
252.451	-52.56
252.668	66.22
252.885	19.11
253.102	90.79
253.318	37.55
253.535	37.55
253.752	39.59
253.968	15.02
254.185	-27.99
254.401	121.51
254.618	90.79
254.835	17.07
255.051	41.64
255.268	4.78
255.484	35.5
255.701	107.18
255.917	60.07
256.134	58.03
256.351	88.75
256.567	4.78
256.784	64.17
257	-1.37
257.217	25.26
257.433	72.36
257.65	21.16
257.866	-9.56
258.082	62.12
258.299	-7.51
258.515	113.32
258.732	15.02
258.948	15.02
259.165	27.31
259.381	58.03
259.597	41.64
259.814	17.07
260.03	53.93
260.246	-15.7
260.463	68.27
260.679	86.7
260.895	51.88
261.112	78.51
261.328	33.45
261.544	121.51
261.761	17.07
261.977	88.75
262.193	-3.41
262.409	6.83
262.626	66.22
262.842	29.35
263.058	60.07
263.274	29.35
263.49	68.27
263.707	90.79
263.923	0.68
264.139	2.73
264.355	51.88
264.571	58.03
264.787	43.69
265.004	88.75
265.22	-19.8
265.436	94.89
265.652	70.31
265.868	105.13
266.084	21.16
266.3	129.7
266.516	131.75
266.732	49.83
266.948	-17.75
267.164	12.97
267.38	15.02
267.596	12.97
267.812	8.87
268.028	68.27
268.244	31.4
268.46	127.66
268.676	12.97
268.892	-11.61
269.108	17.07
269.324	8.87
269.54	35.5
269.756	98.99
269.972	27.31
270.188	45.74
270.403	-27.99
270.619	-30.04
270.835	53.93
271.051	96.94
271.267	-19.8
271.483	2.73
271.698	113.32
271.914	33.45
272.13	47.79
272.346	84.65
272.562	125.61
272.777	27.31
272.993	66.22
273.209	113.32
273.425	94.89
273.64	25.26
273.856	0.68
274.072	41.64
274.287	29.35
274.503	8.87
274.719	19.11
274.934	49.83
275.15	0.68
275.366	62.12
275.581	21.16
275.797	51.88
276.012	25.26
276.228	15.02
276.444	15.02
276.659	72.36
276.875	37.55
277.09	-19.8
277.306	53.93
277.521	37.55
277.737	23.21
277.952	68.27
278.168	6.83
278.383	29.35
278.599	125.61
278.814	49.83
279.03	4.78
279.245	103.08
279.461	4.78
279.676	141.99
279.892	41.64
280.107	-3.41
280.322	41.64
280.538	70.31
280.753	47.79
280.969	19.11
281.184	62.12
281.399	53.93
281.615	25.26
281.83	72.36
282.045	27.31
282.26	51.88
282.476	94.89
282.691	29.35
282.906	90.79
283.122	45.74
283.337	-1.37
283.552	62.12
283.767	41.64
283.983	8.87
284.198	31.4
284.413	-3.41
284.628	127.66
284.843	62.12
285.058	72.36
285.274	55.98
285.489	98.99
285.704	8.87
285.919	68.27
286.134	68.27
286.349	37.55
286.564	31.4
286.779	17.07
286.995	45.74
287.21	8.87
287.425	94.89
287.64	45.74
287.855	70.31
288.07	47.79
288.285	82.6
288.5	70.31
288.715	55.98
288.93	8.87
289.145	72.36
289.36	68.27
289.575	45.74
289.79	115.37
290.004	86.7
290.219	72.36
290.434	-44.37
290.649	70.31
290.864	80.55
291.079	-11.61
291.294	94.89
291.509	19.11
291.724	-11.61
291.938	78.51
292.153	51.88
292.368	12.97
292.583	8.87
292.798	31.4
293.012	62.12
293.227	25.26
293.442	45.74
293.657	72.36
293.871	78.51
294.086	55.98
294.301	103.08
294.516	19.11
294.73	68.27
294.945	-21.85
295.16	60.07
295.374	53.93
295.589	94.89
295.804	6.83
296.018	86.7
296.233	78.51
296.447	23.21
296.662	-1.37
296.877	133.8
297.091	47.79
297.306	12.97
297.52	98.99
297.735	47.79
297.949	-11.61
298.164	62.12
298.378	-15.7
298.593	49.83
298.807	25.26
299.022	37.55
299.236	117.42
299.451	25.26
299.665	41.64
299.88	17.07
300.094	70.31
300.309	60.07
300.523	51.88
300.737	94.89
300.952	12.97
301.166	117.42
301.381	6.83
301.595	58.03
301.809	31.4
302.024	-21.85
302.238	41.64
302.452	31.4
302.667	70.31
302.881	62.12
303.095	62.12
303.309	25.26
303.524	31.4
303.738	-9.56
303.952	-40.28
304.166	133.8
304.381	49.83
304.595	117.42
304.809	66.22
305.023	49.83
305.237	62.12
305.452	103.08
305.666	84.65
305.88	70.31
306.094	113.32
306.308	98.99
306.522	103.08
306.736	21.16
306.95	139.94
307.164	-11.61
307.379	60.07
307.593	111.27
307.807	58.03
308.021	45.74
308.235	144.04
308.449	88.75
308.663	21.16
308.877	70.31
309.091	21.16
309.305	4.78
309.519	6.83
309.733	39.59
309.947	-27.99
310.161	90.79
310.374	117.42
310.588	105.13
310.802	51.88
311.016	60.07
311.23	12.97
311.444	31.4
311.658	49.83
311.872	84.65
312.085	51.88
312.299	131.75
312.513	62.12
312.727	51.88
312.941	-5.46
313.154	51.88
313.368	66.22
313.582	58.03
313.796	76.46
314.009	31.4
314.223	172.71
314.437	51.88
314.651	119.46
314.864	72.36
315.078	90.79
315.292	94.89
315.505	-27.99
315.719	6.83
315.933	29.35
316.146	117.42
316.36	55.98
316.573	84.65
316.787	103.08
317.001	-32.08
317.214	90.79
317.428	31.4
317.641	76.46
317.855	23.21
318.068	66.22
318.282	17.07
318.495	68.27
318.709	78.51
318.922	31.4
319.136	80.55
319.349	35.5
319.563	47.79
319.776	51.88
319.99	101.03
320.203	45.74
320.417	103.08
320.63	98.99
320.843	55.98
321.057	84.65
321.27	33.45
321.483	53.93
321.697	84.65
321.91	29.35
322.124	6.83
322.337	43.69
322.55	115.37
322.763	55.98
322.977	105.13
323.19	19.11
323.403	68.27
323.617	58.03
323.83	51.88
324.043	113.32
324.256	4.78
324.469	15.02
324.683	47.79
324.896	19.11
325.109	66.22
325.322	68.27
325.535	111.27
325.748	94.89
325.962	49.83
326.175	45.74
326.388	74.41
326.601	53.93
326.814	43.69
327.027	19.11
327.24	25.26
327.453	51.88
327.666	82.6
327.879	45.74
328.092	47.79
328.305	88.75
328.518	51.88
328.731	21.16
328.944	62.12
329.157	60.07
329.37	96.94
329.583	72.36
329.796	74.41
330.009	10.92
330.222	123.56
330.435	66.22
330.648	66.22
330.861	53.93
331.073	49.83
331.286	113.32
331.499	47.79
331.712	43.69
331.925	43.69
332.138	107.18
332.35	119.46
332.563	19.11
332.776	82.6
332.989	-1.37
333.202	21.16
333.414	82.6
333.627	109.23
333.84	141.99
334.053	70.31
334.265	-21.85
334.478	90.79
334.691	51.88
334.903	25.26
335.116	98.99
335.329	2.73
335.541	51.88
335.754	55.98
335.966	-3.41
336.179	29.35
336.392	37.55
336.604	187.05
336.817	105.13
337.029	148.14
337.242	21.16
337.454	68.27
337.667	21.16
337.88	121.51
338.092	12.97
338.305	117.42
338.517	49.83
338.729	107.18
338.942	64.17
339.154	86.7
339.367	101.03
339.579	62.12
339.792	33.45
340.004	78.51
340.217	74.41
340.429	47.79
340.641	74.41
340.854	19.11
341.066	37.55
341.278	98.99
341.491	101.03
341.703	12.97
341.915	33.45
342.128	47.79
342.34	39.59
342.552	31.4
342.764	15.02
342.977	2.73
343.189	88.75
343.401	58.03
343.613	-64.85
343.826	58.03
344.038	64.17
344.25	117.42
344.462	27.31
344.674	55.98
344.886	49.83
345.099	55.98
345.311	68.27
345.523	19.11
345.735	35.5
345.947	37.55
346.159	33.45
346.371	29.35
346.583	33.45
346.795	29.35
347.007	27.31
347.219	68.27
347.431	53.93
347.643	98.99
347.855	78.51
348.067	131.75
348.279	58.03
348.491	19.11
348.703	92.84
348.915	90.79
349.127	92.84
349.339	35.5
349.551	31.4
349.763	66.22
349.975	111.27
350.187	58.03
350.399	78.51
350.61	60.07
350.822	55.98
351.034	58.03
351.246	84.65
351.458	43.69
351.669	74.41
351.881	86.7
352.093	80.55
352.305	84.65
352.517	27.31
352.728	31.4
352.94	-19.8
353.152	-5.46
353.363	15.02
353.575	84.65
353.787	150.18
353.999	119.46
354.21	43.69
354.422	88.75
354.633	-44.37
354.845	25.26
355.057	64.17
355.268	94.89
355.48	29.35
355.692	33.45
355.903	105.13
356.115	45.74
356.326	17.07
356.538	115.37
356.749	90.79
356.961	66.22
357.172	82.6
357.384	82.6
357.595	55.98
357.807	27.31
358.018	123.56
358.23	51.88
358.441	111.27
358.653	80.55
358.864	103.08
359.075	51.88
359.287	51.88
359.498	70.31
359.709	60.07
359.921	51.88
360.132	12.97
360.344	4.78
360.555	0.68
360.766	78.51
360.977	70.31
361.189	68.27
361.4	74.41
361.611	68.27
361.823	146.09
362.034	121.51
362.245	-3.41
362.456	111.27
362.667	62.12
362.879	45.74
363.09	-5.46
363.301	15.02
363.512	41.64
363.723	39.59
363.935	47.79
364.146	41.64
364.357	23.21
364.568	0.68
364.779	49.83
364.99	62.12
365.201	82.6
365.412	80.55
365.623	86.7
365.834	74.41
366.045	76.46
366.256	49.83
366.467	127.66
366.678	53.93
366.889	107.18
367.1	58.03
367.311	137.9
367.522	27.31
367.733	17.07
367.944	84.65
368.155	92.84
368.366	139.94
368.577	64.17
368.788	103.08
368.999	19.11
369.209	53.93
369.42	176.81
369.631	21.16
369.842	12.97
370.053	33.45
370.264	62.12
370.474	19.11
370.685	68.27
370.896	64.17
371.107	78.51
371.317	148.14
371.528	86.7
371.739	107.18
371.95	72.36
372.16	131.75
372.371	80.55
372.582	103.08
372.792	80.55
373.003	47.79
373.214	47.79
373.424	115.37
373.635	55.98
373.846	88.75
374.056	53.93
374.267	51.88
374.477	17.07
374.688	29.35
374.898	103.08
375.109	17.07
375.319	76.46
375.53	141.99
375.74	41.64
375.951	70.31
376.161	119.46
376.372	115.37
376.582	66.22
376.793	103.08
377.003	94.89
377.214	135.85
377.424	55.98
377.635	80.55
377.845	60.07
378.055	119.46
378.266	66.22
378.476	105.13
378.686	88.75
378.897	15.02
379.107	86.7
379.317	76.46
379.528	92.84
379.738	49.83
379.948	53.93
380.158	80.55
380.369	94.89
380.579	146.09
380.789	-19.8
380.999	92.84
381.21	148.14
381.42	80.55
381.63	80.55
381.84	121.51
382.05	115.37
382.261	90.79
382.471	94.89
382.681	115.37
382.891	62.12
383.101	25.26
383.311	-81.24
383.521	117.42
383.731	127.66
383.941	25.26
384.151	88.75
384.361	64.17
384.571	129.7
384.781	68.27
384.991	45.74
385.201	115.37
385.411	64.17
385.621	62.12
385.831	154.28
386.041	53.93
386.251	74.41
386.461	80.55
386.671	60.07
386.881	166.57
387.091	74.41
387.301	150.18
387.511	137.9
387.72	0.68
387.93	94.89
388.14	64.17
388.35	51.88
388.56	105.13
388.769	119.46
388.979	64.17
389.189	6.83
389.399	115.37
389.609	131.75
389.818	64.17
390.028	94.89
390.238	66.22
390.447	41.64
390.657	37.55
390.867	109.23
391.076	94.89
391.286	55.98
391.496	51.88
391.705	127.66
391.915	150.18
392.125	41.64
392.334	199.34
392.544	131.75
392.753	121.51
392.963	82.6
393.172	90.79
393.382	49.83
393.591	88.75
393.801	82.6
394.01	123.56
394.22	160.42
394.429	146.09
394.639	123.56
394.848	96.94
395.058	45.74
395.267	109.23
395.477	105.13
395.686	141.99
395.895	150.18
396.105	60.07
396.314	86.7
396.524	45.74
396.733	135.85
396.942	193.19
397.152	119.46
397.361	103.08
397.57	139.94
397.78	133.8
397.989	76.46
398.198	115.37
398.407	137.9
398.617	78.51
398.826	139.94
399.035	125.61
399.244	135.85
399.453	98.99
399.663	187.05
399.872	141.99
400.081	103.08
400.29	51.88
400.499	170.66
400.708	125.61
400.917	158.38
401.127	84.65
401.336	96.94
401.545	189.1
401.754	94.89
401.963	127.66
402.172	203.43
402.381	146.09
402.59	119.46
402.799	156.33
403.008	88.75
403.217	225.96
403.426	201.38
403.635	160.42
403.844	199.34
404.053	205.48
404.262	133.8
404.471	170.66
404.68	187.05
404.888	168.62
405.097	162.47
405.306	168.62
405.515	217.77
405.724	242.34
405.933	252.58
406.142	105.13
406.35	256.68
406.559	199.34
406.768	217.77
406.977	205.48
407.185	180.9
407.394	228.01
407.603	234.15
407.812	299.69
408.02	305.83
408.229	297.64
408.438	256.68
408.646	273.06
408.855	205.48
409.064	281.25
409.272	320.17
409.481	344.74
409.69	301.73
409.898	320.17
410.107	348.84
410.315	410.28
410.524	348.84
410.733	354.98
410.941	389.8
411.15	414.37
411.358	420.52
411.567	488.1
411.775	426.66
411.984	471.72
412.192	449.19
412.401	490.15
412.609	576.16
412.818	541.35
413.026	541.35
413.234	549.54
413.443	578.21
413.651	631.46
413.86	574.11
414.068	686.75
414.276	678.56
414.485	709.28
414.693	727.71
414.901	680.61
415.11	819.87
415.318	733.86
415.526	768.67
415.734	914.08
415.943	932.51
416.151	901.79
416.359	971.42
416.567	973.47
416.776	987.8
416.984	1004.19
417.192	1055.39
417.4	1102.49
417.608	1045.15
417.817	1127.07
418.025	1184.41
418.233	1397.4
418.441	1254.04
418.649	1311.38
418.857	1381.01
419.065	1483.41
419.273	1510.04
419.481	1505.94
419.689	1643.15
419.897	1540.76
420.105	1841.81
420.313	1761.94
420.521	1747.6
420.729	1864.33
420.937	1903.25
421.145	1911.44
421.353	2044.56
421.561	2144.91
421.769	2144.91
421.977	2253.45
422.185	2194.06
422.393	2439.81
422.601	2495.11
422.809	2523.78
423.017	2523.78
423.224	2761.34
423.432	2716.29
423.64	2925.18
423.848	3015.29
424.056	2957.95
424.263	3222.14
424.471	3121.79
424.679	3367.54
424.887	3451.51
425.094	3541.62
425.302	3590.77
425.51	3656.31
425.718	3857.01
425.925	3744.37
426.133	4010.61
426.341	4215.4
426.548	4325.99
426.756	4307.56
426.964	4313.7
427.171	4784.74
427.379	4786.79
427.586	4915.81
427.794	5036.64
428.001	5229.15
428.209	5526.1
428.417	5503.57
428.624	5937.74
428.832	5907.02
429.039	5698.13
429.247	5806.67
429.454	6287.95
429.662	6935.1
429.869	6324.81
430.076	6769.22
430.284	6771.27
430.491	6847.04
430.699	7205.44
430.906	7219.77
431.114	7375.42
431.321	7598.65
431.528	7758.39
431.736	8155.69
431.943	8528.42
432.15	8258.09
432.358	8544.81
432.565	8915.49
432.772	8907.3
432.979	9140.77
433.187	9603.61
433.394	9624.09
433.601	10359.31
433.808	10199.57
434.016	10246.67
434.223	10576.39
434.43	11149.82
434.637	11186.69
434.844	11721.21
435.052	12130.8
435.259	11725.3
435.466	12038.64
435.673	11610.62
435.88	12601.83
436.087	13433.31
436.294	13400.54
436.501	13029.86
436.708	13449.69
436.915	13654.49
437.122	14164.43
437.329	14068.18
437.537	14692.81
437.743	14854.6
437.95	14645.71
438.157	15468.99
438.364	15858.1
438.571	15792.57
438.778	16220.6
438.985	17910.17
439.192	16822.7
439.399	17211.81
439.606	16918.95
439.813	17801.63
440.02	18950.54
440.227	18682.25
440.433	18661.77
440.64	19112.33
440.847	18952.59
441.054	19564.93
441.261	21186.92
441.467	20615.54
441.674	21039.47
441.881	21481.83
442.088	21432.68
442.294	21508.45
442.501	21950.81
442.708	22376.79
442.914	23488.84
443.121	24295.74
443.328	23417.16
443.534	25383.21
443.741	24389.94
443.948	24207.67
444.154	25956.64
444.361	25780.51
444.568	26312.99
444.774	25876.77
444.981	26040.61
445.187	27166.99
445.394	28408.06
445.6	27826.43
445.807	30564.57
446.013	29098.22
446.22	30030.05
446.426	30685.4
446.633	31217.87
446.839	32227.52
447.046	30845.14
447.252	32579.77
447.459	32377.02
447.665	32301.25
447.871	33693.86
448.078	35217.55
448.284	33382.57
448.491	34543.77
448.697	35883.14
448.903	36294.78
449.11	36300.93
449.316	35610.76
449.522	36460.67
449.728	37550.19
449.935	37779.56
450.141	37390.45
450.347	39075.93
450.553	37290.1
450.76	37521.52
450.966	38639.71
451.172	38484.06
451.378	39202.9
451.584	38436.96
451.791	39346.26
451.997	39290.96
452.203	39977.03
452.409	39655.5
452.615	39790.67
452.821	38402.14
453.027	37881.96
453.233	39573.58
453.44	38045.8
453.646	38731.87
453.852	38783.07
454.058	39493.71
454.264	38283.36
454.47	38735.96
454.676	37841
454.882	39307.35
455.088	35850.38
455.294	36497.53
455.5	36751.48
455.705	37081.2
455.911	35483.79
456.117	35166.35
456.323	34189.47
456.529	32737.46
456.735	34207.9
456.941	33314.99
457.147	32497.85
457.352	31621.32
457.558	31271.12
457.764	31340.75
457.97	30783.7
458.176	29970.66
458.381	30030.05
458.587	28143.87
458.793	28387.58
458.999	27181.32
459.204	29008.11
459.41	28096.77
459.616	26632.47
459.821	26442.01
460.027	26523.93
460.233	25913.63
460.438	24666.42
460.644	24863.02
460.85	23634.24
461.055	23365.96
461.261	23038.28
461.466	21680.48
461.672	20734.32
461.878	22778.19
462.083	21066.09
462.289	20453.75
462.494	20392.31
462.7	19646.85
462.905	18887.05
463.111	20019.58
463.316	19831.16
463.522	18987.4
463.727	19364.23
463.932	19265.92
464.138	18921.87
464.343	18909.58
464.549	18655.63
464.754	19122.57
464.959	19270.02
465.165	18842
465.37	18381.2
465.575	17623.45
465.781	18416.02
465.986	18491.79
466.191	18059.67
466.397	17471.9
466.602	16787.88
466.807	17279.4
