Data from USB4F104151__202__11-10-14-166.txt Node

Date: Wed Mar 12 11:10:14 EDT 2025
User: louis
Spectrometer: USB4F10415
Trigger mode: 4
Integration Time (sec): 2.000000E-2
Scans to average: 1
Electric dark correction enabled: true
Nonlinearity correction enabled: false
Boxcar width: 0
XAxis mode: Wavelengths
Number of Pixels in Spectrum: 3648
>>>>>Begin Spectral Data<<<<<
178.204	21.16
178.424	21.16
178.644	21.16
178.864	-81.24
179.084	-38.23
179.304	-3.41
179.524	-3.41
179.744	-3.41
179.964	19.11
180.184	62.12
180.404	12.97
180.624	25.26
180.844	-54.61
181.064	-1.37
181.283	2.73
181.503	-25.94
181.723	-30.04
181.943	-17.75
182.163	49.83
182.383	0.68
182.602	84.65
182.822	96.94
183.042	-11.61
183.262	35.5
183.482	-9.56
183.701	23.21
183.921	2.73
184.141	21.16
184.361	47.79
184.58	49.83
184.8	23.21
185.02	-21.85
185.239	45.74
185.459	-38.23
185.679	92.84
185.898	-42.32
186.118	6.83
186.338	-64.85
186.557	27.31
186.777	12.97
186.997	-36.18
187.216	39.59
187.436	96.94
187.655	103.08
187.875	37.55
188.095	29.35
188.314	55.98
188.534	70.31
188.753	37.55
188.973	17.07
189.192	92.84
189.412	86.7
189.631	72.36
189.851	49.83
190.07	70.31
190.29	-25.94
190.509	88.75
190.729	66.22
190.948	64.17
191.168	39.59
191.387	19.11
191.607	-30.04
191.826	74.41
192.045	19.11
192.265	92.84
192.484	55.98
192.704	64.17
192.923	2.73
193.142	86.7
193.362	29.35
193.581	96.94
193.8	49.83
194.02	88.75
194.239	-44.37
194.458	21.16
194.678	31.4
194.897	41.64
195.116	-7.51
195.335	58.03
195.555	17.07
195.774	21.16
195.993	15.02
196.212	10.92
196.432	-40.28
196.651	25.26
196.87	-40.28
197.089	162.47
197.308	64.17
197.528	58.03
197.747	25.26
197.966	29.35
198.185	29.35
198.404	15.02
198.623	84.65
198.842	-5.46
199.062	82.6
199.281	62.12
199.5	19.11
199.719	4.78
199.938	25.26
200.157	21.16
200.376	25.26
200.595	74.41
200.814	78.51
201.033	33.45
201.252	-27.99
201.471	58.03
201.69	74.41
201.909	41.64
202.128	43.69
202.347	37.55
202.566	41.64
202.785	45.74
203.004	17.07
203.223	35.5
203.442	-1.37
203.661	-5.46
203.879	33.45
204.098	70.31
204.317	-5.46
204.536	64.17
204.755	-9.56
204.974	170.66
205.193	8.87
205.411	70.31
205.63	19.11
205.849	-13.65
206.068	96.94
206.287	33.45
206.505	6.83
206.724	84.65
206.943	33.45
207.162	-23.89
207.381	119.46
207.599	51.88
207.818	109.22
208.037	-46.42
208.255	29.35
208.474	-17.75
208.693	31.4
208.911	37.55
209.13	0.68
209.349	41.64
209.567	23.21
209.786	29.35
210.005	58.03
210.223	15.02
210.442	-7.51
210.661	-34.13
210.879	-1.37
211.098	96.94
211.316	41.64
211.535	12.97
211.753	-56.66
211.972	17.07
212.191	-13.65
212.409	-3.41
212.628	55.98
212.846	-50.52
213.065	21.16
213.283	76.46
213.502	-23.89
213.72	0.68
213.938	-11.61
214.157	121.51
214.375	2.73
214.594	-50.52
214.812	68.27
215.031	105.13
215.249	-27.99
215.467	15.02
215.686	-3.41
215.904	129.7
216.122	4.78
216.341	76.46
216.559	78.51
216.778	31.4
216.996	47.79
217.214	6.83
217.432	-3.41
217.651	-42.32
217.869	25.26
218.087	74.41
218.306	21.16
218.524	12.97
218.742	37.55
218.96	64.17
219.179	55.98
219.397	0.68
219.615	35.5
219.833	12.97
220.051	60.07
220.27	23.21
220.488	-19.8
220.706	92.84
220.924	41.64
221.142	10.92
221.36	35.5
221.578	33.45
221.796	129.7
222.015	55.98
222.233	19.11
222.451	82.6
222.669	19.11
222.887	82.6
223.105	37.55
223.323	-30.04
223.541	33.45
223.759	29.35
223.977	31.4
224.195	41.64
224.413	-3.41
224.631	-1.37
224.849	51.88
225.067	78.51
225.285	-66.9
225.503	70.31
225.721	33.45
225.939	21.16
226.157	-42.32
226.375	119.46
226.592	23.21
226.81	31.4
227.028	78.51
227.246	35.5
227.464	-23.89
227.682	15.02
227.9	47.79
228.117	53.93
228.335	-19.8
228.553	-15.7
228.771	98.99
228.989	17.07
229.206	74.41
229.424	2.73
229.642	4.78
229.86	23.21
230.077	107.18
230.295	21.16
230.513	41.64
230.731	74.41
230.948	58.03
231.166	35.5
231.384	113.32
231.601	41.64
231.819	72.36
232.037	-44.37
232.254	60.07
232.472	-15.7
232.689	-5.46
232.907	45.74
233.125	74.41
233.342	21.16
233.56	41.64
233.777	21.16
233.995	74.41
234.213	-21.85
234.43	-40.28
234.648	-13.65
234.865	-19.8
235.083	27.31
235.3	70.31
235.518	96.94
235.735	72.36
235.953	49.83
236.17	66.22
236.388	74.41
236.605	-11.61
236.822	62.12
237.04	23.21
237.257	-21.85
237.475	25.26
237.692	2.73
237.909	39.59
238.127	115.37
238.344	64.17
238.562	53.93
238.779	-15.7
238.996	33.45
239.214	4.78
239.431	37.55
239.648	25.26
239.865	33.45
240.083	51.88
240.3	33.45
240.517	21.16
240.735	43.69
240.952	78.51
241.169	25.26
241.386	4.78
241.603	111.27
241.821	23.21
242.038	35.5
242.255	66.22
242.472	8.87
242.689	62.12
242.907	37.55
243.124	35.5
243.341	53.93
243.558	8.87
243.775	-1.37
243.992	29.35
244.209	90.79
244.426	105.13
244.643	55.98
244.86	66.22
245.078	33.45
245.295	49.83
245.512	80.55
245.729	-46.42
245.946	72.36
246.163	-7.51
246.38	-25.94
246.597	31.4
246.814	45.74
247.031	55.98
247.248	21.16
247.464	-5.46
247.681	-27.99
247.898	35.5
248.115	41.64
248.332	4.78
248.549	107.18
248.766	94.89
248.983	4.78
249.2	-21.85
249.417	119.46
249.633	72.36
249.85	17.07
250.067	127.66
250.284	21.16
250.501	-5.46
250.717	37.55
250.934	29.35
251.151	47.79
251.368	21.16
251.585	64.17
251.801	-1.37
252.018	64.17
252.235	109.22
252.451	-23.89
252.668	-7.51
252.885	47.79
253.102	60.07
253.318	68.27
253.535	35.5
253.752	25.26
253.968	31.4
254.185	76.46
254.401	-15.7
254.618	-1.37
254.835	35.5
255.051	64.17
255.268	-48.47
255.484	-17.75
255.701	27.31
255.917	78.51
256.134	35.5
256.351	10.92
256.567	-32.08
256.784	78.51
257	8.87
257.217	23.21
257.433	23.21
257.65	47.79
257.866	0.68
258.082	37.55
258.299	35.5
258.515	41.64
258.732	62.12
258.948	55.98
259.165	35.5
259.381	-32.08
259.597	58.03
259.814	29.35
260.03	-19.8
260.246	15.02
260.463	127.66
260.679	39.59
260.895	78.51
261.112	-11.61
261.328	62.12
261.544	-34.13
261.761	51.88
261.977	-42.32
262.193	58.03
262.409	33.45
262.626	80.55
262.842	27.31
263.058	17.07
263.274	121.51
263.49	17.07
263.707	82.6
263.923	33.45
264.139	-75.09
264.355	33.45
264.571	72.36
264.787	72.36
265.004	88.75
265.22	27.31
265.436	53.93
265.652	-5.46
265.868	60.07
266.084	33.45
266.3	2.73
266.516	6.83
266.732	60.07
266.948	23.21
267.164	39.59
267.38	49.83
267.596	45.74
267.812	90.79
268.028	72.36
268.244	23.21
268.46	96.94
268.676	43.69
268.892	27.31
269.108	8.87
269.324	2.73
269.54	-3.41
269.756	66.22
269.972	39.59
270.188	45.74
270.403	39.59
270.619	55.98
270.835	43.69
271.051	4.78
271.267	58.03
271.483	-68.95
271.698	27.31
271.914	-15.7
272.13	29.35
272.346	88.75
272.562	55.98
272.777	66.22
272.993	17.07
273.209	49.83
273.425	-11.61
273.64	-23.89
273.856	-17.75
274.072	78.51
274.287	10.92
274.503	15.02
274.719	27.31
274.934	33.45
275.15	45.74
275.366	-9.56
275.581	66.22
275.797	113.32
276.012	-15.7
276.228	45.74
276.444	-19.8
276.659	94.89
276.875	27.31
277.09	19.11
277.306	55.98
277.521	76.46
277.737	23.21
277.952	12.97
278.168	-23.89
278.383	66.22
278.599	-13.65
278.814	25.26
279.03	21.16
279.245	58.03
279.461	-7.51
279.676	53.93
279.892	-15.7
280.107	43.69
280.322	82.6
280.538	17.07
280.753	64.17
280.969	-15.7
281.184	53.93
281.399	141.99
281.615	0.68
281.83	94.89
282.045	51.88
282.26	-44.37
282.476	19.11
282.691	70.31
282.906	-3.41
283.122	49.83
283.337	105.13
283.552	82.6
283.767	10.92
283.983	21.16
284.198	-34.13
284.413	101.03
284.628	74.41
284.843	58.03
285.058	68.27
285.274	10.92
285.489	58.03
285.704	15.02
285.919	66.22
286.134	72.36
286.349	82.6
286.564	17.07
286.779	17.07
286.995	27.31
287.21	78.51
287.425	55.98
287.64	98.99
287.855	17.07
288.07	12.97
288.285	86.7
288.5	113.32
288.715	62.12
288.93	25.26
289.145	12.97
289.36	127.66
289.575	78.51
289.79	37.55
290.004	-23.89
290.219	19.11
290.434	-36.18
290.649	0.68
290.864	45.74
291.079	-34.13
291.294	74.41
291.509	70.31
291.724	60.07
291.938	21.16
292.153	41.64
292.368	29.35
292.583	31.4
292.798	66.22
293.012	92.84
293.227	78.51
293.442	88.75
293.657	82.6
293.871	-27.99
294.086	86.7
294.301	107.18
294.516	84.65
294.73	25.26
294.945	-3.41
295.16	31.4
295.374	-5.46
295.589	39.59
295.804	-32.08
296.018	41.64
296.233	72.36
296.447	66.22
296.662	25.26
296.877	23.21
297.091	15.02
297.306	31.4
297.52	-34.13
297.735	115.37
297.949	51.88
298.164	4.78
298.378	4.78
298.593	51.88
298.807	8.87
299.022	45.74
299.236	49.83
299.451	58.03
299.665	72.36
299.88	10.92
300.094	17.07
300.309	64.17
300.523	82.6
300.737	98.99
300.952	-34.13
301.166	49.83
301.381	23.21
301.595	47.79
301.809	21.16
302.024	12.97
302.238	-21.85
302.452	49.83
302.667	66.22
302.881	74.41
303.095	31.4
303.309	70.31
303.524	37.55
303.738	-9.56
303.952	27.31
304.166	43.69
304.381	-17.75
304.595	17.07
304.809	-11.61
305.023	25.26
305.237	58.03
305.452	8.87
305.666	58.03
305.88	66.22
306.094	45.74
306.308	-73.04
306.522	82.6
306.736	41.64
306.95	88.75
307.164	70.31
307.379	37.55
307.593	41.64
307.807	25.26
308.021	68.27
308.235	-3.41
308.449	33.45
308.663	47.79
308.877	90.79
309.091	37.55
309.305	82.6
309.519	105.13
309.733	60.07
309.947	-50.52
310.161	101.03
310.374	27.31
310.588	49.83
310.802	41.64
311.016	-9.56
311.23	74.41
311.444	41.64
311.658	-50.52
311.872	78.51
312.085	-1.37
312.299	25.26
312.513	51.88
312.727	10.92
312.941	58.03
313.154	8.87
313.368	113.32
313.582	96.94
313.796	49.83
314.009	31.4
314.223	92.84
314.437	47.79
314.651	21.16
314.864	-3.41
315.078	105.13
315.292	25.26
315.505	17.07
315.719	137.9
315.933	43.69
316.146	70.31
316.36	53.93
316.573	80.55
316.787	111.27
317.001	53.93
317.214	2.73
317.428	51.88
317.641	47.79
317.855	-3.41
318.068	29.35
318.282	4.78
318.495	33.45
318.709	96.94
318.922	62.12
319.136	58.03
319.349	37.55
319.563	29.35
319.776	4.78
319.99	72.36
320.203	66.22
320.417	88.75
320.63	55.98
320.843	68.27
321.057	68.27
321.27	17.07
321.483	47.79
321.697	107.18
321.91	-30.04
322.124	37.55
322.337	-7.51
322.55	41.64
322.763	33.45
322.977	21.16
323.19	15.02
323.403	39.59
323.617	78.51
323.83	-15.7
324.043	31.4
324.256	29.35
324.469	0.68
324.683	90.79
324.896	68.27
325.109	49.83
325.322	-13.65
325.535	66.22
325.748	33.45
325.962	43.69
326.175	74.41
326.388	80.55
326.601	23.21
326.814	58.03
327.027	51.88
327.24	53.93
327.453	15.02
327.666	74.41
327.879	62.12
328.092	90.79
328.305	51.88
328.518	8.87
328.731	62.12
328.944	43.69
329.157	74.41
329.37	66.22
329.583	123.56
329.796	70.31
330.009	25.26
330.222	98.99
330.435	84.65
330.648	37.55
330.861	-11.61
331.073	53.93
331.286	43.69
331.499	17.07
331.712	29.35
331.925	19.11
332.138	45.74
332.35	-11.61
332.563	84.65
332.776	148.14
332.989	6.83
333.202	39.59
333.414	72.36
333.627	-13.65
333.84	35.5
334.053	55.98
334.265	35.5
334.478	31.4
334.691	74.41
334.903	76.46
335.116	15.02
335.329	35.5
335.541	43.69
335.754	2.73
335.966	58.03
336.179	125.61
336.392	47.79
336.604	66.22
336.817	25.26
337.029	86.7
337.242	62.12
337.454	6.83
337.667	45.74
337.88	88.75
338.092	-21.85
338.305	72.36
338.517	60.07
338.729	70.31
338.942	55.98
339.154	17.07
339.367	19.11
339.579	55.98
339.792	23.21
340.004	92.84
340.217	51.88
340.429	66.22
340.641	23.21
340.854	12.97
341.066	-46.42
341.278	27.31
341.491	12.97
341.703	78.51
341.915	-7.51
342.128	29.35
342.34	86.7
342.552	23.21
342.764	6.83
342.977	111.27
343.189	31.4
343.401	-17.75
343.613	-17.75
343.826	53.93
344.038	-7.51
344.25	47.79
344.462	58.03
344.674	64.17
344.886	25.26
345.099	76.46
345.311	55.98
345.523	49.83
345.735	19.11
345.947	37.55
346.159	33.45
346.371	15.02
346.583	82.6
346.795	25.26
347.007	103.08
347.219	29.35
347.431	17.07
347.643	53.93
347.855	33.45
348.067	62.12
348.279	66.22
348.491	162.47
348.703	66.22
348.915	15.02
349.127	37.55
349.339	4.78
349.551	27.31
349.763	45.74
349.975	53.93
350.187	35.5
350.399	78.51
350.61	25.26
350.822	37.55
351.034	19.11
351.246	37.55
351.458	55.98
351.669	-11.61
351.881	74.41
352.093	10.92
352.305	41.64
352.517	39.59
352.728	98.99
352.94	98.99
353.152	58.03
353.363	53.93
353.575	43.69
353.787	86.7
353.999	21.16
354.21	53.93
354.422	64.17
354.633	82.6
354.845	6.83
355.057	2.73
355.268	66.22
355.48	80.55
355.692	-13.65
355.903	76.46
356.115	-23.89
356.326	43.69
356.538	72.36
356.749	-3.41
356.961	123.56
357.172	0.68
357.384	55.98
357.595	21.16
357.807	64.17
358.018	4.78
358.23	72.36
358.441	109.22
358.653	53.93
358.864	23.21
359.075	-17.75
359.287	105.13
359.498	45.74
359.709	84.65
359.921	107.18
360.132	133.8
360.344	6.83
360.555	31.4
360.766	127.66
360.977	21.16
361.189	94.89
361.4	-9.56
361.611	43.69
361.823	78.51
362.034	84.65
362.245	51.88
362.456	141.99
362.667	-11.61
362.879	66.22
363.09	2.73
363.301	53.93
363.512	113.32
363.723	2.73
363.935	58.03
364.146	123.56
364.357	19.11
364.568	96.94
364.779	8.87
364.99	-21.85
365.201	64.17
365.412	62.12
365.623	-7.51
365.834	72.36
366.045	152.23
366.256	84.65
366.467	90.79
366.678	58.03
366.889	94.89
367.1	21.16
367.311	23.21
367.522	39.59
367.733	29.35
367.944	92.84
368.155	43.69
368.366	49.83
368.577	70.31
368.788	43.69
368.999	105.13
369.209	101.03
369.42	84.65
369.631	86.7
369.842	105.13
370.053	115.37
370.264	58.03
370.474	19.11
370.685	23.21
370.896	76.46
371.107	119.46
371.317	94.89
371.528	-40.28
371.739	-17.75
371.95	19.11
372.16	43.69
372.371	10.92
372.582	12.97
372.792	105.13
373.003	31.4
373.214	62.12
373.424	127.66
373.635	72.36
373.846	98.99
374.056	-11.61
374.267	72.36
374.477	49.83
374.688	88.75
374.898	0.68
375.109	70.31
375.319	17.07
375.53	29.35
375.74	25.26
375.951	55.98
376.161	70.31
376.372	70.31
376.582	17.07
376.793	8.87
377.003	23.21
377.214	72.36
377.424	66.22
377.635	148.14
377.845	43.69
378.055	101.03
378.266	-19.8
378.476	47.79
378.686	31.4
378.897	66.22
379.107	76.46
379.317	84.65
379.528	47.79
379.738	76.46
379.948	-19.8
380.158	58.03
380.369	92.84
380.579	94.89
380.789	82.6
380.999	115.37
381.21	119.46
381.42	55.98
381.63	25.26
381.84	74.41
382.05	92.84
382.261	101.03
382.471	86.7
382.681	86.7
382.891	119.46
383.101	129.7
383.311	84.65
383.521	88.75
383.731	84.65
383.941	107.18
384.151	103.08
384.361	154.28
384.571	66.22
384.781	27.31
384.991	25.26
385.201	117.42
385.411	23.21
385.621	84.65
385.831	58.03
386.041	98.99
386.251	90.79
386.461	117.42
386.671	31.4
386.881	64.17
387.091	72.36
387.301	19.11
387.511	17.07
387.72	127.66
387.93	70.31
388.14	31.4
388.35	62.12
388.56	90.79
388.769	135.85
388.979	117.42
389.189	33.45
389.399	47.79
389.609	43.69
389.818	47.79
390.028	55.98
390.238	121.51
390.447	90.79
390.657	94.89
390.867	58.03
391.076	39.59
391.286	70.31
391.496	123.56
391.705	66.22
391.915	60.07
392.125	90.79
392.334	68.27
392.544	137.9
392.753	92.84
392.963	-13.65
393.172	152.23
393.382	64.17
393.591	150.18
393.801	98.99
394.01	84.65
394.22	62.12
394.429	103.08
394.639	76.46
394.848	80.55
395.058	82.6
395.267	105.13
395.477	107.18
395.686	180.9
395.895	166.57
396.105	103.08
396.314	101.03
396.524	103.08
396.733	121.51
396.942	139.94
397.152	92.84
397.361	96.94
397.57	117.42
397.78	119.46
397.989	96.94
398.198	238.25
398.407	39.59
398.617	131.75
398.826	123.56
399.035	70.31
399.244	111.27
399.453	78.51
399.663	105.13
399.872	117.42
400.081	113.32
400.29	178.86
400.499	137.9
400.708	144.04
400.917	150.18
401.127	76.46
401.336	146.09
401.545	199.34
401.754	162.47
401.963	66.22
402.172	119.46
402.381	90.79
402.59	123.56
402.799	113.32
403.008	133.8
403.217	191.14
403.426	191.14
403.635	154.28
403.844	168.62
404.053	187.05
404.262	133.8
404.471	168.62
404.68	168.62
404.888	156.33
405.097	185
405.306	187.05
405.515	217.77
405.724	141.99
405.933	252.58
406.142	228.01
406.35	244.39
406.559	189.1
406.768	121.51
406.977	219.82
407.185	205.48
407.394	225.96
407.603	211.62
407.812	205.48
408.02	352.93
408.229	236.2
408.438	309.93
408.646	203.43
408.855	295.59
409.064	289.45
409.272	250.53
409.481	303.78
409.69	264.87
409.898	363.17
410.107	359.08
410.315	277.16
410.524	252.58
410.733	412.32
410.941	408.23
411.15	463.52
411.358	406.18
411.567	459.43
411.775	357.03
411.984	506.53
412.192	463.52
412.401	512.67
412.609	506.53
412.818	570.02
413.026	484
413.234	567.97
413.443	531.11
413.651	549.54
413.86	615.07
414.068	707.23
414.276	672.42
414.485	709.28
414.693	748.19
414.901	717.47
415.11	807.58
415.318	748.19
415.526	834.21
415.734	834.21
415.943	838.3
416.151	819.87
416.359	924.32
416.567	942.75
416.776	975.52
416.984	1084.06
417.192	1155.74
417.4	1047.19
417.608	1088.15
417.817	1178.26
418.025	1137.31
418.233	1311.38
418.441	1155.74
418.649	1315.48
418.857	1280.66
419.065	1428.12
419.273	1401.49
419.481	1536.66
419.689	1442.45
419.897	1575.57
420.105	1696.4
420.313	1761.94
420.521	1727.12
420.729	1786.51
420.937	1784.46
421.145	1899.15
421.353	1995.4
421.561	2042.51
421.769	2120.33
421.977	2167.43
422.185	2175.63
422.393	2390.66
422.601	2454.15
422.809	2503.3
423.017	2529.92
423.224	2597.51
423.432	2855.55
423.64	2603.65
423.848	2894.46
424.056	2880.13
424.263	3203.71
424.471	3023.48
424.679	2923.13
424.887	3265.14
425.094	3424.89
425.302	3441.27
425.51	3555.96
425.718	3545.72
425.925	3744.37
426.133	3840.62
426.341	4063.85
426.548	4162.16
426.756	4119.15
426.964	4373.1
427.171	4637.28
427.379	4665.96
427.586	4680.29
427.794	4848.22
428.001	4999.77
428.209	5386.84
428.417	5208.67
428.624	5675.6
428.832	5642.84
429.039	5616.21
429.247	5528.15
429.454	6214.22
429.662	6414.92
429.869	6017.61
430.076	6562.37
430.284	6394.44
430.491	6586.95
430.699	6904.39
430.906	6957.63
431.114	7316.03
431.321	7457.34
431.528	7381.56
431.736	8004.14
431.943	8311.34
432.15	8274.48
432.358	8335.92
432.565	8577.58
432.772	8643.11
432.979	9118.24
433.187	9282.08
433.394	9185.82
433.601	9810.45
433.808	9937.43
434.016	9908.76
434.223	10168.85
434.43	10828.29
434.637	10732.04
434.844	11375.1
435.052	11614.71
435.259	11606.52
435.466	11612.67
435.673	11352.57
435.88	12413.42
436.087	12968.42
436.294	12861.93
436.501	12265.97
436.708	12874.21
436.915	13236.7
437.122	14047.7
437.329	13978.07
437.537	14193.11
437.743	14655.95
437.95	14244.31
438.157	15223.23
438.364	15544.77
438.571	15456.7
438.778	15552.96
438.985	17136.04
439.192	16363.95
439.399	16955.82
439.606	16572.85
439.813	17568.16
440.02	18583.95
440.227	18213.27
440.433	18252.18
440.64	18661.77
440.847	18600.33
441.054	19028.36
441.261	20404.6
441.467	20101.5
441.674	20447.6
441.881	21215.59
442.088	21006.7
442.294	20994.41
442.501	21426.53
442.708	21940.57
442.914	22653.26
443.121	23683.39
443.328	23167.31
443.534	24768.82
443.741	23906.62
443.948	23961.92
444.154	25692.45
444.361	25344.3
444.568	25366.82
444.774	25342.25
444.981	25866.53
445.187	26556.69
445.394	27758.85
445.6	26857.74
445.807	29880.55
446.013	28606.71
446.22	28799.22
446.426	30238.94
446.633	30392.54
446.839	31328.46
447.046	29995.23
447.252	31697.1
447.459	31676.62
447.665	31613.13
447.871	33079.47
448.078	34584.73
448.284	32786.61
448.491	33917.09
448.697	35104.92
448.903	35793.03
449.11	35528.84
449.316	34685.08
449.522	35625.1
449.728	36724.86
449.935	36708.47
450.141	36817.02
450.347	37742.7
450.553	36219.01
450.76	36941.94
450.966	38097
451.172	37566.57
451.378	38381.67
451.584	37924.97
451.791	38869.08
451.997	38680.67
452.203	39225.43
452.409	38967.38
452.615	39106.65
452.821	37386.35
453.027	37161.08
453.233	38783.07
453.44	37107.83
453.646	38150.24
453.852	37421.17
454.058	38774.88
454.264	37105.78
454.47	37957.74
454.676	36718.71
454.882	38490.21
455.088	34855.06
455.294	35379.34
455.5	35625.1
455.705	36210.82
455.911	34703.51
456.117	34447.52
456.323	33798.31
456.529	31934.66
456.735	33292.46
456.941	32256.19
457.147	31891.65
457.352	31094.99
457.558	30615.77
457.764	30593.24
457.97	29933.79
458.176	29483.24
458.381	29018.35
458.587	27894.02
458.793	27988.22
458.999	26757.39
459.204	28524.79
459.41	27592.97
459.616	25905.44
459.821	25571.62
460.027	25942.3
460.233	25207.08
460.438	24181.05
460.644	24355.13
460.85	23357.77
461.055	22835.53
461.261	22892.88
461.466	21025.13
461.672	20349.3
461.878	21668.19
462.083	20439.41
462.289	19954.04
462.494	20185.46
462.7	18835.85
462.905	18432.4
463.111	19048.84
463.316	19241.35
463.522	18899.34
463.727	18876.81
463.932	18741.64
464.138	18499.98
464.343	18700.69
464.549	18231.7
464.754	18635.15
464.959	18733.45
465.165	18469.26
465.37	17582.49
465.575	17277.35
465.781	18047.38
465.986	17987.99
466.191	17181.09
466.397	16910.76
466.602	16312.75
466.807	16804.27
467.012	16820.65
467.218	16923.05
