Data from USB4F104151__241__11-11-24-231.txt Node

Date: Wed Mar 12 11:11:24 EDT 2025
User: louis
Spectrometer: USB4F10415
Trigger mode: 4
Integration Time (sec): 2.000000E-2
Scans to average: 1
Electric dark correction enabled: true
Nonlinearity correction enabled: false
Boxcar width: 0
XAxis mode: Wavelengths
Number of Pixels in Spectrum: 3648
>>>>>Begin Spectral Data<<<<<
178.204	-100.69
178.424	-100.69
178.644	-100.69
178.864	1.71
179.084	-98.64
179.304	-20.82
179.524	13.99
179.744	-37.2
179.964	20.14
180.184	-106.84
180.404	1.71
180.624	3.75
180.844	1.71
181.064	13.99
181.283	59.05
181.503	-2.39
181.723	52.91
181.943	11.95
182.163	100.01
182.383	-41.3
182.602	40.62
182.822	18.09
183.042	71.34
183.262	-14.68
183.482	7.85
183.701	-20.82
183.921	3.75
184.141	57
184.361	46.76
184.58	-29.01
184.8	73.39
185.02	34.47
185.239	114.34
185.459	-37.2
185.679	-8.53
185.898	22.19
186.118	50.86
186.338	85.67
186.557	85.67
186.777	24.23
186.997	77.48
187.216	-2.39
187.436	63.15
187.655	-6.49
187.875	77.48
188.095	42.67
188.314	-33.11
188.534	104.11
188.753	13.99
188.973	89.77
189.192	5.8
189.412	-10.58
189.631	-8.53
189.851	79.53
190.07	81.58
190.29	122.54
190.509	40.62
190.729	46.76
190.948	24.23
191.168	59.05
191.387	73.39
191.607	44.71
191.826	13.99
192.045	28.33
192.265	48.81
192.484	38.57
192.704	46.76
192.923	48.81
193.142	122.54
193.362	-24.92
193.581	89.77
193.8	75.43
194.02	24.23
194.239	11.95
194.458	18.09
194.678	40.62
194.897	34.47
195.116	34.47
195.335	83.63
195.555	-76.12
195.774	1.71
195.993	20.14
196.212	67.24
196.432	52.91
196.651	13.99
196.87	7.85
197.089	118.44
197.308	16.04
197.528	54.95
197.747	-10.58
197.966	-10.58
198.185	36.52
198.404	-12.63
198.623	-20.82
198.842	-6.49
199.062	30.38
199.281	79.53
199.5	24.23
199.719	110.25
199.938	63.15
200.157	110.25
200.376	24.23
200.595	44.71
200.814	34.47
201.033	65.19
201.252	36.52
201.471	81.58
201.69	13.99
201.909	126.63
202.128	-4.44
202.347	67.24
202.566	48.81
202.785	9.9
203.004	32.43
203.223	122.54
203.442	-18.77
203.661	32.43
203.879	57
204.098	44.71
204.317	71.34
204.536	18.09
204.755	67.24
204.974	16.04
205.193	34.47
205.411	40.62
205.63	-22.87
205.849	145.06
206.068	89.77
206.287	75.43
206.505	69.29
206.724	108.2
206.943	16.04
207.162	-20.82
207.381	28.33
207.599	-10.58
207.818	91.82
208.037	-6.49
208.255	1.71
208.474	59.05
208.693	-0.34
208.911	-45.4
209.13	44.71
209.349	50.86
209.567	38.57
209.786	83.63
210.005	34.47
210.223	54.95
210.442	52.91
210.661	59.05
210.879	24.23
211.098	46.76
211.316	28.33
211.535	73.39
211.753	32.43
211.972	-6.49
212.191	-2.39
212.409	22.19
212.628	13.99
212.846	93.87
213.065	42.67
213.283	110.25
213.502	75.43
213.72	36.52
213.938	75.43
214.157	-16.73
214.375	9.9
214.594	77.48
214.812	30.38
215.031	44.71
215.249	42.67
215.467	52.91
215.686	-2.39
215.904	151.21
216.122	91.82
216.341	57
216.559	-4.44
216.778	34.47
216.996	-12.63
217.214	50.86
217.432	24.23
217.651	-4.44
217.869	-4.44
218.087	73.39
218.306	57
218.524	42.67
218.742	-12.63
218.96	1.71
219.179	-2.39
219.397	50.86
219.615	42.67
219.833	11.95
220.051	-6.49
220.27	36.52
220.488	73.39
220.706	83.63
220.924	118.44
221.142	83.63
221.36	30.38
221.578	106.15
221.796	-14.68
222.015	22.19
222.233	-4.44
222.451	57
222.669	20.14
222.887	65.19
223.105	7.85
223.323	1.71
223.541	-63.83
223.759	20.14
223.977	-12.63
224.195	40.62
224.413	110.25
224.631	81.58
224.849	69.29
225.067	13.99
225.285	63.15
225.503	104.11
225.721	-20.82
225.939	-20.82
226.157	-12.63
226.375	75.43
226.592	-2.39
226.81	44.71
227.028	18.09
227.246	157.35
227.464	106.15
227.682	59.05
227.9	5.8
228.117	73.39
228.335	-10.58
228.553	40.62
228.771	24.23
228.989	-26.96
229.206	24.23
229.424	102.06
229.642	20.14
229.86	83.63
230.077	-16.73
230.295	54.95
230.513	71.34
230.731	57
230.948	97.96
231.166	16.04
231.384	-43.35
231.601	91.82
231.819	52.91
232.037	13.99
232.254	-14.68
232.472	59.05
232.689	77.48
232.907	106.15
233.125	-65.88
233.342	30.38
233.56	46.76
233.777	3.75
233.995	61.1
234.213	44.71
234.43	20.14
234.648	73.39
234.865	57
235.083	38.57
235.3	69.29
235.518	77.48
235.735	36.52
235.953	50.86
236.17	26.28
236.388	104.11
236.605	34.47
236.822	102.06
237.04	63.15
237.257	57
237.475	-22.87
237.692	48.81
237.909	69.29
238.127	59.05
238.344	-26.96
238.562	71.34
238.779	-41.3
238.996	44.71
239.214	26.28
239.431	85.67
239.648	-6.49
239.865	83.63
240.083	44.71
240.3	1.71
240.517	34.47
240.735	36.52
240.952	-22.87
241.169	120.49
241.386	83.63
241.603	-51.54
241.821	97.96
242.038	50.86
242.255	28.33
242.472	28.33
242.689	85.67
242.907	16.04
243.124	13.99
243.341	28.33
243.558	69.29
243.775	3.75
243.992	-33.11
244.209	65.19
244.426	130.73
244.643	67.24
244.86	85.67
245.078	-0.34
245.295	18.09
245.512	40.62
245.729	40.62
245.946	124.58
246.163	67.24
246.38	24.23
246.597	-0.34
246.814	30.38
247.031	48.81
247.248	143.02
247.464	42.67
247.681	73.39
247.898	85.67
248.115	102.06
248.332	-29.01
248.549	75.43
248.766	110.25
248.983	13.99
249.2	112.3
249.417	65.19
249.633	81.58
249.85	85.67
250.067	3.75
250.284	42.67
250.501	126.63
250.717	59.05
250.934	-0.34
251.151	73.39
251.368	77.48
251.585	75.43
251.801	57
252.018	9.9
252.235	32.43
252.451	-4.44
252.668	71.34
252.885	69.29
253.102	-20.82
253.318	87.72
253.535	67.24
253.752	-20.82
253.968	28.33
254.185	44.71
254.401	85.67
254.618	46.76
254.835	18.09
255.051	-0.34
255.268	61.1
255.484	63.15
255.701	-39.25
255.917	34.47
256.134	11.95
256.351	34.47
256.567	20.14
256.784	34.47
257	-8.53
257.217	91.82
257.433	95.91
257.65	34.47
257.866	112.3
258.082	11.95
258.299	13.99
258.515	5.8
258.732	32.43
258.948	24.23
259.165	5.8
259.381	65.19
259.597	40.62
259.814	36.52
260.03	59.05
260.246	48.81
260.463	5.8
260.679	106.15
260.895	44.71
261.112	30.38
261.328	97.96
261.544	46.76
261.761	77.48
261.977	36.52
262.193	-26.96
262.409	50.86
262.626	77.48
262.842	79.53
263.058	112.3
263.274	67.24
263.49	52.91
263.707	102.06
263.923	93.87
264.139	-24.92
264.355	26.28
264.571	13.99
264.787	44.71
265.004	22.19
265.22	32.43
265.436	54.95
265.652	-20.82
265.868	110.25
266.084	-45.4
266.3	28.33
266.516	-57.68
266.732	50.86
266.948	16.04
267.164	104.11
267.38	145.06
267.596	22.19
267.812	95.91
268.028	40.62
268.244	71.34
268.46	-2.39
268.676	59.05
268.892	40.62
269.108	-6.49
269.324	34.47
269.54	24.23
269.756	85.67
269.972	20.14
270.188	54.95
270.403	20.14
270.619	11.95
270.835	3.75
271.051	151.21
271.267	54.95
271.483	-49.49
271.698	32.43
271.914	9.9
272.13	91.82
272.346	46.76
272.562	61.1
272.777	11.95
272.993	18.09
273.209	42.67
273.425	13.99
273.64	-33.11
273.856	52.91
274.072	67.24
274.287	-16.73
274.503	57
274.719	130.73
274.934	-10.58
275.15	-4.44
275.366	108.2
275.581	-2.39
275.797	104.11
276.012	32.43
276.228	77.48
276.444	36.52
276.659	89.77
276.875	36.52
277.09	48.81
277.306	36.52
277.521	52.91
277.737	38.57
277.952	46.76
278.168	57
278.383	24.23
278.599	116.39
278.814	34.47
279.03	83.63
279.245	93.87
279.461	26.28
279.676	118.44
279.892	-16.73
280.107	-8.53
280.322	48.81
280.538	34.47
280.753	63.15
280.969	85.67
281.184	-18.77
281.399	116.39
281.615	44.71
281.83	18.09
282.045	-22.87
282.26	48.81
282.476	57
282.691	104.11
282.906	91.82
283.122	57
283.337	11.95
283.552	102.06
283.767	-16.73
283.983	-2.39
284.198	20.14
284.413	104.11
284.628	46.76
284.843	87.72
285.058	40.62
285.274	26.28
285.489	50.86
285.704	34.47
285.919	63.15
286.134	50.86
286.349	20.14
286.564	83.63
286.779	20.14
286.995	97.96
287.21	50.86
287.425	-6.49
287.64	28.33
287.855	38.57
288.07	-31.06
288.285	44.71
288.5	81.58
288.715	114.34
288.93	54.95
289.145	-33.11
289.36	124.58
289.575	57
289.79	48.81
290.004	52.91
290.219	100.01
290.434	61.1
290.649	9.9
290.864	44.71
291.079	67.24
291.294	7.85
291.509	44.71
291.724	18.09
291.938	67.24
292.153	7.85
292.368	36.52
292.583	46.76
292.798	11.95
293.012	57
293.227	57
293.442	38.57
293.657	79.53
293.871	36.52
294.086	81.58
294.301	65.19
294.516	79.53
294.73	38.57
294.945	71.34
295.16	26.28
295.374	61.1
295.589	89.77
295.804	30.38
296.018	38.57
296.233	59.05
296.447	69.29
296.662	34.47
296.877	-0.34
297.091	20.14
297.306	-29.01
297.52	57
297.735	5.8
297.949	20.14
298.164	89.77
298.378	1.71
298.593	50.86
298.807	52.91
299.022	83.63
299.236	26.28
299.451	46.76
299.665	32.43
299.88	57
300.094	69.29
300.309	69.29
300.523	114.34
300.737	65.19
300.952	48.81
301.166	120.49
301.381	104.11
301.595	11.95
301.809	73.39
302.024	116.39
302.238	46.76
302.452	87.72
302.667	36.52
302.881	108.2
303.095	20.14
303.309	63.15
303.524	57
303.738	73.39
303.952	5.8
304.166	79.53
304.381	48.81
304.595	11.95
304.809	-16.73
305.023	26.28
305.237	36.52
305.452	32.43
305.666	69.29
305.88	61.1
306.094	122.54
306.308	97.96
306.522	102.06
306.736	26.28
306.95	124.58
307.164	114.34
307.379	24.23
307.593	7.85
307.807	83.63
308.021	52.91
308.235	97.96
308.449	22.19
308.663	81.58
308.877	34.47
309.091	36.52
309.305	136.87
309.519	28.33
309.733	28.33
309.947	3.75
310.161	32.43
310.374	63.15
310.588	145.06
310.802	110.25
311.016	69.29
311.23	44.71
311.444	34.47
311.658	48.81
311.872	83.63
312.085	128.68
312.299	73.39
312.513	26.28
312.727	59.05
312.941	63.15
313.154	34.47
313.368	38.57
313.582	95.91
313.796	-33.11
314.009	77.48
314.223	71.34
314.437	38.57
314.651	44.71
314.864	50.86
315.078	61.1
315.292	52.91
315.505	114.34
315.719	75.43
315.933	54.95
316.146	79.53
316.36	-8.53
316.573	91.82
316.787	63.15
317.001	57
317.214	128.68
317.428	16.04
317.641	-6.49
317.855	81.58
318.068	38.57
318.282	24.23
318.495	126.63
318.709	16.04
318.922	118.44
319.136	73.39
319.349	85.67
319.563	83.63
319.776	104.11
319.99	-18.77
320.203	-4.44
320.417	100.01
320.63	100.01
320.843	112.3
321.057	61.1
321.27	30.38
321.483	50.86
321.697	85.67
321.91	9.9
322.124	11.95
322.337	20.14
322.55	52.91
322.763	67.24
322.977	61.1
323.19	32.43
323.403	122.54
323.617	28.33
323.83	50.86
324.043	61.1
324.256	32.43
324.469	83.63
324.683	20.14
324.896	34.47
325.109	69.29
325.322	1.71
325.535	83.63
325.748	16.04
325.962	40.62
326.175	34.47
326.388	44.71
326.601	63.15
326.814	71.34
327.027	89.77
327.24	100.01
327.453	28.33
327.666	5.8
327.879	122.54
328.092	132.78
328.305	28.33
328.518	65.19
328.731	-8.53
328.944	128.68
329.157	22.19
329.37	104.11
329.583	124.58
329.796	102.06
330.009	24.23
330.222	30.38
330.435	75.43
330.648	122.54
330.861	-0.34
331.073	61.1
331.286	63.15
331.499	67.24
331.712	1.71
331.925	-35.16
332.138	22.19
332.35	52.91
332.563	-26.96
332.776	40.62
332.989	77.48
333.202	38.57
333.414	11.95
333.627	79.53
333.84	77.48
334.053	20.14
334.265	52.91
334.478	26.28
334.691	44.71
334.903	-22.87
335.116	40.62
335.329	71.34
335.541	112.3
335.754	97.96
335.966	50.86
336.179	87.72
336.392	24.23
336.604	7.85
336.817	38.57
337.029	48.81
337.242	22.19
337.454	75.43
337.667	44.71
337.88	63.15
338.092	22.19
338.305	91.82
338.517	50.86
338.729	57
338.942	100.01
339.154	-49.49
339.367	32.43
339.579	52.91
339.792	57
340.004	102.06
340.217	73.39
340.429	22.19
340.641	-22.87
340.854	32.43
341.066	75.43
341.278	67.24
341.491	28.33
341.703	40.62
341.915	52.91
342.128	95.91
342.34	44.71
342.552	75.43
342.764	102.06
342.977	93.87
343.189	77.48
343.401	5.8
343.613	24.23
343.826	69.29
344.038	63.15
344.25	73.39
344.462	69.29
344.674	67.24
344.886	69.29
345.099	32.43
345.311	85.67
345.523	61.1
345.735	20.14
345.947	67.24
346.159	89.77
346.371	26.28
346.583	69.29
346.795	87.72
347.007	-22.87
347.219	34.47
347.431	73.39
347.643	143.02
347.855	36.52
348.067	124.58
348.279	57
348.491	104.11
348.703	67.24
348.915	77.48
349.127	85.67
349.339	40.62
349.551	59.05
349.763	40.62
349.975	50.86
350.187	-2.39
350.399	32.43
350.61	77.48
350.822	63.15
351.034	61.1
351.246	57
351.458	44.71
351.669	85.67
351.881	73.39
352.093	102.06
352.305	11.95
352.517	100.01
352.728	38.57
352.94	13.99
353.152	52.91
353.363	9.9
353.575	198.31
353.787	-14.68
353.999	63.15
354.21	89.77
354.422	65.19
354.633	83.63
354.845	18.09
355.057	122.54
355.268	81.58
355.48	52.91
355.692	26.28
355.903	-37.2
356.115	63.15
356.326	59.05
356.538	3.75
356.749	114.34
356.961	140.97
357.172	61.1
357.384	75.43
357.595	108.2
357.807	83.63
358.018	-0.34
358.23	42.67
358.441	89.77
358.653	102.06
358.864	26.28
359.075	44.71
359.287	-6.49
359.498	77.48
359.709	34.47
359.921	87.72
360.132	-37.2
360.344	77.48
360.555	112.3
360.766	28.33
360.977	77.48
361.189	114.34
361.4	63.15
361.611	59.05
361.823	95.91
362.034	65.19
362.245	57
362.456	69.29
362.667	75.43
362.879	46.76
363.09	81.58
363.301	118.44
363.512	50.86
363.723	61.1
363.935	128.68
364.146	108.2
364.357	71.34
364.568	57
364.779	81.58
364.99	100.01
365.201	54.95
365.412	71.34
365.623	63.15
365.834	112.3
366.045	48.81
366.256	44.71
366.467	7.85
366.678	89.77
366.889	157.35
367.1	42.67
367.311	124.58
367.522	89.77
367.733	118.44
367.944	132.78
368.155	50.86
368.366	102.06
368.577	165.54
368.788	57
368.999	73.39
369.209	61.1
369.42	79.53
369.631	42.67
369.842	100.01
370.053	87.72
370.264	77.48
370.474	143.02
370.685	20.14
370.896	89.77
371.107	54.95
371.317	108.2
371.528	-2.39
371.739	69.29
371.95	34.47
372.16	16.04
372.371	89.77
372.582	108.2
372.792	67.24
373.003	143.02
373.214	79.53
373.424	30.38
373.635	102.06
373.846	85.67
374.056	116.39
374.267	-29.01
374.477	132.78
374.688	149.16
374.898	3.75
375.109	26.28
375.319	50.86
375.53	85.67
375.74	79.53
375.951	63.15
376.161	165.54
376.372	54.95
376.582	-6.49
376.793	9.9
377.003	38.57
377.214	44.71
377.424	50.86
377.635	122.54
377.845	91.82
378.055	93.87
378.266	-12.63
378.476	83.63
378.686	122.54
378.897	1.71
379.107	77.48
379.317	81.58
379.528	59.05
379.738	44.71
379.948	34.47
380.158	57
380.369	50.86
380.579	145.06
380.789	18.09
380.999	128.68
381.21	69.29
381.42	118.44
381.63	91.82
381.84	159.4
382.05	71.34
382.261	153.26
382.471	89.77
382.681	114.34
382.891	143.02
383.101	83.63
383.311	75.43
383.521	100.01
383.731	44.71
383.941	106.15
384.151	85.67
384.361	102.06
384.571	65.19
384.781	108.2
384.991	93.87
385.201	116.39
385.411	36.52
385.621	57
385.831	48.81
386.041	77.48
386.251	75.43
386.461	20.14
386.671	73.39
386.881	116.39
387.091	34.47
387.301	7.85
387.511	69.29
387.72	106.15
387.93	57
388.14	30.38
388.35	81.58
388.56	132.78
388.769	73.39
388.979	85.67
389.189	50.86
389.399	83.63
389.609	120.49
389.818	118.44
390.028	30.38
390.238	116.39
390.447	81.58
390.657	163.5
390.867	77.48
391.076	89.77
391.286	57
391.496	95.91
391.705	100.01
391.915	97.96
392.125	104.11
392.334	83.63
392.544	38.57
392.753	52.91
392.963	91.82
393.172	106.15
393.382	18.09
393.591	155.3
393.801	132.78
394.01	112.3
394.22	120.49
394.429	77.48
394.639	73.39
394.848	93.87
395.058	124.58
395.267	89.77
395.477	63.15
395.686	116.39
395.895	44.71
396.105	102.06
396.314	151.21
396.524	110.25
396.733	40.62
396.942	134.82
397.152	100.01
397.361	83.63
397.57	93.87
397.78	97.96
397.989	63.15
398.198	169.64
398.407	106.15
398.617	106.15
398.826	132.78
399.035	124.58
399.244	140.97
399.453	143.02
399.663	95.91
399.872	69.29
400.081	153.26
400.29	237.22
400.499	75.43
400.708	132.78
400.917	143.02
401.127	194.22
401.336	120.49
401.545	173.74
401.754	167.59
401.963	161.45
402.172	118.44
402.381	106.15
402.59	206.5
402.799	167.59
403.008	149.16
403.217	165.54
403.426	163.5
403.635	167.59
403.844	159.4
404.053	222.89
404.262	171.69
404.471	216.74
404.68	171.69
404.888	194.22
405.097	220.84
405.306	183.98
405.515	243.37
405.724	288.42
405.933	208.55
406.142	263.85
406.35	208.55
406.559	278.18
406.768	269.99
406.977	274.09
407.185	231.08
407.394	226.98
407.603	251.56
407.812	306.85
408.02	300.71
408.229	317.09
408.438	290.47
408.646	220.84
408.855	280.23
409.064	360.1
409.272	296.61
409.481	378.53
409.69	306.85
409.898	405.16
410.107	331.43
410.315	341.67
410.524	439.97
410.733	413.35
410.941	413.35
411.15	437.92
411.358	579.23
411.567	485.03
411.775	493.22
411.984	444.07
412.192	485.03
412.401	579.23
412.609	546.47
412.818	538.27
413.026	505.51
413.234	540.32
413.443	601.76
413.651	601.76
413.86	597.67
414.068	691.87
414.276	771.74
414.485	720.54
414.693	724.64
414.901	812.7
415.11	784.03
415.318	790.17
415.526	892.57
415.734	894.62
415.943	775.84
416.151	1035.93
416.359	943.77
416.567	1005.21
416.776	1021.6
416.984	1080.99
417.192	1087.13
417.4	1224.34
417.608	1117.85
417.817	1277.59
418.025	1396.37
418.233	1259.16
418.441	1310.36
418.649	1369.75
418.857	1390.23
419.065	1511.06
419.273	1455.76
419.481	1619.6
419.689	1678.99
419.897	1689.23
420.105	1789.58
420.313	1742.48
420.521	1879.69
420.729	1902.22
420.937	1902.22
421.145	2027.15
421.353	2154.12
421.561	2078.35
421.769	2328.2
421.977	2285.19
422.185	2401.93
422.393	2555.52
422.601	2637.44
422.809	2489.99
423.017	2696.83
423.224	2862.72
423.432	2860.67
423.64	2954.88
423.848	3157.63
424.056	3032.7
424.263	3389.05
424.471	3247.74
424.679	3337.85
424.887	3577.46
425.094	3712.63
425.302	3638.9
425.51	3763.83
425.718	3894.9
425.925	4048.49
426.133	4085.36
426.341	4292.2
426.548	4497
426.756	4410.98
426.964	4406.89
427.171	4820.58
427.379	5121.63
427.586	4974.17
427.794	5121.63
428.001	5279.32
428.209	5662.29
428.417	5537.37
428.624	5981.78
428.832	6016.59
429.039	6051.41
429.247	5783.12
429.454	6313.55
429.662	6962.75
429.869	6518.34
430.076	6966.85
430.284	6794.82
430.491	6909.51
430.699	7411.26
430.906	7401.02
431.114	7474.74
431.321	7777.84
431.528	7968.31
431.736	8406.57
431.943	8797.73
432.15	8617.51
432.358	8678.95
432.565	9137.7
432.772	9039.39
432.979	9461.27
433.187	9704.98
433.394	9762.33
433.601	10464.78
433.808	10415.63
434.016	10444.3
434.223	10802.69
434.43	11435.52
434.637	11312.64
434.844	11783.67
435.052	12221.94
435.259	12197.36
435.466	12264.94
435.673	11951.6
435.88	12854.76
436.087	13559.26
436.294	13610.46
436.501	13022.69
436.708	13241.82
436.915	13895.13
437.122	14601.68
437.329	14687.69
437.537	14908.87
437.743	15275.46
437.95	15197.63
438.157	15879.61
438.364	16461.23
438.571	16180.66
438.778	16645.55
438.985	18097.56
439.192	17171.88
439.399	17878.43
439.606	17323.43
439.813	18423.19
440.02	19578.24
440.227	19178.89
440.433	18955.66
440.64	19774.84
440.847	19580.29
441.054	20118.9
441.261	21327.21
441.467	21312.87
441.674	21529.95
441.881	22396.24
442.088	22144.34
442.294	22154.58
442.501	22644.05
442.708	23522.63
442.914	23971.13
443.121	24745.27
443.328	24474.93
443.534	25853.22
443.741	25244.97
443.948	25068.84
444.154	26643.73
444.361	26713.36
444.568	26838.29
444.774	26705.17
444.981	27147.53
445.187	27831.55
445.394	29211.88
445.6	28472.57
445.807	31407.31
446.013	30051.55
446.22	30158.05
446.426	31497.42
446.633	31845.57
446.839	32951.48
447.046	31614.15
447.252	33563.82
447.459	33764.52
447.665	33313.97
447.871	34882.71
448.078	36138.12
448.284	34190.5
448.491	35204.24
448.697	36820.09
448.903	37280.88
449.11	37344.37
449.316	36787.32
449.522	37252.21
449.728	38501.47
449.935	39048.28
450.141	38304.87
450.347	39840.84
450.553	37745.77
450.76	38591.58
450.966	39634
451.172	39613.52
451.378	40184.9
451.584	39482.45
451.791	40506.43
451.997	40551.49
452.203	40977.47
452.409	40809.53
452.615	40653.89
452.821	38939.74
453.027	39203.92
453.233	41014.33
453.44	39388.24
453.646	39814.22
453.852	40041.54
454.058	40787
454.264	39119.96
454.47	40115.27
454.676	39076.95
454.882	40141.89
455.088	36861.05
455.294	37414
455.5	37655.66
455.705	38059.11
455.911	37028.98
456.117	36072.58
456.323	35628.17
456.529	33295.53
456.735	35116.18
456.941	33965.22
457.147	33518.76
457.352	32382.14
457.558	31980.74
457.764	32529.59
457.97	31591.62
458.176	30958.8
458.381	31036.63
458.587	29420.78
458.793	29439.21
458.999	27960.58
459.204	29834.47
459.41	29197.55
459.616	27231.5
459.821	26893.58
460.027	27114.76
460.233	26590.48
460.438	25232.68
460.644	25605.41
460.85	24583.48
461.055	23987.52
461.261	24126.78
461.466	21955.93
461.672	21300.58
461.878	23143.75
462.083	21609.82
462.289	21003.63
462.494	20974.95
462.7	20235.64
462.905	19406.21
463.111	20135.29
463.316	20247.93
463.522	19770.75
463.727	19938.68
463.932	19713.41
464.138	19549.57
464.343	19772.8
464.549	19002.76
464.754	19787.13
464.959	19709.31
465.165	19426.69
465.37	18769.29
465.575	18363.79
465.781	18810.25
465.986	19129.73
466.191	18283.92
466.397	17878.43
466.602	16965.03
466.807	17593.76
467.012	17841.56
467.218	17999.26
