Data from USB4F104151__139__11-07-58-373.txt Node

Date: Wed Mar 12 11:07:58 EDT 2025
User: louis
Spectrometer: USB4F10415
Trigger mode: 4
Integration Time (sec): 2.000000E-2
Scans to average: 1
Electric dark correction enabled: true
Nonlinearity correction enabled: false
Boxcar width: 0
XAxis mode: Wavelengths
Number of Pixels in Spectrum: 3648
>>>>>Begin Spectral Data<<<<<
178.204	-19.29
178.424	-19.29
178.644	-19.29
178.864	-170.83
179.084	-129.88
179.304	5.29
179.524	-19.29
179.744	9.39
179.964	-17.24
180.184	33.96
180.404	-35.67
180.624	27.82
180.844	25.77
181.064	-25.43
181.283	17.58
181.503	-9.05
181.723	-13.14
181.943	7.34
182.163	46.25
182.383	21.67
182.602	-11.09
182.822	50.35
183.042	42.15
183.262	-19.29
183.482	17.58
183.701	-7
183.921	11.43
184.141	64.68
184.361	23.72
184.58	-9.05
184.8	-9.05
185.02	23.72
185.239	-9.05
185.459	9.39
185.679	122.02
185.898	3.24
186.118	13.48
186.338	62.63
186.557	21.67
186.777	-41.81
186.997	54.44
187.216	-39.76
187.436	29.87
187.655	25.77
187.875	17.58
188.095	76.97
188.314	15.53
188.534	-31.57
188.753	-84.82
188.973	25.77
189.192	21.67
189.412	-19.29
189.631	-33.62
189.851	1.19
190.07	27.82
190.29	36.01
190.509	11.43
190.729	-0.85
190.948	7.34
191.168	128.17
191.387	27.82
191.607	31.91
191.826	-13.14
192.045	-4.95
192.265	60.59
192.484	-25.43
192.704	-7
192.923	-19.29
193.142	21.67
193.362	38.06
193.581	54.44
193.8	-4.95
194.02	42.15
194.239	-41.81
194.458	-23.38
194.678	-23.38
194.897	-58.2
195.116	29.87
195.335	-68.44
195.555	-4.95
195.774	11.43
195.993	64.68
196.212	-37.72
196.432	-4.95
196.651	-4.95
196.87	68.78
197.089	107.69
197.308	-4.95
197.528	17.58
197.747	19.63
197.966	27.82
198.185	-0.85
198.404	40.11
198.623	23.72
198.842	-41.81
199.062	33.96
199.281	42.15
199.5	36.01
199.719	31.91
199.938	15.53
200.157	-43.86
200.376	19.63
200.595	74.92
200.814	27.82
201.033	-11.09
201.252	7.34
201.471	25.77
201.69	7.34
201.909	23.72
202.128	117.93
202.347	-31.57
202.566	29.87
202.785	-21.33
203.004	-13.14
203.223	76.97
203.442	56.49
203.661	44.2
203.879	-21.33
204.098	40.11
204.317	-31.57
204.536	25.77
204.755	1.19
204.974	27.82
205.193	36.01
205.411	-4.95
205.63	23.72
205.849	31.91
206.068	33.96
206.287	-13.14
206.505	7.34
206.724	-21.33
206.943	46.25
207.162	-2.9
207.381	13.48
207.599	23.72
207.818	9.39
208.037	56.49
208.255	-39.76
208.474	-29.52
208.693	5.29
208.911	40.11
209.13	3.24
209.349	52.39
209.567	42.15
209.786	-11.09
210.005	40.11
210.223	-25.43
210.442	7.34
210.661	72.87
210.879	40.11
211.098	36.01
211.316	-7
211.535	13.48
211.753	27.82
211.972	1.19
212.191	33.96
212.409	3.24
212.628	44.2
212.846	-43.86
213.065	68.78
213.283	85.16
213.502	-7
213.72	-2.9
213.938	3.24
214.157	27.82
214.375	-0.85
214.594	-47.96
214.812	11.43
215.031	40.11
215.249	42.15
215.467	25.77
215.686	52.39
215.904	50.35
216.122	11.43
216.341	101.55
216.559	-19.29
216.778	40.11
216.996	15.53
217.214	1.19
217.432	50.35
217.651	23.72
217.869	115.88
218.087	-15.19
218.306	21.67
218.524	-15.19
218.742	1.19
218.96	3.24
219.179	42.15
219.397	62.63
219.615	89.26
219.833	44.2
220.051	-29.52
220.27	11.43
220.488	9.39
220.706	17.58
220.924	25.77
221.142	52.39
221.36	9.39
221.578	-4.95
221.796	64.68
222.015	-62.29
222.233	7.34
222.451	-27.48
222.669	-45.91
222.887	-9.05
223.105	1.19
223.323	52.39
223.541	-0.85
223.759	58.54
223.977	46.25
224.195	-2.9
224.413	-41.81
224.631	3.24
224.849	38.06
225.067	68.78
225.285	-86.87
225.503	48.3
225.721	-84.82
225.939	52.39
226.157	33.96
226.375	89.26
226.592	27.82
226.81	-2.9
227.028	68.78
227.246	36.01
227.464	-0.85
227.682	56.49
227.9	29.87
228.117	-4.95
228.335	-25.43
228.553	23.72
228.771	31.91
228.989	42.15
229.206	76.97
229.424	-17.24
229.642	-17.24
229.86	25.77
230.077	13.48
230.295	1.19
230.513	64.68
230.731	-9.05
230.948	38.06
231.166	52.39
231.384	-0.85
231.601	38.06
231.819	48.3
232.037	-9.05
232.254	-27.48
232.472	17.58
232.689	-35.67
232.907	89.26
233.125	13.48
233.342	40.11
233.56	3.24
233.777	11.43
233.995	13.48
234.213	58.54
234.43	29.87
234.648	29.87
234.865	66.73
235.083	-0.85
235.3	52.39
235.518	-11.09
235.735	60.59
235.953	-31.57
236.17	44.2
236.388	-0.85
236.605	29.87
236.822	38.06
237.04	27.82
237.257	9.39
237.475	-11.09
237.692	72.87
237.909	27.82
238.127	5.29
238.344	60.59
238.562	36.01
238.779	-62.29
238.996	19.63
239.214	33.96
239.431	81.07
239.648	9.39
239.865	31.91
240.083	17.58
240.3	-17.24
240.517	7.34
240.735	19.63
240.952	9.39
241.169	9.39
241.386	1.19
241.603	11.43
241.821	36.01
242.038	-0.85
242.255	-7
242.472	-15.19
242.689	-7
242.907	13.48
243.124	64.68
243.341	-9.05
243.558	-17.24
243.775	62.63
243.992	44.2
244.209	38.06
244.426	17.58
244.643	25.77
244.86	19.63
245.078	-15.19
245.295	60.59
245.512	-19.29
245.729	21.67
245.946	15.53
246.163	-58.2
246.38	25.77
246.597	-4.95
246.814	83.11
247.031	56.49
247.248	46.25
247.464	5.29
247.681	44.2
247.898	40.11
248.115	31.91
248.332	23.72
248.549	93.35
248.766	19.63
248.983	68.78
249.2	9.39
249.417	31.91
249.633	70.83
249.85	21.67
250.067	-17.24
250.284	-23.38
250.501	83.11
250.717	85.16
250.934	-4.95
251.151	-4.95
251.368	31.91
251.585	-4.95
251.801	-0.85
252.018	-0.85
252.235	-33.62
252.451	-4.95
252.668	3.24
252.885	-9.05
253.102	93.35
253.318	-31.57
253.535	-23.38
253.752	36.01
253.968	70.83
254.185	19.63
254.401	-19.29
254.618	23.72
254.835	-11.09
255.051	-13.14
255.268	36.01
255.484	56.49
255.701	38.06
255.917	17.58
256.134	19.63
256.351	38.06
256.567	44.2
256.784	27.82
257	-2.9
257.217	-2.9
257.433	31.91
257.65	5.29
257.866	70.83
258.082	-4.95
258.299	33.96
258.515	5.29
258.732	27.82
258.948	-4.95
259.165	54.44
259.381	-70.48
259.597	9.39
259.814	60.59
260.03	-37.72
260.246	11.43
260.463	21.67
260.679	17.58
260.895	19.63
261.112	-50
261.328	-74.58
261.544	-23.38
261.761	-4.95
261.977	33.96
262.193	-17.24
262.409	62.63
262.626	-25.43
262.842	36.01
263.058	38.06
263.274	25.77
263.49	64.68
263.707	5.29
263.923	99.5
264.139	19.63
264.355	38.06
264.571	38.06
264.787	97.45
265.004	25.77
265.22	64.68
265.436	-70.48
265.652	25.77
265.868	42.15
266.084	-15.19
266.3	48.3
266.516	23.72
266.732	19.63
266.948	11.43
267.164	-39.76
267.38	31.91
267.596	83.11
267.812	-58.2
268.028	74.92
268.244	52.39
268.46	27.82
268.676	25.77
268.892	-15.19
269.108	11.43
269.324	-58.2
269.54	48.3
269.756	5.29
269.972	33.96
270.188	23.72
270.403	-37.72
270.619	54.44
270.835	-0.85
271.051	-41.81
271.267	3.24
271.483	52.39
271.698	-15.19
271.914	70.83
272.13	25.77
272.346	-4.95
272.562	-25.43
272.777	50.35
272.993	5.29
273.209	-21.33
273.425	54.44
273.64	23.72
273.856	-37.72
274.072	-56.15
274.287	-47.96
274.503	19.63
274.719	42.15
274.934	19.63
275.15	11.43
275.366	29.87
275.581	-0.85
275.797	25.77
276.012	74.92
276.228	-13.14
276.444	56.49
276.659	-0.85
276.875	-4.95
277.09	-27.48
277.306	1.19
277.521	50.35
277.737	-25.43
277.952	-0.85
278.168	42.15
278.383	31.91
278.599	7.34
278.814	58.54
279.03	17.58
279.245	58.54
279.461	-31.57
279.676	21.67
279.892	54.44
280.107	23.72
280.322	-25.43
280.538	64.68
280.753	-39.76
280.969	1.19
281.184	36.01
281.399	27.82
281.615	54.44
281.83	42.15
282.045	-4.95
282.26	-11.09
282.476	-37.72
282.691	27.82
282.906	56.49
283.122	17.58
283.337	-37.72
283.552	48.3
283.767	36.01
283.983	54.44
284.198	-41.81
284.413	56.49
284.628	46.25
284.843	50.35
285.058	66.73
285.274	36.01
285.489	60.59
285.704	-39.76
285.919	-4.95
286.134	95.4
286.349	5.29
286.564	56.49
286.779	31.91
286.995	17.58
287.21	-23.38
287.425	36.01
287.64	60.59
287.855	1.19
288.07	-62.29
288.285	52.39
288.5	72.87
288.715	54.44
288.93	21.67
289.145	-25.43
289.36	42.15
289.575	25.77
289.79	15.53
290.004	9.39
290.219	54.44
290.434	-35.67
290.649	58.54
290.864	44.2
291.079	36.01
291.294	27.82
291.509	-13.14
291.724	25.77
291.938	-29.52
292.153	-33.62
292.368	-7
292.583	68.78
292.798	-13.14
293.012	9.39
293.227	36.01
293.442	9.39
293.657	7.34
293.871	17.58
294.086	-0.85
294.301	38.06
294.516	68.78
294.73	29.87
294.945	1.19
295.16	46.25
295.374	25.77
295.589	79.02
295.804	70.83
296.018	7.34
296.233	60.59
296.447	60.59
296.662	5.29
296.877	5.29
297.091	33.96
297.306	38.06
297.52	66.73
297.735	33.96
297.949	52.39
298.164	36.01
298.378	7.34
298.593	13.48
298.807	-13.14
299.022	-60.24
299.236	107.69
299.451	52.39
299.665	58.54
299.88	-29.52
300.094	-9.05
300.309	46.25
300.523	1.19
300.737	17.58
300.952	-60.24
301.166	15.53
301.381	3.24
301.595	-60.24
301.809	48.3
302.024	46.25
302.238	-4.95
302.452	-4.95
302.667	48.3
302.881	93.35
303.095	64.68
303.309	7.34
303.524	-0.85
303.738	3.24
303.952	19.63
304.166	95.4
304.381	9.39
304.595	13.48
304.809	-13.14
305.023	40.11
305.237	11.43
305.452	-13.14
305.666	23.72
305.88	31.91
306.094	-9.05
306.308	7.34
306.522	-11.09
306.736	27.82
306.95	19.63
307.164	-15.19
307.379	17.58
307.593	50.35
307.807	42.15
308.021	87.21
308.235	-9.05
308.449	23.72
308.663	83.11
308.877	81.07
309.091	44.2
309.305	40.11
309.519	-0.85
309.733	60.59
309.947	1.19
310.161	89.26
310.374	-0.85
310.588	99.5
310.802	13.48
311.016	-4.95
311.23	38.06
311.444	-50
311.658	42.15
311.872	15.53
312.085	-39.76
312.299	62.63
312.513	11.43
312.727	40.11
312.941	52.39
313.154	-4.95
313.368	42.15
313.582	-27.48
313.796	11.43
314.009	56.49
314.223	40.11
314.437	-11.09
314.651	-23.38
314.864	58.54
315.078	40.11
315.292	-19.29
315.505	7.34
315.719	-15.19
315.933	5.29
316.146	36.01
316.36	3.24
316.573	-9.05
316.787	52.39
317.001	19.63
317.214	-35.67
317.428	13.48
317.641	-29.52
317.855	-35.67
318.068	15.53
318.282	33.96
318.495	40.11
318.709	89.26
318.922	40.11
319.136	101.55
319.349	19.63
319.563	-15.19
319.776	44.2
319.99	52.39
320.203	76.97
320.417	-19.29
320.63	11.43
320.843	27.82
321.057	25.77
321.27	36.01
321.483	7.34
321.697	38.06
321.91	36.01
322.124	70.83
322.337	-21.33
322.55	21.67
322.763	15.53
322.977	11.43
323.19	9.39
323.403	52.39
323.617	-2.9
323.83	13.48
324.043	-11.09
324.256	-25.43
324.469	-13.14
324.683	48.3
324.896	-7
325.109	72.87
325.322	38.06
325.535	29.87
325.748	36.01
325.962	-25.43
326.175	52.39
326.388	3.24
326.601	23.72
326.814	60.59
327.027	-33.62
327.24	87.21
327.453	-66.39
327.666	46.25
327.879	93.35
328.092	19.63
328.305	27.82
328.518	3.24
328.731	17.58
328.944	-23.38
329.157	122.02
329.37	29.87
329.583	15.53
329.796	70.83
330.009	-70.48
330.222	74.92
330.435	-15.19
330.648	1.19
330.861	81.07
331.073	23.72
331.286	52.39
331.499	101.55
331.712	15.53
331.925	29.87
332.138	-7
332.35	3.24
332.563	46.25
332.776	-2.9
332.989	36.01
333.202	27.82
333.414	17.58
333.627	11.43
333.84	52.39
334.053	27.82
334.265	115.88
334.478	72.87
334.691	11.43
334.903	-41.81
335.116	38.06
335.329	58.54
335.541	60.59
335.754	89.26
335.966	48.3
336.179	31.91
336.392	-7
336.604	60.59
336.817	81.07
337.029	74.92
337.242	21.67
337.454	62.63
337.667	3.24
337.88	124.07
338.092	7.34
338.305	17.58
338.517	48.3
338.729	68.78
338.942	56.49
339.154	15.53
339.367	-2.9
339.579	23.72
339.792	-19.29
340.004	19.63
340.217	25.77
340.429	1.19
340.641	13.48
340.854	64.68
341.066	48.3
341.278	-41.81
341.491	44.2
341.703	-15.19
341.915	1.19
342.128	-31.57
342.34	48.3
342.552	-13.14
342.764	99.5
342.977	-13.14
343.189	19.63
343.401	33.96
343.613	1.19
343.826	44.2
344.038	3.24
344.25	74.92
344.462	7.34
344.674	33.96
344.886	19.63
345.099	33.96
345.311	79.02
345.523	-0.85
345.735	-37.72
345.947	-7
346.159	33.96
346.371	-19.29
346.583	7.34
346.795	70.83
347.007	-58.2
347.219	54.44
347.431	101.55
347.643	72.87
347.855	3.24
348.067	-2.9
348.279	25.77
348.491	-0.85
348.703	64.68
348.915	-31.57
349.127	-9.05
349.339	23.72
349.551	9.39
349.763	27.82
349.975	21.67
350.187	19.63
350.399	87.21
350.61	58.54
350.822	1.19
351.034	62.63
351.246	-0.85
351.458	31.91
351.669	21.67
351.881	11.43
352.093	46.25
352.305	79.02
352.517	70.83
352.728	70.83
352.94	9.39
353.152	23.72
353.363	-41.81
353.575	29.87
353.787	7.34
353.999	132.26
354.21	72.87
354.422	31.91
354.633	72.87
354.845	25.77
355.057	-13.14
355.268	13.48
355.48	72.87
355.692	70.83
355.903	-35.67
356.115	-21.33
356.326	-45.91
356.538	81.07
356.749	54.44
356.961	-15.19
357.172	44.2
357.384	7.34
357.595	27.82
357.807	36.01
358.018	68.78
358.23	17.58
358.441	132.26
358.653	31.91
358.864	-45.91
359.075	44.2
359.287	54.44
359.498	44.2
359.709	81.07
359.921	29.87
360.132	66.73
360.344	-2.9
360.555	38.06
360.766	25.77
360.977	48.3
361.189	52.39
361.4	-9.05
361.611	87.21
361.823	103.59
362.034	50.35
362.245	-27.48
362.456	21.67
362.667	46.25
362.879	-35.67
363.09	58.54
363.301	27.82
363.512	81.07
363.723	-35.67
363.935	5.29
364.146	52.39
364.357	-25.43
364.568	54.44
364.779	48.3
364.99	1.19
365.201	56.49
365.412	68.78
365.623	-39.76
365.834	50.35
366.045	105.64
366.256	33.96
366.467	42.15
366.678	68.78
366.889	-4.95
367.1	11.43
367.311	33.96
367.522	-0.85
367.733	-0.85
367.944	58.54
368.155	38.06
368.366	66.73
368.577	-2.9
368.788	19.63
368.999	-2.9
369.209	50.35
369.42	50.35
369.631	17.58
369.842	76.97
370.053	19.63
370.264	72.87
370.474	-9.05
370.685	36.01
370.896	38.06
371.107	21.67
371.317	19.63
371.528	83.11
371.739	38.06
371.95	15.53
372.16	72.87
372.371	42.15
372.582	23.72
372.792	33.96
373.003	25.77
373.214	17.58
373.424	29.87
373.635	46.25
373.846	27.82
374.056	19.63
374.267	79.02
374.477	81.07
374.688	38.06
374.898	21.67
375.109	-29.52
375.319	70.83
375.53	36.01
375.74	-62.29
375.951	25.77
376.161	79.02
376.372	27.82
376.582	48.3
376.793	130.22
377.003	70.83
377.214	-13.14
377.424	134.31
377.635	68.78
377.845	66.73
378.055	29.87
378.266	23.72
378.476	23.72
378.686	87.21
378.897	52.39
379.107	-2.9
379.317	13.48
379.528	13.48
379.738	-19.29
379.948	48.3
380.158	93.35
380.369	-41.81
380.579	64.68
380.789	36.01
380.999	89.26
381.21	15.53
381.42	66.73
381.63	46.25
381.84	17.58
382.05	76.97
382.261	74.92
382.471	21.67
382.681	46.25
382.891	66.73
383.101	60.59
383.311	44.2
383.521	44.2
383.731	-21.33
383.941	40.11
384.151	66.73
384.361	21.67
384.571	91.31
384.781	-9.05
384.991	60.59
385.201	36.01
385.411	54.44
385.621	44.2
385.831	54.44
386.041	44.2
386.251	19.63
386.461	-11.09
386.671	83.11
386.881	91.31
387.091	54.44
387.301	50.35
387.511	27.82
387.72	25.77
387.93	5.29
388.14	40.11
388.35	62.63
388.56	27.82
388.769	62.63
388.979	54.44
389.189	66.73
389.399	33.96
389.609	-25.43
389.818	-43.86
390.028	-9.05
390.238	105.64
390.447	13.48
390.657	101.55
390.867	54.44
391.076	52.39
391.286	42.15
391.496	36.01
391.705	25.77
391.915	23.72
392.125	58.54
392.334	1.19
392.544	91.31
392.753	52.39
392.963	27.82
393.172	60.59
393.382	50.35
393.591	103.59
393.801	52.39
394.01	60.59
394.22	54.44
394.429	25.77
394.639	33.96
394.848	85.16
395.058	44.2
395.267	105.64
395.477	25.77
395.686	50.35
395.895	185.51
396.105	99.5
396.314	68.78
396.524	124.07
396.733	99.5
396.942	52.39
397.152	93.35
397.361	109.74
397.57	52.39
397.78	85.16
397.989	52.39
398.198	144.55
398.407	93.35
398.617	103.59
398.826	140.46
399.035	91.31
399.244	105.64
399.453	11.43
399.663	64.68
399.872	81.07
400.081	66.73
400.29	83.11
400.499	66.73
400.708	109.74
400.917	36.01
401.127	50.35
401.336	54.44
401.545	150.7
401.754	36.01
401.963	83.11
402.172	44.2
402.381	107.69
402.59	68.78
402.799	109.74
403.008	103.59
403.217	138.41
403.426	119.98
403.635	72.87
403.844	124.07
404.053	72.87
404.262	109.74
404.471	89.26
404.68	142.5
404.888	109.74
405.097	85.16
405.306	111.78
405.515	115.88
405.724	64.68
405.933	107.69
406.142	142.5
406.35	152.74
406.559	107.69
406.768	138.41
406.977	191.66
407.185	105.64
407.394	181.42
407.603	193.7
407.812	187.56
408.02	193.7
408.229	167.08
408.438	265.38
408.646	208.04
408.855	228.52
409.064	244.9
409.272	218.28
409.481	228.52
409.69	208.04
409.898	210.09
410.107	304.29
410.315	251.05
410.524	232.62
410.733	246.95
410.941	261.29
411.15	310.44
411.358	253.09
411.567	273.57
411.775	314.53
411.984	363.69
412.192	402.6
412.401	392.36
412.609	382.12
412.818	404.64
413.026	347.3
413.234	394.4
413.443	328.87
413.651	439.46
413.86	429.22
414.068	396.45
414.276	390.31
414.485	414.88
414.693	496.8
414.901	535.71
415.11	601.25
415.318	515.23
415.526	543.91
415.734	550.05
415.943	580.77
416.151	613.54
416.359	576.67
416.567	666.78
416.776	666.78
416.984	756.9
417.192	746.66
417.4	826.53
417.608	765.09
417.817	865.44
418.025	834.72
418.233	873.63
418.441	904.35
418.649	967.84
418.857	988.32
419.065	961.69
419.273	978.08
419.481	890.01
419.689	998.56
419.897	1160.34
420.105	1186.97
420.313	1236.12
420.521	1133.72
420.729	1242.26
420.937	1272.98
421.145	1422.48
421.353	1387.67
421.561	1528.98
421.769	1582.23
421.977	1518.74
422.185	1539.22
422.393	1627.28
422.601	1694.86
422.809	1827.98
423.017	1887.37
423.224	1840.27
423.432	1903.76
423.64	1973.39
423.848	2143.37
424.056	2055.31
424.263	2139.27
424.471	2262.15
424.679	2237.58
424.887	2475.14
425.094	2364.55
425.302	2413.7
425.51	2477.19
425.718	2595.97
425.925	2675.84
426.133	2686.08
426.341	2948.22
426.548	3038.33
426.756	3015.8
426.964	2933.89
427.171	3196.03
427.379	3308.66
427.586	3390.58
427.794	3488.89
428.001	3615.86
428.209	3828.85
428.417	3552.37
428.624	3964.01
428.832	4099.18
429.039	4088.94
429.247	3972.21
429.454	4478.05
429.662	4623.46
429.869	4367.46
430.076	4678.76
430.284	4512.87
430.491	4904.03
430.699	5008.48
430.906	5213.28
431.114	4973.66
431.321	5287
431.528	5459.03
431.736	5690.45
431.943	5960.78
432.15	5827.67
432.358	5772.37
432.565	6014.03
432.772	6009.93
432.979	6458.44
433.187	6390.86
433.394	6665.28
433.601	7009.34
433.808	7136.32
434.016	7052.35
434.223	7334.97
434.43	7797.81
434.637	7615.54
434.844	8117.29
435.052	8244.27
435.259	8166.45
435.466	8297.52
435.673	8338.48
435.88	8817.7
436.087	9327.64
436.294	9237.53
436.501	8965.15
436.708	9194.53
436.915	9514.01
437.122	10128.4
437.329	10073.1
437.537	10226.7
437.743	10386.44
437.95	10152.98
438.157	10908.68
438.364	11439.1
438.571	11156.48
438.778	11379.71
438.985	12424.17
439.192	11934.71
439.399	12454.89
439.606	12037.11
439.813	12671.98
440.02	13454.3
440.227	13177.83
440.433	13063.14
440.64	13650.91
440.847	13456.35
441.054	13831.13
441.261	14547.92
441.467	14476.24
441.674	14617.55
441.881	15233.99
442.088	14873.54
442.294	14896.07
442.501	15514.56
442.708	15836.09
442.914	16421.81
443.121	16911.27
443.328	16692.14
443.534	17886.11
443.741	17060.77
443.948	16966.57
444.154	18426.77
444.361	18051.99
444.568	18312.08
444.774	18074.52
444.981	18512.78
445.187	19069.83
445.394	20104.06
445.6	19602.3
445.807	21787.49
446.013	20491.12
446.22	21068.65
446.426	21914.46
446.633	22051.67
446.839	22631.25
447.046	21562.21
447.252	22936.4
447.459	23087.95
447.665	23042.89
447.871	23825.22
448.078	24967.98
448.284	23915.33
448.491	24517.43
448.697	25637.67
448.903	25719.59
449.11	25836.32
449.316	25486.12
449.522	25785.12
449.728	26589.97
449.935	26723.09
450.141	26694.42
450.347	27069.2
450.553	26897.17
450.76	27226.89
450.966	27734.79
451.172	27466.5
451.378	27900.67
451.584	26972.94
451.791	28422.9
451.997	28205.82
452.203	28332.79
452.409	28277.5
452.615	28666.61
452.821	27368.2
453.027	27194.12
453.233	28398.33
453.44	27210.51
453.646	27499.27
453.852	27867.91
454.058	28072.7
454.264	26948.37
454.47	27808.51
454.676	27230.99
454.882	27898.62
455.088	25731.87
455.294	25592.61
455.5	26243.87
455.705	26594.07
455.911	25410.34
456.117	25109.29
456.323	24771.38
456.529	23368.52
456.735	24304.44
456.941	23667.52
457.147	23003.98
457.352	22924.11
457.558	22149.98
457.764	22795.09
457.97	21939.04
458.176	21121.9
458.381	21521.25
458.587	20315
458.793	20224.89
458.999	19739.52
459.204	20837.23
459.41	20317.04
459.616	18836.36
459.821	18903.95
460.027	19018.63
460.233	18537.36
460.438	17429.41
460.644	18121.62
460.85	16905.13
461.055	16718.76
461.261	16651.18
461.466	15623.1
461.672	15094.72
461.878	16018.36
462.083	15104.96
462.289	14877.64
462.494	14549.96
462.7	13886.42
462.905	13605.85
463.111	14117.84
463.316	14105.56
463.522	13865.94
463.727	13775.83
463.932	13794.26
464.138	13517.79
464.343	13650.91
464.549	13370.33
464.754	13841.37
464.959	13497.31
465.165	13571.04
465.37	12964.84
465.575	12297.2
465.781	13325.28
465.986	13102.05
466.191	12854.25
466.397	12491.76
466.602	11985.91
466.807	12381.17
467.012	12803.05
467.218	12348.4
467.423	11969.52
467.628	12372.97
467.833	12874.73
468.038	12268.53
468.244	12006.39
