Data from USB4F104151__135__11-07-49-335.txt Node

Date: Wed Mar 12 11:07:49 EDT 2025
User: louis
Spectrometer: USB4F10415
Trigger mode: 4
Integration Time (sec): 2.000000E-2
Scans to average: 1
Electric dark correction enabled: true
Nonlinearity correction enabled: false
Boxcar width: 0
XAxis mode: Wavelengths
Number of Pixels in Spectrum: 3648
>>>>>Begin Spectral Data<<<<<
178.204	-80.04
178.424	-80.04
178.644	-80.04
178.864	-0.17
179.084	-135.34
179.304	-41.13
179.524	26.45
179.744	-51.37
179.964	20.31
180.184	53.08
180.404	-0.17
180.624	24.4
180.844	51.03
181.064	3.93
181.283	-34.99
181.503	-104.62
181.723	53.08
181.943	-22.7
182.163	-20.65
182.383	-2.22
182.602	16.21
182.822	55.12
183.042	-14.51
183.262	12.12
183.482	12.12
183.701	-71.85
183.921	22.36
184.141	-49.32
184.361	48.98
184.58	8.02
184.8	22.36
185.02	38.74
185.239	-20.65
185.459	-65.71
185.679	59.22
185.898	-32.94
186.118	51.03
186.338	24.4
186.557	16.21
186.777	36.69
186.997	3.93
187.216	30.55
187.436	44.88
187.655	18.26
187.875	-14.51
188.095	-45.23
188.314	1.88
188.534	14.17
188.753	30.55
188.973	5.97
189.192	48.98
189.412	-32.94
189.631	-8.36
189.851	61.27
190.07	46.93
190.29	-14.51
190.509	-4.27
190.729	1.88
190.948	22.36
191.168	112.47
191.387	24.4
191.607	8.02
191.826	-6.31
192.045	-49.32
192.265	-28.84
192.484	63.32
192.704	48.98
192.923	-37.03
193.142	67.41
193.362	22.36
193.581	-2.22
193.8	48.98
194.02	-10.41
194.239	14.17
194.458	20.31
194.678	12.12
194.897	-20.65
195.116	-41.13
195.335	14.17
195.555	51.03
195.774	-26.79
195.993	22.36
196.212	55.12
196.432	30.55
196.651	-45.23
196.87	-39.08
197.089	32.6
197.308	-28.84
197.528	26.45
197.747	-0.17
197.966	8.02
198.185	16.21
198.404	-0.17
198.623	102.23
198.842	12.12
199.062	22.36
199.281	48.98
199.5	18.26
199.719	36.69
199.938	22.36
200.157	59.22
200.376	55.12
200.595	30.55
200.814	38.74
201.033	3.93
201.252	83.8
201.471	57.17
201.69	48.98
201.909	42.84
202.128	57.17
202.347	16.21
202.566	-55.47
202.785	24.4
203.004	-53.42
203.223	73.56
203.442	22.36
203.661	-26.79
203.879	38.74
204.098	40.79
204.317	-0.17
204.536	-32.94
204.755	-34.99
204.974	-8.36
205.193	-6.31
205.411	38.74
205.63	-4.27
205.849	61.27
206.068	-28.84
206.287	-43.18
206.505	-34.99
206.724	-53.42
206.943	-0.17
207.162	20.31
207.381	14.17
207.599	-16.55
207.818	1.88
208.037	-71.85
208.255	-6.31
208.474	20.31
208.693	18.26
208.911	-14.51
209.13	98.13
209.349	26.45
209.567	8.02
209.786	67.41
210.005	46.93
210.223	46.93
210.442	-34.99
210.661	73.56
210.879	20.31
211.098	63.32
211.316	-22.7
211.535	36.69
211.753	-30.89
211.972	53.08
212.191	-26.79
212.409	-2.22
212.628	-28.84
212.846	-6.31
213.065	16.21
213.283	-2.22
213.502	139.09
213.72	26.45
213.938	51.03
214.157	-14.51
214.375	18.26
214.594	44.88
214.812	-10.41
215.031	61.27
215.249	3.93
215.467	-26.79
215.686	-2.22
215.904	5.97
216.122	-22.7
216.341	51.03
216.559	28.5
216.778	24.4
216.996	1.88
217.214	5.97
217.432	-16.55
217.651	-71.85
217.869	1.88
218.087	10.07
218.306	-2.22
218.524	32.6
218.742	34.64
218.96	18.26
219.179	59.22
219.397	34.64
219.615	-14.51
219.833	-18.6
220.051	34.64
220.27	1.88
220.488	-2.22
220.706	71.51
220.924	-45.23
221.142	51.03
221.36	24.4
221.578	1.88
221.796	65.36
222.015	69.46
222.233	53.08
222.451	12.12
222.669	-45.23
222.887	42.84
223.105	26.45
223.323	-16.55
223.541	1.88
223.759	-26.79
223.977	8.02
224.195	96.08
224.413	61.27
224.631	83.8
224.849	-18.6
225.067	46.93
225.285	5.97
225.503	-4.27
225.721	1.88
225.939	-0.17
226.157	67.41
226.375	108.37
226.592	16.21
226.81	16.21
227.028	53.08
227.246	-26.79
227.464	5.97
227.682	40.79
227.9	32.6
228.117	-43.18
228.335	5.97
228.553	22.36
228.771	1.88
228.989	118.61
229.206	-37.03
229.424	51.03
229.642	79.7
229.86	-37.03
230.077	55.12
230.295	-16.55
230.513	36.69
230.731	65.36
230.948	20.31
231.166	14.17
231.384	30.55
231.601	-26.79
231.819	55.12
232.037	14.17
232.254	-24.75
232.472	67.41
232.689	-47.27
232.907	83.8
233.125	63.32
233.342	22.36
233.56	14.17
233.777	-2.22
233.995	1.88
234.213	28.5
234.43	-14.51
234.648	71.51
234.865	28.5
235.083	-16.55
235.3	-6.31
235.518	42.84
235.735	20.31
235.953	5.97
236.17	18.26
236.388	-20.65
236.605	-2.22
236.822	53.08
237.04	-20.65
237.257	26.45
237.475	-0.17
237.692	38.74
237.909	12.12
238.127	-0.17
238.344	-71.85
238.562	34.64
238.779	10.07
238.996	36.69
239.214	67.41
239.431	65.36
239.648	-34.99
239.865	16.21
240.083	-37.03
240.3	1.88
240.517	-26.79
240.735	1.88
240.952	-4.27
241.169	-20.65
241.386	-22.7
241.603	48.98
241.821	-18.6
242.038	24.4
242.255	-22.7
242.472	65.36
242.689	28.5
242.907	51.03
243.124	38.74
243.341	34.64
243.558	40.79
243.775	-63.66
243.992	-32.94
244.209	81.75
244.426	87.89
244.643	24.4
244.86	10.07
245.078	22.36
245.295	-39.08
245.512	-30.89
245.729	26.45
245.946	42.84
246.163	69.46
246.38	-20.65
246.597	75.6
246.814	73.56
247.031	1.88
247.248	71.51
247.464	75.6
247.681	-30.89
247.898	71.51
248.115	40.79
248.332	48.98
248.549	46.93
248.766	38.74
248.983	-6.31
249.2	-6.31
249.417	28.5
249.633	-12.46
249.85	14.17
250.067	26.45
250.284	77.65
250.501	30.55
250.717	71.51
250.934	-22.7
251.151	22.36
251.368	10.07
251.585	16.21
251.801	46.93
252.018	-59.56
252.235	94.04
252.451	3.93
252.668	32.6
252.885	32.6
253.102	55.12
253.318	-20.65
253.535	61.27
253.752	-34.99
253.968	30.55
254.185	16.21
254.401	-73.9
254.618	24.4
254.835	1.88
255.051	16.21
255.268	75.6
255.484	36.69
255.701	-24.75
255.917	-20.65
256.134	-22.7
256.351	-6.31
256.567	63.32
256.784	26.45
257	26.45
257.217	77.65
257.433	10.07
257.65	46.93
257.866	-10.41
258.082	10.07
258.299	-37.03
258.515	8.02
258.732	-32.94
258.948	26.45
259.165	-4.27
259.381	-18.6
259.597	16.21
259.814	42.84
260.03	14.17
260.246	42.84
260.463	89.94
260.679	53.08
260.895	-14.51
261.112	-14.51
261.328	55.12
261.544	-51.37
261.761	26.45
261.977	34.64
262.193	28.5
262.409	-16.55
262.626	-43.18
262.842	22.36
263.058	-24.75
263.274	-20.65
263.49	14.17
263.707	53.08
263.923	-51.37
264.139	14.17
264.355	3.93
264.571	112.47
264.787	30.55
265.004	10.07
265.22	30.55
265.436	42.84
265.652	40.79
265.868	-26.79
266.084	-37.03
266.3	-20.65
266.516	-43.18
266.732	18.26
266.948	40.79
267.164	26.45
267.38	-82.09
267.596	75.6
267.812	104.28
268.028	-18.6
268.244	8.02
268.46	-30.89
268.676	-47.27
268.892	20.31
269.108	-32.94
269.324	-14.51
269.54	-12.46
269.756	69.46
269.972	18.26
270.188	114.52
270.403	91.99
270.619	-8.36
270.835	-55.47
271.051	-2.22
271.267	-0.17
271.483	1.88
271.698	40.79
271.914	59.22
272.13	-63.66
272.346	-10.41
272.562	-2.22
272.777	1.88
272.993	12.12
273.209	42.84
273.425	42.84
273.64	-12.46
273.856	26.45
274.072	51.03
274.287	36.69
274.503	10.07
274.719	32.6
274.934	53.08
275.15	34.64
275.366	55.12
275.581	14.17
275.797	1.88
276.012	42.84
276.228	55.12
276.444	-8.36
276.659	22.36
276.875	-37.03
277.09	-34.99
277.306	-41.13
277.521	-18.6
277.737	-37.03
277.952	73.56
278.168	96.08
278.383	26.45
278.599	-14.51
278.814	28.5
279.03	20.31
279.245	26.45
279.461	-0.17
279.676	94.04
279.892	-43.18
280.107	18.26
280.322	26.45
280.538	20.31
280.753	-4.27
280.969	30.55
281.184	24.4
281.399	89.94
281.615	8.02
281.83	44.88
282.045	3.93
282.26	10.07
282.476	57.17
282.691	122.71
282.906	24.4
283.122	67.41
283.337	-55.47
283.552	128.85
283.767	-24.75
283.983	55.12
284.198	67.41
284.413	59.22
284.628	16.21
284.843	-12.46
285.058	51.03
285.274	-2.22
285.489	-59.56
285.704	40.79
285.919	44.88
286.134	-32.94
286.349	71.51
286.564	-26.79
286.779	1.88
286.995	38.74
287.21	5.97
287.425	36.69
287.64	26.45
287.855	40.79
288.07	-34.99
288.285	38.74
288.5	1.88
288.715	-8.36
288.93	20.31
289.145	38.74
289.36	36.69
289.575	-22.7
289.79	-59.56
290.004	36.69
290.219	79.7
290.434	12.12
290.649	-8.36
290.864	-0.17
291.079	75.6
291.294	8.02
291.509	18.26
291.724	55.12
291.938	22.36
292.153	1.88
292.368	-16.55
292.583	16.21
292.798	36.69
293.012	53.08
293.227	77.65
293.442	-26.79
293.657	59.22
293.871	-94.38
294.086	-43.18
294.301	124.76
294.516	-4.27
294.73	30.55
294.945	20.31
295.16	-4.27
295.374	38.74
295.589	20.31
295.804	59.22
296.018	26.45
296.233	55.12
296.447	63.32
296.662	79.7
296.877	42.84
297.091	28.5
297.306	-47.27
297.52	-34.99
297.735	42.84
297.949	46.93
298.164	26.45
298.378	-22.7
298.593	-18.6
298.807	-55.47
299.022	12.12
299.236	-22.7
299.451	53.08
299.665	48.98
299.88	26.45
300.094	30.55
300.309	14.17
300.523	20.31
300.737	-18.6
300.952	65.36
301.166	-4.27
301.381	20.31
301.595	55.12
301.809	46.93
302.024	57.17
302.238	18.26
302.452	26.45
302.667	53.08
302.881	34.64
303.095	55.12
303.309	5.97
303.524	10.07
303.738	24.4
303.952	-65.71
304.166	51.03
304.381	46.93
304.595	48.98
304.809	48.98
305.023	-59.56
305.237	67.41
305.452	10.07
305.666	96.08
305.88	71.51
306.094	-0.17
306.308	-39.08
306.522	106.32
306.736	18.26
306.95	51.03
307.164	51.03
307.379	-39.08
307.593	5.97
307.807	55.12
308.021	3.93
308.235	26.45
308.449	12.12
308.663	22.36
308.877	-32.94
309.091	-4.27
309.305	10.07
309.519	59.22
309.733	36.69
309.947	-34.99
310.161	96.08
310.374	48.98
310.588	34.64
310.802	10.07
311.016	-2.22
311.23	77.65
311.444	-18.6
311.658	1.88
311.872	-16.55
312.085	-0.17
312.299	83.8
312.513	-0.17
312.727	-14.51
312.941	71.51
313.154	48.98
313.368	48.98
313.582	-0.17
313.796	-30.89
314.009	-10.41
314.223	22.36
314.437	57.17
314.651	16.21
314.864	-34.99
315.078	18.26
315.292	-59.56
315.505	-41.13
315.719	-55.47
315.933	1.88
316.146	36.69
316.36	34.64
316.573	96.08
316.787	141.14
317.001	-8.36
317.214	-16.55
317.428	63.32
317.641	-20.65
317.855	8.02
318.068	61.27
318.282	36.69
318.495	16.21
318.709	16.21
318.922	-49.32
319.136	71.51
319.349	-26.79
319.563	12.12
319.776	61.27
319.99	91.99
320.203	98.13
320.417	-12.46
320.63	87.89
320.843	14.17
321.057	5.97
321.27	67.41
321.483	-8.36
321.697	89.94
321.91	57.17
322.124	77.65
322.337	51.03
322.55	51.03
322.763	65.36
322.977	14.17
323.19	-59.56
323.403	22.36
323.617	112.47
323.83	30.55
324.043	14.17
324.256	32.6
324.469	-26.79
324.683	14.17
324.896	-2.22
325.109	28.5
325.322	73.56
325.535	71.51
325.748	-32.94
325.962	102.23
326.175	108.37
326.388	83.8
326.601	38.74
326.814	26.45
327.027	55.12
327.24	-8.36
327.453	-12.46
327.666	24.4
327.879	-6.31
328.092	108.37
328.305	24.4
328.518	-24.75
328.731	46.93
328.944	83.8
329.157	14.17
329.37	20.31
329.583	98.13
329.796	34.64
330.009	51.03
330.222	-32.94
330.435	18.26
330.648	1.88
330.861	73.56
331.073	-55.47
331.286	98.13
331.499	34.64
331.712	12.12
331.925	75.6
332.138	32.6
332.35	65.36
332.563	34.64
332.776	79.7
332.989	-41.13
333.202	3.93
333.414	34.64
333.627	-10.41
333.84	63.32
334.053	69.46
334.265	-67.75
334.478	-24.75
334.691	26.45
334.903	46.93
335.116	-32.94
335.329	-14.51
335.541	40.79
335.754	36.69
335.966	5.97
336.179	40.79
336.392	18.26
336.604	59.22
336.817	18.26
337.029	63.32
337.242	65.36
337.454	112.47
337.667	5.97
337.88	67.41
338.092	67.41
338.305	28.5
338.517	73.56
338.729	24.4
338.942	46.93
339.154	-0.17
339.367	10.07
339.579	67.41
339.792	67.41
340.004	-10.41
340.217	-2.22
340.429	79.7
340.641	5.97
340.854	-32.94
341.066	-49.32
341.278	14.17
341.491	63.32
341.703	20.31
341.915	26.45
342.128	65.36
342.34	12.12
342.552	38.74
342.764	-2.22
342.977	18.26
343.189	30.55
343.401	5.97
343.613	24.4
343.826	-57.51
344.038	-20.65
344.25	42.84
344.462	46.93
344.674	44.88
344.886	42.84
345.099	79.7
345.311	22.36
345.523	-39.08
345.735	1.88
345.947	-14.51
346.159	32.6
346.371	40.79
346.583	-12.46
346.795	55.12
347.007	-20.65
347.219	71.51
347.431	12.12
347.643	126.8
347.855	14.17
348.067	81.75
348.279	1.88
348.491	-41.13
348.703	14.17
348.915	-47.27
349.127	-16.55
349.339	59.22
349.551	-39.08
349.763	5.97
349.975	128.85
350.187	-2.22
350.399	26.45
350.61	-16.55
350.822	-10.41
351.034	48.98
351.246	-4.27
351.458	40.79
351.669	75.6
351.881	85.84
352.093	22.36
352.305	16.21
352.517	79.7
352.728	75.6
352.94	108.37
353.152	-20.65
353.363	16.21
353.575	-6.31
353.787	75.6
353.999	-4.27
354.21	89.94
354.422	83.8
354.633	26.45
354.845	48.98
355.057	71.51
355.268	55.12
355.48	-10.41
355.692	-71.85
355.903	10.07
356.115	71.51
356.326	104.28
356.538	-6.31
356.749	44.88
356.961	26.45
357.172	-51.37
357.384	57.17
357.595	65.36
357.807	22.36
358.018	18.26
358.23	1.88
358.441	42.84
358.653	12.12
358.864	55.12
359.075	53.08
359.287	48.98
359.498	-26.79
359.709	-0.17
359.921	34.64
360.132	3.93
360.344	69.46
360.555	28.5
360.766	20.31
360.977	55.12
361.189	22.36
361.4	55.12
361.611	130.9
361.823	-30.89
362.034	42.84
362.245	-4.27
362.456	-12.46
362.667	-47.27
362.879	34.64
363.09	44.88
363.301	-22.7
363.512	48.98
363.723	-16.55
363.935	5.97
364.146	42.84
364.357	96.08
364.568	14.17
364.779	30.55
364.99	91.99
365.201	26.45
365.412	85.84
365.623	-22.7
365.834	14.17
366.045	34.64
366.256	63.32
366.467	85.84
366.678	42.84
366.889	-18.6
367.1	83.8
367.311	36.69
367.522	34.64
367.733	55.12
367.944	10.07
368.155	36.69
368.366	46.93
368.577	38.74
368.788	1.88
368.999	26.45
369.209	18.26
369.42	63.32
369.631	71.51
369.842	-4.27
370.053	38.74
370.264	28.5
370.474	-4.27
370.685	61.27
370.896	51.03
371.107	18.26
371.317	3.93
371.528	16.21
371.739	-14.51
371.95	61.27
372.16	85.84
372.371	-28.84
372.582	28.5
372.792	22.36
373.003	112.47
373.214	20.31
373.424	67.41
373.635	24.4
373.846	8.02
374.056	-59.56
374.267	69.46
374.477	-6.31
374.688	1.88
374.898	75.6
375.109	130.9
375.319	32.6
375.53	71.51
375.74	12.12
375.951	8.02
376.161	26.45
376.372	42.84
376.582	8.02
376.793	10.07
377.003	77.65
377.214	57.17
377.424	85.84
377.635	-0.17
377.845	36.69
378.055	69.46
378.266	-14.51
378.476	118.61
378.686	112.47
378.897	63.32
379.107	16.21
379.317	36.69
379.528	22.36
379.738	48.98
379.948	36.69
380.158	143.19
380.369	61.27
380.579	5.97
380.789	77.65
380.999	57.17
381.21	106.32
381.42	-12.46
381.63	34.64
381.84	5.97
382.05	48.98
382.261	81.75
382.471	102.23
382.681	3.93
382.891	22.36
383.101	38.74
383.311	-8.36
383.521	-8.36
383.731	46.93
383.941	42.84
384.151	14.17
384.361	20.31
384.571	42.84
384.781	36.69
384.991	30.55
385.201	36.69
385.411	100.18
385.621	55.12
385.831	14.17
386.041	59.22
386.251	34.64
386.461	48.98
386.671	3.93
386.881	-34.99
387.091	24.4
387.301	26.45
387.511	53.08
387.72	5.97
387.93	20.31
388.14	20.31
388.35	65.36
388.56	104.28
388.769	5.97
388.979	8.02
389.189	79.7
389.399	48.98
389.609	57.17
389.818	1.88
390.028	-6.31
390.238	-10.41
390.447	-0.17
390.657	98.13
390.867	46.93
391.076	14.17
391.286	55.12
391.496	61.27
391.705	10.07
391.915	40.79
392.125	26.45
392.334	-26.79
392.544	102.23
392.753	55.12
392.963	-18.6
393.172	-28.84
393.382	5.97
393.591	8.02
393.801	57.17
394.01	61.27
394.22	-10.41
394.429	132.95
394.639	57.17
394.848	48.98
395.058	24.4
395.267	55.12
395.477	24.4
395.686	108.37
395.895	135
396.105	108.37
396.314	22.36
396.524	-2.22
396.733	-8.36
396.942	63.32
397.152	100.18
397.361	122.71
397.57	73.56
397.78	28.5
397.989	112.47
398.198	91.99
398.407	42.84
398.617	53.08
398.826	42.84
399.035	85.84
399.244	48.98
399.453	126.8
399.663	79.7
399.872	34.64
400.081	-28.84
400.29	65.36
400.499	10.07
400.708	71.51
400.917	34.64
401.127	128.85
401.336	71.51
401.545	98.13
401.754	114.52
401.963	42.84
402.172	40.79
402.381	63.32
402.59	59.22
402.799	106.32
403.008	143.19
403.217	118.61
403.426	106.32
403.635	128.85
403.844	48.98
404.053	89.94
404.262	171.86
404.471	83.8
404.68	77.65
404.888	139.09
405.097	128.85
405.306	137.04
405.515	159.57
405.724	141.14
405.933	112.47
406.142	110.42
406.35	155.47
406.559	214.87
406.768	149.33
406.977	151.38
407.185	149.33
407.394	212.82
407.603	100.18
407.812	175.95
408.02	151.38
408.229	182.1
408.438	128.85
408.646	171.86
408.855	218.96
409.064	204.63
409.272	210.77
409.481	282.45
409.69	210.77
409.898	206.67
410.107	227.15
410.315	257.87
410.524	264.02
410.733	288.59
410.941	214.87
411.15	278.35
411.358	243.54
411.567	321.36
411.775	272.21
411.984	288.59
412.192	395.09
412.401	298.83
412.609	386.9
412.818	368.46
413.026	329.55
413.234	448.33
413.443	319.31
413.651	362.32
413.86	364.37
414.068	452.43
414.276	395.09
414.485	421.71
414.693	468.81
414.901	548.68
415.11	493.39
415.318	472.91
415.526	638.8
415.734	577.36
415.943	558.92
416.151	626.51
416.359	636.75
416.567	739.15
416.776	694.09
416.984	655.18
417.192	681.8
417.4	722.76
417.608	757.58
417.817	810.82
418.025	823.11
418.233	845.64
418.441	763.72
418.649	907.08
418.857	964.42
419.065	960.33
419.273	974.66
419.481	1048.39
419.689	1095.49
419.897	1105.73
420.105	1068.87
420.313	1193.8
420.521	1259.33
420.729	1214.27
420.937	1298.24
421.145	1263.43
421.353	1351.49
421.561	1480.51
421.769	1451.84
421.977	1587.01
422.185	1566.53
422.393	1689.4
422.601	1697.6
422.809	1808.19
423.017	1732.41
423.224	1890.1
423.432	1961.78
423.64	1861.43
423.848	1961.78
424.056	2152.24
424.263	2012.98
424.471	2043.7
424.679	2256.69
424.887	2307.89
425.094	2424.62
425.302	2350.9
425.51	2484.02
425.718	2553.65
425.925	2631.47
426.133	2627.37
426.341	2793.26
426.548	2936.62
426.756	3165.99
426.964	3043.11
427.171	3182.37
427.379	3118.89
427.586	3106.6
427.794	3368.74
428.001	3612.45
428.209	3710.75
428.417	3585.82
428.624	3952.41
428.832	3755.8
429.039	4013.85
429.247	3981.08
429.454	4294.42
429.662	4585.23
429.869	4208.41
430.076	4607.76
430.284	4306.71
430.491	4583.18
430.699	4896.52
430.906	5031.69
431.114	4935.43
431.321	4998.92
431.528	5193.48
431.736	5488.39
431.943	5746.43
432.15	5644.03
432.358	5809.92
432.565	6004.47
432.772	6090.49
432.979	6307.57
433.187	6481.65
433.394	6424.31
433.601	6969.07
433.808	6921.96
434.016	6993.64
434.223	7315.17
434.43	7704.29
434.637	7614.18
434.844	8044.25
435.052	8101.59
435.259	8154.84
435.466	8103.64
435.673	8046.3
435.88	8601.3
436.087	8922.83
436.294	9129.67
436.501	8773.33
436.708	9082.57
436.915	9305.8
437.122	9772.74
437.329	9574.08
437.537	10098.36
437.743	9998.01
437.95	10012.35
438.157	10428.09
438.364	10903.21
438.571	10946.22
438.778	11189.93
438.985	12142.24
439.192	11519.65
439.399	11857.57
439.606	11540.13
439.813	12447.38
440.02	13039.25
440.227	12897.94
440.433	12856.98
440.64	12979.86
440.847	13098.64
441.054	13518.47
441.261	14382.71
441.467	14218.88
441.674	14454.39
441.881	14884.47
442.088	14970.48
442.294	14599.8
442.501	15138.41
442.708	15396.46
442.914	15935.07
443.121	16594.52
443.328	16381.53
443.534	17366.6
443.741	16911.96
443.948	16911.96
444.154	18001.47
444.361	17880.64
444.568	18003.52
444.774	18013.76
444.981	18241.09
445.187	18718.26
445.394	19476.01
445.6	19142.19
445.807	21091.86
446.013	20293.15
446.22	20727.32
446.426	21483.02
446.633	21397.01
446.839	22300.16
447.046	21417.49
447.252	22404.61
447.459	22756.86
447.665	22392.32
447.871	23440.88
448.078	24352.23
448.284	22914.55
448.491	23860.71
448.697	24843.74
448.903	25234.9
449.11	25114.07
449.316	24776.16
449.522	25226.71
449.728	25802.19
449.935	26387.91
450.141	26088.9
450.347	26709.44
450.553	25699.79
450.76	26074.57
450.966	26842.56
451.172	26815.93
451.378	27323.83
451.584	26553.79
451.791	27641.26
451.997	27004.35
452.203	27667.89
452.409	27942.31
452.615	27803.05
452.821	26527.17
453.027	26535.36
453.233	27923.88
453.44	26752.45
453.646	27061.69
453.852	27114.94
454.058	27211.19
454.264	26435.01
454.47	27147.7
454.676	26453.44
454.882	27401.65
455.088	25224.66
455.294	25505.23
455.5	25591.25
455.705	25923.02
455.911	24946.14
456.117	24380.9
456.323	23961.06
456.529	22664.7
456.735	23608.81
456.941	23094.77
457.147	23074.29
457.352	22017.54
457.558	21845.51
457.764	21986.82
457.97	21716.49
458.176	20979.22
458.381	20864.53
458.587	19981.86
458.793	20155.94
458.999	19166.77
459.204	20260.38
459.41	19807.78
459.616	18390.59
459.821	18456.12
460.027	18185.79
460.233	18015.81
460.438	16987.73
460.644	17227.34
460.85	16576.09
461.055	16402.01
461.261	16021.09
461.466	14927.47
461.672	14681.72
461.878	15695.46
462.083	14665.33
462.289	14302.84
462.494	14141.05
462.7	13825.67
462.905	13155.98
463.111	13737.6
463.316	13784.71
463.522	13518.47
463.727	13506.18
463.932	13362.83
464.138	13213.32
464.343	13336.2
464.549	12803.73
464.754	13373.07
464.959	13248.14
465.165	13348.49
465.37	12631.7
465.575	12230.3
465.781	12805.78
465.986	12897.94
466.191	12502.68
466.397	11966.11
466.602	11581.09
466.807	11957.92
467.012	11937.44
467.218	11880.1
467.423	11947.68
