Data from USB4F104151__176__11-09-24-644.txt Node

Date: Wed Mar 12 11:09:24 EDT 2025
User: louis
Spectrometer: USB4F10415
Trigger mode: 4
Integration Time (sec): 2.000000E-2
Scans to average: 1
Electric dark correction enabled: true
Nonlinearity correction enabled: false
Boxcar width: 0
XAxis mode: Wavelengths
Number of Pixels in Spectrum: 3648
>>>>>Begin Spectral Data<<<<<
178.204	-15.87
178.424	-15.87
178.644	-15.87
178.864	-58.88
179.084	-40.45
179.304	20.99
179.524	-50.69
179.744	-15.87
179.964	41.47
180.184	12.8
180.404	-36.35
180.624	53.76
180.844	-19.97
181.064	-52.74
181.283	59.9
181.503	-11.78
181.723	-1.54
181.943	35.33
182.163	39.42
182.383	68.09
182.602	55.81
182.822	59.9
183.042	70.14
183.262	39.42
183.482	190.97
183.701	14.85
183.921	4.61
184.141	84.48
184.361	37.38
184.58	16.9
184.8	107.01
185.02	-24.06
185.239	88.57
185.459	10.75
185.679	100.86
185.898	8.7
186.118	43.52
186.338	4.61
186.557	53.76
186.777	25.09
186.997	-1.54
187.216	-9.73
187.436	18.94
187.655	78.33
187.875	31.23
188.095	-1.54
188.314	98.81
188.534	154.11
188.753	49.66
188.973	129.53
189.192	31.23
189.412	47.62
189.631	53.76
189.851	51.71
190.07	109.05
190.29	49.66
190.509	82.43
190.729	78.33
190.948	76.29
191.168	109.05
191.387	94.72
191.607	-7.68
191.826	94.72
192.045	33.28
192.265	53.76
192.484	-1.54
192.704	27.14
192.923	-67.07
193.142	90.62
193.362	64
193.581	25.09
193.8	82.43
194.02	18.94
194.239	-24.06
194.458	84.48
194.678	33.28
194.897	35.33
195.116	31.23
195.335	20.99
195.555	-42.5
195.774	102.91
195.993	102.91
196.212	10.75
196.432	64
196.651	57.86
196.87	33.28
197.089	-13.82
197.308	72.19
197.528	8.7
197.747	45.57
197.966	25.09
198.185	168.45
198.404	-17.92
198.623	18.94
198.842	37.38
199.062	23.04
199.281	121.34
199.5	16.9
199.719	39.42
199.938	107.01
200.157	14.85
200.376	31.23
200.595	66.05
200.814	-7.68
201.033	98.81
201.252	96.77
201.471	86.53
201.69	70.14
201.909	72.19
202.128	64
202.347	0.51
202.566	35.33
202.785	2.56
203.004	37.38
203.223	96.77
203.442	59.9
203.661	-24.06
203.879	-5.63
204.098	100.86
204.317	23.04
204.536	55.81
204.755	31.23
204.974	64
205.193	39.42
205.411	129.53
205.63	55.81
205.849	2.56
206.068	-11.78
206.287	90.62
206.505	74.24
206.724	43.52
206.943	96.77
207.162	-1.54
207.381	10.75
207.599	51.71
207.818	29.18
208.037	59.9
208.255	31.23
208.474	-7.68
208.693	45.57
208.911	-13.82
209.13	57.86
209.349	76.29
209.567	64
209.786	76.29
210.005	-26.11
210.223	27.14
210.442	86.53
210.661	96.77
210.879	107.01
211.098	102.91
211.316	33.28
211.535	86.53
211.753	14.85
211.972	84.48
212.191	25.09
212.409	14.85
212.628	37.38
212.846	70.14
213.065	84.48
213.283	82.43
213.502	96.77
213.72	76.29
213.938	35.33
214.157	57.86
214.375	8.7
214.594	41.47
214.812	49.66
215.031	25.09
215.249	53.76
215.467	29.18
215.686	64
215.904	76.29
216.122	76.29
216.341	-15.87
216.559	6.66
216.778	61.95
216.996	96.77
217.214	47.62
217.432	27.14
217.651	-22.02
217.869	66.05
218.087	0.51
218.306	37.38
218.524	4.61
218.742	49.66
218.96	100.86
219.179	45.57
219.397	57.86
219.615	61.95
219.833	-1.54
220.051	49.66
220.27	102.91
220.488	107.01
220.706	59.9
220.924	139.77
221.142	-1.54
221.36	0.51
221.578	88.57
221.796	47.62
222.015	27.14
222.233	55.81
222.451	59.9
222.669	-1.54
222.887	74.24
223.105	6.66
223.323	51.71
223.541	33.28
223.759	61.95
223.977	-26.11
224.195	121.34
224.413	43.52
224.631	70.14
224.849	20.99
225.067	104.96
225.285	57.86
225.503	72.19
225.721	-50.69
225.939	74.24
226.157	55.81
226.375	72.19
226.592	61.95
226.81	92.67
227.028	64
227.246	107.01
227.464	-13.82
227.682	66.05
227.9	51.71
228.117	70.14
228.335	37.38
228.553	49.66
228.771	104.96
228.989	4.61
229.206	84.48
229.424	72.19
229.642	-24.06
229.86	115.2
230.077	31.23
230.295	23.04
230.513	23.04
230.731	102.91
230.948	61.95
231.166	37.38
231.384	70.14
231.601	102.91
231.819	78.33
232.037	78.33
232.254	-13.82
232.472	35.33
232.689	-1.54
232.907	-17.92
233.125	-7.68
233.342	41.47
233.56	61.95
233.777	29.18
233.995	-1.54
234.213	68.09
234.43	64
234.648	-42.5
234.865	86.53
235.083	12.8
235.3	102.91
235.518	82.43
235.735	61.95
235.953	53.76
236.17	-9.73
236.388	-9.73
236.605	70.14
236.822	98.81
237.04	37.38
237.257	84.48
237.475	10.75
237.692	16.9
237.909	57.86
238.127	51.71
238.344	53.76
238.562	84.48
238.779	-7.68
238.996	41.47
239.214	51.71
239.431	115.2
239.648	-15.87
239.865	20.99
240.083	31.23
240.3	25.09
240.517	23.04
240.735	78.33
240.952	41.47
241.169	66.05
241.386	-7.68
241.603	18.94
241.821	-1.54
242.038	82.43
242.255	86.53
242.472	4.61
242.689	10.75
242.907	117.25
243.124	37.38
243.341	55.81
243.558	80.38
243.775	41.47
243.992	43.52
244.209	33.28
244.426	115.2
244.643	45.57
244.86	57.86
245.078	115.2
245.295	45.57
245.512	84.48
245.729	6.66
245.946	96.77
246.163	20.99
246.38	12.8
246.597	82.43
246.814	39.42
247.031	57.86
247.248	137.73
247.464	78.33
247.681	-30.21
247.898	47.62
248.115	41.47
248.332	18.94
248.549	109.05
248.766	68.09
248.983	43.52
249.2	78.33
249.417	111.1
249.633	12.8
249.85	111.1
250.067	72.19
250.284	74.24
250.501	29.18
250.717	41.47
250.934	41.47
251.151	57.86
251.368	59.9
251.585	107.01
251.801	29.18
252.018	47.62
252.235	6.66
252.451	47.62
252.668	8.7
252.885	86.53
253.102	104.96
253.318	-26.11
253.535	12.8
253.752	16.9
253.968	35.33
254.185	88.57
254.401	-32.26
254.618	-15.87
254.835	111.1
255.051	68.09
255.268	82.43
255.484	47.62
255.701	4.61
255.917	66.05
256.134	8.7
256.351	113.15
256.567	41.47
256.784	70.14
257	76.29
257.217	35.33
257.433	100.86
257.65	96.77
257.866	8.7
258.082	2.56
258.299	98.81
258.515	0.51
258.732	43.52
258.948	72.19
259.165	51.71
259.381	-1.54
259.597	31.23
259.814	59.9
260.03	-7.68
260.246	49.66
260.463	47.62
260.679	90.62
260.895	4.61
261.112	37.38
261.328	29.18
261.544	-3.58
261.761	51.71
261.977	37.38
262.193	-1.54
262.409	-3.58
262.626	92.67
262.842	86.53
263.058	25.09
263.274	143.87
263.49	53.76
263.707	84.48
263.923	35.33
264.139	61.95
264.355	96.77
264.571	61.95
264.787	66.05
265.004	27.14
265.22	-19.97
265.436	2.56
265.652	31.23
265.868	39.42
266.084	55.81
266.3	100.86
266.516	-24.06
266.732	12.8
266.948	47.62
267.164	45.57
267.38	-13.82
267.596	-7.68
267.812	74.24
268.028	-24.06
268.244	12.8
268.46	8.7
268.676	78.33
268.892	70.14
269.108	66.05
269.324	20.99
269.54	25.09
269.756	74.24
269.972	16.9
270.188	-1.54
270.403	31.23
270.619	66.05
270.835	53.76
271.051	37.38
271.267	45.57
271.483	139.77
271.698	70.14
271.914	76.29
272.13	27.14
272.346	158.21
272.562	41.47
272.777	76.29
272.993	29.18
273.209	29.18
273.425	64
273.64	61.95
273.856	125.44
274.072	43.52
274.287	84.48
274.503	45.57
274.719	80.38
274.934	57.86
275.15	-15.87
275.366	102.91
275.581	27.14
275.797	29.18
276.012	29.18
276.228	23.04
276.444	98.81
276.659	53.76
276.875	94.72
277.09	119.29
277.306	-1.54
277.521	92.67
277.737	39.42
277.952	66.05
278.168	47.62
278.383	59.9
278.599	29.18
278.814	59.9
279.03	86.53
279.245	135.68
279.461	-30.21
279.676	96.77
279.892	55.81
280.107	100.86
280.322	-15.87
280.538	23.04
280.753	104.96
280.969	29.18
281.184	25.09
281.399	82.43
281.615	55.81
281.83	82.43
282.045	49.66
282.26	-7.68
282.476	14.85
282.691	25.09
282.906	-1.54
283.122	78.33
283.337	37.38
283.552	74.24
283.767	6.66
283.983	59.9
284.198	37.38
284.413	92.67
284.628	20.99
284.843	45.57
285.058	74.24
285.274	-1.54
285.489	27.14
285.704	12.8
285.919	-19.97
286.134	78.33
286.349	72.19
286.564	43.52
286.779	78.33
286.995	37.38
287.21	102.91
287.425	33.28
287.64	20.99
287.855	51.71
288.07	29.18
288.285	107.01
288.5	113.15
288.715	121.34
288.93	104.96
289.145	-22.02
289.36	8.7
289.575	20.99
289.79	137.73
290.004	39.42
290.219	90.62
290.434	74.24
290.649	53.76
290.864	27.14
291.079	43.52
291.294	6.66
291.509	45.57
291.724	86.53
291.938	88.57
292.153	98.81
292.368	25.09
292.583	14.85
292.798	-28.16
293.012	14.85
293.227	33.28
293.442	49.66
293.657	10.75
293.871	-3.58
294.086	129.53
294.301	82.43
294.516	57.86
294.73	47.62
294.945	25.09
295.16	80.38
295.374	90.62
295.589	92.67
295.804	57.86
296.018	0.51
296.233	102.91
296.447	6.66
296.662	4.61
296.877	84.48
297.091	20.99
297.306	8.7
297.52	45.57
297.735	51.71
297.949	37.38
298.164	16.9
298.378	49.66
298.593	70.14
298.807	45.57
299.022	31.23
299.236	92.67
299.451	-60.93
299.665	59.9
299.88	-22.02
300.094	0.51
300.309	31.23
300.523	66.05
300.737	98.81
300.952	33.28
301.166	43.52
301.381	-11.78
301.595	43.52
301.809	76.29
302.024	-1.54
302.238	33.28
302.452	33.28
302.667	31.23
302.881	51.71
303.095	131.58
303.309	139.77
303.524	43.52
303.738	10.75
303.952	47.62
304.166	70.14
304.381	43.52
304.595	100.86
304.809	-9.73
305.023	61.95
305.237	121.34
305.452	14.85
305.666	41.47
305.88	8.7
306.094	47.62
306.308	100.86
306.522	135.68
306.736	100.86
306.95	41.47
307.164	4.61
307.379	66.05
307.593	55.81
307.807	12.8
308.021	66.05
308.235	-15.87
308.449	-9.73
308.663	68.09
308.877	88.57
309.091	49.66
309.305	70.14
309.519	-15.87
309.733	41.47
309.947	-28.16
310.161	49.66
310.374	14.85
310.588	172.54
310.802	-44.54
311.016	80.38
311.23	39.42
311.444	55.81
311.658	64
311.872	66.05
312.085	86.53
312.299	84.48
312.513	104.96
312.727	88.57
312.941	78.33
313.154	59.9
313.368	16.9
313.582	16.9
313.796	90.62
314.009	51.71
314.223	16.9
314.437	76.29
314.651	53.76
314.864	41.47
315.078	33.28
315.292	49.66
315.505	80.38
315.719	55.81
315.933	41.47
316.146	109.05
316.36	57.86
316.573	70.14
316.787	0.51
317.001	47.62
317.214	16.9
317.428	88.57
317.641	0.51
317.855	47.62
318.068	31.23
318.282	53.76
318.495	117.25
318.709	84.48
318.922	96.77
319.136	53.76
319.349	41.47
319.563	33.28
319.776	31.23
319.99	-15.87
320.203	94.72
320.417	45.57
320.63	20.99
320.843	102.91
321.057	88.57
321.27	12.8
321.483	61.95
321.697	80.38
321.91	66.05
322.124	29.18
322.337	-3.58
322.55	25.09
322.763	45.57
322.977	10.75
323.19	-3.58
323.403	61.95
323.617	-15.87
323.83	100.86
324.043	59.9
324.256	51.71
324.469	39.42
324.683	53.76
324.896	82.43
325.109	-1.54
325.322	68.09
325.535	53.76
325.748	109.05
325.962	18.94
326.175	53.76
326.388	88.57
326.601	117.25
326.814	92.67
327.027	27.14
327.24	47.62
327.453	-17.92
327.666	29.18
327.879	90.62
328.092	98.81
328.305	96.77
328.518	39.42
328.731	31.23
328.944	76.29
329.157	-15.87
329.37	-17.92
329.583	70.14
329.796	61.95
330.009	45.57
330.222	86.53
330.435	41.47
330.648	147.97
330.861	37.38
331.073	31.23
331.286	88.57
331.499	4.61
331.712	8.7
331.925	141.82
332.138	14.85
332.35	107.01
332.563	-22.02
332.776	49.66
332.989	45.57
333.202	61.95
333.414	23.04
333.627	45.57
333.84	125.44
334.053	10.75
334.265	33.28
334.478	49.66
334.691	82.43
334.903	0.51
335.116	12.8
335.329	47.62
335.541	6.66
335.754	125.44
335.966	57.86
336.179	133.63
336.392	23.04
336.604	45.57
336.817	109.05
337.029	31.23
337.242	64
337.454	76.29
337.667	64
337.88	86.53
338.092	25.09
338.305	74.24
338.517	-9.73
338.729	47.62
338.942	160.25
339.154	53.76
339.367	-34.3
339.579	57.86
339.792	27.14
340.004	66.05
340.217	14.85
340.429	12.8
340.641	-5.63
340.854	-3.58
341.066	76.29
341.278	6.66
341.491	20.99
341.703	41.47
341.915	-17.92
342.128	107.01
342.34	16.9
342.552	45.57
342.764	20.99
342.977	-9.73
343.189	61.95
343.401	59.9
343.613	12.8
343.826	61.95
344.038	0.51
344.25	162.3
344.462	37.38
344.674	-22.02
344.886	20.99
345.099	33.28
345.311	25.09
345.523	-22.02
345.735	27.14
345.947	29.18
346.159	86.53
346.371	68.09
346.583	109.05
346.795	78.33
347.007	121.34
347.219	0.51
347.431	107.01
347.643	25.09
347.855	51.71
348.067	68.09
348.279	27.14
348.491	39.42
348.703	82.43
348.915	14.85
349.127	80.38
349.339	-3.58
349.551	55.81
349.763	80.38
349.975	119.29
350.187	94.72
350.399	2.56
350.61	102.91
350.822	55.81
351.034	76.29
351.246	98.81
351.458	-3.58
351.669	53.76
351.881	37.38
352.093	127.49
352.305	72.19
352.517	66.05
352.728	98.81
352.94	107.01
353.152	35.33
353.363	-1.54
353.575	45.57
353.787	41.47
353.999	74.24
354.21	66.05
354.422	76.29
354.633	51.71
354.845	20.99
355.057	0.51
355.268	20.99
355.48	31.23
355.692	102.91
355.903	158.21
356.115	45.57
356.326	-56.83
356.538	-5.63
356.749	55.81
356.961	39.42
357.172	84.48
357.384	45.57
357.595	133.63
357.807	90.62
358.018	76.29
358.23	57.86
358.441	98.81
358.653	47.62
358.864	-3.58
359.075	18.94
359.287	49.66
359.498	113.15
359.709	57.86
359.921	80.38
360.132	74.24
360.344	92.67
360.555	57.86
360.766	109.05
360.977	23.04
361.189	41.47
361.4	25.09
361.611	70.14
361.823	55.81
362.034	107.01
362.245	16.9
362.456	70.14
362.667	-15.87
362.879	72.19
363.09	64
363.301	55.81
363.512	64
363.723	64
363.935	41.47
364.146	66.05
364.357	94.72
364.568	98.81
364.779	25.09
364.99	80.38
365.201	37.38
365.412	78.33
365.623	23.04
365.834	35.33
366.045	29.18
366.256	53.76
366.467	51.71
366.678	12.8
366.889	31.23
367.1	61.95
367.311	53.76
367.522	33.28
367.733	-7.68
367.944	109.05
368.155	8.7
368.366	139.77
368.577	49.66
368.788	82.43
368.999	47.62
369.209	8.7
369.42	55.81
369.631	100.86
369.842	115.2
370.053	41.47
370.264	57.86
370.474	27.14
370.685	51.71
370.896	61.95
371.107	107.01
371.317	98.81
371.528	-1.54
371.739	76.29
371.95	94.72
372.16	10.75
372.371	68.09
372.582	98.81
372.792	61.95
373.003	25.09
373.214	35.33
373.424	51.71
373.635	111.1
373.846	68.09
374.056	-15.87
374.267	115.2
374.477	14.85
374.688	53.76
374.898	113.15
375.109	35.33
375.319	94.72
375.53	41.47
375.74	78.33
375.951	47.62
376.161	72.19
376.372	57.86
376.582	27.14
376.793	61.95
377.003	94.72
377.214	53.76
377.424	70.14
377.635	25.09
377.845	4.61
378.055	96.77
378.266	-69.12
378.476	64
378.686	92.67
378.897	72.19
379.107	74.24
379.317	68.09
379.528	82.43
379.738	74.24
379.948	61.95
380.158	43.52
380.369	141.82
380.579	143.87
380.789	64
380.999	98.81
381.21	70.14
381.42	59.9
381.63	6.66
381.84	193.02
382.05	121.34
382.261	78.33
382.471	78.33
382.681	20.99
382.891	25.09
383.101	76.29
383.311	-93.69
383.521	43.52
383.731	14.85
383.941	117.25
384.151	43.52
384.361	107.01
384.571	70.14
384.781	135.68
384.991	66.05
385.201	37.38
385.411	88.57
385.621	113.15
385.831	45.57
386.041	74.24
386.251	82.43
386.461	64
386.671	64
386.881	53.76
387.091	49.66
387.301	74.24
387.511	47.62
387.72	70.14
387.93	51.71
388.14	57.86
388.35	86.53
388.56	25.09
388.769	45.57
388.979	57.86
389.189	57.86
389.399	70.14
389.609	115.2
389.818	82.43
390.028	33.28
390.238	121.34
390.447	57.86
390.657	111.1
390.867	109.05
391.076	68.09
391.286	61.95
391.496	111.1
391.705	12.8
391.915	160.25
392.125	86.53
392.334	111.1
392.544	88.57
392.753	98.81
392.963	33.28
393.172	88.57
393.382	53.76
393.591	104.96
393.801	59.9
394.01	100.86
394.22	96.77
394.429	98.81
394.639	119.29
394.848	68.09
395.058	70.14
395.267	119.29
395.477	133.63
395.686	76.29
395.895	86.53
396.105	205.31
396.314	109.05
396.524	107.01
396.733	102.91
396.942	162.3
397.152	211.45
397.361	33.28
397.57	135.68
397.78	102.91
397.989	111.1
398.198	127.49
398.407	119.29
398.617	80.38
398.826	66.05
399.035	70.14
399.244	123.39
399.453	29.18
399.663	121.34
399.872	98.81
400.081	74.24
400.29	152.06
400.499	109.05
400.708	164.35
400.917	168.45
401.127	119.29
401.336	133.63
401.545	135.68
401.754	100.86
401.963	100.86
402.172	102.91
402.381	80.38
402.59	20.99
402.799	117.25
403.008	162.3
403.217	76.29
403.426	195.07
403.635	104.96
403.844	78.33
404.053	98.81
404.262	135.68
404.471	172.54
404.68	143.87
404.888	117.25
405.097	170.49
405.306	123.39
405.515	160.25
405.724	141.82
405.933	102.91
406.142	223.74
406.35	123.39
406.559	190.97
406.768	193.02
406.977	98.81
407.185	137.73
407.394	125.44
407.603	195.07
407.812	215.55
408.02	209.4
408.229	152.06
408.438	176.64
408.646	170.49
408.855	190.97
409.064	188.93
409.272	190.97
409.481	328.19
409.69	223.74
409.898	197.12
410.107	283.13
410.315	270.84
410.524	262.65
410.733	266.75
410.941	244.22
411.15	324.09
411.358	305.66
411.567	371.19
411.775	270.84
411.984	320
412.192	420.35
412.401	389.63
412.609	342.52
412.818	369.15
413.026	375.29
413.234	383.48
413.443	451.07
413.651	436.73
413.86	438.78
414.068	492.02
414.276	496.12
414.485	436.73
414.693	487.93
414.901	504.31
415.11	569.85
415.318	545.27
415.526	532.98
415.734	627.19
415.943	616.95
416.151	625.14
416.359	614.9
416.567	651.77
416.776	705.01
416.984	711.16
417.192	707.06
417.4	659.96
417.608	698.87
417.817	868.85
418.025	852.47
418.233	895.47
418.441	860.66
418.649	879.09
418.857	1008.11
419.065	889.33
419.273	1014.26
419.481	1085.94
419.689	1057.26
419.897	1090.03
420.105	1178.09
420.313	1145.33
420.521	1174
420.729	1257.96
420.937	1262.06
421.145	1229.29
421.353	1434.09
421.561	1421.8
421.769	1503.72
421.977	1470.95
422.185	1456.62
422.393	1575.4
422.601	1769.96
422.809	1702.37
423.017	1806.82
423.224	1923.55
423.432	1831.4
423.64	1860.07
423.848	1966.56
424.056	2030.05
424.263	2124.26
424.471	2142.69
424.679	2085.34
424.887	2240.99
425.094	2388.44
425.302	2357.72
425.51	2472.41
425.718	2503.13
425.925	2511.32
426.133	2722.26
426.341	2703.83
426.548	2832.85
426.756	2849.24
426.964	2894.29
427.171	3082.7
427.379	3131.86
427.586	3213.77
427.794	3334.61
428.001	3473.87
428.209	3615.18
428.417	3486.15
428.624	3807.69
428.832	3803.59
429.039	3662.28
429.247	3858.89
429.454	4211.14
429.662	4411.84
429.869	4108.74
430.076	4399.55
430.284	4223.42
430.491	4518.33
430.699	4710.84
430.906	4792.76
431.114	4704.7
431.321	4925.88
431.528	5132.72
431.736	5323.18
431.943	5767.59
432.15	5523.88
432.358	5613.99
432.565	5853.61
432.772	6027.68
432.979	6125.99
433.187	6308.26
433.394	6322.59
433.601	6844.82
433.808	6799.77
434.016	6736.28
434.223	6955.41
434.43	7461.26
434.637	7340.43
434.844	7803.27
435.052	7790.99
435.259	7717.26
435.466	7766.41
435.673	7799.18
435.88	8280.45
436.087	8657.28
436.294	8888.7
436.501	8524.16
436.708	8800.63
436.915	8911.22
437.122	9466.22
437.329	9425.26
437.537	9734.51
437.743	9746.8
437.95	9771.37
438.157	10088.81
438.364	10598.75
438.571	10502.5
438.778	10711.39
438.985	11567.44
439.192	11000.15
439.399	11524.43
439.606	11413.84
439.813	11782.48
440.02	12624.19
440.227	12464.45
440.433	12493.12
440.64	12835.13
440.847	12544.32
441.054	12994.87
441.261	13859.12
441.467	13650.22
441.674	13762.86
441.881	14487.84
442.088	14448.93
442.294	14313.77
442.501	14477.6
442.708	14792.99
442.914	15438.1
443.121	16390.41
443.328	15837.45
443.534	16593.15
443.741	16265.48
443.948	16138.51
444.154	17060.09
444.361	17174.78
444.568	17191.16
444.774	17355
444.981	17498.36
445.187	17936.62
445.394	18692.32
445.6	18727.14
445.807	20445.38
446.013	19501.27
446.22	19726.55
446.426	20173
446.633	20848.83
446.839	21317.82
447.046	20498.63
447.252	21401.79
447.459	21541.05
447.665	21518.52
447.871	22376.62
448.078	23365.79
448.284	22321.32
448.491	22937.76
448.697	23634.07
448.903	24373.39
449.11	24135.82
449.316	23634.07
449.522	24395.92
449.728	24662.15
449.935	25161.86
450.141	25333.89
450.347	25679.99
450.553	24885.38
450.76	24916.1
450.966	25675.9
451.172	25421.95
451.378	26232.94
451.584	25878.65
451.791	26462.32
451.997	26247.28
452.203	26820.71
452.409	26857.57
452.615	26636.39
452.821	25733.24
453.027	25348.22
453.233	26265.71
453.44	25452.67
453.646	25829.49
453.852	26034.29
454.058	26364.01
454.264	25446.52
454.47	26097.78
454.676	25454.72
454.882	26159.22
455.088	23857.3
455.294	24287.37
455.5	24959.11
455.705	24965.25
455.911	23916.69
456.117	23492.76
456.323	23249.05
456.529	22007.98
456.735	22704.29
456.941	22290.6
457.147	21999.79
457.352	21254.33
457.558	20924.61
457.764	21024.96
457.97	20603.08
458.176	20025.55
458.381	20375.75
458.587	18890.98
458.793	19335.38
458.999	18350.31
459.204	19540.18
459.41	19030.24
459.616	17684.72
459.821	18006.25
460.027	17567.99
460.233	17475.83
460.438	16488.71
460.644	16863.49
460.85	15972.62
461.055	15372.57
461.261	15599.89
461.466	14657.82
461.672	14096.68
461.878	14999.84
462.083	14096.68
462.289	13820.21
462.494	13723.95
462.7	13214.01
462.905	12833.08
463.111	13089.08
463.316	13246.77
463.522	12824.89
463.727	12964.15
463.932	12978.49
464.138	12638.53
464.343	12689.73
464.549	12290.37
464.754	12915
464.959	12742.97
465.165	12599.62
465.37	12009.8
465.575	11880.78
465.781	12173.64
465.986	12577.09
466.191	11768.14
466.397	11575.63
466.602	11032.92
466.807	11444.56
467.012	11536.72
467.218	11295.06
467.423	11155.8
467.628	11295.06
467.833	11854.16
468.038	11411.79
