Data from USB4F104151__227__11-10-54-634.txt Node

Date: Wed Mar 12 11:10:54 EDT 2025
User: louis
Spectrometer: USB4F10415
Trigger mode: 4
Integration Time (sec): 2.000000E-2
Scans to average: 1
Electric dark correction enabled: true
Nonlinearity correction enabled: false
Boxcar width: 0
XAxis mode: Wavelengths
Number of Pixels in Spectrum: 3648
>>>>>Begin Spectral Data<<<<<
178.204	-102.74
178.424	-102.74
178.644	-102.74
178.864	-57.68
179.084	-61.78
179.304	26.28
179.524	-35.16
179.744	-2.39
179.964	-41.3
180.184	9.9
180.404	16.04
180.624	28.33
180.844	-14.68
181.064	-61.78
181.283	20.14
181.503	11.95
181.723	42.67
181.943	50.86
182.163	77.48
182.383	26.28
182.602	-16.73
182.822	104.11
183.042	-8.53
183.262	24.23
183.482	-16.73
183.701	38.57
183.921	100.01
184.141	-24.92
184.361	104.11
184.58	24.23
184.8	61.1
185.02	18.09
185.239	-12.63
185.459	-10.58
185.679	28.33
185.898	-18.77
186.118	42.67
186.338	-35.16
186.557	54.95
186.777	1.71
186.997	-4.44
187.216	40.62
187.436	93.87
187.655	69.29
187.875	57
188.095	69.29
188.314	-51.54
188.534	28.33
188.753	32.43
188.973	48.81
189.192	40.62
189.412	-80.21
189.631	13.99
189.851	-12.63
190.07	-0.34
190.29	30.38
190.509	77.48
190.729	5.8
190.948	69.29
191.168	54.95
191.387	52.91
191.607	54.95
191.826	-43.35
192.045	-12.63
192.265	71.34
192.484	42.67
192.704	28.33
192.923	-26.96
193.142	-24.92
193.362	38.57
193.581	34.47
193.8	36.52
194.02	65.19
194.239	59.05
194.458	65.19
194.678	69.29
194.897	52.91
195.116	36.52
195.335	104.11
195.555	97.96
195.774	128.68
195.993	75.43
196.212	-26.96
196.432	-45.4
196.651	-4.44
196.87	30.38
197.089	61.1
197.308	-14.68
197.528	42.67
197.747	26.28
197.966	36.52
198.185	48.81
198.404	-4.44
198.623	36.52
198.842	3.75
199.062	36.52
199.281	26.28
199.5	77.48
199.719	9.9
199.938	32.43
200.157	13.99
200.376	30.38
200.595	46.76
200.814	71.34
201.033	-22.87
201.252	65.19
201.471	-14.68
201.69	65.19
201.909	46.76
202.128	-0.34
202.347	3.75
202.566	34.47
202.785	1.71
203.004	30.38
203.223	79.53
203.442	-49.49
203.661	16.04
203.879	48.81
204.098	71.34
204.317	18.09
204.536	48.81
204.755	9.9
204.974	52.91
205.193	52.91
205.411	38.57
205.63	36.52
205.849	18.09
206.068	5.8
206.287	32.43
206.505	-4.44
206.724	16.04
206.943	81.58
207.162	36.52
207.381	32.43
207.599	40.62
207.818	-20.82
208.037	42.67
208.255	-4.44
208.474	57
208.693	20.14
208.911	16.04
209.13	11.95
209.349	61.1
209.567	-59.73
209.786	-18.77
210.005	22.19
210.223	59.05
210.442	-82.26
210.661	-74.07
210.879	28.33
211.098	13.99
211.316	-0.34
211.535	42.67
211.753	16.04
211.972	36.52
212.191	7.85
212.409	42.67
212.628	-12.63
212.846	13.99
213.065	106.15
213.283	36.52
213.502	-8.53
213.72	9.9
213.938	28.33
214.157	13.99
214.375	9.9
214.594	-6.49
214.812	-39.25
215.031	69.29
215.249	-22.87
215.467	30.38
215.686	44.71
215.904	-18.77
216.122	28.33
216.341	44.71
216.559	87.72
216.778	13.99
216.996	20.14
217.214	36.52
217.432	-18.77
217.651	36.52
217.869	13.99
218.087	9.9
218.306	65.19
218.524	83.63
218.742	7.85
218.96	44.71
219.179	108.2
219.397	-6.49
219.615	104.11
219.833	95.91
220.051	30.38
220.27	69.29
220.488	-47.44
220.706	77.48
220.924	-14.68
221.142	5.8
221.36	24.23
221.578	93.87
221.796	40.62
222.015	38.57
222.233	57
222.451	73.39
222.669	26.28
222.887	-4.44
223.105	54.95
223.323	57
223.541	-16.73
223.759	11.95
223.977	34.47
224.195	16.04
224.413	-14.68
224.631	-29.01
224.849	-61.78
225.067	32.43
225.285	-8.53
225.503	18.09
225.721	26.28
225.939	-6.49
226.157	9.9
226.375	126.63
226.592	50.86
226.81	112.3
227.028	42.67
227.246	155.3
227.464	3.75
227.682	138.92
227.9	9.9
228.117	32.43
228.335	18.09
228.553	-98.64
228.771	20.14
228.989	26.28
229.206	24.23
229.424	-37.2
229.642	-35.16
229.86	40.62
230.077	48.81
230.295	32.43
230.513	61.1
230.731	59.05
230.948	73.39
231.166	112.3
231.384	7.85
231.601	-4.44
231.819	46.76
232.037	30.38
232.254	85.67
232.472	-14.68
232.689	24.23
232.907	48.81
233.125	77.48
233.342	22.19
233.56	-24.92
233.777	42.67
233.995	3.75
234.213	32.43
234.43	40.62
234.648	22.19
234.865	-33.11
235.083	-6.49
235.3	83.63
235.518	145.06
235.735	40.62
235.953	44.71
236.17	-55.64
236.388	40.62
236.605	44.71
236.822	22.19
237.04	30.38
237.257	-6.49
237.475	-31.06
237.692	30.38
237.909	-10.58
238.127	-18.77
238.344	-4.44
238.562	30.38
238.779	28.33
238.996	-57.68
239.214	102.06
239.431	61.1
239.648	30.38
239.865	13.99
240.083	26.28
240.3	11.95
240.517	-2.39
240.735	-6.49
240.952	-6.49
241.169	61.1
241.386	1.71
241.603	28.33
241.821	65.19
242.038	89.77
242.255	40.62
242.472	-0.34
242.689	61.1
242.907	-14.68
243.124	44.71
243.341	36.52
243.558	-2.39
243.775	-6.49
243.992	26.28
244.209	9.9
244.426	61.1
244.643	67.24
244.86	1.71
245.078	32.43
245.295	22.19
245.512	-29.01
245.729	16.04
245.946	112.3
246.163	59.05
246.38	44.71
246.597	13.99
246.814	18.09
247.031	-22.87
247.248	44.71
247.464	24.23
247.681	42.67
247.898	-14.68
248.115	7.85
248.332	-22.87
248.549	52.91
248.766	85.67
248.983	32.43
249.2	3.75
249.417	32.43
249.633	7.85
249.85	102.06
250.067	102.06
250.284	71.34
250.501	65.19
250.717	132.78
250.934	-43.35
251.151	18.09
251.368	32.43
251.585	61.1
251.801	59.05
252.018	36.52
252.235	50.86
252.451	38.57
252.668	-20.82
252.885	48.81
253.102	-2.39
253.318	-12.63
253.535	11.95
253.752	81.58
253.968	-39.25
254.185	46.76
254.401	57
254.618	46.76
254.835	-18.77
255.051	52.91
255.268	18.09
255.484	36.52
255.701	-47.44
255.917	34.47
256.134	-22.87
256.351	-72.02
256.567	-59.73
256.784	-47.44
257	11.95
257.217	54.95
257.433	52.91
257.65	24.23
257.866	7.85
258.082	-18.77
258.299	-2.39
258.515	61.1
258.732	9.9
258.948	7.85
259.165	34.47
259.381	24.23
259.597	52.91
259.814	44.71
260.03	59.05
260.246	30.38
260.463	48.81
260.679	91.82
260.895	-49.49
261.112	-20.82
261.328	-22.87
261.544	38.57
261.761	34.47
261.977	28.33
262.193	-49.49
262.409	34.47
262.626	44.71
262.842	-8.53
263.058	-29.01
263.274	-16.73
263.49	7.85
263.707	30.38
263.923	16.04
264.139	24.23
264.355	46.76
264.571	-26.96
264.787	-6.49
265.004	50.86
265.22	52.91
265.436	9.9
265.652	57
265.868	11.95
266.084	28.33
266.3	-37.2
266.516	-0.34
266.732	77.48
266.948	30.38
267.164	36.52
267.38	22.19
267.596	22.19
267.812	-14.68
268.028	124.58
268.244	-22.87
268.46	36.52
268.676	11.95
268.892	11.95
269.108	65.19
269.324	18.09
269.54	73.39
269.756	100.01
269.972	42.67
270.188	46.76
270.403	24.23
270.619	87.72
270.835	106.15
271.051	50.86
271.267	-47.44
271.483	-8.53
271.698	-20.82
271.914	-43.35
272.13	-2.39
272.346	-16.73
272.562	32.43
272.777	65.19
272.993	11.95
273.209	79.53
273.425	16.04
273.64	40.62
273.856	24.23
274.072	73.39
274.287	11.95
274.503	16.04
274.719	-22.87
274.934	65.19
275.15	-22.87
275.366	106.15
275.581	59.05
275.797	67.24
276.012	38.57
276.228	-2.39
276.444	18.09
276.659	13.99
276.875	7.85
277.09	54.95
277.306	54.95
277.521	77.48
277.737	61.1
277.952	89.77
278.168	54.95
278.383	36.52
278.599	-6.49
278.814	20.14
279.03	-24.92
279.245	-2.39
279.461	36.52
279.676	32.43
279.892	73.39
280.107	-41.3
280.322	7.85
280.538	59.05
280.753	-49.49
280.969	28.33
281.184	-49.49
281.399	54.95
281.615	42.67
281.83	16.04
282.045	-24.92
282.26	13.99
282.476	3.75
282.691	93.87
282.906	22.19
283.122	-10.58
283.337	-12.63
283.552	-4.44
283.767	-6.49
283.983	48.81
284.198	-22.87
284.413	24.23
284.628	5.8
284.843	67.24
285.058	-14.68
285.274	24.23
285.489	24.23
285.704	34.47
285.919	-18.77
286.134	24.23
286.349	-2.39
286.564	-20.82
286.779	54.95
286.995	28.33
287.21	-4.44
287.425	83.63
287.64	16.04
287.855	11.95
288.07	-16.73
288.285	26.28
288.5	73.39
288.715	-20.82
288.93	-2.39
289.145	26.28
289.36	-55.64
289.575	38.57
289.79	46.76
290.004	3.75
290.219	44.71
290.434	-100.69
290.649	61.1
290.864	95.91
291.079	71.34
291.294	63.15
291.509	-12.63
291.724	40.62
291.938	34.47
292.153	85.67
292.368	57
292.583	-14.68
292.798	24.23
293.012	3.75
293.227	63.15
293.442	54.95
293.657	52.91
293.871	28.33
294.086	61.1
294.301	116.39
294.516	57
294.73	52.91
294.945	-6.49
295.16	52.91
295.374	26.28
295.589	-31.06
295.804	3.75
296.018	11.95
296.233	-4.44
296.447	36.52
296.662	1.71
296.877	-4.44
297.091	87.72
297.306	30.38
297.52	16.04
297.735	-26.96
297.949	-20.82
298.164	61.1
298.378	20.14
298.593	-29.01
298.807	28.33
299.022	1.71
299.236	38.57
299.451	28.33
299.665	116.39
299.88	89.77
300.094	24.23
300.309	24.23
300.523	102.06
300.737	48.81
300.952	57
301.166	40.62
301.381	-22.87
301.595	-2.39
301.809	22.19
302.024	30.38
302.238	5.8
302.452	71.34
302.667	3.75
302.881	38.57
303.095	108.2
303.309	40.62
303.524	1.71
303.738	93.87
303.952	59.05
304.166	-2.39
304.381	-20.82
304.595	48.81
304.809	11.95
305.023	-4.44
305.237	-0.34
305.452	93.87
305.666	44.71
305.88	93.87
306.094	32.43
306.308	3.75
306.522	-41.3
306.736	73.39
306.95	-6.49
307.164	24.23
307.379	16.04
307.593	-2.39
307.807	116.39
308.021	52.91
308.235	28.33
308.449	-0.34
308.663	-22.87
308.877	116.39
309.091	71.34
309.305	-45.4
309.519	85.67
309.733	134.82
309.947	-0.34
310.161	38.57
310.374	57
310.588	3.75
310.802	-16.73
311.016	1.71
311.23	59.05
311.444	-29.01
311.658	61.1
311.872	87.72
312.085	28.33
312.299	71.34
312.513	54.95
312.727	75.43
312.941	61.1
313.154	44.71
313.368	91.82
313.582	22.19
313.796	-2.39
314.009	26.28
314.223	57
314.437	26.28
314.651	18.09
314.864	95.91
315.078	-72.02
315.292	7.85
315.505	34.47
315.719	44.71
315.933	26.28
316.146	42.67
316.36	1.71
316.573	104.11
316.787	28.33
317.001	3.75
317.214	3.75
317.428	-12.63
317.641	59.05
317.855	36.52
318.068	7.85
318.282	32.43
318.495	-8.53
318.709	34.47
318.922	-18.77
319.136	147.11
319.349	83.63
319.563	22.19
319.776	-37.2
319.99	50.86
320.203	-18.77
320.417	73.39
320.63	-12.63
320.843	42.67
321.057	-20.82
321.27	71.34
321.483	91.82
321.697	81.58
321.91	38.57
322.124	16.04
322.337	11.95
322.55	118.44
322.763	-24.92
322.977	89.77
323.19	-26.96
323.403	-10.58
323.617	20.14
323.83	71.34
324.043	-29.01
324.256	65.19
324.469	-26.96
324.683	48.81
324.896	-26.96
325.109	52.91
325.322	16.04
325.535	114.34
325.748	9.9
325.962	-12.63
326.175	81.58
326.388	73.39
326.601	-20.82
326.814	54.95
327.027	48.81
327.24	89.77
327.453	34.47
327.666	28.33
327.879	26.28
328.092	48.81
328.305	-0.34
328.518	-0.34
328.731	102.06
328.944	26.28
329.157	38.57
329.37	-10.58
329.583	65.19
329.796	63.15
330.009	46.76
330.222	28.33
330.435	-0.34
330.648	44.71
330.861	11.95
331.073	48.81
331.286	73.39
331.499	42.67
331.712	18.09
331.925	-12.63
332.138	118.44
332.35	52.91
332.563	52.91
332.776	136.87
332.989	5.8
333.202	65.19
333.414	-0.34
333.627	-16.73
333.84	44.71
334.053	18.09
334.265	54.95
334.478	13.99
334.691	-4.44
334.903	-4.44
335.116	7.85
335.329	38.57
335.541	-8.53
335.754	44.71
335.966	32.43
336.179	65.19
336.392	54.95
336.604	57
336.817	26.28
337.029	75.43
337.242	46.76
337.454	87.72
337.667	7.85
337.88	69.29
338.092	85.67
338.305	79.53
338.517	-14.68
338.729	5.8
338.942	18.09
339.154	-51.54
339.367	1.71
339.579	81.58
339.792	22.19
340.004	50.86
340.217	26.28
340.429	9.9
340.641	16.04
340.854	30.38
341.066	-74.07
341.278	16.04
341.491	81.58
341.703	11.95
341.915	-16.73
342.128	75.43
342.34	11.95
342.552	5.8
342.764	7.85
342.977	67.24
343.189	32.43
343.401	32.43
343.613	40.62
343.826	32.43
344.038	36.52
344.25	100.01
344.462	-29.01
344.674	67.24
344.886	93.87
345.099	75.43
345.311	54.95
345.523	3.75
345.735	57
345.947	32.43
346.159	9.9
346.371	79.53
346.583	-35.16
346.795	71.34
347.007	38.57
347.219	71.34
347.431	-37.2
347.643	28.33
347.855	13.99
348.067	57
348.279	-29.01
348.491	24.23
348.703	18.09
348.915	13.99
349.127	24.23
349.339	93.87
349.551	3.75
349.763	57
349.975	67.24
350.187	26.28
350.399	83.63
350.61	83.63
350.822	-4.44
351.034	71.34
351.246	-18.77
351.458	30.38
351.669	30.38
351.881	26.28
352.093	85.67
352.305	9.9
352.517	-37.2
352.728	157.35
352.94	46.76
353.152	48.81
353.363	-24.92
353.575	1.71
353.787	26.28
353.999	93.87
354.21	77.48
354.422	65.19
354.633	7.85
354.845	-2.39
355.057	3.75
355.268	1.71
355.48	32.43
355.692	69.29
355.903	42.67
356.115	67.24
356.326	-74.07
356.538	-43.35
356.749	1.71
356.961	106.15
357.172	28.33
357.384	42.67
357.595	91.82
357.807	83.63
358.018	69.29
358.23	9.9
358.441	97.96
358.653	73.39
358.864	28.33
359.075	65.19
359.287	20.14
359.498	124.58
359.709	67.24
359.921	-16.73
360.132	18.09
360.344	22.19
360.555	-33.11
360.766	73.39
360.977	48.81
361.189	-16.73
361.4	36.52
361.611	61.1
361.823	57
362.034	71.34
362.245	40.62
362.456	40.62
362.667	110.25
362.879	59.05
363.09	61.1
363.301	16.04
363.512	79.53
363.723	-20.82
363.935	-31.06
364.146	42.67
364.357	40.62
364.568	16.04
364.779	44.71
364.99	61.1
365.201	30.38
365.412	22.19
365.623	97.96
365.834	34.47
366.045	36.52
366.256	36.52
366.467	11.95
366.678	11.95
366.889	18.09
367.1	36.52
367.311	100.01
367.522	20.14
367.733	38.57
367.944	-4.44
368.155	-22.87
368.366	106.15
368.577	34.47
368.788	110.25
368.999	-14.68
369.209	9.9
369.42	26.28
369.631	106.15
369.842	28.33
370.053	-16.73
370.264	-14.68
370.474	13.99
370.685	16.04
370.896	34.47
371.107	67.24
371.317	81.58
371.528	42.67
371.739	89.77
371.95	54.95
372.16	65.19
372.371	13.99
372.582	28.33
372.792	18.09
373.003	-0.34
373.214	75.43
373.424	-10.58
373.635	42.67
373.846	30.38
374.056	38.57
374.267	73.39
374.477	28.33
374.688	46.76
374.898	63.15
375.109	-2.39
375.319	-4.44
375.53	69.29
375.74	-35.16
375.951	13.99
376.161	5.8
376.372	50.86
376.582	95.91
376.793	61.1
377.003	63.15
377.214	54.95
377.424	42.67
377.635	13.99
377.845	28.33
378.055	18.09
378.266	-14.68
378.476	46.76
378.686	40.62
378.897	91.82
379.107	52.91
379.317	83.63
379.528	40.62
379.738	-45.4
379.948	38.57
380.158	32.43
380.369	26.28
380.579	112.3
380.789	73.39
380.999	81.58
381.21	54.95
381.42	126.63
381.63	11.95
381.84	100.01
382.05	52.91
382.261	52.91
382.471	87.72
382.681	36.52
382.891	149.16
383.101	52.91
383.311	30.38
383.521	97.96
383.731	38.57
383.941	79.53
384.151	52.91
384.361	20.14
384.571	28.33
384.781	11.95
384.991	69.29
385.201	52.91
385.411	30.38
385.621	46.76
385.831	63.15
386.041	40.62
386.251	16.04
386.461	69.29
386.671	34.47
386.881	32.43
387.091	54.95
387.301	67.24
387.511	34.47
387.72	73.39
387.93	67.24
388.14	7.85
388.35	77.48
388.56	50.86
388.769	-18.77
388.979	20.14
389.189	73.39
389.399	81.58
389.609	59.05
389.818	13.99
390.028	5.8
390.238	44.71
390.447	138.92
390.657	87.72
390.867	22.19
391.076	63.15
391.286	48.81
391.496	34.47
391.705	26.28
391.915	89.77
392.125	50.86
392.334	42.67
392.544	34.47
392.753	38.57
392.963	65.19
393.172	36.52
393.382	50.86
393.591	75.43
393.801	-55.64
394.01	79.53
394.22	5.8
394.429	65.19
394.639	32.43
394.848	63.15
395.058	40.62
395.267	-12.63
395.477	65.19
395.686	149.16
395.895	79.53
396.105	91.82
396.314	110.25
396.524	67.24
396.733	110.25
396.942	20.14
397.152	46.76
397.361	83.63
397.57	32.43
397.78	112.3
397.989	106.15
398.198	163.5
398.407	69.29
398.617	120.49
398.826	83.63
399.035	77.48
399.244	89.77
399.453	136.87
399.663	81.58
399.872	75.43
400.081	91.82
400.29	110.25
400.499	126.63
400.708	112.3
400.917	69.29
401.127	42.67
401.336	151.21
401.545	134.82
401.754	102.06
401.963	104.11
402.172	73.39
402.381	83.63
402.59	118.44
402.799	22.19
403.008	132.78
403.217	124.58
403.426	136.87
403.635	120.49
403.844	24.23
404.053	85.67
404.262	143.02
404.471	173.74
404.68	128.68
404.888	83.63
405.097	20.14
405.306	102.06
405.515	81.58
405.724	126.63
405.933	173.74
406.142	159.4
406.35	106.15
406.559	57
406.768	192.17
406.977	165.54
407.185	153.26
407.394	116.39
407.603	118.44
407.812	140.97
408.02	237.22
408.229	183.98
408.438	220.84
408.646	196.26
408.855	274.09
409.064	216.74
409.272	165.54
409.481	194.22
409.69	183.98
409.898	220.84
410.107	229.03
410.315	214.7
410.524	169.64
410.733	241.32
410.941	272.04
411.15	241.32
411.358	265.89
411.567	276.13
411.775	235.18
411.984	269.99
412.192	290.47
412.401	339.62
412.609	362.15
412.818	374.44
413.026	388.77
413.234	333.48
413.443	454.31
413.651	405.16
413.86	409.25
414.068	507.55
414.276	351.91
414.485	513.7
414.693	431.78
414.901	620.19
415.11	595.62
415.318	513.7
415.526	595.62
415.734	591.52
415.943	585.38
416.151	577.19
416.359	642.72
416.567	636.58
416.776	708.26
416.984	669.34
417.192	706.21
417.4	712.35
417.608	722.59
417.817	728.74
418.025	880.29
418.233	779.93
418.441	855.71
418.649	933.53
418.857	900.76
419.065	931.48
419.273	816.8
419.481	1076.89
419.689	1054.36
419.897	1136.28
420.105	1101.47
420.313	1109.66
420.521	1218.2
420.729	1195.67
420.937	1199.77
421.145	1283.74
421.353	1287.83
421.561	1375.89
421.769	1443.48
421.977	1556.11
422.185	1494.68
422.393	1588.88
422.601	1722
422.809	1746.58
423.017	1635.99
423.224	1832.59
423.432	1871.5
423.64	1846.93
423.848	1975.95
424.056	2025.1
424.263	2086.54
424.471	2113.16
424.679	2115.21
424.887	2277
425.094	2399.88
425.302	2332.3
425.51	2471.56
425.718	2469.51
425.925	2512.52
426.133	2602.63
426.341	2573.96
426.548	2772.61
426.756	2838.14
426.964	2864.77
427.171	3223.16
427.379	3110.52
427.586	3204.73
427.794	3284.6
428.001	3581.56
428.209	3636.85
428.417	3591.8
428.624	3927.66
428.832	3747.44
429.039	3806.83
429.247	3948.14
429.454	4128.36
429.662	4558.44
429.869	4130.41
430.076	4472.42
430.284	4263.53
430.491	4609.64
430.699	4884.06
430.906	4828.77
431.114	4849.25
431.321	4902.5
431.528	5066.33
431.736	5523.03
431.943	5652.05
432.15	5461.59
432.358	5496.41
432.565	5875.28
432.772	5858.9
432.979	6067.79
433.187	6116.94
433.394	6205
433.601	6454.86
433.808	6766.15
434.016	6673.99
434.223	6893.12
434.43	7491.13
434.637	7177.79
434.844	7730.74
435.052	7859.76
435.259	7843.38
435.466	7720.5
435.673	7671.35
435.88	8240.68
436.087	8529.45
436.294	8785.44
436.501	8449.58
436.708	8724.01
436.915	8924.71
437.122	9092.64
437.329	9248.29
437.537	9481.75
437.743	9907.73
437.95	9713.17
438.157	10071.57
438.364	10468.87
438.571	10505.74
438.778	10429.96
438.985	11472.38
439.192	11214.34
439.399	11558.39
439.606	11038.21
439.813	11924.98
440.02	12385.77
440.227	12338.67
440.433	12340.72
440.64	12482.03
440.847	12682.73
441.054	12746.22
441.261	13694.43
441.467	13649.37
441.674	13891.03
441.881	14165.46
442.088	14263.76
442.294	13954.52
442.501	14527.95
442.708	14759.37
442.914	15343.04
443.121	15906.23
443.328	15785.4
443.534	16479.66
443.741	16008.63
443.948	16027.06
444.154	17018.28
444.361	16793
444.568	17081.77
444.774	16973.22
444.981	17249.7
445.187	17386.91
445.394	18451.86
445.6	18281.88
445.807	20055.42
446.013	19398.02
446.22	19328.39
446.426	20374.9
446.633	20522.35
446.839	20825.45
447.046	20094.33
447.252	21583.2
447.459	21319.01
447.665	21415.27
447.871	22265.17
448.078	22789.45
448.284	22099.29
448.491	22580.56
448.697	23518.53
448.903	23596.35
449.11	23874.88
449.316	23364.93
449.522	23799.1
449.728	24599.86
449.935	24694.07
450.141	24622.39
450.347	25496.87
450.553	24327.48
450.76	24749.36
450.966	25701.67
451.172	25285.93
451.378	25687.33
451.584	25382.18
451.791	25892.13
451.997	25619.75
452.203	26080.54
452.409	25924.9
452.615	26158.36
452.821	25099.56
453.027	24626.48
453.233	26084.64
453.44	25019.69
453.646	25494.82
453.852	25474.34
454.058	25824.54
454.264	24900.91
454.47	25492.77
454.676	24909.1
454.882	25699.62
455.088	23405.89
455.294	24036.67
455.5	24073.53
455.705	24517.94
455.911	23346.5
456.117	22859.09
456.323	22725.97
456.529	21402.98
456.735	22244.7
456.941	21575.01
457.147	21359.97
457.352	20893.04
457.558	20129.14
457.764	20723.05
457.97	20100.47
458.176	19774.84
458.381	19537.28
458.587	18658.7
458.793	18521.49
458.999	17634.72
459.204	19101.06
459.41	18480.53
459.616	17184.16
459.821	17329.57
460.027	17112.49
460.233	16588.21
460.438	15893.94
460.644	16422.32
460.85	15398.34
461.055	15168.96
461.261	15189.44
461.466	13829.59
461.672	13784.54
461.878	14591.44
462.083	13719
462.289	13454.81
462.494	13311.46
462.7	12525.04
462.905	12178.93
463.111	12717.54
463.316	12744.17
463.522	12555.76
463.727	12596.71
463.932	12535.28
464.138	12568.04
464.343	12289.52
464.549	12176.88
464.754	12426.73
464.959	12453.36
465.165	12283.38
465.37	11693.56
465.575	11443.71
465.781	11812.34
465.986	11957.75
466.191	11642.36
466.397	11419.13
466.602	10737.16
466.807	11286.01
467.012	11007.49
467.218	11189.76
467.423	10810.89
467.628	11099.65
467.833	11437.56
468.038	11120.13
