Data from USB4F104151__71__11-06-16-304.txt Node

Date: Wed Mar 12 11:06:16 EDT 2025
User: louis
Spectrometer: USB4F10415
Trigger mode: 4
Integration Time (sec): 2.000000E-2
Scans to average: 1
Electric dark correction enabled: true
Nonlinearity correction enabled: false
Boxcar width: 0
XAxis mode: Wavelengths
Number of Pixels in Spectrum: 3648
>>>>>Begin Spectral Data<<<<<
178.204	-41.3
178.424	-41.3
178.644	-41.3
178.864	-137.56
179.084	-76.12
179.304	-6.49
179.524	20.14
179.744	-20.82
179.964	-16.73
180.184	69.29
180.404	24.23
180.624	-41.3
180.844	-6.49
181.064	44.71
181.283	-47.44
181.503	-41.3
181.723	22.19
181.943	36.52
182.163	61.1
182.383	28.33
182.602	44.71
182.822	69.29
183.042	16.04
183.262	30.38
183.482	46.76
183.701	-31.06
183.921	-14.68
184.141	-2.39
184.361	1.71
184.58	1.71
184.8	34.47
185.02	9.9
185.239	61.1
185.459	18.09
185.679	-12.63
185.898	73.39
186.118	9.9
186.338	36.52
186.557	91.82
186.777	-45.4
186.997	22.19
187.216	32.43
187.436	75.43
187.655	11.95
187.875	65.19
188.095	-6.49
188.314	73.39
188.534	-29.01
188.753	26.28
188.973	11.95
189.192	30.38
189.412	87.72
189.631	-8.53
189.851	38.57
190.07	67.24
190.29	1.71
190.509	16.04
190.729	30.38
190.948	42.67
191.168	81.58
191.387	110.25
191.607	-20.82
191.826	-0.34
192.045	-51.54
192.265	22.19
192.484	-6.49
192.704	79.53
192.923	30.38
193.142	30.38
193.362	61.1
193.581	18.09
193.8	13.99
194.02	79.53
194.239	22.19
194.458	34.47
194.678	5.8
194.897	22.19
195.116	42.67
195.335	32.43
195.555	1.71
195.774	132.78
195.993	50.86
196.212	71.34
196.432	46.76
196.651	5.8
196.87	-20.82
197.089	50.86
197.308	85.67
197.528	13.99
197.747	22.19
197.966	18.09
198.185	52.91
198.404	-6.49
198.623	-20.82
198.842	-24.92
199.062	59.05
199.281	40.62
199.5	22.19
199.719	34.47
199.938	-6.49
200.157	20.14
200.376	5.8
200.595	13.99
200.814	3.75
201.033	34.47
201.252	3.75
201.471	57
201.69	-33.11
201.909	24.23
202.128	-8.53
202.347	63.15
202.566	59.05
202.785	-43.35
203.004	22.19
203.223	11.95
203.442	16.04
203.661	79.53
203.879	52.91
204.098	5.8
204.317	22.19
204.536	-8.53
204.755	40.62
204.974	52.91
205.193	9.9
205.411	32.43
205.63	83.63
205.849	-16.73
206.068	22.19
206.287	-14.68
206.505	18.09
206.724	16.04
206.943	36.52
207.162	36.52
207.381	13.99
207.599	18.09
207.818	63.15
208.037	-31.06
208.255	-6.49
208.474	-14.68
208.693	-47.44
208.911	-0.34
209.13	30.38
209.349	-14.68
209.567	61.1
209.786	26.28
210.005	79.53
210.223	-29.01
210.442	-8.53
210.661	50.86
210.879	5.8
211.098	18.09
211.316	16.04
211.535	61.1
211.753	28.33
211.972	7.85
212.191	5.8
212.409	38.57
212.628	20.14
212.846	-53.59
213.065	-31.06
213.283	22.19
213.502	26.28
213.72	5.8
213.938	-10.58
214.157	77.48
214.375	36.52
214.594	28.33
214.812	100.01
215.031	-18.77
215.249	28.33
215.467	59.05
215.686	63.15
215.904	42.67
216.122	114.34
216.341	71.34
216.559	20.14
216.778	52.91
216.996	63.15
217.214	1.71
217.432	-0.34
217.651	-39.25
217.869	-22.87
218.087	48.81
218.306	44.71
218.524	75.43
218.742	-12.63
218.96	79.53
219.179	-10.58
219.397	40.62
219.615	91.82
219.833	-10.58
220.051	24.23
220.27	34.47
220.488	-2.39
220.706	81.58
220.924	-49.49
221.142	75.43
221.36	38.57
221.578	11.95
221.796	16.04
222.015	26.28
222.233	42.67
222.451	116.39
222.669	-4.44
222.887	81.58
223.105	-35.16
223.323	-2.39
223.541	63.15
223.759	50.86
223.977	36.52
224.195	5.8
224.413	24.23
224.631	-14.68
224.849	11.95
225.067	40.62
225.285	24.23
225.503	13.99
225.721	34.47
225.939	42.67
226.157	-14.68
226.375	75.43
226.592	67.24
226.81	-24.92
227.028	34.47
227.246	-18.77
227.464	69.29
227.682	-55.64
227.9	65.19
228.117	-29.01
228.335	34.47
228.553	44.71
228.771	-4.44
228.989	32.43
229.206	13.99
229.424	22.19
229.642	34.47
229.86	9.9
230.077	57
230.295	20.14
230.513	73.39
230.731	40.62
230.948	77.48
231.166	-4.44
231.384	26.28
231.601	5.8
231.819	61.1
232.037	42.67
232.254	18.09
232.472	-6.49
232.689	-61.78
232.907	13.99
233.125	22.19
233.342	52.91
233.56	-53.59
233.777	-0.34
233.995	11.95
234.213	-29.01
234.43	28.33
234.648	-39.25
234.865	30.38
235.083	97.96
235.3	52.91
235.518	7.85
235.735	16.04
235.953	16.04
236.17	-51.54
236.388	20.14
236.605	32.43
236.822	16.04
237.04	106.15
237.257	46.76
237.475	1.71
237.692	-72.02
237.909	1.71
238.127	13.99
238.344	67.24
238.562	7.85
238.779	-39.25
238.996	24.23
239.214	-0.34
239.431	-22.87
239.648	20.14
239.865	-37.2
240.083	67.24
240.3	38.57
240.517	3.75
240.735	-4.44
240.952	-51.54
241.169	65.19
241.386	42.67
241.603	-16.73
241.821	13.99
242.038	24.23
242.255	77.48
242.472	-20.82
242.689	71.34
242.907	5.8
243.124	52.91
243.341	26.28
243.558	13.99
243.775	67.24
243.992	-29.01
244.209	22.19
244.426	61.1
244.643	59.05
244.86	79.53
245.078	7.85
245.295	9.9
245.512	36.52
245.729	-43.35
245.946	26.28
246.163	34.47
246.38	-35.16
246.597	52.91
246.814	100.01
247.031	30.38
247.248	22.19
247.464	54.95
247.681	44.71
247.898	38.57
248.115	83.63
248.332	38.57
248.549	-0.34
248.766	16.04
248.983	54.95
249.2	-0.34
249.417	52.91
249.633	16.04
249.85	48.81
250.067	-6.49
250.284	44.71
250.501	30.38
250.717	-12.63
250.934	38.57
251.151	-8.53
251.368	-10.58
251.585	44.71
251.801	18.09
252.018	-22.87
252.235	63.15
252.451	34.47
252.668	30.38
252.885	-2.39
253.102	40.62
253.318	9.9
253.535	46.76
253.752	63.15
253.968	22.19
254.185	13.99
254.401	38.57
254.618	20.14
254.835	-43.35
255.051	52.91
255.268	40.62
255.484	-35.16
255.701	61.1
255.917	112.3
256.134	108.2
256.351	1.71
256.567	30.38
256.784	59.05
257	22.19
257.217	26.28
257.433	7.85
257.65	48.81
257.866	28.33
258.082	16.04
258.299	-8.53
258.515	-29.01
258.732	71.34
258.948	79.53
259.165	-16.73
259.381	54.95
259.597	13.99
259.814	20.14
260.03	44.71
260.246	-18.77
260.463	46.76
260.679	40.62
260.895	59.05
261.112	28.33
261.328	-4.44
261.544	59.05
261.761	42.67
261.977	46.76
262.193	67.24
262.409	-24.92
262.626	50.86
262.842	-0.34
263.058	28.33
263.274	5.8
263.49	-8.53
263.707	100.01
263.923	-16.73
264.139	42.67
264.355	-43.35
264.571	87.72
264.787	79.53
265.004	100.01
265.22	71.34
265.436	46.76
265.652	116.39
265.868	40.62
266.084	38.57
266.3	11.95
266.516	24.23
266.732	-4.44
266.948	44.71
267.164	40.62
267.38	5.8
267.596	-2.39
267.812	40.62
268.028	87.72
268.244	63.15
268.46	46.76
268.676	89.77
268.892	26.28
269.108	40.62
269.324	-8.53
269.54	9.9
269.756	67.24
269.972	-4.44
270.188	5.8
270.403	-10.58
270.619	59.05
270.835	-43.35
271.051	40.62
271.267	-31.06
271.483	-29.01
271.698	-31.06
271.914	-37.2
272.13	-4.44
272.346	104.11
272.562	-2.39
272.777	153.26
272.993	61.1
273.209	87.72
273.425	3.75
273.64	26.28
273.856	75.43
274.072	22.19
274.287	7.85
274.503	85.67
274.719	79.53
274.934	42.67
275.15	-63.83
275.366	-43.35
275.581	44.71
275.797	104.11
276.012	42.67
276.228	7.85
276.444	34.47
276.659	32.43
276.875	46.76
277.09	87.72
277.306	5.8
277.521	-41.3
277.737	-37.2
277.952	87.72
278.168	18.09
278.383	38.57
278.599	-22.87
278.814	18.09
279.03	48.81
279.245	26.28
279.461	30.38
279.676	-29.01
279.892	9.9
280.107	63.15
280.322	-10.58
280.538	1.71
280.753	59.05
280.969	77.48
281.184	-6.49
281.399	7.85
281.615	42.67
281.83	71.34
282.045	-16.73
282.26	-37.2
282.476	59.05
282.691	42.67
282.906	46.76
283.122	44.71
283.337	16.04
283.552	11.95
283.767	18.09
283.983	44.71
284.198	65.19
284.413	-22.87
284.628	-2.39
284.843	54.95
285.058	87.72
285.274	50.86
285.489	11.95
285.704	-2.39
285.919	7.85
286.134	5.8
286.349	-2.39
286.564	36.52
286.779	104.11
286.995	36.52
287.21	-0.34
287.425	38.57
287.64	52.91
287.855	44.71
288.07	-16.73
288.285	11.95
288.5	-51.54
288.715	26.28
288.93	-20.82
289.145	11.95
289.36	50.86
289.575	28.33
289.79	-4.44
290.004	54.95
290.219	30.38
290.434	36.52
290.649	50.86
290.864	36.52
291.079	40.62
291.294	102.06
291.509	-51.54
291.724	28.33
291.938	97.96
292.153	38.57
292.368	54.95
292.583	61.1
292.798	34.47
293.012	67.24
293.227	-10.58
293.442	11.95
293.657	34.47
293.871	102.06
294.086	46.76
294.301	30.38
294.516	52.91
294.73	46.76
294.945	1.71
295.16	63.15
295.374	87.72
295.589	89.77
295.804	-43.35
296.018	50.86
296.233	83.63
296.447	-0.34
296.662	1.71
296.877	48.81
297.091	79.53
297.306	-2.39
297.52	13.99
297.735	20.14
297.949	32.43
298.164	132.78
298.378	73.39
298.593	-12.63
298.807	3.75
299.022	13.99
299.236	63.15
299.451	-22.87
299.665	30.38
299.88	26.28
300.094	61.1
300.309	65.19
300.523	73.39
300.737	87.72
300.952	57
301.166	24.23
301.381	18.09
301.595	48.81
301.809	-26.96
302.024	9.9
302.238	67.24
302.452	71.34
302.667	40.62
302.881	54.95
303.095	87.72
303.309	18.09
303.524	42.67
303.738	54.95
303.952	93.87
304.166	11.95
304.381	-12.63
304.595	83.63
304.809	1.71
305.023	34.47
305.237	87.72
305.452	-37.2
305.666	22.19
305.88	24.23
306.094	75.43
306.308	13.99
306.522	-10.58
306.736	67.24
306.95	42.67
307.164	20.14
307.379	28.33
307.593	28.33
307.807	13.99
308.021	30.38
308.235	16.04
308.449	5.8
308.663	1.71
308.877	87.72
309.091	30.38
309.305	-16.73
309.519	-24.92
309.733	9.9
309.947	-6.49
310.161	67.24
310.374	28.33
310.588	22.19
310.802	13.99
311.016	30.38
311.23	28.33
311.444	24.23
311.658	52.91
311.872	9.9
312.085	59.05
312.299	81.58
312.513	5.8
312.727	118.44
312.941	46.76
313.154	-6.49
313.368	22.19
313.582	38.57
313.796	36.52
314.009	81.58
314.223	-10.58
314.437	-29.01
314.651	91.82
314.864	69.29
315.078	-6.49
315.292	-2.39
315.505	65.19
315.719	79.53
315.933	57
316.146	26.28
316.36	-4.44
316.573	36.52
316.787	81.58
317.001	22.19
317.214	36.52
317.428	22.19
317.641	26.28
317.855	-0.34
318.068	11.95
318.282	44.71
318.495	5.8
318.709	112.3
318.922	1.71
319.136	22.19
319.349	108.2
319.563	57
319.776	42.67
319.99	50.86
320.203	36.52
320.417	83.63
320.63	81.58
320.843	112.3
321.057	50.86
321.27	16.04
321.483	3.75
321.697	54.95
321.91	32.43
322.124	32.43
322.337	32.43
322.55	46.76
322.763	20.14
322.977	24.23
323.19	-26.96
323.403	16.04
323.617	44.71
323.83	138.92
324.043	46.76
324.256	30.38
324.469	36.52
324.683	11.95
324.896	-22.87
325.109	85.67
325.322	18.09
325.535	32.43
325.748	-43.35
325.962	16.04
326.175	42.67
326.388	13.99
326.601	-14.68
326.814	104.11
327.027	-6.49
327.24	22.19
327.453	-43.35
327.666	9.9
327.879	52.91
328.092	3.75
328.305	3.75
328.518	32.43
328.731	81.58
328.944	-2.39
329.157	44.71
329.37	95.91
329.583	114.34
329.796	50.86
330.009	-8.53
330.222	-22.87
330.435	63.15
330.648	26.28
330.861	54.95
331.073	61.1
331.286	32.43
331.499	28.33
331.712	-24.92
331.925	91.82
332.138	-8.53
332.35	73.39
332.563	114.34
332.776	54.95
332.989	-20.82
333.202	75.43
333.414	36.52
333.627	-4.44
333.84	22.19
334.053	87.72
334.265	26.28
334.478	120.49
334.691	42.67
334.903	-49.49
335.116	13.99
335.329	71.34
335.541	89.77
335.754	112.3
335.966	-39.25
336.179	102.06
336.392	-72.02
336.604	77.48
336.817	54.95
337.029	102.06
337.242	-16.73
337.454	34.47
337.667	36.52
337.88	85.67
338.092	-24.92
338.305	42.67
338.517	28.33
338.729	40.62
338.942	-4.44
339.154	28.33
339.367	-10.58
339.579	7.85
339.792	75.43
340.004	5.8
340.217	13.99
340.429	71.34
340.641	73.39
340.854	-47.44
341.066	5.8
341.278	1.71
341.491	75.43
341.703	20.14
341.915	16.04
342.128	100.01
342.34	63.15
342.552	102.06
342.764	30.38
342.977	50.86
343.189	46.76
343.401	97.96
343.613	46.76
343.826	59.05
344.038	5.8
344.25	65.19
344.462	65.19
344.674	100.01
344.886	40.62
345.099	13.99
345.311	87.72
345.523	-45.4
345.735	20.14
345.947	100.01
346.159	-10.58
346.371	48.81
346.583	9.9
346.795	93.87
347.007	48.81
347.219	44.71
347.431	-8.53
347.643	106.15
347.855	87.72
348.067	18.09
348.279	42.67
348.491	26.28
348.703	22.19
348.915	77.48
349.127	40.62
349.339	83.63
349.551	5.8
349.763	-43.35
349.975	20.14
350.187	22.19
350.399	54.95
350.61	9.9
350.822	3.75
351.034	106.15
351.246	46.76
351.458	71.34
351.669	59.05
351.881	36.52
352.093	106.15
352.305	104.11
352.517	69.29
352.728	77.48
352.94	-31.06
353.152	54.95
353.363	34.47
353.575	48.81
353.787	-33.11
353.999	61.1
354.21	9.9
354.422	5.8
354.633	13.99
354.845	97.96
355.057	126.63
355.268	140.97
355.48	48.81
355.692	34.47
355.903	-10.58
356.115	-22.87
356.326	57
356.538	67.24
356.749	36.52
356.961	75.43
357.172	18.09
357.384	-31.06
357.595	20.14
357.807	124.58
358.018	73.39
358.23	85.67
358.441	114.34
358.653	87.72
358.864	20.14
359.075	22.19
359.287	22.19
359.498	57
359.709	102.06
359.921	18.09
360.132	73.39
360.344	52.91
360.555	69.29
360.766	136.87
360.977	32.43
361.189	81.58
361.4	61.1
361.611	136.87
361.823	63.15
362.034	114.34
362.245	-14.68
362.456	5.8
362.667	7.85
362.879	104.11
363.09	69.29
363.301	26.28
363.512	79.53
363.723	1.71
363.935	38.57
364.146	22.19
364.357	89.77
364.568	30.38
364.779	32.43
364.99	85.67
365.201	16.04
365.412	122.54
365.623	91.82
365.834	30.38
366.045	-10.58
366.256	100.01
366.467	-10.58
366.678	91.82
366.889	18.09
367.1	77.48
367.311	100.01
367.522	54.95
367.733	61.1
367.944	46.76
368.155	134.82
368.366	134.82
368.577	28.33
368.788	-12.63
368.999	-10.58
369.209	48.81
369.42	108.2
369.631	83.63
369.842	126.63
370.053	46.76
370.264	40.62
370.474	79.53
370.685	1.71
370.896	85.67
371.107	13.99
371.317	116.39
371.528	38.57
371.739	38.57
371.95	11.95
372.16	116.39
372.371	13.99
372.582	67.24
372.792	48.81
373.003	57
373.214	40.62
373.424	57
373.635	38.57
373.846	65.19
374.056	40.62
374.267	67.24
374.477	11.95
374.688	73.39
374.898	-10.58
375.109	132.78
375.319	20.14
375.53	128.68
375.74	54.95
375.951	-12.63
376.161	89.77
376.372	42.67
376.582	57
376.793	42.67
377.003	63.15
377.214	118.44
377.424	30.38
377.635	52.91
377.845	52.91
378.055	120.49
378.266	40.62
378.476	93.87
378.686	59.05
378.897	24.23
379.107	42.67
379.317	65.19
379.528	-35.16
379.738	65.19
379.948	-55.64
380.158	67.24
380.369	116.39
380.579	28.33
380.789	104.11
380.999	67.24
381.21	69.29
381.42	108.2
381.63	34.47
381.84	22.19
382.05	-45.4
382.261	44.71
382.471	61.1
382.681	138.92
382.891	102.06
383.101	42.67
383.311	50.86
383.521	69.29
383.731	75.43
383.941	81.58
384.151	34.47
384.361	42.67
384.571	116.39
384.781	104.11
384.991	75.43
385.201	134.82
385.411	44.71
385.621	89.77
385.831	100.01
386.041	52.91
386.251	59.05
386.461	69.29
386.671	13.99
386.881	36.52
387.091	32.43
387.301	65.19
387.511	71.34
387.72	95.91
387.93	91.82
388.14	30.38
388.35	136.87
388.56	85.67
388.769	81.58
388.979	44.71
389.189	81.58
389.399	85.67
389.609	122.54
389.818	61.1
390.028	120.49
390.238	108.2
390.447	63.15
390.657	16.04
390.867	36.52
391.076	69.29
391.286	3.75
391.496	89.77
391.705	67.24
391.915	136.87
392.125	102.06
392.334	18.09
392.544	69.29
392.753	138.92
392.963	83.63
393.172	93.87
393.382	77.48
393.591	169.64
393.801	104.11
394.01	161.45
394.22	54.95
394.429	87.72
394.639	40.62
394.848	75.43
395.058	57
395.267	112.3
395.477	57
395.686	186.02
395.895	87.72
396.105	140.97
396.314	87.72
396.524	126.63
396.733	93.87
396.942	134.82
397.152	167.59
397.361	163.5
397.57	77.48
397.78	149.16
397.989	95.91
398.198	222.89
398.407	126.63
398.617	151.21
398.826	181.93
399.035	198.31
399.244	145.06
399.453	155.3
399.663	106.15
399.872	106.15
400.081	134.82
400.29	157.35
400.499	155.3
400.708	149.16
400.917	216.74
401.127	120.49
401.336	116.39
401.545	173.74
401.754	181.93
401.963	165.54
402.172	110.25
402.381	59.05
402.59	198.31
402.799	136.87
403.008	95.91
403.217	71.34
403.426	186.02
403.635	134.82
403.844	108.2
404.053	126.63
404.262	249.51
404.471	269.99
404.68	192.17
404.888	214.7
405.097	169.64
405.306	190.12
405.515	239.27
405.724	214.7
405.933	249.51
406.142	192.17
406.35	212.65
406.559	294.57
406.768	220.84
406.977	253.61
407.185	251.56
407.394	210.6
407.603	210.6
407.812	306.85
408.02	323.24
408.229	247.46
408.438	253.61
408.646	284.33
408.855	382.63
409.064	362.15
409.272	356.01
409.481	448.16
409.69	368.29
409.898	358.05
410.107	394.92
410.315	448.16
410.524	431.78
410.733	446.12
410.941	382.63
411.15	374.44
411.358	454.31
411.567	505.51
411.775	491.17
411.984	542.37
412.192	585.38
412.401	638.62
412.609	532.13
412.818	618.15
413.026	646.82
413.234	693.92
413.443	677.54
413.651	630.43
413.86	771.74
414.068	759.46
414.276	835.23
414.485	796.32
414.693	841.37
414.901	908.96
415.11	927.39
415.318	958.11
415.526	929.44
415.734	1050.27
415.943	1105.56
416.151	1027.74
416.359	1095.32
416.567	1134.23
416.776	1250.97
416.984	1287.83
417.192	1316.5
417.4	1244.82
417.608	1257.11
417.817	1425.04
418.025	1482.39
418.233	1463.96
418.441	1470.1
418.649	1601.17
418.857	1758.86
419.065	1879.69
419.273	1635.99
419.481	1846.93
419.689	2045.58
419.897	1963.66
420.105	2135.69
420.313	2193.03
420.521	2152.07
420.729	2160.27
420.937	2360.97
421.145	2422.41
421.353	2598.53
421.561	2510.47
421.769	2657.92
421.977	2643.59
422.185	2782.85
422.393	2883.2
422.601	3155.58
422.809	2979.45
423.017	3194.49
423.224	3274.36
423.432	3446.39
423.64	3376.76
423.848	3640.95
424.056	3729.01
424.263	4046.44
424.471	3948.14
424.679	3948.14
424.887	4226.67
425.094	4263.53
425.302	4302.44
425.51	4564.58
425.718	4671.08
425.925	4742.75
426.133	4918.88
426.341	5068.38
426.548	5391.96
426.756	5410.39
426.964	5375.58
427.171	5783.12
427.379	5871.19
427.586	6069.84
427.794	6256.2
428.001	6499.91
428.209	6696.52
428.417	6753.86
428.624	7210.56
428.832	7110.21
429.039	7265.85
429.247	7138.88
429.454	7763.51
429.662	8367.66
429.869	7765.56
430.076	8453.67
430.284	8072.75
430.491	8300.08
430.699	9092.64
430.906	8934.95
431.114	9023.01
431.321	9561.62
431.528	9659.93
431.736	10442.25
431.943	10550.79
432.15	10305.04
432.358	10432.01
432.565	11089.41
432.772	11032.07
432.979	11531.77
433.187	11595.26
433.394	12029.43
433.601	12854.76
433.808	12602.86
434.016	12592.62
434.223	13202.91
434.43	14163.41
434.637	13661.66
434.844	14659.02
435.052	14734.79
435.259	14708.17
435.466	14988.74
435.673	14814.66
435.88	15697.34
436.087	16610.73
436.294	16618.93
436.501	16096.69
436.708	16242.1
436.915	17104.29
437.122	17790.36
437.329	17663.39
437.537	18386.32
437.743	18736.52
437.95	18392.47
438.157	19703.17
438.364	20135.29
438.571	19879.29
438.778	20346.23
438.985	21747.04
439.192	21433.7
439.399	21798.24
439.606	21302.63
439.813	22629.71
440.02	24108.35
440.227	23573.83
440.433	23536.96
440.64	24466.74
440.847	23858.49
441.054	24790.32
441.261	26127.64
441.467	25599.27
441.674	26381.59
441.881	27329.8
442.088	27411.72
442.294	26846.48
442.501	27802.88
442.708	28284.16
442.914	29240.56
443.121	30495.96
443.328	29699.3
443.534	31876.29
443.741	30985.43
443.948	30766.29
444.154	32769.21
444.361	32722.1
444.568	33057.97
444.774	32984.24
444.981	33297.58
445.187	34069.67
445.394	35728.52
445.6	35284.11
445.807	38294.63
446.013	36916.34
446.22	37514.35
446.426	38634.59
446.633	39107.67
446.839	40455.23
447.046	38837.34
447.252	40936.51
447.459	41069.62
447.665	41102.39
447.871	42472.48
448.078	43992.08
448.284	41708.59
448.491	43451.41
448.697	44819.45
448.903	45523.96
449.11	45435.89
449.316	44968.96
449.522	45515.76
449.728	46984.16
449.935	47471.57
450.141	47317.98
450.347	48077.77
450.553	46744.55
450.76	47494.1
450.966	48726.98
451.172	48182.22
451.378	49052.61
451.584	48315.34
451.791	49488.82
451.997	49355.71
452.203	50398.12
452.409	50066.35
452.615	49578.93
452.821	47864.78
453.027	47553.49
453.233	49810.35
453.44	47956.94
453.646	48231.37
453.852	48534.47
454.058	49335.23
454.264	47328.22
454.47	48466.89
454.676	47530.97
454.882	48784.32
455.088	44559.36
455.294	45888.49
455.5	46113.77
455.705	46488.55
455.911	44672
456.117	43891.72
456.323	43013.15
456.529	41067.58
456.735	42484.77
456.941	41466.93
457.147	40854.59
457.352	39875.66
457.558	39021.66
457.764	39165.01
457.97	38321.25
458.176	37581.93
458.381	37526.64
458.587	35884.17
458.793	35562.64
458.999	34192.54
459.204	36404.35
459.41	35458.19
459.616	33053.87
459.821	33170.61
460.027	32853.17
460.233	32181.44
460.438	30442.71
460.644	30874.84
460.85	29588.71
461.055	29181.17
461.261	29232.36
461.466	26922.26
461.672	25998.62
461.878	28079.36
462.083	26348.82
462.289	26252.57
462.494	25576.74
462.7	24536.37
462.905	23713.09
463.111	24515.89
463.316	24616.24
463.522	24223.03
463.727	24476.98
463.932	24206.65
464.138	24071.48
464.343	23694.66
464.549	23510.34
464.754	24229.18
464.959	23932.22
465.165	23985.47
465.37	22814.03
465.575	21912.92
465.781	22930.76
465.986	23303.5
466.191	22424.92
466.397	22093.15
466.602	20942.19
466.807	21779.81
467.012	21814.62
