Data from USB4F104151__100__11-07-01-799.txt Node

Date: Wed Mar 12 11:07:01 EDT 2025
User: louis
Spectrometer: USB4F10415
Trigger mode: 4
Integration Time (sec): 2.000000E-2
Scans to average: 1
Electric dark correction enabled: true
Nonlinearity correction enabled: false
Boxcar width: 0
XAxis mode: Wavelengths
Number of Pixels in Spectrum: 3648
>>>>>Begin Spectral Data<<<<<
178.204	-102.06
178.424	-102.06
178.644	-102.06
178.864	-61.1
179.084	-57
179.304	-36.52
179.524	2.39
179.744	-26.28
179.964	41.3
180.184	8.53
180.404	-34.47
180.624	-44.71
180.844	18.77
181.064	43.35
181.283	8.53
181.503	6.49
181.723	12.63
181.943	39.25
182.163	51.54
182.383	-7.85
182.602	65.88
182.822	12.63
183.042	22.87
183.262	-7.85
183.482	10.58
183.701	-18.09
183.921	-32.43
184.141	-13.99
184.361	82.26
184.58	31.06
184.8	8.53
185.02	16.73
185.239	88.4
185.459	72.02
185.679	55.64
185.898	10.58
186.118	22.87
186.338	22.87
186.557	33.11
186.777	24.92
186.997	-11.95
187.216	35.16
187.436	61.78
187.655	-18.09
187.875	-5.8
188.095	29.01
188.314	49.49
188.534	37.2
188.753	24.92
188.973	-36.52
189.192	-26.28
189.412	-1.71
189.631	14.68
189.851	-5.8
190.07	61.78
190.29	-3.75
190.509	-3.75
190.729	76.12
190.948	24.92
191.168	84.31
191.387	-24.23
191.607	-46.76
191.826	-7.85
192.045	86.36
192.265	63.83
192.484	63.83
192.704	57.68
192.923	2.39
193.142	2.39
193.362	18.77
193.581	90.45
193.8	22.87
194.02	29.01
194.239	22.87
194.458	31.06
194.678	47.44
194.897	47.44
195.116	22.87
195.335	-16.04
195.555	63.83
195.774	22.87
195.993	67.92
196.212	51.54
196.432	-11.95
196.651	37.2
196.87	-67.24
197.089	57.68
197.308	33.11
197.528	0.34
197.747	-32.43
197.966	53.59
198.185	14.68
198.404	-77.48
198.623	41.3
198.842	12.63
199.062	18.77
199.281	55.64
199.5	-7.85
199.719	61.78
199.938	41.3
200.157	39.25
200.376	-26.28
200.595	18.77
200.814	55.64
201.033	-5.8
201.252	57.68
201.471	53.59
201.69	-36.52
201.909	57.68
202.128	33.11
202.347	26.96
202.566	-20.14
202.785	-16.04
203.004	-1.71
203.223	49.49
203.442	125.27
203.661	-34.47
203.879	29.01
204.098	-28.33
204.317	41.3
204.536	20.82
204.755	-11.95
204.974	29.01
205.193	-24.23
205.411	35.16
205.63	26.96
205.849	16.73
206.068	-32.43
206.287	-1.71
206.505	33.11
206.724	-13.99
206.943	-24.23
207.162	8.53
207.381	33.11
207.599	22.87
207.818	-52.91
208.037	61.78
208.255	-5.8
208.474	-28.33
208.693	-9.9
208.911	0.34
209.13	35.16
209.349	31.06
209.567	-13.99
209.786	78.16
210.005	-36.52
210.223	69.97
210.442	-42.67
210.661	51.54
210.879	41.3
211.098	88.4
211.316	4.44
211.535	74.07
211.753	-24.23
211.972	92.5
212.191	84.31
212.409	49.49
212.628	33.11
212.846	29.01
213.065	10.58
213.283	57.68
213.502	55.64
213.72	59.73
213.938	18.77
214.157	-16.04
214.375	22.87
214.594	2.39
214.812	74.07
215.031	29.01
215.249	-7.85
215.467	51.54
215.686	18.77
215.904	31.06
216.122	31.06
216.341	35.16
216.559	-24.23
216.778	45.4
216.996	76.12
217.214	39.25
217.432	53.59
217.651	-59.05
217.869	-16.04
218.087	-13.99
218.306	-16.04
218.524	35.16
218.742	41.3
218.96	88.4
219.179	31.06
219.397	10.58
219.615	80.21
219.833	53.59
220.051	-13.99
220.27	37.2
220.488	29.01
220.706	12.63
220.924	-69.29
221.142	67.92
221.36	47.44
221.578	57.68
221.796	112.98
222.015	53.59
222.233	-22.19
222.451	55.64
222.669	18.77
222.887	37.2
223.105	115.03
223.323	55.64
223.541	12.63
223.759	-34.47
223.977	31.06
224.195	59.73
224.413	96.6
224.631	-13.99
224.849	29.01
225.067	59.73
225.285	-48.81
225.503	4.44
225.721	18.77
225.939	0.34
226.157	37.2
226.375	80.21
226.592	-3.75
226.81	6.49
227.028	-30.38
227.246	84.31
227.464	-22.19
227.682	67.92
227.9	16.73
228.117	72.02
228.335	-32.43
228.553	51.54
228.771	-42.67
228.989	-7.85
229.206	24.92
229.424	69.97
229.642	-16.04
229.86	39.25
230.077	33.11
230.295	-11.95
230.513	37.2
230.731	39.25
230.948	16.73
231.166	39.25
231.384	-11.95
231.601	69.97
231.819	63.83
232.037	-22.19
232.254	-77.48
232.472	57.68
232.689	-9.9
232.907	-28.33
233.125	12.63
233.342	12.63
233.56	82.26
233.777	18.77
233.995	92.5
234.213	37.2
234.43	29.01
234.648	-36.52
234.865	65.88
235.083	6.49
235.3	26.96
235.518	14.68
235.735	59.73
235.953	55.64
236.17	-46.76
236.388	22.87
236.605	45.4
236.822	41.3
237.04	-20.14
237.257	-3.75
237.475	-7.85
237.692	8.53
237.909	0.34
238.127	-5.8
238.344	104.79
238.562	14.68
238.779	49.49
238.996	22.87
239.214	16.73
239.431	43.35
239.648	-9.9
239.865	24.92
240.083	43.35
240.3	-3.75
240.517	-61.1
240.735	31.06
240.952	-11.95
241.169	39.25
241.386	20.82
241.603	37.2
241.821	-52.91
242.038	55.64
242.255	16.73
242.472	-16.04
242.689	29.01
242.907	39.25
243.124	-50.86
243.341	37.2
243.558	-5.8
243.775	53.59
243.992	20.82
244.209	47.44
244.426	59.73
244.643	35.16
244.86	67.92
245.078	4.44
245.295	63.83
245.512	43.35
245.729	49.49
245.946	74.07
246.163	22.87
246.38	53.59
246.597	39.25
246.814	82.26
247.031	-50.86
247.248	16.73
247.464	37.2
247.681	24.92
247.898	20.82
248.115	43.35
248.332	-28.33
248.549	72.02
248.766	12.63
248.983	53.59
249.2	29.01
249.417	22.87
249.633	29.01
249.85	0.34
250.067	4.44
250.284	33.11
250.501	16.73
250.717	41.3
250.934	0.34
251.151	35.16
251.368	78.16
251.585	51.54
251.801	65.88
252.018	37.2
252.235	-3.75
252.451	-44.71
252.668	61.78
252.885	78.16
253.102	51.54
253.318	33.11
253.535	-32.43
253.752	-18.09
253.968	74.07
254.185	29.01
254.401	0.34
254.618	33.11
254.835	6.49
255.051	29.01
255.268	43.35
255.484	24.92
255.701	-11.95
255.917	76.12
256.134	-7.85
256.351	0.34
256.567	74.07
256.784	18.77
257	10.58
257.217	29.01
257.433	51.54
257.65	29.01
257.866	76.12
258.082	0.34
258.299	14.68
258.515	41.3
258.732	-20.14
258.948	20.82
259.165	67.92
259.381	26.96
259.597	-20.14
259.814	35.16
260.03	35.16
260.246	102.74
260.463	33.11
260.679	106.84
260.895	0.34
261.112	49.49
261.328	-1.71
261.544	45.4
261.761	80.21
261.977	-5.8
262.193	4.44
262.409	-18.09
262.626	63.83
262.842	51.54
263.058	-50.86
263.274	24.92
263.49	-13.99
263.707	74.07
263.923	-16.04
264.139	-18.09
264.355	84.31
264.571	49.49
264.787	61.78
265.004	102.74
265.22	0.34
265.436	37.2
265.652	-7.85
265.868	16.73
266.084	41.3
266.3	47.44
266.516	29.01
266.732	-3.75
266.948	41.3
267.164	-30.38
267.38	-34.47
267.596	24.92
267.812	14.68
268.028	37.2
268.244	-13.99
268.46	-28.33
268.676	4.44
268.892	96.6
269.108	51.54
269.324	18.77
269.54	-54.95
269.756	74.07
269.972	-1.71
270.188	26.96
270.403	-73.39
270.619	37.2
270.835	12.63
271.051	29.01
271.267	-7.85
271.483	63.83
271.698	125.27
271.914	55.64
272.13	22.87
272.346	-42.67
272.562	41.3
272.777	61.78
272.993	106.84
273.209	12.63
273.425	14.68
273.64	18.77
273.856	61.78
274.072	82.26
274.287	37.2
274.503	90.45
274.719	-28.33
274.934	8.53
275.15	-3.75
275.366	-32.43
275.581	-7.85
275.797	67.92
276.012	8.53
276.228	31.06
276.444	43.35
276.659	33.11
276.875	4.44
277.09	35.16
277.306	65.88
277.521	24.92
277.737	29.01
277.952	102.74
278.168	26.96
278.383	37.2
278.599	20.82
278.814	80.21
279.03	20.82
279.245	72.02
279.461	41.3
279.676	-20.14
279.892	45.4
280.107	-5.8
280.322	4.44
280.538	24.92
280.753	-13.99
280.969	57.68
281.184	37.2
281.399	59.73
281.615	12.63
281.83	-3.75
282.045	80.21
282.26	69.97
282.476	-44.71
282.691	45.4
282.906	47.44
283.122	-26.28
283.337	22.87
283.552	-3.75
283.767	49.49
283.983	-9.9
284.198	-30.38
284.413	53.59
284.628	39.25
284.843	35.16
285.058	45.4
285.274	-16.04
285.489	39.25
285.704	82.26
285.919	51.54
286.134	31.06
286.349	29.01
286.564	0.34
286.779	57.68
286.995	84.31
287.21	-40.62
287.425	76.12
287.64	31.06
287.855	-9.9
288.07	31.06
288.285	-13.99
288.5	112.98
288.715	41.3
288.93	20.82
289.145	108.88
289.36	-32.43
289.575	78.16
289.79	39.25
290.004	69.97
290.219	33.11
290.434	16.73
290.649	65.88
290.864	-5.8
291.079	0.34
291.294	63.83
291.509	-3.75
291.724	35.16
291.938	39.25
292.153	24.92
292.368	35.16
292.583	121.17
292.798	47.44
293.012	49.49
293.227	8.53
293.442	43.35
293.657	-11.95
293.871	-16.04
294.086	6.49
294.301	33.11
294.516	84.31
294.73	0.34
294.945	-20.14
295.16	-3.75
295.374	24.92
295.589	45.4
295.804	-28.33
296.018	2.39
296.233	-9.9
296.447	45.4
296.662	47.44
296.877	88.4
297.091	49.49
297.306	78.16
297.52	18.77
297.735	125.27
297.949	41.3
298.164	33.11
298.378	-63.15
298.593	-20.14
298.807	14.68
299.022	16.73
299.236	149.84
299.451	33.11
299.665	33.11
299.88	51.54
300.094	43.35
300.309	-24.23
300.523	61.78
300.737	-50.86
300.952	57.68
301.166	45.4
301.381	0.34
301.595	31.06
301.809	94.55
302.024	22.87
302.238	49.49
302.452	22.87
302.667	-7.85
302.881	57.68
303.095	-50.86
303.309	-18.09
303.524	12.63
303.738	53.59
303.952	14.68
304.166	29.01
304.381	8.53
304.595	74.07
304.809	80.21
305.023	2.39
305.237	65.88
305.452	12.63
305.666	20.82
305.88	20.82
306.094	22.87
306.308	47.44
306.522	51.54
306.736	24.92
306.95	74.07
307.164	53.59
307.379	12.63
307.593	59.73
307.807	98.64
308.021	65.88
308.235	-7.85
308.449	0.34
308.663	8.53
308.877	84.31
309.091	8.53
309.305	67.92
309.519	-9.9
309.733	22.87
309.947	29.01
310.161	57.68
310.374	41.3
310.588	61.78
310.802	41.3
311.016	72.02
311.23	20.82
311.444	119.12
311.658	24.92
311.872	119.12
312.085	8.53
312.299	0.34
312.513	-13.99
312.727	-11.95
312.941	55.64
313.154	16.73
313.368	41.3
313.582	55.64
313.796	29.01
314.009	-61.1
314.223	31.06
314.437	43.35
314.651	39.25
314.864	2.39
315.078	-3.75
315.292	-28.33
315.505	-13.99
315.719	35.16
315.933	12.63
316.146	-48.81
316.36	41.3
316.573	94.55
316.787	20.82
317.001	57.68
317.214	6.49
317.428	24.92
317.641	-24.23
317.855	86.36
318.068	10.58
318.282	-9.9
318.495	82.26
318.709	92.5
318.922	18.77
319.136	61.78
319.349	139.6
319.563	59.73
319.776	33.11
319.99	-26.28
320.203	106.84
320.417	72.02
320.63	-13.99
320.843	74.07
321.057	47.44
321.27	18.77
321.483	45.4
321.697	57.68
321.91	74.07
322.124	92.5
322.337	67.92
322.55	47.44
322.763	65.88
322.977	33.11
323.19	29.01
323.403	88.4
323.617	8.53
323.83	53.59
324.043	47.44
324.256	51.54
324.469	47.44
324.683	69.97
324.896	63.83
325.109	-22.19
325.322	41.3
325.535	-54.95
325.748	29.01
325.962	-11.95
326.175	20.82
326.388	-3.75
326.601	20.82
326.814	119.12
327.027	51.54
327.24	61.78
327.453	-1.71
327.666	72.02
327.879	90.45
328.092	35.16
328.305	16.73
328.518	0.34
328.731	53.59
328.944	29.01
329.157	4.44
329.37	49.49
329.583	-32.43
329.796	24.92
330.009	61.78
330.222	45.4
330.435	49.49
330.648	55.64
330.861	-26.28
331.073	61.78
331.286	14.68
331.499	108.88
331.712	47.44
331.925	35.16
332.138	94.55
332.35	78.16
332.563	125.27
332.776	57.68
332.989	69.97
333.202	-18.09
333.414	-20.14
333.627	47.44
333.84	-5.8
334.053	57.68
334.265	31.06
334.478	0.34
334.691	6.49
334.903	65.88
335.116	35.16
335.329	72.02
335.541	-73.39
335.754	35.16
335.966	-73.39
336.179	14.68
336.392	-22.19
336.604	41.3
336.817	84.31
337.029	55.64
337.242	65.88
337.454	51.54
337.667	-16.04
337.88	127.32
338.092	84.31
338.305	-5.8
338.517	-24.23
338.729	69.97
338.942	49.49
339.154	20.82
339.367	-20.14
339.579	26.96
339.792	39.25
340.004	78.16
340.217	-3.75
340.429	84.31
340.641	20.82
340.854	63.83
341.066	14.68
341.278	45.4
341.491	78.16
341.703	-3.75
341.915	72.02
342.128	47.44
342.34	47.44
342.552	-3.75
342.764	-3.75
342.977	2.39
343.189	125.27
343.401	47.44
343.613	0.34
343.826	20.82
344.038	20.82
344.25	6.49
344.462	-16.04
344.674	98.64
344.886	6.49
345.099	20.82
345.311	18.77
345.523	78.16
345.735	57.68
345.947	92.5
346.159	8.53
346.371	69.97
346.583	49.49
346.795	47.44
347.007	8.53
347.219	112.98
347.431	86.36
347.643	49.49
347.855	86.36
348.067	86.36
348.279	31.06
348.491	20.82
348.703	82.26
348.915	2.39
349.127	63.83
349.339	112.98
349.551	47.44
349.763	2.39
349.975	39.25
350.187	119.12
350.399	123.22
350.61	20.82
350.822	24.92
351.034	31.06
351.246	26.96
351.458	49.49
351.669	59.73
351.881	59.73
352.093	4.44
352.305	18.77
352.517	-32.43
352.728	80.21
352.94	39.25
353.152	129.36
353.363	16.73
353.575	76.12
353.787	102.74
353.999	16.73
354.21	67.92
354.422	12.63
354.633	37.2
354.845	12.63
355.057	6.49
355.268	110.93
355.48	51.54
355.692	-1.71
355.903	65.88
356.115	-5.8
356.326	-24.23
356.538	69.97
356.749	29.01
356.961	47.44
357.172	88.4
357.384	-24.23
357.595	29.01
357.807	39.25
358.018	127.32
358.23	26.96
358.441	72.02
358.653	65.88
358.864	-11.95
359.075	37.2
359.287	49.49
359.498	-9.9
359.709	16.73
359.921	22.87
360.132	104.79
360.344	51.54
360.555	49.49
360.766	45.4
360.977	-44.71
361.189	33.11
361.4	69.97
361.611	63.83
361.823	6.49
362.034	35.16
362.245	41.3
362.456	88.4
362.667	35.16
362.879	35.16
363.09	-9.9
363.301	67.92
363.512	65.88
363.723	61.78
363.935	-57
364.146	55.64
364.357	117.08
364.568	31.06
364.779	0.34
364.99	24.92
365.201	33.11
365.412	67.92
365.623	45.4
365.834	61.78
366.045	88.4
366.256	41.3
366.467	41.3
366.678	22.87
366.889	84.31
367.1	-13.99
367.311	31.06
367.522	8.53
367.733	16.73
367.944	86.36
368.155	26.96
368.366	29.01
368.577	57.68
368.788	98.64
368.999	-9.9
369.209	39.25
369.42	108.88
369.631	92.5
369.842	-34.47
370.053	45.4
370.264	49.49
370.474	63.83
370.685	63.83
370.896	49.49
371.107	-5.8
371.317	61.78
371.528	51.54
371.739	74.07
371.95	47.44
372.16	108.88
372.371	88.4
372.582	-7.85
372.792	53.59
373.003	12.63
373.214	29.01
373.424	55.64
373.635	39.25
373.846	102.74
374.056	47.44
374.267	8.53
374.477	37.2
374.688	24.92
374.898	90.45
375.109	41.3
375.319	80.21
375.53	45.4
375.74	82.26
375.951	6.49
376.161	92.5
376.372	74.07
376.582	-1.71
376.793	43.35
377.003	29.01
377.214	61.78
377.424	-57
377.635	41.3
377.845	12.63
378.055	39.25
378.266	55.64
378.476	86.36
378.686	69.97
378.897	-13.99
379.107	31.06
379.317	57.68
379.528	0.34
379.738	127.32
379.948	96.6
380.158	76.12
380.369	110.93
380.579	78.16
380.789	12.63
380.999	59.73
381.21	65.88
381.42	72.02
381.63	47.44
381.84	65.88
382.05	78.16
382.261	69.97
382.471	16.73
382.681	39.25
382.891	102.74
383.101	41.3
383.311	84.31
383.521	4.44
383.731	98.64
383.941	127.32
384.151	90.45
384.361	80.21
384.571	20.82
384.781	96.6
384.991	57.68
385.201	39.25
385.411	-28.33
385.621	41.3
385.831	88.4
386.041	61.78
386.251	29.01
386.461	100.69
386.671	67.92
386.881	18.77
387.091	59.73
387.301	22.87
387.511	47.44
387.72	88.4
387.93	82.26
388.14	59.73
388.35	26.96
388.56	-18.09
388.769	41.3
388.979	98.64
389.189	16.73
389.399	39.25
389.609	53.59
389.818	67.92
390.028	59.73
390.238	59.73
390.447	31.06
390.657	16.73
390.867	59.73
391.076	8.53
391.286	82.26
391.496	20.82
391.705	61.78
391.915	37.2
392.125	49.49
392.334	14.68
392.544	102.74
392.753	69.97
392.963	-20.14
393.172	174.42
393.382	-7.85
393.591	92.5
393.801	20.82
394.01	55.64
394.22	104.79
394.429	63.83
394.639	90.45
394.848	84.31
395.058	29.01
395.267	57.68
395.477	65.88
395.686	147.8
395.895	117.08
396.105	110.93
396.314	80.21
396.524	43.35
396.733	117.08
396.942	133.46
397.152	115.03
397.361	104.79
397.57	80.21
397.78	63.83
397.989	153.94
398.198	119.12
398.407	92.5
398.617	117.08
398.826	51.54
399.035	90.45
399.244	139.6
399.453	55.64
399.663	170.32
399.872	67.92
400.081	117.08
400.29	141.65
400.499	65.88
400.708	141.65
400.917	145.75
401.127	121.17
401.336	90.45
401.545	162.13
401.754	51.54
401.963	127.32
402.172	88.4
402.381	78.16
402.59	104.79
402.799	145.75
403.008	112.98
403.217	72.02
403.426	139.6
403.635	153.94
403.844	139.6
404.053	143.7
404.262	82.26
404.471	127.32
404.68	180.56
404.888	176.47
405.097	106.84
405.306	158.03
405.515	112.98
405.724	237.91
405.933	211.28
406.142	127.32
406.35	180.56
406.559	178.51
406.768	151.89
406.977	127.32
407.185	186.71
407.394	219.47
407.603	194.9
407.812	244.05
408.02	227.67
408.229	237.91
408.438	188.75
408.646	219.47
408.855	268.63
409.064	260.43
409.272	115.03
409.481	356.69
409.69	282.96
409.898	287.06
410.107	295.25
410.315	276.82
410.524	285.01
410.733	258.39
410.941	305.49
411.15	317.78
411.358	344.4
411.567	416.08
411.775	440.65
411.984	432.46
412.192	391.5
412.401	424.27
412.609	416.08
412.818	502.09
413.026	487.76
413.234	538.96
413.443	504.14
413.651	477.52
413.86	489.81
414.068	555.34
414.276	553.29
414.485	500.05
414.693	610.64
414.901	641.36
415.11	624.97
415.318	667.98
415.526	647.5
415.734	680.27
415.943	790.86
416.151	702.79
416.359	700.75
416.567	862.54
416.776	825.67
416.984	893.26
417.192	936.26
417.4	981.32
417.608	860.49
417.817	989.51
418.025	1016.13
418.233	1085.76
418.441	1079.62
418.649	1149.25
418.857	1161.54
419.065	1130.82
419.273	1073.48
419.481	1274.18
419.689	1268.03
419.897	1362.24
420.105	1454.4
420.313	1435.97
420.521	1493.31
420.729	1454.4
420.937	1593.66
421.145	1528.13
421.353	1620.28
421.561	1745.21
421.769	1802.55
421.977	1902.9
422.185	1841.47
422.393	1900.86
422.601	2171.19
422.809	2070.84
423.017	2066.74
423.224	2316.59
423.432	2203.96
423.64	2388.27
423.848	2470.19
424.056	2435.38
424.263	2539.82
424.471	2617.65
424.679	2791.72
424.887	2898.22
425.094	2887.98
425.302	3037.48
425.51	3096.87
425.718	3227.94
425.925	3205.41
426.133	3422.5
426.341	3481.89
426.548	3643.68
426.756	3629.34
426.964	3756.32
427.171	3871
427.379	3881.24
427.586	4032.79
427.794	4112.66
428.001	4260.12
428.209	4514.06
428.417	4495.63
428.624	4854.03
428.832	4759.82
429.039	4690.19
429.247	4725.01
429.454	5333.25
429.662	5673.21
429.869	5234.95
430.076	5533.95
430.284	5443.84
430.491	5824.76
430.699	5894.4
430.906	6013.18
431.114	6035.71
431.321	6234.36
431.528	6469.87
431.736	6828.27
431.943	6969.58
432.15	6969.58
432.358	7065.83
432.565	7342.31
432.772	7225.58
432.979	7586.02
433.187	7977.18
433.394	7934.17
433.601	8581.33
433.808	8241.37
434.016	8329.43
434.223	8843.47
434.43	9410.76
434.637	9185.48
434.844	9717.95
435.052	9765.06
435.259	9994.43
435.466	9943.23
435.673	9814.21
435.88	10387.64
436.087	11155.63
436.294	11083.95
436.501	10811.57
436.708	11016.37
436.915	11358.38
437.122	11882.66
437.329	11700.39
437.537	12208.28
437.743	12343.45
437.95	12218.52
438.157	13078.67
438.364	13228.17
438.571	13297.8
438.778	13510.79
438.985	14813.3
439.192	14141.57
439.399	14643.32
439.606	14383.23
439.813	15077.49
440.02	15847.52
440.227	15913.06
440.433	15562.86
440.64	16341.08
440.847	15974.5
441.054	16357.47
441.261	17307.73
441.467	17293.39
441.674	17797.19
441.881	18096.19
442.088	18114.62
442.294	17872.96
442.501	18657.34
442.708	18890.81
442.914	19687.46
443.121	20441.12
443.328	19939.37
443.534	21483.53
443.741	20664.35
443.948	20348.96
444.154	22134.79
444.361	21757.96
444.568	22059.01
444.774	22018.05
444.981	22181.89
445.187	22812.67
445.394	23676.91
445.6	23439.34
445.807	25731.02
446.013	24758.24
446.22	25110.49
446.426	26113.99
446.633	26146.76
446.839	26795.96
447.046	26126.28
447.252	27465.65
447.459	27641.78
447.665	27408.31
447.871	28544.93
448.078	29874.06
448.284	28336.04
448.491	29294.49
448.697	30238.6
448.903	30652.29
449.11	30908.29
449.316	30015.37
449.522	30971.77
449.728	31694.71
449.935	31979.37
450.141	31860.59
450.347	32421.73
450.553	31797.1
450.76	31911.79
450.966	33093.47
451.172	32548.71
451.378	33199.96
451.584	32806.75
451.791	33662.8
451.997	33488.73
452.203	34004.81
452.409	33845.07
452.615	33998.67
452.821	32558.95
453.027	32536.42
453.233	33865.55
453.44	32184.17
453.646	33001.31
453.852	33480.53
454.058	33636.18
454.264	32264.04
454.47	33261.4
454.676	32376.68
454.882	33556.31
455.088	30711.68
455.294	31119.23
455.5	31168.38
455.705	31602.55
455.911	30504.84
456.117	29824.91
456.323	29427.6
456.529	27568.05
456.735	29202.33
456.941	28405.67
457.147	27592.62
457.352	26996.67
457.558	26558.4
457.764	26693.57
457.97	26322.88
458.176	25626.57
458.381	26087.37
458.587	24352.74
458.793	24266.72
458.999	23343.09
459.204	24657.89
459.41	24238.05
459.616	22493.18
459.821	22507.52
460.027	22429.7
460.233	22020.1
460.438	21084.18
460.644	21241.87
460.85	20330.53
461.055	20277.28
461.261	19814.44
461.466	18376.76
461.672	17954.88
461.878	19247.15
462.083	17821.77
462.289	17645.64
462.494	17520.71
462.7	16658.52
462.905	16089.18
463.111	16351.32
463.316	16660.57
463.522	16146.53
463.727	16349.28
463.932	16322.65
464.138	16117.86
464.343	16103.52
464.549	15575.14
464.754	16412.76
464.959	16076.9
465.165	15911.01
465.37	15415.4
465.575	15011.95
465.781	15487.08
465.986	15837.28
466.191	14956.66
466.397	15061.1
466.602	14266.49
466.807	14717.04
467.012	14684.28
467.218	14661.75
467.423	14231.68
467.628	14526.58
467.833	15018.1
468.038	14581.88
