Data from USB4F104151__262__11-11-58-022.txt Node

Date: Wed Mar 12 11:11:58 EDT 2025
User: louis
Spectrometer: USB4F10415
Trigger mode: 4
Integration Time (sec): 2.000000E-2
Scans to average: 1
Electric dark correction enabled: true
Nonlinearity correction enabled: false
Boxcar width: 0
XAxis mode: Wavelengths
Number of Pixels in Spectrum: 3648
>>>>>Begin Spectral Data<<<<<
178.204	-88.57
178.424	-88.57
178.644	-88.57
178.864	-113.15
179.084	-156.16
179.304	-55.81
179.524	22.02
179.744	-41.47
179.964	17.92
180.184	40.45
180.404	-16.9
180.624	-27.14
180.844	15.87
181.064	-29.18
181.283	36.35
181.503	54.78
181.723	-16.9
181.943	17.92
182.163	60.93
182.383	1.54
182.602	-0.51
182.822	-29.18
183.042	3.58
183.262	-16.9
183.482	-14.85
183.701	-74.24
183.921	-29.18
184.141	-16.9
184.361	11.78
184.58	-18.94
184.8	-6.66
185.02	-29.18
185.239	3.58
185.459	-84.48
185.679	56.83
185.898	13.82
186.118	54.78
186.338	-14.85
186.557	62.98
186.777	22.02
186.997	-0.51
187.216	-10.75
187.436	75.26
187.655	7.68
187.875	19.97
188.095	-4.61
188.314	52.74
188.534	19.97
188.753	-27.14
188.973	-4.61
189.192	-4.61
189.412	3.58
189.631	-16.9
189.851	17.92
190.07	3.58
190.29	-33.28
190.509	-20.99
190.729	-23.04
190.948	1.54
191.168	24.06
191.387	71.17
191.607	-20.99
191.826	13.82
192.045	-39.42
192.265	-10.75
192.484	-55.81
192.704	9.73
192.923	-25.09
193.142	24.06
193.362	32.26
193.581	-18.94
193.8	-6.66
194.02	-29.18
194.239	-31.23
194.458	58.88
194.678	24.06
194.897	34.3
195.116	-18.94
195.335	69.12
195.555	22.02
195.774	85.5
195.993	-0.51
196.212	5.63
196.432	13.82
196.651	-18.94
196.87	9.73
197.089	73.21
197.308	5.63
197.528	30.21
197.747	13.82
197.966	-27.14
198.185	-29.18
198.404	1.54
198.623	48.64
198.842	-33.28
199.062	30.21
199.281	38.4
199.5	24.06
199.719	15.87
199.938	69.12
200.157	-33.28
200.376	-18.94
200.595	22.02
200.814	-31.23
201.033	-64
201.252	71.17
201.471	-43.52
201.69	44.54
201.909	26.11
202.128	28.16
202.347	38.4
202.566	28.16
202.785	11.78
203.004	-59.9
203.223	44.54
203.442	-10.75
203.661	22.02
203.879	-25.09
204.098	-16.9
204.317	36.35
204.536	79.36
204.755	-25.09
204.974	110.08
205.193	-10.75
205.411	19.97
205.63	-8.7
205.849	-0.51
206.068	3.58
206.287	-78.33
206.505	3.58
206.724	28.16
206.943	13.82
207.162	-31.23
207.381	17.92
207.599	105.98
207.818	46.59
208.037	11.78
208.255	54.78
208.474	-2.56
208.693	75.26
208.911	-6.66
209.13	-59.9
209.349	-12.8
209.567	-4.61
209.786	60.93
210.005	28.16
210.223	67.07
210.442	-39.42
210.661	13.82
210.879	-16.9
211.098	-55.81
211.316	-6.66
211.535	15.87
211.753	-55.81
211.972	-8.7
212.191	77.31
212.409	52.74
212.628	58.88
212.846	-86.53
213.065	-2.56
213.283	91.65
213.502	17.92
213.72	-10.75
213.938	-94.72
214.157	9.73
214.375	46.59
214.594	50.69
214.812	108.03
215.031	-12.8
215.249	-35.33
215.467	-4.61
215.686	9.73
215.904	17.92
216.122	1.54
216.341	89.6
216.559	-27.14
216.778	30.21
216.996	-18.94
217.214	46.59
217.432	62.98
217.651	-6.66
217.869	-29.18
218.087	42.5
218.306	-6.66
218.524	-12.8
218.742	-37.38
218.96	-16.9
219.179	19.97
219.397	15.87
219.615	19.97
219.833	42.5
220.051	5.63
220.27	3.58
220.488	24.06
220.706	28.16
220.924	-43.52
221.142	-27.14
221.36	97.79
221.578	5.63
221.796	-61.95
222.015	34.3
222.233	65.02
222.451	50.69
222.669	-27.14
222.887	50.69
223.105	-31.23
223.323	38.4
223.541	62.98
223.759	22.02
223.977	-6.66
224.195	75.26
224.413	-20.99
224.631	-55.81
224.849	24.06
225.067	46.59
225.285	5.63
225.503	48.64
225.721	3.58
225.939	-2.56
226.157	9.73
226.375	67.07
226.592	-45.57
226.81	3.58
227.028	15.87
227.246	65.02
227.464	-80.38
227.682	91.65
227.9	1.54
228.117	19.97
228.335	-37.38
228.553	17.92
228.771	34.3
228.989	46.59
229.206	-6.66
229.424	-27.14
229.642	38.4
229.86	13.82
230.077	36.35
230.295	28.16
230.513	9.73
230.731	13.82
230.948	-14.85
231.166	19.97
231.384	-14.85
231.601	22.02
231.819	19.97
232.037	-47.62
232.254	1.54
232.472	-4.61
232.689	-0.51
232.907	-25.09
233.125	13.82
233.342	38.4
233.56	5.63
233.777	-16.9
233.995	-29.18
234.213	93.69
234.43	-0.51
234.648	17.92
234.865	13.82
235.083	11.78
235.3	-37.38
235.518	-14.85
235.735	-0.51
235.953	-16.9
236.17	1.54
236.388	15.87
236.605	54.78
236.822	3.58
237.04	48.64
237.257	34.3
237.475	3.58
237.692	-20.99
237.909	50.69
238.127	15.87
238.344	1.54
238.562	69.12
238.779	-29.18
238.996	38.4
239.214	-27.14
239.431	-16.9
239.648	22.02
239.865	7.68
240.083	-20.99
240.3	54.78
240.517	-55.81
240.735	11.78
240.952	71.17
241.169	26.11
241.386	32.26
241.603	-23.04
241.821	-29.18
242.038	52.74
242.255	67.07
242.472	58.88
242.689	11.78
242.907	-37.38
243.124	99.84
243.341	-66.05
243.558	65.02
243.775	-14.85
243.992	-27.14
244.209	9.73
244.426	32.26
244.643	17.92
244.86	1.54
245.078	32.26
245.295	-16.9
245.512	62.98
245.729	26.11
245.946	-70.14
246.163	-68.09
246.38	62.98
246.597	-59.9
246.814	30.21
247.031	-4.61
247.248	15.87
247.464	54.78
247.681	5.63
247.898	5.63
248.115	3.58
248.332	5.63
248.549	17.92
248.766	-20.99
248.983	52.74
249.2	38.4
249.417	-0.51
249.633	-39.42
249.85	5.63
250.067	-0.51
250.284	85.5
250.501	56.83
250.717	-25.09
250.934	-33.28
251.151	9.73
251.368	58.88
251.585	110.08
251.801	-20.99
252.018	40.45
252.235	13.82
252.451	-4.61
252.668	3.58
252.885	67.07
253.102	1.54
253.318	26.11
253.535	-25.09
253.752	30.21
253.968	-27.14
254.185	-0.51
254.401	-18.94
254.618	91.65
254.835	77.31
255.051	42.5
255.268	1.54
255.484	42.5
255.701	62.98
255.917	52.74
256.134	46.59
256.351	36.35
256.567	-12.8
256.784	7.68
257	9.73
257.217	32.26
257.433	52.74
257.65	-4.61
257.866	62.98
258.082	-61.95
258.299	91.65
258.515	-33.28
258.732	1.54
258.948	-25.09
259.165	58.88
259.381	-6.66
259.597	-16.9
259.814	44.54
260.03	50.69
260.246	83.45
260.463	15.87
260.679	42.5
260.895	26.11
261.112	36.35
261.328	15.87
261.544	-29.18
261.761	67.07
261.977	-23.04
262.193	11.78
262.409	19.97
262.626	13.82
262.842	11.78
263.058	-10.75
263.274	11.78
263.49	-16.9
263.707	69.12
263.923	-23.04
264.139	32.26
264.355	-25.09
264.571	40.45
264.787	-10.75
265.004	79.36
265.22	-33.28
265.436	-0.51
265.652	-12.8
265.868	24.06
266.084	24.06
266.3	-57.86
266.516	-10.75
266.732	77.31
266.948	-4.61
267.164	34.3
267.38	71.17
267.596	42.5
267.812	3.58
268.028	-16.9
268.244	-27.14
268.46	58.88
268.676	13.82
268.892	-8.7
269.108	-6.66
269.324	-12.8
269.54	7.68
269.756	22.02
269.972	-18.94
270.188	9.73
270.403	32.26
270.619	36.35
270.835	58.88
271.051	-59.9
271.267	38.4
271.483	-0.51
271.698	50.69
271.914	-10.75
272.13	26.11
272.346	67.07
272.562	19.97
272.777	19.97
272.993	11.78
273.209	15.87
273.425	9.73
273.64	-45.57
273.856	50.69
274.072	1.54
274.287	-27.14
274.503	95.74
274.719	97.79
274.934	40.45
275.15	-10.75
275.366	7.68
275.581	11.78
275.797	69.12
276.012	26.11
276.228	17.92
276.444	-0.51
276.659	65.02
276.875	34.3
277.09	-51.71
277.306	26.11
277.521	11.78
277.737	7.68
277.952	-39.42
278.168	62.98
278.383	-20.99
278.599	32.26
278.814	54.78
279.03	-12.8
279.245	15.87
279.461	-0.51
279.676	40.45
279.892	17.92
280.107	17.92
280.322	-6.66
280.538	40.45
280.753	-4.61
280.969	101.89
281.184	71.17
281.399	-8.7
281.615	-20.99
281.83	32.26
282.045	-23.04
282.26	-20.99
282.476	1.54
282.691	11.78
282.906	-16.9
283.122	9.73
283.337	-49.66
283.552	40.45
283.767	-18.94
283.983	81.41
284.198	56.83
284.413	42.5
284.628	54.78
284.843	-2.56
285.058	83.45
285.274	13.82
285.489	24.06
285.704	7.68
285.919	1.54
286.134	34.3
286.349	13.82
286.564	22.02
286.779	65.02
286.995	42.5
287.21	-23.04
287.425	9.73
287.64	26.11
287.855	-16.9
288.07	-16.9
288.285	120.32
288.5	58.88
288.715	-6.66
288.93	26.11
289.145	3.58
289.36	60.93
289.575	46.59
289.79	65.02
290.004	-90.62
290.219	71.17
290.434	-47.62
290.649	-8.7
290.864	42.5
291.079	1.54
291.294	77.31
291.509	1.54
291.724	15.87
291.938	-16.9
292.153	93.69
292.368	-45.57
292.583	19.97
292.798	-51.71
293.012	-35.33
293.227	83.45
293.442	36.35
293.657	19.97
293.871	13.82
294.086	-51.71
294.301	-18.94
294.516	26.11
294.73	38.4
294.945	-33.28
295.16	5.63
295.374	22.02
295.589	48.64
295.804	-47.62
296.018	-29.18
296.233	1.54
296.447	-6.66
296.662	17.92
296.877	34.3
297.091	-98.81
297.306	-4.61
297.52	-14.85
297.735	40.45
297.949	-14.85
298.164	93.69
298.378	28.16
298.593	-47.62
298.807	-0.51
299.022	54.78
299.236	11.78
299.451	-6.66
299.665	9.73
299.88	-2.56
300.094	62.98
300.309	-16.9
300.523	5.63
300.737	-20.99
300.952	17.92
301.166	-45.57
301.381	-47.62
301.595	-47.62
301.809	-49.66
302.024	9.73
302.238	-2.56
302.452	28.16
302.667	-14.85
302.881	73.21
303.095	34.3
303.309	-25.09
303.524	-25.09
303.738	17.92
303.952	-18.94
304.166	-12.8
304.381	-8.7
304.595	46.59
304.809	30.21
305.023	-37.38
305.237	46.59
305.452	-10.75
305.666	-6.66
305.88	97.79
306.094	-14.85
306.308	71.17
306.522	58.88
306.736	81.41
306.95	7.68
307.164	32.26
307.379	13.82
307.593	69.12
307.807	-35.33
308.021	-4.61
308.235	-8.7
308.449	-78.33
308.663	11.78
308.877	15.87
309.091	9.73
309.305	50.69
309.519	-8.7
309.733	22.02
309.947	-14.85
310.161	-16.9
310.374	-41.47
310.588	-66.05
310.802	-6.66
311.016	-25.09
311.23	52.74
311.444	1.54
311.658	-31.23
311.872	81.41
312.085	-90.62
312.299	26.11
312.513	120.32
312.727	99.84
312.941	52.74
313.154	-14.85
313.368	17.92
313.582	46.59
313.796	-0.51
314.009	87.55
314.223	24.06
314.437	7.68
314.651	-23.04
314.864	26.11
315.078	36.35
315.292	-10.75
315.505	-14.85
315.719	52.74
315.933	-31.23
316.146	24.06
316.36	36.35
316.573	5.63
316.787	-35.33
317.001	54.78
317.214	19.97
317.428	60.93
317.641	71.17
317.855	11.78
318.068	3.58
318.282	-18.94
318.495	40.45
318.709	52.74
318.922	-29.18
319.136	60.93
319.349	65.02
319.563	38.4
319.776	-0.51
319.99	24.06
320.203	-64
320.417	95.74
320.63	46.59
320.843	34.3
321.057	-47.62
321.27	60.93
321.483	3.58
321.697	85.5
321.91	-0.51
322.124	34.3
322.337	17.92
322.55	44.54
322.763	-6.66
322.977	54.78
323.19	-47.62
323.403	-16.9
323.617	3.58
323.83	58.88
324.043	-10.75
324.256	28.16
324.469	22.02
324.683	22.02
324.896	-43.52
325.109	26.11
325.322	-20.99
325.535	-20.99
325.748	-12.8
325.962	-57.86
326.175	28.16
326.388	34.3
326.601	44.54
326.814	-4.61
327.027	-29.18
327.24	5.63
327.453	-33.28
327.666	56.83
327.879	22.02
328.092	24.06
328.305	-0.51
328.518	75.26
328.731	-39.42
328.944	50.69
329.157	83.45
329.37	-27.14
329.583	67.07
329.796	42.5
330.009	34.3
330.222	-6.66
330.435	40.45
330.648	36.35
330.861	1.54
331.073	60.93
331.286	-4.61
331.499	54.78
331.712	22.02
331.925	15.87
332.138	3.58
332.35	108.03
332.563	-27.14
332.776	38.4
332.989	50.69
333.202	30.21
333.414	17.92
333.627	69.12
333.84	-20.99
334.053	38.4
334.265	5.63
334.478	-6.66
334.691	22.02
334.903	48.64
335.116	-33.28
335.329	-66.05
335.541	-0.51
335.754	71.17
335.966	1.54
336.179	42.5
336.392	5.63
336.604	22.02
336.817	1.54
337.029	34.3
337.242	42.5
337.454	7.68
337.667	79.36
337.88	13.82
338.092	-2.56
338.305	-12.8
338.517	9.73
338.729	-14.85
338.942	-4.61
339.154	-31.23
339.367	-27.14
339.579	-27.14
339.792	-4.61
340.004	11.78
340.217	32.26
340.429	-27.14
340.641	-98.81
340.854	34.3
341.066	42.5
341.278	-41.47
341.491	60.93
341.703	38.4
341.915	22.02
342.128	85.5
342.34	-41.47
342.552	5.63
342.764	11.78
342.977	30.21
343.189	87.55
343.401	56.83
343.613	-2.56
343.826	7.68
344.038	-16.9
344.25	19.97
344.462	-33.28
344.674	34.3
344.886	22.02
345.099	50.69
345.311	54.78
345.523	60.93
345.735	-51.71
345.947	28.16
346.159	-35.33
346.371	-94.72
346.583	-16.9
346.795	-20.99
347.007	-6.66
347.219	3.58
347.431	-16.9
347.643	93.69
347.855	-55.81
348.067	-23.04
348.279	1.54
348.491	83.45
348.703	26.11
348.915	-33.28
349.127	-35.33
349.339	22.02
349.551	24.06
349.763	28.16
349.975	67.07
350.187	81.41
350.399	-14.85
350.61	22.02
350.822	-2.56
351.034	-10.75
351.246	11.78
351.458	48.64
351.669	-64
351.881	13.82
352.093	17.92
352.305	-18.94
352.517	15.87
352.728	-12.8
352.94	36.35
353.152	44.54
353.363	9.73
353.575	11.78
353.787	24.06
353.999	46.59
354.21	1.54
354.422	62.98
354.633	-51.71
354.845	30.21
355.057	11.78
355.268	-39.42
355.48	19.97
355.692	-16.9
355.903	28.16
356.115	7.68
356.326	-88.57
356.538	67.07
356.749	26.11
356.961	5.63
357.172	46.59
357.384	-4.61
357.595	75.26
357.807	-74.24
358.018	-8.7
358.23	48.64
358.441	91.65
358.653	38.4
358.864	-2.56
359.075	-0.51
359.287	75.26
359.498	34.3
359.709	17.92
359.921	-10.75
360.132	73.21
360.344	-29.18
360.555	5.63
360.766	48.64
360.977	32.26
361.189	-18.94
361.4	-43.52
361.611	26.11
361.823	105.98
362.034	9.73
362.245	65.02
362.456	24.06
362.667	52.74
362.879	30.21
363.09	24.06
363.301	42.5
363.512	-18.94
363.723	24.06
363.935	24.06
364.146	17.92
364.357	19.97
364.568	22.02
364.779	-27.14
364.99	34.3
365.201	-6.66
365.412	87.55
365.623	34.3
365.834	34.3
366.045	15.87
366.256	46.59
366.467	1.54
366.678	56.83
366.889	42.5
367.1	-0.51
367.311	42.5
367.522	17.92
367.733	-51.71
367.944	69.12
368.155	-23.04
368.366	75.26
368.577	22.02
368.788	30.21
368.999	-51.71
369.209	13.82
369.42	75.26
369.631	40.45
369.842	11.78
370.053	22.02
370.264	38.4
370.474	-2.56
370.685	3.58
370.896	-2.56
371.107	32.26
371.317	15.87
371.528	22.02
371.739	58.88
371.95	-10.75
372.16	-8.7
372.371	-18.94
372.582	-18.94
372.792	50.69
373.003	58.88
373.214	7.68
373.424	58.88
373.635	50.69
373.846	22.02
374.056	11.78
374.267	19.97
374.477	26.11
374.688	-6.66
374.898	65.02
375.109	128.51
375.319	38.4
375.53	-4.61
375.74	-6.66
375.951	-25.09
376.161	-23.04
376.372	30.21
376.582	26.11
376.793	-47.62
377.003	-6.66
377.214	34.3
377.424	38.4
377.635	17.92
377.845	44.54
378.055	67.07
378.266	9.73
378.476	17.92
378.686	28.16
378.897	44.54
379.107	-2.56
379.317	58.88
379.528	1.54
379.738	79.36
379.948	-20.99
380.158	48.64
380.369	34.3
380.579	58.88
380.789	-33.28
380.999	-12.8
381.21	-8.7
381.42	42.5
381.63	11.78
381.84	13.82
382.05	7.68
382.261	48.64
382.471	99.84
382.681	1.54
382.891	-0.51
383.101	50.69
383.311	-12.8
383.521	-8.7
383.731	-0.51
383.941	9.73
384.151	99.84
384.361	30.21
384.571	-20.99
384.781	7.68
384.991	19.97
385.201	42.5
385.411	22.02
385.621	71.17
385.831	7.68
386.041	-8.7
386.251	24.06
386.461	13.82
386.671	13.82
386.881	7.68
387.091	52.74
387.301	40.45
387.511	22.02
387.72	48.64
387.93	42.5
388.14	28.16
388.35	38.4
388.56	93.69
388.769	1.54
388.979	-14.85
389.189	-68.09
389.399	52.74
389.609	89.6
389.818	110.08
390.028	118.27
390.238	54.78
390.447	24.06
390.657	36.35
390.867	7.68
391.076	44.54
391.286	-10.75
391.496	132.61
391.705	-4.61
391.915	-16.9
392.125	30.21
392.334	-55.81
392.544	81.41
392.753	13.82
392.963	-33.28
393.172	30.21
393.382	36.35
393.591	-23.04
393.801	3.58
394.01	52.74
394.22	67.07
394.429	1.54
394.639	58.88
394.848	32.26
395.058	36.35
395.267	32.26
395.477	52.74
395.686	54.78
395.895	75.26
396.105	110.08
396.314	73.21
396.524	50.69
396.733	46.59
396.942	71.17
397.152	-6.66
397.361	-29.18
397.57	114.17
397.78	79.36
397.989	22.02
398.198	71.17
398.407	34.3
398.617	58.88
398.826	89.6
399.035	34.3
399.244	81.41
399.453	110.08
399.663	120.32
399.872	24.06
400.081	3.58
400.29	26.11
400.499	56.83
400.708	65.02
400.917	40.45
401.127	108.03
401.336	50.69
401.545	97.79
401.754	32.26
401.963	97.79
402.172	-0.51
402.381	22.02
402.59	24.06
402.799	54.78
403.008	19.97
403.217	48.64
403.426	71.17
403.635	17.92
403.844	50.69
404.053	38.4
404.262	69.12
404.471	99.84
404.68	60.93
404.888	128.51
405.097	50.69
405.306	75.26
405.515	108.03
405.724	65.02
405.933	163.33
406.142	75.26
406.35	114.17
406.559	83.45
406.768	85.5
406.977	75.26
407.185	83.45
407.394	48.64
407.603	105.98
407.812	79.36
408.02	134.65
408.229	105.98
408.438	71.17
408.646	87.55
408.855	73.21
409.064	167.42
409.272	122.37
409.481	151.04
409.69	155.13
409.898	112.13
410.107	91.65
410.315	124.41
410.524	167.42
410.733	224.76
410.941	278.01
411.15	171.52
411.358	200.19
411.567	232.96
411.775	212.48
411.984	208.38
412.192	237.05
412.401	179.71
412.609	249.34
412.818	304.64
413.026	228.86
413.234	271.87
413.443	255.48
413.651	312.83
413.86	241.15
414.068	323.07
414.276	253.44
414.485	329.21
414.693	345.59
414.901	376.31
415.11	306.68
415.318	349.69
415.526	329.21
415.734	390.65
415.943	447.99
416.151	374.27
416.359	534.01
416.567	384.51
416.776	534.01
416.984	505.34
417.192	503.29
417.4	519.67
417.608	527.86
417.817	491
418.025	577.02
418.233	587.26
418.441	572.92
418.649	634.36
418.857	747
419.065	689.65
419.273	665.08
419.481	718.33
419.689	787.96
419.897	783.86
420.105	757.24
420.313	839.16
420.521	890.35
420.729	884.21
420.937	851.44
421.145	916.98
421.353	943.6
421.561	1011.18
421.769	988.66
421.977	1027.57
422.185	1056.24
422.393	1183.21
422.601	1189.36
422.809	1222.13
423.017	1179.12
423.224	1234.41
423.432	1283.56
423.64	1347.05
423.848	1441.26
424.056	1377.77
424.263	1562.09
424.471	1402.35
424.679	1570.28
424.887	1601
425.094	1754.6
425.302	1648.1
425.51	1740.26
425.718	1832.42
425.925	1863.14
426.133	1900
426.341	2020.83
426.548	2098.66
426.756	2172.38
426.964	2074.08
427.171	2213.34
427.379	2336.22
427.586	2350.56
427.794	2385.37
428.001	2557.4
428.209	2606.55
428.417	2618.84
428.624	2704.85
428.832	2711
429.039	2704.85
429.247	2688.47
429.454	2936.28
429.662	3222.99
429.869	2915.8
430.076	3284.43
430.284	3102.16
430.491	3110.35
430.699	3419.6
430.906	3372.49
431.114	3431.88
431.321	3560.91
431.528	3691.98
431.736	3712.46
431.943	4019.65
432.15	3970.5
432.358	3876.29
432.565	4314.56
432.772	4146.62
432.979	4308.41
433.187	4386.24
433.394	4453.82
433.601	4713.91
433.808	4840.89
434.016	4660.66
434.223	4969.91
434.43	5270.96
434.637	5084.59
434.844	5479.85
435.052	5602.73
435.259	5373.36
435.466	5612.97
435.673	5629.35
435.88	5807.53
436.087	6215.07
436.294	6215.07
436.501	6069.67
436.708	6196.64
436.915	6383.01
437.122	6694.3
437.329	6624.67
437.537	6808.98
437.743	7064.98
437.95	6856.09
438.157	7347.6
438.364	7378.32
438.571	7523.73
438.778	7474.57
438.985	8443.26
439.192	7902.6
439.399	8144.26
439.606	8140.16
439.813	8512.89
440.02	8779.13
440.227	8738.17
440.433	8732.03
440.64	9022.84
440.847	8908.15
441.054	9295.22
441.261	9663.85
441.467	9739.63
441.674	9772.39
441.881	10134.89
442.088	9749.87
442.294	10001.77
442.501	10304.87
442.708	10435.94
442.914	10978.65
443.121	11486.54
443.328	11283.8
443.534	11781.45
443.741	11445.59
443.948	11421.01
444.154	12066.12
444.361	12102.98
444.568	12246.34
444.774	12285.25
444.981	12326.21
445.187	12551.49
445.394	12983.61
445.6	12756.29
445.807	14124.33
446.013	13708.59
446.22	14073.13
446.426	14300.45
446.633	14714.14
446.839	14927.13
447.046	14552.35
447.252	15252.76
447.459	15197.46
447.665	15136.03
447.871	15578.39
448.078	16424.2
448.284	15891.73
448.491	16071.95
448.697	16907.52
448.903	17095.93
449.11	17227
449.316	16688.39
449.522	17112.31
449.728	17587.44
449.935	17753.33
450.141	17569.01
450.347	18214.12
450.553	17425.65
450.76	17505.52
450.966	17984.75
451.172	18066.67
451.378	18447.59
451.584	18316.52
451.791	18672.87
451.997	18650.34
452.203	18719.97
452.409	18851.04
452.615	18896.1
452.821	18011.37
453.027	17765.62
453.233	18947.29
453.44	18007.28
453.646	18482.41
453.852	18484.45
454.058	18482.41
454.264	18113.77
454.47	18595.04
454.676	17831.15
454.882	18693.35
455.088	16708.87
455.294	17143.03
455.5	17423.61
455.705	17794.29
455.911	16997.63
456.117	16669.95
456.323	16241.93
456.529	15742.22
456.735	15959.31
456.941	15774.99
457.147	15703.31
457.352	14927.13
457.558	14865.69
457.764	15129.88
457.97	14546.21
458.176	14538.02
458.381	14398.76
458.587	13591.86
458.793	13546.8
458.999	12766.53
459.204	13874.48
459.41	13397.3
459.616	12502.34
459.821	12664.13
460.027	12522.82
460.233	12246.34
460.438	11599.18
460.644	11875.66
460.85	11242.84
461.055	11009.37
461.261	10964.31
461.466	10100.07
461.672	9987.43
461.878	10626.4
462.083	9934.18
462.289	9690.48
462.494	9688.43
462.7	9463.15
462.905	9135.48
463.111	9364.85
463.316	9205.11
463.522	9139.57
463.727	9235.83
463.932	9164.15
464.138	8934.78
464.343	9133.43
464.549	8721.79
464.754	8854.9
464.959	8942.97
465.165	8992.12
465.37	8596.86
465.575	8367.49
465.781	8715.64
465.986	8893.82
466.191	8398.21
466.397	8273.28
466.602	7875.98
466.807	7980.42
467.012	8115.59
467.218	8015.24
467.423	8103.3
467.628	7966.09
467.833	8392.06
468.038	8058.25
468.244	7865.74
468.449	8181.12
468.654	7959.94
468.859	7865.74
