Data from USB4F104151__112__11-07-18-678.txt Node

Date: Wed Mar 12 11:07:18 EDT 2025
User: louis
Spectrometer: USB4F10415
Trigger mode: 4
Integration Time (sec): 2.000000E-2
Scans to average: 1
Electric dark correction enabled: true
Nonlinearity correction enabled: false
Boxcar width: 0
XAxis mode: Wavelengths
Number of Pixels in Spectrum: 3648
>>>>>Begin Spectral Data<<<<<
178.204	-34.13
178.424	-34.13
178.644	-34.13
178.864	-109.91
179.084	-54.61
179.304	-83.28
179.524	2.73
179.744	-56.66
179.964	10.92
180.184	-1.37
180.404	-27.99
180.624	72.36
180.844	25.26
181.064	-27.99
181.283	68.27
181.503	4.78
181.723	12.97
181.943	-11.61
182.163	86.7
182.383	-15.7
182.602	103.08
182.822	86.7
183.042	19.11
183.262	-5.46
183.482	6.83
183.701	-32.08
183.921	113.32
184.141	72.36
184.361	117.42
184.58	49.83
184.8	33.45
185.02	-7.51
185.239	60.07
185.459	47.79
185.679	58.03
185.898	10.92
186.118	74.41
186.338	47.79
186.557	109.22
186.777	51.88
186.997	51.88
187.216	-52.56
187.436	55.98
187.655	88.75
187.875	-9.56
188.095	-19.8
188.314	60.07
188.534	76.46
188.753	82.6
188.973	66.22
189.192	74.41
189.412	74.41
189.631	12.97
189.851	66.22
190.07	84.65
190.29	21.16
190.509	4.78
190.729	66.22
190.948	127.66
191.168	131.75
191.387	78.51
191.607	35.5
191.826	-21.85
192.045	80.55
192.265	41.64
192.484	10.92
192.704	76.46
192.923	-30.04
193.142	141.99
193.362	109.22
193.581	45.74
193.8	35.5
194.02	41.64
194.239	8.87
194.458	62.12
194.678	27.31
194.897	23.21
195.116	47.79
195.335	92.84
195.555	82.6
195.774	72.36
195.993	58.03
196.212	62.12
196.432	-17.75
196.651	12.97
196.87	27.31
197.089	23.21
197.308	96.94
197.528	4.78
197.747	2.73
197.966	72.36
198.185	41.64
198.404	-48.47
198.623	31.4
198.842	41.64
199.062	66.22
199.281	47.79
199.5	78.51
199.719	15.02
199.938	88.75
200.157	86.7
200.376	0.68
200.595	21.16
200.814	94.89
201.033	-9.56
201.252	39.59
201.471	84.65
201.69	78.51
201.909	10.92
202.128	39.59
202.347	88.75
202.566	33.45
202.785	31.4
203.004	49.83
203.223	51.88
203.442	33.45
203.661	43.69
203.879	74.41
204.098	101.03
204.317	21.16
204.536	76.46
204.755	25.26
204.974	47.79
205.193	-9.56
205.411	25.26
205.63	119.46
205.849	113.32
206.068	-21.85
206.287	35.5
206.505	109.22
206.724	15.02
206.943	31.4
207.162	41.64
207.381	27.31
207.599	29.35
207.818	35.5
208.037	8.87
208.255	119.46
208.474	49.83
208.693	55.98
208.911	27.31
209.13	21.16
209.349	6.83
209.567	76.46
209.786	58.03
210.005	-5.46
210.223	4.78
210.442	-52.56
210.661	92.84
210.879	25.26
211.098	-1.37
211.316	-13.65
211.535	53.93
211.753	6.83
211.972	123.56
212.191	33.45
212.409	88.75
212.628	62.12
212.846	105.13
213.065	12.97
213.283	109.22
213.502	15.02
213.72	62.12
213.938	17.07
214.157	88.75
214.375	12.97
214.594	55.98
214.812	-21.85
215.031	55.98
215.249	0.68
215.467	12.97
215.686	-7.51
215.904	43.69
216.122	-19.8
216.341	121.51
216.559	129.7
216.778	29.35
216.996	10.92
217.214	60.07
217.432	51.88
217.651	6.83
217.869	47.79
218.087	12.97
218.306	43.69
218.524	55.98
218.742	-17.75
218.96	64.17
219.179	76.46
219.397	68.27
219.615	23.21
219.833	51.88
220.051	-11.61
220.27	90.79
220.488	-32.08
220.706	4.78
220.924	80.55
221.142	19.11
221.36	78.51
221.578	21.16
221.796	19.11
222.015	41.64
222.233	-9.56
222.451	55.98
222.669	64.17
222.887	49.83
223.105	103.08
223.323	64.17
223.541	74.41
223.759	35.5
223.977	39.59
224.195	51.88
224.413	78.51
224.631	31.4
224.849	2.73
225.067	103.08
225.285	10.92
225.503	117.42
225.721	6.83
225.939	58.03
226.157	23.21
226.375	123.56
226.592	84.65
226.81	31.4
227.028	78.51
227.246	64.17
227.464	62.12
227.682	109.22
227.9	29.35
228.117	58.03
228.335	41.64
228.553	58.03
228.771	35.5
228.989	84.65
229.206	23.21
229.424	25.26
229.642	-13.65
229.86	58.03
230.077	58.03
230.295	123.56
230.513	15.02
230.731	15.02
230.948	45.74
231.166	76.46
231.384	-32.08
231.601	33.45
231.819	86.7
232.037	-1.37
232.254	43.69
232.472	62.12
232.689	68.27
232.907	39.59
233.125	109.22
233.342	45.74
233.56	-5.46
233.777	58.03
233.995	25.26
234.213	39.59
234.43	51.88
234.648	-15.7
234.865	39.59
235.083	105.13
235.3	35.5
235.518	84.65
235.735	45.74
235.953	31.4
236.17	35.5
236.388	4.78
236.605	113.32
236.822	19.11
237.04	76.46
237.257	66.22
237.475	-11.61
237.692	72.36
237.909	76.46
238.127	62.12
238.344	66.22
238.562	12.97
238.779	-15.7
238.996	25.26
239.214	49.83
239.431	76.46
239.648	35.5
239.865	27.31
240.083	68.27
240.3	0.68
240.517	47.79
240.735	12.97
240.952	82.6
241.169	117.42
241.386	43.69
241.603	96.94
241.821	51.88
242.038	98.99
242.255	103.08
242.472	25.26
242.689	49.83
242.907	43.69
243.124	31.4
243.341	51.88
243.558	2.73
243.775	39.59
243.992	31.4
244.209	105.13
244.426	92.84
244.643	64.17
244.86	80.55
245.078	62.12
245.295	84.65
245.512	96.94
245.729	80.55
245.946	60.07
246.163	27.31
246.38	66.22
246.597	68.27
246.814	78.51
247.031	41.64
247.248	88.75
247.464	-9.56
247.681	37.55
247.898	41.64
248.115	21.16
248.332	49.83
248.549	29.35
248.766	78.51
248.983	47.79
249.2	66.22
249.417	43.69
249.633	6.83
249.85	90.79
250.067	15.02
250.284	105.13
250.501	35.5
250.717	-40.28
250.934	-5.46
251.151	39.59
251.368	137.9
251.585	62.12
251.801	66.22
252.018	25.26
252.235	-5.46
252.451	76.46
252.668	68.27
252.885	23.21
253.102	-15.7
253.318	39.59
253.535	64.17
253.752	74.41
253.968	39.59
254.185	10.92
254.401	-1.37
254.618	8.87
254.835	39.59
255.051	144.04
255.268	8.87
255.484	47.79
255.701	37.55
255.917	37.55
256.134	-7.51
256.351	12.97
256.567	60.07
256.784	15.02
257	15.02
257.217	15.02
257.433	62.12
257.65	66.22
257.866	64.17
258.082	25.26
258.299	41.64
258.515	19.11
258.732	80.55
258.948	-11.61
259.165	53.93
259.381	64.17
259.597	127.66
259.814	19.11
260.03	123.56
260.246	68.27
260.463	103.08
260.679	60.07
260.895	-5.46
261.112	64.17
261.328	-13.65
261.544	6.83
261.761	21.16
261.977	70.31
262.193	2.73
262.409	119.46
262.626	72.36
262.842	105.13
263.058	4.78
263.274	-3.41
263.49	70.31
263.707	74.41
263.923	68.27
264.139	105.13
264.355	23.21
264.571	53.93
264.787	-11.61
265.004	117.42
265.22	45.74
265.436	25.26
265.652	-1.37
265.868	23.21
266.084	35.5
266.3	70.31
266.516	60.07
266.732	178.86
266.948	41.64
267.164	58.03
267.38	98.99
267.596	72.36
267.812	92.84
268.028	62.12
268.244	-7.51
268.46	10.92
268.676	17.07
268.892	68.27
269.108	-32.08
269.324	-9.56
269.54	27.31
269.756	55.98
269.972	-13.65
270.188	-64.85
270.403	41.64
270.619	47.79
270.835	55.98
271.051	49.83
271.267	8.87
271.483	35.5
271.698	96.94
271.914	115.37
272.13	-17.75
272.346	19.11
272.562	137.9
272.777	37.55
272.993	31.4
273.209	12.97
273.425	62.12
273.64	31.4
273.856	47.79
274.072	47.79
274.287	-7.51
274.503	82.6
274.719	23.21
274.934	64.17
275.15	70.31
275.366	123.56
275.581	-23.89
275.797	17.07
276.012	103.08
276.228	10.92
276.444	-38.23
276.659	123.56
276.875	49.83
277.09	78.51
277.306	35.5
277.521	41.64
277.737	103.08
277.952	60.07
278.168	-3.41
278.383	33.45
278.599	129.7
278.814	49.83
279.03	80.55
279.245	62.12
279.461	86.7
279.676	76.46
279.892	-9.56
280.107	72.36
280.322	27.31
280.538	19.11
280.753	8.87
280.969	72.36
281.184	53.93
281.399	98.99
281.615	6.83
281.83	-44.37
282.045	58.03
282.26	103.08
282.476	27.31
282.691	53.93
282.906	88.75
283.122	62.12
283.337	49.83
283.552	23.21
283.767	33.45
283.983	82.6
284.198	76.46
284.413	33.45
284.628	60.07
284.843	92.84
285.058	47.79
285.274	51.88
285.489	8.87
285.704	15.02
285.919	23.21
286.134	51.88
286.349	35.5
286.564	74.41
286.779	125.61
286.995	21.16
287.21	15.02
287.425	15.02
287.64	29.35
287.855	92.84
288.07	35.5
288.285	33.45
288.5	125.61
288.715	133.8
288.93	72.36
289.145	64.17
289.36	25.26
289.575	-1.37
289.79	8.87
290.004	8.87
290.219	49.83
290.434	98.99
290.649	35.5
290.864	43.69
291.079	98.99
291.294	43.69
291.509	6.83
291.724	-19.8
291.938	47.79
292.153	35.5
292.368	51.88
292.583	80.55
292.798	53.93
293.012	47.79
293.227	17.07
293.442	64.17
293.657	68.27
293.871	39.59
294.086	58.03
294.301	76.46
294.516	105.13
294.73	70.31
294.945	-13.65
295.16	-5.46
295.374	51.88
295.589	74.41
295.804	66.22
296.018	47.79
296.233	86.7
296.447	51.88
296.662	45.74
296.877	76.46
297.091	76.46
297.306	33.45
297.52	-21.85
297.735	80.55
297.949	-1.37
298.164	55.98
298.378	33.45
298.593	-23.89
298.807	29.35
299.022	23.21
299.236	131.75
299.451	35.5
299.665	47.79
299.88	10.92
300.094	92.84
300.309	72.36
300.523	31.4
300.737	-7.51
300.952	80.55
301.166	78.51
301.381	43.69
301.595	60.07
301.809	17.07
302.024	43.69
302.238	84.65
302.452	98.99
302.667	64.17
302.881	72.36
303.095	25.26
303.309	-1.37
303.524	35.5
303.738	72.36
303.952	74.41
304.166	88.75
304.381	15.02
304.595	17.07
304.809	43.69
305.023	80.55
305.237	17.07
305.452	-21.85
305.666	19.11
305.88	98.99
306.094	4.78
306.308	23.21
306.522	60.07
306.736	119.46
306.95	64.17
307.164	41.64
307.379	60.07
307.593	49.83
307.807	39.59
308.021	98.99
308.235	84.65
308.449	64.17
308.663	88.75
308.877	43.69
309.091	70.31
309.305	-1.37
309.519	27.31
309.733	19.11
309.947	-21.85
310.161	68.27
310.374	84.65
310.588	70.31
310.802	92.84
311.016	-9.56
311.23	58.03
311.444	55.98
311.658	109.22
311.872	62.12
312.085	96.94
312.299	35.5
312.513	133.8
312.727	117.42
312.941	41.64
313.154	53.93
313.368	-17.75
313.582	82.6
313.796	49.83
314.009	33.45
314.223	80.55
314.437	62.12
314.651	-17.75
314.864	117.42
315.078	23.21
315.292	109.22
315.505	51.88
315.719	39.59
315.933	129.7
316.146	80.55
316.36	-30.04
316.573	-5.46
316.787	31.4
317.001	68.27
317.214	45.74
317.428	105.13
317.641	-5.46
317.855	-32.08
318.068	27.31
318.282	17.07
318.495	45.74
318.709	53.93
318.922	19.11
319.136	121.51
319.349	51.88
319.563	25.26
319.776	113.32
319.99	131.75
320.203	19.11
320.417	39.59
320.63	70.31
320.843	35.5
321.057	15.02
321.27	53.93
321.483	39.59
321.697	72.36
321.91	96.94
322.124	129.7
322.337	58.03
322.55	60.07
322.763	35.5
322.977	43.69
323.19	113.32
323.403	88.75
323.617	92.84
323.83	113.32
324.043	131.75
324.256	72.36
324.469	37.55
324.683	92.84
324.896	33.45
325.109	92.84
325.322	41.64
325.535	-7.51
325.748	51.88
325.962	25.26
326.175	96.94
326.388	121.51
326.601	94.89
326.814	6.83
327.027	49.83
327.24	78.51
327.453	19.11
327.666	41.64
327.879	84.65
328.092	19.11
328.305	31.4
328.518	15.02
328.731	80.55
328.944	31.4
329.157	27.31
329.37	-1.37
329.583	43.69
329.796	43.69
330.009	-34.13
330.222	43.69
330.435	74.41
330.648	144.04
330.861	78.51
331.073	119.46
331.286	113.32
331.499	74.41
331.712	17.07
331.925	8.87
332.138	49.83
332.35	105.13
332.563	80.55
332.776	103.08
332.989	-15.7
333.202	62.12
333.414	-3.41
333.627	84.65
333.84	49.83
334.053	10.92
334.265	15.02
334.478	51.88
334.691	-7.51
334.903	66.22
335.116	39.59
335.329	49.83
335.541	58.03
335.754	103.08
335.966	68.27
336.179	103.08
336.392	39.59
336.604	19.11
336.817	131.75
337.029	117.42
337.242	27.31
337.454	60.07
337.667	12.97
337.88	160.42
338.092	74.41
338.305	60.07
338.517	66.22
338.729	84.65
338.942	64.17
339.154	68.27
339.367	29.35
339.579	43.69
339.792	-15.7
340.004	144.04
340.217	70.31
340.429	49.83
340.641	25.26
340.854	76.46
341.066	10.92
341.278	129.7
341.491	19.11
341.703	21.16
341.915	68.27
342.128	-1.37
342.34	47.79
342.552	39.59
342.764	76.46
342.977	55.98
343.189	129.7
343.401	105.13
343.613	-1.37
343.826	55.98
344.038	41.64
344.25	70.31
344.462	62.12
344.674	123.56
344.886	133.8
345.099	76.46
345.311	8.87
345.523	60.07
345.735	-1.37
345.947	88.75
346.159	55.98
346.371	55.98
346.583	80.55
346.795	109.22
347.007	101.03
347.219	-17.75
347.431	25.26
347.643	84.65
347.855	4.78
348.067	94.89
348.279	47.79
348.491	-11.61
348.703	27.31
348.915	88.75
349.127	33.45
349.339	64.17
349.551	66.22
349.763	156.33
349.975	41.64
350.187	66.22
350.399	55.98
350.61	94.89
350.822	58.03
351.034	74.41
351.246	84.65
351.458	72.36
351.669	43.69
351.881	121.51
352.093	160.42
352.305	121.51
352.517	66.22
352.728	107.18
352.94	60.07
353.152	92.84
353.363	27.31
353.575	80.55
353.787	101.03
353.999	23.21
354.21	94.89
354.422	10.92
354.633	88.75
354.845	6.83
355.057	41.64
355.268	76.46
355.48	78.51
355.692	8.87
355.903	47.79
356.115	39.59
356.326	66.22
356.538	29.35
356.749	129.7
356.961	123.56
357.172	23.21
357.384	84.65
357.595	92.84
357.807	74.41
358.018	101.03
358.23	41.64
358.441	35.5
358.653	35.5
358.864	47.79
359.075	-44.37
359.287	133.8
359.498	8.87
359.709	47.79
359.921	135.85
360.132	119.46
360.344	60.07
360.555	64.17
360.766	117.42
360.977	29.35
361.189	68.27
361.4	21.16
361.611	53.93
361.823	62.12
362.034	76.46
362.245	105.13
362.456	39.59
362.667	68.27
362.879	25.26
363.09	-5.46
363.301	70.31
363.512	84.65
363.723	94.89
363.935	43.69
364.146	158.38
364.357	74.41
364.568	121.51
364.779	113.32
364.99	107.18
365.201	68.27
365.412	41.64
365.623	-5.46
365.834	101.03
366.045	45.74
366.256	137.9
366.467	8.87
366.678	94.89
366.889	90.79
367.1	66.22
367.311	-7.51
367.522	12.97
367.733	90.79
367.944	115.37
368.155	15.02
368.366	146.09
368.577	51.88
368.788	123.56
368.999	-3.41
369.209	98.99
369.42	80.55
369.631	174.76
369.842	80.55
370.053	90.79
370.264	55.98
370.474	31.4
370.685	27.31
370.896	15.02
371.107	8.87
371.317	41.64
371.528	101.03
371.739	41.64
371.95	103.08
372.16	84.65
372.371	17.07
372.582	103.08
372.792	43.69
373.003	47.79
373.214	115.37
373.424	66.22
373.635	-3.41
373.846	123.56
374.056	62.12
374.267	90.79
374.477	94.89
374.688	109.22
374.898	98.99
375.109	68.27
375.319	60.07
375.53	113.32
375.74	98.99
375.951	43.69
376.161	39.59
376.372	92.84
376.582	92.84
376.793	41.64
377.003	94.89
377.214	111.27
377.424	66.22
377.635	-7.51
377.845	23.21
378.055	29.35
378.266	49.83
378.476	62.12
378.686	23.21
378.897	-9.56
379.107	131.75
379.317	43.69
379.528	10.92
379.738	80.55
379.948	80.55
380.158	62.12
380.369	29.35
380.579	17.07
380.789	49.83
380.999	82.6
381.21	37.55
381.42	121.51
381.63	113.32
381.84	25.26
382.05	82.6
382.261	84.65
382.471	86.7
382.681	58.03
382.891	103.08
383.101	92.84
383.311	33.45
383.521	125.61
383.731	74.41
383.941	19.11
384.151	19.11
384.361	41.64
384.571	82.6
384.781	74.41
384.991	129.7
385.201	6.83
385.411	10.92
385.621	107.18
385.831	90.79
386.041	117.42
386.251	58.03
386.461	141.99
386.671	19.11
386.881	78.51
387.091	84.65
387.301	94.89
387.511	43.69
387.72	76.46
387.93	27.31
388.14	64.17
388.35	21.16
388.56	88.75
388.769	51.88
388.979	98.99
389.189	133.8
389.399	49.83
389.609	123.56
389.818	103.08
390.028	0.68
390.238	129.7
390.447	49.83
390.657	162.47
390.867	113.32
391.076	74.41
391.286	88.75
391.496	84.65
391.705	113.32
391.915	86.7
392.125	156.33
392.334	82.6
392.544	119.46
392.753	70.31
392.963	29.35
393.172	53.93
393.382	92.84
393.591	78.51
393.801	68.27
394.01	70.31
394.22	107.18
394.429	101.03
394.639	115.37
394.848	105.13
395.058	98.99
395.267	103.08
395.477	76.46
395.686	103.08
395.895	92.84
396.105	187.05
396.314	68.27
396.524	121.51
396.733	103.08
396.942	55.98
397.152	107.18
397.361	125.61
397.57	60.07
397.78	43.69
397.989	109.22
398.198	125.61
398.407	23.21
398.617	135.85
398.826	88.75
399.035	105.13
399.244	72.36
399.453	98.99
399.663	158.38
399.872	191.14
400.081	129.7
400.29	176.81
400.499	154.28
400.708	166.57
400.917	88.75
401.127	215.72
401.336	119.46
401.545	146.09
401.754	139.94
401.963	152.23
402.172	68.27
402.381	119.46
402.59	117.42
402.799	92.84
403.008	164.52
403.217	137.9
403.426	135.85
403.635	105.13
403.844	66.22
404.053	139.94
404.262	117.42
404.471	273.06
404.68	152.23
404.888	148.14
405.097	156.33
405.306	111.27
405.515	146.09
405.724	152.23
405.933	158.38
406.142	230.06
406.35	84.65
406.559	176.81
406.768	152.23
406.977	234.15
407.185	279.21
407.394	256.68
407.603	201.38
407.812	217.77
408.02	258.73
408.229	219.82
408.438	293.54
408.646	225.96
408.855	246.44
409.064	250.53
409.272	295.59
409.481	348.84
409.69	273.06
409.898	252.58
410.107	352.93
410.315	266.92
410.524	326.31
410.733	445.09
410.941	373.41
411.15	340.65
411.358	357.03
411.567	422.56
411.775	404.13
411.984	342.69
412.192	303.78
412.401	502.43
412.609	492.2
412.818	426.66
413.026	477.86
413.234	541.35
413.443	420.52
413.651	473.76
413.86	545.44
414.068	553.63
414.276	623.27
414.485	588.45
414.693	660.13
414.901	653.98
415.11	746.14
415.318	709.28
415.526	696.99
415.734	733.86
415.943	729.76
416.151	770.72
416.359	778.91
416.567	846.49
416.776	869.02
416.984	948.89
417.192	905.88
417.4	854.69
417.608	969.37
417.817	946.84
418.025	1020.57
418.233	1063.58
418.441	1047.19
418.649	1133.21
418.857	1180.31
419.065	1176.22
419.273	1157.78
419.481	1215.13
419.689	1338.01
419.897	1368.73
420.105	1374.87
420.313	1497.75
420.521	1505.94
420.729	1497.75
420.937	1585.81
421.145	1634.96
421.353	1761.94
421.561	1825.42
421.769	1876.62
421.977	1983.12
422.185	1929.87
422.393	2001.55
422.601	2110.09
422.809	2163.34
423.017	2218.63
423.224	2144.91
423.432	2402.95
423.64	2327.18
423.848	2599.55
424.056	2476.68
424.263	2693.76
424.471	2523.78
424.679	2777.73
424.887	2888.32
425.094	3041.92
425.302	2976.38
425.51	3168.89
425.718	3162.75
425.925	3115.64
426.133	3398.26
426.341	3453.56
426.548	3666.55
426.756	3660.4
426.964	3680.88
427.171	3979.89
427.379	4018.8
427.586	4076.14
427.794	4239.98
428.001	4512.36
428.209	4555.37
428.417	4672.1
428.624	4850.27
428.832	4749.92
429.039	4680.29
429.247	4866.66
429.454	5290.59
429.662	5667.41
429.869	5356.12
430.076	5694.04
430.284	5476.95
430.491	5810.77
430.699	5990.99
430.906	6124.11
431.114	6044.24
431.321	6369.87
431.528	6560.33
431.736	6746.69
431.943	7285.31
432.15	6984.26
432.358	7109.18
432.565	7406.14
432.772	7449.14
432.979	7789.11
433.187	8075.82
433.394	8106.54
433.601	8446.51
433.808	8475.18
434.016	8593.96
434.223	8774.18
434.43	9443.87
434.637	9181.73
434.844	9841.17
435.052	10160.66
435.259	9857.56
435.466	10138.13
435.673	10076.69
435.88	10766.85
436.087	11139.58
436.294	11108.87
436.501	10793.48
436.708	11047.43
436.915	11436.54
437.122	12179.95
437.329	12018.16
437.537	12323.31
437.743	12671.47
437.95	12517.87
438.157	13109.73
438.364	13519.32
438.571	13599.2
438.778	13588.96
438.985	14993.86
439.192	14213.59
439.399	14647.76
439.606	14275.02
439.813	15237.57
440.02	16200.12
440.227	16095.67
440.433	15724.99
440.64	16394.67
440.847	16320.95
441.054	16619.95
441.261	17742.24
441.467	17441.18
441.674	17850.78
441.881	18262.42
442.088	18524.56
442.294	18237.84
442.501	18567.57
442.708	19200.39
442.914	20033.91
443.121	20646.26
443.328	20052.34
443.534	21309.8
443.741	21105
443.948	20967.79
444.154	22202.71
444.361	22159.7
444.568	22188.38
444.774	22215
444.981	22432.08
445.187	23122.25
445.394	23978.3
445.6	23474.5
445.807	26042.65
446.013	24785.2
446.22	25461.03
446.426	26376.47
446.633	26419.48
446.839	27617.54
447.046	26347.8
447.252	27703.56
447.459	28152.06
447.665	27889.92
447.871	28772.6
448.078	29823.2
448.284	28680.44
448.491	29667.56
448.697	30644.44
448.903	31041.74
449.11	31148.24
449.316	30945.49
449.522	31039.7
449.728	32002.24
449.935	32487.61
450.141	31983.81
450.347	33013.94
450.553	31832.26
450.76	32467.13
450.966	33153.2
451.172	32936.12
451.378	33589.42
451.584	33362.09
451.791	34218.14
451.997	33530.03
452.203	34416.8
452.409	33779.88
452.615	34371.74
452.821	32794.81
453.027	32336.06
453.233	34119.84
453.44	32921.78
453.646	33458.35
453.852	33726.63
454.058	33843.37
454.264	32483.51
454.47	33405.1
454.676	32825.53
454.882	33775.78
455.088	30900.44
455.294	31324.36
455.5	31736.01
455.705	31865.03
455.911	30816.47
456.117	29851.88
456.323	30191.84
456.529	28143.87
456.735	29595.88
456.941	28645.62
457.147	28205.31
457.352	27271.43
457.558	26867.98
457.764	26941.71
457.97	26425.62
458.176	25970.97
458.381	26079.52
458.587	25039.15
458.793	24693.04
458.999	23599.43
459.204	25280.81
459.41	24478.01
459.616	22708.56
459.821	22964.56
460.027	22462.8
460.233	22266.2
460.438	21455.2
460.644	21309.8
460.85	20410.74
461.055	20382.07
461.261	20390.26
461.466	18741.64
461.672	18145.69
461.878	19448.19
462.083	18420.11
462.289	17838.49
462.494	17848.73
462.7	16804.27
462.905	16652.72
463.111	16894.38
463.316	17011.11
463.522	16648.62
463.727	16673.2
463.932	16521.65
464.138	16443.82
464.343	16538.03
464.549	16292.27
464.754	16710.06
464.959	16513.45
465.165	16337.33
465.37	15636.92
465.575	15352.26
465.781	15868.34
465.986	15999.41
466.191	15548.86
466.397	15137.22
466.602	14268.88
466.807	15028.68
467.012	14909.9
