Data from USB4F104151__252__11-11-44-189.txt Node

Date: Wed Mar 12 11:11:44 EDT 2025
User: louis
Spectrometer: USB4F10415
Trigger mode: 4
Integration Time (sec): 2.000000E-2
Scans to average: 1
Electric dark correction enabled: true
Nonlinearity correction enabled: false
Boxcar width: 0
XAxis mode: Wavelengths
Number of Pixels in Spectrum: 3648
>>>>>Begin Spectral Data<<<<<
178.204	-82.43
178.424	-82.43
178.644	-82.43
178.864	-57.86
179.084	-72.19
179.304	3.58
179.524	-55.81
179.744	28.16
179.964	30.21
180.184	11.78
180.404	58.88
180.624	3.58
180.844	-2.56
181.064	-6.66
181.283	-2.56
181.503	-72.19
181.723	3.58
181.943	-39.42
182.163	28.16
182.383	-6.66
182.602	15.87
182.822	28.16
183.042	-6.66
183.262	-31.23
183.482	32.26
183.701	71.17
183.921	89.6
184.141	-29.18
184.361	24.06
184.58	-18.94
184.8	56.83
185.02	56.83
185.239	38.4
185.459	-39.42
185.679	17.92
185.898	7.68
186.118	124.41
186.338	26.11
186.557	-2.56
186.777	46.59
186.997	-76.29
187.216	32.26
187.436	52.74
187.655	-8.7
187.875	1.54
188.095	-18.94
188.314	67.07
188.534	95.74
188.753	1.54
188.973	48.64
189.192	62.98
189.412	30.21
189.631	-20.99
189.851	69.12
190.07	54.78
190.29	-2.56
190.509	75.26
190.729	38.4
190.948	42.5
191.168	52.74
191.387	75.26
191.607	-18.94
191.826	91.65
192.045	32.26
192.265	15.87
192.484	-6.66
192.704	19.97
192.923	5.63
193.142	87.55
193.362	13.82
193.581	-0.51
193.8	-16.9
194.02	22.02
194.239	-64
194.458	5.63
194.678	22.02
194.897	62.98
195.116	-39.42
195.335	-0.51
195.555	15.87
195.774	62.98
195.993	50.69
196.212	-39.42
196.432	13.82
196.651	50.69
196.87	-0.51
197.089	19.97
197.308	128.51
197.528	36.35
197.747	-68.09
197.966	-12.8
198.185	44.54
198.404	108.03
198.623	60.93
198.842	-2.56
199.062	38.4
199.281	73.21
199.5	-4.61
199.719	-33.28
199.938	48.64
200.157	62.98
200.376	65.02
200.595	13.82
200.814	-4.61
201.033	54.78
201.252	3.58
201.471	73.21
201.69	22.02
201.909	46.59
202.128	110.08
202.347	75.26
202.566	38.4
202.785	40.45
203.004	-29.18
203.223	1.54
203.442	50.69
203.661	52.74
203.879	60.93
204.098	58.88
204.317	24.06
204.536	17.92
204.755	-2.56
204.974	13.82
205.193	-10.75
205.411	56.83
205.63	65.02
205.849	7.68
206.068	17.92
206.287	75.26
206.505	30.21
206.724	17.92
206.943	-6.66
207.162	-0.51
207.381	-41.47
207.599	-16.9
207.818	5.63
208.037	42.5
208.255	13.82
208.474	52.74
208.693	67.07
208.911	-27.14
209.13	32.26
209.349	42.5
209.567	54.78
209.786	110.08
210.005	97.79
210.223	-43.52
210.442	11.78
210.661	13.82
210.879	71.17
211.098	1.54
211.316	3.58
211.535	99.84
211.753	26.11
211.972	44.54
212.191	60.93
212.409	-8.7
212.628	54.78
212.846	-0.51
213.065	22.02
213.283	19.97
213.502	-45.57
213.72	1.54
213.938	15.87
214.157	5.63
214.375	60.93
214.594	11.78
214.812	-29.18
215.031	26.11
215.249	-43.52
215.467	28.16
215.686	69.12
215.904	75.26
216.122	3.58
216.341	17.92
216.559	75.26
216.778	52.74
216.996	3.58
217.214	40.45
217.432	30.21
217.651	65.02
217.869	-2.56
218.087	103.93
218.306	19.97
218.524	42.5
218.742	65.02
218.96	-2.56
219.179	38.4
219.397	42.5
219.615	87.55
219.833	48.64
220.051	15.87
220.27	58.88
220.488	9.73
220.706	65.02
220.924	22.02
221.142	1.54
221.36	22.02
221.578	73.21
221.796	44.54
222.015	44.54
222.233	26.11
222.451	83.45
222.669	24.06
222.887	69.12
223.105	1.54
223.323	56.83
223.541	-2.56
223.759	-2.56
223.977	71.17
224.195	38.4
224.413	-20.99
224.631	95.74
224.849	42.5
225.067	-37.38
225.285	54.78
225.503	50.69
225.721	9.73
225.939	42.5
226.157	-35.33
226.375	75.26
226.592	11.78
226.81	50.69
227.028	42.5
227.246	17.92
227.464	24.06
227.682	19.97
227.9	-20.99
228.117	-10.75
228.335	44.54
228.553	34.3
228.771	-29.18
228.989	52.74
229.206	26.11
229.424	42.5
229.642	30.21
229.86	-8.7
230.077	-43.52
230.295	-27.14
230.513	5.63
230.731	3.58
230.948	15.87
231.166	58.88
231.384	114.17
231.601	-14.85
231.819	89.6
232.037	-31.23
232.254	-14.85
232.472	62.98
232.689	-2.56
232.907	28.16
233.125	95.74
233.342	52.74
233.56	32.26
233.777	26.11
233.995	15.87
234.213	3.58
234.43	71.17
234.648	62.98
234.865	22.02
235.083	38.4
235.3	71.17
235.518	38.4
235.735	30.21
235.953	79.36
236.17	-18.94
236.388	118.27
236.605	24.06
236.822	13.82
237.04	-2.56
237.257	-31.23
237.475	22.02
237.692	34.3
237.909	5.63
238.127	50.69
238.344	-4.61
238.562	30.21
238.779	5.63
238.996	-23.04
239.214	69.12
239.431	38.4
239.648	15.87
239.865	9.73
240.083	52.74
240.3	58.88
240.517	-41.47
240.735	30.21
240.952	34.3
241.169	67.07
241.386	-0.51
241.603	-64
241.821	-6.66
242.038	46.59
242.255	32.26
242.472	22.02
242.689	101.89
242.907	17.92
243.124	50.69
243.341	50.69
243.558	-4.61
243.775	67.07
243.992	-8.7
244.209	24.06
244.426	75.26
244.643	3.58
244.86	9.73
245.078	101.89
245.295	36.35
245.512	134.65
245.729	58.88
245.946	50.69
246.163	69.12
246.38	-6.66
246.597	13.82
246.814	87.55
247.031	-10.75
247.248	46.59
247.464	73.21
247.681	40.45
247.898	9.73
248.115	-27.14
248.332	30.21
248.549	118.27
248.766	38.4
248.983	62.98
249.2	26.11
249.417	93.69
249.633	62.98
249.85	112.13
250.067	-41.47
250.284	93.69
250.501	-39.42
250.717	40.45
250.934	52.74
251.151	50.69
251.368	22.02
251.585	-14.85
251.801	99.84
252.018	38.4
252.235	34.3
252.451	28.16
252.668	9.73
252.885	-35.33
253.102	28.16
253.318	62.98
253.535	26.11
253.752	87.55
253.968	-35.33
254.185	62.98
254.401	15.87
254.618	-4.61
254.835	-25.09
255.051	77.31
255.268	44.54
255.484	44.54
255.701	-64
255.917	56.83
256.134	3.58
256.351	19.97
256.567	-6.66
256.784	-20.99
257	3.58
257.217	62.98
257.433	48.64
257.65	5.63
257.866	81.41
258.082	81.41
258.299	11.78
258.515	7.68
258.732	-6.66
258.948	-16.9
259.165	-20.99
259.381	30.21
259.597	40.45
259.814	-8.7
260.03	3.58
260.246	7.68
260.463	15.87
260.679	114.17
260.895	-6.66
261.112	71.17
261.328	-10.75
261.544	22.02
261.761	22.02
261.977	58.88
262.193	-4.61
262.409	54.78
262.626	142.85
262.842	124.41
263.058	19.97
263.274	42.5
263.49	48.64
263.707	19.97
263.923	26.11
264.139	-6.66
264.355	38.4
264.571	95.74
264.787	42.5
265.004	120.32
265.22	13.82
265.436	17.92
265.652	28.16
265.868	87.55
266.084	17.92
266.3	-2.56
266.516	17.92
266.732	50.69
266.948	89.6
267.164	-2.56
267.38	75.26
267.596	28.16
267.812	93.69
268.028	36.35
268.244	69.12
268.46	93.69
268.676	-16.9
268.892	95.74
269.108	-14.85
269.324	-0.51
269.54	15.87
269.756	-25.09
269.972	-29.18
270.188	28.16
270.403	65.02
270.619	-18.94
270.835	17.92
271.051	-8.7
271.267	1.54
271.483	65.02
271.698	67.07
271.914	22.02
272.13	62.98
272.346	-43.52
272.562	-10.75
272.777	-10.75
272.993	-70.14
273.209	-45.57
273.425	114.17
273.64	42.5
273.856	22.02
274.072	9.73
274.287	52.74
274.503	50.69
274.719	-10.75
274.934	99.84
275.15	46.59
275.366	-33.28
275.581	28.16
275.797	112.13
276.012	34.3
276.228	15.87
276.444	13.82
276.659	93.69
276.875	17.92
277.09	38.4
277.306	5.63
277.521	17.92
277.737	28.16
277.952	73.21
278.168	1.54
278.383	40.45
278.599	-12.8
278.814	42.5
279.03	-25.09
279.245	79.36
279.461	-59.9
279.676	13.82
279.892	24.06
280.107	15.87
280.322	52.74
280.538	-29.18
280.753	-27.14
280.969	38.4
281.184	71.17
281.399	58.88
281.615	3.58
281.83	13.82
282.045	-80.38
282.26	60.93
282.476	48.64
282.691	58.88
282.906	32.26
283.122	7.68
283.337	52.74
283.552	130.56
283.767	30.21
283.983	52.74
284.198	19.97
284.413	11.78
284.628	30.21
284.843	11.78
285.058	52.74
285.274	15.87
285.489	-90.62
285.704	58.88
285.919	15.87
286.134	11.78
286.349	79.36
286.564	-14.85
286.779	110.08
286.995	44.54
287.21	36.35
287.425	85.5
287.64	15.87
287.855	85.5
288.07	-31.23
288.285	46.59
288.5	-2.56
288.715	13.82
288.93	42.5
289.145	1.54
289.36	40.45
289.575	9.73
289.79	5.63
290.004	38.4
290.219	19.97
290.434	44.54
290.649	-39.42
290.864	-2.56
291.079	-37.38
291.294	13.82
291.509	-29.18
291.724	46.59
291.938	-0.51
292.153	24.06
292.368	48.64
292.583	79.36
292.798	13.82
293.012	-2.56
293.227	42.5
293.442	17.92
293.657	-16.9
293.871	-0.51
294.086	17.92
294.301	19.97
294.516	56.83
294.73	71.17
294.945	77.31
295.16	-29.18
295.374	42.5
295.589	91.65
295.804	11.78
296.018	15.87
296.233	50.69
296.447	17.92
296.662	-31.23
296.877	46.59
297.091	69.12
297.306	-12.8
297.52	13.82
297.735	9.73
297.949	5.63
298.164	13.82
298.378	52.74
298.593	52.74
298.807	40.45
299.022	5.63
299.236	118.27
299.451	3.58
299.665	65.02
299.88	-29.18
300.094	1.54
300.309	5.63
300.523	-2.56
300.737	-4.61
300.952	-29.18
301.166	15.87
301.381	-2.56
301.595	-6.66
301.809	50.69
302.024	11.78
302.238	22.02
302.452	46.59
302.667	5.63
302.881	7.68
303.095	79.36
303.309	42.5
303.524	-2.56
303.738	26.11
303.952	30.21
304.166	34.3
304.381	11.78
304.595	48.64
304.809	79.36
305.023	-33.28
305.237	30.21
305.452	50.69
305.666	26.11
305.88	50.69
306.094	28.16
306.308	75.26
306.522	48.64
306.736	26.11
306.95	52.74
307.164	9.73
307.379	56.83
307.593	-10.75
307.807	54.78
308.021	1.54
308.235	132.61
308.449	13.82
308.663	54.78
308.877	95.74
309.091	71.17
309.305	32.26
309.519	7.68
309.733	46.59
309.947	13.82
310.161	56.83
310.374	54.78
310.588	-41.47
310.802	46.59
311.016	75.26
311.23	15.87
311.444	40.45
311.658	-16.9
311.872	40.45
312.085	9.73
312.299	52.74
312.513	11.78
312.727	-8.7
312.941	52.74
313.154	30.21
313.368	-0.51
313.582	44.54
313.796	42.5
314.009	34.3
314.223	28.16
314.437	116.22
314.651	46.59
314.864	56.83
315.078	-18.94
315.292	60.93
315.505	40.45
315.719	134.65
315.933	-10.75
316.146	32.26
316.36	44.54
316.573	15.87
316.787	44.54
317.001	110.08
317.214	93.69
317.428	-37.38
317.641	69.12
317.855	-10.75
318.068	38.4
318.282	36.35
318.495	26.11
318.709	44.54
318.922	-23.04
319.136	95.74
319.349	36.35
319.563	-20.99
319.776	15.87
319.99	28.16
320.203	19.97
320.417	17.92
320.63	-59.9
320.843	24.06
321.057	-35.33
321.27	26.11
321.483	13.82
321.697	85.5
321.91	38.4
322.124	71.17
322.337	-33.28
322.55	-18.94
322.763	56.83
322.977	120.32
323.19	7.68
323.403	67.07
323.617	5.63
323.83	9.73
324.043	69.12
324.256	75.26
324.469	79.36
324.683	30.21
324.896	32.26
325.109	36.35
325.322	22.02
325.535	73.21
325.748	-76.29
325.962	83.45
326.175	-6.66
326.388	-8.7
326.601	87.55
326.814	-10.75
327.027	3.58
327.24	85.5
327.453	34.3
327.666	71.17
327.879	44.54
328.092	50.69
328.305	26.11
328.518	34.3
328.731	9.73
328.944	-4.61
329.157	-43.52
329.37	120.32
329.583	81.41
329.796	13.82
330.009	50.69
330.222	79.36
330.435	52.74
330.648	48.64
330.861	42.5
331.073	15.87
331.286	-20.99
331.499	48.64
331.712	26.11
331.925	11.78
332.138	120.32
332.35	58.88
332.563	-61.95
332.776	5.63
332.989	54.78
333.202	22.02
333.414	101.89
333.627	48.64
333.84	36.35
334.053	52.74
334.265	28.16
334.478	17.92
334.691	52.74
334.903	22.02
335.116	42.5
335.329	-10.75
335.541	132.61
335.754	81.41
335.966	26.11
336.179	79.36
336.392	-0.51
336.604	7.68
336.817	-8.7
337.029	87.55
337.242	112.13
337.454	15.87
337.667	132.61
337.88	97.79
338.092	87.55
338.305	-2.56
338.517	26.11
338.729	69.12
338.942	28.16
339.154	95.74
339.367	97.79
339.579	-2.56
339.792	52.74
340.004	89.6
340.217	85.5
340.429	22.02
340.641	13.82
340.854	26.11
341.066	71.17
341.278	58.88
341.491	52.74
341.703	32.26
341.915	79.36
342.128	36.35
342.34	19.97
342.552	5.63
342.764	-51.71
342.977	24.06
343.189	91.65
343.401	52.74
343.613	-20.99
343.826	54.78
344.038	42.5
344.25	79.36
344.462	-39.42
344.674	42.5
344.886	-43.52
345.099	122.37
345.311	13.82
345.523	83.45
345.735	52.74
345.947	93.69
346.159	60.93
346.371	118.27
346.583	108.03
346.795	52.74
347.007	15.87
347.219	40.45
347.431	89.6
347.643	101.89
347.855	13.82
348.067	124.41
348.279	1.54
348.491	15.87
348.703	3.58
348.915	97.79
349.127	22.02
349.339	30.21
349.551	54.78
349.763	67.07
349.975	48.64
350.187	24.06
350.399	7.68
350.61	40.45
350.822	44.54
351.034	-6.66
351.246	75.26
351.458	19.97
351.669	79.36
351.881	46.59
352.093	46.59
352.305	134.65
352.517	75.26
352.728	54.78
352.94	-18.94
353.152	-66.05
353.363	32.26
353.575	34.3
353.787	60.93
353.999	38.4
354.21	58.88
354.422	-6.66
354.633	30.21
354.845	44.54
355.057	50.69
355.268	65.02
355.48	17.92
355.692	81.41
355.903	40.45
356.115	15.87
356.326	28.16
356.538	81.41
356.749	36.35
356.961	75.26
357.172	103.93
357.384	69.12
357.595	91.65
357.807	7.68
358.018	-12.8
358.23	48.64
358.441	118.27
358.653	5.63
358.864	58.88
359.075	26.11
359.287	38.4
359.498	-2.56
359.709	73.21
359.921	116.22
360.132	36.35
360.344	73.21
360.555	30.21
360.766	24.06
360.977	75.26
361.189	24.06
361.4	46.59
361.611	38.4
361.823	46.59
362.034	83.45
362.245	7.68
362.456	24.06
362.667	97.79
362.879	44.54
363.09	26.11
363.301	85.5
363.512	56.83
363.723	1.54
363.935	22.02
364.146	-8.7
364.357	56.83
364.568	-18.94
364.779	17.92
364.99	-8.7
365.201	71.17
365.412	67.07
365.623	-23.04
365.834	1.54
366.045	54.78
366.256	44.54
366.467	13.82
366.678	22.02
366.889	36.35
367.1	38.4
367.311	17.92
367.522	81.41
367.733	26.11
367.944	34.3
368.155	-16.9
368.366	52.74
368.577	38.4
368.788	15.87
368.999	34.3
369.209	28.16
369.42	110.08
369.631	124.41
369.842	87.55
370.053	34.3
370.264	56.83
370.474	36.35
370.685	13.82
370.896	-10.75
371.107	-35.33
371.317	56.83
371.528	-43.52
371.739	26.11
371.95	38.4
372.16	42.5
372.371	-2.56
372.582	44.54
372.792	15.87
373.003	-43.52
373.214	75.26
373.424	87.55
373.635	56.83
373.846	87.55
374.056	-16.9
374.267	71.17
374.477	50.69
374.688	73.21
374.898	30.21
375.109	22.02
375.319	42.5
375.53	48.64
375.74	103.93
375.951	75.26
376.161	36.35
376.372	54.78
376.582	77.31
376.793	173.57
377.003	83.45
377.214	75.26
377.424	97.79
377.635	62.98
377.845	-39.42
378.055	44.54
378.266	34.3
378.476	87.55
378.686	54.78
378.897	87.55
379.107	60.93
379.317	81.41
379.528	60.93
379.738	144.89
379.948	46.59
380.158	19.97
380.369	75.26
380.579	81.41
380.789	99.84
380.999	124.41
381.21	116.22
381.42	36.35
381.63	-20.99
381.84	44.54
382.05	17.92
382.261	112.13
382.471	26.11
382.681	22.02
382.891	54.78
383.101	71.17
383.311	83.45
383.521	42.5
383.731	13.82
383.941	30.21
384.151	30.21
384.361	95.74
384.571	101.89
384.781	3.58
384.991	40.45
385.201	144.89
385.411	79.36
385.621	22.02
385.831	11.78
386.041	71.17
386.251	32.26
386.461	97.79
386.671	22.02
386.881	-2.56
387.091	-4.61
387.301	83.45
387.511	38.4
387.72	77.31
387.93	26.11
388.14	93.69
388.35	52.74
388.56	48.64
388.769	144.89
388.979	89.6
389.189	50.69
389.399	112.13
389.609	54.78
389.818	73.21
390.028	130.56
390.238	171.52
390.447	58.88
390.657	32.26
390.867	1.54
391.076	9.73
391.286	120.32
391.496	44.54
391.705	3.58
391.915	140.8
392.125	71.17
392.334	28.16
392.544	101.89
392.753	114.17
392.963	11.78
393.172	67.07
393.382	75.26
393.591	77.31
393.801	81.41
394.01	87.55
394.22	71.17
394.429	103.93
394.639	3.58
394.848	34.3
395.058	38.4
395.267	130.56
395.477	157.18
395.686	103.93
395.895	56.83
396.105	153.09
396.314	108.03
396.524	153.09
396.733	99.84
396.942	101.89
397.152	177.66
397.361	85.5
397.57	65.02
397.78	56.83
397.989	138.75
398.198	99.84
398.407	71.17
398.617	60.93
398.826	161.28
399.035	87.55
399.244	157.18
399.453	60.93
399.663	181.76
399.872	185.85
400.081	118.27
400.29	138.75
400.499	128.51
400.708	153.09
400.917	87.55
401.127	136.7
401.336	46.59
401.545	103.93
401.754	140.8
401.963	136.7
402.172	155.13
402.381	95.74
402.59	175.61
402.799	136.7
403.008	144.89
403.217	17.92
403.426	183.81
403.635	56.83
403.844	140.8
404.053	161.28
404.262	105.98
404.471	218.62
404.68	134.65
404.888	189.95
405.097	198.14
405.306	132.61
405.515	183.81
405.724	196.09
405.933	251.39
406.142	159.23
406.35	198.14
406.559	138.75
406.768	140.8
406.977	200.19
407.185	232.96
407.394	228.86
407.603	208.38
407.812	222.72
408.02	214.52
408.229	327.16
408.438	273.92
408.646	239.1
408.855	224.76
409.064	218.62
409.272	269.82
409.481	368.12
409.69	290.3
409.898	292.35
410.107	394.75
410.315	364.03
410.524	345.59
410.733	456.19
410.941	372.22
411.15	364.03
411.358	400.89
411.567	511.48
411.775	447.99
411.984	456.19
412.192	450.04
412.401	507.38
412.609	597.49
412.818	611.83
413.026	595.45
413.234	527.86
413.443	628.21
413.651	568.82
413.86	636.41
414.068	744.95
414.276	656.89
414.485	708.09
414.693	775.67
414.901	826.87
415.11	792.05
415.318	820.72
415.526	822.77
415.734	732.66
415.943	904.69
416.151	976.37
416.359	921.07
416.567	986.61
416.776	978.42
416.984	1099.25
417.192	1046
417.4	1062.38
417.608	1074.67
417.817	1142.25
418.025	1316.33
418.233	1363.44
418.441	1246.7
418.649	1385.96
418.857	1390.06
419.065	1533.42
419.273	1443.31
419.481	1484.27
419.689	1670.63
419.897	1756.65
420.105	1842.66
420.313	1789.41
420.521	1832.42
420.729	1863.14
420.937	1930.72
421.145	2084.32
421.353	2057.7
421.561	2186.72
421.769	2149.86
421.977	2315.74
422.185	2244.06
422.393	2405.85
422.601	2647.51
422.809	2633.18
423.017	2641.37
423.224	2731.48
423.432	2833.88
423.64	2805.21
423.848	3030.48
424.056	3018.19
424.263	3261.9
424.471	3282.38
424.679	3294.67
424.887	3610.06
425.094	3534.28
425.302	3587.53
425.51	3775.94
425.718	3837.38
425.925	3962.31
426.133	4050.37
426.341	4378.05
426.548	4588.99
426.756	4476.35
426.964	4482.49
427.171	4830.65
427.379	4978.1
427.586	5019.06
427.794	5133.75
428.001	5348.78
428.209	5703.08
428.417	5469.61
428.624	5969.32
428.832	5973.41
429.039	5871.01
429.247	5965.22
429.454	6526.36
429.662	6962.58
429.869	6413.73
430.076	6960.53
430.284	6700.44
430.491	6966.68
430.699	7406.99
430.906	7474.57
431.114	7536.01
431.321	7746.95
431.528	7998.85
431.736	8445.31
431.943	8881.53
432.15	8693.12
432.358	8560
432.565	9194.87
432.772	9135.48
432.979	9692.52
433.187	9545.07
433.394	9721.2
433.601	10440.03
433.808	10499.42
434.016	10595.68
434.223	10978.65
434.43	11609.42
434.637	11361.62
434.844	11967.82
435.052	12105.03
435.259	12248.39
435.466	12307.78
435.673	11920.71
435.88	13104.44
436.087	13743.41
436.294	13554.99
436.501	13260.09
436.708	13542.71
436.915	14017.83
437.122	14554.4
437.329	14621.98
437.537	14980.38
437.743	15486.23
437.95	15011.1
438.157	16147.72
438.364	16622.85
438.571	16561.41
438.778	16755.97
438.985	18181.35
439.192	17349.88
439.399	17861.87
439.606	17310.97
439.813	18480.36
440.02	19705.04
440.227	19399.9
440.433	19283.16
440.64	19756.24
440.847	19565.78
441.054	19977.42
441.261	21531.83
441.467	21327.03
441.674	21544.12
441.881	22060.21
442.088	22557.86
442.294	22113.45
442.501	22426.79
442.708	23430.3
442.914	24095.89
443.121	25078.91
443.328	24312.97
443.534	26109.04
443.741	25369.72
443.948	25183.36
444.154	26942.56
444.361	26838.12
444.568	27151.46
444.774	26924.13
444.981	27137.12
445.187	27923.54
445.394	29107.27
445.6	28931.14
445.807	31454.24
446.013	30131.25
446.22	30567.47
446.426	31853.59
446.633	32224.28
446.839	33176.58
447.046	31843.35
447.252	33903.61
447.459	33401.86
447.665	33539.07
447.871	35136.49
448.078	35931.1
448.284	34667.5
448.491	35415.01
448.697	36860.88
448.903	37350.34
449.11	37616.58
449.316	36735.95
449.522	37862.33
449.728	38509.49
449.935	39011.24
450.141	38845.36
450.347	39842.72
450.553	37960.64
450.76	39222.19
450.966	39861.15
451.172	39543.72
451.378	40434.58
451.584	40162.2
451.791	40438.68
451.997	40377.24
452.203	41108.36
452.409	41110.41
452.615	40915.86
452.821	39654.31
453.027	38964.14
453.233	41120.65
453.44	39685.03
453.646	39682.98
453.852	40006.56
454.058	40844.18
454.264	39132.07
454.47	40205.21
454.676	39410.6
454.882	40442.77
455.088	37037
455.294	37774.27
455.5	38161.34
455.705	38464.44
455.911	36824.01
456.117	35888.09
456.323	35822.56
456.529	33567.74
456.735	35228.65
456.941	34270.2
457.147	33367.04
457.352	32623.63
457.558	32390.16
457.764	32474.13
457.97	32013.34
458.176	31001.64
458.381	31118.37
458.587	29500.48
458.793	29432.89
458.999	28077.14
459.204	30022.71
459.41	29389.89
459.616	27081.83
459.821	27182.18
460.027	27204.7
460.233	26741.86
460.438	25302.14
460.644	25619.58
460.85	24173.71
461.055	23876.76
461.261	24020.11
461.466	22224.04
461.672	21638.33
461.878	22961.31
462.083	21542.07
462.289	21142.72
462.494	21050.56
462.7	20018.38
462.905	19266.78
463.111	20186.32
463.316	20182.22
463.522	19694.8
463.727	19932.37
463.932	19856.59
464.138	19752.15
464.343	19696.85
464.549	19080.41
464.754	19553.49
464.959	19358.94
465.165	19363.03
465.37	18709.73
465.575	17970.41
465.781	19031.26
465.986	19072.22
466.191	18248.94
466.397	17759.47
466.602	17159.42
466.807	17782
467.012	17640.69
467.218	17796.34
467.423	17458.42
467.628	17390.84
467.833	18156.78
