Data from USB4F104151__255__11-11-47-628.txt Node

Date: Wed Mar 12 11:11:47 EDT 2025
User: louis
Spectrometer: USB4F10415
Trigger mode: 4
Integration Time (sec): 2.000000E-2
Scans to average: 1
Electric dark correction enabled: true
Nonlinearity correction enabled: false
Boxcar width: 0
XAxis mode: Wavelengths
Number of Pixels in Spectrum: 3648
>>>>>Begin Spectral Data<<<<<
178.204	-9.22
178.424	-9.22
178.644	-9.22
178.864	-160.77
179.084	-103.42
179.304	-50.18
179.524	5.12
179.744	21.5
179.964	60.42
180.184	-1.02
180.404	39.94
180.624	-19.46
180.844	-5.12
181.064	-76.8
181.283	-39.94
181.503	33.79
181.723	31.74
181.943	-11.26
182.163	-60.42
182.383	-54.27
182.602	25.6
182.822	80.89
183.042	-25.6
183.262	-125.95
183.482	5.12
183.701	-91.13
183.921	68.61
184.141	-5.12
184.361	11.26
184.58	27.65
184.8	39.94
185.02	27.65
185.239	-11.26
185.459	-48.13
185.679	-29.7
185.898	-56.32
186.118	-17.41
186.338	15.36
186.557	74.75
186.777	-60.42
186.997	3.07
187.216	-9.22
187.436	-70.65
187.655	1.02
187.875	-11.26
188.095	-19.46
188.314	9.22
188.534	64.51
188.753	52.22
188.973	27.65
189.192	33.79
189.412	3.07
189.631	-3.07
189.851	39.94
190.07	1.02
190.29	-35.84
190.509	-21.5
190.729	66.56
190.948	9.22
191.168	31.74
191.387	56.32
191.607	-68.61
191.826	-60.42
192.045	54.27
192.265	3.07
192.484	21.5
192.704	-37.89
192.923	-29.7
193.142	35.84
193.362	-17.41
193.581	33.79
193.8	35.84
194.02	-64.51
194.239	-19.46
194.458	37.89
194.678	-17.41
194.897	-3.07
195.116	-29.7
195.335	9.22
195.555	50.18
195.774	1.02
195.993	64.51
196.212	-39.94
196.432	25.6
196.651	-44.03
196.87	-50.18
197.089	29.7
197.308	3.07
197.528	5.12
197.747	60.42
197.966	-31.74
198.185	37.89
198.404	-66.56
198.623	66.56
198.842	-29.7
199.062	37.89
199.281	60.42
199.5	-35.84
199.719	27.65
199.938	-1.02
200.157	39.94
200.376	-25.6
200.595	11.26
200.814	25.6
201.033	25.6
201.252	13.31
201.471	-5.12
201.69	31.74
201.909	41.98
202.128	3.07
202.347	-1.02
202.566	7.17
202.785	-11.26
203.004	-103.42
203.223	68.61
203.442	44.03
203.661	23.55
203.879	46.08
204.098	27.65
204.317	9.22
204.536	27.65
204.755	25.6
204.974	48.13
205.193	-9.22
205.411	29.7
205.63	-15.36
205.849	-11.26
206.068	-37.89
206.287	-17.41
206.505	-44.03
206.724	-23.55
206.943	-52.22
207.162	-13.31
207.381	-68.61
207.599	-41.98
207.818	-29.7
208.037	64.51
208.255	-62.46
208.474	-19.46
208.693	56.32
208.911	-27.65
209.13	56.32
209.349	37.89
209.567	48.13
209.786	62.46
210.005	-33.79
210.223	-76.8
210.442	-87.04
210.661	-11.26
210.879	44.03
211.098	-37.89
211.316	21.5
211.535	39.94
211.753	-27.65
211.972	-11.26
212.191	-58.37
212.409	-5.12
212.628	-39.94
212.846	-66.56
213.065	5.12
213.283	-27.65
213.502	13.31
213.72	-33.79
213.938	-17.41
214.157	-11.26
214.375	-25.6
214.594	31.74
214.812	-31.74
215.031	-80.89
215.249	50.18
215.467	-39.94
215.686	-7.17
215.904	56.32
216.122	5.12
216.341	97.28
216.559	-44.03
216.778	-44.03
216.996	48.13
217.214	23.55
217.432	-17.41
217.651	3.07
217.869	-35.84
218.087	17.41
218.306	-7.17
218.524	19.46
218.742	-5.12
218.96	11.26
219.179	56.32
219.397	17.41
219.615	72.7
219.833	25.6
220.051	-31.74
220.27	-39.94
220.488	-54.27
220.706	60.42
220.924	-25.6
221.142	-17.41
221.36	68.61
221.578	-33.79
221.796	21.5
222.015	48.13
222.233	-76.8
222.451	39.94
222.669	-9.22
222.887	1.02
223.105	-52.22
223.323	-54.27
223.541	-5.12
223.759	46.08
223.977	-50.18
224.195	76.8
224.413	-44.03
224.631	-5.12
224.849	5.12
225.067	-7.17
225.285	-21.5
225.503	-52.22
225.721	-58.37
225.939	-7.17
226.157	128
226.375	35.84
226.592	23.55
226.81	-9.22
227.028	9.22
227.246	58.37
227.464	-60.42
227.682	21.5
227.9	15.36
228.117	60.42
228.335	-70.65
228.553	-13.31
228.771	13.31
228.989	-31.74
229.206	-15.36
229.424	17.41
229.642	5.12
229.86	-27.65
230.077	52.22
230.295	-25.6
230.513	35.84
230.731	15.36
230.948	-1.02
231.166	-35.84
231.384	-17.41
231.601	41.98
231.819	31.74
232.037	-21.5
232.254	-11.26
232.472	1.02
232.689	-9.22
232.907	-17.41
233.125	17.41
233.342	-3.07
233.56	39.94
233.777	-66.56
233.995	-72.7
234.213	1.02
234.43	15.36
234.648	87.04
234.865	1.02
235.083	-17.41
235.3	-3.07
235.518	119.81
235.735	144.38
235.953	56.32
236.17	37.89
236.388	-62.46
236.605	11.26
236.822	37.89
237.04	35.84
237.257	27.65
237.475	-56.32
237.692	-3.07
237.909	-44.03
238.127	44.03
238.344	9.22
238.562	-7.17
238.779	-19.46
238.996	-3.07
239.214	70.65
239.431	23.55
239.648	37.89
239.865	33.79
240.083	7.17
240.3	3.07
240.517	-80.89
240.735	-37.89
240.952	23.55
241.169	1.02
241.386	-7.17
241.603	9.22
241.821	1.02
242.038	31.74
242.255	33.79
242.472	23.55
242.689	-13.31
242.907	-7.17
243.124	-11.26
243.341	-17.41
243.558	-33.79
243.775	-9.22
243.992	-70.65
244.209	58.37
244.426	5.12
244.643	-17.41
244.86	-66.56
245.078	9.22
245.295	-31.74
245.512	70.65
245.729	-54.27
245.946	76.8
246.163	-17.41
246.38	7.17
246.597	-13.31
246.814	7.17
247.031	19.46
247.248	27.65
247.464	-60.42
247.681	52.22
247.898	103.42
248.115	33.79
248.332	54.27
248.549	31.74
248.766	68.61
248.983	-19.46
249.2	50.18
249.417	31.74
249.633	-9.22
249.85	101.37
250.067	-21.5
250.284	17.41
250.501	-35.84
250.717	64.51
250.934	-52.22
251.151	15.36
251.368	-5.12
251.585	-23.55
251.801	-44.03
252.018	-54.27
252.235	-41.98
252.451	-11.26
252.668	37.89
252.885	-5.12
253.102	-19.46
253.318	21.5
253.535	-87.04
253.752	-17.41
253.968	-17.41
254.185	41.98
254.401	-37.89
254.618	-17.41
254.835	-13.31
255.051	74.75
255.268	-9.22
255.484	-23.55
255.701	44.03
255.917	17.41
256.134	-48.13
256.351	1.02
256.567	23.55
256.784	7.17
257	-1.02
257.217	-27.65
257.433	31.74
257.65	9.22
257.866	39.94
258.082	-19.46
258.299	23.55
258.515	3.07
258.732	1.02
258.948	23.55
259.165	17.41
259.381	-35.84
259.597	115.71
259.814	33.79
260.03	-23.55
260.246	23.55
260.463	-15.36
260.679	11.26
260.895	25.6
261.112	17.41
261.328	5.12
261.544	-3.07
261.761	78.85
261.977	21.5
262.193	-107.52
262.409	72.7
262.626	50.18
262.842	-39.94
263.058	-87.04
263.274	29.7
263.49	17.41
263.707	84.99
263.923	89.09
264.139	-50.18
264.355	72.7
264.571	-13.31
264.787	7.17
265.004	-7.17
265.22	-9.22
265.436	23.55
265.652	-37.89
265.868	-27.65
266.084	21.5
266.3	-39.94
266.516	-80.89
266.732	52.22
266.948	-7.17
267.164	9.22
267.38	-1.02
267.596	11.26
267.812	66.56
268.028	-41.98
268.244	-15.36
268.46	48.13
268.676	-46.08
268.892	-25.6
269.108	29.7
269.324	9.22
269.54	-95.23
269.756	-3.07
269.972	-72.7
270.188	3.07
270.403	-9.22
270.619	-21.5
270.835	15.36
271.051	60.42
271.267	-48.13
271.483	-58.37
271.698	13.31
271.914	27.65
272.13	-7.17
272.346	84.99
272.562	25.6
272.777	52.22
272.993	9.22
273.209	-31.74
273.425	-29.7
273.64	-5.12
273.856	-19.46
274.072	35.84
274.287	-15.36
274.503	64.51
274.719	1.02
274.934	7.17
275.15	-5.12
275.366	44.03
275.581	-25.6
275.797	62.46
276.012	-39.94
276.228	-82.94
276.444	-33.79
276.659	19.46
276.875	-35.84
277.09	19.46
277.306	29.7
277.521	50.18
277.737	-58.37
277.952	27.65
278.168	9.22
278.383	78.85
278.599	11.26
278.814	13.31
279.03	19.46
279.245	19.46
279.461	-1.02
279.676	-9.22
279.892	-109.57
280.107	-35.84
280.322	37.89
280.538	95.23
280.753	-9.22
280.969	-21.5
281.184	-72.7
281.399	64.51
281.615	-17.41
281.83	56.32
282.045	-29.7
282.26	25.6
282.476	11.26
282.691	-15.36
282.906	48.13
283.122	-5.12
283.337	-80.89
283.552	23.55
283.767	41.98
283.983	-23.55
284.198	48.13
284.413	41.98
284.628	-44.03
284.843	58.37
285.058	-70.65
285.274	31.74
285.489	-17.41
285.704	-33.79
285.919	15.36
286.134	-33.79
286.349	78.85
286.564	-50.18
286.779	-62.46
286.995	1.02
287.21	11.26
287.425	19.46
287.64	-48.13
287.855	3.07
288.07	11.26
288.285	68.61
288.5	-9.22
288.715	17.41
288.93	-27.65
289.145	95.23
289.36	-27.65
289.575	-39.94
289.79	97.28
290.004	5.12
290.219	78.85
290.434	19.46
290.649	-72.7
290.864	-37.89
291.079	9.22
291.294	-19.46
291.509	58.37
291.724	-17.41
291.938	-25.6
292.153	52.22
292.368	21.5
292.583	9.22
292.798	21.5
293.012	13.31
293.227	39.94
293.442	-3.07
293.657	68.61
293.871	7.17
294.086	-82.94
294.301	37.89
294.516	37.89
294.73	27.65
294.945	-27.65
295.16	107.52
295.374	3.07
295.589	60.42
295.804	-15.36
296.018	19.46
296.233	-11.26
296.447	37.89
296.662	-17.41
296.877	-27.65
297.091	-5.12
297.306	48.13
297.52	-7.17
297.735	-27.65
297.949	-13.31
298.164	68.61
298.378	-29.7
298.593	-7.17
298.807	25.6
299.022	15.36
299.236	-25.6
299.451	-62.46
299.665	31.74
299.88	23.55
300.094	-74.75
300.309	-5.12
300.523	46.08
300.737	-1.02
300.952	-23.55
301.166	-70.65
301.381	-27.65
301.595	3.07
301.809	-87.04
302.024	-27.65
302.238	-5.12
302.452	-1.02
302.667	27.65
302.881	25.6
303.095	-25.6
303.309	39.94
303.524	5.12
303.738	52.22
303.952	31.74
304.166	64.51
304.381	27.65
304.595	11.26
304.809	19.46
305.023	19.46
305.237	9.22
305.452	-25.6
305.666	44.03
305.88	-7.17
306.094	-19.46
306.308	21.5
306.522	1.02
306.736	-33.79
306.95	-17.41
307.164	5.12
307.379	3.07
307.593	19.46
307.807	46.08
308.021	46.08
308.235	7.17
308.449	-1.02
308.663	-48.13
308.877	21.5
309.091	-21.5
309.305	48.13
309.519	-7.17
309.733	-3.07
309.947	-1.02
310.161	-35.84
310.374	-7.17
310.588	15.36
310.802	-78.85
311.016	56.32
311.23	-64.51
311.444	-13.31
311.658	54.27
311.872	11.26
312.085	31.74
312.299	64.51
312.513	39.94
312.727	-13.31
312.941	-5.12
313.154	37.89
313.368	50.18
313.582	5.12
313.796	50.18
314.009	-41.98
314.223	56.32
314.437	-60.42
314.651	-5.12
314.864	-44.03
315.078	-48.13
315.292	-11.26
315.505	89.09
315.719	5.12
315.933	-31.74
316.146	-23.55
316.36	-21.5
316.573	11.26
316.787	-25.6
317.001	60.42
317.214	-44.03
317.428	31.74
317.641	23.55
317.855	-25.6
318.068	37.89
318.282	23.55
318.495	50.18
318.709	-9.22
318.922	-13.31
319.136	52.22
319.349	89.09
319.563	-33.79
319.776	27.65
319.99	-33.79
320.203	27.65
320.417	13.31
320.63	-37.89
320.843	74.75
321.057	23.55
321.27	62.46
321.483	-31.74
321.697	13.31
321.91	-21.5
322.124	17.41
322.337	50.18
322.55	-1.02
322.763	21.5
322.977	-58.37
323.19	56.32
323.403	41.98
323.617	-62.46
323.83	11.26
324.043	31.74
324.256	-13.31
324.469	-3.07
324.683	-80.89
324.896	-44.03
325.109	35.84
325.322	-23.55
325.535	35.84
325.748	-41.98
325.962	-5.12
326.175	64.51
326.388	27.65
326.601	-52.22
326.814	-70.65
327.027	68.61
327.24	50.18
327.453	-29.7
327.666	5.12
327.879	-19.46
328.092	48.13
328.305	54.27
328.518	-48.13
328.731	-23.55
328.944	58.37
329.157	25.6
329.37	56.32
329.583	-35.84
329.796	15.36
330.009	21.5
330.222	35.84
330.435	-21.5
330.648	-7.17
330.861	-58.37
331.073	7.17
331.286	27.65
331.499	-7.17
331.712	35.84
331.925	-15.36
332.138	-46.08
332.35	-33.79
332.563	-48.13
332.776	46.08
332.989	-5.12
333.202	-17.41
333.414	3.07
333.627	-13.31
333.84	15.36
334.053	7.17
334.265	3.07
334.478	9.22
334.691	23.55
334.903	-7.17
335.116	39.94
335.329	7.17
335.541	-23.55
335.754	72.7
335.966	-41.98
336.179	-27.65
336.392	-9.22
336.604	-37.89
336.817	19.46
337.029	-74.75
337.242	-19.46
337.454	-5.12
337.667	44.03
337.88	33.79
338.092	-17.41
338.305	33.79
338.517	23.55
338.729	56.32
338.942	84.99
339.154	21.5
339.367	13.31
339.579	56.32
339.792	-78.85
340.004	19.46
340.217	60.42
340.429	56.32
340.641	52.22
340.854	-17.41
341.066	-70.65
341.278	37.89
341.491	44.03
341.703	76.8
341.915	-58.37
342.128	33.79
342.34	9.22
342.552	-37.89
342.764	23.55
342.977	-19.46
343.189	60.42
343.401	33.79
343.613	-13.31
343.826	-11.26
344.038	39.94
344.25	-5.12
344.462	-17.41
344.674	-31.74
344.886	21.5
345.099	37.89
345.311	-11.26
345.523	-1.02
345.735	35.84
345.947	-7.17
346.159	-9.22
346.371	7.17
346.583	48.13
346.795	19.46
347.007	9.22
347.219	1.02
347.431	5.12
347.643	52.22
347.855	-54.27
348.067	64.51
348.279	29.7
348.491	-17.41
348.703	5.12
348.915	31.74
349.127	-35.84
349.339	-11.26
349.551	9.22
349.763	23.55
349.975	-50.18
350.187	80.89
350.399	13.31
350.61	-60.42
350.822	-62.46
351.034	-33.79
351.246	-37.89
351.458	64.51
351.669	11.26
351.881	60.42
352.093	-46.08
352.305	-27.65
352.517	21.5
352.728	35.84
352.94	52.22
353.152	-23.55
353.363	15.36
353.575	-13.31
353.787	64.51
353.999	25.6
354.21	-3.07
354.422	-93.18
354.633	-39.94
354.845	-25.6
355.057	52.22
355.268	-39.94
355.48	-9.22
355.692	35.84
355.903	-76.8
356.115	17.41
356.326	29.7
356.538	37.89
356.749	33.79
356.961	78.85
357.172	-1.02
357.384	27.65
357.595	44.03
357.807	13.31
358.018	7.17
358.23	31.74
358.441	33.79
358.653	89.09
358.864	52.22
359.075	41.98
359.287	-27.65
359.498	27.65
359.709	-37.89
359.921	48.13
360.132	-50.18
360.344	-11.26
360.555	-9.22
360.766	31.74
360.977	-58.37
361.189	13.31
361.4	-13.31
361.611	50.18
361.823	125.95
362.034	-72.7
362.245	-37.89
362.456	-1.02
362.667	-13.31
362.879	48.13
363.09	50.18
363.301	-7.17
363.512	-9.22
363.723	5.12
363.935	-21.5
364.146	15.36
364.357	23.55
364.568	31.74
364.779	-27.65
364.99	15.36
365.201	7.17
365.412	9.22
365.623	-29.7
365.834	-25.6
366.045	87.04
366.256	78.85
366.467	11.26
366.678	15.36
366.889	-17.41
367.1	-7.17
367.311	39.94
367.522	52.22
367.733	35.84
367.944	9.22
368.155	-9.22
368.366	15.36
368.577	9.22
368.788	87.04
368.999	1.02
369.209	21.5
369.42	68.61
369.631	-13.31
369.842	-7.17
370.053	-5.12
370.264	-5.12
370.474	56.32
370.685	60.42
370.896	-23.55
371.107	17.41
371.317	89.09
371.528	-50.18
371.739	39.94
371.95	78.85
372.16	78.85
372.371	-56.32
372.582	58.37
372.792	21.5
373.003	72.7
373.214	23.55
373.424	50.18
373.635	19.46
373.846	-9.22
374.056	17.41
374.267	5.12
374.477	68.61
374.688	56.32
374.898	-44.03
375.109	21.5
375.319	-13.31
375.53	60.42
375.74	11.26
375.951	97.28
376.161	-15.36
376.372	44.03
376.582	-1.02
376.793	60.42
377.003	-15.36
377.214	35.84
377.424	-35.84
377.635	70.65
377.845	15.36
378.055	3.07
378.266	-29.7
378.476	-27.65
378.686	-39.94
378.897	95.23
379.107	62.46
379.317	95.23
379.528	-41.98
379.738	58.37
379.948	9.22
380.158	64.51
380.369	19.46
380.579	29.7
380.789	15.36
380.999	19.46
381.21	25.6
381.42	23.55
381.63	52.22
381.84	52.22
382.05	23.55
382.261	37.89
382.471	27.65
382.681	3.07
382.891	13.31
383.101	60.42
383.311	48.13
383.521	37.89
383.731	39.94
383.941	70.65
384.151	-5.12
384.361	-19.46
384.571	7.17
384.781	1.02
384.991	66.56
385.201	56.32
385.411	-60.42
385.621	-17.41
385.831	31.74
386.041	-46.08
386.251	50.18
386.461	50.18
386.671	-84.99
386.881	33.79
387.091	56.32
387.301	52.22
387.511	-37.89
387.72	7.17
387.93	15.36
388.14	-50.18
388.35	-15.36
388.56	44.03
388.769	-25.6
388.979	115.71
389.189	-3.07
389.399	-5.12
389.609	52.22
389.818	84.99
390.028	58.37
390.238	11.26
390.447	-17.41
390.657	-11.26
390.867	21.5
391.076	-23.55
391.286	89.09
391.496	93.18
391.705	27.65
391.915	54.27
392.125	74.75
392.334	19.46
392.544	7.17
392.753	78.85
392.963	3.07
393.172	-3.07
393.382	84.99
393.591	68.61
393.801	15.36
394.01	50.18
394.22	66.56
394.429	60.42
394.639	-7.17
394.848	9.22
395.058	-9.22
395.267	35.84
395.477	70.65
395.686	33.79
395.895	62.46
396.105	89.09
396.314	44.03
396.524	25.6
396.733	62.46
396.942	72.7
397.152	35.84
397.361	11.26
397.57	93.18
397.78	25.6
397.989	35.84
398.198	-5.12
398.407	19.46
398.617	44.03
398.826	15.36
399.035	35.84
399.244	66.56
399.453	23.55
399.663	21.5
399.872	48.13
400.081	91.13
400.29	128
400.499	52.22
400.708	11.26
400.917	84.99
401.127	87.04
401.336	19.46
401.545	158.72
401.754	56.32
401.963	1.02
402.172	74.75
402.381	31.74
402.59	44.03
402.799	46.08
403.008	80.89
403.217	44.03
403.426	44.03
403.635	80.89
403.844	-29.7
404.053	84.99
404.262	52.22
404.471	162.81
404.68	76.8
404.888	130.05
405.097	60.42
405.306	115.71
405.515	76.8
405.724	54.27
405.933	76.8
406.142	146.43
406.35	78.85
406.559	82.94
406.768	15.36
406.977	142.33
407.185	87.04
407.394	134.14
407.603	113.66
407.812	97.28
408.02	162.81
408.229	146.43
408.438	89.09
408.646	89.09
408.855	101.37
409.064	236.54
409.272	205.82
409.481	191.49
409.69	197.63
409.898	248.83
410.107	142.33
410.315	179.2
410.524	224.25
410.733	171.01
410.941	248.83
411.15	265.21
411.358	267.26
411.567	199.68
411.775	300.03
411.984	207.87
412.192	259.07
412.401	338.94
412.609	336.89
412.818	320.51
413.026	240.64
413.234	367.61
413.443	398.33
413.651	318.46
413.86	326.65
414.068	470.01
414.276	506.87
414.485	312.32
414.693	398.33
414.901	549.88
415.11	472.06
415.318	461.82
415.526	510.97
415.734	424.95
415.943	519.16
416.151	588.79
416.359	500.73
416.567	617.46
416.776	652.28
416.984	680.95
417.192	666.61
417.4	660.47
417.608	642.04
417.817	674.81
418.025	711.67
418.233	762.87
418.441	705.53
418.649	822.26
418.857	906.23
419.065	928.75
419.273	895.99
419.481	906.23
419.689	979.95
419.897	1016.82
420.105	998.38
420.313	1047.54
420.521	1070.06
420.729	1117.17
420.937	1104.88
421.145	1104.88
421.353	1289.2
421.561	1321.96
421.769	1299.44
421.977	1364.97
422.185	1346.54
422.393	1477.61
422.601	1530.86
422.809	1539.05
423.017	1620.97
423.224	1606.63
423.432	1739.75
423.64	1807.33
423.848	1827.81
424.056	1725.41
424.263	1938.4
424.471	1782.76
424.679	1934.31
424.887	2061.28
425.094	2139.1
425.302	2184.16
425.51	2188.25
425.718	2268.13
425.925	2264.03
426.133	2397.15
426.341	2536.41
426.548	2579.42
426.756	2601.94
426.964	2667.48
427.171	2751.45
427.379	2939.86
427.586	2964.43
427.794	3066.83
428.001	3187.66
428.209	3322.83
428.417	3251.15
428.624	3376.08
428.832	3421.13
429.039	3376.08
429.247	3488.71
429.454	3793.86
429.662	4101.06
429.869	3775.43
430.076	4006.85
430.284	4008.9
430.491	4002.75
430.699	4418.49
430.906	4307.9
431.114	4453.31
431.321	4613.05
431.528	4584.38
431.736	5014.45
431.943	5196.72
432.15	5051.31
432.358	5086.13
432.565	5299.12
432.772	5241.78
432.979	5737.38
433.187	5704.62
433.394	5759.91
433.601	6134.69
433.808	6198.18
434.016	6038.44
434.223	6308.77
434.43	6759.32
434.637	6609.82
434.844	7052.18
435.052	7213.97
435.259	7103.38
435.466	7123.86
435.673	7029.65
435.88	7644.04
436.087	7969.67
436.294	7863.18
436.501	7713.67
436.708	8018.82
436.915	8131.46
437.122	8618.88
437.329	8582.01
437.537	8870.78
437.743	8913.78
437.95	9018.23
438.157	9278.32
438.364	9751.4
438.571	9524.08
438.778	9751.4
438.985	10576.73
439.192	10054.5
439.399	10273.64
439.606	10201.96
439.813	10851.16
440.02	11576.14
440.227	11197.27
440.433	11230.04
440.64	11522.9
440.847	11408.21
441.054	11682.64
441.261	12655.42
441.467	12204.87
441.674	12448.58
441.881	12958.52
442.088	12874.56
442.294	12981.05
442.501	13245.24
442.708	13456.18
442.914	14248.74
443.121	14486.31
443.328	14084.91
443.534	15215.38
443.741	14850.85
443.948	14453.54
444.154	15739.66
444.361	15594.26
444.568	15514.39
444.774	15434.52
444.981	15667.98
445.187	16206.6
445.394	16780.03
445.6	16657.15
445.807	18352.87
446.013	17490.68
446.22	17820.4
446.426	18610.92
446.633	18797.28
446.839	19204.83
447.046	18549.48
447.252	19339.99
447.459	19456.73
447.665	19438.3
447.871	20347.59
448.078	21207.74
448.284	20280.01
448.491	20722.37
448.697	21406.39
448.903	21875.38
449.11	21807.8
449.316	21504.7
449.522	21924.53
449.728	22536.87
449.935	22461.1
450.141	22758.05
450.347	22932.13
450.553	22508.2
450.76	22422.19
450.966	23274.14
451.172	22878.88
451.378	23708.31
451.584	23429.79
451.791	23421.59
451.997	23859.86
452.203	23736.98
452.409	24011.41
452.615	23663.25
452.821	23067.3
453.027	22774.44
453.233	24060.56
453.44	22872.74
453.646	23208.61
453.852	23491.23
454.058	23796.37
454.264	22858.4
454.47	23425.69
454.676	22930.08
454.882	23358.11
455.088	21666.49
455.294	21793.46
455.5	21957.3
455.705	22229.68
455.911	21381.82
456.117	20892.35
456.323	20820.67
456.529	19634.9
456.735	20300.49
456.941	19841.75
457.147	19471.06
457.352	19036.89
457.558	18664.16
457.764	18787.04
457.97	18225.9
458.176	18092.78
458.381	17951.47
458.587	17117.95
458.793	17103.61
458.999	15909.65
459.204	17527.54
459.41	16947.97
459.616	15852.3
459.821	15459.09
460.027	15624.98
460.233	15409.94
460.438	14592.8
460.644	14787.36
460.85	14162.73
461.055	13962.03
461.261	13970.22
461.466	12804.92
461.672	12340.04
461.878	13433.65
462.083	12376.9
462.289	12323.65
462.494	12084.04
462.7	11500.37
462.905	11004.76
463.111	11752.27
463.316	11764.56
463.522	11729.74
463.727	11467.6
463.932	11522.9
464.138	11600.72
464.343	11440.98
464.549	11006.81
464.754	11647.82
464.959	11457.36
465.165	11295.57
465.37	10767.2
465.575	10224.48
465.781	10949.46
465.986	10787.68
466.191	10470.24
466.397	10359.65
466.602	9792.36
466.807	10107.75
