Data from USB4F104151__168__11-08-55-847.txt Node

Date: Wed Mar 12 11:08:55 EDT 2025
User: louis
Spectrometer: USB4F10415
Trigger mode: 4
Integration Time (sec): 2.000000E-2
Scans to average: 1
Electric dark correction enabled: true
Nonlinearity correction enabled: false
Boxcar width: 0
XAxis mode: Wavelengths
Number of Pixels in Spectrum: 3648
>>>>>Begin Spectral Data<<<<<
178.204	-24.92
178.424	-24.92
178.644	-24.92
178.864	-90.45
179.084	-49.49
179.304	36.52
179.524	7.85
179.744	-86.36
179.964	24.23
180.184	-14.68
180.404	7.85
180.624	13.99
180.844	73.39
181.064	-117.08
181.283	3.75
181.503	9.9
181.723	40.62
181.943	28.33
182.163	100.01
182.383	-29.01
182.602	28.33
182.822	-20.82
183.042	16.04
183.262	-47.44
183.482	42.67
183.701	-55.64
183.921	-18.77
184.141	18.09
184.361	73.39
184.58	-8.53
184.8	1.71
185.02	11.95
185.239	36.52
185.459	16.04
185.679	-35.16
185.898	3.75
186.118	34.47
186.338	48.81
186.557	77.48
186.777	34.47
186.997	-22.87
187.216	-14.68
187.436	7.85
187.655	13.99
187.875	-10.58
188.095	13.99
188.314	52.91
188.534	-41.3
188.753	22.19
188.973	7.85
189.192	28.33
189.412	32.43
189.631	9.9
189.851	-49.49
190.07	-26.96
190.29	-33.11
190.509	91.82
190.729	18.09
190.948	11.95
191.168	77.48
191.387	-10.58
191.607	-10.58
191.826	42.67
192.045	42.67
192.265	-37.2
192.484	9.9
192.704	20.14
192.923	-0.34
193.142	-20.82
193.362	3.75
193.581	16.04
193.8	95.91
194.02	5.8
194.239	52.91
194.458	34.47
194.678	32.43
194.897	77.48
195.116	16.04
195.335	-8.53
195.555	38.57
195.774	61.1
195.993	59.05
196.212	73.39
196.432	54.95
196.651	-12.63
196.87	16.04
197.089	118.44
197.308	67.24
197.528	-33.11
197.747	-6.49
197.966	-49.49
198.185	77.48
198.404	30.38
198.623	13.99
198.842	40.62
199.062	34.47
199.281	93.87
199.5	-16.73
199.719	46.76
199.938	126.63
200.157	-2.39
200.376	44.71
200.595	85.67
200.814	36.52
201.033	-10.58
201.252	95.91
201.471	-29.01
201.69	100.01
201.909	-0.34
202.128	3.75
202.347	-10.58
202.566	3.75
202.785	61.1
203.004	-20.82
203.223	71.34
203.442	-4.44
203.661	-37.2
203.879	32.43
204.098	-39.25
204.317	40.62
204.536	59.05
204.755	65.19
204.974	-0.34
205.193	85.67
205.411	18.09
205.63	5.8
205.849	-8.53
206.068	32.43
206.287	52.91
206.505	36.52
206.724	81.58
206.943	42.67
207.162	81.58
207.381	26.28
207.599	-18.77
207.818	-53.59
208.037	-51.54
208.255	3.75
208.474	24.23
208.693	11.95
208.911	38.57
209.13	75.43
209.349	28.33
209.567	36.52
209.786	48.81
210.005	38.57
210.223	-61.78
210.442	48.81
210.661	-18.77
210.879	36.52
211.098	5.8
211.316	1.71
211.535	34.47
211.753	40.62
211.972	61.1
212.191	40.62
212.409	24.23
212.628	59.05
212.846	50.86
213.065	28.33
213.283	32.43
213.502	-45.4
213.72	-33.11
213.938	108.2
214.157	-18.77
214.375	44.71
214.594	-55.64
214.812	24.23
215.031	-10.58
215.249	18.09
215.467	63.15
215.686	13.99
215.904	46.76
216.122	46.76
216.341	77.48
216.559	83.63
216.778	24.23
216.996	32.43
217.214	11.95
217.432	38.57
217.651	-37.2
217.869	44.71
218.087	-0.34
218.306	24.23
218.524	36.52
218.742	40.62
218.96	11.95
219.179	67.24
219.397	26.28
219.615	36.52
219.833	-43.35
220.051	20.14
220.27	-6.49
220.488	54.95
220.706	11.95
220.924	22.19
221.142	3.75
221.36	26.28
221.578	34.47
221.796	87.72
222.015	52.91
222.233	52.91
222.451	24.23
222.669	-33.11
222.887	24.23
223.105	3.75
223.323	26.28
223.541	22.19
223.759	52.91
223.977	-22.87
224.195	38.57
224.413	42.67
224.631	1.71
224.849	42.67
225.067	38.57
225.285	38.57
225.503	26.28
225.721	-2.39
225.939	42.67
226.157	-14.68
226.375	71.34
226.592	40.62
226.81	30.38
227.028	75.43
227.246	3.75
227.464	20.14
227.682	40.62
227.9	65.19
228.117	59.05
228.335	11.95
228.553	5.8
228.771	-37.2
228.989	-18.77
229.206	42.67
229.424	-12.63
229.642	38.57
229.86	3.75
230.077	11.95
230.295	63.15
230.513	20.14
230.731	44.71
230.948	85.67
231.166	32.43
231.384	50.86
231.601	9.9
231.819	20.14
232.037	48.81
232.254	48.81
232.472	18.09
232.689	93.87
232.907	1.71
233.125	11.95
233.342	89.77
233.56	-10.58
233.777	28.33
233.995	-16.73
234.213	36.52
234.43	48.81
234.648	-2.39
234.865	24.23
235.083	-4.44
235.3	30.38
235.518	32.43
235.735	40.62
235.953	73.39
236.17	38.57
236.388	-31.06
236.605	61.1
236.822	-33.11
237.04	97.96
237.257	22.19
237.475	52.91
237.692	61.1
237.909	36.52
238.127	-6.49
238.344	63.15
238.562	48.81
238.779	-33.11
238.996	-22.87
239.214	32.43
239.431	71.34
239.648	22.19
239.865	48.81
240.083	28.33
240.3	-16.73
240.517	24.23
240.735	-6.49
240.952	36.52
241.169	9.9
241.386	48.81
241.603	16.04
241.821	36.52
242.038	54.95
242.255	18.09
242.472	-18.77
242.689	71.34
242.907	54.95
243.124	40.62
243.341	124.58
243.558	38.57
243.775	48.81
243.992	-18.77
244.209	50.86
244.426	28.33
244.643	16.04
244.86	42.67
245.078	18.09
245.295	-26.96
245.512	1.71
245.729	54.95
245.946	22.19
246.163	52.91
246.38	-59.73
246.597	3.75
246.814	-16.73
247.031	73.39
247.248	16.04
247.464	38.57
247.681	20.14
247.898	24.23
248.115	-4.44
248.332	-53.59
248.549	69.29
248.766	65.19
248.983	59.05
249.2	77.48
249.417	20.14
249.633	61.1
249.85	18.09
250.067	24.23
250.284	20.14
250.501	11.95
250.717	24.23
250.934	13.99
251.151	20.14
251.368	-33.11
251.585	20.14
251.801	20.14
252.018	-4.44
252.235	71.34
252.451	-51.54
252.668	69.29
252.885	-0.34
253.102	44.71
253.318	32.43
253.535	44.71
253.752	73.39
253.968	11.95
254.185	44.71
254.401	40.62
254.618	73.39
254.835	-4.44
255.051	9.9
255.268	54.95
255.484	38.57
255.701	28.33
255.917	16.04
256.134	16.04
256.351	11.95
256.567	48.81
256.784	30.38
257	-115.03
257.217	81.58
257.433	7.85
257.65	28.33
257.866	89.77
258.082	28.33
258.299	9.9
258.515	3.75
258.732	61.1
258.948	32.43
259.165	40.62
259.381	30.38
259.597	36.52
259.814	42.67
260.03	-0.34
260.246	-35.16
260.463	34.47
260.679	73.39
260.895	120.49
261.112	63.15
261.328	24.23
261.544	22.19
261.761	89.77
261.977	65.19
262.193	-10.58
262.409	3.75
262.626	36.52
262.842	46.76
263.058	20.14
263.274	40.62
263.49	-33.11
263.707	11.95
263.923	48.81
264.139	50.86
264.355	11.95
264.571	30.38
264.787	18.09
265.004	75.43
265.22	-39.25
265.436	44.71
265.652	28.33
265.868	110.25
266.084	-16.73
266.3	16.04
266.516	-2.39
266.732	38.57
266.948	28.33
267.164	42.67
267.38	-16.73
267.596	52.91
267.812	-31.06
268.028	-12.63
268.244	28.33
268.46	30.38
268.676	28.33
268.892	59.05
269.108	-4.44
269.324	-10.58
269.54	-49.49
269.756	67.24
269.972	-18.77
270.188	18.09
270.403	9.9
270.619	75.43
270.835	26.28
271.051	9.9
271.267	67.24
271.483	59.05
271.698	100.01
271.914	52.91
272.13	-26.96
272.346	-10.58
272.562	38.57
272.777	114.34
272.993	108.2
273.209	-39.25
273.425	36.52
273.64	34.47
273.856	44.71
274.072	63.15
274.287	-35.16
274.503	38.57
274.719	-20.82
274.934	7.85
275.15	24.23
275.366	5.8
275.581	-33.11
275.797	54.95
276.012	-8.53
276.228	-10.58
276.444	-14.68
276.659	130.73
276.875	-24.92
277.09	-4.44
277.306	-10.58
277.521	-2.39
277.737	16.04
277.952	-0.34
278.168	9.9
278.383	40.62
278.599	-14.68
278.814	69.29
279.03	-8.53
279.245	22.19
279.461	-2.39
279.676	-6.49
279.892	11.95
280.107	28.33
280.322	1.71
280.538	73.39
280.753	36.52
280.969	54.95
281.184	9.9
281.399	100.01
281.615	-2.39
281.83	-4.44
282.045	26.28
282.26	11.95
282.476	26.28
282.691	81.58
282.906	-24.92
283.122	-16.73
283.337	42.67
283.552	24.23
283.767	-16.73
283.983	-10.58
284.198	50.86
284.413	13.99
284.628	-57.68
284.843	7.85
285.058	26.28
285.274	83.63
285.489	-57.68
285.704	61.1
285.919	-53.59
286.134	24.23
286.349	-35.16
286.564	11.95
286.779	28.33
286.995	-31.06
287.21	52.91
287.425	-33.11
287.64	-12.63
287.855	-4.44
288.07	24.23
288.285	71.34
288.5	-20.82
288.715	126.63
288.93	-22.87
289.145	-67.92
289.36	79.53
289.575	1.71
289.79	16.04
290.004	7.85
290.219	52.91
290.434	20.14
290.649	-8.53
290.864	73.39
291.079	77.48
291.294	48.81
291.509	26.28
291.724	38.57
291.938	28.33
292.153	22.19
292.368	-22.87
292.583	-0.34
292.798	40.62
293.012	63.15
293.227	120.49
293.442	-41.3
293.657	1.71
293.871	7.85
294.086	48.81
294.301	71.34
294.516	-35.16
294.73	28.33
294.945	61.1
295.16	79.53
295.374	48.81
295.589	38.57
295.804	24.23
296.018	16.04
296.233	7.85
296.447	67.24
296.662	-12.63
296.877	20.14
297.091	-14.68
297.306	122.54
297.52	-12.63
297.735	42.67
297.949	9.9
298.164	42.67
298.378	63.15
298.593	-0.34
298.807	-4.44
299.022	40.62
299.236	30.38
299.451	7.85
299.665	3.75
299.88	-12.63
300.094	28.33
300.309	85.67
300.523	50.86
300.737	46.76
300.952	-12.63
301.166	13.99
301.381	-35.16
301.595	75.43
301.809	52.91
302.024	-16.73
302.238	44.71
302.452	-0.34
302.667	9.9
302.881	52.91
303.095	93.87
303.309	38.57
303.524	11.95
303.738	81.58
303.952	-35.16
304.166	22.19
304.381	-16.73
304.595	50.86
304.809	20.14
305.023	7.85
305.237	7.85
305.452	52.91
305.666	1.71
305.88	97.96
306.094	89.77
306.308	54.95
306.522	42.67
306.736	-35.16
306.95	65.19
307.164	54.95
307.379	26.28
307.593	118.44
307.807	75.43
308.021	65.19
308.235	20.14
308.449	59.05
308.663	65.19
308.877	38.57
309.091	5.8
309.305	26.28
309.519	-59.73
309.733	38.57
309.947	-0.34
310.161	30.38
310.374	132.78
310.588	3.75
310.802	65.19
311.016	-18.77
311.23	52.91
311.444	-12.63
311.658	26.28
311.872	16.04
312.085	-55.64
312.299	57
312.513	-33.11
312.727	18.09
312.941	11.95
313.154	69.29
313.368	-22.87
313.582	22.19
313.796	59.05
314.009	50.86
314.223	30.38
314.437	32.43
314.651	48.81
314.864	7.85
315.078	3.75
315.292	-65.88
315.505	63.15
315.719	69.29
315.933	16.04
316.146	-20.82
316.36	9.9
316.573	16.04
316.787	-39.25
317.001	46.76
317.214	-43.35
317.428	48.81
317.641	-26.96
317.855	-18.77
318.068	77.48
318.282	67.24
318.495	81.58
318.709	26.28
318.922	79.53
319.136	11.95
319.349	20.14
319.563	3.75
319.776	71.34
319.99	75.43
320.203	114.34
320.417	63.15
320.63	26.28
320.843	32.43
321.057	46.76
321.27	-10.58
321.483	89.77
321.697	143.02
321.91	59.05
322.124	61.1
322.337	1.71
322.55	77.48
322.763	32.43
322.977	24.23
323.19	77.48
323.403	87.72
323.617	-49.49
323.83	69.29
324.043	20.14
324.256	9.9
324.469	18.09
324.683	-0.34
324.896	-12.63
325.109	-41.3
325.322	61.1
325.535	24.23
325.748	46.76
325.962	20.14
326.175	48.81
326.388	81.58
326.601	81.58
326.814	22.19
327.027	42.67
327.24	28.33
327.453	-57.68
327.666	75.43
327.879	52.91
328.092	24.23
328.305	48.81
328.518	75.43
328.731	-26.96
328.944	67.24
329.157	-16.73
329.37	38.57
329.583	61.1
329.796	46.76
330.009	-14.68
330.222	28.33
330.435	73.39
330.648	59.05
330.861	34.47
331.073	104.11
331.286	102.06
331.499	54.95
331.712	7.85
331.925	16.04
332.138	-8.53
332.35	-6.49
332.563	50.86
332.776	79.53
332.989	52.91
333.202	69.29
333.414	57
333.627	-6.49
333.84	79.53
334.053	5.8
334.265	97.96
334.478	48.81
334.691	-35.16
334.903	79.53
335.116	18.09
335.329	32.43
335.541	20.14
335.754	7.85
335.966	40.62
336.179	100.01
336.392	40.62
336.604	57
336.817	87.72
337.029	69.29
337.242	30.38
337.454	-22.87
337.667	32.43
337.88	112.3
338.092	-20.82
338.305	34.47
338.517	-8.53
338.729	-8.53
338.942	42.67
339.154	-4.44
339.367	-33.11
339.579	52.91
339.792	-37.2
340.004	48.81
340.217	91.82
340.429	-0.34
340.641	16.04
340.854	-0.34
341.066	87.72
341.278	93.87
341.491	73.39
341.703	85.67
341.915	-51.54
342.128	52.91
342.34	40.62
342.552	57
342.764	63.15
342.977	40.62
343.189	11.95
343.401	28.33
343.613	11.95
343.826	16.04
344.038	24.23
344.25	5.8
344.462	108.2
344.674	38.57
344.886	28.33
345.099	59.05
345.311	24.23
345.523	44.71
345.735	18.09
345.947	75.43
346.159	36.52
346.371	-33.11
346.583	18.09
346.795	83.63
347.007	20.14
347.219	26.28
347.431	44.71
347.643	32.43
347.855	-8.53
348.067	73.39
348.279	9.9
348.491	26.28
348.703	116.39
348.915	5.8
349.127	-26.96
349.339	-59.73
349.551	36.52
349.763	54.95
349.975	34.47
350.187	28.33
350.399	91.82
350.61	50.86
350.822	11.95
351.034	71.34
351.246	46.76
351.458	20.14
351.669	77.48
351.881	87.72
352.093	69.29
352.305	-12.63
352.517	77.48
352.728	77.48
352.94	52.91
353.152	28.33
353.363	-16.73
353.575	26.28
353.787	69.29
353.999	-2.39
354.21	69.29
354.422	32.43
354.633	-33.11
354.845	24.23
355.057	-39.25
355.268	42.67
355.48	13.99
355.692	52.91
355.903	114.34
356.115	38.57
356.326	30.38
356.538	38.57
356.749	48.81
356.961	77.48
357.172	65.19
357.384	18.09
357.595	52.91
357.807	67.24
358.018	32.43
358.23	89.77
358.441	52.91
358.653	22.19
358.864	30.38
359.075	50.86
359.287	75.43
359.498	52.91
359.709	38.57
359.921	44.71
360.132	-33.11
360.344	134.82
360.555	38.57
360.766	5.8
360.977	3.75
361.189	32.43
361.4	-37.2
361.611	38.57
361.823	3.75
362.034	34.47
362.245	-10.58
362.456	24.23
362.667	77.48
362.879	-2.39
363.09	48.81
363.301	54.95
363.512	3.75
363.723	9.9
363.935	40.62
364.146	46.76
364.357	63.15
364.568	24.23
364.779	-26.96
364.99	67.24
365.201	93.87
365.412	102.06
365.623	42.67
365.834	-12.63
366.045	32.43
366.256	42.67
366.467	20.14
366.678	32.43
366.889	9.9
367.1	81.58
367.311	34.47
367.522	38.57
367.733	36.52
367.944	110.25
368.155	-4.44
368.366	7.85
368.577	36.52
368.788	-16.73
368.999	34.47
369.209	75.43
369.42	71.34
369.631	44.71
369.842	46.76
370.053	-26.96
370.264	110.25
370.474	48.81
370.685	11.95
370.896	-4.44
371.107	24.23
371.317	50.86
371.528	89.77
371.739	85.67
371.95	13.99
372.16	36.52
372.371	-6.49
372.582	20.14
372.792	46.76
373.003	22.19
373.214	75.43
373.424	16.04
373.635	-6.49
373.846	32.43
374.056	40.62
374.267	38.57
374.477	11.95
374.688	50.86
374.898	77.48
375.109	-12.63
375.319	83.63
375.53	13.99
375.74	71.34
375.951	52.91
376.161	-12.63
376.372	36.52
376.582	63.15
376.793	1.71
377.003	26.28
377.214	-6.49
377.424	18.09
377.635	42.67
377.845	-4.44
378.055	79.53
378.266	110.25
378.476	73.39
378.686	38.57
378.897	83.63
379.107	38.57
379.317	89.77
379.528	-12.63
379.738	77.48
379.948	57
380.158	95.91
380.369	-14.68
380.579	36.52
380.789	22.19
380.999	44.71
381.21	61.1
381.42	9.9
381.63	24.23
381.84	63.15
382.05	40.62
382.261	46.76
382.471	46.76
382.681	28.33
382.891	34.47
383.101	69.29
383.311	26.28
383.521	87.72
383.731	30.38
383.941	28.33
384.151	59.05
384.361	-12.63
384.571	57
384.781	110.25
384.991	91.82
385.201	110.25
385.411	28.33
385.621	108.2
385.831	91.82
386.041	87.72
386.251	-41.3
386.461	83.63
386.671	50.86
386.881	30.38
387.091	18.09
387.301	69.29
387.511	87.72
387.72	122.54
387.93	104.11
388.14	87.72
388.35	5.8
388.56	77.48
388.769	69.29
388.979	32.43
389.189	-4.44
389.399	100.01
389.609	114.34
389.818	77.48
390.028	59.05
390.238	36.52
390.447	38.57
390.657	38.57
390.867	42.67
391.076	59.05
391.286	100.01
391.496	32.43
391.705	75.43
391.915	104.11
392.125	28.33
392.334	61.1
392.544	95.91
392.753	28.33
392.963	36.52
393.172	65.19
393.382	57
393.591	73.39
393.801	5.8
394.01	69.29
394.22	69.29
394.429	52.91
394.639	-0.34
394.848	130.73
395.058	81.58
395.267	28.33
395.477	52.91
395.686	91.82
395.895	136.87
396.105	100.01
396.314	11.95
396.524	124.58
396.733	77.48
396.942	108.2
397.152	52.91
397.361	124.58
397.57	50.86
397.78	95.91
397.989	153.26
398.198	63.15
398.407	69.29
398.617	22.19
398.826	95.91
399.035	32.43
399.244	50.86
399.453	93.87
399.663	81.58
399.872	28.33
400.081	65.19
400.29	83.63
400.499	24.23
400.708	93.87
400.917	50.86
401.127	130.73
401.336	75.43
401.545	136.87
401.754	77.48
401.963	81.58
402.172	36.52
402.381	44.71
402.59	71.34
402.799	83.63
403.008	136.87
403.217	93.87
403.426	93.87
403.635	65.19
403.844	61.1
404.053	40.62
404.262	73.39
404.471	155.3
404.68	145.06
404.888	71.34
405.097	61.1
405.306	132.78
405.515	75.43
405.724	112.3
405.933	173.74
406.142	89.77
406.35	167.59
406.559	151.21
406.768	159.4
406.977	255.65
407.185	192.17
407.394	149.16
407.603	138.92
407.812	224.94
408.02	257.7
408.229	210.6
408.438	192.17
408.646	224.94
408.855	200.36
409.064	214.7
409.272	151.21
409.481	272.04
409.69	212.65
409.898	288.42
410.107	202.41
410.315	294.57
410.524	130.73
410.733	304.81
410.941	257.7
411.15	337.57
411.358	253.61
411.567	356.01
411.775	253.61
411.984	327.33
412.192	274.09
412.401	347.81
412.609	425.64
412.818	335.53
413.026	366.25
413.234	452.26
413.443	421.54
413.651	399.01
413.86	403.11
414.068	503.46
414.276	431.78
414.485	501.41
414.693	493.22
414.901	558.75
415.11	499.36
415.318	560.8
415.526	628.39
415.734	634.53
415.943	652.96
416.151	624.29
416.359	677.54
416.567	624.29
416.776	700.06
416.984	736.93
417.192	814.75
417.4	741.02
417.608	849.57
417.817	863.9
418.025	865.95
418.233	941.72
418.441	851.61
418.649	876.19
418.857	906.91
419.065	1040.03
419.273	1085.08
419.481	1162.9
419.689	1072.79
419.897	1169.05
420.105	1212.06
420.313	1236.63
420.521	1265.3
420.729	1339.03
420.937	1355.41
421.145	1326.74
421.353	1484.44
421.561	1431.19
421.769	1554.07
421.977	1683.09
422.185	1531.54
422.393	1662.61
422.601	1783.44
422.809	1863.31
423.017	1898.13
423.224	1836.69
423.432	1986.19
423.64	2045.58
423.848	2141.83
424.056	2154.12
424.263	2180.75
424.471	2227.85
424.679	2365.06
424.887	2526.85
425.094	2483.84
425.302	2461.32
425.51	2680.45
425.718	2657.92
425.925	2752.13
426.133	2748.03
426.341	2987.65
426.548	3006.08
426.756	3227.26
426.964	3092.09
427.171	3192.44
427.379	3387
427.586	3458.68
427.794	3532.4
428.001	3671.67
428.209	3849.84
428.417	3739.25
428.624	4064.88
428.832	3995.25
429.039	4034.16
429.247	4083.31
429.454	4527.72
429.662	4701.79
429.869	4417.13
430.076	4904.54
430.284	4707.94
430.491	4902.5
430.699	5013.09
430.906	5086.81
431.114	5125.72
431.321	5256.79
431.528	5461.59
431.736	5654.1
431.943	6002.26
432.15	5957.2
432.358	5942.86
432.565	6219.34
432.772	6286.92
432.979	6592.07
433.187	6700.61
433.394	6899.27
433.601	6991.42
433.808	7177.79
434.016	7175.74
434.223	7519.8
434.43	7857.71
434.637	7626.29
434.844	8099.38
435.052	8465.96
435.259	8312.36
435.466	8504.87
435.673	8248.88
435.88	8754.73
436.087	9195.04
436.294	9256.48
436.501	9219.61
436.708	9096.74
436.915	9510.43
437.122	9993.75
437.329	9840.15
437.537	10157.58
437.743	10575.37
437.95	10444.3
438.157	11005.44
438.364	11298.3
438.571	11146.75
438.778	11372.03
438.985	12629.48
439.192	11867.64
439.399	12178.93
439.606	11935.22
439.813	12582.38
440.02	13276.64
440.227	13338.08
440.433	13123.04
440.64	13655.51
440.847	13651.42
441.054	13751.77
441.261	14652.88
441.467	14630.35
441.674	14955.97
441.881	15427.01
442.088	15082.95
442.294	15189.44
442.501	15562.17
442.708	15621.56
442.914	16453.04
443.121	16969.13
443.328	16467.38
443.534	17892.76
443.741	17245.6
443.948	16981.42
444.154	18521.49
444.361	18054.55
444.568	18263.44
444.774	18275.73
444.981	18369.94
445.187	19027.34
445.394	19858.81
445.6	19522.94
445.807	21783.9
446.013	20768.11
446.22	21075.31
446.426	21695.84
446.633	21781.85
446.839	22717.78
447.046	21517.67
447.252	22666.58
447.459	23086.41
447.665	22900.05
447.871	23432.52
448.078	24603.96
448.284	23485.76
448.491	24288.57
448.697	25238.83
448.903	25605.41
449.11	25978.14
449.316	24976.69
449.522	25705.76
449.728	26547.48
449.935	26889.49
450.141	26572.05
450.347	26883.34
450.553	26418.46
450.76	26555.67
450.966	27358.47
451.172	27077.9
451.378	27473.16
451.584	26936.59
451.791	27608.33
451.997	27522.31
452.203	28069.12
452.409	28298.49
452.615	28585.21
452.821	26776.85
453.027	26674.45
453.233	28120.32
453.44	26879.25
453.646	27331.85
453.852	27370.76
454.058	27825.41
454.264	26404.12
454.47	27262.22
454.676	26664.21
454.882	27501.83
455.088	25077.04
455.294	25564.45
455.5	25716
455.705	26178.84
455.911	25310.5
456.117	24282.42
456.323	24200.51
456.529	22721.87
456.735	23973.18
456.941	23223.62
457.147	22959.44
457.352	22173.02
457.558	21742.94
457.764	22089.05
457.97	21509.47
458.176	20886.89
458.381	20870.51
458.587	20010.36
458.793	19873.15
458.999	18916.75
459.204	20243.83
459.41	19850.62
459.616	18376.08
459.821	18251.16
460.027	18120.09
460.233	17868.19
460.438	16971.18
460.644	17143.21
460.85	16465.33
461.055	15957.43
461.261	16248.24
461.466	14939.59
461.672	14503.37
461.878	15437.25
462.083	14888.39
462.289	14253.52
462.494	13897.17
462.7	13520.35
462.905	13051.36
463.111	13471.2
463.316	13786.58
463.522	13401.57
463.727	13477.34
463.932	13198.82
464.138	13348.32
464.343	13086.18
464.549	12985.83
464.754	13313.5
464.959	13227.49
465.165	13143.52
465.37	12565.99
465.575	12189.17
465.781	12846.57
465.986	12932.58
466.191	12385.77
466.397	12070.39
466.602	11347.45
466.807	11955.7
467.012	11769.34
467.218	11787.77
467.423	11574.78
467.628	11812.34
467.833	12207.6
