Data from USB4F104151__180__11-09-31-403.txt Node

Date: Wed Mar 12 11:09:31 EDT 2025
User: louis
Spectrometer: USB4F10415
Trigger mode: 4
Integration Time (sec): 2.000000E-2
Scans to average: 1
Electric dark correction enabled: true
Nonlinearity correction enabled: false
Boxcar width: 0
XAxis mode: Wavelengths
Number of Pixels in Spectrum: 3648
>>>>>Begin Spectral Data<<<<<
178.204	-57.34
178.424	-57.34
178.644	-57.34
178.864	-100.35
179.084	-67.58
179.304	-88.06
179.524	-36.86
179.744	16.38
179.964	10.24
180.184	-12.29
180.404	86.01
180.624	-12.29
180.844	59.39
181.064	-34.82
181.283	36.86
181.503	22.53
181.723	-47.1
181.943	-71.68
182.163	-14.34
182.383	-63.49
182.602	-14.34
182.822	20.48
183.042	20.48
183.262	-55.3
183.482	12.29
183.701	22.53
183.921	18.43
184.141	-38.91
184.361	30.72
184.58	28.67
184.8	-30.72
185.02	-32.77
185.239	-18.43
185.459	32.77
185.679	12.29
185.898	-24.58
186.118	-14.34
186.338	-16.38
186.557	-2.05
186.777	-34.82
186.997	49.15
187.216	-14.34
187.436	32.77
187.655	-18.43
187.875	-6.14
188.095	57.34
188.314	-10.24
188.534	73.73
188.753	-4.1
188.973	-65.53
189.192	51.2
189.412	10.24
189.631	26.62
189.851	24.58
190.07	0
190.29	67.58
190.509	-55.3
190.729	-32.77
190.948	28.67
191.168	100.35
191.387	28.67
191.607	-6.14
191.826	26.62
192.045	-10.24
192.265	6.14
192.484	-49.15
192.704	-45.06
192.923	-67.58
193.142	2.05
193.362	-49.15
193.581	90.11
193.8	-12.29
194.02	100.35
194.239	-16.38
194.458	-67.58
194.678	47.1
194.897	4.1
195.116	12.29
195.335	-59.39
195.555	-77.82
195.774	-38.91
195.993	-26.62
196.212	18.43
196.432	-75.77
196.651	-24.58
196.87	-49.15
197.089	86.01
197.308	20.48
197.528	26.62
197.747	-45.06
197.966	-32.77
198.185	-16.38
198.404	-34.82
198.623	-8.19
198.842	-10.24
199.062	-36.86
199.281	-14.34
199.5	-55.3
199.719	-2.05
199.938	8.19
200.157	20.48
200.376	-16.38
200.595	-6.14
200.814	-98.3
201.033	-86.01
201.252	12.29
201.471	28.67
201.69	2.05
201.909	-28.67
202.128	4.1
202.347	53.25
202.566	-34.82
202.785	10.24
203.004	-16.38
203.223	57.34
203.442	12.29
203.661	-69.63
203.879	24.58
204.098	-14.34
204.317	0
204.536	-6.14
204.755	4.1
204.974	-22.53
205.193	-26.62
205.411	71.68
205.63	-45.06
205.849	-18.43
206.068	10.24
206.287	-45.06
206.505	6.14
206.724	0
206.943	16.38
207.162	-26.62
207.381	2.05
207.599	-43.01
207.818	-6.14
208.037	36.86
208.255	-63.49
208.474	-61.44
208.693	8.19
208.911	24.58
209.13	90.11
209.349	-14.34
209.567	32.77
209.786	69.63
210.005	-18.43
210.223	-4.1
210.442	6.14
210.661	-10.24
210.879	4.1
211.098	12.29
211.316	24.58
211.535	-4.1
211.753	-12.29
211.972	-20.48
212.191	57.34
212.409	34.82
212.628	53.25
212.846	-20.48
213.065	-38.91
213.283	18.43
213.502	-43.01
213.72	0
213.938	20.48
214.157	-28.67
214.375	-32.77
214.594	-6.14
214.812	-4.1
215.031	20.48
215.249	-67.58
215.467	-6.14
215.686	8.19
215.904	0
216.122	-18.43
216.341	20.48
216.559	-49.15
216.778	26.62
216.996	-28.67
217.214	-4.1
217.432	-83.97
217.651	34.82
217.869	-69.63
218.087	-40.96
218.306	-36.86
218.524	-24.58
218.742	73.73
218.96	38.91
219.179	-8.19
219.397	-71.68
219.615	26.62
219.833	8.19
220.051	-34.82
220.27	6.14
220.488	-40.96
220.706	30.72
220.924	16.38
221.142	10.24
221.36	-20.48
221.578	8.19
221.796	-67.58
222.015	14.34
222.233	40.96
222.451	-8.19
222.669	-53.25
222.887	-8.19
223.105	-36.86
223.323	6.14
223.541	-26.62
223.759	12.29
223.977	-65.53
224.195	81.92
224.413	-28.67
224.631	36.86
224.849	-30.72
225.067	57.34
225.285	43.01
225.503	-24.58
225.721	-94.21
225.939	-28.67
226.157	-98.3
226.375	49.15
226.592	-28.67
226.81	57.34
227.028	-16.38
227.246	-6.14
227.464	-24.58
227.682	28.67
227.9	47.1
228.117	-6.14
228.335	36.86
228.553	20.48
228.771	-30.72
228.989	53.25
229.206	-6.14
229.424	4.1
229.642	-36.86
229.86	32.77
230.077	-24.58
230.295	32.77
230.513	47.1
230.731	67.58
230.948	61.44
231.166	-2.05
231.384	-57.34
231.601	-18.43
231.819	51.2
232.037	28.67
232.254	-36.86
232.472	-16.38
232.689	-22.53
232.907	30.72
233.125	-8.19
233.342	-14.34
233.56	14.34
233.777	16.38
233.995	-2.05
234.213	-6.14
234.43	-10.24
234.648	20.48
234.865	-43.01
235.083	6.14
235.3	-10.24
235.518	22.53
235.735	-8.19
235.953	24.58
236.17	-8.19
236.388	-4.1
236.605	-16.38
236.822	26.62
237.04	16.38
237.257	14.34
237.475	-61.44
237.692	10.24
237.909	-69.63
238.127	26.62
238.344	24.58
238.562	38.91
238.779	-2.05
238.996	0
239.214	2.05
239.431	16.38
239.648	-24.58
239.865	-22.53
240.083	8.19
240.3	-18.43
240.517	-12.29
240.735	-55.3
240.952	-12.29
241.169	10.24
241.386	12.29
241.603	-67.58
241.821	75.77
242.038	10.24
242.255	47.1
242.472	-55.3
242.689	-30.72
242.907	4.1
243.124	49.15
243.341	-51.2
243.558	-22.53
243.775	-2.05
243.992	-61.44
244.209	-28.67
244.426	-34.82
244.643	-26.62
244.86	-47.1
245.078	26.62
245.295	-73.73
245.512	61.44
245.729	-40.96
245.946	-57.34
246.163	-8.19
246.38	-20.48
246.597	73.73
246.814	6.14
247.031	-36.86
247.248	18.43
247.464	-24.58
247.681	45.06
247.898	-63.49
248.115	0
248.332	-57.34
248.549	30.72
248.766	8.19
248.983	4.1
249.2	30.72
249.417	16.38
249.633	-45.06
249.85	36.86
250.067	59.39
250.284	-22.53
250.501	-12.29
250.717	77.82
250.934	-79.87
251.151	-96.25
251.368	-51.2
251.585	57.34
251.801	43.01
252.018	4.1
252.235	-38.91
252.451	0
252.668	32.77
252.885	2.05
253.102	18.43
253.318	55.3
253.535	16.38
253.752	-4.1
253.968	-28.67
254.185	-30.72
254.401	-24.58
254.618	59.39
254.835	40.96
255.051	30.72
255.268	6.14
255.484	-32.77
255.701	-6.14
255.917	-14.34
256.134	-4.1
256.351	-18.43
256.567	-45.06
256.784	12.29
257	8.19
257.217	51.2
257.433	102.4
257.65	30.72
257.866	34.82
258.082	-45.06
258.299	-47.1
258.515	28.67
258.732	8.19
258.948	-65.53
259.165	-83.97
259.381	-77.82
259.597	-18.43
259.814	-30.72
260.03	24.58
260.246	-28.67
260.463	24.58
260.679	8.19
260.895	-34.82
261.112	-45.06
261.328	8.19
261.544	-49.15
261.761	51.2
261.977	20.48
262.193	-2.05
262.409	-20.48
262.626	120.83
262.842	20.48
263.058	-45.06
263.274	40.96
263.49	-43.01
263.707	26.62
263.923	45.06
264.139	-59.39
264.355	6.14
264.571	26.62
264.787	65.54
265.004	40.96
265.22	16.38
265.436	-12.29
265.652	-26.62
265.868	49.15
266.084	-36.86
266.3	-59.39
266.516	22.53
266.732	-26.62
266.948	-16.38
267.164	-51.2
267.38	-45.06
267.596	36.86
267.812	112.64
268.028	16.38
268.244	-24.58
268.46	-16.38
268.676	-65.53
268.892	-40.96
269.108	-8.19
269.324	-28.67
269.54	45.06
269.756	61.44
269.972	0
270.188	0
270.403	-47.1
270.619	18.43
270.835	43.01
271.051	-77.82
271.267	-49.15
271.483	-26.62
271.698	26.62
271.914	-49.15
272.13	28.67
272.346	-6.14
272.562	-20.48
272.777	-10.24
272.993	-14.34
273.209	40.96
273.425	-16.38
273.64	-30.72
273.856	20.48
274.072	14.34
274.287	-2.05
274.503	-36.86
274.719	22.53
274.934	20.48
275.15	-45.06
275.366	-2.05
275.581	-49.15
275.797	4.1
276.012	-20.48
276.228	4.1
276.444	-28.67
276.659	24.58
276.875	-36.86
277.09	20.48
277.306	-8.19
277.521	8.19
277.737	47.1
277.952	-22.53
278.168	-53.25
278.383	43.01
278.599	45.06
278.814	-24.58
279.03	55.3
279.245	34.82
279.461	-65.53
279.676	-28.67
279.892	-4.1
280.107	-34.82
280.322	-26.62
280.538	18.43
280.753	-120.83
280.969	61.44
281.184	-38.91
281.399	34.82
281.615	-2.05
281.83	-28.67
282.045	-24.58
282.26	-32.77
282.476	-73.73
282.691	-90.11
282.906	2.05
283.122	-20.48
283.337	-49.15
283.552	0
283.767	-22.53
283.983	38.91
284.198	-18.43
284.413	2.05
284.628	-57.34
284.843	-20.48
285.058	8.19
285.274	61.44
285.489	-55.3
285.704	55.3
285.919	4.1
286.134	40.96
286.349	0
286.564	8.19
286.779	16.38
286.995	4.1
287.21	32.77
287.425	12.29
287.64	8.19
287.855	34.82
288.07	10.24
288.285	22.53
288.5	-14.34
288.715	-20.48
288.93	-8.19
289.145	-32.77
289.36	-53.25
289.575	14.34
289.79	20.48
290.004	20.48
290.219	-28.67
290.434	-10.24
290.649	-122.88
290.864	-49.15
291.079	26.62
291.294	45.06
291.509	-45.06
291.724	-22.53
291.938	16.38
292.153	-8.19
292.368	14.34
292.583	-28.67
292.798	0
293.012	-36.86
293.227	32.77
293.442	-26.62
293.657	-12.29
293.871	-8.19
294.086	18.43
294.301	-10.24
294.516	22.53
294.73	-79.87
294.945	-45.06
295.16	6.14
295.374	28.67
295.589	0
295.804	12.29
296.018	4.1
296.233	47.1
296.447	57.34
296.662	-8.19
296.877	43.01
297.091	-4.1
297.306	-63.49
297.52	-26.62
297.735	-6.14
297.949	-49.15
298.164	45.06
298.378	16.38
298.593	-14.34
298.807	-20.48
299.022	10.24
299.236	0
299.451	-40.96
299.665	-8.19
299.88	-90.11
300.094	0
300.309	-10.24
300.523	45.06
300.737	-36.86
300.952	-24.58
301.166	12.29
301.381	22.53
301.595	-10.24
301.809	-20.48
302.024	-16.38
302.238	-22.53
302.452	24.58
302.667	-49.15
302.881	6.14
303.095	-4.1
303.309	32.77
303.524	8.19
303.738	20.48
303.952	4.1
304.166	-12.29
304.381	-36.86
304.595	57.34
304.809	-40.96
305.023	20.48
305.237	12.29
305.452	18.43
305.666	-77.82
305.88	43.01
306.094	36.86
306.308	2.05
306.522	61.44
306.736	34.82
306.95	49.15
307.164	-86.01
307.379	-47.1
307.593	53.25
307.807	4.1
308.021	0
308.235	30.72
308.449	-43.01
308.663	53.25
308.877	20.48
309.091	-4.1
309.305	-51.2
309.519	-10.24
309.733	22.53
309.947	-38.91
310.161	-12.29
310.374	-49.15
310.588	32.77
310.802	-20.48
311.016	4.1
311.23	34.82
311.444	26.62
311.658	-30.72
311.872	-22.53
312.085	43.01
312.299	20.48
312.513	6.14
312.727	-8.19
312.941	-32.77
313.154	-2.05
313.368	30.72
313.582	-4.1
313.796	45.06
314.009	-2.05
314.223	-47.1
314.437	-16.38
314.651	-4.1
314.864	-10.24
315.078	0
315.292	-67.58
315.505	-53.25
315.719	98.3
315.933	12.29
316.146	36.86
316.36	10.24
316.573	22.53
316.787	4.1
317.001	-16.38
317.214	-88.06
317.428	81.92
317.641	-12.29
317.855	24.58
318.068	-2.05
318.282	24.58
318.495	67.58
318.709	83.97
318.922	20.48
319.136	53.25
319.349	12.29
319.563	0
319.776	20.48
319.99	4.1
320.203	6.14
320.417	-69.63
320.63	-12.29
320.843	61.44
321.057	-32.77
321.27	-18.43
321.483	4.1
321.697	47.1
321.91	40.96
322.124	-90.11
322.337	-32.77
322.55	22.53
322.763	16.38
322.977	-20.48
323.19	-36.86
323.403	-20.48
323.617	-16.38
323.83	38.91
324.043	-28.67
324.256	40.96
324.469	28.67
324.683	4.1
324.896	-4.1
325.109	0
325.322	40.96
325.535	-32.77
325.748	-61.44
325.962	24.58
326.175	14.34
326.388	-40.96
326.601	65.54
326.814	-49.15
327.027	-18.43
327.24	0
327.453	-57.34
327.666	38.91
327.879	24.58
328.092	45.06
328.305	-40.96
328.518	51.2
328.731	14.34
328.944	63.49
329.157	2.05
329.37	24.58
329.583	71.68
329.796	-12.29
330.009	12.29
330.222	-79.87
330.435	8.19
330.648	14.34
330.861	-92.16
331.073	10.24
331.286	53.25
331.499	-43.01
331.712	-4.1
331.925	-8.19
332.138	-28.67
332.35	36.86
332.563	-65.53
332.776	-14.34
332.989	-10.24
333.202	-16.38
333.414	-92.16
333.627	12.29
333.84	8.19
334.053	57.34
334.265	14.34
334.478	-59.39
334.691	-12.29
334.903	-34.82
335.116	-79.87
335.329	20.48
335.541	12.29
335.754	-30.72
335.966	-73.73
336.179	-14.34
336.392	4.1
336.604	40.96
336.817	-2.05
337.029	14.34
337.242	0
337.454	-47.1
337.667	65.54
337.88	28.67
338.092	-14.34
338.305	49.15
338.517	14.34
338.729	36.86
338.942	-18.43
339.154	-18.43
339.367	10.24
339.579	-6.14
339.792	34.82
340.004	49.15
340.217	-22.53
340.429	-45.06
340.641	59.39
340.854	-34.82
341.066	67.58
341.278	-69.63
341.491	0
341.703	-28.67
341.915	20.48
342.128	-32.77
342.34	14.34
342.552	22.53
342.764	10.24
342.977	18.43
343.189	10.24
343.401	-10.24
343.613	-49.15
343.826	-20.48
344.038	-59.39
344.25	-28.67
344.462	-88.06
344.674	-4.1
344.886	-49.15
345.099	10.24
345.311	28.67
345.523	14.34
345.735	-10.24
345.947	12.29
346.159	4.1
346.371	-10.24
346.583	-10.24
346.795	59.39
347.007	32.77
347.219	26.62
347.431	4.1
347.643	59.39
347.855	-32.77
348.067	28.67
348.279	-18.43
348.491	18.43
348.703	8.19
348.915	14.34
349.127	-61.44
349.339	8.19
349.551	-20.48
349.763	47.1
349.975	4.1
350.187	2.05
350.399	-51.2
350.61	-51.2
350.822	40.96
351.034	12.29
351.246	-57.34
351.458	-10.24
351.669	-18.43
351.881	16.38
352.093	40.96
352.305	2.05
352.517	12.29
352.728	63.49
352.94	-6.14
353.152	8.19
353.363	12.29
353.575	-32.77
353.787	61.44
353.999	16.38
354.21	24.58
354.422	16.38
354.633	-36.86
354.845	26.62
355.057	28.67
355.268	-32.77
355.48	47.1
355.692	-34.82
355.903	98.3
356.115	-8.19
356.326	-59.39
356.538	-18.43
356.749	32.77
356.961	12.29
357.172	-51.2
357.384	38.91
357.595	32.77
357.807	22.53
358.018	-8.19
358.23	-22.53
358.441	6.14
358.653	-38.91
358.864	0
359.075	0
359.287	96.25
359.498	63.49
359.709	-16.38
359.921	-14.34
360.132	-45.06
360.344	-14.34
360.555	71.68
360.766	6.14
360.977	14.34
361.189	38.91
361.4	-36.86
361.611	63.49
361.823	-12.29
362.034	4.1
362.245	-49.15
362.456	-36.86
362.667	18.43
362.879	-30.72
363.09	-8.19
363.301	-16.38
363.512	10.24
363.723	14.34
363.935	102.4
364.146	30.72
364.357	45.06
364.568	-73.73
364.779	-24.58
364.99	59.39
365.201	36.86
365.412	34.82
365.623	-36.86
365.834	-4.1
366.045	-67.58
366.256	40.96
366.467	10.24
366.678	-18.43
366.889	-28.67
367.1	2.05
367.311	-2.05
367.522	51.2
367.733	28.67
367.944	36.86
368.155	-55.3
368.366	-2.05
368.577	-20.48
368.788	40.96
368.999	-67.58
369.209	-92.16
369.42	-18.43
369.631	2.05
369.842	4.1
370.053	-22.53
370.264	-12.29
370.474	49.15
370.685	55.3
370.896	94.21
371.107	-4.1
371.317	53.25
371.528	40.96
371.739	22.53
371.95	18.43
372.16	-30.72
372.371	4.1
372.582	4.1
372.792	-57.34
373.003	10.24
373.214	28.67
373.424	-45.06
373.635	-71.68
373.846	69.63
374.056	22.53
374.267	22.53
374.477	20.48
374.688	-55.3
374.898	-34.82
375.109	12.29
375.319	-69.63
375.53	8.19
375.74	45.06
375.951	45.06
376.161	43.01
376.372	-32.77
376.582	-22.53
376.793	24.58
377.003	-30.72
377.214	12.29
377.424	-18.43
377.635	-10.24
377.845	-59.39
378.055	-20.48
378.266	-45.06
378.476	0
378.686	26.62
378.897	-28.67
379.107	45.06
379.317	-32.77
379.528	-45.06
379.738	-12.29
379.948	49.15
380.158	71.68
380.369	8.19
380.579	30.72
380.789	32.77
380.999	-24.58
381.21	16.38
381.42	43.01
381.63	65.54
381.84	-10.24
382.05	-8.19
382.261	10.24
382.471	79.87
382.681	-38.91
382.891	32.77
383.101	0
383.311	-20.48
383.521	4.1
383.731	12.29
383.941	69.63
384.151	43.01
384.361	-45.06
384.571	-10.24
384.781	-22.53
384.991	96.25
385.201	-26.62
385.411	-40.96
385.621	-24.58
385.831	2.05
386.041	8.19
386.251	-4.1
386.461	49.15
386.671	-6.14
386.881	-55.3
387.091	-59.39
387.301	-43.01
387.511	65.54
387.72	24.58
387.93	-28.67
388.14	-45.06
388.35	-24.58
388.56	43.01
388.769	114.69
388.979	36.86
389.189	-40.96
389.399	-53.25
389.609	6.14
389.818	-47.1
390.028	-45.06
390.238	40.96
390.447	-26.62
390.657	43.01
390.867	61.44
391.076	-32.77
391.286	24.58
391.496	-12.29
391.705	-10.24
391.915	43.01
392.125	10.24
392.334	-12.29
392.544	-32.77
392.753	57.34
392.963	34.82
393.172	16.38
393.382	14.34
393.591	51.2
393.801	2.05
394.01	73.73
394.22	65.54
394.429	57.34
394.639	-61.44
394.848	53.25
395.058	-12.29
395.267	28.67
395.477	61.44
395.686	79.87
395.895	55.3
396.105	24.58
396.314	-36.86
396.524	-34.82
396.733	106.49
396.942	57.34
397.152	69.63
397.361	65.54
397.57	98.3
397.78	77.82
397.989	77.82
398.198	32.77
398.407	8.19
398.617	32.77
398.826	65.54
399.035	24.58
399.244	12.29
399.453	90.11
399.663	-14.34
399.872	67.58
400.081	38.91
400.29	96.25
400.499	20.48
400.708	18.43
400.917	32.77
401.127	14.34
401.336	0
401.545	100.35
401.754	24.58
401.963	67.58
402.172	0
402.381	-47.1
402.59	-14.34
402.799	81.92
403.008	-18.43
403.217	88.06
403.426	55.3
403.635	55.3
403.844	53.25
404.053	55.3
404.262	38.91
404.471	77.82
404.68	65.54
404.888	112.64
405.097	63.49
405.306	-45.06
405.515	110.59
405.724	100.35
405.933	102.4
406.142	61.44
406.35	90.11
406.559	88.06
406.768	143.36
406.977	118.78
407.185	108.54
407.394	81.92
407.603	96.25
407.812	98.3
408.02	190.46
408.229	178.17
408.438	102.4
408.646	116.73
408.855	194.56
409.064	116.73
409.272	172.03
409.481	129.02
409.69	98.3
409.898	104.45
410.107	141.31
410.315	167.93
410.524	96.25
410.733	237.56
410.941	112.64
411.15	219.13
411.358	172.03
411.567	202.75
411.775	178.17
411.984	256
412.192	237.56
412.401	192.51
412.609	262.14
412.818	268.28
413.026	282.62
413.234	288.76
413.443	221.18
413.651	331.77
413.86	241.66
414.068	333.82
414.276	292.86
414.485	346.11
414.693	354.3
414.901	380.92
415.11	432.12
415.318	368.63
415.526	344.06
415.734	393.21
415.943	417.79
416.151	522.23
416.359	475.13
416.567	446.46
416.776	518.14
416.984	612.34
417.192	516.09
417.4	542.71
417.608	532.47
417.817	501.75
418.025	641.01
418.233	645.11
418.441	634.87
418.649	700.41
418.857	696.31
419.065	622.58
419.273	837.62
419.481	788.47
419.689	911.35
419.897	796.66
420.105	825.33
420.313	897.01
420.521	835.57
420.729	974.83
420.937	880.63
421.145	1021.94
421.353	1081.33
421.561	1132.53
421.769	1148.91
421.977	1150.96
422.185	1157.1
422.393	1187.82
422.601	1294.32
422.809	1409
423.017	1275.88
423.224	1415.15
423.432	1402.86
423.64	1411.05
423.848	1495.02
424.056	1531.88
424.263	1685.48
424.471	1636.33
424.679	1730.53
424.887	1720.29
425.094	1808.36
425.302	1783.78
425.51	1880.04
425.718	2058.21
425.925	1941.47
426.133	2050.02
426.341	2144.22
426.548	2334.68
426.756	2191.33
426.964	2275.29
427.171	2445.27
427.379	2369.5
427.586	2570.2
427.794	2566.1
428.001	2674.65
428.209	2738.13
428.417	2799.57
428.624	2987.99
428.832	2973.65
429.039	2910.16
429.247	3053.52
429.454	3321.81
429.662	3444.68
429.869	3323.85
430.076	3473.35
430.284	3370.96
430.491	3489.74
430.699	3796.93
430.906	3839.94
431.114	3688.39
431.321	3991.49
431.528	4001.73
431.736	4059.07
431.943	4343.74
432.15	4313.02
432.358	4233.15
432.565	4671.42
432.772	4503.48
432.979	4685.75
433.187	4882.36
433.394	4962.23
433.601	5187.5
433.808	5140.4
434.016	5210.03
434.223	5523.37
434.43	5781.42
434.637	5826.47
434.844	5984.16
435.052	6191.01
435.259	6139.81
435.466	6193.06
435.673	6215.59
435.88	6459.29
436.087	6950.81
436.294	6684.57
436.501	6713.24
436.708	6762.39
436.915	7083.92
437.122	7352.21
437.329	7262.1
437.537	7557
437.743	7810.95
437.95	7614.35
438.157	7980.93
438.364	8290.18
438.571	8322.94
438.778	8245.12
438.985	9170.8
439.192	8744.83
439.399	8929.14
439.606	8615.8
439.813	9359.22
440.02	9897.83
440.227	9600.88
440.433	9629.55
440.64	10061.67
440.847	9813.87
441.054	10217.32
441.261	10633.05
441.467	10864.47
441.674	10721.12
441.881	11169.62
442.088	11104.09
442.294	10991.45
442.501	11575.12
442.708	11446.1
442.914	12056.39
443.121	12525.38
443.328	12230.47
443.534	12992.31
443.741	12756.8
443.948	12769.09
444.154	13506.35
444.361	13381.43
444.568	13602.61
444.774	13637.42
444.981	13633.33
445.187	14198.57
445.394	14587.68
445.6	14239.53
445.807	15763.22
446.013	14999.32
446.22	15546.13
446.426	15998.73
446.633	16203.53
446.839	16439.05
447.046	15871.76
447.252	16940.8
447.459	16846.59
447.665	16760.58
447.871	17383.16
448.078	18448.1
448.284	17233.66
448.491	17731.31
448.697	18521.83
448.903	18761.44
449.11	19013.34
449.316	18618.08
449.522	19197.66
449.728	19683.03
449.935	19355.35
450.141	19762.9
450.347	19914.45
450.553	19478.23
450.76	19644.12
450.966	20211.4
451.172	20119.24
451.378	20348.62
451.584	20139.72
451.791	20661.96
451.997	20494.02
452.203	20897.47
452.409	20813.51
452.615	20799.17
452.821	19916.5
453.027	19857.1
453.233	20790.98
453.44	19883.73
453.646	20135.63
453.852	20377.29
454.058	20729.54
454.264	19881.68
454.47	20270.79
454.676	19830.48
454.882	20618.95
455.088	18925.28
455.294	18675.43
455.5	19322.59
455.705	19709.65
455.911	18411.24
456.117	18278.12
456.323	18028.27
456.529	17383.16
456.735	17934.06
456.941	17254.14
457.147	16967.42
457.352	16662.27
457.558	16477.96
457.764	16348.93
457.97	15894.29
458.176	15824.65
458.381	15777.55
458.587	15017.75
458.793	14870.3
458.999	14051.11
459.204	15175.45
459.41	14944.03
459.616	13858.6
459.821	13743.92
460.027	13682.48
460.233	13332.28
460.438	12742.46
460.644	13100.86
460.85	12287.81
461.055	12212.04
461.261	12183.37
461.466	11155.29
461.672	10825.56
461.878	11665.23
462.083	11059.03
462.289	10958.68
462.494	10420.07
462.7	10157.93
462.905	10010.47
463.111	10282.85
463.316	10284.9
463.522	10159.97
463.727	9938.79
463.932	10145.64
464.138	9746.28
464.343	9953.13
464.549	9717.61
464.754	9926.5
464.959	9875.31
465.165	9895.78
465.37	9639.79
465.575	9160.56
465.781	9443.18
465.986	9748.33
466.191	9217.91
466.397	9158.52
466.602	8597.37
466.807	8865.66
467.012	9078.65
467.218	8755.07
467.423	8796.03
