Data from USB4F104151__154__11-08-28-130.txt Node

Date: Wed Mar 12 11:08:28 EDT 2025
User: louis
Spectrometer: USB4F10415
Trigger mode: 4
Integration Time (sec): 2.000000E-2
Scans to average: 1
Electric dark correction enabled: true
Nonlinearity correction enabled: false
Boxcar width: 0
XAxis mode: Wavelengths
Number of Pixels in Spectrum: 3648
>>>>>Begin Spectral Data<<<<<
178.204	-90.96
178.424	-90.96
178.644	-90.96
178.864	-78.68
179.084	-107.35
179.304	11.43
179.524	-23.38
179.744	54.44
179.964	-11.09
180.184	9.39
180.404	19.63
180.624	25.77
180.844	-62.29
181.064	-60.24
181.283	23.72
181.503	23.72
181.723	-11.09
181.943	-50
182.163	27.82
182.383	-43.86
182.602	33.96
182.822	48.3
183.042	3.24
183.262	-17.24
183.482	21.67
183.701	-84.82
183.921	-35.67
184.141	44.2
184.361	13.48
184.58	-23.38
184.8	-33.62
185.02	11.43
185.239	3.24
185.459	-11.09
185.679	23.72
185.898	-68.44
186.118	29.87
186.338	-41.81
186.557	-41.81
186.777	27.82
186.997	-23.38
187.216	-4.95
187.436	72.87
187.655	-45.91
187.875	-4.95
188.095	-0.85
188.314	56.49
188.534	19.63
188.753	72.87
188.973	31.91
189.192	54.44
189.412	15.53
189.631	-11.09
189.851	-70.48
190.07	76.97
190.29	19.63
190.509	-88.92
190.729	-52.05
190.948	38.06
191.168	60.59
191.387	101.55
191.607	-0.85
191.826	-66.39
192.045	62.63
192.265	17.58
192.484	142.5
192.704	-0.85
192.923	15.53
193.142	70.83
193.362	56.49
193.581	95.4
193.8	21.67
194.02	62.63
194.239	44.2
194.458	44.2
194.678	31.91
194.897	31.91
195.116	17.58
195.335	23.72
195.555	-37.72
195.774	-70.48
195.993	23.72
196.212	44.2
196.432	50.35
196.651	21.67
196.87	44.2
197.089	9.39
197.308	-15.19
197.528	17.58
197.747	7.34
197.966	21.67
198.185	9.39
198.404	-37.72
198.623	42.15
198.842	29.87
199.062	-45.91
199.281	52.39
199.5	-39.76
199.719	7.34
199.938	17.58
200.157	72.87
200.376	19.63
200.595	-2.9
200.814	9.39
201.033	-33.62
201.252	-60.24
201.471	1.19
201.69	33.96
201.909	40.11
202.128	-9.05
202.347	40.11
202.566	48.3
202.785	-2.9
203.004	-33.62
203.223	99.5
203.442	-27.48
203.661	-13.14
203.879	83.11
204.098	-2.9
204.317	-33.62
204.536	-0.85
204.755	29.87
204.974	-4.95
205.193	3.24
205.411	79.02
205.63	68.78
205.849	31.91
206.068	-17.24
206.287	3.24
206.505	-4.95
206.724	-31.57
206.943	-11.09
207.162	-25.43
207.381	-25.43
207.599	83.11
207.818	40.11
208.037	33.96
208.255	-27.48
208.474	25.77
208.693	1.19
208.911	33.96
209.13	64.68
209.349	3.24
209.567	9.39
209.786	58.54
210.005	38.06
210.223	1.19
210.442	23.72
210.661	54.44
210.879	-45.91
211.098	11.43
211.316	31.91
211.535	29.87
211.753	-60.24
211.972	27.82
212.191	-21.33
212.409	-47.96
212.628	36.01
212.846	-7
213.065	-41.81
213.283	-15.19
213.502	79.02
213.72	-31.57
213.938	21.67
214.157	31.91
214.375	27.82
214.594	105.64
214.812	89.26
215.031	81.07
215.249	23.72
215.467	-37.72
215.686	-11.09
215.904	17.58
216.122	-39.76
216.341	7.34
216.559	-0.85
216.778	42.15
216.996	81.07
217.214	-17.24
217.432	93.35
217.651	-19.29
217.869	-7
218.087	38.06
218.306	-43.86
218.524	27.82
218.742	134.31
218.96	-11.09
219.179	54.44
219.397	-2.9
219.615	19.63
219.833	64.68
220.051	-21.33
220.27	9.39
220.488	-29.52
220.706	7.34
220.924	-15.19
221.142	-0.85
221.36	5.29
221.578	97.45
221.796	-29.52
222.015	50.35
222.233	11.43
222.451	42.15
222.669	-4.95
222.887	42.15
223.105	-9.05
223.323	54.44
223.541	-64.34
223.759	-0.85
223.977	-58.2
224.195	13.48
224.413	44.2
224.631	17.58
224.849	9.39
225.067	38.06
225.285	-17.24
225.503	66.73
225.721	-21.33
225.939	46.25
226.157	-27.48
226.375	19.63
226.592	81.07
226.81	-54.1
227.028	40.11
227.246	5.29
227.464	91.31
227.682	-21.33
227.9	27.82
228.117	52.39
228.335	74.92
228.553	56.49
228.771	23.72
228.989	7.34
229.206	54.44
229.424	36.01
229.642	46.25
229.86	-25.43
230.077	33.96
230.295	54.44
230.513	-43.86
230.731	-17.24
230.948	13.48
231.166	-23.38
231.384	33.96
231.601	17.58
231.819	17.58
232.037	46.25
232.254	-13.14
232.472	38.06
232.689	29.87
232.907	36.01
233.125	44.2
233.342	-4.95
233.56	42.15
233.777	70.83
233.995	9.39
234.213	76.97
234.43	17.58
234.648	-29.52
234.865	11.43
235.083	13.48
235.3	7.34
235.518	33.96
235.735	11.43
235.953	87.21
236.17	7.34
236.388	27.82
236.605	3.24
236.822	19.63
237.04	-45.91
237.257	25.77
237.475	-11.09
237.692	-9.05
237.909	11.43
238.127	13.48
238.344	-9.05
238.562	-27.48
238.779	-0.85
238.996	-80.72
239.214	-41.81
239.431	109.74
239.648	31.91
239.865	56.49
240.083	31.91
240.3	15.53
240.517	74.92
240.735	-21.33
240.952	44.2
241.169	48.3
241.386	-0.85
241.603	-19.29
241.821	-13.14
242.038	-0.85
242.255	27.82
242.472	7.34
242.689	27.82
242.907	-37.72
243.124	-29.52
243.341	13.48
243.558	66.73
243.775	44.2
243.992	3.24
244.209	17.58
244.426	-17.24
244.643	21.67
244.86	9.39
245.078	23.72
245.295	-0.85
245.512	-2.9
245.729	38.06
245.946	38.06
246.163	23.72
246.38	9.39
246.597	48.3
246.814	23.72
247.031	-4.95
247.248	-25.43
247.464	48.3
247.681	48.3
247.898	-13.14
248.115	-0.85
248.332	21.67
248.549	52.39
248.766	56.49
248.983	7.34
249.2	19.63
249.417	50.35
249.633	13.48
249.85	54.44
250.067	-31.57
250.284	-21.33
250.501	36.01
250.717	27.82
250.934	-56.15
251.151	54.44
251.368	-7
251.585	40.11
251.801	58.54
252.018	15.53
252.235	42.15
252.451	-54.1
252.668	11.43
252.885	-19.29
253.102	15.53
253.318	27.82
253.535	11.43
253.752	-39.76
253.968	74.92
254.185	-25.43
254.401	87.21
254.618	1.19
254.835	-45.91
255.051	89.26
255.268	91.31
255.484	44.2
255.701	-23.38
255.917	11.43
256.134	27.82
256.351	60.59
256.567	-19.29
256.784	48.3
257	-21.33
257.217	7.34
257.433	40.11
257.65	27.82
257.866	66.73
258.082	-29.52
258.299	1.19
258.515	5.29
258.732	-29.52
258.948	68.78
259.165	13.48
259.381	48.3
259.597	56.49
259.814	62.63
260.03	56.49
260.246	64.68
260.463	31.91
260.679	25.77
260.895	-45.91
261.112	21.67
261.328	23.72
261.544	-15.19
261.761	11.43
261.977	17.58
262.193	-0.85
262.409	44.2
262.626	25.77
262.842	48.3
263.058	62.63
263.274	36.01
263.49	56.49
263.707	-0.85
263.923	23.72
264.139	-11.09
264.355	40.11
264.571	-4.95
264.787	5.29
265.004	-13.14
265.22	50.35
265.436	29.87
265.652	21.67
265.868	9.39
266.084	-25.43
266.3	-27.48
266.516	-2.9
266.732	-9.05
266.948	-11.09
267.164	-74.58
267.38	-45.91
267.596	33.96
267.812	56.49
268.028	-21.33
268.244	-43.86
268.46	19.63
268.676	-33.62
268.892	46.25
269.108	7.34
269.324	-17.24
269.54	-33.62
269.756	99.5
269.972	1.19
270.188	33.96
270.403	-21.33
270.619	38.06
270.835	85.16
271.051	5.29
271.267	15.53
271.483	97.45
271.698	40.11
271.914	97.45
272.13	-21.33
272.346	62.63
272.562	-7
272.777	-11.09
272.993	-66.39
273.209	68.78
273.425	7.34
273.64	-13.14
273.856	40.11
274.072	-2.9
274.287	-0.85
274.503	64.68
274.719	42.15
274.934	-4.95
275.15	-62.29
275.366	25.77
275.581	72.87
275.797	36.01
276.012	-15.19
276.228	15.53
276.444	79.02
276.659	33.96
276.875	-29.52
277.09	-45.91
277.306	-33.62
277.521	60.59
277.737	15.53
277.952	23.72
278.168	5.29
278.383	21.67
278.599	38.06
278.814	31.91
279.03	66.73
279.245	-19.29
279.461	-66.39
279.676	62.63
279.892	72.87
280.107	60.59
280.322	9.39
280.538	5.29
280.753	-13.14
280.969	23.72
281.184	25.77
281.399	58.54
281.615	-29.52
281.83	-31.57
282.045	33.96
282.26	-70.48
282.476	-37.72
282.691	-11.09
282.906	27.82
283.122	74.92
283.337	-25.43
283.552	27.82
283.767	-19.29
283.983	91.31
284.198	5.29
284.413	29.87
284.628	-25.43
284.843	60.59
285.058	60.59
285.274	17.58
285.489	5.29
285.704	-0.85
285.919	-13.14
286.134	89.26
286.349	40.11
286.564	-29.52
286.779	101.55
286.995	-19.29
287.21	-2.9
287.425	83.11
287.64	50.35
287.855	109.74
288.07	38.06
288.285	50.35
288.5	-25.43
288.715	-58.2
288.93	27.82
289.145	68.78
289.36	-11.09
289.575	3.24
289.79	44.2
290.004	17.58
290.219	44.2
290.434	66.73
290.649	64.68
290.864	9.39
291.079	-0.85
291.294	3.24
291.509	-37.72
291.724	25.77
291.938	19.63
292.153	9.39
292.368	13.48
292.583	40.11
292.798	122.02
293.012	31.91
293.227	-11.09
293.442	-66.39
293.657	-52.05
293.871	40.11
294.086	48.3
294.301	15.53
294.516	83.11
294.73	-35.67
294.945	54.44
295.16	44.2
295.374	13.48
295.589	89.26
295.804	-4.95
296.018	19.63
296.233	27.82
296.447	48.3
296.662	-43.86
296.877	68.78
297.091	29.87
297.306	3.24
297.52	31.91
297.735	60.59
297.949	15.53
298.164	17.58
298.378	-4.95
298.593	52.39
298.807	-11.09
299.022	58.54
299.236	15.53
299.451	17.58
299.665	-15.19
299.88	27.82
300.094	-31.57
300.309	-15.19
300.523	-35.67
300.737	13.48
300.952	15.53
301.166	-27.48
301.381	-13.14
301.595	-0.85
301.809	-7
302.024	48.3
302.238	13.48
302.452	5.29
302.667	5.29
302.881	31.91
303.095	-25.43
303.309	105.64
303.524	-0.85
303.738	89.26
303.952	79.02
304.166	89.26
304.381	58.54
304.595	-4.95
304.809	-13.14
305.023	56.49
305.237	-0.85
305.452	-66.39
305.666	-35.67
305.88	70.83
306.094	19.63
306.308	101.55
306.522	-27.48
306.736	25.77
306.95	62.63
307.164	19.63
307.379	29.87
307.593	31.91
307.807	-70.48
308.021	68.78
308.235	31.91
308.449	-23.38
308.663	-50
308.877	27.82
309.091	62.63
309.305	1.19
309.519	-27.48
309.733	113.83
309.947	-58.2
310.161	23.72
310.374	17.58
310.588	72.87
310.802	-19.29
311.016	60.59
311.23	-2.9
311.444	56.49
311.658	-41.81
311.872	66.73
312.085	-0.85
312.299	70.83
312.513	64.68
312.727	66.73
312.941	-13.14
313.154	27.82
313.368	74.92
313.582	62.63
313.796	9.39
314.009	23.72
314.223	68.78
314.437	44.2
314.651	29.87
314.864	7.34
315.078	25.77
315.292	56.49
315.505	38.06
315.719	25.77
315.933	-25.43
316.146	21.67
316.36	-9.05
316.573	33.96
316.787	36.01
317.001	11.43
317.214	7.34
317.428	48.3
317.641	13.48
317.855	44.2
318.068	7.34
318.282	15.53
318.495	64.68
318.709	-41.81
318.922	-7
319.136	85.16
319.349	11.43
319.563	11.43
319.776	70.83
319.99	33.96
320.203	-9.05
320.417	-70.48
320.63	27.82
320.843	19.63
321.057	-25.43
321.27	15.53
321.483	-29.52
321.697	105.64
321.91	15.53
322.124	1.19
322.337	40.11
322.55	9.39
322.763	93.35
322.977	19.63
323.19	-21.33
323.403	27.82
323.617	-0.85
323.83	79.02
324.043	-27.48
324.256	105.64
324.469	-54.1
324.683	76.97
324.896	-0.85
325.109	87.21
325.322	-66.39
325.535	25.77
325.748	-23.38
325.962	21.67
326.175	-80.72
326.388	72.87
326.601	27.82
326.814	48.3
327.027	-58.2
327.24	-13.14
327.453	9.39
327.666	62.63
327.879	17.58
328.092	-19.29
328.305	17.58
328.518	23.72
328.731	38.06
328.944	21.67
329.157	64.68
329.37	15.53
329.583	-15.19
329.796	19.63
330.009	-15.19
330.222	15.53
330.435	44.2
330.648	38.06
330.861	15.53
331.073	-15.19
331.286	29.87
331.499	-21.33
331.712	-25.43
331.925	-21.33
332.138	-15.19
332.35	40.11
332.563	76.97
332.776	72.87
332.989	-13.14
333.202	5.29
333.414	7.34
333.627	48.3
333.84	36.01
334.053	21.67
334.265	-52.05
334.478	33.96
334.691	1.19
334.903	40.11
335.116	-39.76
335.329	42.15
335.541	11.43
335.754	81.07
335.966	29.87
336.179	23.72
336.392	27.82
336.604	38.06
336.817	-4.95
337.029	119.98
337.242	-0.85
337.454	46.25
337.667	81.07
337.88	42.15
338.092	3.24
338.305	107.69
338.517	-17.24
338.729	27.82
338.942	-13.14
339.154	40.11
339.367	-21.33
339.579	33.96
339.792	79.02
340.004	7.34
340.217	40.11
340.429	33.96
340.641	-41.81
340.854	74.92
341.066	31.91
341.278	70.83
341.491	52.39
341.703	11.43
341.915	-7
342.128	52.39
342.34	-25.43
342.552	-7
342.764	85.16
342.977	54.44
343.189	-9.05
343.401	27.82
343.613	9.39
343.826	46.25
344.038	113.83
344.25	-0.85
344.462	62.63
344.674	5.29
344.886	-19.29
345.099	56.49
345.311	17.58
345.523	-21.33
345.735	-45.91
345.947	54.44
346.159	31.91
346.371	56.49
346.583	-25.43
346.795	21.67
347.007	1.19
347.219	52.39
347.431	-9.05
347.643	58.54
347.855	15.53
348.067	54.44
348.279	7.34
348.491	29.87
348.703	46.25
348.915	17.58
349.127	-39.76
349.339	60.59
349.551	-29.52
349.763	64.68
349.975	-19.29
350.187	87.21
350.399	-2.9
350.61	87.21
350.822	13.48
351.034	-50
351.246	25.77
351.458	15.53
351.669	21.67
351.881	83.11
352.093	3.24
352.305	97.45
352.517	54.44
352.728	70.83
352.94	85.16
353.152	-4.95
353.363	31.91
353.575	74.92
353.787	33.96
353.999	25.77
354.21	42.15
354.422	-37.72
354.633	54.44
354.845	93.35
355.057	-4.95
355.268	46.25
355.48	68.78
355.692	33.96
355.903	-11.09
356.115	-17.24
356.326	-13.14
356.538	76.97
356.749	11.43
356.961	99.5
357.172	15.53
357.384	76.97
357.595	38.06
357.807	5.29
358.018	23.72
358.23	-27.48
358.441	25.77
358.653	-2.9
358.864	-33.62
359.075	74.92
359.287	68.78
359.498	11.43
359.709	38.06
359.921	7.34
360.132	66.73
360.344	1.19
360.555	76.97
360.766	60.59
360.977	9.39
361.189	-25.43
361.4	44.2
361.611	44.2
361.823	48.3
362.034	33.96
362.245	-13.14
362.456	74.92
362.667	46.25
362.879	48.3
363.09	33.96
363.301	42.15
363.512	46.25
363.723	95.4
363.935	38.06
364.146	89.26
364.357	40.11
364.568	93.35
364.779	-31.57
364.99	5.29
365.201	72.87
365.412	44.2
365.623	33.96
365.834	15.53
366.045	-64.34
366.256	64.68
366.467	68.78
366.678	-4.95
366.889	48.3
367.1	5.29
367.311	68.78
367.522	66.73
367.733	48.3
367.944	23.72
368.155	62.63
368.366	-9.05
368.577	36.01
368.788	36.01
368.999	54.44
369.209	3.24
369.42	64.68
369.631	21.67
369.842	-4.95
370.053	31.91
370.264	58.54
370.474	29.87
370.685	87.21
370.896	64.68
371.107	122.02
371.317	36.01
371.528	15.53
371.739	76.97
371.95	66.73
372.16	46.25
372.371	-52.05
372.582	-27.48
372.792	97.45
373.003	3.24
373.214	31.91
373.424	95.4
373.635	38.06
373.846	31.91
374.056	-31.57
374.267	21.67
374.477	19.63
374.688	13.48
374.898	58.54
375.109	83.11
375.319	52.39
375.53	21.67
375.74	48.3
375.951	36.01
376.161	21.67
376.372	21.67
376.582	3.24
376.793	101.55
377.003	40.11
377.214	-2.9
377.424	15.53
377.635	-4.95
377.845	74.92
378.055	148.65
378.266	19.63
378.476	111.78
378.686	72.87
378.897	31.91
379.107	105.64
379.317	29.87
379.528	64.68
379.738	64.68
379.948	21.67
380.158	25.77
380.369	-13.14
380.579	56.49
380.789	48.3
380.999	85.16
381.21	144.55
381.42	117.93
381.63	33.96
381.84	-33.62
382.05	109.74
382.261	83.11
382.471	126.12
382.681	46.25
382.891	58.54
383.101	-31.57
383.311	-27.48
383.521	124.07
383.731	40.11
383.941	5.29
384.151	64.68
384.361	74.92
384.571	-9.05
384.781	44.2
384.991	83.11
385.201	11.43
385.411	50.35
385.621	13.48
385.831	-2.9
386.041	17.58
386.251	46.25
386.461	-33.62
386.671	38.06
386.881	68.78
387.091	95.4
387.301	93.35
387.511	46.25
387.72	-11.09
387.93	93.35
388.14	89.26
388.35	-23.38
388.56	128.17
388.769	-0.85
388.979	60.59
389.189	29.87
389.399	31.91
389.609	62.63
389.818	58.54
390.028	25.77
390.238	7.34
390.447	91.31
390.657	-13.14
390.867	56.49
391.076	33.96
391.286	72.87
391.496	25.77
391.705	25.77
391.915	3.24
392.125	76.97
392.334	-31.57
392.544	68.78
392.753	5.29
392.963	62.63
393.172	38.06
393.382	64.68
393.591	46.25
393.801	31.91
394.01	50.35
394.22	126.12
394.429	40.11
394.639	72.87
394.848	79.02
395.058	58.54
395.267	126.12
395.477	15.53
395.686	13.48
395.895	74.92
396.105	81.07
396.314	-4.95
396.524	72.87
396.733	40.11
396.942	52.39
397.152	83.11
397.361	31.91
397.57	105.64
397.78	105.64
397.989	15.53
398.198	38.06
398.407	-21.33
398.617	33.96
398.826	68.78
399.035	103.59
399.244	50.35
399.453	103.59
399.663	48.3
399.872	64.68
400.081	17.58
400.29	124.07
400.499	23.72
400.708	101.55
400.917	62.63
401.127	85.16
401.336	66.73
401.545	142.5
401.754	99.5
401.963	124.07
402.172	64.68
402.381	11.43
402.59	101.55
402.799	52.39
403.008	128.17
403.217	99.5
403.426	99.5
403.635	89.26
403.844	93.35
404.053	134.31
404.262	72.87
404.471	122.02
404.68	19.63
404.888	128.17
405.097	169.13
405.306	130.22
405.515	52.39
405.724	154.79
405.933	87.21
406.142	132.26
406.35	62.63
406.559	130.22
406.768	109.74
406.977	208.04
407.185	128.17
407.394	95.4
407.603	70.83
407.812	224.42
408.02	144.55
408.229	134.31
408.438	152.74
408.646	79.02
408.855	148.65
409.064	156.84
409.272	205.99
409.481	148.65
409.69	230.57
409.898	138.41
410.107	253.09
410.315	183.46
410.524	181.42
410.733	232.62
410.941	130.22
411.15	246.95
411.358	275.62
411.567	302.25
411.775	222.38
411.984	306.34
412.192	273.57
412.401	279.72
412.609	261.29
412.818	365.73
413.026	310.44
413.234	335.01
413.443	318.63
413.651	316.58
413.86	392.36
414.068	445.6
414.276	441.51
414.485	296.1
414.693	468.13
414.901	437.41
415.11	537.76
415.318	412.84
415.526	474.28
415.734	509.09
415.943	509.09
416.151	498.85
416.359	548
416.567	560.29
416.776	548
416.984	607.39
417.192	578.72
417.4	642.21
417.608	703.65
417.817	736.42
418.025	697.5
418.233	773.28
418.441	765.09
418.649	820.38
418.857	875.68
419.065	849.05
419.273	836.77
419.481	955.55
419.689	1010.84
419.897	949.4
420.105	1029.27
420.313	1100.95
420.521	1086.62
420.729	1166.49
420.937	1127.58
421.145	1184.92
421.353	1203.35
421.561	1238.17
421.769	1328.28
421.977	1285.27
422.185	1338.52
422.393	1453.2
422.601	1567.89
422.809	1555.6
423.017	1520.79
423.224	1582.23
423.432	1741.97
423.64	1545.36
423.848	1844.37
424.056	1750.16
424.263	1862.8
424.471	1881.23
424.679	1959.05
424.887	2077.83
425.094	2153.61
425.302	2108.55
425.51	2135.18
425.718	2305.16
425.925	2182.28
426.133	2411.65
426.341	2542.72
426.548	2643.07
426.756	2630.79
426.964	2632.83
427.171	2860.16
427.379	2942.08
427.586	2919.55
427.794	3038.33
428.001	3099.77
428.209	3388.53
428.417	3243.13
428.624	3501.17
428.832	3304.57
429.039	3492.98
429.247	3464.31
429.454	3687.54
429.662	4021.36
429.869	3669.11
430.076	3984.49
430.284	3853.42
430.491	4097.13
430.699	4234.35
430.906	4271.21
431.114	4346.98
431.321	4373.61
431.528	4631.65
431.736	4834.4
431.943	5137.5
432.15	5031.01
432.358	5071.97
432.565	5207.13
432.772	5282.91
432.979	5512.28
433.187	5497.94
433.394	5680.21
433.601	5993.55
433.808	5940.3
434.016	5844.05
434.223	6091.85
434.43	6593.61
434.637	6413.38
434.844	6970.43
435.052	7093.31
435.259	7056.45
435.466	6982.72
435.673	7050.3
435.88	7507
436.087	7867.44
436.294	7808.05
436.501	7603.25
436.708	7939.12
436.915	8127.53
437.122	8633.38
437.329	8471.59
437.537	8528.94
437.743	8895.52
437.95	8686.63
438.157	9212.96
438.364	9485.34
438.571	9536.54
438.778	9624.6
438.985	10454.03
439.192	10021.91
439.399	10439.69
439.606	10126.35
439.813	10685.45
440.02	11545.59
440.227	11101.19
440.433	11049.99
440.64	11469.82
440.847	11342.85
441.054	11486.2
441.261	12332.01
441.467	12094.45
441.674	12567.53
441.881	12794.86
442.088	12876.77
442.294	12647.4
442.501	13288.42
442.708	13378.53
442.914	13745.11
443.121	14392.27
443.328	13990.87
443.534	15076.29
443.741	14932.93
443.948	14318.54
444.154	15573.95
444.361	15367.1
444.568	15418.3
444.774	15313.86
444.981	15612.86
445.187	15944.63
445.394	16884.65
445.6	16346.03
445.807	18209.68
446.013	17277.86
446.22	17994.65
446.426	18465.68
446.633	18443.15
446.839	19145.61
447.046	18348.95
447.252	19239.81
447.459	19538.82
447.665	19295.11
447.871	20200.31
448.078	20786.03
448.284	19811.2
448.491	20323.19
448.697	21160.81
448.903	21570.4
449.11	21545.83
449.316	21322.6
449.522	21930.84
449.728	22178.65
449.935	22000.47
450.141	22440.79
450.347	22801.23
450.553	22149.98
450.76	22344.53
450.966	23259.98
451.172	22754.13
451.378	23376.71
451.584	22997.84
451.791	23720.77
451.997	23556.93
452.203	23634.75
452.409	23577.41
452.615	23755.58
452.821	22907.73
453.027	22649.68
453.233	23589.7
453.44	22518.61
453.646	23085.9
453.852	23163.72
454.058	23567.17
454.264	22616.91
454.47	22834
454.676	22686.54
454.882	22870.86
455.088	21255.01
455.294	21334.89
455.5	21594.98
455.705	21873.5
455.911	21078.89
456.117	20913
456.323	20355.96
456.529	19094.41
456.735	20079.48
456.941	19487.62
457.147	19145.61
457.352	18359.19
457.558	18559.89
457.764	18197.4
457.97	17980.31
458.176	17748.89
458.381	17691.55
458.587	17066.92
458.793	16602.03
458.999	15786.94
459.204	17281.95
459.41	16653.23
459.616	15539.13
459.821	15762.36
460.027	15563.71
460.233	15236.03
460.438	14255.06
460.644	14537.68
460.85	14095.32
461.055	13706.2
461.261	13560.8
461.466	12696.55
461.672	12049.39
461.878	13054.95
462.083	12233.71
462.289	11987.96
462.494	11932.66
462.7	11340.8
462.905	11002.88
463.111	11312.13
463.316	11537.4
463.522	11152.38
463.727	11387.9
463.932	11367.42
464.138	11412.48
464.343	11207.68
464.549	10871.81
464.754	11283.45
464.959	11054.08
465.165	11244.54
465.37	10789.89
465.575	10486.79
465.781	10765.32
465.986	10961.92
466.191	10681.35
466.397	10320.91
466.602	9610.26
466.807	10044.43
467.012	10208.27
467.218	9989.14
467.423	9860.12
467.628	10097.68
467.833	10116.11
