Data from USB4F104151__225__11-10-53-634.txt Node

Date: Wed Mar 12 11:10:53 EDT 2025
User: louis
Spectrometer: USB4F10415
Trigger mode: 4
Integration Time (sec): 2.000000E-2
Scans to average: 1
Electric dark correction enabled: true
Nonlinearity correction enabled: false
Boxcar width: 0
XAxis mode: Wavelengths
Number of Pixels in Spectrum: 3648
>>>>>Begin Spectral Data<<<<<
178.204	-108.03
178.424	-108.03
178.644	-108.03
178.864	-89.6
179.084	-101.89
179.304	18.94
179.524	31.23
179.744	-15.87
179.964	74.24
180.184	4.61
180.404	-34.3
180.624	-19.97
180.844	-15.87
181.064	39.42
181.283	-50.69
181.503	-1.54
181.723	-30.21
181.943	-7.68
182.163	45.57
182.383	35.33
182.602	-22.02
182.822	25.09
183.042	-5.63
183.262	49.66
183.482	6.66
183.701	-7.68
183.921	6.66
184.141	84.48
184.361	31.23
184.58	37.38
184.8	0.51
185.02	-26.11
185.239	47.62
185.459	70.14
185.679	23.04
185.898	-28.16
186.118	29.18
186.338	41.47
186.557	12.8
186.777	23.04
186.997	27.14
187.216	53.76
187.436	45.57
187.655	35.33
187.875	39.42
188.095	27.14
188.314	14.85
188.534	57.86
188.753	23.04
188.973	53.76
189.192	39.42
189.412	-46.59
189.631	37.38
189.851	-1.54
190.07	-13.82
190.29	6.66
190.509	2.56
190.729	-1.54
190.948	45.57
191.168	102.91
191.387	31.23
191.607	-28.16
191.826	33.28
192.045	37.38
192.265	10.75
192.484	29.18
192.704	12.8
192.923	68.09
193.142	-1.54
193.362	-32.26
193.581	-5.63
193.8	-11.78
194.02	-24.06
194.239	25.09
194.458	113.15
194.678	-19.97
194.897	70.14
195.116	14.85
195.335	125.44
195.555	29.18
195.774	61.95
195.993	14.85
196.212	27.14
196.432	6.66
196.651	31.23
196.87	-11.78
197.089	41.47
197.308	-13.82
197.528	-13.82
197.747	10.75
197.966	6.66
198.185	-28.16
198.404	41.47
198.623	29.18
198.842	-48.64
199.062	84.48
199.281	72.19
199.5	-13.82
199.719	14.85
199.938	-17.92
200.157	20.99
200.376	12.8
200.595	53.76
200.814	2.56
201.033	-26.11
201.252	-9.73
201.471	-38.4
201.69	-13.82
201.909	37.38
202.128	14.85
202.347	66.05
202.566	45.57
202.785	4.61
203.004	39.42
203.223	70.14
203.442	4.61
203.661	-5.63
203.879	-46.59
204.098	41.47
204.317	-11.78
204.536	94.72
204.755	14.85
204.974	68.09
205.193	51.71
205.411	25.09
205.63	61.95
205.849	64
206.068	31.23
206.287	82.43
206.505	29.18
206.724	41.47
206.943	16.9
207.162	-28.16
207.381	53.76
207.599	51.71
207.818	29.18
208.037	33.28
208.255	-1.54
208.474	23.04
208.693	-1.54
208.911	41.47
209.13	27.14
209.349	-24.06
209.567	-13.82
209.786	27.14
210.005	2.56
210.223	47.62
210.442	10.75
210.661	72.19
210.879	-5.63
211.098	-48.64
211.316	-3.58
211.535	45.57
211.753	-17.92
211.972	-5.63
212.191	-32.26
212.409	119.29
212.628	2.56
212.846	16.9
213.065	2.56
213.283	18.94
213.502	70.14
213.72	-24.06
213.938	20.99
214.157	-38.4
214.375	-50.69
214.594	-3.58
214.812	10.75
215.031	-42.5
215.249	-46.59
215.467	-38.4
215.686	33.28
215.904	94.72
216.122	0.51
216.341	121.34
216.559	47.62
216.778	-30.21
216.996	37.38
217.214	-24.06
217.432	-11.78
217.651	-38.4
217.869	-11.78
218.087	66.05
218.306	53.76
218.524	55.81
218.742	6.66
218.96	27.14
219.179	80.38
219.397	-9.73
219.615	-1.54
219.833	37.38
220.051	18.94
220.27	8.7
220.488	23.04
220.706	53.76
220.924	-15.87
221.142	33.28
221.36	-13.82
221.578	78.33
221.796	14.85
222.015	-38.4
222.233	29.18
222.451	47.62
222.669	-38.4
222.887	70.14
223.105	25.09
223.323	2.56
223.541	-1.54
223.759	-42.5
223.977	59.9
224.195	-5.63
224.413	2.56
224.631	47.62
224.849	6.66
225.067	49.66
225.285	-26.11
225.503	8.7
225.721	8.7
225.939	74.24
226.157	-5.63
226.375	57.86
226.592	-9.73
226.81	-60.93
227.028	-24.06
227.246	107.01
227.464	-5.63
227.682	-13.82
227.9	39.42
228.117	43.52
228.335	18.94
228.553	59.9
228.771	43.52
228.989	16.9
229.206	47.62
229.424	-77.31
229.642	-1.54
229.86	-1.54
230.077	-13.82
230.295	-24.06
230.513	14.85
230.731	57.86
230.948	-13.82
231.166	78.33
231.384	55.81
231.601	-36.35
231.819	6.66
232.037	-108.03
232.254	0.51
232.472	-32.26
232.689	-7.68
232.907	37.38
233.125	51.71
233.342	39.42
233.56	18.94
233.777	-60.93
233.995	12.8
234.213	35.33
234.43	14.85
234.648	-75.26
234.865	-13.82
235.083	12.8
235.3	-22.02
235.518	29.18
235.735	18.94
235.953	6.66
236.17	27.14
236.388	-11.78
236.605	-7.68
236.822	14.85
237.04	70.14
237.257	49.66
237.475	16.9
237.692	104.96
237.909	-36.35
238.127	23.04
238.344	55.81
238.562	39.42
238.779	14.85
238.996	12.8
239.214	23.04
239.431	64
239.648	-9.73
239.865	-36.35
240.083	53.76
240.3	80.38
240.517	10.75
240.735	55.81
240.952	51.71
241.169	96.77
241.386	92.67
241.603	20.99
241.821	-26.11
242.038	-3.58
242.255	61.95
242.472	-30.21
242.689	86.53
242.907	-11.78
243.124	-5.63
243.341	51.71
243.558	-15.87
243.775	2.56
243.992	-42.5
244.209	12.8
244.426	41.47
244.643	-9.73
244.86	14.85
245.078	39.42
245.295	-56.83
245.512	23.04
245.729	-65.02
245.946	88.57
246.163	-9.73
246.38	-5.63
246.597	-9.73
246.814	14.85
247.031	80.38
247.248	49.66
247.464	94.72
247.681	-9.73
247.898	-17.92
248.115	0.51
248.332	0.51
248.549	12.8
248.766	2.56
248.983	-17.92
249.2	-38.4
249.417	10.75
249.633	49.66
249.85	49.66
250.067	-5.63
250.284	-5.63
250.501	25.09
250.717	137.73
250.934	-17.92
251.151	47.62
251.368	-17.92
251.585	129.53
251.801	72.19
252.018	29.18
252.235	20.99
252.451	-54.78
252.668	-52.74
252.885	-62.98
253.102	31.23
253.318	25.09
253.535	-13.82
253.752	20.99
253.968	-26.11
254.185	51.71
254.401	-52.74
254.618	-30.21
254.835	-26.11
255.051	104.96
255.268	-73.21
255.484	-17.92
255.701	100.86
255.917	-11.78
256.134	20.99
256.351	-42.5
256.567	57.86
256.784	80.38
257	-22.02
257.217	4.61
257.433	-24.06
257.65	51.71
257.866	12.8
258.082	-36.35
258.299	-9.73
258.515	47.62
258.732	55.81
258.948	12.8
259.165	-9.73
259.381	18.94
259.597	43.52
259.814	6.66
260.03	-11.78
260.246	47.62
260.463	8.7
260.679	61.95
260.895	-9.73
261.112	59.9
261.328	8.7
261.544	51.71
261.761	113.15
261.977	49.66
262.193	-5.63
262.409	-5.63
262.626	25.09
262.842	33.28
263.058	10.75
263.274	68.09
263.49	33.28
263.707	53.76
263.923	23.04
264.139	86.53
264.355	74.24
264.571	-5.63
264.787	27.14
265.004	-9.73
265.22	0.51
265.436	31.23
265.652	27.14
265.868	4.61
266.084	-42.5
266.3	41.47
266.516	12.8
266.732	-75.26
266.948	20.99
267.164	66.05
267.38	49.66
267.596	47.62
267.812	74.24
268.028	-9.73
268.244	-36.35
268.46	31.23
268.676	-36.35
268.892	6.66
269.108	6.66
269.324	-22.02
269.54	-40.45
269.756	57.86
269.972	-9.73
270.188	92.67
270.403	-13.82
270.619	2.56
270.835	20.99
271.051	-26.11
271.267	-34.3
271.483	-5.63
271.698	64
271.914	37.38
272.13	61.95
272.346	68.09
272.562	41.47
272.777	14.85
272.993	-3.58
273.209	12.8
273.425	-28.16
273.64	2.56
273.856	18.94
274.072	51.71
274.287	-17.92
274.503	76.29
274.719	41.47
274.934	-60.93
275.15	-50.69
275.366	27.14
275.581	12.8
275.797	51.71
276.012	37.38
276.228	-13.82
276.444	41.47
276.659	-22.02
276.875	-46.59
277.09	-42.5
277.306	-26.11
277.521	104.96
277.737	39.42
277.952	109.05
278.168	14.85
278.383	31.23
278.599	-5.63
278.814	27.14
279.03	-17.92
279.245	80.38
279.461	16.9
279.676	41.47
279.892	-30.21
280.107	70.14
280.322	6.66
280.538	10.75
280.753	-38.4
280.969	43.52
281.184	-42.5
281.399	55.81
281.615	-26.11
281.83	35.33
282.045	20.99
282.26	-32.26
282.476	-1.54
282.691	47.62
282.906	45.57
283.122	68.09
283.337	23.04
283.552	31.23
283.767	-17.92
283.983	33.28
284.198	31.23
284.413	98.81
284.628	49.66
284.843	8.7
285.058	31.23
285.274	47.62
285.489	47.62
285.704	-13.82
285.919	29.18
286.134	-5.63
286.349	14.85
286.564	35.33
286.779	41.47
286.995	33.28
287.21	-1.54
287.425	2.56
287.64	12.8
287.855	18.94
288.07	-56.83
288.285	45.57
288.5	51.71
288.715	20.99
288.93	20.99
289.145	61.95
289.36	-9.73
289.575	10.75
289.79	53.76
290.004	51.71
290.219	12.8
290.434	-7.68
290.649	0.51
290.864	39.42
291.079	-34.3
291.294	92.67
291.509	-3.58
291.724	45.57
291.938	23.04
292.153	2.56
292.368	4.61
292.583	37.38
292.798	-1.54
293.012	66.05
293.227	39.42
293.442	23.04
293.657	104.96
293.871	70.14
294.086	39.42
294.301	53.76
294.516	104.96
294.73	88.57
294.945	-36.35
295.16	64
295.374	39.42
295.589	57.86
295.804	6.66
296.018	-52.74
296.233	47.62
296.447	18.94
296.662	53.76
296.877	8.7
297.091	6.66
297.306	-1.54
297.52	-22.02
297.735	78.33
297.949	27.14
298.164	88.57
298.378	-15.87
298.593	4.61
298.807	-50.69
299.022	4.61
299.236	61.95
299.451	55.81
299.665	-1.54
299.88	57.86
300.094	8.7
300.309	16.9
300.523	-40.45
300.737	18.94
300.952	41.47
301.166	78.33
301.381	-9.73
301.595	68.09
301.809	43.52
302.024	-1.54
302.238	45.57
302.452	49.66
302.667	8.7
302.881	66.05
303.095	55.81
303.309	10.75
303.524	-24.06
303.738	27.14
303.952	16.9
304.166	-46.59
304.381	51.71
304.595	98.81
304.809	35.33
305.023	-1.54
305.237	27.14
305.452	23.04
305.666	76.29
305.88	23.04
306.094	10.75
306.308	-1.54
306.522	88.57
306.736	-60.93
306.95	-7.68
307.164	47.62
307.379	-46.59
307.593	20.99
307.807	41.47
308.021	76.29
308.235	27.14
308.449	41.47
308.663	-22.02
308.877	57.86
309.091	43.52
309.305	45.57
309.519	47.62
309.733	33.28
309.947	4.61
310.161	27.14
310.374	-22.02
310.588	37.38
310.802	-15.87
311.016	80.38
311.23	-54.78
311.444	61.95
311.658	-44.54
311.872	68.09
312.085	10.75
312.299	-26.11
312.513	64
312.727	-9.73
312.941	16.9
313.154	45.57
313.368	68.09
313.582	29.18
313.796	27.14
314.009	68.09
314.223	68.09
314.437	59.9
314.651	0.51
314.864	55.81
315.078	-28.16
315.292	-11.78
315.505	-5.63
315.719	78.33
315.933	-46.59
316.146	82.43
316.36	23.04
316.573	4.61
316.787	29.18
317.001	55.81
317.214	6.66
317.428	-48.64
317.641	6.66
317.855	2.56
318.068	27.14
318.282	12.8
318.495	86.53
318.709	12.8
318.922	-17.92
319.136	10.75
319.349	72.19
319.563	-7.68
319.776	100.86
319.99	-5.63
320.203	-30.21
320.417	-7.68
320.63	39.42
320.843	80.38
321.057	66.05
321.27	41.47
321.483	47.62
321.697	111.1
321.91	66.05
322.124	41.47
322.337	45.57
322.55	-15.87
322.763	29.18
322.977	47.62
323.19	-26.11
323.403	51.71
323.617	14.85
323.83	104.96
324.043	49.66
324.256	88.57
324.469	72.19
324.683	6.66
324.896	-62.98
325.109	45.57
325.322	-52.74
325.535	47.62
325.748	2.56
325.962	53.76
326.175	39.42
326.388	61.95
326.601	37.38
326.814	-34.3
327.027	59.9
327.24	119.29
327.453	-3.58
327.666	6.66
327.879	76.29
328.092	96.77
328.305	64
328.518	53.76
328.731	-1.54
328.944	51.71
329.157	-1.54
329.37	59.9
329.583	49.66
329.796	20.99
330.009	-28.16
330.222	96.77
330.435	76.29
330.648	14.85
330.861	-24.06
331.073	123.39
331.286	109.05
331.499	-17.92
331.712	27.14
331.925	20.99
332.138	27.14
332.35	-13.82
332.563	-11.78
332.776	6.66
332.989	-36.35
333.202	59.9
333.414	-67.07
333.627	53.76
333.84	14.85
334.053	53.76
334.265	-36.35
334.478	-17.92
334.691	43.52
334.903	16.9
335.116	14.85
335.329	125.44
335.541	29.18
335.754	33.28
335.966	-32.26
336.179	33.28
336.392	45.57
336.604	-32.26
336.817	-17.92
337.029	92.67
337.242	23.04
337.454	107.01
337.667	33.28
337.88	53.76
338.092	-19.97
338.305	57.86
338.517	31.23
338.729	68.09
338.942	29.18
339.154	-30.21
339.367	-17.92
339.579	-9.73
339.792	0.51
340.004	59.9
340.217	-17.92
340.429	72.19
340.641	-32.26
340.854	59.9
341.066	55.81
341.278	-9.73
341.491	55.81
341.703	78.33
341.915	-13.82
342.128	74.24
342.34	115.2
342.552	31.23
342.764	18.94
342.977	-81.41
343.189	37.38
343.401	14.85
343.613	-22.02
343.826	0.51
344.038	35.33
344.25	78.33
344.462	-3.58
344.674	49.66
344.886	43.52
345.099	16.9
345.311	20.99
345.523	51.71
345.735	-11.78
345.947	27.14
346.159	6.66
346.371	-11.78
346.583	68.09
346.795	100.86
347.007	18.94
347.219	90.62
347.431	23.04
347.643	53.76
347.855	23.04
348.067	49.66
348.279	20.99
348.491	41.47
348.703	35.33
348.915	-15.87
349.127	14.85
349.339	2.56
349.551	-15.87
349.763	55.81
349.975	104.96
350.187	-36.35
350.399	-28.16
350.61	47.62
350.822	-34.3
351.034	68.09
351.246	61.95
351.458	39.42
351.669	-7.68
351.881	55.81
352.093	86.53
352.305	47.62
352.517	-9.73
352.728	57.86
352.94	14.85
353.152	14.85
353.363	64
353.575	31.23
353.787	-48.64
353.999	29.18
354.21	2.56
354.422	12.8
354.633	90.62
354.845	12.8
355.057	10.75
355.268	51.71
355.48	31.23
355.692	-75.26
355.903	23.04
356.115	14.85
356.326	-69.12
356.538	37.38
356.749	16.9
356.961	43.52
357.172	-13.82
357.384	-15.87
357.595	35.33
357.807	41.47
358.018	-42.5
358.23	8.7
358.441	12.8
358.653	35.33
358.864	76.29
359.075	-46.59
359.287	12.8
359.498	0.51
359.709	-3.58
359.921	51.71
360.132	20.99
360.344	-26.11
360.555	64
360.766	2.56
360.977	37.38
361.189	-3.58
361.4	23.04
361.611	92.67
361.823	88.57
362.034	55.81
362.245	49.66
362.456	27.14
362.667	59.9
362.879	-44.54
363.09	-32.26
363.301	53.76
363.512	-60.93
363.723	14.85
363.935	23.04
364.146	-7.68
364.357	80.38
364.568	10.75
364.779	43.52
364.99	92.67
365.201	-9.73
365.412	18.94
365.623	-1.54
365.834	6.66
366.045	43.52
366.256	43.52
366.467	10.75
366.678	14.85
366.889	-13.82
367.1	104.96
367.311	76.29
367.522	20.99
367.733	-7.68
367.944	43.52
368.155	74.24
368.366	27.14
368.577	14.85
368.788	33.28
368.999	6.66
369.209	12.8
369.42	49.66
369.631	45.57
369.842	76.29
370.053	6.66
370.264	113.15
370.474	76.29
370.685	4.61
370.896	51.71
371.107	-15.87
371.317	74.24
371.528	-36.35
371.739	74.24
371.95	92.67
372.16	29.18
372.371	-50.69
372.582	25.09
372.792	4.61
373.003	25.09
373.214	117.25
373.424	72.19
373.635	39.42
373.846	4.61
374.056	57.86
374.267	45.57
374.477	104.96
374.688	25.09
374.898	39.42
375.109	55.81
375.319	47.62
375.53	43.52
375.74	25.09
375.951	86.53
376.161	20.99
376.372	41.47
376.582	35.33
376.793	-13.82
377.003	-3.58
377.214	72.19
377.424	104.96
377.635	102.91
377.845	49.66
378.055	35.33
378.266	-36.35
378.476	-42.5
378.686	16.9
378.897	23.04
379.107	2.56
379.317	76.29
379.528	76.29
379.738	10.75
379.948	23.04
380.158	39.42
380.369	39.42
380.579	104.96
380.789	-46.59
380.999	14.85
381.21	88.57
381.42	25.09
381.63	41.47
381.84	23.04
382.05	20.99
382.261	68.09
382.471	111.1
382.681	29.18
382.891	0.51
383.101	2.56
383.311	29.18
383.521	-3.58
383.731	31.23
383.941	68.09
384.151	129.53
384.361	102.91
384.571	47.62
384.781	49.66
384.991	64
385.201	45.57
385.411	45.57
385.621	59.9
385.831	68.09
386.041	10.75
386.251	-26.11
386.461	41.47
386.671	47.62
386.881	76.29
387.091	-5.63
387.301	-1.54
387.511	-3.58
387.72	-40.45
387.93	35.33
388.14	61.95
388.35	64
388.56	49.66
388.769	45.57
388.979	102.91
389.189	2.56
389.399	127.49
389.609	16.9
389.818	57.86
390.028	31.23
390.238	-9.73
390.447	4.61
390.657	49.66
390.867	68.09
391.076	59.9
391.286	-22.02
391.496	-9.73
391.705	6.66
391.915	78.33
392.125	68.09
392.334	-26.11
392.544	88.57
392.753	31.23
392.963	-40.45
393.172	68.09
393.382	70.14
393.591	80.38
393.801	25.09
394.01	160.25
394.22	39.42
394.429	68.09
394.639	-3.58
394.848	117.25
395.058	45.57
395.267	55.81
395.477	115.2
395.686	6.66
395.895	94.72
396.105	98.81
396.314	53.76
396.524	82.43
396.733	59.9
396.942	57.86
397.152	2.56
397.361	-24.06
397.57	78.33
397.78	70.14
397.989	111.1
398.198	170.49
398.407	61.95
398.617	88.57
398.826	111.1
399.035	82.43
399.244	88.57
399.453	64
399.663	55.81
399.872	188.93
400.081	16.9
400.29	94.72
400.499	61.95
400.708	66.05
400.917	66.05
401.127	8.7
401.336	23.04
401.545	16.9
401.754	57.86
401.963	84.48
402.172	41.47
402.381	61.95
402.59	51.71
402.799	78.33
403.008	117.25
403.217	72.19
403.426	174.59
403.635	107.01
403.844	127.49
404.053	82.43
404.262	66.05
404.471	131.58
404.68	150.01
404.888	152.06
405.097	80.38
405.306	113.15
405.515	78.33
405.724	129.53
405.933	55.81
406.142	223.74
406.35	150.01
406.559	80.38
406.768	139.77
406.977	186.88
407.185	98.81
407.394	252.41
407.603	104.96
407.812	160.25
408.02	252.41
408.229	139.77
408.438	178.69
408.646	82.43
408.855	184.83
409.064	184.83
409.272	186.88
409.481	158.21
409.69	199.16
409.898	240.12
410.107	227.84
410.315	147.97
410.524	176.64
410.733	199.16
410.941	279.04
411.15	303.61
411.358	283.13
411.567	350.71
411.775	320
411.984	233.98
412.192	295.42
412.401	350.71
412.609	301.56
412.818	336.38
413.026	442.87
413.234	401.91
413.443	451.07
413.651	410.11
413.86	416.25
414.068	463.35
414.276	365.05
414.485	414.2
414.693	453.11
414.901	530.94
415.11	610.81
415.318	428.54
415.526	526.84
415.734	543.22
415.943	625.14
416.151	596.47
416.359	596.47
416.567	627.19
416.776	649.72
416.984	692.73
417.192	750.07
417.4	760.31
417.608	707.06
417.817	784.88
418.025	788.98
418.233	858.61
418.441	788.98
418.649	936.43
418.857	965.11
419.065	997.87
419.273	1004.02
419.481	938.48
419.689	1094.13
419.897	1053.17
420.105	1063.41
420.313	1196.53
420.521	1260.01
420.729	1178.09
420.937	1204.72
421.145	1360.36
421.353	1315.31
421.561	1339.88
421.769	1440.23
421.977	1487.34
422.185	1448.43
422.393	1548.78
422.601	1700.33
422.809	1655.27
423.017	1659.37
423.224	1817.06
423.432	1888.74
423.64	1804.77
423.848	1917.41
424.056	1989.09
424.263	2099.68
424.471	2169.31
424.679	2128.35
424.887	2308.57
425.094	2275.81
425.302	2298.33
425.51	2537.95
425.718	2441.69
425.925	2439.64
426.133	2574.81
426.341	2656.73
426.548	2914.77
426.756	2957.78
426.964	2990.55
427.171	3047.89
427.379	3176.91
427.586	3301.84
427.794	3383.76
428.001	3559.88
428.209	3641.8
428.417	3406.28
428.624	3795.4
428.832	3768.77
429.039	3881.41
429.247	3815.88
429.454	4116.93
429.662	4258.24
429.869	4053.44
430.076	4356.54
430.284	4241.86
430.491	4424.12
430.699	4813.24
430.906	4819.38
431.114	4735.42
431.321	4909.49
431.528	5067.19
431.736	5355.95
431.943	5689.77
432.15	5470.64
432.358	5677.48
432.565	5781.93
432.772	5853.61
432.979	5960.1
433.187	6199.71
433.394	6224.29
433.601	6644.12
433.808	6644.12
434.016	6480.29
434.223	6902.17
434.43	7371.15
434.637	7344.53
434.844	7621
435.052	7825.8
435.259	7645.58
435.466	7819.66
435.673	7623.05
435.88	8331.65
436.087	8747.39
436.294	8472.96
436.501	8462.72
436.708	8567.17
436.915	8866.17
437.122	9355.63
437.329	9304.43
437.537	9830.76
437.743	9746.8
437.95	9888.11
438.157	10320.23
438.364	10412.39
438.571	10344.8
438.778	10619.23
438.985	11372.88
439.192	10991.96
439.399	11383.12
439.606	11194.71
439.813	11888.97
440.02	12478.79
440.227	12347.72
440.433	12151.11
440.64	12607.81
440.847	12435.78
441.054	12636.48
441.261	13805.87
441.467	13379.89
441.674	13893.93
441.881	14221.61
442.088	14225.7
442.294	13981.99
442.501	14428.45
442.708	14682.4
442.914	15309.08
443.121	15989
443.328	15477.01
443.534	16429.32
443.741	15733.01
443.948	15968.52
444.154	17180.92
444.361	16806.14
444.568	16806.14
444.774	17107.19
444.981	17148.15
445.187	17580.28
445.394	18510.05
445.6	18280.68
445.807	20019.41
446.013	19106.01
446.22	19732.69
446.426	20101.33
446.633	20021.45
446.839	20809.92
447.046	20056.27
447.252	20979.9
447.459	21192.89
447.665	20994.24
447.871	22100.14
448.078	23187.61
448.284	21850.29
448.491	22347.95
448.697	23275.68
448.903	23529.62
449.11	23715.99
449.316	23455.9
449.522	24256.65
449.728	24322.19
449.935	24373.39
450.141	24486.03
450.347	25260.16
450.553	24354.96
450.76	24692.87
450.966	25280.64
451.172	25374.84
451.378	25907.32
451.584	24989.83
451.791	25888.88
451.997	25479.29
452.203	26333.29
452.409	26185.84
452.615	25964.66
452.821	25041.03
453.027	24492.17
453.233	26026.1
453.44	24905.86
453.646	25131.14
453.852	25313.41
454.058	25839.73
454.264	25077.89
454.47	25387.13
454.676	25008.26
454.882	25626.74
455.088	23105.7
455.294	23523.48
455.5	23920.79
455.705	23945.36
455.911	23492.76
456.117	22679.72
456.323	22519.98
456.529	21235.9
456.735	22266.03
456.941	21653.69
457.147	21414.07
457.352	20756.68
457.558	20191.44
457.764	20318.41
457.97	20179.15
458.176	19599.57
458.381	19652.82
458.587	18454.76
458.793	18458.85
458.999	17623.28
459.204	18833.63
459.41	18381.03
459.616	17082.62
459.821	17072.38
460.027	16963.84
460.233	16720.13
460.438	15632.66
460.644	15939.85
460.85	15464.72
461.055	15053.08
461.261	15085.85
461.466	14031.15
461.672	13492.53
461.878	14625.06
462.083	13445.43
462.289	13291.83
462.494	13328.69
462.7	12640.58
462.905	12296.52
463.111	12697.92
463.316	12730.69
463.522	12435.78
463.727	12495.17
463.932	12435.78
464.138	12448.07
464.343	12519.74
464.549	12063.05
464.754	12599.62
464.959	12286.28
465.165	12218.69
465.37	11671.89
465.575	11338.07
465.781	11800.91
465.986	11979.08
466.191	11747.66
466.397	11143.51
466.602	10709.34
466.807	11151.7
467.012	11151.7
467.218	11073.88
467.423	10803.55
467.628	11245.91
467.833	11360.59
