Data from USB4F104151__51__11-05-42-268.txt Node

Date: Wed Mar 12 11:05:42 EDT 2025
User: louis
Spectrometer: USB4F10415
Trigger mode: 4
Integration Time (sec): 2.000000E-2
Scans to average: 1
Electric dark correction enabled: true
Nonlinearity correction enabled: false
Boxcar width: 0
XAxis mode: Wavelengths
Number of Pixels in Spectrum: 3648
>>>>>Begin Spectral Data<<<<<
178.204	-120.49
178.424	-120.49
178.644	-120.49
178.864	-71.34
179.084	-112.3
179.304	82.26
179.524	67.92
179.744	-54.95
179.964	12.63
180.184	4.44
180.404	-20.14
180.624	-16.04
180.844	-18.09
181.064	-7.85
181.283	-54.95
181.503	-42.67
181.723	47.44
181.943	-16.04
182.163	51.54
182.383	61.78
182.602	20.82
182.822	51.54
183.042	6.49
183.262	-40.62
183.482	63.83
183.701	65.88
183.921	-3.75
184.141	49.49
184.361	37.2
184.58	4.44
184.8	63.83
185.02	53.59
185.239	49.49
185.459	63.83
185.679	29.01
185.898	-63.15
186.118	8.53
186.338	-26.28
186.557	4.44
186.777	0.34
186.997	22.87
187.216	61.78
187.436	92.5
187.655	16.73
187.875	65.88
188.095	8.53
188.314	26.96
188.534	55.64
188.753	-57
188.973	55.64
189.192	76.12
189.412	47.44
189.631	29.01
189.851	20.82
190.07	-7.85
190.29	0.34
190.509	49.49
190.729	0.34
190.948	61.78
191.168	82.26
191.387	53.59
191.607	33.11
191.826	-38.57
192.045	4.44
192.265	0.34
192.484	4.44
192.704	72.02
192.923	-7.85
193.142	69.97
193.362	47.44
193.581	98.64
193.8	6.49
194.02	53.59
194.239	-16.04
194.458	-20.14
194.678	39.25
194.897	-54.95
195.116	-40.62
195.335	39.25
195.555	57.68
195.774	12.63
195.993	31.06
196.212	41.3
196.432	-9.9
196.651	0.34
196.87	6.49
197.089	131.41
197.308	12.63
197.528	35.16
197.747	-1.71
197.966	-81.58
198.185	20.82
198.404	90.45
198.623	86.36
198.842	20.82
199.062	74.07
199.281	108.88
199.5	-46.76
199.719	8.53
199.938	-30.38
200.157	90.45
200.376	55.64
200.595	74.07
200.814	74.07
201.033	-7.85
201.252	69.97
201.471	20.82
201.69	94.55
201.909	106.84
202.128	-16.04
202.347	-7.85
202.566	74.07
202.785	33.11
203.004	20.82
203.223	41.3
203.442	8.53
203.661	35.16
203.879	10.58
204.098	-13.99
204.317	4.44
204.536	29.01
204.755	-54.95
204.974	61.78
205.193	33.11
205.411	76.12
205.63	12.63
205.849	-3.75
206.068	33.11
206.287	-30.38
206.505	-28.33
206.724	8.53
206.943	37.2
207.162	35.16
207.381	-85.67
207.599	-26.28
207.818	22.87
208.037	-34.47
208.255	20.82
208.474	-13.99
208.693	-13.99
208.911	39.25
209.13	61.78
209.349	18.77
209.567	22.87
209.786	41.3
210.005	26.96
210.223	29.01
210.442	39.25
210.661	49.49
210.879	-9.9
211.098	55.64
211.316	-34.47
211.535	102.74
211.753	6.49
211.972	-36.52
212.191	29.01
212.409	49.49
212.628	16.73
212.846	-30.38
213.065	37.2
213.283	29.01
213.502	-42.67
213.72	0.34
213.938	0.34
214.157	33.11
214.375	2.39
214.594	33.11
214.812	-24.23
215.031	74.07
215.249	67.92
215.467	12.63
215.686	0.34
215.904	59.73
216.122	53.59
216.341	4.44
216.559	-16.04
216.778	-1.71
216.996	-22.19
217.214	26.96
217.432	-16.04
217.651	20.82
217.869	-50.86
218.087	45.4
218.306	49.49
218.524	-40.62
218.742	53.59
218.96	29.01
219.179	-30.38
219.397	-9.9
219.615	67.92
219.833	74.07
220.051	-18.09
220.27	37.2
220.488	16.73
220.706	-16.04
220.924	24.92
221.142	-16.04
221.36	-24.23
221.578	-16.04
221.796	26.96
222.015	6.49
222.233	-9.9
222.451	37.2
222.669	55.64
222.887	47.44
223.105	-1.71
223.323	-5.8
223.541	10.58
223.759	41.3
223.977	31.06
224.195	4.44
224.413	63.83
224.631	69.97
224.849	16.73
225.067	94.55
225.285	37.2
225.503	69.97
225.721	-57
225.939	31.06
226.157	-1.71
226.375	41.3
226.592	2.39
226.81	-7.85
227.028	45.4
227.246	33.11
227.464	43.35
227.682	-26.28
227.9	65.88
228.117	2.39
228.335	-48.81
228.553	53.59
228.771	-5.8
228.989	20.82
229.206	33.11
229.424	8.53
229.642	-44.71
229.86	4.44
230.077	82.26
230.295	33.11
230.513	65.88
230.731	59.73
230.948	-34.47
231.166	61.78
231.384	57.68
231.601	49.49
231.819	12.63
232.037	22.87
232.254	-18.09
232.472	0.34
232.689	-18.09
232.907	74.07
233.125	-1.71
233.342	94.55
233.56	24.92
233.777	2.39
233.995	10.58
234.213	53.59
234.43	49.49
234.648	29.01
234.865	26.96
235.083	26.96
235.3	45.4
235.518	-54.95
235.735	74.07
235.953	69.97
236.17	14.68
236.388	4.44
236.605	12.63
236.822	20.82
237.04	65.88
237.257	-36.52
237.475	22.87
237.692	53.59
237.909	35.16
238.127	29.01
238.344	14.68
238.562	-28.33
238.779	-42.67
238.996	18.77
239.214	-75.43
239.431	94.55
239.648	53.59
239.865	26.96
240.083	10.58
240.3	12.63
240.517	-5.8
240.735	4.44
240.952	49.49
241.169	41.3
241.386	-13.99
241.603	20.82
241.821	14.68
242.038	45.4
242.255	43.35
242.472	-26.28
242.689	-57
242.907	14.68
243.124	67.92
243.341	20.82
243.558	-26.28
243.775	-3.75
243.992	31.06
244.209	-13.99
244.426	74.07
244.643	53.59
244.86	-3.75
245.078	10.58
245.295	-24.23
245.512	12.63
245.729	-20.14
245.946	31.06
246.163	8.53
246.38	33.11
246.597	16.73
246.814	20.82
247.031	43.35
247.248	26.96
247.464	4.44
247.681	-44.71
247.898	43.35
248.115	72.02
248.332	2.39
248.549	110.93
248.766	69.97
248.983	10.58
249.2	6.49
249.417	67.92
249.633	-11.95
249.85	6.49
250.067	18.77
250.284	-3.75
250.501	12.63
250.717	47.44
250.934	-11.95
251.151	10.58
251.368	41.3
251.585	61.78
251.801	26.96
252.018	-57
252.235	31.06
252.451	65.88
252.668	24.92
252.885	67.92
253.102	55.64
253.318	-11.95
253.535	-26.28
253.752	-13.99
253.968	2.39
254.185	45.4
254.401	47.44
254.618	16.73
254.835	65.88
255.051	65.88
255.268	0.34
255.484	29.01
255.701	37.2
255.917	-36.52
256.134	18.77
256.351	-24.23
256.567	55.64
256.784	14.68
257	-11.95
257.217	90.45
257.433	63.83
257.65	112.98
257.866	6.49
258.082	-40.62
258.299	16.73
258.515	47.44
258.732	49.49
258.948	-22.19
259.165	49.49
259.381	8.53
259.597	22.87
259.814	82.26
260.03	-3.75
260.246	29.01
260.463	51.54
260.679	29.01
260.895	-9.9
261.112	69.97
261.328	0.34
261.544	37.2
261.761	49.49
261.977	22.87
262.193	37.2
262.409	112.98
262.626	43.35
262.842	4.44
263.058	-13.99
263.274	-3.75
263.49	61.78
263.707	45.4
263.923	37.2
264.139	16.73
264.355	-9.9
264.571	53.59
264.787	2.39
265.004	139.6
265.22	8.53
265.436	-71.34
265.652	14.68
265.868	37.2
266.084	0.34
266.3	80.21
266.516	-1.71
266.732	-26.28
266.948	-7.85
267.164	74.07
267.38	14.68
267.596	59.73
267.812	45.4
268.028	45.4
268.244	33.11
268.46	-3.75
268.676	49.49
268.892	26.96
269.108	31.06
269.324	88.4
269.54	-40.62
269.756	78.16
269.972	33.11
270.188	41.3
270.403	-32.43
270.619	86.36
270.835	14.68
271.051	33.11
271.267	-42.67
271.483	-57
271.698	55.64
271.914	29.01
272.13	2.39
272.346	14.68
272.562	12.63
272.777	76.12
272.993	-50.86
273.209	31.06
273.425	69.97
273.64	24.92
273.856	49.49
274.072	41.3
274.287	-16.04
274.503	20.82
274.719	41.3
274.934	8.53
275.15	-18.09
275.366	37.2
275.581	-11.95
275.797	49.49
276.012	16.73
276.228	72.02
276.444	8.53
276.659	35.16
276.875	8.53
277.09	98.64
277.306	41.3
277.521	61.78
277.737	-34.47
277.952	65.88
278.168	102.74
278.383	76.12
278.599	-5.8
278.814	-18.09
279.03	-28.33
279.245	-11.95
279.461	76.12
279.676	24.92
279.892	-1.71
280.107	24.92
280.322	47.44
280.538	49.49
280.753	14.68
280.969	31.06
281.184	37.2
281.399	24.92
281.615	6.49
281.83	18.77
282.045	0.34
282.26	26.96
282.476	16.73
282.691	55.64
282.906	-26.28
283.122	4.44
283.337	0.34
283.552	-42.67
283.767	-52.91
283.983	20.82
284.198	0.34
284.413	69.97
284.628	14.68
284.843	72.02
285.058	57.68
285.274	84.31
285.489	26.96
285.704	-9.9
285.919	18.77
286.134	22.87
286.349	4.44
286.564	-7.85
286.779	90.45
286.995	57.68
287.21	-81.58
287.425	-38.57
287.64	22.87
287.855	115.03
288.07	0.34
288.285	-5.8
288.5	119.12
288.715	69.97
288.93	18.77
289.145	57.68
289.36	106.84
289.575	22.87
289.79	29.01
290.004	47.44
290.219	20.82
290.434	-1.71
290.649	65.88
290.864	18.77
291.079	8.53
291.294	59.73
291.509	37.2
291.724	20.82
291.938	57.68
292.153	14.68
292.368	41.3
292.583	43.35
292.798	112.98
293.012	102.74
293.227	-7.85
293.442	-67.24
293.657	-24.23
293.871	-40.62
294.086	-13.99
294.301	12.63
294.516	45.4
294.73	0.34
294.945	-1.71
295.16	18.77
295.374	14.68
295.589	82.26
295.804	33.11
296.018	61.78
296.233	29.01
296.447	98.64
296.662	-48.81
296.877	61.78
297.091	53.59
297.306	4.44
297.52	-34.47
297.735	84.31
297.949	4.44
298.164	33.11
298.378	-40.62
298.593	24.92
298.807	-3.75
299.022	55.64
299.236	37.2
299.451	33.11
299.665	31.06
299.88	2.39
300.094	-16.04
300.309	49.49
300.523	-26.28
300.737	33.11
300.952	55.64
301.166	41.3
301.381	6.49
301.595	2.39
301.809	59.73
302.024	14.68
302.238	41.3
302.452	88.4
302.667	33.11
302.881	33.11
303.095	143.7
303.309	90.45
303.524	20.82
303.738	33.11
303.952	41.3
304.166	53.59
304.381	8.53
304.595	33.11
304.809	0.34
305.023	-5.8
305.237	31.06
305.452	49.49
305.666	65.88
305.88	76.12
306.094	57.68
306.308	61.78
306.522	57.68
306.736	39.25
306.95	61.78
307.164	8.53
307.379	35.16
307.593	26.96
307.807	-57
308.021	39.25
308.235	-22.19
308.449	-3.75
308.663	24.92
308.877	100.69
309.091	24.92
309.305	18.77
309.519	10.58
309.733	33.11
309.947	-7.85
310.161	4.44
310.374	98.64
310.588	57.68
310.802	57.68
311.016	67.92
311.23	12.63
311.444	-24.23
311.658	37.2
311.872	63.83
312.085	24.92
312.299	61.78
312.513	8.53
312.727	12.63
312.941	12.63
313.154	0.34
313.368	-11.95
313.582	31.06
313.796	-7.85
314.009	-5.8
314.223	6.49
314.437	78.16
314.651	51.54
314.864	112.98
315.078	-20.14
315.292	24.92
315.505	41.3
315.719	84.31
315.933	51.54
316.146	39.25
316.36	26.96
316.573	8.53
316.787	49.49
317.001	55.64
317.214	-13.99
317.428	72.02
317.641	59.73
317.855	-20.14
318.068	47.44
318.282	-1.71
318.495	8.53
318.709	26.96
318.922	-16.04
319.136	153.94
319.349	59.73
319.563	29.01
319.776	14.68
319.99	63.83
320.203	47.44
320.417	-11.95
320.63	104.79
320.843	39.25
321.057	67.92
321.27	8.53
321.483	-18.09
321.697	74.07
321.91	18.77
322.124	65.88
322.337	22.87
322.55	41.3
322.763	-9.9
322.977	18.77
323.19	82.26
323.403	14.68
323.617	18.77
323.83	33.11
324.043	-7.85
324.256	20.82
324.469	31.06
324.683	-32.43
324.896	178.51
325.109	-11.95
325.322	78.16
325.535	31.06
325.748	10.58
325.962	29.01
326.175	35.16
326.388	-20.14
326.601	53.59
326.814	29.01
327.027	-1.71
327.24	29.01
327.453	45.4
327.666	22.87
327.879	37.2
328.092	90.45
328.305	59.73
328.518	61.78
328.731	33.11
328.944	18.77
329.157	45.4
329.37	-13.99
329.583	106.84
329.796	20.82
330.009	37.2
330.222	-13.99
330.435	121.17
330.648	-3.75
330.861	24.92
331.073	-20.14
331.286	16.73
331.499	57.68
331.712	16.73
331.925	22.87
332.138	-30.38
332.35	61.78
332.563	-9.9
332.776	74.07
332.989	-3.75
333.202	33.11
333.414	-38.57
333.627	65.88
333.84	78.16
334.053	-52.91
334.265	22.87
334.478	33.11
334.691	16.73
334.903	18.77
335.116	-1.71
335.329	100.69
335.541	82.26
335.754	45.4
335.966	4.44
336.179	-1.71
336.392	102.74
336.604	88.4
336.817	61.78
337.029	67.92
337.242	39.25
337.454	20.82
337.667	8.53
337.88	49.49
338.092	8.53
338.305	20.82
338.517	26.96
338.729	8.53
338.942	98.64
339.154	29.01
339.367	-13.99
339.579	45.4
339.792	29.01
340.004	94.55
340.217	-32.43
340.429	61.78
340.641	14.68
340.854	20.82
341.066	80.21
341.278	78.16
341.491	26.96
341.703	41.3
341.915	-11.95
342.128	78.16
342.34	41.3
342.552	-28.33
342.764	-40.62
342.977	-5.8
343.189	45.4
343.401	72.02
343.613	12.63
343.826	63.83
344.038	-32.43
344.25	-13.99
344.462	72.02
344.674	22.87
344.886	-18.09
345.099	14.68
345.311	41.3
345.523	-24.23
345.735	-63.15
345.947	67.92
346.159	33.11
346.371	35.16
346.583	-42.67
346.795	61.78
347.007	-20.14
347.219	35.16
347.431	29.01
347.643	121.17
347.855	-20.14
348.067	49.49
348.279	14.68
348.491	88.4
348.703	86.36
348.915	-30.38
349.127	18.77
349.339	39.25
349.551	-22.19
349.763	86.36
349.975	53.59
350.187	4.44
350.399	45.4
350.61	37.2
350.822	47.44
351.034	53.59
351.246	45.4
351.458	24.92
351.669	115.03
351.881	45.4
352.093	8.53
352.305	57.68
352.517	10.58
352.728	59.73
352.94	10.58
353.152	22.87
353.363	10.58
353.575	51.54
353.787	-42.67
353.999	74.07
354.21	108.88
354.422	47.44
354.633	59.73
354.845	-22.19
355.057	39.25
355.268	8.53
355.48	90.45
355.692	-9.9
355.903	-26.28
356.115	74.07
356.326	14.68
356.538	80.21
356.749	16.73
356.961	76.12
357.172	12.63
357.384	-32.43
357.595	31.06
357.807	45.4
358.018	39.25
358.23	10.58
358.441	65.88
358.653	33.11
358.864	0.34
359.075	100.69
359.287	127.32
359.498	51.54
359.709	26.96
359.921	51.54
360.132	76.12
360.344	41.3
360.555	72.02
360.766	31.06
360.977	29.01
361.189	47.44
361.4	49.49
361.611	67.92
361.823	41.3
362.034	-20.14
362.245	-16.04
362.456	55.64
362.667	47.44
362.879	55.64
363.09	45.4
363.301	106.84
363.512	-16.04
363.723	49.49
363.935	16.73
364.146	84.31
364.357	94.55
364.568	112.98
364.779	6.49
364.99	43.35
365.201	12.63
365.412	4.44
365.623	143.7
365.834	55.64
366.045	80.21
366.256	55.64
366.467	63.83
366.678	86.36
366.889	72.02
367.1	45.4
367.311	80.21
367.522	59.73
367.733	127.32
367.944	49.49
368.155	74.07
368.366	57.68
368.577	-13.99
368.788	74.07
368.999	6.49
369.209	39.25
369.42	67.92
369.631	35.16
369.842	96.6
370.053	90.45
370.264	84.31
370.474	88.4
370.685	29.01
370.896	37.2
371.107	29.01
371.317	53.59
371.528	29.01
371.739	29.01
371.95	2.39
372.16	90.45
372.371	20.82
372.582	16.73
372.792	88.4
373.003	45.4
373.214	100.69
373.424	51.54
373.635	-13.99
373.846	35.16
374.056	31.06
374.267	41.3
374.477	39.25
374.688	35.16
374.898	29.01
375.109	47.44
375.319	65.88
375.53	115.03
375.74	37.2
375.951	139.6
376.161	57.68
376.372	69.97
376.582	-38.57
376.793	94.55
377.003	78.16
377.214	18.77
377.424	22.87
377.635	61.78
377.845	31.06
378.055	-5.8
378.266	0.34
378.476	10.58
378.686	-3.75
378.897	55.64
379.107	76.12
379.317	72.02
379.528	29.01
379.738	94.55
379.948	72.02
380.158	65.88
380.369	123.22
380.579	84.31
380.789	74.07
380.999	43.35
381.21	57.68
381.42	-16.04
381.63	74.07
381.84	51.54
382.05	55.64
382.261	10.58
382.471	61.78
382.681	53.59
382.891	102.74
383.101	35.16
383.311	110.93
383.521	47.44
383.731	43.35
383.941	90.45
384.151	98.64
384.361	74.07
384.571	67.92
384.781	-24.23
384.991	24.92
385.201	158.03
385.411	151.89
385.621	41.3
385.831	61.78
386.041	74.07
386.251	41.3
386.461	41.3
386.671	24.92
386.881	123.22
387.091	39.25
387.301	35.16
387.511	53.59
387.72	37.2
387.93	57.68
388.14	57.68
388.35	37.2
388.56	74.07
388.769	94.55
388.979	80.21
389.189	37.2
389.399	82.26
389.609	61.78
389.818	76.12
390.028	57.68
390.238	69.97
390.447	14.68
390.657	43.35
390.867	22.87
391.076	39.25
391.286	55.64
391.496	-5.8
391.705	102.74
391.915	168.27
392.125	-3.75
392.334	121.17
392.544	80.21
392.753	102.74
392.963	92.5
393.172	92.5
393.382	57.68
393.591	92.5
393.801	61.78
394.01	170.32
394.22	57.68
394.429	106.84
394.639	-26.28
394.848	74.07
395.058	92.5
395.267	80.21
395.477	139.6
395.686	88.4
395.895	112.98
396.105	115.03
396.314	41.3
396.524	108.88
396.733	29.01
396.942	186.71
397.152	135.51
397.361	139.6
397.57	88.4
397.78	88.4
397.989	63.83
398.198	158.03
398.407	57.68
398.617	155.99
398.826	151.89
399.035	49.49
399.244	49.49
399.453	160.08
399.663	88.4
399.872	127.32
400.081	63.83
400.29	82.26
400.499	74.07
400.708	106.84
400.917	102.74
401.127	106.84
401.336	106.84
401.545	74.07
401.754	80.21
401.963	131.41
402.172	139.6
402.381	119.12
402.59	115.03
402.799	123.22
403.008	143.7
403.217	117.08
403.426	96.6
403.635	172.37
403.844	160.08
404.053	94.55
404.262	162.13
404.471	139.6
404.68	117.08
404.888	125.27
405.097	176.47
405.306	176.47
405.515	176.47
405.724	115.03
405.933	143.7
406.142	149.84
406.35	190.8
406.559	188.75
406.768	229.71
406.977	217.43
407.185	180.56
407.394	244.05
407.603	145.75
407.812	184.66
408.02	254.29
408.229	112.98
408.438	276.82
408.646	178.51
408.855	178.51
409.064	321.87
409.272	184.66
409.481	350.54
409.69	221.52
409.898	332.11
410.107	258.39
410.315	385.36
410.524	395.6
410.733	379.22
410.941	350.54
411.15	418.13
411.358	323.92
411.567	522.57
411.775	360.78
411.984	416.08
412.192	534.86
412.401	420.17
412.609	416.08
412.818	524.62
413.026	514.38
413.234	543.05
413.443	520.53
413.651	559.44
413.86	559.44
414.068	641.36
414.276	665.93
414.485	663.88
414.693	645.45
414.901	735.56
415.11	663.88
415.318	792.91
415.526	690.51
415.734	786.76
415.943	723.27
416.151	809.29
416.359	866.63
416.567	991.56
416.776	874.82
416.984	887.11
417.192	1016.13
417.4	1034.57
417.608	993.61
417.817	1130.82
418.025	1100.1
418.233	1243.46
418.441	1141.06
418.649	1339.71
418.857	1419.58
419.065	1409.34
419.273	1286.47
419.481	1462.59
419.689	1481.02
419.897	1454.4
420.105	1605.95
420.313	1644.86
420.521	1704.25
420.729	1759.55
420.937	1732.92
421.145	1880.38
421.353	1954.1
421.561	1990.97
421.769	2056.5
421.977	2255.15
422.185	2099.51
422.393	2353.46
422.601	2335.03
422.809	2275.63
423.017	2421.04
423.224	2451.76
423.432	2674.99
423.64	2691.37
423.848	2849.07
424.056	2748.72
424.263	2971.94
424.471	2984.23
424.679	3094.82
424.887	3332.39
425.094	3416.35
425.302	3297.57
425.51	3506.46
425.718	3547.42
425.925	3582.24
426.133	3741.98
426.341	3856.67
426.548	4114.71
426.756	4221.2
426.964	4219.16
427.171	4436.24
427.379	4579.6
427.586	4389.14
427.794	4700.43
428.001	5024.01
428.209	5216.52
428.417	5075.21
428.624	5615.87
428.832	5476.61
429.039	5386.5
429.247	5540.1
429.454	5884.16
429.662	6248.69
429.869	5955.83
430.076	6396.15
430.284	6037.75
430.491	6375.67
430.699	7014.63
430.906	6867.18
431.114	6936.81
431.321	7231.72
431.528	7473.38
431.736	7870.69
431.943	8145.11
432.15	7796.96
432.358	8014.04
432.565	8616.15
432.772	8464.6
432.979	8990.92
433.187	8849.61
433.394	9046.22
433.601	9703.62
433.808	9793.73
434.016	9717.95
434.223	10148.03
434.43	10662.07
434.637	10514.61
434.844	11030.7
435.052	11194.54
435.259	10971.31
435.466	11540.65
435.673	11157.68
435.88	11917.47
436.087	12648.6
436.294	12626.07
436.501	12370.07
436.708	12646.55
436.915	12851.35
437.122	13596.81
437.329	13426.82
437.537	14018.69
437.743	14145.66
437.95	13928.58
438.157	14938.23
438.364	15353.96
438.571	15607.91
438.778	15523.94
438.985	16779.35
439.192	16302.17
439.399	17084.5
439.606	16255.07
439.813	17367.12
440.02	18225.22
440.227	18040.9
440.433	17606.73
440.64	18726.97
440.847	18323.52
441.054	19099.7
441.261	19820.58
441.467	19785.77
441.674	19939.37
441.881	20840.47
442.088	20723.74
442.294	20690.97
442.501	21231.63
442.708	21766.15
442.914	22726.65
443.121	23373.81
443.328	23068.66
443.534	24647.65
443.741	23805.93
443.948	23351.28
444.154	25157.59
444.361	25006.04
444.568	25161.69
444.774	25264.08
444.981	25690.06
445.187	26290.12
445.394	27355.06
445.6	26609.6
445.807	29777.81
446.013	27940.78
446.22	28680.1
446.426	29544.34
446.633	30101.39
446.839	31217.53
447.046	29552.53
447.252	31479.67
447.459	31422.33
447.665	31381.37
447.871	32628.58
448.078	33910.61
448.284	32323.43
448.491	33310.55
448.697	34258.76
448.903	35125.05
449.11	35092.29
449.316	34299.72
449.522	35587.89
449.728	35983.15
449.935	36562.73
450.141	36212.52
450.347	36880.16
450.553	36013.87
450.76	36443.95
450.966	37392.15
451.172	36775.72
451.378	38037.26
451.584	37347.1
451.791	37996.31
451.997	38067.98
452.203	38528.78
452.409	38385.42
452.615	38102.8
452.821	36886.31
453.027	36282.16
453.233	38092.56
453.44	36112.17
453.646	36820.77
453.852	37291.8
454.058	37941.01
454.264	36282.16
454.47	37183.26
454.676	36095.79
454.882	37429.02
455.088	34178.89
455.294	34715.46
455.5	35061.57
455.705	35555.13
455.911	34316.11
456.117	33345.37
456.323	32872.29
456.529	30891.9
456.735	32507.75
456.941	31580.02
457.147	31141.75
457.352	29974.41
457.558	29712.27
457.764	29712.27
457.97	29001.63
458.176	28413.86
458.381	28706.72
458.587	26761.15
458.793	27183.03
458.999	25792.46
459.204	27498.42
459.41	26619.84
459.616	24879.07
459.821	24971.22
460.027	24793.05
460.233	24360.93
460.438	23115.76
460.644	23554.03
460.85	22095.88
461.055	22071.3
461.261	21626.89
461.466	20318.24
461.672	19759.14
461.878	21344.27
462.083	19939.37
462.289	19546.16
462.494	19464.24
462.7	18321.47
462.905	17911.88
463.111	18427.96
463.316	18597.95
463.522	17991.75
463.727	18321.47
463.932	18182.21
464.138	18090.05
464.343	17858.63
464.549	17592.39
464.754	18157.63
464.959	18249.79
465.165	17834.05
465.37	16978
465.575	16623.7
465.781	17565.77
465.986	17449.04
466.191	16693.33
466.397	16423
466.602	15689.83
466.807	16318.56
467.012	16629.85
467.218	16236.64
467.423	16203.87
467.628	16111.71
467.833	16586.84
468.038	15949.92
