Data from USB4F104151__253__11-11-44-697.txt Node

Date: Wed Mar 12 11:11:44 EDT 2025
User: louis
Spectrometer: USB4F10415
Trigger mode: 4
Integration Time (sec): 2.000000E-2
Scans to average: 1
Electric dark correction enabled: true
Nonlinearity correction enabled: false
Boxcar width: 0
XAxis mode: Wavelengths
Number of Pixels in Spectrum: 3648
>>>>>Begin Spectral Data<<<<<
178.204	-24.58
178.424	-24.58
178.644	-24.58
178.864	-38.91
179.084	-77.82
179.304	8.19
179.524	20.48
179.744	16.38
179.964	-18.43
180.184	12.29
180.404	-6.14
180.624	49.15
180.844	43.01
181.064	-51.2
181.283	26.62
181.503	-47.1
181.723	-53.25
181.943	6.14
182.163	32.77
182.383	6.14
182.602	28.67
182.822	47.1
183.042	114.69
183.262	20.48
183.482	-28.67
183.701	71.68
183.921	96.25
184.141	-34.82
184.361	16.38
184.58	24.58
184.8	79.87
185.02	22.53
185.239	-24.58
185.459	-53.25
185.679	88.06
185.898	-8.19
186.118	32.77
186.338	20.48
186.557	51.2
186.777	-40.96
186.997	24.58
187.216	45.06
187.436	47.1
187.655	81.92
187.875	-14.34
188.095	34.82
188.314	53.25
188.534	-2.05
188.753	51.2
188.973	53.25
189.192	22.53
189.412	14.34
189.631	104.45
189.851	-4.1
190.07	20.48
190.29	57.34
190.509	18.43
190.729	79.87
190.948	69.63
191.168	49.15
191.387	55.3
191.607	40.96
191.826	-28.67
192.045	-10.24
192.265	22.53
192.484	6.14
192.704	-12.29
192.923	12.29
193.142	81.92
193.362	51.2
193.581	90.11
193.8	86.01
194.02	53.25
194.239	20.48
194.458	40.96
194.678	22.53
194.897	14.34
195.116	36.86
195.335	-24.58
195.555	53.25
195.774	-34.82
195.993	-6.14
196.212	20.48
196.432	16.38
196.651	16.38
196.87	12.29
197.089	90.11
197.308	71.68
197.528	30.72
197.747	38.91
197.966	81.92
198.185	8.19
198.404	53.25
198.623	28.67
198.842	32.77
199.062	16.38
199.281	67.58
199.5	71.68
199.719	59.39
199.938	38.91
200.157	43.01
200.376	36.86
200.595	20.48
200.814	40.96
201.033	51.2
201.252	38.91
201.471	4.1
201.69	69.63
201.909	24.58
202.128	69.63
202.347	83.97
202.566	-26.62
202.785	-43.01
203.004	30.72
203.223	141.31
203.442	12.29
203.661	30.72
203.879	24.58
204.098	67.58
204.317	6.14
204.536	20.48
204.755	22.53
204.974	71.68
205.193	49.15
205.411	114.69
205.63	96.25
205.849	40.96
206.068	4.1
206.287	49.15
206.505	90.11
206.724	-20.48
206.943	8.19
207.162	-14.34
207.381	-8.19
207.599	0
207.818	59.39
208.037	12.29
208.255	10.24
208.474	18.43
208.693	61.44
208.911	63.49
209.13	-32.77
209.349	8.19
209.567	20.48
209.786	65.54
210.005	69.63
210.223	43.01
210.442	-61.44
210.661	81.92
210.879	6.14
211.098	90.11
211.316	38.91
211.535	102.4
211.753	26.62
211.972	14.34
212.191	16.38
212.409	49.15
212.628	-2.05
212.846	12.29
213.065	-6.14
213.283	34.82
213.502	12.29
213.72	83.97
213.938	110.59
214.157	28.67
214.375	57.34
214.594	18.43
214.812	88.06
215.031	26.62
215.249	-43.01
215.467	-12.29
215.686	40.96
215.904	14.34
216.122	34.82
216.341	73.73
216.559	14.34
216.778	45.06
216.996	4.1
217.214	16.38
217.432	14.34
217.651	-10.24
217.869	-14.34
218.087	-8.19
218.306	-2.05
218.524	61.44
218.742	59.39
218.96	63.49
219.179	-45.06
219.397	55.3
219.615	16.38
219.833	57.34
220.051	16.38
220.27	63.49
220.488	36.86
220.706	24.58
220.924	79.87
221.142	-18.43
221.36	59.39
221.578	28.67
221.796	45.06
222.015	20.48
222.233	57.34
222.451	88.06
222.669	49.15
222.887	90.11
223.105	-20.48
223.323	20.48
223.541	16.38
223.759	63.49
223.977	4.1
224.195	45.06
224.413	57.34
224.631	36.86
224.849	8.19
225.067	73.73
225.285	-32.77
225.503	30.72
225.721	-20.48
225.939	18.43
226.157	36.86
226.375	75.77
226.592	-51.2
226.81	28.67
227.028	51.2
227.246	-51.2
227.464	51.2
227.682	36.86
227.9	28.67
228.117	61.44
228.335	40.96
228.553	88.06
228.771	71.68
228.989	55.3
229.206	71.68
229.424	12.29
229.642	2.05
229.86	22.53
230.077	30.72
230.295	30.72
230.513	67.58
230.731	20.48
230.948	26.62
231.166	98.3
231.384	28.67
231.601	45.06
231.819	32.77
232.037	36.86
232.254	-51.2
232.472	59.39
232.689	57.34
232.907	28.67
233.125	79.87
233.342	-14.34
233.56	-6.14
233.777	32.77
233.995	45.06
234.213	106.49
234.43	75.77
234.648	24.58
234.865	81.92
235.083	24.58
235.3	88.06
235.518	22.53
235.735	34.82
235.953	90.11
236.17	32.77
236.388	16.38
236.605	98.3
236.822	-6.14
237.04	79.87
237.257	55.3
237.475	38.91
237.692	16.38
237.909	40.96
238.127	22.53
238.344	40.96
238.562	63.49
238.779	-4.1
238.996	79.87
239.214	26.62
239.431	67.58
239.648	65.54
239.865	20.48
240.083	6.14
240.3	26.62
240.517	24.58
240.735	43.01
240.952	10.24
241.169	32.77
241.386	55.3
241.603	63.49
241.821	40.96
242.038	16.38
242.255	69.63
242.472	6.14
242.689	-14.34
242.907	83.97
243.124	20.48
243.341	49.15
243.558	-47.1
243.775	6.14
243.992	77.82
244.209	-2.05
244.426	20.48
244.643	14.34
244.86	-34.82
245.078	86.01
245.295	49.15
245.512	51.2
245.729	28.67
245.946	65.54
246.163	59.39
246.38	69.63
246.597	94.21
246.814	28.67
247.031	26.62
247.248	77.82
247.464	71.68
247.681	112.64
247.898	-8.19
248.115	-2.05
248.332	8.19
248.549	69.63
248.766	83.97
248.983	43.01
249.2	24.58
249.417	10.24
249.633	26.62
249.85	-4.1
250.067	-20.48
250.284	8.19
250.501	88.06
250.717	57.34
250.934	14.34
251.151	4.1
251.368	79.87
251.585	24.58
251.801	96.25
252.018	28.67
252.235	126.97
252.451	-2.05
252.668	30.72
252.885	102.4
253.102	-55.3
253.318	-2.05
253.535	16.38
253.752	45.06
253.968	32.77
254.185	51.2
254.401	40.96
254.618	65.54
254.835	65.54
255.051	-26.62
255.268	22.53
255.484	16.38
255.701	63.49
255.917	34.82
256.134	32.77
256.351	36.86
256.567	-36.86
256.784	-10.24
257	53.25
257.217	6.14
257.433	65.54
257.65	24.58
257.866	49.15
258.082	6.14
258.299	-14.34
258.515	55.3
258.732	12.29
258.948	53.25
259.165	55.3
259.381	55.3
259.597	59.39
259.814	-2.05
260.03	40.96
260.246	49.15
260.463	-40.96
260.679	26.62
260.895	43.01
261.112	63.49
261.328	55.3
261.544	22.53
261.761	34.82
261.977	-24.58
262.193	49.15
262.409	108.54
262.626	36.86
262.842	30.72
263.058	-30.72
263.274	16.38
263.49	-8.19
263.707	75.77
263.923	116.73
264.139	24.58
264.355	40.96
264.571	0
264.787	49.15
265.004	83.97
265.22	36.86
265.436	49.15
265.652	20.48
265.868	22.53
266.084	4.1
266.3	55.3
266.516	-67.58
266.732	108.54
266.948	14.34
267.164	67.58
267.38	26.62
267.596	30.72
267.812	4.1
268.028	32.77
268.244	-32.77
268.46	10.24
268.676	98.3
268.892	63.49
269.108	-34.82
269.324	-10.24
269.54	28.67
269.756	14.34
269.972	16.38
270.188	-28.67
270.403	24.58
270.619	6.14
270.835	28.67
271.051	86.01
271.267	-10.24
271.483	28.67
271.698	36.86
271.914	-8.19
272.13	57.34
272.346	0
272.562	-8.19
272.777	75.77
272.993	88.06
273.209	45.06
273.425	-12.29
273.64	2.05
273.856	63.49
274.072	34.82
274.287	129.02
274.503	51.2
274.719	8.19
274.934	88.06
275.15	0
275.366	36.86
275.581	51.2
275.797	-4.1
276.012	-4.1
276.228	20.48
276.444	-20.48
276.659	45.06
276.875	-14.34
277.09	53.25
277.306	30.72
277.521	-8.19
277.737	-45.06
277.952	-2.05
278.168	49.15
278.383	110.59
278.599	16.38
278.814	40.96
279.03	-6.14
279.245	81.92
279.461	10.24
279.676	63.49
279.892	63.49
280.107	36.86
280.322	63.49
280.538	47.1
280.753	-8.19
280.969	112.64
281.184	26.62
281.399	94.21
281.615	-2.05
281.83	55.3
282.045	24.58
282.26	55.3
282.476	65.54
282.691	47.1
282.906	8.19
283.122	63.49
283.337	-40.96
283.552	53.25
283.767	10.24
283.983	34.82
284.198	77.82
284.413	34.82
284.628	38.91
284.843	47.1
285.058	8.19
285.274	63.49
285.489	32.77
285.704	69.63
285.919	36.86
286.134	49.15
286.349	14.34
286.564	88.06
286.779	45.06
286.995	2.05
287.21	73.73
287.425	67.58
287.64	73.73
287.855	67.58
288.07	26.62
288.285	135.17
288.5	36.86
288.715	86.01
288.93	32.77
289.145	6.14
289.36	32.77
289.575	49.15
289.79	135.17
290.004	40.96
290.219	96.25
290.434	49.15
290.649	16.38
290.864	57.34
291.079	10.24
291.294	2.05
291.509	20.48
291.724	81.92
291.938	16.38
292.153	53.25
292.368	40.96
292.583	40.96
292.798	10.24
293.012	45.06
293.227	-2.05
293.442	53.25
293.657	79.87
293.871	6.14
294.086	55.3
294.301	88.06
294.516	45.06
294.73	81.92
294.945	53.25
295.16	86.01
295.374	22.53
295.589	83.97
295.804	14.34
296.018	4.1
296.233	59.39
296.447	81.92
296.662	8.19
296.877	34.82
297.091	86.01
297.306	-36.86
297.52	55.3
297.735	100.35
297.949	36.86
298.164	69.63
298.378	24.58
298.593	36.86
298.807	108.54
299.022	67.58
299.236	36.86
299.451	34.82
299.665	94.21
299.88	4.1
300.094	69.63
300.309	38.91
300.523	14.34
300.737	-14.34
300.952	51.2
301.166	69.63
301.381	24.58
301.595	4.1
301.809	81.92
302.024	63.49
302.238	16.38
302.452	69.63
302.667	36.86
302.881	86.01
303.095	65.54
303.309	28.67
303.524	40.96
303.738	90.11
303.952	43.01
304.166	57.34
304.381	49.15
304.595	20.48
304.809	4.1
305.023	69.63
305.237	28.67
305.452	4.1
305.666	-16.38
305.88	-30.72
306.094	12.29
306.308	129.02
306.522	-10.24
306.736	71.68
306.95	4.1
307.164	61.44
307.379	28.67
307.593	69.63
307.807	55.3
308.021	63.49
308.235	6.14
308.449	81.92
308.663	106.49
308.877	61.44
309.091	38.91
309.305	-26.62
309.519	-28.67
309.733	116.73
309.947	6.14
310.161	30.72
310.374	36.86
310.588	40.96
310.802	88.06
311.016	-22.53
311.23	4.1
311.444	69.63
311.658	-24.58
311.872	129.02
312.085	65.54
312.299	131.07
312.513	69.63
312.727	61.44
312.941	20.48
313.154	28.67
313.368	16.38
313.582	55.3
313.796	-28.67
314.009	75.77
314.223	22.53
314.437	-6.14
314.651	34.82
314.864	32.77
315.078	53.25
315.292	61.44
315.505	112.64
315.719	-26.62
315.933	57.34
316.146	30.72
316.36	45.06
316.573	16.38
316.787	24.58
317.001	28.67
317.214	43.01
317.428	38.91
317.641	30.72
317.855	22.53
318.068	71.68
318.282	71.68
318.495	63.49
318.709	110.59
318.922	12.29
319.136	141.31
319.349	59.39
319.563	45.06
319.776	104.45
319.99	53.25
320.203	30.72
320.417	65.54
320.63	24.58
320.843	139.26
321.057	24.58
321.27	67.58
321.483	-20.48
321.697	16.38
321.91	61.44
322.124	40.96
322.337	59.39
322.55	47.1
322.763	-61.44
322.977	51.2
323.19	20.48
323.403	63.49
323.617	47.1
323.83	8.19
324.043	0
324.256	98.3
324.469	-32.77
324.683	55.3
324.896	53.25
325.109	-28.67
325.322	-12.29
325.535	90.11
325.748	51.2
325.962	71.68
326.175	36.86
326.388	100.35
326.601	126.97
326.814	16.38
327.027	73.73
327.24	108.54
327.453	36.86
327.666	32.77
327.879	12.29
328.092	83.97
328.305	16.38
328.518	43.01
328.731	8.19
328.944	77.82
329.157	110.59
329.37	55.3
329.583	147.45
329.796	69.63
330.009	88.06
330.222	57.34
330.435	65.54
330.648	47.1
330.861	73.73
331.073	118.78
331.286	12.29
331.499	139.26
331.712	71.68
331.925	16.38
332.138	6.14
332.35	-14.34
332.563	14.34
332.776	71.68
332.989	79.87
333.202	24.58
333.414	20.48
333.627	22.53
333.84	75.77
334.053	-10.24
334.265	24.58
334.478	59.39
334.691	24.58
334.903	114.69
335.116	-2.05
335.329	77.82
335.541	73.73
335.754	49.15
335.966	-47.1
336.179	86.01
336.392	6.14
336.604	63.49
336.817	59.39
337.029	18.43
337.242	4.1
337.454	12.29
337.667	96.25
337.88	61.44
338.092	2.05
338.305	55.3
338.517	43.01
338.729	49.15
338.942	106.49
339.154	24.58
339.367	114.69
339.579	45.06
339.792	55.3
340.004	75.77
340.217	120.83
340.429	40.96
340.641	38.91
340.854	32.77
341.066	18.43
341.278	102.4
341.491	30.72
341.703	49.15
341.915	16.38
342.128	129.02
342.34	77.82
342.552	8.19
342.764	94.21
342.977	18.43
343.189	14.34
343.401	61.44
343.613	6.14
343.826	-40.96
344.038	-6.14
344.25	98.3
344.462	-12.29
344.674	112.64
344.886	38.91
345.099	38.91
345.311	86.01
345.523	36.86
345.735	0
345.947	14.34
346.159	57.34
346.371	77.82
346.583	40.96
346.795	75.77
347.007	73.73
347.219	-20.48
347.431	34.82
347.643	51.2
347.855	61.44
348.067	135.17
348.279	16.38
348.491	6.14
348.703	45.06
348.915	86.01
349.127	100.35
349.339	40.96
349.551	88.06
349.763	112.64
349.975	49.15
350.187	141.31
350.399	96.25
350.61	63.49
350.822	40.96
351.034	102.4
351.246	2.05
351.458	18.43
351.669	55.3
351.881	24.58
352.093	133.12
352.305	-32.77
352.517	12.29
352.728	8.19
352.94	55.3
353.152	18.43
353.363	40.96
353.575	30.72
353.787	28.67
353.999	10.24
354.21	40.96
354.422	122.88
354.633	73.73
354.845	45.06
355.057	83.97
355.268	43.01
355.48	90.11
355.692	63.49
355.903	51.2
356.115	53.25
356.326	30.72
356.538	4.1
356.749	57.34
356.961	116.73
357.172	0
357.384	38.91
357.595	73.73
357.807	100.35
358.018	30.72
358.23	49.15
358.441	47.1
358.653	51.2
358.864	-24.58
359.075	-28.67
359.287	77.82
359.498	81.92
359.709	71.68
359.921	49.15
360.132	112.64
360.344	45.06
360.555	32.77
360.766	34.82
360.977	55.3
361.189	90.11
361.4	79.87
361.611	122.88
361.823	71.68
362.034	67.58
362.245	20.48
362.456	40.96
362.667	24.58
362.879	-16.38
363.09	2.05
363.301	81.92
363.512	26.62
363.723	94.21
363.935	73.73
364.146	8.19
364.357	-30.72
364.568	61.44
364.779	38.91
364.99	81.92
365.201	81.92
365.412	86.01
365.623	16.38
365.834	34.82
366.045	36.86
366.256	92.16
366.467	55.3
366.678	63.49
366.889	55.3
367.1	32.77
367.311	116.73
367.522	114.69
367.733	24.58
367.944	18.43
368.155	20.48
368.366	34.82
368.577	122.88
368.788	32.77
368.999	22.53
369.209	61.44
369.42	8.19
369.631	151.55
369.842	118.78
370.053	36.86
370.264	20.48
370.474	129.02
370.685	69.63
370.896	116.73
371.107	81.92
371.317	65.54
371.528	75.77
371.739	28.67
371.95	61.44
372.16	149.5
372.371	59.39
372.582	100.35
372.792	61.44
373.003	63.49
373.214	51.2
373.424	112.64
373.635	6.14
373.846	79.87
374.056	40.96
374.267	114.69
374.477	83.97
374.688	63.49
374.898	104.45
375.109	28.67
375.319	102.4
375.53	141.31
375.74	49.15
375.951	75.77
376.161	69.63
376.372	24.58
376.582	86.01
376.793	51.2
377.003	59.39
377.214	20.48
377.424	49.15
377.635	102.4
377.845	90.11
378.055	100.35
378.266	65.54
378.476	96.25
378.686	73.73
378.897	98.3
379.107	45.06
379.317	94.21
379.528	40.96
379.738	59.39
379.948	55.3
380.158	28.67
380.369	114.69
380.579	86.01
380.789	67.58
380.999	81.92
381.21	73.73
381.42	135.17
381.63	-49.15
381.84	55.3
382.05	137.21
382.261	61.44
382.471	53.25
382.681	12.29
382.891	59.39
383.101	104.45
383.311	28.67
383.521	-8.19
383.731	32.77
383.941	67.58
384.151	75.77
384.361	116.73
384.571	49.15
384.781	106.49
384.991	167.93
385.201	178.17
385.411	61.44
385.621	86.01
385.831	51.2
386.041	26.62
386.251	61.44
386.461	96.25
386.671	73.73
386.881	38.91
387.091	73.73
387.301	73.73
387.511	47.1
387.72	73.73
387.93	67.58
388.14	110.59
388.35	40.96
388.56	106.49
388.769	22.53
388.979	61.44
389.189	-18.43
389.399	10.24
389.609	38.91
389.818	98.3
390.028	14.34
390.238	112.64
390.447	65.54
390.657	102.4
390.867	81.92
391.076	20.48
391.286	110.59
391.496	38.91
391.705	47.1
391.915	98.3
392.125	86.01
392.334	34.82
392.544	55.3
392.753	110.59
392.963	61.44
393.172	45.06
393.382	36.86
393.591	92.16
393.801	43.01
394.01	71.68
394.22	57.34
394.429	40.96
394.639	36.86
394.848	86.01
395.058	151.55
395.267	34.82
395.477	73.73
395.686	139.26
395.895	116.73
396.105	147.45
396.314	63.49
396.524	88.06
396.733	61.44
396.942	129.02
397.152	102.4
397.361	90.11
397.57	59.39
397.78	110.59
397.989	94.21
398.198	151.55
398.407	174.08
398.617	102.4
398.826	129.02
399.035	96.25
399.244	129.02
399.453	108.54
399.663	83.97
399.872	110.59
400.081	49.15
400.29	126.97
400.499	22.53
400.708	198.65
400.917	100.35
401.127	110.59
401.336	28.67
401.545	186.37
401.754	167.93
401.963	159.74
402.172	120.83
402.381	120.83
402.59	151.55
402.799	184.32
403.008	145.41
403.217	137.21
403.426	165.89
403.635	112.64
403.844	159.74
404.053	139.26
404.262	102.4
404.471	129.02
404.68	98.3
404.888	153.6
405.097	129.02
405.306	237.56
405.515	188.41
405.724	182.27
405.933	182.27
406.142	194.56
406.35	262.14
406.559	143.36
406.768	233.47
406.977	155.65
407.185	243.71
407.394	239.61
407.603	190.46
407.812	233.47
408.02	253.95
408.229	206.84
408.438	266.24
408.646	235.52
408.855	266.24
409.064	337.91
409.272	264.19
409.481	290.81
409.69	208.89
409.898	352.25
410.107	303.1
410.315	299
410.524	331.77
410.733	436.22
410.941	364.54
411.15	331.77
411.358	454.65
411.567	448.51
411.775	430.07
411.984	446.46
412.192	487.42
412.401	471.03
412.609	577.53
412.818	559.1
413.026	573.43
413.234	569.34
413.443	598.01
413.651	604.15
413.86	628.73
414.068	628.73
414.276	651.25
414.485	657.4
414.693	751.6
414.901	667.64
415.11	763.89
415.318	806.9
415.526	843.76
415.734	845.81
415.943	851.96
416.151	915.44
416.359	876.53
416.567	892.91
416.776	1003.5
416.984	987.12
417.192	1116.14
417.4	970.74
417.608	1118.19
417.817	1075.18
418.025	1183.73
418.233	1259.5
418.441	1239.02
418.649	1282.03
418.857	1269.74
419.065	1314.8
419.273	1359.85
419.481	1376.23
419.689	1509.35
419.897	1527.78
420.105	1730.53
420.313	1615.85
420.521	1677.29
420.729	1845.22
420.937	1859.56
421.145	1943.52
421.353	1865.7
421.561	1984.48
421.769	2011.11
421.977	2273.25
422.185	2125.79
422.393	2236.38
422.601	2349.02
422.809	2322.4
423.017	2533.34
423.224	2514.91
423.432	2658.26
423.64	2600.92
423.848	2938.84
424.056	2856.92
424.263	3106.77
424.471	2957.27
424.679	2938.84
424.887	3188.69
425.094	3366.86
425.302	3327.95
425.51	3420.11
425.718	3569.61
425.925	3452.88
426.133	3762.12
426.341	4114.37
426.548	4038.59
426.756	4147.14
426.964	4247.49
427.171	4319.17
427.379	4499.39
427.586	4650.94
427.794	4741.05
428.001	4802.49
428.209	5128.11
428.417	5162.93
428.624	5582.76
428.832	5513.13
429.039	5425.07
429.247	5486.51
429.454	5967.78
429.662	6287.26
429.869	6043.56
430.076	6397.85
430.284	6098.85
430.491	6483.87
430.699	6676.38
430.906	6850.46
431.114	6780.82
431.321	7159.7
431.528	7323.54
431.736	7743.37
431.943	8097.67
432.15	7761.8
432.358	8075.14
432.565	8478.59
432.772	8335.23
432.979	8968.06
433.187	9115.51
433.394	8968.06
433.601	9568.11
433.808	9787.24
434.016	9590.64
434.223	10127.21
434.43	10608.48
434.637	10336.1
434.844	11030.36
435.052	11302.74
435.259	11186.01
435.466	11425.62
435.673	11210.58
435.88	12355.4
436.087	12513.09
436.294	12638.02
436.501	12431.17
436.708	12627.78
436.915	12787.52
437.122	13496.11
437.329	13629.23
437.537	14079.79
437.743	14063.4
437.95	14016.3
438.157	14561.06
438.364	15267.61
438.571	15337.24
438.778	15183.64
438.985	16715.52
439.192	16086.79
439.399	16504.58
439.606	16148.23
439.813	17051.39
440.02	18128.62
440.227	17954.54
440.433	17477.37
440.64	18302.7
440.847	17860.34
441.054	18441.96
441.261	19810
441.467	19334.87
441.674	20162.25
441.881	20643.52
442.088	20489.93
442.294	20475.59
442.501	20928.19
442.708	21251.77
442.914	22138.54
443.121	22990.5
443.328	22427.31
443.534	23912.08
443.741	23369.37
443.948	23021.22
444.154	24893.06
444.361	24714.89
444.568	24872.58
444.774	24755.85
444.981	24919.68
445.187	25738.87
445.394	26760.81
445.6	26383.98
445.807	29269.57
446.013	27803.22
446.22	28429.9
446.426	29480.51
446.633	29369.92
446.839	30545.45
447.046	29017.67
447.252	31182.37
447.459	31000.1
447.665	30852.65
447.871	32208.4
448.078	33500.67
448.284	31559.2
448.491	32790.03
448.697	34084.34
448.903	34559.47
449.11	34534.9
449.316	33715.71
449.522	35108.33
449.728	35380.71
449.935	35808.73
450.141	35657.18
450.347	36529.62
450.553	35501.54
450.76	35730.91
450.966	36675.02
451.172	36500.95
451.378	37250.5
451.584	36615.63
451.791	37531.08
451.997	37021.13
452.203	37641.67
452.409	37852.61
452.615	37774.78
452.821	36210.14
453.027	35798.49
453.233	37780.93
453.44	36312.53
453.646	36296.15
453.852	36818.38
454.058	37297.61
454.264	36081.11
454.47	36722.13
454.676	35804.64
454.882	37096.91
455.088	33873.4
455.294	34493.94
455.5	35001.83
455.705	35345.89
455.911	34031.1
456.117	33193.48
456.323	32947.72
456.529	30737.96
456.735	32181.78
456.941	31434.27
457.147	30912.04
457.352	29976.12
457.558	29871.67
457.764	29681.21
457.97	29181.51
458.176	28632.65
458.381	28321.36
458.587	27014.76
458.793	26750.57
458.999	25871.99
459.204	27623
459.41	27053.67
459.616	24938.12
459.821	25177.73
460.027	24737.41
460.233	24260.24
460.438	23127.71
460.644	23631.51
460.85	22283.95
461.055	22132.4
461.261	22124.21
461.466	20410.06
461.672	19873.49
461.878	21190.33
462.083	19838.67
462.289	19470.04
462.494	19068.64
462.7	18335.46
462.905	18020.08
463.111	18542.31
463.316	18663.14
463.522	18202.35
463.727	18157.29
463.932	17938.16
464.138	17889.01
464.343	18034.41
464.549	17608.44
464.754	18360.04
464.959	18058.99
465.165	17862.38
465.37	17215.23
465.575	16824.06
465.781	17295.1
465.986	17434.36
466.191	16989.95
466.397	16482.05
466.602	15552.27
466.807	16256.78
467.012	16344.84
467.218	16314.12
467.423	16137.99
467.628	16031.5
467.833	16848.64
468.038	15914.77
