Data from USB4F104151__196__11-10-02-026.txt Node

Date: Wed Mar 12 11:10:02 EDT 2025
User: louis
Spectrometer: USB4F10415
Trigger mode: 4
Integration Time (sec): 2.000000E-2
Scans to average: 1
Electric dark correction enabled: true
Nonlinearity correction enabled: false
Boxcar width: 0
XAxis mode: Wavelengths
Number of Pixels in Spectrum: 3648
>>>>>Begin Spectral Data<<<<<
178.204	-93.69
178.424	-93.69
178.644	-93.69
178.864	-144.89
179.084	-42.5
179.304	-5.63
179.524	-5.63
179.744	-3.58
179.964	2.56
180.184	20.99
180.404	-7.68
180.624	-54.78
180.844	27.14
181.064	6.66
181.283	2.56
181.503	14.85
181.723	2.56
181.943	-52.74
182.163	33.28
182.383	47.62
182.602	-46.59
182.822	64
183.042	29.18
183.262	-69.12
183.482	-46.59
183.701	70.14
183.921	2.56
184.141	-7.68
184.361	86.53
184.58	-19.97
184.8	-11.78
185.02	-9.73
185.239	68.09
185.459	8.7
185.679	-9.73
185.898	-110.08
186.118	27.14
186.338	68.09
186.557	49.66
186.777	39.42
186.997	23.04
187.216	8.7
187.436	6.66
187.655	10.75
187.875	-44.54
188.095	37.38
188.314	4.61
188.534	35.33
188.753	-15.87
188.973	10.75
189.192	-9.73
189.412	64
189.631	-13.82
189.851	51.71
190.07	35.33
190.29	-87.55
190.509	45.57
190.729	-13.82
190.948	33.28
191.168	76.29
191.387	49.66
191.607	37.38
191.826	-15.87
192.045	-24.06
192.265	45.57
192.484	31.23
192.704	-15.87
192.923	27.14
193.142	82.43
193.362	39.42
193.581	-22.02
193.8	18.94
194.02	4.61
194.239	-11.78
194.458	-46.59
194.678	14.85
194.897	33.28
195.116	-36.35
195.335	-30.21
195.555	6.66
195.774	-22.02
195.993	-26.11
196.212	12.8
196.432	-60.93
196.651	8.7
196.87	-54.78
197.089	23.04
197.308	23.04
197.528	68.09
197.747	-44.54
197.966	2.56
198.185	-17.92
198.404	-36.35
198.623	-1.54
198.842	-19.97
199.062	76.29
199.281	-26.11
199.5	-7.68
199.719	23.04
199.938	47.62
200.157	45.57
200.376	43.52
200.595	78.33
200.814	64
201.033	-50.69
201.252	14.85
201.471	82.43
201.69	14.85
201.909	-9.73
202.128	27.14
202.347	66.05
202.566	16.9
202.785	-26.11
203.004	-13.82
203.223	72.19
203.442	47.62
203.661	57.86
203.879	-28.16
204.098	-30.21
204.317	-79.36
204.536	41.47
204.755	41.47
204.974	-69.12
205.193	51.71
205.411	23.04
205.63	-1.54
205.849	-5.63
206.068	39.42
206.287	12.8
206.505	-17.92
206.724	47.62
206.943	-58.88
207.162	-24.06
207.381	29.18
207.599	-32.26
207.818	0.51
208.037	-13.82
208.255	-22.02
208.474	6.66
208.693	6.66
208.911	-7.68
209.13	-22.02
209.349	-17.92
209.567	-1.54
209.786	45.57
210.005	-30.21
210.223	-22.02
210.442	-11.78
210.661	-13.82
210.879	0.51
211.098	53.76
211.316	-9.73
211.535	70.14
211.753	37.38
211.972	4.61
212.191	31.23
212.409	27.14
212.628	-38.4
212.846	18.94
213.065	20.99
213.283	92.67
213.502	-67.07
213.72	64
213.938	-5.63
214.157	14.85
214.375	0.51
214.594	14.85
214.812	-56.83
215.031	-7.68
215.249	-1.54
215.467	8.7
215.686	-26.11
215.904	39.42
216.122	2.56
216.341	27.14
216.559	16.9
216.778	51.71
216.996	-5.63
217.214	-50.69
217.432	-32.26
217.651	-77.31
217.869	39.42
218.087	74.24
218.306	4.61
218.524	6.66
218.742	2.56
218.96	-32.26
219.179	-5.63
219.397	27.14
219.615	47.62
219.833	78.33
220.051	4.61
220.27	35.33
220.488	20.99
220.706	-1.54
220.924	12.8
221.142	27.14
221.36	35.33
221.578	-40.45
221.796	18.94
222.015	0.51
222.233	4.61
222.451	23.04
222.669	-15.87
222.887	96.77
223.105	-17.92
223.323	68.09
223.541	-19.97
223.759	29.18
223.977	-73.21
224.195	39.42
224.413	45.57
224.631	43.52
224.849	12.8
225.067	2.56
225.285	-1.54
225.503	23.04
225.721	0.51
225.939	64
226.157	14.85
226.375	100.86
226.592	-3.58
226.81	10.75
227.028	45.57
227.246	80.38
227.464	8.7
227.682	37.38
227.9	4.61
228.117	10.75
228.335	53.76
228.553	2.56
228.771	27.14
228.989	68.09
229.206	16.9
229.424	0.51
229.642	6.66
229.86	-13.82
230.077	23.04
230.295	-22.02
230.513	18.94
230.731	-44.54
230.948	12.8
231.166	55.81
231.384	-13.82
231.601	-36.35
231.819	-9.73
232.037	2.56
232.254	-22.02
232.472	12.8
232.689	10.75
232.907	2.56
233.125	-28.16
233.342	39.42
233.56	-44.54
233.777	35.33
233.995	-7.68
234.213	43.52
234.43	18.94
234.648	-26.11
234.865	2.56
235.083	29.18
235.3	14.85
235.518	-3.58
235.735	76.29
235.953	31.23
236.17	-30.21
236.388	-1.54
236.605	-17.92
236.822	39.42
237.04	23.04
237.257	23.04
237.475	-26.11
237.692	-73.21
237.909	-1.54
238.127	20.99
238.344	-24.06
238.562	39.42
238.779	10.75
238.996	-36.35
239.214	-1.54
239.431	41.47
239.648	6.66
239.865	55.81
240.083	20.99
240.3	-22.02
240.517	-15.87
240.735	39.42
240.952	31.23
241.169	-69.12
241.386	23.04
241.603	10.75
241.821	10.75
242.038	25.09
242.255	29.18
242.472	2.56
242.689	-19.97
242.907	-11.78
243.124	18.94
243.341	59.9
243.558	-3.58
243.775	-28.16
243.992	-15.87
244.209	45.57
244.426	33.28
244.643	27.14
244.86	27.14
245.078	-13.82
245.295	66.05
245.512	2.56
245.729	6.66
245.946	55.81
246.163	35.33
246.38	-52.74
246.597	20.99
246.814	29.18
247.031	-38.4
247.248	-3.58
247.464	78.33
247.681	29.18
247.898	100.86
248.115	84.48
248.332	-32.26
248.549	57.86
248.766	20.99
248.983	16.9
249.2	-67.07
249.417	20.99
249.633	6.66
249.85	10.75
250.067	115.2
250.284	18.94
250.501	78.33
250.717	-19.97
250.934	4.61
251.151	25.09
251.368	-46.59
251.585	20.99
251.801	0.51
252.018	-71.17
252.235	14.85
252.451	27.14
252.668	12.8
252.885	-9.73
253.102	14.85
253.318	104.96
253.535	-77.31
253.752	53.76
253.968	39.42
254.185	-11.78
254.401	-24.06
254.618	2.56
254.835	-17.92
255.051	-22.02
255.268	-65.02
255.484	-3.58
255.701	-17.92
255.917	2.56
256.134	-1.54
256.351	4.61
256.567	-5.63
256.784	-9.73
257	-73.21
257.217	61.95
257.433	29.18
257.65	70.14
257.866	-34.3
258.082	-40.45
258.299	64
258.515	23.04
258.732	0.51
258.948	92.67
259.165	45.57
259.381	61.95
259.597	-30.21
259.814	16.9
260.03	-5.63
260.246	-34.3
260.463	-15.87
260.679	-34.3
260.895	-22.02
261.112	25.09
261.328	49.66
261.544	16.9
261.761	43.52
261.977	-5.63
262.193	14.85
262.409	-17.92
262.626	-30.21
262.842	29.18
263.058	6.66
263.274	-73.21
263.49	35.33
263.707	-34.3
263.923	-1.54
264.139	-79.36
264.355	-38.4
264.571	2.56
264.787	-1.54
265.004	25.09
265.22	68.09
265.436	23.04
265.652	14.85
265.868	53.76
266.084	-46.59
266.3	-17.92
266.516	0.51
266.732	104.96
266.948	37.38
267.164	4.61
267.38	8.7
267.596	41.47
267.812	25.09
268.028	-28.16
268.244	23.04
268.46	-38.4
268.676	-38.4
268.892	2.56
269.108	18.94
269.324	41.47
269.54	-40.45
269.756	41.47
269.972	-30.21
270.188	-24.06
270.403	-24.06
270.619	-38.4
270.835	-9.73
271.051	47.62
271.267	2.56
271.483	-9.73
271.698	80.38
271.914	-19.97
272.13	-28.16
272.346	-22.02
272.562	72.19
272.777	64
272.993	27.14
273.209	39.42
273.425	6.66
273.64	-17.92
273.856	-24.06
274.072	18.94
274.287	41.47
274.503	-40.45
274.719	23.04
274.934	20.99
275.15	2.56
275.366	20.99
275.581	14.85
275.797	-22.02
276.012	-42.5
276.228	-9.73
276.444	8.7
276.659	25.09
276.875	-38.4
277.09	27.14
277.306	-9.73
277.521	25.09
277.737	-60.93
277.952	43.52
278.168	-30.21
278.383	16.9
278.599	-5.63
278.814	-24.06
279.03	-54.78
279.245	41.47
279.461	-32.26
279.676	-24.06
279.892	109.05
280.107	10.75
280.322	2.56
280.538	64
280.753	53.76
280.969	12.8
281.184	6.66
281.399	-13.82
281.615	4.61
281.83	10.75
282.045	-38.4
282.26	25.09
282.476	-26.11
282.691	41.47
282.906	55.81
283.122	-11.78
283.337	-58.88
283.552	74.24
283.767	-17.92
283.983	61.95
284.198	-17.92
284.413	35.33
284.628	51.71
284.843	-34.3
285.058	55.81
285.274	35.33
285.489	-15.87
285.704	47.62
285.919	-11.78
286.134	86.53
286.349	20.99
286.564	47.62
286.779	61.95
286.995	47.62
287.21	43.52
287.425	-60.93
287.64	27.14
287.855	-3.58
288.07	-34.3
288.285	12.8
288.5	-26.11
288.715	86.53
288.93	-44.54
289.145	-17.92
289.36	0.51
289.575	-24.06
289.79	64
290.004	27.14
290.219	-28.16
290.434	-67.07
290.649	-58.88
290.864	-13.82
291.079	-71.17
291.294	27.14
291.509	18.94
291.724	31.23
291.938	8.7
292.153	57.86
292.368	-17.92
292.583	31.23
292.798	80.38
293.012	-19.97
293.227	14.85
293.442	14.85
293.657	14.85
293.871	18.94
294.086	76.29
294.301	55.81
294.516	27.14
294.73	10.75
294.945	-50.69
295.16	6.66
295.374	27.14
295.589	0.51
295.804	45.57
296.018	-3.58
296.233	10.75
296.447	-19.97
296.662	-7.68
296.877	10.75
297.091	51.71
297.306	-11.78
297.52	14.85
297.735	2.56
297.949	33.28
298.164	-22.02
298.378	23.04
298.593	57.86
298.807	16.9
299.022	10.75
299.236	27.14
299.451	43.52
299.665	4.61
299.88	-11.78
300.094	16.9
300.309	72.19
300.523	-32.26
300.737	-17.92
300.952	53.76
301.166	39.42
301.381	-34.3
301.595	23.04
301.809	-3.58
302.024	-32.26
302.238	6.66
302.452	98.81
302.667	57.86
302.881	68.09
303.095	-15.87
303.309	12.8
303.524	12.8
303.738	23.04
303.952	-42.5
304.166	37.38
304.381	2.56
304.595	39.42
304.809	18.94
305.023	45.57
305.237	-9.73
305.452	76.29
305.666	78.33
305.88	43.52
306.094	47.62
306.308	31.23
306.522	68.09
306.736	4.61
306.95	49.66
307.164	-22.02
307.379	-69.12
307.593	4.61
307.807	14.85
308.021	98.81
308.235	37.38
308.449	-40.45
308.663	49.66
308.877	76.29
309.091	6.66
309.305	37.38
309.519	-62.98
309.733	-9.73
309.947	18.94
310.161	-26.11
310.374	25.09
310.588	33.28
310.802	-32.26
311.016	8.7
311.23	10.75
311.444	-54.78
311.658	-42.5
311.872	39.42
312.085	-13.82
312.299	10.75
312.513	-13.82
312.727	2.56
312.941	-17.92
313.154	23.04
313.368	20.99
313.582	64
313.796	4.61
314.009	2.56
314.223	74.24
314.437	33.28
314.651	76.29
314.864	-32.26
315.078	-36.35
315.292	43.52
315.505	31.23
315.719	111.1
315.933	23.04
316.146	-9.73
316.36	-69.12
316.573	35.33
316.787	-26.11
317.001	61.95
317.214	-46.59
317.428	78.33
317.641	-38.4
317.855	-9.73
318.068	39.42
318.282	35.33
318.495	33.28
318.709	12.8
318.922	6.66
319.136	72.19
319.349	0.51
319.563	4.61
319.776	39.42
319.99	18.94
320.203	20.99
320.417	66.05
320.63	18.94
320.843	33.28
321.057	-34.3
321.27	39.42
321.483	33.28
321.697	96.77
321.91	14.85
322.124	23.04
322.337	27.14
322.55	2.56
322.763	39.42
322.977	16.9
323.19	12.8
323.403	57.86
323.617	-1.54
323.83	4.61
324.043	-46.59
324.256	-9.73
324.469	18.94
324.683	35.33
324.896	47.62
325.109	61.95
325.322	-9.73
325.535	25.09
325.748	-24.06
325.962	4.61
326.175	8.7
326.388	16.9
326.601	-48.64
326.814	-26.11
327.027	-13.82
327.24	127.49
327.453	-36.35
327.666	14.85
327.879	29.18
328.092	72.19
328.305	37.38
328.518	-9.73
328.731	-26.11
328.944	-28.16
329.157	33.28
329.37	27.14
329.583	43.52
329.796	0.51
330.009	-24.06
330.222	-13.82
330.435	39.42
330.648	64
330.861	-24.06
331.073	47.62
331.286	16.9
331.499	25.09
331.712	12.8
331.925	49.66
332.138	27.14
332.35	53.76
332.563	16.9
332.776	98.81
332.989	10.75
333.202	16.9
333.414	92.67
333.627	6.66
333.84	6.66
334.053	72.19
334.265	20.99
334.478	-3.58
334.691	14.85
334.903	-15.87
335.116	-34.3
335.329	-1.54
335.541	16.9
335.754	49.66
335.966	-1.54
336.179	-7.68
336.392	8.7
336.604	-3.58
336.817	18.94
337.029	2.56
337.242	74.24
337.454	23.04
337.667	-30.21
337.88	-5.63
338.092	25.09
338.305	-54.78
338.517	-3.58
338.729	37.38
338.942	10.75
339.154	12.8
339.367	45.57
339.579	-42.5
339.792	-40.45
340.004	-1.54
340.217	18.94
340.429	90.62
340.641	-15.87
340.854	4.61
341.066	-11.78
341.278	-26.11
341.491	64
341.703	-19.97
341.915	-3.58
342.128	35.33
342.34	-11.78
342.552	39.42
342.764	-1.54
342.977	10.75
343.189	-62.98
343.401	10.75
343.613	2.56
343.826	-3.58
344.038	-1.54
344.25	4.61
344.462	4.61
344.674	-5.63
344.886	-13.82
345.099	-38.4
345.311	-11.78
345.523	-3.58
345.735	-42.5
345.947	68.09
346.159	8.7
346.371	0.51
346.583	-1.54
346.795	74.24
347.007	-26.11
347.219	100.86
347.431	4.61
347.643	8.7
347.855	-1.54
348.067	-46.59
348.279	-46.59
348.491	-5.63
348.703	-3.58
348.915	10.75
349.127	-38.4
349.339	-19.97
349.551	-34.3
349.763	20.99
349.975	-93.69
350.187	74.24
350.399	39.42
350.61	31.23
350.822	-26.11
351.034	-9.73
351.246	16.9
351.458	49.66
351.669	4.61
351.881	64
352.093	78.33
352.305	31.23
352.517	4.61
352.728	-65.02
352.94	-56.83
353.152	-9.73
353.363	-36.35
353.575	-36.35
353.787	-62.98
353.999	-19.97
354.21	102.91
354.422	-26.11
354.633	4.61
354.845	8.7
355.057	18.94
355.268	-17.92
355.48	51.71
355.692	12.8
355.903	23.04
356.115	18.94
356.326	-24.06
356.538	57.86
356.749	29.18
356.961	53.76
357.172	-9.73
357.384	6.66
357.595	33.28
357.807	57.86
358.018	0.51
358.23	35.33
358.441	64
358.653	12.8
358.864	20.99
359.075	23.04
359.287	-32.26
359.498	31.23
359.709	33.28
359.921	12.8
360.132	-3.58
360.344	6.66
360.555	23.04
360.766	84.48
360.977	-15.87
361.189	25.09
361.4	-30.21
361.611	98.81
361.823	55.81
362.034	27.14
362.245	47.62
362.456	72.19
362.667	66.05
362.879	33.28
363.09	-32.26
363.301	-5.63
363.512	23.04
363.723	76.29
363.935	-81.41
364.146	2.56
364.357	43.52
364.568	-50.69
364.779	29.18
364.99	23.04
365.201	-54.78
365.412	-32.26
365.623	-19.97
365.834	0.51
366.045	-5.63
366.256	49.66
366.467	82.43
366.678	-15.87
366.889	-42.5
367.1	-5.63
367.311	14.85
367.522	-22.02
367.733	55.81
367.944	-3.58
368.155	-1.54
368.366	6.66
368.577	-13.82
368.788	-7.68
368.999	-7.68
369.209	-26.11
369.42	16.9
369.631	84.48
369.842	-34.3
370.053	-11.78
370.264	121.34
370.474	76.29
370.685	51.71
370.896	-5.63
371.107	6.66
371.317	72.19
371.528	-71.17
371.739	-3.58
371.95	25.09
372.16	74.24
372.371	47.62
372.582	29.18
372.792	37.38
373.003	18.94
373.214	-28.16
373.424	8.7
373.635	2.56
373.846	35.33
374.056	-17.92
374.267	31.23
374.477	64
374.688	-9.73
374.898	-11.78
375.109	-13.82
375.319	-13.82
375.53	-11.78
375.74	64
375.951	29.18
376.161	2.56
376.372	10.75
376.582	0.51
376.793	12.8
377.003	33.28
377.214	35.33
377.424	61.95
377.635	6.66
377.845	12.8
378.055	31.23
378.266	41.47
378.476	31.23
378.686	23.04
378.897	92.67
379.107	-15.87
379.317	47.62
379.528	18.94
379.738	-1.54
379.948	33.28
380.158	6.66
380.369	92.67
380.579	33.28
380.789	8.7
380.999	150.01
381.21	6.66
381.42	35.33
381.63	10.75
381.84	14.85
382.05	37.38
382.261	23.04
382.471	47.62
382.681	8.7
382.891	47.62
383.101	43.52
383.311	27.14
383.521	-73.21
383.731	-46.59
383.941	25.09
384.151	-30.21
384.361	29.18
384.571	-32.26
384.781	43.52
384.991	20.99
385.201	-1.54
385.411	-42.5
385.621	23.04
385.831	18.94
386.041	104.96
386.251	43.52
386.461	18.94
386.671	59.9
386.881	29.18
387.091	23.04
387.301	49.66
387.511	20.99
387.72	-19.97
387.93	53.76
388.14	-3.58
388.35	2.56
388.56	23.04
388.769	61.95
388.979	2.56
389.189	-42.5
389.399	-75.26
389.609	10.75
389.818	70.14
390.028	2.56
390.238	18.94
390.447	-7.68
390.657	27.14
390.867	-52.74
391.076	16.9
391.286	88.57
391.496	-15.87
391.705	-13.82
391.915	20.99
392.125	64
392.334	35.33
392.544	-3.58
392.753	41.47
392.963	14.85
393.172	10.75
393.382	-48.64
393.591	-9.73
393.801	-3.58
394.01	2.56
394.22	6.66
394.429	-99.84
394.639	-11.78
394.848	39.42
395.058	-13.82
395.267	53.76
395.477	18.94
395.686	25.09
395.895	4.61
396.105	12.8
396.314	41.47
396.524	31.23
396.733	14.85
396.942	57.86
397.152	53.76
397.361	80.38
397.57	61.95
397.78	113.15
397.989	61.95
398.198	43.52
398.407	12.8
398.617	45.57
398.826	8.7
399.035	-17.92
399.244	51.71
399.453	2.56
399.663	23.04
399.872	72.19
400.081	31.23
400.29	43.52
400.499	59.9
400.708	37.38
400.917	88.57
401.127	25.09
401.336	20.99
401.545	70.14
401.754	31.23
401.963	18.94
402.172	25.09
402.381	70.14
402.59	84.48
402.799	-3.58
403.008	37.38
403.217	80.38
403.426	-34.3
403.635	31.23
403.844	8.7
404.053	80.38
404.262	94.72
404.471	57.86
404.68	20.99
404.888	68.09
405.097	86.53
405.306	41.47
405.515	-9.73
405.724	18.94
405.933	53.76
406.142	86.53
406.35	76.29
406.559	121.34
406.768	76.29
406.977	96.77
407.185	78.33
407.394	35.33
407.603	59.9
407.812	35.33
408.02	-1.54
408.229	0.51
408.438	86.53
408.646	78.33
408.855	49.66
409.064	90.62
409.272	76.29
409.481	84.48
409.69	104.96
409.898	84.48
410.107	74.24
410.315	92.67
410.524	119.29
410.733	41.47
410.941	80.38
411.15	129.53
411.358	59.9
411.567	160.25
411.775	96.77
411.984	80.38
412.192	117.25
412.401	158.21
412.609	158.21
412.818	143.87
413.026	162.3
413.234	166.4
413.443	98.81
413.651	96.77
413.86	197.12
414.068	199.16
414.276	211.45
414.485	158.21
414.693	168.45
414.901	303.61
415.11	176.64
415.318	205.31
415.526	197.12
415.734	211.45
415.943	195.07
416.151	268.8
416.359	166.4
416.567	186.88
416.776	238.08
416.984	305.66
417.192	389.63
417.4	262.65
417.608	244.22
417.817	301.56
418.025	344.57
418.233	360.95
418.441	393.72
418.649	393.72
418.857	410.11
419.065	420.35
419.273	424.44
419.481	336.38
419.689	487.93
419.897	416.25
420.105	403.96
420.313	463.35
420.521	479.74
420.729	471.54
420.937	489.98
421.145	588.28
421.353	532.98
421.561	600.57
421.769	580.09
421.977	682.49
422.185	621.05
422.393	610.81
422.601	676.34
422.809	707.06
423.017	737.78
423.224	696.82
423.432	735.73
423.64	741.88
423.848	897.52
424.056	758.26
424.263	827.89
424.471	846.32
424.679	920.05
424.887	866.8
425.094	1067.5
425.302	1001.97
425.51	905.71
425.718	942.58
425.925	958.96
426.133	1079.79
426.341	1182.19
426.548	1208.81
426.756	1174
426.964	1235.44
427.171	1296.88
427.379	1317.36
427.586	1348.08
427.794	1317.36
428.001	1507.82
428.209	1407.47
428.417	1526.25
428.624	1509.86
428.832	1634.79
429.039	1513.96
429.247	1657.32
429.454	1737.19
429.662	1812.96
429.869	1685.99
430.076	1812.96
430.284	1901.03
430.491	1825.25
430.699	1974.75
430.906	1888.74
431.114	2064.86
431.321	2058.72
431.528	2075.1
431.736	2206.17
431.943	2304.48
432.15	2216.41
432.358	2224.61
432.565	2390.49
432.772	2410.97
432.979	2523.61
433.187	2519.51
433.394	2552.28
433.601	2683.35
433.808	2689.49
434.016	2683.35
434.223	2800.09
434.43	3004.88
434.637	2943.44
434.844	3101.14
435.052	3279.31
435.259	3099.09
435.466	3156.43
435.673	3275.21
435.88	3381.71
436.087	3566.03
436.294	3672.52
436.501	3369.42
436.708	3480.01
436.915	3606.98
437.122	3774.92
437.329	3709.38
437.537	3776.97
437.743	3957.19
437.95	4000.19
438.157	4098.5
438.364	4311.49
438.571	4356.54
438.778	4245.95
438.985	4628.92
439.192	4495.8
439.399	4819.38
439.606	4721.08
439.813	4731.32
440.02	5097.91
440.227	5161.39
440.433	4940.21
440.64	5083.57
440.847	4946.36
441.054	5249.46
441.261	5589.42
441.467	5519.79
441.674	5708.2
441.881	5808.55
442.088	5829.03
442.294	5724.58
442.501	5908.9
442.708	6076.84
442.914	6195.62
443.121	6472.09
443.328	6572.44
443.534	6764.95
443.741	6623.64
443.948	6468
444.154	7104.92
444.361	6998.42
444.568	7084.44
444.774	7018.9
444.981	6947.22
445.187	7244.18
445.394	7514.51
445.6	7600.52
445.807	8268.16
446.013	7707.02
446.22	7866.76
446.426	8245.63
446.633	8464.77
446.839	8567.17
447.046	8231.3
447.252	8751.48
447.459	8708.48
447.665	8677.76
447.871	9048.44
448.078	9255.28
448.284	9277.81
448.491	9376.11
448.697	9603.44
448.903	9754.99
449.11	9738.6
449.316	9591.15
449.522	9718.12
449.728	9992.55
449.935	10140.01
450.141	10097
450.347	10492.26
450.553	10115.43
450.76	10109.29
450.966	10525.02
451.172	10482.02
451.378	10625.37
451.584	10266.98
451.791	10744.16
451.997	10711.39
452.203	10879.32
452.409	10717.53
452.615	10590.56
452.821	10312.03
453.027	10193.25
453.233	10762.59
453.44	10209.64
453.646	10320.23
453.852	10467.68
454.058	10662.24
454.264	10275.17
454.47	10488.16
454.676	10135.91
454.882	10445.15
455.088	9648.49
455.294	9845.1
455.5	9873.77
455.705	9953.64
455.911	9740.65
456.117	9433.46
456.323	9214.32
456.529	8872.31
456.735	9329.01
456.941	8964.47
457.147	8659.32
457.352	8518.01
457.558	8425.86
457.764	8331.65
457.97	8374.66
458.176	8112.52
458.381	8118.66
458.587	7747.98
458.793	7709.07
458.999	7393.68
459.204	7877
459.41	7649.68
459.616	7205.27
459.821	6916.5
460.027	7033.24
460.233	6912.41
460.438	6584.73
460.644	6717.85
460.85	6248.86
461.055	6336.93
461.261	6341.02
461.466	5796.26
461.672	5478.83
461.878	6015.4
462.083	5704.1
462.289	5491.12
462.494	5538.22
462.7	5222.83
462.905	5312.94
463.111	5261.74
463.316	5370.29
463.522	5095.86
463.727	5155.25
463.932	5231.02
464.138	5091.76
464.343	5145.01
464.549	4991.41
464.754	5282.22
464.959	5214.64
465.165	5015.99
465.37	4794.81
465.575	4676.02
465.781	4991.41
465.986	4991.41
466.191	4901.3
466.397	4583.87
466.602	4497.85
466.807	4608.44
467.012	4624.83
467.218	4544.95
467.423	4530.62
467.628	4757.94
467.833	4878.77
468.038	4716.98
468.244	4424.12
468.449	4704.7
468.654	4565.43
468.859	4596.15
469.064	4364.73
469.269	4227.52
469.474	4323.77
469.679	4446.65
469.885	4362.69
470.09	4315.58
470.295	4405.69
470.5	4186.56
470.705	4270.53
