Data from USB4F104151__204__11-10-15-198.txt Node

Date: Wed Mar 12 11:10:15 EDT 2025
User: louis
Spectrometer: USB4F10415
Trigger mode: 4
Integration Time (sec): 2.000000E-2
Scans to average: 1
Electric dark correction enabled: true
Nonlinearity correction enabled: false
Boxcar width: 0
XAxis mode: Wavelengths
Number of Pixels in Spectrum: 3648
>>>>>Begin Spectral Data<<<<<
178.204	-68.09
178.424	-68.09
178.644	-68.09
178.864	-74.24
179.084	-96.77
179.304	-2.56
179.524	26.11
179.744	-4.61
179.964	22.02
180.184	-43.52
180.404	32.26
180.624	-16.9
180.844	3.58
181.064	1.54
181.283	-6.66
181.503	-29.18
181.723	17.92
181.943	-6.66
182.163	19.97
182.383	38.4
182.602	42.5
182.822	22.02
183.042	44.54
183.262	77.31
183.482	-14.85
183.701	-6.66
183.921	13.82
184.141	-10.75
184.361	-16.9
184.58	36.35
184.8	71.17
185.02	54.78
185.239	11.78
185.459	11.78
185.679	24.06
185.898	-27.14
186.118	91.65
186.338	46.59
186.557	105.98
186.777	13.82
186.997	36.35
187.216	36.35
187.436	67.07
187.655	1.54
187.875	46.59
188.095	42.5
188.314	48.64
188.534	-6.66
188.753	93.69
188.973	5.63
189.192	144.89
189.412	-8.7
189.631	17.92
189.851	38.4
190.07	22.02
190.29	75.26
190.509	24.06
190.729	62.98
190.948	-20.99
191.168	93.69
191.387	54.78
191.607	36.35
191.826	85.5
192.045	38.4
192.265	-0.51
192.484	-0.51
192.704	103.93
192.923	38.4
193.142	22.02
193.362	77.31
193.581	110.08
193.8	13.82
194.02	26.11
194.239	132.61
194.458	19.97
194.678	5.63
194.897	34.3
195.116	99.84
195.335	-18.94
195.555	24.06
195.774	40.45
195.993	101.89
196.212	-2.56
196.432	79.36
196.651	58.88
196.87	-37.38
197.089	99.84
197.308	48.64
197.528	73.21
197.747	52.74
197.966	83.45
198.185	-20.99
198.404	40.45
198.623	-23.04
198.842	58.88
199.062	75.26
199.281	62.98
199.5	71.17
199.719	73.21
199.938	48.64
200.157	38.4
200.376	-10.75
200.595	69.12
200.814	46.59
201.033	81.41
201.252	46.59
201.471	46.59
201.69	69.12
201.909	26.11
202.128	48.64
202.347	46.59
202.566	28.16
202.785	-33.28
203.004	-23.04
203.223	83.45
203.442	54.78
203.661	7.68
203.879	36.35
204.098	-18.94
204.317	26.11
204.536	114.17
204.755	-0.51
204.974	65.02
205.193	36.35
205.411	105.98
205.63	1.54
205.849	79.36
206.068	93.69
206.287	58.88
206.505	32.26
206.724	19.97
206.943	60.93
207.162	77.31
207.381	-10.75
207.599	69.12
207.818	17.92
208.037	24.06
208.255	89.6
208.474	-14.85
208.693	54.78
208.911	103.93
209.13	114.17
209.349	69.12
209.567	75.26
209.786	34.3
210.005	87.55
210.223	34.3
210.442	-2.56
210.661	24.06
210.879	15.87
211.098	11.78
211.316	97.79
211.535	54.78
211.753	40.45
211.972	28.16
212.191	42.5
212.409	-35.33
212.628	38.4
212.846	50.69
213.065	11.78
213.283	99.84
213.502	11.78
213.72	77.31
213.938	108.03
214.157	5.63
214.375	81.41
214.594	58.88
214.812	48.64
215.031	9.73
215.249	42.5
215.467	54.78
215.686	69.12
215.904	71.17
216.122	62.98
216.341	26.11
216.559	-14.85
216.778	58.88
216.996	32.26
217.214	38.4
217.432	28.16
217.651	7.68
217.869	-49.66
218.087	-8.7
218.306	116.22
218.524	116.22
218.742	-39.42
218.96	26.11
219.179	91.65
219.397	40.45
219.615	36.35
219.833	54.78
220.051	11.78
220.27	56.83
220.488	17.92
220.706	-12.8
220.924	48.64
221.142	-2.56
221.36	-2.56
221.578	52.74
221.796	81.41
222.015	3.58
222.233	-8.7
222.451	99.84
222.669	22.02
222.887	81.41
223.105	48.64
223.323	9.73
223.541	75.26
223.759	13.82
223.977	99.84
224.195	9.73
224.413	151.04
224.631	60.93
224.849	128.51
225.067	54.78
225.285	32.26
225.503	26.11
225.721	1.54
225.939	15.87
226.157	-31.23
226.375	89.6
226.592	-14.85
226.81	69.12
227.028	87.55
227.246	95.74
227.464	22.02
227.682	67.07
227.9	-2.56
228.117	79.36
228.335	5.63
228.553	58.88
228.771	32.26
228.989	19.97
229.206	32.26
229.424	58.88
229.642	-12.8
229.86	30.21
230.077	9.73
230.295	101.89
230.513	67.07
230.731	40.45
230.948	85.5
231.166	91.65
231.384	34.3
231.601	65.02
231.819	97.79
232.037	-51.71
232.254	36.35
232.472	-23.04
232.689	34.3
232.907	99.84
233.125	32.26
233.342	15.87
233.56	46.59
233.777	24.06
233.995	32.26
234.213	58.88
234.43	3.58
234.648	26.11
234.865	-51.71
235.083	17.92
235.3	-10.75
235.518	30.21
235.735	73.21
235.953	67.07
236.17	26.11
236.388	-4.61
236.605	89.6
236.822	73.21
237.04	60.93
237.257	81.41
237.475	67.07
237.692	17.92
237.909	79.36
238.127	69.12
238.344	48.64
238.562	24.06
238.779	17.92
238.996	-12.8
239.214	36.35
239.431	67.07
239.648	50.69
239.865	46.59
240.083	52.74
240.3	15.87
240.517	32.26
240.735	112.13
240.952	62.98
241.169	122.37
241.386	79.36
241.603	32.26
241.821	11.78
242.038	5.63
242.255	46.59
242.472	38.4
242.689	54.78
242.907	32.26
243.124	9.73
243.341	75.26
243.558	54.78
243.775	17.92
243.992	19.97
244.209	116.22
244.426	34.3
244.643	50.69
244.86	87.55
245.078	32.26
245.295	65.02
245.512	79.36
245.729	54.78
245.946	32.26
246.163	81.41
246.38	28.16
246.597	36.35
246.814	75.26
247.031	105.98
247.248	7.68
247.464	34.3
247.681	-10.75
247.898	17.92
248.115	56.83
248.332	17.92
248.549	46.59
248.766	101.89
248.983	67.07
249.2	7.68
249.417	-14.85
249.633	-16.9
249.85	-12.8
250.067	-8.7
250.284	-0.51
250.501	79.36
250.717	15.87
250.934	71.17
251.151	3.58
251.368	3.58
251.585	54.78
251.801	40.45
252.018	-12.8
252.235	52.74
252.451	13.82
252.668	73.21
252.885	75.26
253.102	-10.75
253.318	73.21
253.535	-10.75
253.752	75.26
253.968	60.93
254.185	67.07
254.401	60.93
254.618	71.17
254.835	-57.86
255.051	30.21
255.268	50.69
255.484	130.56
255.701	54.78
255.917	118.27
256.134	9.73
256.351	-12.8
256.567	-14.85
256.784	-6.66
257	-2.56
257.217	83.45
257.433	67.07
257.65	71.17
257.866	5.63
258.082	-18.94
258.299	17.92
258.515	17.92
258.732	77.31
258.948	30.21
259.165	97.79
259.381	112.13
259.597	77.31
259.814	-10.75
260.03	22.02
260.246	-41.47
260.463	28.16
260.679	50.69
260.895	-6.66
261.112	75.26
261.328	71.17
261.544	-6.66
261.761	46.59
261.977	-14.85
262.193	28.16
262.409	52.74
262.626	62.98
262.842	81.41
263.058	-57.86
263.274	67.07
263.49	52.74
263.707	38.4
263.923	60.93
264.139	44.54
264.355	38.4
264.571	7.68
264.787	15.87
265.004	101.89
265.22	65.02
265.436	48.64
265.652	58.88
265.868	73.21
266.084	-6.66
266.3	79.36
266.516	-33.28
266.732	83.45
266.948	44.54
267.164	54.78
267.38	28.16
267.596	17.92
267.812	28.16
268.028	52.74
268.244	1.54
268.46	-0.51
268.676	42.5
268.892	26.11
269.108	75.26
269.324	7.68
269.54	13.82
269.756	105.98
269.972	62.98
270.188	-33.28
270.403	-2.56
270.619	50.69
270.835	38.4
271.051	15.87
271.267	34.3
271.483	42.5
271.698	-6.66
271.914	83.45
272.13	-6.66
272.346	34.3
272.562	-2.56
272.777	22.02
272.993	52.74
273.209	56.83
273.425	56.83
273.64	-0.51
273.856	48.64
274.072	105.98
274.287	13.82
274.503	75.26
274.719	46.59
274.934	56.83
275.15	62.98
275.366	50.69
275.581	32.26
275.797	38.4
276.012	-2.56
276.228	85.5
276.444	38.4
276.659	67.07
276.875	-6.66
277.09	15.87
277.306	44.54
277.521	26.11
277.737	87.55
277.952	58.88
278.168	46.59
278.383	48.64
278.599	75.26
278.814	69.12
279.03	46.59
279.245	62.98
279.461	112.13
279.676	108.03
279.892	105.98
280.107	62.98
280.322	50.69
280.538	34.3
280.753	62.98
280.969	89.6
281.184	11.78
281.399	-10.75
281.615	97.79
281.83	54.78
282.045	62.98
282.26	34.3
282.476	-8.7
282.691	128.51
282.906	38.4
283.122	42.5
283.337	26.11
283.552	34.3
283.767	73.21
283.983	34.3
284.198	3.58
284.413	30.21
284.628	24.06
284.843	73.21
285.058	19.97
285.274	-8.7
285.489	-27.14
285.704	71.17
285.919	48.64
286.134	7.68
286.349	77.31
286.564	42.5
286.779	30.21
286.995	24.06
287.21	-18.94
287.425	11.78
287.64	32.26
287.855	114.17
288.07	11.78
288.285	91.65
288.5	-18.94
288.715	148.99
288.93	128.51
289.145	1.54
289.36	89.6
289.575	93.69
289.79	71.17
290.004	-10.75
290.219	42.5
290.434	-16.9
290.649	3.58
290.864	62.98
291.079	-10.75
291.294	42.5
291.509	79.36
291.724	24.06
291.938	69.12
292.153	85.5
292.368	151.04
292.583	58.88
292.798	83.45
293.012	73.21
293.227	60.93
293.442	26.11
293.657	112.13
293.871	77.31
294.086	3.58
294.301	69.12
294.516	89.6
294.73	103.93
294.945	65.02
295.16	89.6
295.374	126.46
295.589	73.21
295.804	65.02
296.018	89.6
296.233	105.98
296.447	32.26
296.662	-10.75
296.877	5.63
297.091	62.98
297.306	17.92
297.52	-25.09
297.735	50.69
297.949	91.65
298.164	26.11
298.378	58.88
298.593	40.45
298.807	108.03
299.022	38.4
299.236	17.92
299.451	11.78
299.665	65.02
299.88	15.87
300.094	42.5
300.309	73.21
300.523	79.36
300.737	60.93
300.952	87.55
301.166	15.87
301.381	-4.61
301.595	54.78
301.809	13.82
302.024	15.87
302.238	85.5
302.452	52.74
302.667	105.98
302.881	99.84
303.095	-0.51
303.309	108.03
303.524	58.88
303.738	28.16
303.952	5.63
304.166	9.73
304.381	46.59
304.595	28.16
304.809	40.45
305.023	54.78
305.237	60.93
305.452	87.55
305.666	44.54
305.88	91.65
306.094	108.03
306.308	-8.7
306.522	52.74
306.736	60.93
306.95	77.31
307.164	44.54
307.379	69.12
307.593	7.68
307.807	52.74
308.021	77.31
308.235	-18.94
308.449	7.68
308.663	46.59
308.877	73.21
309.091	28.16
309.305	-12.8
309.519	36.35
309.733	99.84
309.947	3.58
310.161	69.12
310.374	-12.8
310.588	93.69
310.802	17.92
311.016	9.73
311.23	95.74
311.444	1.54
311.658	-23.04
311.872	-8.7
312.085	30.21
312.299	93.69
312.513	52.74
312.727	-64
312.941	58.88
313.154	65.02
313.368	44.54
313.582	60.93
313.796	28.16
314.009	67.07
314.223	87.55
314.437	-6.66
314.651	-0.51
314.864	28.16
315.078	69.12
315.292	48.64
315.505	9.73
315.719	26.11
315.933	46.59
316.146	3.58
316.36	13.82
316.573	130.56
316.787	42.5
317.001	65.02
317.214	-2.56
317.428	108.03
317.641	38.4
317.855	60.93
318.068	26.11
318.282	19.97
318.495	17.92
318.709	69.12
318.922	85.5
319.136	151.04
319.349	46.59
319.563	36.35
319.776	-2.56
319.99	101.89
320.203	52.74
320.417	50.69
320.63	67.07
320.843	28.16
321.057	52.74
321.27	97.79
321.483	44.54
321.697	103.93
321.91	128.51
322.124	5.63
322.337	-0.51
322.55	-29.18
322.763	5.63
322.977	75.26
323.19	9.73
323.403	42.5
323.617	-51.71
323.83	81.41
324.043	1.54
324.256	60.93
324.469	-0.51
324.683	3.58
324.896	-14.85
325.109	34.3
325.322	-2.56
325.535	52.74
325.748	97.79
325.962	34.3
326.175	77.31
326.388	48.64
326.601	-29.18
326.814	67.07
327.027	110.08
327.24	136.7
327.453	65.02
327.666	22.02
327.879	50.69
328.092	73.21
328.305	69.12
328.518	95.74
328.731	46.59
328.944	32.26
329.157	48.64
329.37	7.68
329.583	97.79
329.796	116.22
330.009	71.17
330.222	28.16
330.435	116.22
330.648	3.58
330.861	-0.51
331.073	54.78
331.286	79.36
331.499	58.88
331.712	11.78
331.925	36.35
332.138	15.87
332.35	9.73
332.563	99.84
332.776	50.69
332.989	22.02
333.202	44.54
333.414	112.13
333.627	75.26
333.84	157.18
334.053	79.36
334.265	42.5
334.478	9.73
334.691	65.02
334.903	42.5
335.116	26.11
335.329	50.69
335.541	15.87
335.754	103.93
335.966	71.17
336.179	13.82
336.392	62.98
336.604	48.64
336.817	40.45
337.029	114.17
337.242	146.94
337.454	48.64
337.667	-8.7
337.88	24.06
338.092	-14.85
338.305	83.45
338.517	56.83
338.729	75.26
338.942	26.11
339.154	38.4
339.367	26.11
339.579	79.36
339.792	13.82
340.004	118.27
340.217	103.93
340.429	91.65
340.641	87.55
340.854	52.74
341.066	26.11
341.278	30.21
341.491	-35.33
341.703	128.51
341.915	7.68
342.128	62.98
342.34	22.02
342.552	26.11
342.764	-8.7
342.977	58.88
343.189	62.98
343.401	73.21
343.613	62.98
343.826	30.21
344.038	52.74
344.25	56.83
344.462	75.26
344.674	83.45
344.886	40.45
345.099	148.99
345.311	42.5
345.523	42.5
345.735	-43.52
345.947	-2.56
346.159	7.68
346.371	40.45
346.583	9.73
346.795	28.16
347.007	30.21
347.219	26.11
347.431	28.16
347.643	69.12
347.855	124.41
348.067	165.37
348.279	24.06
348.491	77.31
348.703	40.45
348.915	134.65
349.127	24.06
349.339	52.74
349.551	124.41
349.763	89.6
349.975	48.64
350.187	89.6
350.399	177.66
350.61	32.26
350.822	110.08
351.034	83.45
351.246	48.64
351.458	62.98
351.669	73.21
351.881	60.93
352.093	22.02
352.305	67.07
352.517	101.89
352.728	118.27
352.94	-0.51
353.152	34.3
353.363	58.88
353.575	67.07
353.787	93.69
353.999	32.26
354.21	157.18
354.422	38.4
354.633	11.78
354.845	69.12
355.057	67.07
355.268	-23.04
355.48	108.03
355.692	22.02
355.903	19.97
356.115	77.31
356.326	13.82
356.538	46.59
356.749	103.93
356.961	56.83
357.172	62.98
357.384	91.65
357.595	87.55
357.807	38.4
358.018	52.74
358.23	116.22
358.441	58.88
358.653	108.03
358.864	87.55
359.075	50.69
359.287	48.64
359.498	75.26
359.709	42.5
359.921	99.84
360.132	5.63
360.344	65.02
360.555	11.78
360.766	85.5
360.977	120.32
361.189	69.12
361.4	28.16
361.611	81.41
361.823	95.74
362.034	91.65
362.245	52.74
362.456	46.59
362.667	97.79
362.879	48.64
363.09	126.46
363.301	71.17
363.512	99.84
363.723	128.51
363.935	9.73
364.146	26.11
364.357	71.17
364.568	77.31
364.779	13.82
364.99	148.99
365.201	163.33
365.412	97.79
365.623	38.4
365.834	93.69
366.045	101.89
366.256	79.36
366.467	56.83
366.678	30.21
366.889	87.55
367.1	52.74
367.311	58.88
367.522	83.45
367.733	95.74
367.944	44.54
368.155	87.55
368.366	101.89
368.577	105.98
368.788	103.93
368.999	44.54
369.209	144.89
369.42	46.59
369.631	87.55
369.842	22.02
370.053	83.45
370.264	110.08
370.474	93.69
370.685	52.74
370.896	52.74
371.107	52.74
371.317	65.02
371.528	44.54
371.739	1.54
371.95	99.84
372.16	62.98
372.371	54.78
372.582	48.64
372.792	32.26
373.003	50.69
373.214	54.78
373.424	130.56
373.635	44.54
373.846	153.09
374.056	30.21
374.267	36.35
374.477	69.12
374.688	112.13
374.898	46.59
375.109	116.22
375.319	83.45
375.53	17.92
375.74	101.89
375.951	17.92
376.161	103.93
376.372	65.02
376.582	34.3
376.793	112.13
377.003	52.74
377.214	48.64
377.424	73.21
377.635	38.4
377.845	11.78
378.055	140.8
378.266	13.82
378.476	50.69
378.686	103.93
378.897	46.59
379.107	36.35
379.317	91.65
379.528	-10.75
379.738	34.3
379.948	60.93
380.158	44.54
380.369	99.84
380.579	140.8
380.789	132.61
380.999	81.41
381.21	83.45
381.42	69.12
381.63	24.06
381.84	124.41
382.05	52.74
382.261	108.03
382.471	62.98
382.681	56.83
382.891	89.6
383.101	54.78
383.311	50.69
383.521	22.02
383.731	122.37
383.941	103.93
384.151	79.36
384.361	91.65
384.571	34.3
384.781	130.56
384.991	54.78
385.201	56.83
385.411	48.64
385.621	110.08
385.831	34.3
386.041	65.02
386.251	128.51
386.461	155.13
386.671	124.41
386.881	56.83
387.091	5.63
387.301	75.26
387.511	128.51
387.72	93.69
387.93	79.36
388.14	22.02
388.35	58.88
388.56	110.08
388.769	62.98
388.979	140.8
389.189	7.68
389.399	34.3
389.609	71.17
389.818	138.75
390.028	95.74
390.238	-8.7
390.447	83.45
390.657	69.12
390.867	95.74
391.076	73.21
391.286	112.13
391.496	71.17
391.705	97.79
391.915	48.64
392.125	81.41
392.334	177.66
392.544	91.65
392.753	151.04
392.963	75.26
393.172	89.6
393.382	77.31
393.591	163.33
393.801	118.27
394.01	216.57
394.22	46.59
394.429	136.7
394.639	87.55
394.848	62.98
395.058	48.64
395.267	95.74
395.477	155.13
395.686	97.79
395.895	165.37
396.105	163.33
396.314	142.85
396.524	93.69
396.733	130.56
396.942	58.88
397.152	93.69
397.361	108.03
397.57	81.41
397.78	105.98
397.989	91.65
398.198	163.33
398.407	185.85
398.617	101.89
398.826	103.93
399.035	50.69
399.244	101.89
399.453	87.55
399.663	52.74
399.872	54.78
400.081	19.97
400.29	185.85
400.499	95.74
400.708	138.75
400.917	128.51
401.127	136.7
401.336	130.56
401.545	85.5
401.754	220.67
401.963	93.69
402.172	136.7
402.381	116.22
402.59	148.99
402.799	214.52
403.008	163.33
403.217	155.13
403.426	218.62
403.635	163.33
403.844	171.52
404.053	138.75
404.262	130.56
404.471	151.04
404.68	255.48
404.888	142.85
405.097	273.92
405.306	153.09
405.515	196.09
405.724	144.89
405.933	251.39
406.142	185.85
406.35	161.28
406.559	255.48
406.768	208.38
406.977	243.2
407.185	218.62
407.394	214.52
407.603	230.91
407.812	300.54
408.02	216.57
408.229	273.92
408.438	222.72
408.646	243.2
408.855	232.96
409.064	261.63
409.272	316.92
409.481	327.16
409.69	308.73
409.898	275.96
410.107	372.22
410.315	364.03
410.524	341.5
410.733	396.79
410.941	386.55
411.15	421.37
411.358	347.64
411.567	384.51
411.775	388.6
411.984	474.62
412.192	464.38
412.401	497.14
412.609	603.64
412.818	531.96
413.026	515.58
413.234	574.97
413.443	599.54
413.651	630.26
413.86	581.11
414.068	716.28
414.276	734.71
414.485	601.59
414.693	779.76
414.901	697.85
415.11	763.38
415.318	767.48
415.526	722.42
415.734	792.05
415.943	830.96
416.151	861.68
416.359	927.22
416.567	921.07
416.776	974.32
416.984	980.47
417.192	988.66
417.4	1046
417.608	1134.06
417.817	1140.21
418.025	1175.02
418.233	1295.85
418.441	1226.22
418.649	1322.48
418.857	1383.91
419.065	1422.83
419.273	1484.27
419.481	1527.27
419.689	1658.34
419.897	1635.82
420.105	1687.01
420.313	1717.73
420.521	1830.37
420.729	1779.17
420.937	1859.04
421.145	1902.05
421.353	2063.84
421.561	2035.17
421.769	2121.18
421.977	2172.38
422.185	2235.87
422.393	2387.42
422.601	2495.96
422.809	2416.09
423.017	2520.54
423.224	2569.69
423.432	2762.2
423.64	2741.72
423.848	2952.66
424.056	2889.17
424.263	2981.33
424.471	3169.74
424.679	3130.83
424.887	3362.25
425.094	3380.68
425.302	3466.7
425.51	3571.15
425.718	3683.78
425.925	3757.51
426.133	3950.02
426.341	4140.48
426.548	4253.12
426.756	4425.15
426.964	4310.46
427.171	4720.06
427.379	4713.91
427.586	4804.02
427.794	5031.35
428.001	5029.3
428.209	5330.35
428.417	5236.14
428.624	5543.34
428.832	5637.55
429.039	5617.07
429.247	5690.79
429.454	6241.7
429.662	6651.29
429.869	6202.79
430.076	6692.25
430.284	6442.4
430.491	6718.87
430.699	7077.27
430.906	7058.84
431.114	7200.15
431.321	7386.51
431.528	7474.57
431.736	7898.5
431.943	8439.17
432.15	8119.68
432.358	8273.28
432.565	8664.44
432.772	8650.11
432.979	9270.64
433.187	9399.66
433.394	9291.12
433.601	9979.24
433.808	10073.45
434.016	9827.69
434.223	10300.77
434.43	10964.31
434.637	10792.28
434.844	11363.67
435.052	11685.2
435.259	11660.62
435.466	11533.65
435.673	11631.95
435.88	12358.98
436.087	12938.55
436.294	12627.26
436.501	12565.82
436.708	12852.54
436.915	13468.98
437.122	13983.02
437.329	14105.9
437.537	14304.55
437.743	14533.92
437.95	14538.02
438.157	15168.79
438.364	15793.42
438.571	15844.62
438.778	15635.73
438.985	17261.82
439.192	16858.37
439.399	17122.55
439.606	16844.03
439.813	17851.63
440.02	18746.59
440.227	18199.79
440.433	18238.7
440.64	18965.73
440.847	18928.86
441.054	19293.4
441.261	20479.18
441.467	20190.41
441.674	20677.83
441.881	21251.26
442.088	20939.97
442.294	21251.26
442.501	21363.9
442.708	21918.9
442.914	23168.16
443.121	23927.95
443.328	23227.55
443.534	25158.78
443.741	24288.4
443.948	23700.63
444.154	25660.54
444.361	25322.62
444.568	25525.37
444.774	25783.41
444.981	26211.44
445.187	26774.63
445.394	27812.95
445.6	27403.36
445.807	29998.13
446.013	28695.63
446.22	29443.13
446.426	30280.75
446.633	30706.73
446.839	31484.96
447.046	30313.52
447.252	31960.09
447.459	32021.53
447.665	31829.02
447.871	33305.6
448.078	34743.28
448.284	32861.19
448.491	33919.99
448.697	35105.77
448.903	36135.9
449.11	36039.64
449.316	35374.05
449.522	35961.82
449.728	36600.79
449.935	37454.79
450.141	37016.52
450.347	37888.96
450.553	36516.82
450.76	37067.72
450.966	38233.02
451.172	38386.61
451.378	38761.39
451.584	38079.42
451.791	39019.44
451.997	38863.79
452.203	39234.47
452.409	39302.06
452.615	39001
452.821	37489.6
453.027	37358.53
453.233	39218.09
453.44	37546.95
453.646	37872.57
453.852	38243.26
454.058	38638.51
454.264	37176.26
454.47	38331.32
454.676	37538.76
454.882	38519.73
455.088	35179.5
455.294	36010.97
455.5	36101.08
455.705	36563.92
455.911	34624.5
456.117	34730.99
456.323	33848.32
456.529	31945.75
456.735	33360.9
456.941	32537.62
457.147	32291.86
457.352	31046.69
457.558	30618.67
457.764	30739.5
457.97	30399.54
458.176	29684.8
458.381	29377.6
458.587	28114
458.793	28036.18
458.999	26696.81
459.204	28595.28
459.41	27642.97
459.616	25715.83
459.821	25912.44
460.027	25922.68
460.233	25371.77
460.438	23952.53
460.644	24530.06
460.85	22981.79
461.055	22899.87
461.261	22719.65
461.466	21101.76
461.672	20561.09
461.878	22092.97
462.083	20761.8
462.289	20241.61
462.494	20020.43
462.7	19123.42
462.905	18767.07
463.111	19254.49
463.316	19369.18
463.522	18873.57
463.727	19057.89
463.932	18959.58
464.138	18576.61
464.343	18902.24
464.549	18117.87
464.754	18683.11
464.959	18734.31
465.165	18685.15
465.37	17947.89
465.575	17181.95
465.781	17925.36
465.986	18433.25
466.191	17573.11
466.397	17016.06
466.602	16270.6
466.807	16911.61
467.012	17001.72
467.218	16923.9
467.423	16643.33
467.628	17071.36
