Data from USB4F104151__272__11-12-13-485.txt Node

Date: Wed Mar 12 11:12:13 EDT 2025
User: louis
Spectrometer: USB4F10415
Trigger mode: 4
Integration Time (sec): 2.000000E-2
Scans to average: 1
Electric dark correction enabled: true
Nonlinearity correction enabled: false
Boxcar width: 0
XAxis mode: Wavelengths
Number of Pixels in Spectrum: 3648
>>>>>Begin Spectral Data<<<<<
178.204	-87.89
178.424	-87.89
178.644	-87.89
178.864	-69.46
179.084	-83.8
179.304	28.84
179.524	-46.93
179.744	18.6
179.964	80.04
180.184	-40.79
180.404	24.75
180.624	-18.26
180.844	-8.02
181.064	-55.12
181.283	-55.12
181.503	24.75
181.723	47.27
181.943	-16.21
182.163	24.75
182.383	71.85
182.602	-42.84
182.822	90.28
183.042	34.99
183.262	86.19
183.482	57.51
183.701	-48.98
183.921	32.94
184.141	39.08
184.361	104.62
184.58	10.41
184.8	37.03
185.02	6.31
185.239	14.51
185.459	-12.12
185.679	55.47
185.898	-14.17
186.118	12.46
186.338	37.03
186.557	-3.93
186.777	39.08
186.997	26.79
187.216	4.27
187.436	161.96
187.655	12.46
187.875	8.36
188.095	-10.07
188.314	22.7
188.534	8.36
188.753	41.13
188.973	82.09
189.192	59.56
189.412	2.22
189.631	30.89
189.851	96.43
190.07	-12.12
190.29	37.03
190.509	-1.88
190.729	-26.45
190.948	14.51
191.168	84.14
191.387	71.85
191.607	16.55
191.826	2.22
192.045	10.41
192.265	75.95
192.484	-12.12
192.704	14.51
192.923	-14.17
193.142	43.18
193.362	30.89
193.581	32.94
193.8	47.27
194.02	2.22
194.239	34.99
194.458	4.27
194.678	39.08
194.897	88.23
195.116	90.28
195.335	63.66
195.555	12.46
195.774	34.99
195.993	37.03
196.212	69.8
196.432	16.55
196.651	26.79
196.87	-24.4
197.089	65.71
197.308	45.23
197.528	14.51
197.747	-38.74
197.966	37.03
198.185	61.61
198.404	55.47
198.623	37.03
198.842	61.61
199.062	61.61
199.281	28.84
199.5	39.08
199.719	16.55
199.938	37.03
200.157	98.47
200.376	-3.93
200.595	41.13
200.814	61.61
201.033	-16.21
201.252	0.17
201.471	51.37
201.69	30.89
201.909	28.84
202.128	12.46
202.347	26.79
202.566	32.94
202.785	-18.26
203.004	28.84
203.223	75.95
203.442	55.47
203.661	-5.97
203.879	28.84
204.098	24.75
204.317	-14.17
204.536	41.13
204.755	32.94
204.974	20.65
205.193	30.89
205.411	61.61
205.63	59.56
205.849	12.46
206.068	-32.6
206.287	45.23
206.505	71.85
206.724	-10.07
206.943	51.37
207.162	39.08
207.381	10.41
207.599	86.19
207.818	0.17
208.037	84.14
208.255	-10.07
208.474	6.31
208.693	34.99
208.911	-44.88
209.13	-46.93
209.349	16.55
209.567	22.7
209.786	45.23
210.005	24.75
210.223	67.75
210.442	24.75
210.661	-28.5
210.879	6.31
211.098	16.55
211.316	2.22
211.535	82.09
211.753	32.94
211.972	-20.31
212.191	55.47
212.409	30.89
212.628	-18.26
212.846	-30.55
213.065	77.99
213.283	55.47
213.502	22.7
213.72	30.89
213.938	-8.02
214.157	71.85
214.375	47.27
214.594	55.47
214.812	63.66
215.031	37.03
215.249	-42.84
215.467	43.18
215.686	-5.97
215.904	30.89
216.122	14.51
216.341	59.56
216.559	-44.88
216.778	104.62
216.996	86.19
217.214	0.17
217.432	12.46
217.651	10.41
217.869	49.32
218.087	57.51
218.306	14.51
218.524	-32.6
218.742	-12.12
218.96	110.76
219.179	71.85
219.397	0.17
219.615	102.57
219.833	16.55
220.051	-1.88
220.27	49.32
220.488	86.19
220.706	43.18
220.924	39.08
221.142	22.7
221.36	6.31
221.578	-1.88
221.796	37.03
222.015	18.6
222.233	73.9
222.451	43.18
222.669	-8.02
222.887	0.17
223.105	-1.88
223.323	2.22
223.541	32.94
223.759	114.86
223.977	-8.02
224.195	80.04
224.413	30.89
224.631	61.61
224.849	77.99
225.067	43.18
225.285	16.55
225.503	49.32
225.721	20.65
225.939	57.51
226.157	8.36
226.375	12.46
226.592	-3.93
226.81	-14.17
227.028	102.57
227.246	98.47
227.464	28.84
227.682	12.46
227.9	51.37
228.117	26.79
228.335	6.31
228.553	-14.17
228.771	-3.93
228.989	2.22
229.206	55.47
229.424	-38.74
229.642	-24.4
229.86	-34.64
230.077	18.6
230.295	14.51
230.513	18.6
230.731	-40.79
230.948	28.84
231.166	55.47
231.384	65.71
231.601	82.09
231.819	0.17
232.037	57.51
232.254	34.99
232.472	45.23
232.689	-5.97
232.907	2.22
233.125	-36.69
233.342	63.66
233.56	-3.93
233.777	71.85
233.995	71.85
234.213	43.18
234.43	69.8
234.648	18.6
234.865	-65.36
235.083	90.28
235.3	0.17
235.518	18.6
235.735	100.52
235.953	-67.41
236.17	28.84
236.388	110.76
236.605	14.51
236.822	26.79
237.04	51.37
237.257	-22.36
237.475	6.31
237.692	14.51
237.909	63.66
238.127	51.37
238.344	-22.36
238.562	14.51
238.779	4.27
238.996	-5.97
239.214	30.89
239.431	24.75
239.648	-26.45
239.865	86.19
240.083	22.7
240.3	0.17
240.517	-32.6
240.735	82.09
240.952	67.75
241.169	43.18
241.386	-36.69
241.603	53.42
241.821	12.46
242.038	20.65
242.255	30.89
242.472	-53.08
242.689	43.18
242.907	57.51
243.124	53.42
243.341	2.22
243.558	71.85
243.775	82.09
243.992	-46.93
244.209	39.08
244.426	80.04
244.643	20.65
244.86	51.37
245.078	71.85
245.295	161.96
245.512	67.75
245.729	45.23
245.946	145.58
246.163	18.6
246.38	106.67
246.597	14.51
246.814	51.37
247.031	18.6
247.248	30.89
247.464	73.9
247.681	18.6
247.898	157.86
248.115	129.19
248.332	61.61
248.549	-3.93
248.766	26.79
248.983	90.28
249.2	67.75
249.417	14.51
249.633	-73.56
249.85	10.41
250.067	-1.88
250.284	-12.12
250.501	55.47
250.717	-30.55
250.934	-1.88
251.151	98.47
251.368	-48.98
251.585	114.86
251.801	30.89
252.018	-24.4
252.235	82.09
252.451	55.47
252.668	-16.21
252.885	-30.55
253.102	-16.21
253.318	77.99
253.535	6.31
253.752	-22.36
253.968	-44.88
254.185	8.36
254.401	39.08
254.618	94.38
254.835	4.27
255.051	32.94
255.268	-44.88
255.484	73.9
255.701	-28.5
255.917	86.19
256.134	41.13
256.351	110.76
256.567	22.7
256.784	63.66
257	16.55
257.217	-28.5
257.433	14.51
257.65	49.32
257.866	77.99
258.082	-8.02
258.299	-16.21
258.515	-16.21
258.732	45.23
258.948	-18.26
259.165	-8.02
259.381	-87.89
259.597	8.36
259.814	10.41
260.03	18.6
260.246	67.75
260.463	34.99
260.679	39.08
260.895	39.08
261.112	71.85
261.328	16.55
261.544	10.41
261.761	90.28
261.977	10.41
262.193	24.75
262.409	28.84
262.626	49.32
262.842	-5.97
263.058	24.75
263.274	53.42
263.49	10.41
263.707	129.19
263.923	-38.74
264.139	39.08
264.355	24.75
264.571	-18.26
264.787	-38.74
265.004	47.27
265.22	59.56
265.436	30.89
265.652	-5.97
265.868	69.8
266.084	-22.36
266.3	16.55
266.516	8.36
266.732	14.51
266.948	90.28
267.164	10.41
267.38	118.95
267.596	37.03
267.812	75.95
268.028	22.7
268.244	-34.64
268.46	8.36
268.676	53.42
268.892	67.75
269.108	-18.26
269.324	18.6
269.54	51.37
269.756	73.9
269.972	-22.36
270.188	55.47
270.403	63.66
270.619	96.43
270.835	43.18
271.051	-5.97
271.267	37.03
271.483	34.99
271.698	30.89
271.914	67.75
272.13	-44.88
272.346	32.94
272.562	-12.12
272.777	-22.36
272.993	32.94
273.209	-3.93
273.425	2.22
273.64	55.47
273.856	14.51
274.072	4.27
274.287	4.27
274.503	37.03
274.719	-38.74
274.934	30.89
275.15	-48.98
275.366	-12.12
275.581	47.27
275.797	-1.88
276.012	14.51
276.228	47.27
276.444	-79.7
276.659	41.13
276.875	-18.26
277.09	65.71
277.306	16.55
277.521	61.61
277.737	51.37
277.952	10.41
278.168	-14.17
278.383	51.37
278.599	69.8
278.814	102.57
279.03	80.04
279.245	53.42
279.461	18.6
279.676	139.43
279.892	34.99
280.107	-18.26
280.322	90.28
280.538	53.42
280.753	51.37
280.969	55.47
281.184	57.51
281.399	84.14
281.615	34.99
281.83	39.08
282.045	-5.97
282.26	22.7
282.476	59.56
282.691	26.79
282.906	51.37
283.122	-22.36
283.337	-12.12
283.552	88.23
283.767	84.14
283.983	51.37
284.198	75.95
284.413	10.41
284.628	18.6
284.843	65.71
285.058	-5.97
285.274	14.51
285.489	88.23
285.704	34.99
285.919	-55.12
286.134	-61.27
286.349	-89.94
286.564	30.89
286.779	80.04
286.995	22.7
287.21	39.08
287.425	106.67
287.64	-36.69
287.855	4.27
288.07	-16.21
288.285	2.22
288.5	12.46
288.715	108.71
288.93	-8.02
289.145	6.31
289.36	18.6
289.575	16.55
289.79	47.27
290.004	73.9
290.219	-3.93
290.434	-12.12
290.649	41.13
290.864	30.89
291.079	90.28
291.294	61.61
291.509	34.99
291.724	104.62
291.938	45.23
292.153	-28.5
292.368	-51.03
292.583	57.51
292.798	6.31
293.012	-8.02
293.227	8.36
293.442	49.32
293.657	18.6
293.871	67.75
294.086	57.51
294.301	39.08
294.516	-5.97
294.73	-1.88
294.945	0.17
295.16	4.27
295.374	26.79
295.589	41.13
295.804	28.84
296.018	51.37
296.233	110.76
296.447	90.28
296.662	-10.07
296.877	94.38
297.091	102.57
297.306	69.8
297.52	37.03
297.735	77.99
297.949	-12.12
298.164	30.89
298.378	18.6
298.593	53.42
298.807	98.47
299.022	24.75
299.236	20.65
299.451	92.33
299.665	37.03
299.88	-26.45
300.094	26.79
300.309	-5.97
300.523	8.36
300.737	92.33
300.952	-48.98
301.166	-36.69
301.381	-24.4
301.595	2.22
301.809	30.89
302.024	-8.02
302.238	-14.17
302.452	84.14
302.667	108.71
302.881	8.36
303.095	22.7
303.309	61.61
303.524	30.89
303.738	49.32
303.952	-18.26
304.166	0.17
304.381	-22.36
304.595	84.14
304.809	-46.93
305.023	-14.17
305.237	-16.21
305.452	82.09
305.666	14.51
305.88	34.99
306.094	-30.55
306.308	24.75
306.522	88.23
306.736	127.14
306.95	43.18
307.164	-24.4
307.379	8.36
307.593	8.36
307.807	80.04
308.021	45.23
308.235	10.41
308.449	24.75
308.663	82.09
308.877	110.76
309.091	104.62
309.305	-28.5
309.519	57.51
309.733	88.23
309.947	55.47
310.161	53.42
310.374	55.47
310.588	47.27
310.802	67.75
311.016	39.08
311.23	73.9
311.444	-55.12
311.658	28.84
311.872	112.81
312.085	4.27
312.299	28.84
312.513	71.85
312.727	104.62
312.941	8.36
313.154	127.14
313.368	32.94
313.582	-8.02
313.796	6.31
314.009	6.31
314.223	51.37
314.437	34.99
314.651	65.71
314.864	34.99
315.078	80.04
315.292	-14.17
315.505	61.61
315.719	71.85
315.933	30.89
316.146	32.94
316.36	-24.4
316.573	71.85
316.787	51.37
317.001	32.94
317.214	-30.55
317.428	32.94
317.641	2.22
317.855	-1.88
318.068	10.41
318.282	82.09
318.495	63.66
318.709	4.27
318.922	73.9
319.136	112.81
319.349	51.37
319.563	47.27
319.776	39.08
319.99	2.22
320.203	82.09
320.417	59.56
320.63	51.37
320.843	10.41
321.057	118.95
321.27	6.31
321.483	49.32
321.697	2.22
321.91	20.65
322.124	28.84
322.337	61.61
322.55	49.32
322.763	75.95
322.977	51.37
323.19	80.04
323.403	49.32
323.617	22.7
323.83	-8.02
324.043	-24.4
324.256	63.66
324.469	2.22
324.683	47.27
324.896	26.79
325.109	-8.02
325.322	2.22
325.535	34.99
325.748	18.6
325.962	-16.21
326.175	28.84
326.388	51.37
326.601	63.66
326.814	28.84
327.027	-28.5
327.24	51.37
327.453	-24.4
327.666	41.13
327.879	24.75
328.092	34.99
328.305	-28.5
328.518	80.04
328.731	30.89
328.944	26.79
329.157	-87.89
329.37	114.86
329.583	20.65
329.796	84.14
330.009	53.42
330.222	45.23
330.435	57.51
330.648	63.66
330.861	73.9
331.073	8.36
331.286	49.32
331.499	16.55
331.712	43.18
331.925	98.47
332.138	69.8
332.35	92.33
332.563	75.95
332.776	51.37
332.989	-51.03
333.202	59.56
333.414	30.89
333.627	16.55
333.84	-20.31
334.053	127.14
334.265	-46.93
334.478	0.17
334.691	53.42
334.903	67.75
335.116	2.22
335.329	32.94
335.541	-10.07
335.754	86.19
335.966	49.32
336.179	63.66
336.392	0.17
336.604	57.51
336.817	32.94
337.029	65.71
337.242	-16.21
337.454	59.56
337.667	30.89
337.88	96.43
338.092	30.89
338.305	18.6
338.517	30.89
338.729	61.61
338.942	51.37
339.154	49.32
339.367	37.03
339.579	96.43
339.792	53.42
340.004	57.51
340.217	-18.26
340.429	43.18
340.641	2.22
340.854	59.56
341.066	8.36
341.278	39.08
341.491	65.71
341.703	20.65
341.915	106.67
342.128	51.37
342.34	65.71
342.552	10.41
342.764	10.41
342.977	77.99
343.189	-30.55
343.401	32.94
343.613	88.23
343.826	73.9
344.038	73.9
344.25	-12.12
344.462	80.04
344.674	51.37
344.886	30.89
345.099	121
345.311	92.33
345.523	47.27
345.735	34.99
345.947	28.84
346.159	100.52
346.371	-8.02
346.583	4.27
346.795	47.27
347.007	59.56
347.219	22.7
347.431	65.71
347.643	-38.74
347.855	-12.12
348.067	30.89
348.279	61.61
348.491	43.18
348.703	22.7
348.915	-18.26
349.127	26.79
349.339	69.8
349.551	16.55
349.763	28.84
349.975	8.36
350.187	55.47
350.399	30.89
350.61	-18.26
350.822	41.13
351.034	-1.88
351.246	6.31
351.458	4.27
351.669	20.65
351.881	90.28
352.093	71.85
352.305	75.95
352.517	45.23
352.728	47.27
352.94	-5.97
353.152	37.03
353.363	8.36
353.575	34.99
353.787	28.84
353.999	30.89
354.21	20.65
354.422	84.14
354.633	71.85
354.845	77.99
355.057	96.43
355.268	77.99
355.48	108.71
355.692	-14.17
355.903	-26.45
356.115	24.75
356.326	77.99
356.538	108.71
356.749	55.47
356.961	14.51
357.172	-26.45
357.384	-24.4
357.595	71.85
357.807	55.47
358.018	18.6
358.23	178.34
358.441	71.85
358.653	84.14
358.864	63.66
359.075	-14.17
359.287	63.66
359.498	57.51
359.709	10.41
359.921	88.23
360.132	75.95
360.344	18.6
360.555	55.47
360.766	84.14
360.977	57.51
361.189	143.53
361.4	63.66
361.611	41.13
361.823	0.17
362.034	73.9
362.245	-5.97
362.456	14.51
362.667	51.37
362.879	12.46
363.09	10.41
363.301	104.62
363.512	14.51
363.723	65.71
363.935	88.23
364.146	10.41
364.357	-12.12
364.568	22.7
364.779	-24.4
364.99	6.31
365.201	0.17
365.412	104.62
365.623	-20.31
365.834	55.47
366.045	151.72
366.256	73.9
366.467	63.66
366.678	8.36
366.889	30.89
367.1	0.17
367.311	49.32
367.522	71.85
367.733	63.66
367.944	121
368.155	16.55
368.366	-22.36
368.577	43.18
368.788	-14.17
368.999	26.79
369.209	8.36
369.42	104.62
369.631	116.9
369.842	32.94
370.053	39.08
370.264	32.94
370.474	51.37
370.685	37.03
370.896	37.03
371.107	121
371.317	22.7
371.528	20.65
371.739	26.79
371.95	51.37
372.16	92.33
372.371	16.55
372.582	-3.93
372.792	82.09
373.003	106.67
373.214	20.65
373.424	26.79
373.635	28.84
373.846	45.23
374.056	6.31
374.267	96.43
374.477	53.42
374.688	75.95
374.898	39.08
375.109	73.9
375.319	30.89
375.53	12.46
375.74	34.99
375.951	-10.07
376.161	43.18
376.372	49.32
376.582	61.61
376.793	69.8
377.003	8.36
377.214	84.14
377.424	39.08
377.635	63.66
377.845	59.56
378.055	30.89
378.266	80.04
378.476	-5.97
378.686	57.51
378.897	22.7
379.107	61.61
379.317	96.43
379.528	41.13
379.738	102.57
379.948	45.23
380.158	61.61
380.369	69.8
380.579	61.61
380.789	2.22
380.999	37.03
381.21	37.03
381.42	8.36
381.63	65.71
381.84	12.46
382.05	45.23
382.261	125.1
382.471	59.56
382.681	90.28
382.891	69.8
383.101	92.33
383.311	16.55
383.521	-1.88
383.731	63.66
383.941	129.19
384.151	43.18
384.361	30.89
384.571	16.55
384.781	75.95
384.991	84.14
385.201	61.61
385.411	73.9
385.621	6.31
385.831	26.79
386.041	121
386.251	65.71
386.461	67.75
386.671	-8.02
386.881	47.27
387.091	67.75
387.301	6.31
387.511	47.27
387.72	112.81
387.93	-46.93
388.14	-24.4
388.35	43.18
388.56	63.66
388.769	116.9
388.979	88.23
389.189	75.95
389.399	61.61
389.609	37.03
389.818	39.08
390.028	55.47
390.238	45.23
390.447	92.33
390.657	88.23
390.867	32.94
391.076	14.51
391.286	71.85
391.496	86.19
391.705	32.94
391.915	57.51
392.125	67.75
392.334	10.41
392.544	75.95
392.753	71.85
392.963	6.31
393.172	8.36
393.382	37.03
393.591	121
393.801	47.27
394.01	67.75
394.22	98.47
394.429	133.29
394.639	135.34
394.848	96.43
395.058	4.27
395.267	14.51
395.477	86.19
395.686	121
395.895	49.32
396.105	184.49
396.314	16.55
396.524	57.51
396.733	80.04
396.942	65.71
397.152	57.51
397.361	65.71
397.57	127.14
397.78	82.09
397.989	63.66
398.198	92.33
398.407	49.32
398.617	51.37
398.826	84.14
399.035	73.9
399.244	116.9
399.453	92.33
399.663	100.52
399.872	129.19
400.081	198.82
400.29	135.34
400.499	75.95
400.708	82.09
400.917	80.04
401.127	151.72
401.336	0.17
401.545	127.14
401.754	116.9
401.963	118.95
402.172	104.62
402.381	57.51
402.59	133.29
402.799	98.47
403.008	135.34
403.217	43.18
403.426	98.47
403.635	86.19
403.844	123.05
404.053	104.62
404.262	159.91
404.471	182.44
404.68	121
404.888	178.34
405.097	114.86
405.306	75.95
405.515	157.86
405.724	73.9
405.933	112.81
406.142	149.67
406.35	192.68
406.559	121
406.768	96.43
406.977	174.25
407.185	219.3
407.394	241.83
407.603	114.86
407.812	207.02
408.02	264.36
408.229	157.86
408.438	215.21
408.646	207.02
408.855	219.3
409.064	235.69
409.272	207.02
409.481	311.46
409.69	211.11
409.898	239.78
410.107	336.04
410.315	270.5
410.524	233.64
410.733	299.17
410.941	286.89
411.15	299.17
411.358	321.7
411.567	311.46
411.775	452.77
411.984	422.05
412.192	469.16
412.401	381.09
412.609	413.86
412.818	508.07
413.026	377
413.234	407.72
413.443	483.49
413.651	532.64
413.86	426.15
414.068	551.07
414.276	460.96
414.485	551.07
414.693	606.37
414.901	620.71
415.11	581.79
415.318	651.42
415.526	702.62
415.734	733.34
415.943	712.86
416.151	811.17
416.359	800.93
416.567	780.45
416.776	766.11
416.984	843.93
417.192	780.45
417.4	915.61
417.608	852.13
417.817	942.24
418.025	1005.72
418.233	1054.87
418.441	1018.01
418.649	993.44
418.857	1122.46
419.065	1132.7
419.273	1083.55
419.481	1243.29
419.689	1214.62
419.897	1292.44
420.105	1353.88
420.313	1376.41
420.521	1458.32
420.729	1521.81
420.937	1534.1
421.145	1534.1
421.353	1618.07
421.561	1677.46
421.769	1771.66
421.977	1747.09
422.185	1949.84
422.393	1810.58
422.601	2054.28
422.809	2013.32
423.017	2050.19
423.224	2095.24
423.432	2224.26
423.64	2140.3
423.848	2351.24
424.056	2318.47
424.263	2492.55
424.471	2476.16
424.679	2547.84
424.887	2752.64
425.094	2812.03
425.302	2719.87
425.51	2816.13
425.718	2971.77
425.925	3002.49
426.133	3053.69
426.341	3303.54
426.548	3451
426.756	3377.27
426.964	3432.57
427.171	3674.23
427.379	3825.78
427.586	3938.41
427.794	3960.94
428.001	4292.71
428.209	4323.43
428.417	4190.31
428.624	4773.99
428.832	4724.83
429.039	4669.54
429.247	4511.85
429.454	4925.54
429.662	5247.07
429.869	4872.29
430.076	5265.5
430.284	5150.81
430.491	5513.3
430.699	5722.2
430.906	5650.52
431.114	5861.46
431.321	5935.18
431.528	6223.95
431.736	6551.62
431.943	6772.8
432.15	6666.31
432.358	6666.31
432.565	6918.21
432.772	7000.13
432.979	7395.39
433.187	7538.74
433.394	7440.44
433.601	7952.43
433.808	7999.54
434.016	8144.94
434.223	8366.12
434.43	8943.65
434.637	8613.93
434.844	9181.21
435.052	9533.47
435.259	9289.76
435.466	9492.51
435.673	9275.42
435.88	9945.11
436.087	10520.59
436.294	10379.28
436.501	10158.1
436.708	10260.49
436.915	10897.41
437.122	11255.81
437.329	11200.51
437.537	11499.52
437.743	11864.05
437.95	11591.67
438.157	12269.55
438.364	12695.53
438.571	12658.67
438.778	12959.72
438.985	13950.93
439.192	13264.86
439.399	13600.73
439.606	13533.15
439.813	14338
440.02	15056.84
440.227	14761.93
440.433	14550.99
440.64	14993.35
440.847	15144.9
441.054	15396.8
441.261	16234.42
441.467	16545.71
441.674	16687.02
441.881	17276.84
442.088	17082.28
442.294	17082.28
442.501	17526.69
442.708	17903.51
442.914	18409.36
443.121	19160.97
443.328	18878.35
443.534	19763.07
443.741	19629.95
443.948	19027.85
444.154	20787.05
444.361	20334.45
444.568	20557.68
444.774	20307.83
444.981	21010.28
445.187	21383.01
445.394	22097.75
445.6	22191.96
445.807	24026.94
446.013	23293.77
446.22	23734.08
446.426	24387.38
446.633	24475.45
446.839	25278.25
447.046	24430.39
447.252	26111.77
447.459	25556.77
447.665	25413.41
447.871	26607.38
448.078	27692.8
448.284	26380.06
448.491	27422.47
448.697	27956.99
448.903	28958.45
449.11	29046.51
449.316	28198.65
449.522	28917.49
449.728	29617.89
449.935	29957.86
450.141	29884.13
450.347	30312.16
450.553	29613.8
450.76	30000.86
450.966	30633.69
451.172	30443.23
451.378	31219.41
451.584	30648.02
451.791	31323.85
451.997	31389.39
452.203	31807.17
452.409	31721.16
452.615	31782.6
452.821	30701.27
453.027	29988.58
453.233	31661.77
453.44	30168.8
453.646	30549.72
453.852	30760.66
454.058	31258.32
454.264	29890.27
454.47	30758.61
454.676	30109.41
454.882	30760.66
455.088	28526.33
455.294	28888.82
455.5	29253.36
455.705	29544.17
455.911	28489.46
456.117	27809.54
456.323	27268.87
456.529	26228.51
456.735	26994.45
456.941	26423.06
457.147	26068.76
457.352	24909.61
457.558	24829.74
457.764	24805.17
457.97	24280.89
458.176	24012.6
458.381	23748.42
458.587	22511.44
458.793	22456.15
458.999	21665.63
459.204	22835.02
459.41	22447.96
459.616	20893.55
459.821	20713.33
460.027	20856.68
460.233	20404.08
460.438	19167.11
460.644	19648.38
460.85	18620.3
461.055	18440.08
461.261	18376.59
461.466	16863.15
461.672	16236.47
461.878	18024.34
462.083	16582.57
462.289	16281.52
462.494	16052.15
462.7	15519.68
462.905	15153.09
463.111	15509.44
463.316	15339.46
463.522	15046.6
463.727	15351.74
463.932	15239.11
464.138	15269.83
464.343	15175.62
464.549	14776.27
464.754	14960.58
464.959	14901.19
465.165	15069.12
465.37	14374.86
465.575	13957.08
465.781	14381.01
465.986	14503.89
466.191	14077.91
466.397	13789.14
466.602	13047.78
466.807	13584.35
467.012	13744.09
467.218	13527
467.423	13514.72
467.628	13428.7
467.833	14077.91
468.038	13506.52
