Data from USB4F104151__114__11-07-19-817.txt Node

Date: Wed Mar 12 11:07:19 EDT 2025
User: louis
Spectrometer: USB4F10415
Trigger mode: 4
Integration Time (sec): 2.000000E-2
Scans to average: 1
Electric dark correction enabled: true
Nonlinearity correction enabled: false
Boxcar width: 0
XAxis mode: Wavelengths
Number of Pixels in Spectrum: 3648
>>>>>Begin Spectral Data<<<<<
178.204	-51.54
178.424	-51.54
178.644	-51.54
178.864	-92.5
179.084	-133.46
179.304	-18.77
179.524	-2.39
179.744	-61.78
179.964	5.8
180.184	-69.97
180.404	-20.82
180.624	18.09
180.844	59.05
181.064	-4.44
181.283	-4.44
181.503	-24.92
181.723	124.58
181.943	26.28
182.163	11.95
182.383	38.57
182.602	48.81
182.822	-4.44
183.042	5.8
183.262	-4.44
183.482	28.33
183.701	44.71
183.921	67.24
184.141	-43.35
184.361	-57.68
184.58	-4.44
184.8	57
185.02	-26.96
185.239	50.86
185.459	11.95
185.679	7.85
185.898	44.71
186.118	65.19
186.338	34.47
186.557	42.67
186.777	3.75
186.997	-22.87
187.216	-49.49
187.436	67.24
187.655	44.71
187.875	-37.2
188.095	7.85
188.314	20.14
188.534	-29.01
188.753	22.19
188.973	75.43
189.192	79.53
189.412	50.86
189.631	50.86
189.851	-0.34
190.07	-29.01
190.29	-67.92
190.509	57
190.729	22.19
190.948	79.53
191.168	100.01
191.387	48.81
191.607	93.87
191.826	61.1
192.045	16.04
192.265	-43.35
192.484	61.1
192.704	40.62
192.923	3.75
193.142	-20.82
193.362	22.19
193.581	24.23
193.8	102.06
194.02	59.05
194.239	7.85
194.458	-12.63
194.678	16.04
194.897	-51.54
195.116	-14.68
195.335	40.62
195.555	7.85
195.774	20.14
195.993	-74.07
196.212	44.71
196.432	-20.82
196.651	-6.49
196.87	13.99
197.089	108.2
197.308	81.58
197.528	32.43
197.747	-8.53
197.966	61.1
198.185	7.85
198.404	75.43
198.623	61.1
198.842	24.23
199.062	28.33
199.281	65.19
199.5	-24.92
199.719	32.43
199.938	28.33
200.157	79.53
200.376	54.95
200.595	104.11
200.814	24.23
201.033	28.33
201.252	83.63
201.471	18.09
201.69	57
201.909	5.8
202.128	34.47
202.347	87.72
202.566	44.71
202.785	24.23
203.004	-2.39
203.223	46.76
203.442	34.47
203.661	30.38
203.879	91.82
204.098	3.75
204.317	5.8
204.536	13.99
204.755	20.14
204.974	32.43
205.193	50.86
205.411	91.82
205.63	20.14
205.849	-47.44
206.068	7.85
206.287	-35.16
206.505	7.85
206.724	1.71
206.943	5.8
207.162	85.67
207.381	-10.58
207.599	50.86
207.818	28.33
208.037	1.71
208.255	-51.54
208.474	-18.77
208.693	102.06
208.911	11.95
209.13	-4.44
209.349	52.91
209.567	38.57
209.786	87.72
210.005	24.23
210.223	81.58
210.442	-41.3
210.661	20.14
210.879	34.47
211.098	22.19
211.316	22.19
211.535	3.75
211.753	48.81
211.972	7.85
212.191	69.29
212.409	24.23
212.628	7.85
212.846	38.57
213.065	16.04
213.283	34.47
213.502	16.04
213.72	-29.01
213.938	-57.68
214.157	-29.01
214.375	71.34
214.594	59.05
214.812	30.38
215.031	22.19
215.249	108.2
215.467	24.23
215.686	-2.39
215.904	54.95
216.122	-26.96
216.341	13.99
216.559	-0.34
216.778	36.52
216.996	38.57
217.214	-29.01
217.432	24.23
217.651	-12.63
217.869	54.95
218.087	-16.73
218.306	-14.68
218.524	9.9
218.742	112.3
218.96	73.39
219.179	-6.49
219.397	34.47
219.615	50.86
219.833	24.23
220.051	59.05
220.27	73.39
220.488	-16.73
220.706	87.72
220.924	50.86
221.142	89.77
221.36	95.91
221.578	44.71
221.796	-2.39
222.015	-14.68
222.233	28.33
222.451	54.95
222.669	28.33
222.887	13.99
223.105	22.19
223.323	3.75
223.541	32.43
223.759	-8.53
223.977	83.63
224.195	50.86
224.413	59.05
224.631	36.52
224.849	11.95
225.067	48.81
225.285	75.43
225.503	75.43
225.721	48.81
225.939	40.62
226.157	91.82
226.375	61.1
226.592	-35.16
226.81	77.48
227.028	24.23
227.246	71.34
227.464	81.58
227.682	-2.39
227.9	-4.44
228.117	5.8
228.335	11.95
228.553	9.9
228.771	18.09
228.989	46.76
229.206	16.04
229.424	-18.77
229.642	3.75
229.86	34.47
230.077	28.33
230.295	63.15
230.513	65.19
230.731	22.19
230.948	36.52
231.166	28.33
231.384	26.28
231.601	50.86
231.819	44.71
232.037	38.57
232.254	22.19
232.472	20.14
232.689	-12.63
232.907	28.33
233.125	9.9
233.342	-0.34
233.56	-20.82
233.777	79.53
233.995	-45.4
234.213	44.71
234.43	69.29
234.648	79.53
234.865	-4.44
235.083	54.95
235.3	7.85
235.518	81.58
235.735	34.47
235.953	34.47
236.17	81.58
236.388	-49.49
236.605	-0.34
236.822	32.43
237.04	5.8
237.257	3.75
237.475	11.95
237.692	50.86
237.909	54.95
238.127	-24.92
238.344	-39.25
238.562	67.24
238.779	46.76
238.996	-0.34
239.214	3.75
239.431	61.1
239.648	71.34
239.865	61.1
240.083	67.24
240.3	48.81
240.517	24.23
240.735	-4.44
240.952	89.77
241.169	28.33
241.386	-4.44
241.603	93.87
241.821	57
242.038	-0.34
242.255	32.43
242.472	-18.77
242.689	11.95
242.907	85.67
243.124	73.39
243.341	16.04
243.558	-10.58
243.775	-22.87
243.992	44.71
244.209	54.95
244.426	81.58
244.643	-8.53
244.86	18.09
245.078	5.8
245.295	28.33
245.512	-8.53
245.729	34.47
245.946	40.62
246.163	-6.49
246.38	42.67
246.597	18.09
246.814	81.58
247.031	44.71
247.248	87.72
247.464	11.95
247.681	30.38
247.898	-18.77
248.115	69.29
248.332	16.04
248.549	81.58
248.766	54.95
248.983	26.28
249.2	38.57
249.417	34.47
249.633	-74.07
249.85	104.11
250.067	22.19
250.284	-39.25
250.501	7.85
250.717	16.04
250.934	46.76
251.151	-37.2
251.368	-16.73
251.585	7.85
251.801	1.71
252.018	75.43
252.235	69.29
252.451	-0.34
252.668	-26.96
252.885	1.71
253.102	30.38
253.318	44.71
253.535	-8.53
253.752	22.19
253.968	20.14
254.185	-0.34
254.401	-14.68
254.618	-20.82
254.835	-2.39
255.051	73.39
255.268	-12.63
255.484	16.04
255.701	24.23
255.917	30.38
256.134	52.91
256.351	-16.73
256.567	-26.96
256.784	5.8
257	24.23
257.217	-0.34
257.433	73.39
257.65	20.14
257.866	81.58
258.082	-12.63
258.299	-31.06
258.515	5.8
258.732	11.95
258.948	75.43
259.165	18.09
259.381	65.19
259.597	87.72
259.814	-31.06
260.03	40.62
260.246	22.19
260.463	93.87
260.679	46.76
260.895	-39.25
261.112	44.71
261.328	20.14
261.544	26.28
261.761	57
261.977	44.71
262.193	-2.39
262.409	-0.34
262.626	83.63
262.842	65.19
263.058	32.43
263.274	52.91
263.49	13.99
263.707	3.75
263.923	65.19
264.139	-29.01
264.355	65.19
264.571	48.81
264.787	34.47
265.004	-16.73
265.22	40.62
265.436	59.05
265.652	40.62
265.868	5.8
266.084	-10.58
266.3	24.23
266.516	-8.53
266.732	59.05
266.948	65.19
267.164	57
267.38	28.33
267.596	22.19
267.812	67.24
268.028	28.33
268.244	67.24
268.46	59.05
268.676	69.29
268.892	38.57
269.108	20.14
269.324	102.06
269.54	38.57
269.756	67.24
269.972	3.75
270.188	18.09
270.403	-20.82
270.619	9.9
270.835	65.19
271.051	-26.96
271.267	-4.44
271.483	36.52
271.698	52.91
271.914	61.1
272.13	57
272.346	52.91
272.562	18.09
272.777	87.72
272.993	34.47
273.209	-43.35
273.425	5.8
273.64	22.19
273.856	38.57
274.072	-31.06
274.287	-18.77
274.503	34.47
274.719	1.71
274.934	-0.34
275.15	95.91
275.366	40.62
275.581	-37.2
275.797	-37.2
276.012	13.99
276.228	46.76
276.444	18.09
276.659	75.43
276.875	54.95
277.09	13.99
277.306	59.05
277.521	44.71
277.737	75.43
277.952	38.57
278.168	44.71
278.383	44.71
278.599	91.82
278.814	18.09
279.03	-16.73
279.245	63.15
279.461	-26.96
279.676	50.86
279.892	22.19
280.107	30.38
280.322	-18.77
280.538	-14.68
280.753	13.99
280.969	73.39
281.184	100.01
281.399	48.81
281.615	-31.06
281.83	38.57
282.045	-39.25
282.26	-20.82
282.476	59.05
282.691	67.24
282.906	-14.68
283.122	9.9
283.337	16.04
283.552	52.91
283.767	22.19
283.983	89.77
284.198	57
284.413	81.58
284.628	7.85
284.843	30.38
285.058	-2.39
285.274	5.8
285.489	3.75
285.704	24.23
285.919	-119.12
286.134	20.14
286.349	7.85
286.564	69.29
286.779	-20.82
286.995	5.8
287.21	38.57
287.425	16.04
287.64	-72.02
287.855	3.75
288.07	46.76
288.285	126.63
288.5	44.71
288.715	91.82
288.93	11.95
289.145	-20.82
289.36	46.76
289.575	-20.82
289.79	-4.44
290.004	22.19
290.219	20.14
290.434	-51.54
290.649	36.52
290.864	48.81
291.079	-41.3
291.294	34.47
291.509	11.95
291.724	73.39
291.938	24.23
292.153	69.29
292.368	-33.11
292.583	-4.44
292.798	48.81
293.012	69.29
293.227	-0.34
293.442	81.58
293.657	138.92
293.871	54.95
294.086	52.91
294.301	13.99
294.516	28.33
294.73	65.19
294.945	32.43
295.16	-16.73
295.374	50.86
295.589	71.34
295.804	-8.53
296.018	9.9
296.233	-31.06
296.447	124.58
296.662	18.09
296.877	28.33
297.091	-12.63
297.306	9.9
297.52	5.8
297.735	48.81
297.949	22.19
298.164	3.75
298.378	77.48
298.593	-8.53
298.807	-41.3
299.022	46.76
299.236	-2.39
299.451	1.71
299.665	3.75
299.88	-0.34
300.094	3.75
300.309	-0.34
300.523	13.99
300.737	24.23
300.952	38.57
301.166	87.72
301.381	40.62
301.595	22.19
301.809	-33.11
302.024	-35.16
302.238	-10.58
302.452	63.15
302.667	13.99
302.881	38.57
303.095	28.33
303.309	36.52
303.524	-18.77
303.738	22.19
303.952	-16.73
304.166	3.75
304.381	-20.82
304.595	65.19
304.809	67.24
305.023	57
305.237	77.48
305.452	11.95
305.666	22.19
305.88	48.81
306.094	30.38
306.308	28.33
306.522	32.43
306.736	54.95
306.95	32.43
307.164	13.99
307.379	34.47
307.593	102.06
307.807	65.19
308.021	89.77
308.235	52.91
308.449	9.9
308.663	22.19
308.877	20.14
309.091	20.14
309.305	18.09
309.519	-22.87
309.733	24.23
309.947	97.96
310.161	36.52
310.374	24.23
310.588	-8.53
310.802	-20.82
311.016	75.43
311.23	24.23
311.444	63.15
311.658	-59.73
311.872	89.77
312.085	22.19
312.299	153.26
312.513	46.76
312.727	81.58
312.941	-33.11
313.154	44.71
313.368	22.19
313.582	87.72
313.796	46.76
314.009	-20.82
314.223	20.14
314.437	75.43
314.651	-57.68
314.864	57
315.078	18.09
315.292	-4.44
315.505	22.19
315.719	-18.77
315.933	102.06
316.146	36.52
316.36	-41.3
316.573	48.81
316.787	85.67
317.001	24.23
317.214	-18.77
317.428	77.48
317.641	57
317.855	54.95
318.068	7.85
318.282	54.95
318.495	79.53
318.709	65.19
318.922	28.33
319.136	91.82
319.349	32.43
319.563	50.86
319.776	48.81
319.99	-14.68
320.203	1.71
320.417	81.58
320.63	-6.49
320.843	69.29
321.057	-8.53
321.27	-10.58
321.483	24.23
321.697	7.85
321.91	44.71
322.124	18.09
322.337	16.04
322.55	42.67
322.763	87.72
322.977	59.05
323.19	18.09
323.403	28.33
323.617	63.15
323.83	1.71
324.043	7.85
324.256	24.23
324.469	13.99
324.683	65.19
324.896	-41.3
325.109	13.99
325.322	-20.82
325.535	75.43
325.748	44.71
325.962	102.06
326.175	32.43
326.388	65.19
326.601	61.1
326.814	-0.34
327.027	-4.44
327.24	89.77
327.453	-22.87
327.666	87.72
327.879	-31.06
328.092	114.34
328.305	73.39
328.518	79.53
328.731	79.53
328.944	77.48
329.157	95.91
329.37	26.28
329.583	13.99
329.796	28.33
330.009	22.19
330.222	81.58
330.435	26.28
330.648	18.09
330.861	22.19
331.073	91.82
331.286	38.57
331.499	30.38
331.712	50.86
331.925	22.19
332.138	18.09
332.35	93.87
332.563	28.33
332.776	26.28
332.989	61.1
333.202	7.85
333.414	83.63
333.627	42.67
333.84	16.04
334.053	40.62
334.265	16.04
334.478	59.05
334.691	3.75
334.903	34.47
335.116	5.8
335.329	87.72
335.541	30.38
335.754	34.47
335.966	48.81
336.179	79.53
336.392	120.49
336.604	-6.49
336.817	1.71
337.029	71.34
337.242	63.15
337.454	71.34
337.667	-16.73
337.88	67.24
338.092	46.76
338.305	71.34
338.517	-16.73
338.729	50.86
338.942	20.14
339.154	-10.58
339.367	97.96
339.579	38.57
339.792	5.8
340.004	63.15
340.217	-47.44
340.429	24.23
340.641	-10.58
340.854	28.33
341.066	20.14
341.278	36.52
341.491	38.57
341.703	46.76
341.915	5.8
342.128	38.57
342.34	-10.58
342.552	-16.73
342.764	83.63
342.977	9.9
343.189	38.57
343.401	24.23
343.613	48.81
343.826	22.19
344.038	7.85
344.25	69.29
344.462	52.91
344.674	-6.49
344.886	-0.34
345.099	104.11
345.311	18.09
345.523	77.48
345.735	3.75
345.947	54.95
346.159	44.71
346.371	3.75
346.583	-8.53
346.795	100.01
347.007	-45.4
347.219	100.01
347.431	81.58
347.643	97.96
347.855	50.86
348.067	73.39
348.279	-0.34
348.491	61.1
348.703	69.29
348.915	7.85
349.127	-33.11
349.339	13.99
349.551	7.85
349.763	128.68
349.975	42.67
350.187	102.06
350.399	40.62
350.61	54.95
350.822	114.34
351.034	-22.87
351.246	-26.96
351.458	7.85
351.669	83.63
351.881	36.52
352.093	22.19
352.305	44.71
352.517	44.71
352.728	11.95
352.94	16.04
353.152	87.72
353.363	-65.88
353.575	71.34
353.787	65.19
353.999	16.04
354.21	18.09
354.422	-29.01
354.633	52.91
354.845	52.91
355.057	5.8
355.268	5.8
355.48	48.81
355.692	54.95
355.903	32.43
356.115	-26.96
356.326	24.23
356.538	63.15
356.749	48.81
356.961	67.24
357.172	-20.82
357.384	24.23
357.595	91.82
357.807	50.86
358.018	36.52
358.23	30.38
358.441	85.67
358.653	5.8
358.864	38.57
359.075	81.58
359.287	57
359.498	24.23
359.709	69.29
359.921	46.76
360.132	13.99
360.344	81.58
360.555	24.23
360.766	134.82
360.977	108.2
361.189	93.87
361.4	48.81
361.611	67.24
361.823	63.15
362.034	44.71
362.245	28.33
362.456	18.09
362.667	61.1
362.879	44.71
363.09	7.85
363.301	26.28
363.512	24.23
363.723	-10.58
363.935	11.95
364.146	87.72
364.357	71.34
364.568	28.33
364.779	30.38
364.99	44.71
365.201	7.85
365.412	42.67
365.623	48.81
365.834	57
366.045	67.24
366.256	22.19
366.467	22.19
366.678	57
366.889	13.99
367.1	48.81
367.311	97.96
367.522	32.43
367.733	79.53
367.944	118.44
368.155	36.52
368.366	120.49
368.577	16.04
368.788	42.67
368.999	79.53
369.209	44.71
369.42	40.62
369.631	102.06
369.842	69.29
370.053	11.95
370.264	145.06
370.474	28.33
370.685	24.23
370.896	63.15
371.107	81.58
371.317	114.34
371.528	16.04
371.739	32.43
371.95	38.57
372.16	28.33
372.371	18.09
372.582	24.23
372.792	67.24
373.003	95.91
373.214	18.09
373.424	48.81
373.635	52.91
373.846	69.29
374.056	13.99
374.267	89.77
374.477	54.95
374.688	-33.11
374.898	18.09
375.109	36.52
375.319	89.77
375.53	40.62
375.74	61.1
375.951	42.67
376.161	50.86
376.372	100.01
376.582	-14.68
376.793	16.04
377.003	42.67
377.214	61.1
377.424	108.2
377.635	95.91
377.845	-41.3
378.055	81.58
378.266	-31.06
378.476	73.39
378.686	3.75
378.897	11.95
379.107	65.19
379.317	9.9
379.528	40.62
379.738	67.24
379.948	-10.58
380.158	120.49
380.369	36.52
380.579	81.58
380.789	11.95
380.999	34.47
381.21	28.33
381.42	140.97
381.63	24.23
381.84	106.15
382.05	52.91
382.261	77.48
382.471	36.52
382.681	36.52
382.891	11.95
383.101	57
383.311	-24.92
383.521	-6.49
383.731	67.24
383.941	97.96
384.151	50.86
384.361	24.23
384.571	30.38
384.781	155.3
384.991	75.43
385.201	106.15
385.411	1.71
385.621	93.87
385.831	134.82
386.041	59.05
386.251	73.39
386.461	65.19
386.671	5.8
386.881	7.85
387.091	22.19
387.301	38.57
387.511	61.1
387.72	138.92
387.93	24.23
388.14	69.29
388.35	-31.06
388.56	54.95
388.769	57
388.979	44.71
389.189	77.48
389.399	36.52
389.609	16.04
389.818	108.2
390.028	7.85
390.238	52.91
390.447	81.58
390.657	83.63
390.867	44.71
391.076	57
391.286	59.05
391.496	61.1
391.705	67.24
391.915	65.19
392.125	54.95
392.334	93.87
392.544	143.02
392.753	42.67
392.963	38.57
393.172	48.81
393.382	89.77
393.591	91.82
393.801	54.95
394.01	122.54
394.22	48.81
394.429	59.05
394.639	46.76
394.848	34.47
395.058	69.29
395.267	122.54
395.477	44.71
395.686	5.8
395.895	97.96
396.105	77.48
396.314	124.58
396.524	71.34
396.733	48.81
396.942	143.02
397.152	122.54
397.361	179.88
397.57	108.2
397.78	65.19
397.989	93.87
398.198	126.63
398.407	87.72
398.617	71.34
398.826	38.57
399.035	91.82
399.244	83.63
399.453	106.15
399.663	118.44
399.872	85.67
400.081	85.67
400.29	147.11
400.499	42.67
400.708	118.44
400.917	159.4
401.127	106.15
401.336	102.06
401.545	155.3
401.754	155.3
401.963	132.78
402.172	124.58
402.381	100.01
402.59	102.06
402.799	124.58
403.008	165.54
403.217	106.15
403.426	136.87
403.635	91.82
403.844	63.15
404.053	122.54
404.262	116.39
404.471	151.21
404.68	188.07
404.888	163.5
405.097	151.21
405.306	140.97
405.515	149.16
405.724	85.67
405.933	149.16
406.142	192.17
406.35	173.74
406.559	190.12
406.768	179.88
406.977	192.17
407.185	265.89
407.394	206.5
407.603	163.5
407.812	130.73
408.02	224.94
408.229	294.57
408.438	224.94
408.646	140.97
408.855	190.12
409.064	163.5
409.272	253.61
409.481	315.05
409.69	251.56
409.898	261.8
410.107	233.13
410.315	284.33
410.524	315.05
410.733	399.01
410.941	345.77
411.15	364.2
411.358	427.68
411.567	298.66
411.775	384.68
411.984	362.15
412.192	362.15
412.401	378.53
412.609	515.75
412.818	435.88
413.026	511.65
413.234	456.36
413.443	435.88
413.651	538.27
413.86	501.41
414.068	521.89
414.276	605.86
414.485	605.86
414.693	632.48
414.901	683.68
415.11	605.86
415.318	599.71
415.526	669.34
415.734	738.98
415.943	704.16
416.151	798.37
416.359	724.64
416.567	796.32
416.776	798.37
416.984	886.43
417.192	896.67
417.4	874.14
417.608	974.49
417.817	994.97
418.025	997.02
418.233	1009.31
418.441	992.92
418.649	1083.03
418.857	1128.09
419.065	1203.86
419.273	1167
419.481	1339.03
419.689	1330.84
419.897	1472.15
420.105	1466
420.313	1461.91
420.521	1490.58
420.729	1488.53
420.937	1535.64
421.145	1613.46
421.353	1658.51
421.561	1769.1
421.769	1832.59
421.977	1822.35
422.185	1846.93
422.393	1953.42
422.601	2084.49
422.809	2100.87
423.017	2215.56
423.224	2262.66
423.432	2440.84
423.64	2250.38
423.848	2477.7
424.056	2389.64
424.263	2633.35
424.471	2672.26
424.679	2645.63
424.887	2883.2
425.094	2911.87
425.302	2954.88
425.51	3010.17
425.718	3128.95
425.925	3198.59
426.133	3321.46
426.341	3473.01
426.548	3735.15
426.756	3702.39
426.964	3575.41
427.171	3913.33
427.379	3898.99
427.586	4046.44
427.794	4230.76
428.001	4453.99
428.209	4720.23
428.417	4472.42
428.624	4920.93
428.832	4904.54
429.039	4908.64
429.247	4894.3
429.454	5174.88
429.662	5703.25
429.869	5279.32
430.076	5512.79
430.284	5449.3
430.491	5817.94
430.699	5938.77
430.906	6055.5
431.114	6141.52
431.321	6368.84
431.528	6557.25
431.736	6841.92
431.943	7247.42
432.15	6860.35
432.358	7276.09
432.565	7421.5
432.772	7274.04
432.979	7712.31
433.187	7927.35
433.394	8064.56
433.601	8678.95
433.808	8545.83
434.016	8558.12
434.223	8939.04
434.43	9256.48
434.637	9197.09
434.844	9938.45
435.052	9907.73
435.259	9760.28
435.466	9889.3
435.673	10040.85
435.88	10690.06
436.087	11120.13
436.294	11052.55
436.501	10733.06
436.708	11181.57
436.915	11499
437.122	12037.62
437.329	12017.14
437.537	12406.25
437.743	12533.23
437.95	12486.12
438.157	13260.26
438.364	13485.53
438.571	13510.11
438.778	13721.05
438.985	14874.06
439.192	14169.55
439.399	14726.6
439.606	14439.89
439.813	15246.79
440.02	15988.15
440.227	15787.45
440.433	15687.1
440.64	16160.18
440.847	16268.72
441.054	16250.29
441.261	17630.62
441.467	17284.51
441.674	17733.02
441.881	18584.98
442.088	18437.52
442.294	18345.36
442.501	18591.12
442.708	19021.19
442.914	19889.53
443.121	20585.84
443.328	20161.91
443.534	21493.09
443.741	21126.5
443.948	20501.87
444.154	22105.43
444.361	22164.82
444.568	22242.65
444.774	22013.27
444.981	22619.47
445.187	23002.44
445.394	24112.44
445.6	23838.01
445.807	25949.47
446.013	24937.77
446.22	25240.87
446.426	26322.2
446.633	26291.48
446.839	27438.34
447.046	26133.79
447.252	27931.9
447.459	27630.85
447.665	27657.48
447.871	29023.47
448.078	29764.84
448.284	28765.43
448.491	29340.91
448.697	30610.65
448.903	30954.71
449.11	31018.19
449.316	30686.42
449.522	31167.7
449.728	32019.65
449.935	32654.52
450.141	32122.05
450.347	33084.59
450.553	32072.9
450.76	32513.21
450.966	33184.94
451.172	32675
451.378	33983.65
451.584	33354.93
451.791	34079.91
451.997	33807.53
452.203	34184.35
452.409	34337.95
452.615	34030.76
452.821	32664.76
453.027	32636.09
453.233	34247.84
453.44	33193.14
453.646	32980.15
453.852	33447.08
454.058	33983.65
454.264	32658.62
454.47	33514.67
454.676	32812.21
454.882	33895.59
455.088	30377.18
455.294	31511.75
455.5	31456.46
455.705	32324.8
455.911	30950.61
456.117	30268.64
456.323	29721.83
456.529	28210.43
456.735	29453.55
456.941	28613.88
457.147	28024.06
457.352	27168.01
457.558	27120.91
457.764	27063.57
457.97	26678.55
458.176	26035.49
458.381	26045.73
458.587	24595.76
458.793	24872.24
458.999	23514.44
459.204	25021.74
459.41	24341.82
459.616	22719.82
459.821	22824.27
460.027	22887.76
460.233	22164.82
460.438	21362.02
460.644	21583.2
460.85	20565.36
461.055	19910.01
461.261	19979.64
461.466	18752.91
461.672	17993.11
461.878	19275.14
462.083	17989.02
462.289	17669.53
462.494	17479.07
462.7	16770.47
462.905	16534.96
463.111	16944.55
463.316	17116.58
463.522	16676.27
463.727	16836.01
463.932	16688.56
464.138	16457.14
464.343	16657.84
464.549	16246.19
464.754	16688.56
464.959	16518.57
465.165	16297.39
465.37	15846.84
465.575	15416.77
465.781	15840.7
465.986	15844.79
466.191	15326.66
466.397	15308.23
466.602	14171.6
466.807	14908.87
467.012	14810.57
467.218	14765.51
467.423	14521.81
467.628	14869.96
467.833	15459.77
468.038	14779.85
468.244	14450.13
