Data from USB4F104151__104__11-07-08-079.txt Node

Date: Wed Mar 12 11:07:08 EDT 2025
User: louis
Spectrometer: USB4F10415
Trigger mode: 4
Integration Time (sec): 2.000000E-2
Scans to average: 1
Electric dark correction enabled: true
Nonlinearity correction enabled: false
Boxcar width: 0
XAxis mode: Wavelengths
Number of Pixels in Spectrum: 3648
>>>>>Begin Spectral Data<<<<<
178.204	-104.11
178.424	-104.11
178.644	-104.11
178.864	-83.63
179.084	-77.48
179.304	-7.85
179.524	-1.71
179.744	-16.04
179.964	8.53
180.184	-44.71
180.404	119.12
180.624	-63.15
180.844	-18.09
181.064	-30.38
181.283	16.73
181.503	10.58
181.723	26.96
181.943	-89.77
182.163	49.49
182.383	14.68
182.602	18.77
182.822	4.44
183.042	8.53
183.262	-20.14
183.482	-9.9
183.701	-20.14
183.921	6.49
184.141	16.73
184.361	18.77
184.58	-7.85
184.8	29.01
185.02	8.53
185.239	33.11
185.459	-3.75
185.679	24.92
185.898	-5.8
186.118	16.73
186.338	-9.9
186.557	49.49
186.777	4.44
186.997	-40.62
187.216	-3.75
187.436	37.2
187.655	12.63
187.875	-5.8
188.095	18.77
188.314	31.06
188.534	22.87
188.753	10.58
188.973	24.92
189.192	65.88
189.412	53.59
189.631	-24.23
189.851	55.64
190.07	26.96
190.29	-3.75
190.509	43.35
190.729	29.01
190.948	22.87
191.168	59.73
191.387	59.73
191.607	74.07
191.826	37.2
192.045	8.53
192.265	24.92
192.484	41.3
192.704	53.59
192.923	2.39
193.142	67.92
193.362	14.68
193.581	45.4
193.8	43.35
194.02	115.03
194.239	-91.82
194.458	53.59
194.678	-7.85
194.897	-32.43
195.116	49.49
195.335	-34.47
195.555	47.44
195.774	41.3
195.993	45.4
196.212	-3.75
196.432	6.49
196.651	-9.9
196.87	8.53
197.089	63.83
197.308	45.4
197.528	-13.99
197.747	-5.8
197.966	39.25
198.185	24.92
198.404	51.54
198.623	0.34
198.842	12.63
199.062	-16.04
199.281	16.73
199.5	41.3
199.719	-26.28
199.938	37.2
200.157	12.63
200.376	59.73
200.595	61.78
200.814	96.6
201.033	74.07
201.252	-1.71
201.471	-22.19
201.69	59.73
201.909	53.59
202.128	2.39
202.347	18.77
202.566	31.06
202.785	12.63
203.004	47.44
203.223	39.25
203.442	57.68
203.661	-5.8
203.879	41.3
204.098	67.92
204.317	-61.1
204.536	29.01
204.755	39.25
204.974	12.63
205.193	69.97
205.411	29.01
205.63	55.64
205.849	8.53
206.068	86.36
206.287	-34.47
206.505	-3.75
206.724	53.59
206.943	29.01
207.162	53.59
207.381	-85.67
207.599	6.49
207.818	47.44
208.037	-13.99
208.255	-3.75
208.474	12.63
208.693	-7.85
208.911	20.82
209.13	100.69
209.349	57.68
209.567	45.4
209.786	-1.71
210.005	-32.43
210.223	-9.9
210.442	16.73
210.661	49.49
210.879	4.44
211.098	-52.91
211.316	-42.67
211.535	37.2
211.753	-44.71
211.972	8.53
212.191	8.53
212.409	6.49
212.628	37.2
212.846	59.73
213.065	39.25
213.283	78.16
213.502	74.07
213.72	20.82
213.938	-13.99
214.157	-24.23
214.375	16.73
214.594	18.77
214.812	108.88
215.031	63.83
215.249	4.44
215.467	-1.71
215.686	2.39
215.904	61.78
216.122	4.44
216.341	14.68
216.559	6.49
216.778	24.92
216.996	-3.75
217.214	-79.53
217.432	31.06
217.651	-1.71
217.869	20.82
218.087	24.92
218.306	-3.75
218.524	22.87
218.742	-69.29
218.96	33.11
219.179	86.36
219.397	-3.75
219.615	33.11
219.833	37.2
220.051	33.11
220.27	72.02
220.488	4.44
220.706	57.68
220.924	88.4
221.142	4.44
221.36	67.92
221.578	-3.75
221.796	6.49
222.015	20.82
222.233	-32.43
222.451	31.06
222.669	-32.43
222.887	53.59
223.105	31.06
223.323	-3.75
223.541	-30.38
223.759	69.97
223.977	-30.38
224.195	14.68
224.413	24.92
224.631	55.64
224.849	67.92
225.067	18.77
225.285	26.96
225.503	-11.95
225.721	-28.33
225.939	76.12
226.157	41.3
226.375	61.78
226.592	-22.19
226.81	12.63
227.028	110.93
227.246	96.6
227.464	-42.67
227.682	-36.52
227.9	-18.09
228.117	49.49
228.335	80.21
228.553	90.45
228.771	47.44
228.989	53.59
229.206	41.3
229.424	121.17
229.642	-26.28
229.86	-44.71
230.077	-67.24
230.295	-65.19
230.513	-54.95
230.731	47.44
230.948	51.54
231.166	-36.52
231.384	-3.75
231.601	45.4
231.819	4.44
232.037	29.01
232.254	4.44
232.472	74.07
232.689	-7.85
232.907	2.39
233.125	88.4
233.342	22.87
233.56	-34.47
233.777	61.78
233.995	76.12
234.213	43.35
234.43	18.77
234.648	53.59
234.865	-44.71
235.083	22.87
235.3	20.82
235.518	55.64
235.735	61.78
235.953	59.73
236.17	2.39
236.388	20.82
236.605	-36.52
236.822	24.92
237.04	24.92
237.257	-18.09
237.475	24.92
237.692	4.44
237.909	37.2
238.127	29.01
238.344	45.4
238.562	65.88
238.779	-7.85
238.996	22.87
239.214	20.82
239.431	26.96
239.648	-3.75
239.865	6.49
240.083	37.2
240.3	59.73
240.517	-81.58
240.735	12.63
240.952	53.59
241.169	57.68
241.386	72.02
241.603	41.3
241.821	-20.14
242.038	47.44
242.255	53.59
242.472	-1.71
242.689	76.12
242.907	14.68
243.124	8.53
243.341	-11.95
243.558	-11.95
243.775	2.39
243.992	-20.14
244.209	35.16
244.426	94.55
244.643	37.2
244.86	20.82
245.078	0.34
245.295	12.63
245.512	-13.99
245.729	22.87
245.946	16.73
246.163	18.77
246.38	16.73
246.597	-54.95
246.814	63.83
247.031	-7.85
247.248	-34.47
247.464	65.88
247.681	2.39
247.898	8.53
248.115	26.96
248.332	-44.71
248.549	2.39
248.766	92.5
248.983	0.34
249.2	39.25
249.417	76.12
249.633	-7.85
249.85	22.87
250.067	29.01
250.284	-3.75
250.501	10.58
250.717	-9.9
250.934	-3.75
251.151	74.07
251.368	20.82
251.585	20.82
251.801	-44.71
252.018	86.36
252.235	65.88
252.451	8.53
252.668	41.3
252.885	43.35
253.102	63.83
253.318	4.44
253.535	14.68
253.752	137.56
253.968	16.73
254.185	-34.47
254.401	-36.52
254.618	82.26
254.835	-20.14
255.051	53.59
255.268	37.2
255.484	33.11
255.701	14.68
255.917	43.35
256.134	-40.62
256.351	72.02
256.567	12.63
256.784	-22.19
257	4.44
257.217	51.54
257.433	24.92
257.65	41.3
257.866	90.45
258.082	67.92
258.299	45.4
258.515	76.12
258.732	-9.9
258.948	72.02
259.165	55.64
259.381	-50.86
259.597	2.39
259.814	-24.23
260.03	8.53
260.246	-18.09
260.463	-63.15
260.679	59.73
260.895	35.16
261.112	43.35
261.328	45.4
261.544	39.25
261.761	45.4
261.977	8.53
262.193	26.96
262.409	0.34
262.626	55.64
262.842	43.35
263.058	-5.8
263.274	43.35
263.49	20.82
263.707	45.4
263.923	100.69
264.139	33.11
264.355	24.92
264.571	65.88
264.787	-26.28
265.004	41.3
265.22	4.44
265.436	-5.8
265.652	29.01
265.868	59.73
266.084	53.59
266.3	69.97
266.516	-20.14
266.732	41.3
266.948	-65.19
267.164	16.73
267.38	-52.91
267.596	-5.8
267.812	12.63
268.028	90.45
268.244	55.64
268.46	10.58
268.676	102.74
268.892	24.92
269.108	39.25
269.324	57.68
269.54	-20.14
269.756	-5.8
269.972	-18.09
270.188	8.53
270.403	-44.71
270.619	24.92
270.835	-13.99
271.051	57.68
271.267	24.92
271.483	106.84
271.698	86.36
271.914	96.6
272.13	82.26
272.346	10.58
272.562	-20.14
272.777	18.77
272.993	26.96
273.209	102.74
273.425	24.92
273.64	-16.04
273.856	84.31
274.072	24.92
274.287	-34.47
274.503	26.96
274.719	-32.43
274.934	-11.95
275.15	-13.99
275.366	24.92
275.581	-52.91
275.797	10.58
276.012	12.63
276.228	0.34
276.444	45.4
276.659	69.97
276.875	33.11
277.09	88.4
277.306	-7.85
277.521	39.25
277.737	31.06
277.952	-7.85
278.168	26.96
278.383	31.06
278.599	-34.47
278.814	90.45
279.03	4.44
279.245	37.2
279.461	26.96
279.676	-9.9
279.892	4.44
280.107	47.44
280.322	-3.75
280.538	57.68
280.753	-7.85
280.969	41.3
281.184	18.77
281.399	57.68
281.615	47.44
281.83	-11.95
282.045	-7.85
282.26	8.53
282.476	94.55
282.691	47.44
282.906	29.01
283.122	45.4
283.337	-1.71
283.552	20.82
283.767	65.88
283.983	69.97
284.198	20.82
284.413	18.77
284.628	-24.23
284.843	8.53
285.058	29.01
285.274	31.06
285.489	29.01
285.704	37.2
285.919	33.11
286.134	16.73
286.349	0.34
286.564	22.87
286.779	-9.9
286.995	49.49
287.21	37.2
287.425	-63.15
287.64	-7.85
287.855	0.34
288.07	33.11
288.285	4.44
288.5	51.54
288.715	53.59
288.93	26.96
289.145	47.44
289.36	94.55
289.575	57.68
289.79	76.12
290.004	53.59
290.219	106.84
290.434	6.49
290.649	18.77
290.864	-18.09
291.079	14.68
291.294	90.45
291.509	57.68
291.724	-20.14
291.938	24.92
292.153	47.44
292.368	-9.9
292.583	2.39
292.798	4.44
293.012	-11.95
293.227	29.01
293.442	-42.67
293.657	43.35
293.871	31.06
294.086	12.63
294.301	121.17
294.516	35.16
294.73	59.73
294.945	35.16
295.16	22.87
295.374	53.59
295.589	33.11
295.804	-16.04
296.018	12.63
296.233	16.73
296.447	80.21
296.662	37.2
296.877	31.06
297.091	4.44
297.306	24.92
297.52	37.2
297.735	102.74
297.949	45.4
298.164	37.2
298.378	-3.75
298.593	4.44
298.807	-7.85
299.022	61.78
299.236	20.82
299.451	84.31
299.665	-38.57
299.88	26.96
300.094	8.53
300.309	26.96
300.523	35.16
300.737	-30.38
300.952	76.12
301.166	6.49
301.381	-7.85
301.595	8.53
301.809	102.74
302.024	16.73
302.238	69.97
302.452	31.06
302.667	29.01
302.881	33.11
303.095	53.59
303.309	12.63
303.524	12.63
303.738	63.83
303.952	43.35
304.166	96.6
304.381	-1.71
304.595	92.5
304.809	61.78
305.023	-32.43
305.237	12.63
305.452	-48.81
305.666	57.68
305.88	0.34
306.094	12.63
306.308	-11.95
306.522	37.2
306.736	90.45
306.95	78.16
307.164	18.77
307.379	33.11
307.593	53.59
307.807	72.02
308.021	82.26
308.235	49.49
308.449	35.16
308.663	51.54
308.877	61.78
309.091	22.87
309.305	2.39
309.519	10.58
309.733	-13.99
309.947	12.63
310.161	-9.9
310.374	39.25
310.588	69.97
310.802	98.64
311.016	43.35
311.23	35.16
311.444	-1.71
311.658	-61.1
311.872	80.21
312.085	2.39
312.299	37.2
312.513	39.25
312.727	43.35
312.941	31.06
313.154	29.01
313.368	37.2
313.582	22.87
313.796	43.35
314.009	22.87
314.223	110.93
314.437	-16.04
314.651	-30.38
314.864	-59.05
315.078	18.77
315.292	-20.14
315.505	-20.14
315.719	41.3
315.933	84.31
316.146	-5.8
316.36	-13.99
316.573	4.44
316.787	16.73
317.001	84.31
317.214	-36.52
317.428	90.45
317.641	43.35
317.855	31.06
318.068	26.96
318.282	123.22
318.495	55.64
318.709	90.45
318.922	-26.28
319.136	80.21
319.349	-118.44
319.563	82.26
319.776	-5.8
319.99	-1.71
320.203	35.16
320.417	-5.8
320.63	129.36
320.843	108.88
321.057	12.63
321.27	22.87
321.483	-36.52
321.697	31.06
321.91	-18.09
322.124	0.34
322.337	16.73
322.55	94.55
322.763	-3.75
322.977	-38.57
323.19	47.44
323.403	-7.85
323.617	0.34
323.83	72.02
324.043	94.55
324.256	-34.47
324.469	43.35
324.683	33.11
324.896	29.01
325.109	55.64
325.322	10.58
325.535	37.2
325.748	88.4
325.962	24.92
326.175	61.78
326.388	24.92
326.601	39.25
326.814	37.2
327.027	45.4
327.24	16.73
327.453	-36.52
327.666	53.59
327.879	86.36
328.092	22.87
328.305	26.96
328.518	29.01
328.731	6.49
328.944	-20.14
329.157	55.64
329.37	100.69
329.583	104.79
329.796	110.93
330.009	0.34
330.222	-57
330.435	-36.52
330.648	69.97
330.861	-28.33
331.073	65.88
331.286	57.68
331.499	-11.95
331.712	-11.95
331.925	22.87
332.138	-20.14
332.35	100.69
332.563	-48.81
332.776	18.77
332.989	-3.75
333.202	94.55
333.414	41.3
333.627	35.16
333.84	41.3
334.053	14.68
334.265	-16.04
334.478	41.3
334.691	-59.05
334.903	88.4
335.116	26.96
335.329	-24.23
335.541	112.98
335.754	16.73
335.966	-26.28
336.179	49.49
336.392	53.59
336.604	26.96
336.817	45.4
337.029	96.6
337.242	80.21
337.454	-61.1
337.667	-44.71
337.88	63.83
338.092	-32.43
338.305	84.31
338.517	49.49
338.729	45.4
338.942	-16.04
339.154	-38.57
339.367	33.11
339.579	-11.95
339.792	61.78
340.004	96.6
340.217	-3.75
340.429	24.92
340.641	-3.75
340.854	-7.85
341.066	-24.23
341.278	24.92
341.491	41.3
341.703	-11.95
341.915	-20.14
342.128	69.97
342.34	2.39
342.552	-11.95
342.764	94.55
342.977	-30.38
343.189	0.34
343.401	-54.95
343.613	8.53
343.826	92.5
344.038	-7.85
344.25	78.16
344.462	-73.39
344.674	61.78
344.886	-13.99
345.099	10.58
345.311	24.92
345.523	59.73
345.735	135.51
345.947	14.68
346.159	12.63
346.371	8.53
346.583	84.31
346.795	33.11
347.007	76.12
347.219	98.64
347.431	45.4
347.643	49.49
347.855	49.49
348.067	76.12
348.279	0.34
348.491	0.34
348.703	63.83
348.915	-34.47
349.127	4.44
349.339	145.75
349.551	26.96
349.763	49.49
349.975	0.34
350.187	115.03
350.399	20.82
350.61	63.83
350.822	24.92
351.034	43.35
351.246	0.34
351.458	16.73
351.669	-5.8
351.881	26.96
352.093	-44.71
352.305	41.3
352.517	35.16
352.728	72.02
352.94	6.49
353.152	94.55
353.363	-42.67
353.575	16.73
353.787	80.21
353.999	22.87
354.21	69.97
354.422	6.49
354.633	39.25
354.845	-16.04
355.057	-11.95
355.268	22.87
355.48	22.87
355.692	29.01
355.903	61.78
356.115	29.01
356.326	-11.95
356.538	98.64
356.749	20.82
356.961	0.34
357.172	20.82
357.384	-20.14
357.595	2.39
357.807	82.26
358.018	80.21
358.23	106.84
358.441	90.45
358.653	2.39
358.864	6.49
359.075	-36.52
359.287	49.49
359.498	-1.71
359.709	4.44
359.921	55.64
360.132	20.82
360.344	90.45
360.555	16.73
360.766	-7.85
360.977	20.82
361.189	69.97
361.4	-22.19
361.611	65.88
361.823	-13.99
362.034	47.44
362.245	2.39
362.456	78.16
362.667	20.82
362.879	10.58
363.09	-13.99
363.301	61.78
363.512	76.12
363.723	20.82
363.935	67.92
364.146	84.31
364.357	-36.52
364.568	45.4
364.779	-44.71
364.99	45.4
365.201	33.11
365.412	74.07
365.623	47.44
365.834	18.77
366.045	45.4
366.256	-3.75
366.467	45.4
366.678	47.44
366.889	-1.71
367.1	57.68
367.311	4.44
367.522	10.58
367.733	-5.8
367.944	69.97
368.155	135.51
368.366	31.06
368.577	86.36
368.788	78.16
368.999	-85.67
369.209	74.07
369.42	74.07
369.631	92.5
369.842	76.12
370.053	-9.9
370.264	-7.85
370.474	37.2
370.685	-13.99
370.896	4.44
371.107	57.68
371.317	24.92
371.528	119.12
371.739	110.93
371.95	92.5
372.16	12.63
372.371	74.07
372.582	14.68
372.792	-7.85
373.003	37.2
373.214	47.44
373.424	55.64
373.635	-3.75
373.846	92.5
374.056	-18.09
374.267	131.41
374.477	63.83
374.688	22.87
374.898	-26.28
375.109	6.49
375.319	31.06
375.53	117.08
375.74	20.82
375.951	37.2
376.161	47.44
376.372	63.83
376.582	-24.23
376.793	78.16
377.003	39.25
377.214	86.36
377.424	59.73
377.635	31.06
377.845	24.92
378.055	141.65
378.266	69.97
378.476	-22.19
378.686	65.88
378.897	67.92
379.107	59.73
379.317	37.2
379.528	-13.99
379.738	100.69
379.948	29.01
380.158	63.83
380.369	82.26
380.579	96.6
380.789	59.73
380.999	145.75
381.21	61.78
381.42	33.11
381.63	26.96
381.84	29.01
382.05	59.73
382.261	61.78
382.471	43.35
382.681	94.55
382.891	8.53
383.101	166.23
383.311	16.73
383.521	-1.71
383.731	78.16
383.941	61.78
384.151	45.4
384.361	33.11
384.571	-5.8
384.781	41.3
384.991	98.64
385.201	98.64
385.411	119.12
385.621	74.07
385.831	33.11
386.041	37.2
386.251	-13.99
386.461	65.88
386.671	0.34
386.881	47.44
387.091	57.68
387.301	108.88
387.511	51.54
387.72	110.93
387.93	24.92
388.14	61.78
388.35	37.2
388.56	10.58
388.769	29.01
388.979	-9.9
389.189	72.02
389.399	69.97
389.609	63.83
389.818	78.16
390.028	-7.85
390.238	43.35
390.447	49.49
390.657	0.34
390.867	35.16
391.076	59.73
391.286	86.36
391.496	24.92
391.705	67.92
391.915	125.27
392.125	-3.75
392.334	37.2
392.544	22.87
392.753	108.88
392.963	47.44
393.172	8.53
393.382	20.82
393.591	35.16
393.801	51.54
394.01	65.88
394.22	82.26
394.429	43.35
394.639	69.97
394.848	39.25
395.058	33.11
395.267	51.54
395.477	33.11
395.686	84.31
395.895	47.44
396.105	94.55
396.314	39.25
396.524	37.2
396.733	53.59
396.942	63.83
397.152	8.53
397.361	90.45
397.57	94.55
397.78	147.8
397.989	153.94
398.198	98.64
398.407	88.4
398.617	37.2
398.826	153.94
399.035	86.36
399.244	117.08
399.453	78.16
399.663	67.92
399.872	92.5
400.081	98.64
400.29	139.6
400.499	18.77
400.708	78.16
400.917	20.82
401.127	127.32
401.336	76.12
401.545	84.31
401.754	121.17
401.963	51.54
402.172	18.77
402.381	143.7
402.59	143.7
402.799	158.03
403.008	57.68
403.217	135.51
403.426	125.27
403.635	74.07
403.844	121.17
404.053	110.93
404.262	125.27
404.471	176.47
404.68	86.36
404.888	143.7
405.097	137.56
405.306	129.36
405.515	135.51
405.724	98.64
405.933	65.88
406.142	117.08
406.35	211.28
406.559	137.56
406.768	135.51
406.977	242
407.185	176.47
407.394	209.23
407.603	168.27
407.812	246.1
408.02	221.52
408.229	227.67
408.438	160.08
408.646	264.53
408.855	237.91
409.064	264.53
409.272	248.15
409.481	217.43
409.69	317.78
409.898	313.68
410.107	282.96
410.315	254.29
410.524	254.29
410.733	330.06
410.941	188.75
411.15	258.39
411.358	332.11
411.567	352.59
411.775	393.55
411.984	385.36
412.192	280.91
412.401	420.17
412.609	434.51
412.818	411.98
413.026	477.52
413.234	428.37
413.443	377.17
413.651	473.42
413.86	547.15
414.068	512.33
414.276	581.96
414.485	461.13
414.693	551.24
414.901	575.82
415.11	584.01
415.318	629.07
415.526	680.27
415.734	680.27
415.943	725.32
416.151	819.53
416.359	715.08
416.567	715.08
416.776	721.23
416.984	774.47
417.192	887.11
417.4	950.6
417.608	858.44
417.817	854.34
418.025	971.08
418.233	966.98
418.441	958.79
418.649	1032.52
418.857	1059.14
419.065	1214.79
419.273	1053
419.481	1192.26
419.689	1245.51
419.897	1370.43
420.105	1413.44
420.313	1454.4
420.521	1345.86
420.729	1376.58
420.937	1483.07
421.145	1564.99
421.353	1648.96
421.561	1708.35
421.769	1724.73
421.977	1839.42
422.185	1720.64
422.393	1886.52
422.601	1904.95
422.809	1995.06
423.017	2003.25
423.224	2068.79
423.432	2236.72
423.64	2099.51
423.848	2347.31
424.056	2289.97
424.263	2457.9
424.471	2451.76
424.679	2498.86
424.887	2728.24
425.094	2677.04
425.302	2724.14
425.51	2863.4
425.718	2930.98
425.925	3010.86
426.133	2967.85
426.341	3199.27
426.548	3305.76
426.756	3215.65
426.964	3461.41
427.171	3692.83
427.379	3594.53
427.586	3856.67
427.794	3825.95
428.001	3989.78
428.209	4313.36
428.417	4165.91
428.624	4567.31
428.832	4442.39
429.039	4469.01
429.247	4458.77
429.454	4950.28
429.662	5267.72
429.869	4833.55
430.076	5339.4
430.284	5163.27
430.491	5280
430.699	5480.71
430.906	5531.9
431.114	5550.34
431.321	5853.44
431.528	5966.07
431.736	6342.9
431.943	6840.56
432.15	6488.31
432.358	6543.6
432.565	6897.9
432.772	6930.67
432.979	7364.84
433.187	7399.65
433.394	7532.77
433.601	7788.77
433.808	8032.47
434.016	7725.28
434.223	8321.24
434.43	8616.15
434.637	8591.57
434.844	9081.03
435.052	9277.64
435.259	9332.93
435.466	9392.33
435.673	9097.42
435.88	9863.36
436.087	10080.44
436.294	10148.03
436.501	10172.6
436.708	10485.94
436.915	10733.75
437.122	11317.42
437.329	11172.01
437.537	11491.49
437.743	11729.06
437.95	11385
438.157	11991.2
438.364	12517.53
438.571	12394.65
438.778	12482.71
438.985	13697.16
439.192	13219.98
439.399	13580.42
439.606	13252.75
439.813	13785.22
440.02	14876.79
440.227	14540.92
440.433	14616.69
440.64	14995.57
440.847	14989.42
441.054	15267.95
441.261	16541.78
441.467	16121.95
441.674	16558.17
441.881	17082.45
442.088	16967.76
442.294	16867.41
442.501	17434.7
442.708	17659.98
442.914	18473.02
443.121	19234.86
443.328	18518.07
443.534	20035.62
443.741	19281.97
443.948	19056.69
444.154	20469.79
444.361	20314.14
444.568	20600.86
444.774	20475.93
444.981	20676.63
445.187	21272.59
445.394	22241.28
445.6	22093.83
445.807	23918.57
446.013	23166.96
446.22	23572.46
446.426	24385.51
446.633	24571.87
446.839	25112.53
447.046	24287.2
447.252	25630.67
447.459	25526.22
447.665	25511.89
447.871	26591.17
448.078	27754.41
448.284	26345.41
448.491	27170.74
448.697	28280.74
448.903	28610.46
449.11	28901.28
449.316	28176.3
449.522	28407.72
449.728	29542.29
449.935	29419.41
450.141	29683.6
450.347	30533.51
450.553	29546.39
450.76	29917.07
450.966	30891.9
451.172	30115.72
451.378	31223.67
451.584	30730.11
451.791	31113.08
451.997	30961.53
452.203	31643.51
452.409	31733.62
452.615	31455.09
452.821	30355.33
453.027	29970.32
453.233	31760.24
453.44	30422.92
453.646	30621.57
453.852	31174.52
454.058	31393.65
454.264	30164.87
454.47	30551.94
454.676	30384.01
454.882	31137.66
455.088	28473.25
455.294	28972.96
455.5	29388.69
455.705	29556.63
455.911	28342.18
456.117	27889.58
456.323	27477.94
456.529	25716.68
456.735	27252.66
456.941	26353.6
457.147	26101.7
457.352	25024.47
457.558	25036.76
457.764	25120.73
457.97	24575.97
458.176	23767.02
458.381	24125.41
458.587	22722.55
458.793	22491.13
458.999	21612.56
459.204	23318.51
459.41	22333.44
459.616	20867.09
459.821	20965.4
460.027	20920.34
460.233	20940.82
460.438	19456.04
460.644	19978.28
460.85	19048.5
461.055	18847.8
461.261	18485.31
461.466	17209.42
461.672	16654.42
461.878	18018.37
462.083	16609.37
462.289	16420.95
462.494	16097.38
462.7	15542.38
462.905	15222.89
463.111	15587.43
463.316	15722.6
463.522	15186.03
463.727	15138.93
463.932	15351.92
464.138	15124.59
464.343	15390.83
464.549	14780.53
464.754	15317.1
464.959	15216.75
465.165	15032.43
465.37	14424.19
465.575	14092.41
465.781	14608.5
465.986	14678.13
466.191	14041.22
466.397	13783.17
466.602	13279.37
466.807	13645.96
467.012	13795.46
467.218	13820.03
467.423	13553.8
467.628	13787.27
467.833	14291.07
468.038	13488.26
468.244	13267.08
468.449	13684.87
