Data from USB4F104151__8__11-04-35-816.txt Node

Date: Wed Mar 12 11:04:35 EDT 2025
User: louis
Spectrometer: USB4F10415
Trigger mode: 4
Integration Time (sec): 2.000000E-2
Scans to average: 1
Electric dark correction enabled: true
Nonlinearity correction enabled: false
Boxcar width: 0
XAxis mode: Wavelengths
Number of Pixels in Spectrum: 3648
>>>>>Begin Spectral Data<<<<<
178.204	-76.63
178.424	-76.63
178.644	-76.63
178.864	-107.35
179.084	-66.39
179.304	-45.91
179.524	19.63
179.744	-4.95
179.964	21.67
180.184	-11.09
180.404	56.49
180.624	-31.57
180.844	-2.9
181.064	-33.62
181.283	40.11
181.503	-25.43
181.723	17.58
181.943	-37.72
182.163	23.72
182.383	1.19
182.602	-52.05
182.822	83.11
183.042	17.58
183.262	40.11
183.482	42.15
183.701	-17.24
183.921	-0.85
184.141	-29.52
184.361	54.44
184.58	19.63
184.8	3.24
185.02	7.34
185.239	58.54
185.459	21.67
185.679	29.87
185.898	-35.67
186.118	36.01
186.338	3.24
186.557	58.54
186.777	-21.33
186.997	3.24
187.216	-19.29
187.436	64.68
187.655	44.2
187.875	19.63
188.095	-27.48
188.314	68.78
188.534	-4.95
188.753	29.87
188.973	68.78
189.192	-27.48
189.412	62.63
189.631	85.16
189.851	13.48
190.07	72.87
190.29	-70.48
190.509	-0.85
190.729	-43.86
190.948	-7
191.168	117.93
191.387	60.59
191.607	-27.48
191.826	-15.19
192.045	-39.76
192.265	58.54
192.484	-7
192.704	17.58
192.923	3.24
193.142	54.44
193.362	13.48
193.581	62.63
193.8	33.96
194.02	23.72
194.239	-21.33
194.458	42.15
194.678	-11.09
194.897	54.44
195.116	-7
195.335	3.24
195.555	23.72
195.774	19.63
195.993	5.29
196.212	38.06
196.432	-23.38
196.651	-33.62
196.87	25.77
197.089	79.02
197.308	103.59
197.528	-25.43
197.747	-37.72
197.966	-0.85
198.185	31.91
198.404	48.3
198.623	29.87
198.842	-4.95
199.062	23.72
199.281	91.31
199.5	27.82
199.719	17.58
199.938	21.67
200.157	40.11
200.376	19.63
200.595	54.44
200.814	21.67
201.033	-35.67
201.252	-37.72
201.471	29.87
201.69	5.29
201.909	56.49
202.128	7.34
202.347	33.96
202.566	-43.86
202.785	-37.72
203.004	-31.57
203.223	132.26
203.442	-33.62
203.661	23.72
203.879	-23.38
204.098	97.45
204.317	25.77
204.536	23.72
204.755	-13.14
204.974	13.48
205.193	31.91
205.411	87.21
205.63	-0.85
205.849	-43.86
206.068	23.72
206.287	13.48
206.505	56.49
206.724	-35.67
206.943	-41.81
207.162	33.96
207.381	44.2
207.599	27.82
207.818	48.3
208.037	79.02
208.255	-33.62
208.474	-9.05
208.693	99.5
208.911	3.24
209.13	33.96
209.349	5.29
209.567	-7
209.786	46.25
210.005	3.24
210.223	56.49
210.442	-7
210.661	40.11
210.879	19.63
211.098	62.63
211.316	76.97
211.535	-11.09
211.753	-7
211.972	58.54
212.191	56.49
212.409	107.69
212.628	15.53
212.846	-52.05
213.065	-39.76
213.283	99.5
213.502	3.24
213.72	-9.05
213.938	13.48
214.157	1.19
214.375	5.29
214.594	-11.09
214.812	36.01
215.031	7.34
215.249	76.97
215.467	40.11
215.686	38.06
215.904	-9.05
216.122	-58.2
216.341	81.07
216.559	-60.24
216.778	81.07
216.996	46.25
217.214	19.63
217.432	-2.9
217.651	-58.2
217.869	9.39
218.087	54.44
218.306	-47.96
218.524	-15.19
218.742	-47.96
218.96	38.06
219.179	-25.43
219.397	27.82
219.615	27.82
219.833	87.21
220.051	-47.96
220.27	54.44
220.488	3.24
220.706	52.39
220.924	-15.19
221.142	25.77
221.36	-4.95
221.578	-2.9
221.796	40.11
222.015	58.54
222.233	23.72
222.451	76.97
222.669	23.72
222.887	-23.38
223.105	21.67
223.323	107.69
223.541	13.48
223.759	5.29
223.977	19.63
224.195	9.39
224.413	31.91
224.631	21.67
224.849	13.48
225.067	38.06
225.285	-27.48
225.503	23.72
225.721	-4.95
225.939	70.83
226.157	46.25
226.375	-13.14
226.592	-25.43
226.81	31.91
227.028	23.72
227.246	91.31
227.464	36.01
227.682	-7
227.9	9.39
228.117	36.01
228.335	36.01
228.553	48.3
228.771	11.43
228.989	36.01
229.206	105.64
229.424	-37.72
229.642	1.19
229.86	17.58
230.077	17.58
230.295	46.25
230.513	-70.48
230.731	11.43
230.948	3.24
231.166	3.24
231.384	1.19
231.601	54.44
231.819	85.16
232.037	-95.06
232.254	40.11
232.472	42.15
232.689	-35.67
232.907	101.55
233.125	-50
233.342	-23.38
233.56	40.11
233.777	70.83
233.995	-17.24
234.213	-29.52
234.43	40.11
234.648	11.43
234.865	-0.85
235.083	-0.85
235.3	-35.67
235.518	36.01
235.735	87.21
235.953	23.72
236.17	-4.95
236.388	5.29
236.605	46.25
236.822	-11.09
237.04	-0.85
237.257	33.96
237.475	-25.43
237.692	-111.44
237.909	3.24
238.127	17.58
238.344	42.15
238.562	99.5
238.779	7.34
238.996	44.2
239.214	74.92
239.431	56.49
239.648	-9.05
239.865	46.25
240.083	76.97
240.3	101.55
240.517	74.92
240.735	19.63
240.952	83.11
241.169	9.39
241.386	54.44
241.603	-37.72
241.821	-29.52
242.038	27.82
242.255	-39.76
242.472	11.43
242.689	7.34
242.907	17.58
243.124	5.29
243.341	15.53
243.558	52.39
243.775	54.44
243.992	15.53
244.209	15.53
244.426	38.06
244.643	-23.38
244.86	9.39
245.078	5.29
245.295	27.82
245.512	33.96
245.729	-25.43
245.946	54.44
246.163	-66.39
246.38	-9.05
246.597	-9.05
246.814	-2.9
247.031	11.43
247.248	-29.52
247.464	-21.33
247.681	21.67
247.898	-31.57
248.115	33.96
248.332	-15.19
248.549	19.63
248.766	113.83
248.983	74.92
249.2	-25.43
249.417	-0.85
249.633	13.48
249.85	11.43
250.067	17.58
250.284	31.91
250.501	-19.29
250.717	46.25
250.934	17.58
251.151	-27.48
251.368	-7
251.585	42.15
251.801	40.11
252.018	58.54
252.235	-60.24
252.451	-47.96
252.668	89.26
252.885	42.15
253.102	-9.05
253.318	62.63
253.535	3.24
253.752	64.68
253.968	40.11
254.185	5.29
254.401	15.53
254.618	74.92
254.835	11.43
255.051	93.35
255.268	-37.72
255.484	-13.14
255.701	21.67
255.917	25.77
256.134	-47.96
256.351	68.78
256.567	27.82
256.784	15.53
257	-78.68
257.217	44.2
257.433	68.78
257.65	81.07
257.866	-0.85
258.082	13.48
258.299	40.11
258.515	52.39
258.732	74.92
258.948	1.19
259.165	-9.05
259.381	-7
259.597	46.25
259.814	-37.72
260.03	27.82
260.246	15.53
260.463	72.87
260.679	126.12
260.895	-35.67
261.112	17.58
261.328	-7
261.544	-7
261.761	21.67
261.977	-31.57
262.193	11.43
262.409	-2.9
262.626	66.73
262.842	-15.19
263.058	5.29
263.274	3.24
263.49	-17.24
263.707	48.3
263.923	-31.57
264.139	-54.1
264.355	36.01
264.571	111.78
264.787	62.63
265.004	76.97
265.22	58.54
265.436	1.19
265.652	95.4
265.868	-25.43
266.084	3.24
266.3	31.91
266.516	-74.58
266.732	31.91
266.948	46.25
267.164	36.01
267.38	3.24
267.596	52.39
267.812	70.83
268.028	91.31
268.244	52.39
268.46	-17.24
268.676	-43.86
268.892	31.91
269.108	21.67
269.324	72.87
269.54	72.87
269.756	46.25
269.972	-45.91
270.188	44.2
270.403	-19.29
270.619	-2.9
270.835	46.25
271.051	79.02
271.267	-41.81
271.483	19.63
271.698	17.58
271.914	-21.33
272.13	21.67
272.346	15.53
272.562	11.43
272.777	-9.05
272.993	-11.09
273.209	-15.19
273.425	21.67
273.64	-54.1
273.856	-43.86
274.072	3.24
274.287	60.59
274.503	23.72
274.719	9.39
274.934	-15.19
275.15	11.43
275.366	-25.43
275.581	33.96
275.797	103.59
276.012	13.48
276.228	27.82
276.444	83.11
276.659	33.96
276.875	-56.15
277.09	5.29
277.306	-2.9
277.521	58.54
277.737	66.73
277.952	64.68
278.168	9.39
278.383	5.29
278.599	-17.24
278.814	105.64
279.03	36.01
279.245	21.67
279.461	-2.9
279.676	52.39
279.892	36.01
280.107	1.19
280.322	-31.57
280.538	95.4
280.753	-0.85
280.969	70.83
281.184	-7
281.399	93.35
281.615	76.97
281.83	60.59
282.045	-7
282.26	58.54
282.476	58.54
282.691	-0.85
282.906	3.24
283.122	-50
283.337	25.77
283.552	29.87
283.767	-35.67
283.983	-11.09
284.198	38.06
284.413	89.26
284.628	33.96
284.843	50.35
285.058	36.01
285.274	56.49
285.489	-0.85
285.704	17.58
285.919	25.77
286.134	1.19
286.349	70.83
286.564	-11.09
286.779	122.02
286.995	7.34
287.21	-7
287.425	38.06
287.64	-39.76
287.855	46.25
288.07	7.34
288.285	60.59
288.5	25.77
288.715	60.59
288.93	19.63
289.145	31.91
289.36	62.63
289.575	36.01
289.79	-35.67
290.004	17.58
290.219	29.87
290.434	25.77
290.649	-7
290.864	40.11
291.079	-9.05
291.294	38.06
291.509	9.39
291.724	36.01
291.938	70.83
292.153	38.06
292.368	1.19
292.583	42.15
292.798	93.35
293.012	15.53
293.227	21.67
293.442	-4.95
293.657	66.73
293.871	70.83
294.086	40.11
294.301	56.49
294.516	-4.95
294.73	52.39
294.945	-4.95
295.16	-25.43
295.374	33.96
295.589	19.63
295.804	-62.29
296.018	40.11
296.233	9.39
296.447	44.2
296.662	27.82
296.877	-13.14
297.091	126.12
297.306	52.39
297.52	-2.9
297.735	-17.24
297.949	81.07
298.164	15.53
298.378	3.24
298.593	-25.43
298.807	25.77
299.022	5.29
299.236	23.72
299.451	36.01
299.665	-62.29
299.88	42.15
300.094	-29.52
300.309	-31.57
300.523	58.54
300.737	-15.19
300.952	87.21
301.166	21.67
301.381	-15.19
301.595	19.63
301.809	-7
302.024	9.39
302.238	42.15
302.452	50.35
302.667	33.96
302.881	48.3
303.095	27.82
303.309	58.54
303.524	-54.1
303.738	11.43
303.952	40.11
304.166	68.78
304.381	42.15
304.595	68.78
304.809	-2.9
305.023	128.17
305.237	-78.68
305.452	60.59
305.666	-47.96
305.88	25.77
306.094	13.48
306.308	54.44
306.522	9.39
306.736	-47.96
306.95	103.59
307.164	19.63
307.379	-0.85
307.593	74.92
307.807	31.91
308.021	74.92
308.235	52.39
308.449	40.11
308.663	54.44
308.877	62.63
309.091	23.72
309.305	44.2
309.519	31.91
309.733	27.82
309.947	7.34
310.161	36.01
310.374	64.68
310.588	83.11
310.802	46.25
311.016	70.83
311.23	68.78
311.444	60.59
311.658	29.87
311.872	117.93
312.085	19.63
312.299	21.67
312.513	50.35
312.727	74.92
312.941	62.63
313.154	5.29
313.368	87.21
313.582	36.01
313.796	-7
314.009	15.53
314.223	29.87
314.437	5.29
314.651	13.48
314.864	66.73
315.078	19.63
315.292	74.92
315.505	52.39
315.719	-9.05
315.933	15.53
316.146	48.3
316.36	-56.15
316.573	-31.57
316.787	46.25
317.001	5.29
317.214	52.39
317.428	58.54
317.641	9.39
317.855	83.11
318.068	40.11
318.282	140.46
318.495	130.22
318.709	5.29
318.922	27.82
319.136	111.78
319.349	54.44
319.563	-37.72
319.776	17.58
319.99	-43.86
320.203	33.96
320.417	-7
320.63	79.02
320.843	64.68
321.057	56.49
321.27	62.63
321.483	38.06
321.697	25.77
321.91	60.59
322.124	13.48
322.337	60.59
322.55	31.91
322.763	9.39
322.977	40.11
323.19	21.67
323.403	38.06
323.617	38.06
323.83	27.82
324.043	17.58
324.256	29.87
324.469	15.53
324.683	83.11
324.896	66.73
325.109	5.29
325.322	105.64
325.535	42.15
325.748	17.58
325.962	66.73
326.175	5.29
326.388	11.43
326.601	103.59
326.814	72.87
327.027	99.5
327.24	58.54
327.453	-15.19
327.666	56.49
327.879	48.3
328.092	-13.14
328.305	19.63
328.518	27.82
328.731	42.15
328.944	60.59
329.157	48.3
329.37	52.39
329.583	119.98
329.796	1.19
330.009	25.77
330.222	48.3
330.435	44.2
330.648	15.53
330.861	38.06
331.073	3.24
331.286	-35.67
331.499	76.97
331.712	44.2
331.925	21.67
332.138	-25.43
332.35	-15.19
332.563	-11.09
332.776	74.92
332.989	40.11
333.202	46.25
333.414	68.78
333.627	81.07
333.84	38.06
334.053	42.15
334.265	23.72
334.478	1.19
334.691	-19.29
334.903	33.96
335.116	42.15
335.329	54.44
335.541	50.35
335.754	54.44
335.966	66.73
336.179	25.77
336.392	33.96
336.604	-11.09
336.817	97.45
337.029	91.31
337.242	27.82
337.454	56.49
337.667	79.02
337.88	36.01
338.092	9.39
338.305	54.44
338.517	40.11
338.729	64.68
338.942	13.48
339.154	66.73
339.367	-4.95
339.579	48.3
339.792	48.3
340.004	113.83
340.217	64.68
340.429	70.83
340.641	38.06
340.854	48.3
341.066	29.87
341.278	83.11
341.491	54.44
341.703	29.87
341.915	21.67
342.128	62.63
342.34	11.43
342.552	19.63
342.764	56.49
342.977	58.54
343.189	-35.67
343.401	52.39
343.613	29.87
343.826	5.29
344.038	9.39
344.25	27.82
344.462	-37.72
344.674	27.82
344.886	21.67
345.099	42.15
345.311	48.3
345.523	81.07
345.735	42.15
345.947	83.11
346.159	-11.09
346.371	42.15
346.583	160.94
346.795	70.83
347.007	-43.86
347.219	31.91
347.431	1.19
347.643	-0.85
347.855	70.83
348.067	-7
348.279	91.31
348.491	29.87
348.703	46.25
348.915	85.16
349.127	-4.95
349.339	70.83
349.551	17.58
349.763	27.82
349.975	70.83
350.187	27.82
350.399	-7
350.61	85.16
350.822	-7
351.034	29.87
351.246	58.54
351.458	87.21
351.669	42.15
351.881	31.91
352.093	-4.95
352.305	40.11
352.517	25.77
352.728	74.92
352.94	-17.24
353.152	56.49
353.363	46.25
353.575	101.55
353.787	46.25
353.999	7.34
354.21	29.87
354.422	-11.09
354.633	107.69
354.845	48.3
355.057	64.68
355.268	27.82
355.48	99.5
355.692	79.02
355.903	128.17
356.115	21.67
356.326	44.2
356.538	119.98
356.749	62.63
356.961	81.07
357.172	21.67
357.384	-15.19
357.595	56.49
357.807	-17.24
358.018	62.63
358.23	83.11
358.441	44.2
358.653	68.78
358.864	91.31
359.075	46.25
359.287	38.06
359.498	83.11
359.709	-4.95
359.921	25.77
360.132	52.39
360.344	21.67
360.555	87.21
360.766	115.88
360.977	36.01
361.189	74.92
361.4	54.44
361.611	31.91
361.823	81.07
362.034	56.49
362.245	-4.95
362.456	89.26
362.667	140.46
362.879	66.73
363.09	109.74
363.301	36.01
363.512	68.78
363.723	11.43
363.935	9.39
364.146	-7
364.357	5.29
364.568	56.49
364.779	9.39
364.99	9.39
365.201	-47.96
365.412	165.03
365.623	21.67
365.834	15.53
366.045	50.35
366.256	62.63
366.467	-4.95
366.678	76.97
366.889	-2.9
367.1	66.73
367.311	-4.95
367.522	9.39
367.733	54.44
367.944	101.55
368.155	5.29
368.366	-17.24
368.577	58.54
368.788	83.11
368.999	-43.86
369.209	19.63
369.42	79.02
369.631	85.16
369.842	62.63
370.053	95.4
370.264	89.26
370.474	15.53
370.685	50.35
370.896	46.25
371.107	38.06
371.317	48.3
371.528	68.78
371.739	109.74
371.95	-33.62
372.16	60.59
372.371	40.11
372.582	64.68
372.792	31.91
373.003	15.53
373.214	-7
373.424	48.3
373.635	103.59
373.846	48.3
374.056	74.92
374.267	42.15
374.477	74.92
374.688	11.43
374.898	40.11
375.109	52.39
375.319	66.73
375.53	72.87
375.74	-11.09
375.951	58.54
376.161	31.91
376.372	-0.85
376.582	38.06
376.793	38.06
377.003	52.39
377.214	1.19
377.424	56.49
377.635	56.49
377.845	11.43
378.055	83.11
378.266	56.49
378.476	5.29
378.686	29.87
378.897	40.11
379.107	52.39
379.317	58.54
379.528	83.11
379.738	46.25
379.948	19.63
380.158	74.92
380.369	-0.85
380.579	81.07
380.789	1.19
380.999	89.26
381.21	74.92
381.42	93.35
381.63	-19.29
381.84	109.74
382.05	15.53
382.261	64.68
382.471	25.77
382.681	11.43
382.891	81.07
383.101	46.25
383.311	-4.95
383.521	31.91
383.731	95.4
383.941	38.06
384.151	17.58
384.361	38.06
384.571	56.49
384.781	40.11
384.991	62.63
385.201	91.31
385.411	124.07
385.621	117.93
385.831	52.39
386.041	89.26
386.251	64.68
386.461	103.59
386.671	27.82
386.881	66.73
387.091	40.11
387.301	74.92
387.511	72.87
387.72	103.59
387.93	64.68
388.14	62.63
388.35	33.96
388.56	48.3
388.769	52.39
388.979	52.39
389.189	89.26
389.399	-45.91
389.609	27.82
389.818	70.83
390.028	62.63
390.238	-7
390.447	79.02
390.657	76.97
390.867	113.83
391.076	23.72
391.286	-23.38
391.496	85.16
391.705	103.59
391.915	-31.57
392.125	54.44
392.334	56.49
392.544	64.68
392.753	132.26
392.963	101.55
393.172	101.55
393.382	83.11
393.591	115.88
393.801	93.35
394.01	58.54
394.22	91.31
394.429	62.63
394.639	-0.85
394.848	68.78
395.058	99.5
395.267	87.21
395.477	13.48
395.686	95.4
395.895	70.83
396.105	113.83
396.314	103.59
396.524	91.31
396.733	109.74
396.942	119.98
397.152	93.35
397.361	99.5
397.57	74.92
397.78	128.17
397.989	117.93
398.198	119.98
398.407	52.39
398.617	58.54
398.826	162.98
399.035	107.69
399.244	99.5
399.453	60.59
399.663	156.84
399.872	113.83
400.081	144.55
400.29	124.07
400.499	48.3
400.708	152.74
400.917	185.51
401.127	95.4
401.336	122.02
401.545	214.18
401.754	136.36
401.963	173.22
402.172	156.84
402.381	93.35
402.59	38.06
402.799	132.26
403.008	140.46
403.217	185.51
403.426	144.55
403.635	201.9
403.844	111.78
404.053	146.6
404.262	203.94
404.471	185.51
404.68	169.13
404.888	160.94
405.097	158.89
405.306	130.22
405.515	158.89
405.724	228.52
405.933	230.57
406.142	165.03
406.35	240.81
406.559	171.18
406.768	171.18
406.977	144.55
407.185	183.46
407.394	191.66
407.603	162.98
407.812	234.66
408.02	226.47
408.229	275.62
408.438	249
408.646	259.24
408.855	298.15
409.064	285.86
409.272	277.67
409.481	343.21
409.69	335.01
409.898	273.57
410.107	373.92
410.315	335.01
410.524	298.15
410.733	392.36
410.941	392.36
411.15	490.66
411.358	437.41
411.567	500.9
411.775	449.7
411.984	441.51
412.192	527.52
412.401	554.15
412.609	527.52
412.818	531.62
413.026	437.41
413.234	474.28
413.443	554.15
413.651	601.25
413.86	627.87
414.068	674.98
414.276	695.46
414.485	717.98
414.693	726.18
414.901	715.94
415.11	787.61
415.318	760.99
415.526	789.66
415.734	867.49
415.943	853.15
416.151	965.79
416.359	1008.8
416.567	965.79
416.776	1035.42
416.984	1029.27
417.192	1160.34
417.4	1090.71
417.608	1113.24
417.817	1238.17
418.025	1229.98
418.233	1361.05
418.441	1250.46
418.649	1299.61
418.857	1408.15
419.065	1569.94
419.273	1469.59
419.481	1531.03
419.689	1561.75
419.897	1621.14
420.105	1688.72
420.313	1782.93
420.521	1813.65
420.729	1737.87
420.937	1905.81
421.145	1987.72
421.353	2090.12
421.561	2292.87
421.769	2231.43
421.977	2477.19
422.185	2296.97
422.393	2532.48
422.601	2534.53
422.809	2606.21
423.017	2612.35
423.224	2792.58
423.432	2837.63
423.64	2794.62
423.848	3112.06
424.056	2980.99
424.263	3314.81
424.471	3343.48
424.679	3441.78
424.887	3560.56
425.094	3607.67
425.302	3587.19
425.51	3714.16
425.718	3837.04
425.925	4052.08
426.133	4088.94
426.341	4195.43
426.548	4574.31
426.756	4445.29
426.964	4600.93
427.171	4867.17
427.379	4947.04
427.586	5186.65
427.794	5196.89
428.001	5493.85
428.209	5645.4
428.417	5567.57
428.624	5952.59
428.832	6222.92
429.039	6036.56
429.247	6054.99
429.454	6638.66
429.662	6990.91
429.869	6501.45
430.076	7275.58
430.284	6929.47
430.491	7130.17
430.699	7601.21
430.906	7478.33
431.114	7603.25
431.321	7932.98
431.528	8135.73
431.736	8631.33
431.943	8938.53
432.15	8617
432.358	8829.99
432.565	9528.35
432.772	9167.9
432.979	9735.19
433.187	9899.03
433.394	9958.42
433.601	10710.02
433.808	10671.11
434.016	10435.6
434.223	11371.52
434.43	11903.99
434.637	11533.31
434.844	12184.56
435.052	12405.74
435.259	12495.85
435.466	12686.31
435.673	12479.47
435.88	13159.39
436.087	14005.2
436.294	13841.37
436.501	13444.06
436.708	14062.55
436.915	14468.05
437.122	15156.16
437.329	15033.29
437.537	15631.29
437.743	15694.78
437.95	15690.68
438.157	16292.79
438.364	16976.81
438.571	16892.84
438.778	16948.14
438.985	18760.59
439.192	17847.19
439.399	18420.63
439.606	17806.23
439.813	19305.35
440.02	20253.56
440.227	19782.52
440.433	19628.93
440.64	20464.5
440.847	20247.41
441.054	20722.54
441.261	21773.15
441.467	21711.71
441.674	22496.08
441.881	22940.49
442.088	23137.1
442.294	22600.53
442.501	23563.08
442.708	24091.45
442.914	25017.13
443.121	26053.41
443.328	25363.24
443.534	26870.54
443.741	26305.31
443.948	26133.28
444.154	28117.76
444.361	27728.64
444.568	27982.59
444.774	27943.68
444.981	28513.02
445.187	29059.82
445.394	30272.22
445.6	29954.79
445.807	32834.23
446.013	31175.37
446.22	31802.05
446.426	32961.2
446.633	33489.58
446.839	34288.29
447.046	33372.85
447.252	34925.21
447.459	34900.63
447.665	34603.67
447.871	36383.36
448.078	37632.62
448.284	35791.5
448.491	36760.19
448.697	38277.73
448.903	38890.07
449.11	38845.02
449.316	38455.9
449.522	38761.05
449.728	40213.06
449.935	40075.85
450.141	40139.33
450.347	40884.79
450.553	39887.43
450.76	40391.23
450.966	41523.76
451.172	40858.17
451.378	41957.93
451.584	41456.18
451.791	42156.58
451.997	41988.65
452.203	42588.7
452.409	42482.21
452.615	42056.23
452.821	40737.34
453.027	40077.9
453.233	42050.09
453.44	40489.54
453.646	40991.29
453.852	40725.05
454.058	41574.96
454.264	40024.65
454.47	40827.45
454.676	40043.08
454.882	41204.28
455.088	37710.44
455.294	38541.92
455.5	38523.49
455.705	38740.57
455.911	37624.43
456.117	36881.02
456.323	35904.13
456.529	34198.18
456.735	35228.31
456.941	34306.72
457.147	34003.62
457.352	33086.13
457.558	32570.04
457.764	32422.59
457.97	31879.88
458.176	31140.56
458.381	31242.96
458.587	29676.26
458.793	29543.14
458.999	28250.88
459.204	29842.15
459.41	29264.62
459.616	27134.73
459.821	27214.6
460.027	27061.01
460.233	26559.25
460.438	25006.89
460.644	25674.53
460.85	24337.21
461.055	23898.94
461.261	23692.1
461.466	22190.94
461.672	21693.28
461.878	23190.34
462.083	21635.94
462.289	21212.01
462.494	20882.28
462.7	19942.27
462.905	19385.22
463.111	19981.18
463.316	20259.7
463.522	20056.95
463.727	20001.66
463.932	19972.99
464.138	19653.5
464.343	19907.45
464.549	18957.19
464.754	19643.26
464.959	19393.41
465.165	19727.23
465.37	18813.84
465.575	18318.23
465.781	18852.75
465.986	19010.44
466.191	18197.4
466.397	18051.99
466.602	16956.33
466.807	17796
467.012	17695.64
467.218	17609.63
467.423	17339.3
467.628	17558.43
467.833	18135.96
