Data from USB4F104151__54__11-05-44-208.txt Node

Date: Wed Mar 12 11:05:44 EDT 2025
User: louis
Spectrometer: USB4F10415
Trigger mode: 4
Integration Time (sec): 2.000000E-2
Scans to average: 1
Electric dark correction enabled: true
Nonlinearity correction enabled: false
Boxcar width: 0
XAxis mode: Wavelengths
Number of Pixels in Spectrum: 3648
>>>>>Begin Spectral Data<<<<<
178.204	5.29
178.424	5.29
178.644	5.29
178.864	-72.53
179.084	-74.58
179.304	29.87
179.524	52.39
179.744	27.82
179.964	19.63
180.184	-17.24
180.404	58.54
180.624	-11.09
180.844	-29.52
181.064	-43.86
181.283	-39.76
181.503	-121.68
181.723	74.92
181.943	56.49
182.163	3.24
182.383	1.19
182.602	15.53
182.822	-13.14
183.042	7.34
183.262	68.78
183.482	29.87
183.701	36.01
183.921	19.63
184.141	7.34
184.361	3.24
184.58	23.72
184.8	52.39
185.02	31.91
185.239	13.48
185.459	70.83
185.679	-9.05
185.898	29.87
186.118	29.87
186.338	-60.24
186.557	42.15
186.777	19.63
186.997	74.92
187.216	-41.81
187.436	13.48
187.655	56.49
187.875	42.15
188.095	15.53
188.314	70.83
188.534	64.68
188.753	-9.05
188.973	111.78
189.192	56.49
189.412	44.2
189.631	-31.57
189.851	42.15
190.07	42.15
190.29	105.64
190.509	33.96
190.729	62.63
190.948	66.73
191.168	60.59
191.387	19.63
191.607	11.43
191.826	124.07
192.045	19.63
192.265	72.87
192.484	56.49
192.704	13.48
192.923	29.87
193.142	5.29
193.362	46.25
193.581	62.63
193.8	15.53
194.02	21.67
194.239	19.63
194.458	62.63
194.678	68.78
194.897	-70.48
195.116	50.35
195.335	36.01
195.555	27.82
195.774	11.43
195.993	40.11
196.212	56.49
196.432	13.48
196.651	66.73
196.87	-35.67
197.089	89.26
197.308	76.97
197.528	68.78
197.747	-2.9
197.966	44.2
198.185	21.67
198.404	48.3
198.623	15.53
198.842	23.72
199.062	-25.43
199.281	68.78
199.5	-15.19
199.719	-60.24
199.938	13.48
200.157	40.11
200.376	40.11
200.595	-19.29
200.814	33.96
201.033	27.82
201.252	56.49
201.471	74.92
201.69	23.72
201.909	23.72
202.128	79.02
202.347	23.72
202.566	-43.86
202.785	-60.24
203.004	74.92
203.223	48.3
203.442	44.2
203.661	-31.57
203.879	66.73
204.098	38.06
204.317	15.53
204.536	115.88
204.755	-39.76
204.974	81.07
205.193	40.11
205.411	29.87
205.63	21.67
205.849	27.82
206.068	52.39
206.287	-64.34
206.505	-4.95
206.724	-7
206.943	-15.19
207.162	23.72
207.381	25.77
207.599	-9.05
207.818	33.96
208.037	68.78
208.255	56.49
208.474	-43.86
208.693	27.82
208.911	9.39
209.13	66.73
209.349	50.35
209.567	1.19
209.786	-0.85
210.005	56.49
210.223	-2.9
210.442	-19.29
210.661	25.77
210.879	50.35
211.098	1.19
211.316	60.59
211.535	9.39
211.753	42.15
211.972	64.68
212.191	-37.72
212.409	50.35
212.628	21.67
212.846	15.53
213.065	54.44
213.283	31.91
213.502	-19.29
213.72	5.29
213.938	79.02
214.157	19.63
214.375	-31.57
214.594	3.24
214.812	-43.86
215.031	91.31
215.249	19.63
215.467	85.16
215.686	17.58
215.904	-7
216.122	-33.62
216.341	9.39
216.559	31.91
216.778	27.82
216.996	56.49
217.214	42.15
217.432	91.31
217.651	58.54
217.869	-0.85
218.087	-7
218.306	44.2
218.524	1.19
218.742	-19.29
218.96	36.01
219.179	-17.24
219.397	25.77
219.615	38.06
219.833	17.58
220.051	-50
220.27	27.82
220.488	29.87
220.706	36.01
220.924	-25.43
221.142	25.77
221.36	-52.05
221.578	58.54
221.796	-7
222.015	-33.62
222.233	1.19
222.451	58.54
222.669	89.26
222.887	-0.85
223.105	-15.19
223.323	-21.33
223.541	17.58
223.759	99.5
223.977	42.15
224.195	54.44
224.413	33.96
224.631	42.15
224.849	38.06
225.067	7.34
225.285	60.59
225.503	15.53
225.721	-29.52
225.939	81.07
226.157	1.19
226.375	85.16
226.592	52.39
226.81	25.77
227.028	66.73
227.246	60.59
227.464	76.97
227.682	-19.29
227.9	79.02
228.117	76.97
228.335	76.97
228.553	64.68
228.771	29.87
228.989	97.45
229.206	-23.38
229.424	38.06
229.642	-0.85
229.86	64.68
230.077	31.91
230.295	64.68
230.513	62.63
230.731	-27.48
230.948	95.4
231.166	72.87
231.384	13.48
231.601	-4.95
231.819	7.34
232.037	-45.91
232.254	-7
232.472	11.43
232.689	-29.52
232.907	33.96
233.125	7.34
233.342	44.2
233.56	15.53
233.777	-43.86
233.995	79.02
234.213	25.77
234.43	124.07
234.648	15.53
234.865	-47.96
235.083	44.2
235.3	27.82
235.518	64.68
235.735	-2.9
235.953	81.07
236.17	19.63
236.388	31.91
236.605	21.67
236.822	66.73
237.04	58.54
237.257	54.44
237.475	46.25
237.692	-15.19
237.909	36.01
238.127	-25.43
238.344	58.54
238.562	-15.19
238.779	-31.57
238.996	52.39
239.214	50.35
239.431	46.25
239.648	-66.39
239.865	62.63
240.083	66.73
240.3	31.91
240.517	70.83
240.735	-9.05
240.952	60.59
241.169	25.77
241.386	46.25
241.603	50.35
241.821	36.01
242.038	83.11
242.255	-33.62
242.472	-9.05
242.689	79.02
242.907	23.72
243.124	3.24
243.341	79.02
243.558	7.34
243.775	33.96
243.992	-7
244.209	-21.33
244.426	40.11
244.643	13.48
244.86	-54.1
245.078	1.19
245.295	79.02
245.512	74.92
245.729	-33.62
245.946	-2.9
246.163	21.67
246.38	-33.62
246.597	70.83
246.814	-2.9
247.031	-2.9
247.248	-11.09
247.464	29.87
247.681	19.63
247.898	17.58
248.115	7.34
248.332	33.96
248.549	79.02
248.766	33.96
248.983	50.35
249.2	72.87
249.417	44.2
249.633	46.25
249.85	17.58
250.067	27.82
250.284	56.49
250.501	38.06
250.717	27.82
250.934	-17.24
251.151	19.63
251.368	25.77
251.585	-35.67
251.801	3.24
252.018	38.06
252.235	1.19
252.451	-13.14
252.668	50.35
252.885	27.82
253.102	19.63
253.318	87.21
253.535	60.59
253.752	52.39
253.968	-13.14
254.185	-15.19
254.401	11.43
254.618	97.45
254.835	66.73
255.051	72.87
255.268	17.58
255.484	29.87
255.701	13.48
255.917	36.01
256.134	13.48
256.351	97.45
256.567	42.15
256.784	5.29
257	-15.19
257.217	36.01
257.433	7.34
257.65	42.15
257.866	81.07
258.082	36.01
258.299	7.34
258.515	17.58
258.732	46.25
258.948	13.48
259.165	144.55
259.381	-15.19
259.597	11.43
259.814	109.74
260.03	42.15
260.246	9.39
260.463	9.39
260.679	42.15
260.895	74.92
261.112	1.19
261.328	25.77
261.544	-7
261.761	60.59
261.977	46.25
262.193	36.01
262.409	-35.67
262.626	42.15
262.842	68.78
263.058	1.19
263.274	87.21
263.49	-35.67
263.707	-13.14
263.923	-27.48
264.139	-7
264.355	21.67
264.571	11.43
264.787	7.34
265.004	-31.57
265.22	5.29
265.436	68.78
265.652	-15.19
265.868	-11.09
266.084	3.24
266.3	40.11
266.516	-0.85
266.732	56.49
266.948	7.34
267.164	42.15
267.38	15.53
267.596	111.78
267.812	33.96
268.028	-25.43
268.244	1.19
268.46	68.78
268.676	56.49
268.892	7.34
269.108	74.92
269.324	64.68
269.54	-45.91
269.756	7.34
269.972	-21.33
270.188	70.83
270.403	66.73
270.619	64.68
270.835	60.59
271.051	46.25
271.267	-19.29
271.483	-2.9
271.698	56.49
271.914	66.73
272.13	44.2
272.346	-35.67
272.562	68.78
272.777	27.82
272.993	54.44
273.209	93.35
273.425	23.72
273.64	136.36
273.856	38.06
274.072	9.39
274.287	5.29
274.503	15.53
274.719	9.39
274.934	56.49
275.15	33.96
275.366	-2.9
275.581	9.39
275.797	-13.14
276.012	70.83
276.228	36.01
276.444	-31.57
276.659	48.3
276.875	9.39
277.09	-0.85
277.306	40.11
277.521	23.72
277.737	-15.19
277.952	81.07
278.168	17.58
278.383	1.19
278.599	-4.95
278.814	70.83
279.03	83.11
279.245	42.15
279.461	15.53
279.676	33.96
279.892	56.49
280.107	62.63
280.322	17.58
280.538	124.07
280.753	31.91
280.969	91.31
281.184	-2.9
281.399	79.02
281.615	-37.72
281.83	-19.29
282.045	25.77
282.26	-2.9
282.476	-11.09
282.691	72.87
282.906	58.54
283.122	79.02
283.337	42.15
283.552	1.19
283.767	-39.76
283.983	36.01
284.198	11.43
284.413	38.06
284.628	3.24
284.843	36.01
285.058	56.49
285.274	29.87
285.489	62.63
285.704	56.49
285.919	27.82
286.134	52.39
286.349	1.19
286.564	-13.14
286.779	17.58
286.995	40.11
287.21	-15.19
287.425	126.12
287.64	15.53
287.855	70.83
288.07	5.29
288.285	66.73
288.5	33.96
288.715	64.68
288.93	42.15
289.145	-9.05
289.36	42.15
289.575	66.73
289.79	11.43
290.004	13.48
290.219	-66.39
290.434	19.63
290.649	-66.39
290.864	66.73
291.079	25.77
291.294	66.73
291.509	-86.87
291.724	11.43
291.938	-7
292.153	42.15
292.368	44.2
292.583	31.91
292.798	33.96
293.012	58.54
293.227	-27.48
293.442	13.48
293.657	68.78
293.871	36.01
294.086	-2.9
294.301	103.59
294.516	126.12
294.73	5.29
294.945	-4.95
295.16	64.68
295.374	97.45
295.589	74.92
295.804	19.63
296.018	-74.58
296.233	13.48
296.447	38.06
296.662	33.96
296.877	17.58
297.091	79.02
297.306	17.58
297.52	136.36
297.735	-25.43
297.949	136.36
298.164	40.11
298.378	11.43
298.593	-13.14
298.807	40.11
299.022	1.19
299.236	46.25
299.451	31.91
299.665	13.48
299.88	93.35
300.094	1.19
300.309	-41.81
300.523	50.35
300.737	91.31
300.952	79.02
301.166	58.54
301.381	21.67
301.595	19.63
301.809	23.72
302.024	1.19
302.238	-7
302.452	91.31
302.667	-7
302.881	52.39
303.095	7.34
303.309	36.01
303.524	31.91
303.738	44.2
303.952	72.87
304.166	91.31
304.381	46.25
304.595	72.87
304.809	54.44
305.023	87.21
305.237	31.91
305.452	-17.24
305.666	64.68
305.88	23.72
306.094	36.01
306.308	103.59
306.522	-17.24
306.736	103.59
306.95	167.08
307.164	85.16
307.379	29.87
307.593	109.74
307.807	58.54
308.021	13.48
308.235	-11.09
308.449	-2.9
308.663	46.25
308.877	103.59
309.091	-62.29
309.305	3.24
309.519	-37.72
309.733	-13.14
309.947	87.21
310.161	36.01
310.374	76.97
310.588	1.19
310.802	33.96
311.016	46.25
311.23	40.11
311.444	-25.43
311.658	111.78
311.872	5.29
312.085	95.4
312.299	91.31
312.513	50.35
312.727	64.68
312.941	17.58
313.154	91.31
313.368	44.2
313.582	91.31
313.796	76.97
314.009	128.17
314.223	44.2
314.437	36.01
314.651	-23.38
314.864	95.4
315.078	50.35
315.292	3.24
315.505	83.11
315.719	83.11
315.933	64.68
316.146	58.54
316.36	29.87
316.573	103.59
316.787	62.63
317.001	-19.29
317.214	107.69
317.428	5.29
317.641	-9.05
317.855	111.78
318.068	74.92
318.282	83.11
318.495	64.68
318.709	27.82
318.922	15.53
319.136	62.63
319.349	62.63
319.563	60.59
319.776	-11.09
319.99	15.53
320.203	31.91
320.417	-27.48
320.63	-25.43
320.843	-31.57
321.057	-11.09
321.27	52.39
321.483	103.59
321.697	44.2
321.91	64.68
322.124	25.77
322.337	68.78
322.55	-7
322.763	70.83
322.977	42.15
323.19	1.19
323.403	60.59
323.617	93.35
323.83	79.02
324.043	17.58
324.256	54.44
324.469	-39.76
324.683	29.87
324.896	23.72
325.109	48.3
325.322	9.39
325.535	1.19
325.748	74.92
325.962	66.73
326.175	19.63
326.388	111.78
326.601	-2.9
326.814	132.26
327.027	9.39
327.24	89.26
327.453	58.54
327.666	60.59
327.879	38.06
328.092	-15.19
328.305	40.11
328.518	64.68
328.731	-37.72
328.944	-0.85
329.157	1.19
329.37	40.11
329.583	68.78
329.796	58.54
330.009	-45.91
330.222	115.88
330.435	25.77
330.648	-4.95
330.861	38.06
331.073	62.63
331.286	33.96
331.499	21.67
331.712	-7
331.925	56.49
332.138	66.73
332.35	128.17
332.563	44.2
332.776	68.78
332.989	-19.29
333.202	5.29
333.414	9.39
333.627	79.02
333.84	-31.57
334.053	38.06
334.265	36.01
334.478	56.49
334.691	56.49
334.903	33.96
335.116	103.59
335.329	46.25
335.541	-17.24
335.754	50.35
335.966	29.87
336.179	107.69
336.392	48.3
336.604	46.25
336.817	38.06
337.029	38.06
337.242	-15.19
337.454	31.91
337.667	11.43
337.88	31.91
338.092	44.2
338.305	85.16
338.517	46.25
338.729	87.21
338.942	40.11
339.154	109.74
339.367	-43.86
339.579	89.26
339.792	-23.38
340.004	11.43
340.217	-0.85
340.429	-19.29
340.641	7.34
340.854	60.59
341.066	-13.14
341.278	-17.24
341.491	74.92
341.703	7.34
341.915	62.63
342.128	-2.9
342.34	-21.33
342.552	40.11
342.764	60.59
342.977	27.82
343.189	27.82
343.401	-23.38
343.613	-7
343.826	79.02
344.038	76.97
344.25	50.35
344.462	11.43
344.674	1.19
344.886	5.29
345.099	33.96
345.311	25.77
345.523	27.82
345.735	42.15
345.947	36.01
346.159	89.26
346.371	27.82
346.583	-2.9
346.795	70.83
347.007	25.77
347.219	5.29
347.431	-7
347.643	83.11
347.855	-23.38
348.067	72.87
348.279	-7
348.491	64.68
348.703	48.3
348.915	76.97
349.127	56.49
349.339	1.19
349.551	1.19
349.763	27.82
349.975	11.43
350.187	154.79
350.399	87.21
350.61	62.63
350.822	-19.29
351.034	64.68
351.246	-11.09
351.458	64.68
351.669	29.87
351.881	5.29
352.093	72.87
352.305	91.31
352.517	-19.29
352.728	66.73
352.94	5.29
353.152	42.15
353.363	-15.19
353.575	79.02
353.787	79.02
353.999	38.06
354.21	101.55
354.422	66.73
354.633	64.68
354.845	13.48
355.057	38.06
355.268	46.25
355.48	66.73
355.692	70.83
355.903	31.91
356.115	5.29
356.326	85.16
356.538	64.68
356.749	81.07
356.961	62.63
357.172	91.31
357.384	74.92
357.595	109.74
357.807	-2.9
358.018	93.35
358.23	-47.96
358.441	60.59
358.653	-13.14
358.864	13.48
359.075	40.11
359.287	9.39
359.498	101.55
359.709	122.02
359.921	23.72
360.132	9.39
360.344	70.83
360.555	40.11
360.766	91.31
360.977	87.21
361.189	11.43
361.4	21.67
361.611	83.11
361.823	23.72
362.034	64.68
362.245	7.34
362.456	76.97
362.667	76.97
362.879	46.25
363.09	81.07
363.301	97.45
363.512	31.91
363.723	46.25
363.935	15.53
364.146	87.21
364.357	3.24
364.568	46.25
364.779	31.91
364.99	68.78
365.201	21.67
365.412	50.35
365.623	25.77
365.834	81.07
366.045	23.72
366.256	64.68
366.467	54.44
366.678	31.91
366.889	13.48
367.1	99.5
367.311	33.96
367.522	-2.9
367.733	117.93
367.944	5.29
368.155	33.96
368.366	72.87
368.577	21.67
368.788	25.77
368.999	31.91
369.209	56.49
369.42	33.96
369.631	76.97
369.842	64.68
370.053	25.77
370.264	23.72
370.474	99.5
370.685	40.11
370.896	130.22
371.107	87.21
371.317	72.87
371.528	15.53
371.739	58.54
371.95	42.15
372.16	33.96
372.371	29.87
372.582	115.88
372.792	64.68
373.003	5.29
373.214	-62.29
373.424	111.78
373.635	46.25
373.846	119.98
374.056	21.67
374.267	117.93
374.477	-33.62
374.688	25.77
374.898	38.06
375.109	113.83
375.319	-15.19
375.53	72.87
375.74	42.15
375.951	83.11
376.161	5.29
376.372	60.59
376.582	66.73
376.793	50.35
377.003	9.39
377.214	-2.9
377.424	40.11
377.635	66.73
377.845	58.54
378.055	95.4
378.266	-2.9
378.476	72.87
378.686	124.07
378.897	99.5
379.107	56.49
379.317	-2.9
379.528	21.67
379.738	46.25
379.948	79.02
380.158	113.83
380.369	25.77
380.579	46.25
380.789	9.39
380.999	3.24
381.21	91.31
381.42	93.35
381.63	64.68
381.84	38.06
382.05	64.68
382.261	103.59
382.471	70.83
382.681	33.96
382.891	138.41
383.101	33.96
383.311	-43.86
383.521	31.91
383.731	23.72
383.941	130.22
384.151	25.77
384.361	64.68
384.571	105.64
384.781	111.78
384.991	72.87
385.201	36.01
385.411	79.02
385.621	36.01
385.831	40.11
386.041	105.64
386.251	15.53
386.461	46.25
386.671	-2.9
386.881	79.02
387.091	36.01
387.301	42.15
387.511	54.44
387.72	109.74
387.93	138.41
388.14	21.67
388.35	31.91
388.56	95.4
388.769	17.58
388.979	72.87
389.189	42.15
389.399	27.82
389.609	21.67
389.818	29.87
390.028	81.07
390.238	15.53
390.447	46.25
390.657	76.97
390.867	66.73
391.076	29.87
391.286	42.15
391.496	42.15
391.705	17.58
391.915	66.73
392.125	95.4
392.334	117.93
392.544	128.17
392.753	40.11
392.963	36.01
393.172	89.26
393.382	83.11
393.591	107.69
393.801	87.21
394.01	119.98
394.22	101.55
394.429	33.96
394.639	42.15
394.848	89.26
395.058	46.25
395.267	52.39
395.477	70.83
395.686	44.2
395.895	60.59
396.105	83.11
396.314	93.35
396.524	70.83
396.733	95.4
396.942	122.02
397.152	95.4
397.361	162.98
397.57	122.02
397.78	99.5
397.989	132.26
398.198	119.98
398.407	144.55
398.617	115.88
398.826	91.31
399.035	95.4
399.244	89.26
399.453	167.08
399.663	79.02
399.872	111.78
400.081	115.88
400.29	99.5
400.499	115.88
400.708	119.98
400.917	105.64
401.127	68.78
401.336	85.16
401.545	115.88
401.754	205.99
401.963	122.02
402.172	74.92
402.381	72.87
402.59	85.16
402.799	62.63
403.008	64.68
403.217	31.91
403.426	195.75
403.635	99.5
403.844	160.94
404.053	152.74
404.262	87.21
404.471	195.75
404.68	146.6
404.888	205.99
405.097	115.88
405.306	152.74
405.515	158.89
405.724	169.13
405.933	230.57
406.142	197.8
406.35	261.29
406.559	234.66
406.768	179.37
406.977	232.62
407.185	160.94
407.394	175.27
407.603	169.13
407.812	193.7
408.02	214.18
408.229	181.42
408.438	193.7
408.646	232.62
408.855	310.44
409.064	246.95
409.272	283.81
409.481	226.47
409.69	292.01
409.898	294.05
410.107	320.68
410.315	353.45
410.524	351.4
410.733	443.56
410.941	318.63
411.15	404.64
411.358	435.36
411.567	421.03
411.775	437.41
411.984	418.98
412.192	513.19
412.401	439.46
412.609	541.86
412.818	517.28
413.026	529.57
413.234	578.72
413.443	507.04
413.651	603.3
413.86	609.44
414.068	603.3
414.276	531.62
414.485	658.59
414.693	636.06
414.901	674.98
415.11	746.66
415.318	707.74
415.526	779.42
415.734	777.37
415.943	853.15
416.151	842.91
416.359	918.68
416.567	933.02
416.776	1023.13
416.984	980.12
417.192	920.73
417.4	943.26
417.608	967.84
417.817	967.84
418.025	1174.68
418.233	1242.26
418.441	1160.34
418.649	1350.81
418.857	1350.81
419.065	1402.01
419.273	1234.07
419.481	1408.15
419.689	1467.54
419.897	1590.42
420.105	1672.34
420.313	1625.23
420.521	1746.06
420.729	1789.07
420.937	1772.69
421.145	1832.08
421.353	1914
421.561	2034.83
421.769	2012.3
421.977	2294.92
422.185	2077.83
422.393	2251.91
422.601	2286.73
422.809	2325.64
423.017	2344.07
423.224	2524.29
423.432	2598.02
423.64	2649.22
423.848	2835.58
424.056	2737.28
424.263	3007.61
424.471	2962.56
424.679	3132.54
424.887	3234.94
425.094	3347.58
425.302	3411.06
425.51	3447.93
425.718	3529.84
425.925	3669.11
426.133	3804.27
426.341	4045.93
426.548	4170.86
426.756	4074.6
426.964	4117.61
427.171	4383.85
427.379	4543.59
427.586	4811.87
427.794	4988
428.001	5028.96
428.209	5194.84
428.417	5141.6
428.624	5543
428.832	5444.7
429.039	5479.51
429.247	5393.5
429.454	6018.13
429.662	6425.67
429.869	5895.25
430.076	6423.62
430.284	6241.36
430.491	6530.12
430.699	6984.77
430.906	6880.32
431.114	7117.89
431.321	7341.11
431.528	7463.99
431.736	7822.39
431.943	8266.8
432.15	8045.62
432.358	7969.84
432.565	8543.27
432.772	8512.55
432.979	8844.32
433.187	8959.01
433.394	9104.42
433.601	9606.17
433.808	9626.65
434.016	9780.25
434.223	10171.41
434.43	10734.6
434.637	10601.48
434.844	11105.28
435.052	11338.75
435.259	11305.98
435.466	11473.92
435.673	11281.41
435.88	11899.89
436.087	12698.6
436.294	12694.5
436.501	12264.43
436.708	12661.74
436.915	12897.25
437.122	13544.41
437.329	13659.1
437.537	13872.09
437.743	14281.68
437.95	14113.75
438.157	14736.33
438.364	15485.89
438.571	15541.18
438.778	15608.76
438.985	16755.63
439.192	16296.88
439.399	16847.79
439.606	16397.23
439.813	17099.69
440.02	18408.34
440.227	18064.28
440.433	17843.1
440.64	18467.73
440.847	18389.91
441.054	18719.63
441.261	19929.98
441.467	19581.82
441.674	20149.11
441.881	21087.08
442.088	20870
442.294	20925.29
442.501	21255.01
442.708	21576.55
442.914	22627.15
443.121	23731.01
443.328	22795.09
443.534	24478.52
443.741	23622.47
443.948	23583.55
444.154	25074.48
444.361	24824.62
444.568	25248.55
444.774	25113.39
444.981	25627.43
445.187	26276.63
445.394	27269.9
445.6	27013.9
445.807	29788.9
446.013	28156.67
446.22	28662.52
446.426	30085.86
446.633	30190.3
446.839	31120.08
447.046	30069.47
447.252	31288.01
447.459	31902.4
447.665	31783.62
447.871	32697.02
448.078	33913.51
448.284	32117.44
448.491	33149.62
448.697	34398.88
448.903	35048.08
449.11	35314.32
449.316	34378.4
449.522	35226.26
449.728	36153.99
449.935	36553.34
450.141	36420.22
450.347	37079.67
450.553	35494.54
450.76	36297.34
450.966	37393.01
451.172	36942.45
451.378	37626.48
451.584	37419.63
451.791	37812.84
451.997	38109.8
452.203	38697.56
452.409	38406.75
452.615	38382.18
452.821	36678.27
453.027	36391.55
453.233	38103.65
453.44	36563.58
453.646	36942.45
453.852	37280.37
454.058	37524.08
454.264	36407.94
454.47	37433.97
454.676	36498.05
454.882	37972.58
455.088	34359.97
455.294	34974.36
455.5	35439.25
455.705	35386
455.911	34159.27
456.117	33772.2
456.323	33364.65
456.529	31199.95
456.735	32152.26
456.941	31537.87
457.147	31279.82
457.352	30087.9
457.558	30319.32
457.764	30055.14
457.97	29027.06
458.176	28908.27
458.381	28134.14
458.587	27048.72
458.793	27206.41
458.999	25738.02
459.204	27661.06
459.41	26813.2
459.616	25129.77
459.821	24884.01
460.027	24683.31
460.233	24283.96
460.438	23137.1
460.644	23554.88
460.85	22367.06
461.055	21992.28
461.261	22098.78
461.466	20390.77
461.672	19452.8
461.878	21533.54
462.083	19606.4
462.289	19504
462.494	19417.99
462.7	18557.84
462.905	18017.18
463.111	18736.01
463.316	18557.84
463.522	18344.85
463.727	18095
463.932	18189.21
464.138	18123.67
464.343	18095
464.549	17556.38
464.754	18310.04
464.959	18156.44
465.165	17912.73
465.37	17179.56
465.575	16755.63
465.781	17376.16
465.986	17337.25
466.191	16837.55
466.397	16231.35
466.602	15690.68
466.807	16442.29
467.012	16202.68
467.218	16247.73
467.423	16147.38
467.628	16325.55
467.833	16962.47
468.038	16337.84
468.244	15895.48
