Data from USB4F104151__283__11-12-54-501.txt Node

Date: Wed Mar 12 11:12:54 EDT 2025
User: louis
Spectrometer: USB4F10415
Trigger mode: 4
Integration Time (sec): 2.000000E-2
Scans to average: 1
Electric dark correction enabled: true
Nonlinearity correction enabled: false
Boxcar width: 0
XAxis mode: Wavelengths
Number of Pixels in Spectrum: 3648
>>>>>Begin Spectral Data<<<<<
178.204	-187.9
178.424	-187.9
178.644	-187.9
178.864	-73.21
179.084	-65.02
179.304	-24.06
179.524	2.56
179.744	-9.73
179.964	25.09
180.184	23.04
180.404	86.53
180.624	31.23
180.844	20.99
181.064	-56.83
181.283	-58.88
181.503	-58.88
181.723	18.94
181.943	-44.54
182.163	-30.21
182.383	78.33
182.602	82.43
182.822	53.76
183.042	0.51
183.262	-5.63
183.482	10.75
183.701	14.85
183.921	18.94
184.141	55.81
184.361	8.7
184.58	12.8
184.8	84.48
185.02	-32.26
185.239	31.23
185.459	-46.59
185.679	10.75
185.898	0.51
186.118	39.42
186.338	-19.97
186.557	20.99
186.777	-1.54
186.997	-36.35
187.216	-3.58
187.436	4.61
187.655	0.51
187.875	14.85
188.095	33.28
188.314	-7.68
188.534	-52.74
188.753	12.8
188.973	25.09
189.192	68.09
189.412	31.23
189.631	-1.54
189.851	33.28
190.07	59.9
190.29	55.81
190.509	-7.68
190.729	57.86
190.948	55.81
191.168	100.86
191.387	27.14
191.607	-36.35
191.826	6.66
192.045	45.57
192.265	86.53
192.484	-5.63
192.704	-24.06
192.923	8.7
193.142	41.47
193.362	16.9
193.581	14.85
193.8	18.94
194.02	-5.63
194.239	37.38
194.458	47.62
194.678	59.9
194.897	-1.54
195.116	-11.78
195.335	37.38
195.555	-1.54
195.774	29.18
195.993	-11.78
196.212	47.62
196.432	10.75
196.651	14.85
196.87	31.23
197.089	33.28
197.308	31.23
197.528	49.66
197.747	55.81
197.966	-17.92
198.185	37.38
198.404	-34.3
198.623	16.9
198.842	-13.82
199.062	41.47
199.281	88.57
199.5	12.8
199.719	10.75
199.938	14.85
200.157	8.7
200.376	18.94
200.595	84.48
200.814	74.24
201.033	37.38
201.252	-24.06
201.471	-19.97
201.69	74.24
201.909	-3.58
202.128	-42.5
202.347	-19.97
202.566	-11.78
202.785	53.76
203.004	57.86
203.223	45.57
203.442	2.56
203.661	18.94
203.879	41.47
204.098	35.33
204.317	29.18
204.536	-36.35
204.755	29.18
204.974	57.86
205.193	139.77
205.411	29.18
205.63	-19.97
205.849	100.86
206.068	23.04
206.287	39.42
206.505	39.42
206.724	-65.02
206.943	49.66
207.162	-34.3
207.381	-9.73
207.599	6.66
207.818	-3.58
208.037	-50.69
208.255	53.76
208.474	35.33
208.693	25.09
208.911	12.8
209.13	-17.92
209.349	18.94
209.567	107.01
209.786	45.57
210.005	33.28
210.223	53.76
210.442	-44.54
210.661	41.47
210.879	14.85
211.098	-32.26
211.316	39.42
211.535	86.53
211.753	-28.16
211.972	-38.4
212.191	88.57
212.409	25.09
212.628	0.51
212.846	20.99
213.065	-26.11
213.283	64
213.502	-1.54
213.72	37.38
213.938	68.09
214.157	-15.87
214.375	-13.82
214.594	14.85
214.812	6.66
215.031	90.62
215.249	14.85
215.467	33.28
215.686	-24.06
215.904	41.47
216.122	45.57
216.341	96.77
216.559	12.8
216.778	68.09
216.996	33.28
217.214	-13.82
217.432	27.14
217.651	-81.41
217.869	39.42
218.087	16.9
218.306	-19.97
218.524	61.95
218.742	47.62
218.96	29.18
219.179	20.99
219.397	39.42
219.615	-1.54
219.833	-19.97
220.051	8.7
220.27	72.19
220.488	-28.16
220.706	-5.63
220.924	-9.73
221.142	39.42
221.36	-46.59
221.578	-13.82
221.796	-5.63
222.015	-34.3
222.233	-22.02
222.451	64
222.669	14.85
222.887	98.81
223.105	12.8
223.323	78.33
223.541	25.09
223.759	23.04
223.977	-7.68
224.195	98.81
224.413	27.14
224.631	43.52
224.849	-40.45
225.067	100.86
225.285	0.51
225.503	-17.92
225.721	47.62
225.939	-30.21
226.157	53.76
226.375	137.73
226.592	-28.16
226.81	-11.78
227.028	86.53
227.246	10.75
227.464	33.28
227.682	70.14
227.9	-69.12
228.117	96.77
228.335	12.8
228.553	25.09
228.771	-1.54
228.989	-52.74
229.206	-46.59
229.424	31.23
229.642	23.04
229.86	10.75
230.077	33.28
230.295	51.71
230.513	37.38
230.731	-17.92
230.948	31.23
231.166	37.38
231.384	-32.26
231.601	55.81
231.819	-7.68
232.037	43.52
232.254	31.23
232.472	59.9
232.689	29.18
232.907	33.28
233.125	57.86
233.342	119.29
233.56	-5.63
233.777	12.8
233.995	23.04
234.213	-62.98
234.43	76.29
234.648	14.85
234.865	41.47
235.083	-28.16
235.3	-44.54
235.518	16.9
235.735	23.04
235.953	88.57
236.17	0.51
236.388	27.14
236.605	-19.97
236.822	16.9
237.04	-77.31
237.257	16.9
237.475	66.05
237.692	49.66
237.909	31.23
238.127	-7.68
238.344	-50.69
238.562	-22.02
238.779	-3.58
238.996	-7.68
239.214	-36.35
239.431	12.8
239.648	12.8
239.865	29.18
240.083	-42.5
240.3	-19.97
240.517	61.95
240.735	-24.06
240.952	-9.73
241.169	94.72
241.386	0.51
241.603	31.23
241.821	-62.98
242.038	8.7
242.255	-22.02
242.472	80.38
242.689	-32.26
242.907	51.71
243.124	41.47
243.341	0.51
243.558	37.38
243.775	39.42
243.992	-17.92
244.209	66.05
244.426	-11.78
244.643	117.25
244.86	-7.68
245.078	-22.02
245.295	-15.87
245.512	-11.78
245.729	2.56
245.946	55.81
246.163	49.66
246.38	12.8
246.597	-1.54
246.814	-11.78
247.031	-19.97
247.248	43.52
247.464	59.9
247.681	55.81
247.898	53.76
248.115	-26.11
248.332	35.33
248.549	16.9
248.766	-15.87
248.983	39.42
249.2	41.47
249.417	88.57
249.633	-40.45
249.85	-15.87
250.067	57.86
250.284	47.62
250.501	82.43
250.717	27.14
250.934	-11.78
251.151	-40.45
251.368	8.7
251.585	-28.16
251.801	37.38
252.018	23.04
252.235	33.28
252.451	-34.3
252.668	-71.17
252.885	-22.02
253.102	-24.06
253.318	-5.63
253.535	-77.31
253.752	-13.82
253.968	-5.63
254.185	-9.73
254.401	14.85
254.618	94.72
254.835	37.38
255.051	59.9
255.268	-17.92
255.484	18.94
255.701	33.28
255.917	129.53
256.134	70.14
256.351	12.8
256.567	55.81
256.784	119.29
257	0.51
257.217	74.24
257.433	25.09
257.65	31.23
257.866	18.94
258.082	55.81
258.299	31.23
258.515	70.14
258.732	-65.02
258.948	-3.58
259.165	29.18
259.381	-73.21
259.597	86.53
259.814	-32.26
260.03	23.04
260.246	37.38
260.463	104.96
260.679	35.33
260.895	68.09
261.112	-5.63
261.328	33.28
261.544	-1.54
261.761	123.39
261.977	20.99
262.193	20.99
262.409	64
262.626	31.23
262.842	6.66
263.058	-22.02
263.274	-15.87
263.49	33.28
263.707	33.28
263.923	-7.68
264.139	-11.78
264.355	-7.68
264.571	-13.82
264.787	133.63
265.004	45.57
265.22	68.09
265.436	47.62
265.652	-26.11
265.868	41.47
266.084	6.66
266.3	16.9
266.516	-50.69
266.732	33.28
266.948	72.19
267.164	-17.92
267.38	-11.78
267.596	-7.68
267.812	33.28
268.028	10.75
268.244	12.8
268.46	23.04
268.676	-3.58
268.892	102.91
269.108	0.51
269.324	16.9
269.54	12.8
269.756	-1.54
269.972	4.61
270.188	-22.02
270.403	14.85
270.619	47.62
270.835	-7.68
271.051	41.47
271.267	66.05
271.483	35.33
271.698	78.33
271.914	29.18
272.13	49.66
272.346	16.9
272.562	18.94
272.777	-3.58
272.993	45.57
273.209	14.85
273.425	57.86
273.64	47.62
273.856	45.57
274.072	-32.26
274.287	-22.02
274.503	70.14
274.719	35.33
274.934	0.51
275.15	72.19
275.366	-34.3
275.581	23.04
275.797	23.04
276.012	18.94
276.228	35.33
276.444	-75.26
276.659	31.23
276.875	53.76
277.09	61.95
277.306	-50.69
277.521	16.9
277.737	-7.68
277.952	90.62
278.168	68.09
278.383	20.99
278.599	84.48
278.814	47.62
279.03	10.75
279.245	-17.92
279.461	6.66
279.676	10.75
279.892	-3.58
280.107	-36.35
280.322	6.66
280.538	31.23
280.753	27.14
280.969	27.14
281.184	-40.45
281.399	100.86
281.615	-26.11
281.83	16.9
282.045	10.75
282.26	-15.87
282.476	82.43
282.691	100.86
282.906	55.81
283.122	0.51
283.337	66.05
283.552	78.33
283.767	-15.87
283.983	2.56
284.198	10.75
284.413	20.99
284.628	-54.78
284.843	18.94
285.058	-1.54
285.274	-15.87
285.489	10.75
285.704	41.47
285.919	10.75
286.134	82.43
286.349	78.33
286.564	39.42
286.779	16.9
286.995	53.76
287.21	27.14
287.425	78.33
287.64	33.28
287.855	12.8
288.07	-1.54
288.285	43.52
288.5	74.24
288.715	20.99
288.93	0.51
289.145	74.24
289.36	59.9
289.575	29.18
289.79	49.66
290.004	0.51
290.219	-24.06
290.434	-1.54
290.649	6.66
290.864	-9.73
291.079	35.33
291.294	47.62
291.509	31.23
291.724	-13.82
291.938	59.9
292.153	43.52
292.368	25.09
292.583	68.09
292.798	16.9
293.012	57.86
293.227	59.9
293.442	39.42
293.657	-9.73
293.871	10.75
294.086	-40.45
294.301	-28.16
294.516	88.57
294.73	23.04
294.945	-17.92
295.16	49.66
295.374	4.61
295.589	41.47
295.804	-15.87
296.018	47.62
296.233	-3.58
296.447	-13.82
296.662	47.62
296.877	16.9
297.091	66.05
297.306	31.23
297.52	51.71
297.735	66.05
297.949	117.25
298.164	41.47
298.378	-5.63
298.593	-36.35
298.807	2.56
299.022	2.56
299.236	12.8
299.451	53.76
299.665	8.7
299.88	23.04
300.094	25.09
300.309	68.09
300.523	59.9
300.737	0.51
300.952	23.04
301.166	45.57
301.381	43.52
301.595	16.9
301.809	20.99
302.024	53.76
302.238	-7.68
302.452	74.24
302.667	8.7
302.881	82.43
303.095	10.75
303.309	41.47
303.524	-9.73
303.738	-28.16
303.952	43.52
304.166	6.66
304.381	53.76
304.595	20.99
304.809	47.62
305.023	82.43
305.237	45.57
305.452	-13.82
305.666	6.66
305.88	66.05
306.094	74.24
306.308	20.99
306.522	45.57
306.736	-11.78
306.95	20.99
307.164	43.52
307.379	29.18
307.593	70.14
307.807	66.05
308.021	27.14
308.235	-36.35
308.449	14.85
308.663	-71.17
308.877	57.86
309.091	41.47
309.305	-7.68
309.519	6.66
309.733	31.23
309.947	55.81
310.161	2.56
310.374	8.7
310.588	31.23
310.802	-26.11
311.016	33.28
311.23	82.43
311.444	-69.12
311.658	33.28
311.872	78.33
312.085	35.33
312.299	61.95
312.513	20.99
312.727	8.7
312.941	18.94
313.154	4.61
313.368	100.86
313.582	55.81
313.796	78.33
314.009	66.05
314.223	84.48
314.437	35.33
314.651	12.8
314.864	51.71
315.078	-11.78
315.292	-9.73
315.505	76.29
315.719	14.85
315.933	86.53
316.146	12.8
316.36	-28.16
316.573	27.14
316.787	14.85
317.001	66.05
317.214	-7.68
317.428	-9.73
317.641	-7.68
317.855	70.14
318.068	6.66
318.282	92.67
318.495	43.52
318.709	20.99
318.922	74.24
319.136	72.19
319.349	70.14
319.563	20.99
319.776	33.28
319.99	-24.06
320.203	49.66
320.417	12.8
320.63	23.04
320.843	121.34
321.057	82.43
321.27	14.85
321.483	49.66
321.697	-5.63
321.91	70.14
322.124	49.66
322.337	-22.02
322.55	35.33
322.763	59.9
322.977	-15.87
323.19	-28.16
323.403	-1.54
323.617	-7.68
323.83	49.66
324.043	41.47
324.256	18.94
324.469	80.38
324.683	51.71
324.896	-5.63
325.109	59.9
325.322	-9.73
325.535	39.42
325.748	12.8
325.962	35.33
326.175	31.23
326.388	35.33
326.601	66.05
326.814	68.09
327.027	117.25
327.24	-1.54
327.453	-30.21
327.666	76.29
327.879	143.87
328.092	70.14
328.305	-15.87
328.518	82.43
328.731	10.75
328.944	23.04
329.157	80.38
329.37	41.47
329.583	98.81
329.796	94.72
330.009	20.99
330.222	47.62
330.435	8.7
330.648	43.52
330.861	10.75
331.073	-3.58
331.286	33.28
331.499	59.9
331.712	-28.16
331.925	41.47
332.138	47.62
332.35	49.66
332.563	20.99
332.776	16.9
332.989	23.04
333.202	45.57
333.414	88.57
333.627	29.18
333.84	29.18
334.053	53.76
334.265	41.47
334.478	20.99
334.691	-34.3
334.903	16.9
335.116	12.8
335.329	68.09
335.541	45.57
335.754	31.23
335.966	27.14
336.179	0.51
336.392	14.85
336.604	6.66
336.817	98.81
337.029	49.66
337.242	18.94
337.454	64
337.667	16.9
337.88	61.95
338.092	-15.87
338.305	-17.92
338.517	0.51
338.729	100.86
338.942	35.33
339.154	23.04
339.367	39.42
339.579	20.99
339.792	12.8
340.004	66.05
340.217	68.09
340.429	-1.54
340.641	55.81
340.854	33.28
341.066	-44.54
341.278	135.68
341.491	96.77
341.703	47.62
341.915	53.76
342.128	37.38
342.34	76.29
342.552	35.33
342.764	-22.02
342.977	51.71
343.189	-28.16
343.401	33.28
343.613	-32.26
343.826	14.85
344.038	35.33
344.25	66.05
344.462	-11.78
344.674	-1.54
344.886	10.75
345.099	-36.35
345.311	-5.63
345.523	14.85
345.735	35.33
345.947	33.28
346.159	-9.73
346.371	31.23
346.583	64
346.795	98.81
347.007	8.7
347.219	74.24
347.431	45.57
347.643	113.15
347.855	10.75
348.067	123.39
348.279	20.99
348.491	45.57
348.703	-15.87
348.915	23.04
349.127	100.86
349.339	37.38
349.551	-46.59
349.763	51.71
349.975	16.9
350.187	92.67
350.399	86.53
350.61	98.81
350.822	57.86
351.034	111.1
351.246	53.76
351.458	14.85
351.669	41.47
351.881	82.43
352.093	25.09
352.305	0.51
352.517	90.62
352.728	4.61
352.94	12.8
353.152	45.57
353.363	25.09
353.575	6.66
353.787	55.81
353.999	-19.97
354.21	76.29
354.422	51.71
354.633	84.48
354.845	-9.73
355.057	-13.82
355.268	8.7
355.48	16.9
355.692	109.05
355.903	29.18
356.115	23.04
356.326	-26.11
356.538	88.57
356.749	98.81
356.961	35.33
357.172	43.52
357.384	100.86
357.595	94.72
357.807	-28.16
358.018	37.38
358.23	74.24
358.441	47.62
358.653	47.62
358.864	33.28
359.075	53.76
359.287	20.99
359.498	90.62
359.709	-3.58
359.921	86.53
360.132	57.86
360.344	47.62
360.555	-19.97
360.766	8.7
360.977	0.51
361.189	27.14
361.4	37.38
361.611	61.95
361.823	12.8
362.034	35.33
362.245	14.85
362.456	59.9
362.667	29.18
362.879	51.71
363.09	109.05
363.301	16.9
363.512	74.24
363.723	-13.82
363.935	74.24
364.146	41.47
364.357	6.66
364.568	16.9
364.779	2.56
364.99	51.71
365.201	27.14
365.412	82.43
365.623	74.24
365.834	119.29
366.045	41.47
366.256	39.42
366.467	8.7
366.678	35.33
366.889	25.09
367.1	35.33
367.311	98.81
367.522	-24.06
367.733	88.57
367.944	45.57
368.155	6.66
368.366	115.2
368.577	86.53
368.788	127.49
368.999	6.66
369.209	-15.87
369.42	117.25
369.631	150.01
369.842	74.24
370.053	4.61
370.264	80.38
370.474	12.8
370.685	25.09
370.896	82.43
371.107	74.24
371.317	129.53
371.528	16.9
371.739	51.71
371.95	-9.73
372.16	47.62
372.371	-15.87
372.582	68.09
372.792	80.38
373.003	4.61
373.214	82.43
373.424	23.04
373.635	61.95
373.846	86.53
374.056	35.33
374.267	68.09
374.477	16.9
374.688	135.68
374.898	49.66
375.109	-3.58
375.319	76.29
375.53	64
375.74	-1.54
375.951	33.28
376.161	41.47
376.372	70.14
376.582	49.66
376.793	107.01
377.003	-19.97
377.214	64
377.424	-32.26
377.635	53.76
377.845	64
378.055	57.86
378.266	70.14
378.476	115.2
378.686	53.76
378.897	55.81
379.107	25.09
379.317	10.75
379.528	-7.68
379.738	41.47
379.948	47.62
380.158	-17.92
380.369	41.47
380.579	-1.54
380.789	-9.73
380.999	68.09
381.21	25.09
381.42	59.9
381.63	12.8
381.84	41.47
382.05	45.57
382.261	10.75
382.471	51.71
382.681	51.71
382.891	41.47
383.101	90.62
383.311	55.81
383.521	51.71
383.731	12.8
383.941	20.99
384.151	23.04
384.361	33.28
384.571	64
384.781	86.53
384.991	139.77
385.201	-26.11
385.411	84.48
385.621	45.57
385.831	92.67
386.041	39.42
386.251	64
386.461	160.25
386.671	23.04
386.881	78.33
387.091	27.14
387.301	76.29
387.511	86.53
387.72	70.14
387.93	59.9
388.14	72.19
388.35	14.85
388.56	41.47
388.769	31.23
388.979	66.05
389.189	59.9
389.399	-5.63
389.609	76.29
389.818	57.86
390.028	64
390.238	104.96
390.447	6.66
390.657	78.33
390.867	55.81
391.076	4.61
391.286	66.05
391.496	45.57
391.705	25.09
391.915	88.57
392.125	70.14
392.334	115.2
392.544	94.72
392.753	98.81
392.963	25.09
393.172	47.62
393.382	37.38
393.591	57.86
393.801	41.47
394.01	111.1
394.22	61.95
394.429	51.71
394.639	20.99
394.848	94.72
395.058	76.29
395.267	41.47
395.477	76.29
395.686	74.24
395.895	80.38
396.105	152.06
396.314	115.2
396.524	109.05
396.733	29.18
396.942	139.77
397.152	125.44
397.361	184.83
397.57	92.67
397.78	131.58
397.989	92.67
398.198	109.05
398.407	80.38
398.617	139.77
398.826	33.28
399.035	135.68
399.244	115.2
399.453	92.67
399.663	117.25
399.872	147.97
400.081	53.76
400.29	84.48
400.499	14.85
400.708	180.73
400.917	80.38
401.127	133.63
401.336	111.1
401.545	127.49
401.754	121.34
401.963	147.97
402.172	86.53
402.381	49.66
402.59	49.66
402.799	119.29
403.008	86.53
403.217	119.29
403.426	115.2
403.635	129.53
403.844	111.1
404.053	137.73
404.262	76.29
404.471	160.25
404.68	135.68
404.888	131.58
405.097	88.57
405.306	150.01
405.515	88.57
405.724	129.53
405.933	147.97
406.142	203.26
406.35	121.34
406.559	174.59
406.768	164.35
406.977	215.55
407.185	199.16
407.394	168.45
407.603	164.35
407.812	127.49
408.02	274.94
408.229	250.36
408.438	223.74
408.646	242.17
408.855	287.23
409.064	338.43
409.272	322.04
409.481	289.28
409.69	301.56
409.898	256.51
410.107	295.42
410.315	377.34
410.524	236.03
410.733	248.32
410.941	352.76
411.15	397.82
411.358	424.44
411.567	465.4
411.775	381.43
411.984	496.12
412.192	526.84
412.401	432.63
412.609	528.89
412.818	541.18
413.026	492.02
413.234	498.17
413.443	442.87
413.651	610.81
413.86	567.8
414.068	584.18
414.276	664.05
414.485	614.9
414.693	682.49
414.901	713.21
415.11	733.68
415.318	733.68
415.526	715.25
415.734	829.94
415.943	793.08
416.151	825.84
416.359	696.82
416.567	930.29
416.776	813.56
416.984	952.82
417.192	1049.07
417.4	1010.16
417.608	1053.17
417.817	961.01
418.025	1104.37
418.233	1212.91
418.441	1223.15
418.649	1262.06
418.857	1368.56
419.065	1380.84
419.273	1335.79
419.481	1356.27
419.689	1481.19
419.897	1483.24
420.105	1556.97
420.313	1614.31
420.521	1661.41
420.729	1671.65
420.937	1796.58
421.145	1868.26
421.353	1878.5
421.561	2089.44
421.769	1962.47
421.977	2019.81
422.185	2173.41
422.393	2212.32
422.601	2296.28
422.809	2421.21
423.017	2318.81
423.224	2445.79
423.432	2539.99
423.64	2501.08
423.848	2886.1
424.056	2738.65
424.263	2918.87
424.471	3019.22
424.679	3025.36
424.887	3187.15
425.094	3248.59
425.302	3338.7
425.51	3396.04
425.718	3457.48
425.925	3635.66
426.133	3563.98
426.341	3934.66
426.548	4004.29
426.756	4118.98
426.964	4182.46
427.171	4260.29
427.379	4446.65
427.586	4536.76
427.794	4504
428.001	4790.71
428.209	5022.13
428.417	4940.21
428.624	5556.65
428.832	5304.75
429.039	5243.31
429.247	5323.18
429.454	5765.54
429.662	6185.38
429.869	5605.8
430.076	6302.11
430.284	6058.4
430.491	6484.38
430.699	6601.12
430.906	6607.26
431.114	6773.14
431.321	7059.86
431.528	7278.99
431.736	7563.66
431.943	7938.44
432.15	7682.44
432.358	7926.15
432.565	8206.72
432.772	8223.11
432.979	8544.64
433.187	8796.54
433.394	8927.61
433.601	9421.17
433.808	9267.57
434.016	9406.83
434.223	9853.29
434.43	10504.54
434.637	10164.58
434.844	10936.67
435.052	11112.79
435.259	11133.27
435.466	11127.13
435.673	11006.3
435.88	11927.88
436.087	12175.69
436.294	12566.85
436.501	12288.32
436.708	12169.54
436.915	12431.68
437.122	13326.64
437.329	13261.11
437.537	13601.07
437.743	13726
437.95	13949.23
438.157	14364.96
438.364	14858.53
438.571	14848.29
438.778	14862.62
438.985	16384.26
439.192	15728.91
439.399	16136.46
439.606	15884.56
439.813	16822.53
440.02	17801.46
440.227	17496.31
440.433	17344.76
440.64	17821.94
440.847	17850.61
441.054	18061.55
441.261	19390.68
441.467	19376.34
441.674	19527.89
441.881	20156.62
442.088	20289.74
442.294	19855.57
442.501	20535.49
442.708	20791.49
442.914	21846.19
443.121	22507.69
443.328	22020.27
443.534	23478.43
443.741	23175.33
443.948	22638.76
444.154	24357
444.361	24027.28
444.568	24273.04
444.774	24307.85
444.981	24666.25
445.187	25229.44
445.394	26302.57
445.6	25847.93
445.807	28461.13
446.013	27410.53
446.22	27783.26
446.426	28549.2
446.633	29042.76
446.839	30076.98
447.046	28678.22
447.252	30523.44
447.459	30418.99
447.665	30011.45
447.871	31662.11
448.078	32849.93
448.284	31528.99
448.491	32376.85
448.697	33376.26
448.903	34158.58
449.11	34156.53
449.316	33423.36
449.522	34467.83
449.728	34973.67
449.935	35479.52
450.141	34904.04
450.347	36083.67
450.553	35129.32
450.76	35385.32
450.966	36427.73
451.172	36022.23
451.378	37152.71
451.584	36159.45
451.791	36759.5
451.997	37208.01
452.203	37461.96
452.409	37341.13
452.615	37314.5
452.821	35827.68
453.027	35688.42
453.233	37296.07
453.44	35751.9
453.646	36110.3
453.852	36628.43
454.058	37205.96
454.264	35743.71
454.47	36917.2
454.676	35725.28
454.882	36800.46
455.088	33554.43
455.294	34260.98
455.5	34891.76
455.705	35370.98
455.911	33624.06
456.117	33073.16
456.323	32618.51
456.529	30695.47
456.735	32114.71
456.941	31289.38
457.147	30718
457.352	29931.58
457.558	29554.75
457.764	29440.06
457.97	29093.96
458.176	28442.7
458.381	28407.89
458.587	26990.69
458.793	26912.87
458.999	25524.35
459.204	27590.75
459.41	26726.5
459.616	24946.82
459.821	25172.1
460.027	24678.54
460.233	24565.9
460.438	23236.77
460.644	23580.82
460.85	22331.56
461.055	21848.24
461.261	21997.74
461.466	20173
461.672	19747.03
461.878	21190.84
462.083	19544.28
462.289	19634.39
462.494	19513.56
462.7	18516.2
462.905	18026.73
463.111	18469.09
463.316	18522.34
463.522	18292.97
463.727	18034.92
463.932	18381.03
464.138	17973.49
464.343	18266.35
464.549	17449.21
464.754	18215.15
464.959	18012.4
465.165	17783.02
465.37	17170.68
465.575	16441.61
465.781	17189.11
465.986	17488.12
466.191	16818.43
466.397	16652.55
466.602	15966.48
466.807	16335.11
467.012	16290.06
467.218	16437.51
467.423	16083.21
467.628	15972.62
467.833	16965.89
