Data from USB4F104151__247__11-11-36-996.txt Node

Date: Wed Mar 12 11:11:37 EDT 2025
User: louis
Spectrometer: USB4F10415
Trigger mode: 4
Integration Time (sec): 2.000000E-2
Scans to average: 1
Electric dark correction enabled: true
Nonlinearity correction enabled: false
Boxcar width: 0
XAxis mode: Wavelengths
Number of Pixels in Spectrum: 3648
>>>>>Begin Spectral Data<<<<<
178.204	-93.87
178.424	-93.87
178.644	-93.87
178.864	-122.54
179.084	-34.47
179.304	22.87
179.524	18.77
179.744	63.83
179.964	0.34
180.184	12.63
180.404	-22.19
180.624	6.49
180.844	16.73
181.064	29.01
181.283	-104.11
181.503	-16.04
181.723	-28.33
181.943	-75.43
182.163	-44.71
182.383	-44.71
182.602	82.26
182.822	4.44
183.042	-1.71
183.262	-28.33
183.482	63.83
183.701	29.01
183.921	24.92
184.141	10.58
184.361	12.63
184.58	43.35
184.8	-11.95
185.02	4.44
185.239	-7.85
185.459	8.53
185.679	-24.23
185.898	-75.43
186.118	-9.9
186.338	41.3
186.557	49.49
186.777	-48.81
186.997	-11.95
187.216	12.63
187.436	29.01
187.655	-48.81
187.875	12.63
188.095	-20.14
188.314	-38.57
188.534	-20.14
188.753	16.73
188.973	18.77
189.192	33.11
189.412	-13.99
189.631	-26.28
189.851	-1.71
190.07	-1.71
190.29	-52.91
190.509	29.01
190.729	51.54
190.948	-9.9
191.168	61.78
191.387	41.3
191.607	4.44
191.826	-7.85
192.045	31.06
192.265	6.49
192.484	-26.28
192.704	35.16
192.923	-79.53
193.142	22.87
193.362	37.2
193.581	-46.76
193.8	-67.24
194.02	-3.75
194.239	57.68
194.458	26.96
194.678	6.49
194.897	-75.43
195.116	29.01
195.335	-57
195.555	4.44
195.774	16.73
195.993	16.73
196.212	-18.09
196.432	-38.57
196.651	41.3
196.87	33.11
197.089	51.54
197.308	-11.95
197.528	14.68
197.747	-61.1
197.966	26.96
198.185	45.4
198.404	-65.19
198.623	-26.28
198.842	26.96
199.062	-75.43
199.281	39.25
199.5	2.39
199.719	41.3
199.938	53.59
200.157	0.34
200.376	14.68
200.595	37.2
200.814	-54.95
201.033	20.82
201.252	-46.76
201.471	0.34
201.69	18.77
201.909	-77.48
202.128	43.35
202.347	8.53
202.566	-13.99
202.785	-28.33
203.004	37.2
203.223	12.63
203.442	-1.71
203.661	-18.09
203.879	45.4
204.098	35.16
204.317	-42.67
204.536	37.2
204.755	59.73
204.974	-5.8
205.193	6.49
205.411	49.49
205.63	10.58
205.849	-32.43
206.068	-13.99
206.287	61.78
206.505	-3.75
206.724	49.49
206.943	74.07
207.162	-52.91
207.381	-65.19
207.599	35.16
207.818	39.25
208.037	-1.71
208.255	-26.28
208.474	8.53
208.693	26.96
208.911	26.96
209.13	31.06
209.349	47.44
209.567	14.68
209.786	63.83
210.005	51.54
210.223	43.35
210.442	-50.86
210.661	45.4
210.879	6.49
211.098	26.96
211.316	-7.85
211.535	47.44
211.753	-7.85
211.972	14.68
212.191	-44.71
212.409	-36.52
212.628	-75.43
212.846	-18.09
213.065	18.77
213.283	29.01
213.502	22.87
213.72	26.96
213.938	20.82
214.157	41.3
214.375	45.4
214.594	29.01
214.812	43.35
215.031	24.92
215.249	0.34
215.467	26.96
215.686	-50.86
215.904	43.35
216.122	14.68
216.341	55.64
216.559	-3.75
216.778	47.44
216.996	-1.71
217.214	-16.04
217.432	-26.28
217.651	2.39
217.869	-22.19
218.087	-5.8
218.306	-1.71
218.524	55.64
218.742	10.58
218.96	14.68
219.179	45.4
219.397	2.39
219.615	74.07
219.833	57.68
220.051	-36.52
220.27	29.01
220.488	59.73
220.706	-89.77
220.924	39.25
221.142	72.02
221.36	47.44
221.578	4.44
221.796	-1.71
222.015	-54.95
222.233	-9.9
222.451	31.06
222.669	-9.9
222.887	22.87
223.105	8.53
223.323	22.87
223.541	-24.23
223.759	47.44
223.977	26.96
224.195	22.87
224.413	6.49
224.631	45.4
224.849	31.06
225.067	59.73
225.285	2.39
225.503	55.64
225.721	-69.29
225.939	10.58
226.157	41.3
226.375	37.2
226.592	-11.95
226.81	53.59
227.028	45.4
227.246	20.82
227.464	-20.14
227.682	57.68
227.9	51.54
228.117	8.53
228.335	47.44
228.553	53.59
228.771	-5.8
228.989	-7.85
229.206	4.44
229.424	-5.8
229.642	-67.24
229.86	-7.85
230.077	49.49
230.295	12.63
230.513	51.54
230.731	47.44
230.948	37.2
231.166	24.92
231.384	-75.43
231.601	-16.04
231.819	78.16
232.037	-48.81
232.254	-59.05
232.472	14.68
232.689	39.25
232.907	78.16
233.125	-11.95
233.342	-5.8
233.56	-18.09
233.777	12.63
233.995	-42.67
234.213	41.3
234.43	-1.71
234.648	74.07
234.865	18.77
235.083	129.36
235.3	-63.15
235.518	76.12
235.735	0.34
235.953	22.87
236.17	18.77
236.388	10.58
236.605	-36.52
236.822	43.35
237.04	55.64
237.257	-28.33
237.475	-5.8
237.692	0.34
237.909	-26.28
238.127	37.2
238.344	-11.95
238.562	14.68
238.779	-42.67
238.996	16.73
239.214	18.77
239.431	31.06
239.648	51.54
239.865	31.06
240.083	43.35
240.3	-13.99
240.517	2.39
240.735	-20.14
240.952	-11.95
241.169	20.82
241.386	-20.14
241.603	-18.09
241.821	-30.38
242.038	41.3
242.255	135.51
242.472	-26.28
242.689	-1.71
242.907	63.83
243.124	-73.39
243.341	39.25
243.558	37.2
243.775	-97.96
243.992	-28.33
244.209	6.49
244.426	65.88
244.643	33.11
244.86	-22.19
245.078	37.2
245.295	47.44
245.512	12.63
245.729	0.34
245.946	-52.91
246.163	14.68
246.38	-46.76
246.597	-18.09
246.814	55.64
247.031	6.49
247.248	-22.19
247.464	0.34
247.681	6.49
247.898	-1.71
248.115	-11.95
248.332	-79.53
248.549	76.12
248.766	8.53
248.983	43.35
249.2	51.54
249.417	41.3
249.633	-7.85
249.85	43.35
250.067	-5.8
250.284	-24.23
250.501	67.92
250.717	2.39
250.934	-11.95
251.151	37.2
251.368	-61.1
251.585	14.68
251.801	45.4
252.018	-54.95
252.235	-32.43
252.451	-5.8
252.668	-28.33
252.885	78.16
253.102	72.02
253.318	67.92
253.535	-18.09
253.752	10.58
253.968	-1.71
254.185	-16.04
254.401	-1.71
254.618	55.64
254.835	26.96
255.051	53.59
255.268	-18.09
255.484	-36.52
255.701	-57
255.917	80.21
256.134	-40.62
256.351	18.77
256.567	-20.14
256.784	2.39
257	14.68
257.217	37.2
257.433	33.11
257.65	-13.99
257.866	6.49
258.082	8.53
258.299	55.64
258.515	82.26
258.732	39.25
258.948	-48.81
259.165	-1.71
259.381	-18.09
259.597	57.68
259.814	90.45
260.03	-18.09
260.246	2.39
260.463	47.44
260.679	-38.57
260.895	67.92
261.112	6.49
261.328	-65.19
261.544	12.63
261.761	74.07
261.977	39.25
262.193	-36.52
262.409	0.34
262.626	35.16
262.842	22.87
263.058	26.96
263.274	47.44
263.49	-54.95
263.707	-11.95
263.923	22.87
264.139	2.39
264.355	10.58
264.571	112.98
264.787	-48.81
265.004	12.63
265.22	2.39
265.436	35.16
265.652	-18.09
265.868	2.39
266.084	35.16
266.3	65.88
266.516	51.54
266.732	31.06
266.948	26.96
267.164	-26.28
267.38	-1.71
267.596	-16.04
267.812	63.83
268.028	-26.28
268.244	82.26
268.46	2.39
268.676	-11.95
268.892	22.87
269.108	8.53
269.324	10.58
269.54	72.02
269.756	4.44
269.972	-38.57
270.188	-52.91
270.403	31.06
270.619	-18.09
270.835	69.97
271.051	-22.19
271.267	-9.9
271.483	-42.67
271.698	6.49
271.914	4.44
272.13	35.16
272.346	39.25
272.562	-11.95
272.777	92.5
272.993	6.49
273.209	-5.8
273.425	51.54
273.64	6.49
273.856	31.06
274.072	-5.8
274.287	45.4
274.503	2.39
274.719	61.78
274.934	55.64
275.15	-18.09
275.366	92.5
275.581	-36.52
275.797	59.73
276.012	-13.99
276.228	2.39
276.444	2.39
276.659	39.25
276.875	67.92
277.09	-5.8
277.306	-48.81
277.521	2.39
277.737	49.49
277.952	55.64
278.168	57.68
278.383	47.44
278.599	18.77
278.814	76.12
279.03	-11.95
279.245	-18.09
279.461	-5.8
279.676	4.44
279.892	-75.43
280.107	16.73
280.322	31.06
280.538	-9.9
280.753	24.92
280.969	8.53
281.184	-38.57
281.399	57.68
281.615	51.54
281.83	-13.99
282.045	-18.09
282.26	61.78
282.476	14.68
282.691	47.44
282.906	8.53
283.122	26.96
283.337	-24.23
283.552	29.01
283.767	-34.47
283.983	37.2
284.198	-26.28
284.413	37.2
284.628	-50.86
284.843	45.4
285.058	-38.57
285.274	26.96
285.489	14.68
285.704	-40.62
285.919	-3.75
286.134	51.54
286.349	35.16
286.564	2.39
286.779	20.82
286.995	49.49
287.21	-61.1
287.425	67.92
287.64	22.87
287.855	-24.23
288.07	2.39
288.285	0.34
288.5	80.21
288.715	31.06
288.93	-87.72
289.145	0.34
289.36	18.77
289.575	-7.85
289.79	33.11
290.004	45.4
290.219	90.45
290.434	-1.71
290.649	16.73
290.864	53.59
291.079	-50.86
291.294	-1.71
291.509	12.63
291.724	61.78
291.938	-18.09
292.153	10.58
292.368	-3.75
292.583	24.92
292.798	102.74
293.012	61.78
293.227	-20.14
293.442	55.64
293.657	26.96
293.871	-1.71
294.086	-9.9
294.301	24.92
294.516	22.87
294.73	31.06
294.945	49.49
295.16	-38.57
295.374	-11.95
295.589	65.88
295.804	-30.38
296.018	33.11
296.233	86.36
296.447	20.82
296.662	39.25
296.877	29.01
297.091	18.77
297.306	14.68
297.52	31.06
297.735	51.54
297.949	26.96
298.164	-50.86
298.378	26.96
298.593	-52.91
298.807	-18.09
299.022	0.34
299.236	14.68
299.451	-83.63
299.665	12.63
299.88	-16.04
300.094	24.92
300.309	37.2
300.523	-22.19
300.737	-26.28
300.952	-3.75
301.166	53.59
301.381	76.12
301.595	-18.09
301.809	35.16
302.024	-44.71
302.238	-44.71
302.452	0.34
302.667	47.44
302.881	59.73
303.095	20.82
303.309	35.16
303.524	-1.71
303.738	-9.9
303.952	-1.71
304.166	78.16
304.381	-5.8
304.595	-26.28
304.809	6.49
305.023	37.2
305.237	29.01
305.452	6.49
305.666	22.87
305.88	29.01
306.094	39.25
306.308	31.06
306.522	104.79
306.736	-1.71
306.95	24.92
307.164	26.96
307.379	26.96
307.593	35.16
307.807	4.44
308.021	4.44
308.235	63.83
308.449	69.97
308.663	72.02
308.877	41.3
309.091	59.73
309.305	47.44
309.519	12.63
309.733	31.06
309.947	-9.9
310.161	-7.85
310.374	-22.19
310.588	41.3
310.802	-32.43
311.016	2.39
311.23	18.77
311.444	39.25
311.658	26.96
311.872	31.06
312.085	6.49
312.299	31.06
312.513	31.06
312.727	31.06
312.941	-11.95
313.154	29.01
313.368	80.21
313.582	-32.43
313.796	-32.43
314.009	-34.47
314.223	-30.38
314.437	-9.9
314.651	74.07
314.864	63.83
315.078	35.16
315.292	16.73
315.505	-100.01
315.719	26.96
315.933	-7.85
316.146	47.44
316.36	45.4
316.573	16.73
316.787	-40.62
317.001	45.4
317.214	14.68
317.428	6.49
317.641	-28.33
317.855	53.59
318.068	65.88
318.282	-18.09
318.495	-7.85
318.709	76.12
318.922	-24.23
319.136	2.39
319.349	-5.8
319.563	-67.24
319.776	59.73
319.99	12.63
320.203	43.35
320.417	45.4
320.63	-11.95
320.843	92.5
321.057	35.16
321.27	4.44
321.483	-38.57
321.697	102.74
321.91	26.96
322.124	72.02
322.337	-67.24
322.55	20.82
322.763	-3.75
322.977	37.2
323.19	-54.95
323.403	-18.09
323.617	59.73
323.83	20.82
324.043	65.88
324.256	63.83
324.469	22.87
324.683	53.59
324.896	35.16
325.109	43.35
325.322	-87.72
325.535	22.87
325.748	2.39
325.962	10.58
326.175	-38.57
326.388	67.92
326.601	33.11
326.814	61.78
327.027	35.16
327.24	6.49
327.453	88.4
327.666	6.49
327.879	72.02
328.092	-11.95
328.305	8.53
328.518	4.44
328.731	59.73
328.944	16.73
329.157	29.01
329.37	22.87
329.583	14.68
329.796	63.83
330.009	16.73
330.222	65.88
330.435	90.45
330.648	74.07
330.861	10.58
331.073	2.39
331.286	59.73
331.499	90.45
331.712	-34.47
331.925	65.88
332.138	-38.57
332.35	24.92
332.563	45.4
332.776	14.68
332.989	-40.62
333.202	35.16
333.414	100.69
333.627	112.98
333.84	94.55
334.053	2.39
334.265	43.35
334.478	20.82
334.691	31.06
334.903	-7.85
335.116	0.34
335.329	53.59
335.541	63.83
335.754	72.02
335.966	-28.33
336.179	43.35
336.392	37.2
336.604	-52.91
336.817	47.44
337.029	65.88
337.242	16.73
337.454	45.4
337.667	-16.04
337.88	18.77
338.092	-24.23
338.305	39.25
338.517	37.2
338.729	55.64
338.942	31.06
339.154	-22.19
339.367	18.77
339.579	49.49
339.792	-110.25
340.004	10.58
340.217	63.83
340.429	12.63
340.641	-52.91
340.854	-61.1
341.066	49.49
341.278	-24.23
341.491	37.2
341.703	10.58
341.915	47.44
342.128	92.5
342.34	8.53
342.552	69.97
342.764	39.25
342.977	31.06
343.189	39.25
343.401	63.83
343.613	39.25
343.826	61.78
344.038	-57
344.25	-16.04
344.462	41.3
344.674	29.01
344.886	10.58
345.099	37.2
345.311	12.63
345.523	35.16
345.735	-38.57
345.947	-24.23
346.159	-28.33
346.371	43.35
346.583	-46.76
346.795	55.64
347.007	47.44
347.219	-91.82
347.431	22.87
347.643	31.06
347.855	24.92
348.067	65.88
348.279	-5.8
348.491	90.45
348.703	53.59
348.915	33.11
349.127	-22.19
349.339	4.44
349.551	-28.33
349.763	-36.52
349.975	135.51
350.187	80.21
350.399	67.92
350.61	-20.14
350.822	37.2
351.034	55.64
351.246	67.92
351.458	74.07
351.669	31.06
351.881	49.49
352.093	12.63
352.305	10.58
352.517	106.84
352.728	100.69
352.94	-5.8
353.152	24.92
353.363	20.82
353.575	-28.33
353.787	72.02
353.999	-16.04
354.21	53.59
354.422	2.39
354.633	14.68
354.845	22.87
355.057	39.25
355.268	53.59
355.48	43.35
355.692	47.44
355.903	-26.28
356.115	84.31
356.326	10.58
356.538	-3.75
356.749	37.2
356.961	57.68
357.172	31.06
357.384	20.82
357.595	72.02
357.807	29.01
358.018	33.11
358.23	39.25
358.441	53.59
358.653	31.06
358.864	-30.38
359.075	-7.85
359.287	22.87
359.498	63.83
359.709	45.4
359.921	-16.04
360.132	88.4
360.344	20.82
360.555	-22.19
360.766	4.44
360.977	-26.28
361.189	-20.14
361.4	63.83
361.611	37.2
361.823	37.2
362.034	43.35
362.245	-71.34
362.456	65.88
362.667	74.07
362.879	-1.71
363.09	31.06
363.301	125.27
363.512	65.88
363.723	121.17
363.935	18.77
364.146	86.36
364.357	-9.9
364.568	20.82
364.779	43.35
364.99	72.02
365.201	4.44
365.412	65.88
365.623	-11.95
365.834	-1.71
366.045	10.58
366.256	96.6
366.467	29.01
366.678	-24.23
366.889	2.39
367.1	-71.34
367.311	43.35
367.522	16.73
367.733	12.63
367.944	72.02
368.155	-36.52
368.366	57.68
368.577	45.4
368.788	84.31
368.999	55.64
369.209	14.68
369.42	24.92
369.631	84.31
369.842	20.82
370.053	12.63
370.264	39.25
370.474	4.44
370.685	53.59
370.896	43.35
371.107	-1.71
371.317	86.36
371.528	10.58
371.739	96.6
371.95	22.87
372.16	39.25
372.371	-40.62
372.582	12.63
372.792	47.44
373.003	37.2
373.214	-16.04
373.424	74.07
373.635	-18.09
373.846	51.54
374.056	35.16
374.267	106.84
374.477	55.64
374.688	-32.43
374.898	61.78
375.109	-26.28
375.319	72.02
375.53	22.87
375.74	-7.85
375.951	33.11
376.161	82.26
376.372	35.16
376.582	41.3
376.793	14.68
377.003	-38.57
377.214	18.77
377.424	43.35
377.635	49.49
377.845	10.58
378.055	22.87
378.266	57.68
378.476	53.59
378.686	55.64
378.897	8.53
379.107	35.16
379.317	29.01
379.528	45.4
379.738	-9.9
379.948	35.16
380.158	53.59
380.369	72.02
380.579	14.68
380.789	-38.57
380.999	59.73
381.21	2.39
381.42	82.26
381.63	-34.47
381.84	104.79
382.05	0.34
382.261	84.31
382.471	41.3
382.681	0.34
382.891	-3.75
383.101	35.16
383.311	14.68
383.521	49.49
383.731	6.49
383.941	20.82
384.151	12.63
384.361	-18.09
384.571	41.3
384.781	0.34
384.991	86.36
385.201	20.82
385.411	61.78
385.621	31.06
385.831	84.31
386.041	47.44
386.251	14.68
386.461	86.36
386.671	31.06
386.881	16.73
387.091	22.87
387.301	90.45
387.511	-1.71
387.72	26.96
387.93	-13.99
388.14	12.63
388.35	65.88
388.56	41.3
388.769	133.46
388.979	94.55
389.189	119.12
389.399	67.92
389.609	78.16
389.818	72.02
390.028	0.34
390.238	31.06
390.447	78.16
390.657	49.49
390.867	10.58
391.076	123.22
391.286	33.11
391.496	22.87
391.705	-16.04
391.915	76.12
392.125	-1.71
392.334	-13.99
392.544	6.49
392.753	76.12
392.963	51.54
393.172	33.11
393.382	61.78
393.591	43.35
393.801	33.11
394.01	96.6
394.22	86.36
394.429	45.4
394.639	53.59
394.848	153.94
395.058	6.49
395.267	69.97
395.477	74.07
395.686	43.35
395.895	145.75
396.105	96.6
396.314	63.83
396.524	119.12
396.733	59.73
396.942	135.51
397.152	112.98
397.361	51.54
397.57	82.26
397.78	53.59
397.989	22.87
398.198	176.47
398.407	41.3
398.617	39.25
398.826	86.36
399.035	88.4
399.244	137.56
399.453	141.65
399.663	135.51
399.872	139.6
400.081	49.49
400.29	149.84
400.499	43.35
400.708	106.84
400.917	67.92
401.127	76.12
401.336	57.68
401.545	117.08
401.754	155.99
401.963	92.5
402.172	72.02
402.381	76.12
402.59	115.03
402.799	129.36
403.008	115.03
403.217	102.74
403.426	84.31
403.635	131.41
403.844	129.36
404.053	127.32
404.262	88.4
404.471	151.89
404.68	102.74
404.888	172.37
405.097	141.65
405.306	88.4
405.515	102.74
405.724	205.14
405.933	219.47
406.142	131.41
406.35	168.27
406.559	350.54
406.768	170.32
406.977	207.19
407.185	248.15
407.394	201.04
407.603	205.14
407.812	270.67
408.02	174.42
408.229	274.77
408.438	278.87
408.646	256.34
408.855	227.67
409.064	268.63
409.272	280.91
409.481	346.45
409.69	364.88
409.898	282.96
410.107	342.35
410.315	366.93
410.524	348.5
410.733	309.58
410.941	385.36
411.15	432.46
411.358	401.74
411.567	463.18
411.775	463.18
411.984	432.46
412.192	457.04
412.401	473.42
412.609	395.6
412.818	416.08
413.026	559.44
413.234	559.44
413.443	584.01
413.651	614.73
413.86	575.82
414.068	661.84
414.276	674.12
414.485	618.83
414.693	635.21
414.901	708.94
415.11	692.55
415.318	725.32
415.526	747.85
415.734	827.72
415.943	811.34
416.151	889.16
416.359	915.78
416.567	942.41
416.776	1005.89
416.984	981.32
417.192	1020.23
417.4	1014.09
417.608	1091.91
417.817	1112.39
418.025	1145.16
418.233	1237.31
418.441	1210.69
418.649	1337.66
418.857	1384.77
419.065	1403.2
419.273	1364.29
419.481	1419.58
419.689	1644.86
419.897	1446.21
420.105	1634.62
420.313	1673.53
420.521	1675.58
420.729	1814.84
420.937	1761.59
421.145	1714.49
421.353	1947.96
421.561	2134.32
421.769	2140.47
421.977	2189.62
422.185	2122.04
422.393	2353.46
422.601	2488.62
422.809	2404.66
423.017	2505.01
423.224	2525.49
423.432	2666.8
423.64	2705.71
423.848	3076.39
424.056	2877.74
424.263	3035.43
424.471	3117.35
424.679	3172.64
424.887	3260.71
425.094	3459.36
425.302	3311.91
425.51	3569.95
425.718	3735.84
425.925	3772.7
426.133	3782.94
426.341	4112.66
426.548	4243.73
426.756	4202.77
426.964	4260.12
427.171	4540.69
427.379	4602.13
427.586	4696.33
427.794	4915.47
428.001	5050.63
428.209	5251.33
428.417	5134.6
428.624	5710.08
428.832	5714.17
429.039	5587.2
429.247	5515.52
429.454	6160.63
429.662	6527.22
429.869	6097.14
430.076	6519.03
430.284	6467.83
430.491	6619.38
430.699	7110.89
430.906	7002.35
431.114	6975.72
431.321	7366.88
431.528	7516.39
431.736	8012
431.943	8141.02
432.15	8057.05
432.358	8120.54
432.565	8523.99
432.772	8497.36
432.979	8935.63
433.187	9302.22
433.394	9291.98
433.601	9877.69
433.808	9879.74
434.016	9765.06
434.223	10318.01
434.43	10815.66
434.637	10641.59
434.844	11161.77
435.052	11413.67
435.259	11253.93
435.466	11464.87
435.673	11403.43
435.88	12079.26
436.087	12624.02
436.294	12824.72
436.501	12400.79
436.708	12689.56
436.915	13131.92
437.122	13959.3
437.329	13889.67
437.537	14207.1
437.743	14565.5
437.95	14121.09
438.157	14977.14
438.364	15597.67
438.571	15450.22
438.778	15659.11
438.985	16965.71
439.192	16371.8
439.399	16840.79
439.606	16468.06
439.813	17467.47
440.02	18167.87
440.227	17924.16
440.433	17915.97
440.64	18583.61
440.847	18565.18
441.054	19017.78
441.261	20097.06
441.467	19943.46
441.674	20455.45
441.881	20776.98
442.088	20822.04
442.294	20389.92
442.501	21487.63
442.708	21745.67
442.914	22775.8
443.121	23717.87
443.328	23183.35
443.534	24281.06
443.741	23760.87
443.948	23619.56
444.154	25360.34
444.361	25278.42
444.568	25753.55
444.774	25307.09
444.981	25386.96
445.187	26075.08
445.394	27817.9
445.6	26959.8
445.807	29329.3
446.013	28358.56
446.22	28956.57
446.426	30281.61
446.633	30496.64
446.839	31215.48
447.046	29773.71
447.252	31821.68
447.459	31688.56
447.665	31424.37
447.871	32780.13
448.078	34090.83
448.284	32296.81
448.491	33382.23
448.697	34623.3
448.903	35262.27
449.11	35508.02
449.316	34848.58
449.522	35530.55
449.728	36003.63
449.935	36577.06
450.141	36978.47
450.347	37396.25
450.553	36380.46
450.76	36861.73
450.966	37949.2
451.172	37502.75
451.378	38203.15
451.584	37318.43
451.791	38360.84
451.997	38283.02
452.203	38805.25
452.409	38983.43
452.615	38747.91
452.821	37357.34
453.027	36892.45
453.233	38874.88
453.44	37267.23
453.646	37717.78
453.852	37676.82
454.058	38360.84
454.264	37140.25
454.47	37959.44
454.676	37199.65
454.882	38016.79
455.088	34488.14
455.294	35202.88
455.5	36020.02
455.705	36597.54
455.911	35028.8
456.117	34316.11
456.323	33662.8
456.529	31922.03
456.735	33220.44
456.941	32147.31
457.147	31965.04
457.352	30826.37
457.558	30396.29
457.764	30353.29
457.97	29912.97
458.176	29161.37
458.381	29403.03
458.587	28045.23
458.793	27690.93
458.999	26619.84
459.204	28415.91
459.41	27717.55
459.616	25853.9
459.821	25808.84
460.027	25759.69
460.233	25427.92
460.438	24053.73
460.644	24029.16
460.85	23039.99
461.055	22611.96
461.261	22419.46
461.466	21037.08
461.672	20324.38
461.878	21450.77
462.083	20422.69
462.289	19978.28
462.494	19671.08
462.7	18849.85
462.905	18518.07
463.111	19159.09
463.316	19198
463.522	18784.31
463.727	18831.41
463.932	18681.91
464.138	18319.42
464.343	18436.16
464.549	18016.32
464.754	18749.5
464.959	18556.99
465.165	18294.85
465.37	17846.34
465.575	17117.26
465.781	17678.41
465.986	18022.47
466.191	17514.57
466.397	16986.19
466.602	16148.57
466.807	16906.32
467.012	16808.02
467.218	16744.53
