Data from USB4F104151__56__11-05-54-426.txt Node

Date: Wed Mar 12 11:05:54 EDT 2025
User: louis
Spectrometer: USB4F10415
Trigger mode: 4
Integration Time (sec): 2.000000E-2
Scans to average: 1
Electric dark correction enabled: true
Nonlinearity correction enabled: false
Boxcar width: 0
XAxis mode: Wavelengths
Number of Pixels in Spectrum: 3648
>>>>>Begin Spectral Data<<<<<
178.204	-116.05
178.424	-116.05
178.644	-116.05
178.864	-68.95
179.084	-62.8
179.304	-48.47
179.524	-48.47
179.744	37.55
179.964	29.35
180.184	51.88
180.404	2.73
180.624	-34.13
180.844	-44.37
181.064	21.16
181.283	8.87
181.503	-21.85
181.723	45.74
181.943	-56.66
182.163	-13.65
182.383	80.55
182.602	66.22
182.822	17.07
183.042	37.55
183.262	-23.89
183.482	33.45
183.701	49.83
183.921	-36.18
184.141	31.4
184.361	-3.41
184.58	0.68
184.8	51.88
185.02	-23.89
185.239	92.84
185.459	76.46
185.679	25.26
185.898	-77.14
186.118	15.02
186.338	6.83
186.557	2.73
186.777	2.73
186.997	43.69
187.216	41.64
187.436	-44.37
187.655	45.74
187.875	47.79
188.095	29.35
188.314	94.89
188.534	60.07
188.753	6.83
188.973	-17.75
189.192	27.31
189.412	39.59
189.631	45.74
189.851	86.7
190.07	-9.56
190.29	-40.28
190.509	39.59
190.729	-9.56
190.948	33.45
191.168	29.35
191.387	17.07
191.607	15.02
191.826	70.31
192.045	47.79
192.265	45.74
192.484	23.21
192.704	84.65
192.923	-44.37
193.142	47.79
193.362	23.21
193.581	66.22
193.8	45.74
194.02	76.46
194.239	64.17
194.458	37.55
194.678	113.32
194.897	49.83
195.116	25.26
195.335	66.22
195.555	29.35
195.774	45.74
195.993	47.79
196.212	17.07
196.432	-5.46
196.651	10.92
196.87	-17.75
197.089	74.41
197.308	64.17
197.528	98.99
197.747	43.69
197.966	-54.61
198.185	-13.65
198.404	21.16
198.623	0.68
198.842	-1.37
199.062	53.93
199.281	33.45
199.5	21.16
199.719	-23.89
199.938	39.59
200.157	-15.7
200.376	78.51
200.595	74.41
200.814	27.31
201.033	0.68
201.252	23.21
201.471	-7.51
201.69	115.37
201.909	45.74
202.128	64.17
202.347	45.74
202.566	-54.61
202.785	27.31
203.004	-9.56
203.223	43.69
203.442	17.07
203.661	94.89
203.879	25.26
204.098	25.26
204.317	25.26
204.536	4.78
204.755	-5.46
204.974	51.88
205.193	-3.41
205.411	51.88
205.63	8.87
205.849	53.93
206.068	-5.46
206.287	15.02
206.505	10.92
206.724	-32.08
206.943	0.68
207.162	45.74
207.381	41.64
207.599	66.22
207.818	-23.89
208.037	29.35
208.255	43.69
208.474	45.74
208.693	60.07
208.911	25.26
209.13	-36.18
209.349	0.68
209.567	43.69
209.786	82.6
210.005	45.74
210.223	6.83
210.442	-3.41
210.661	49.83
210.879	76.46
211.098	43.69
211.316	35.5
211.535	33.45
211.753	-19.8
211.972	23.21
212.191	45.74
212.409	-7.51
212.628	68.27
212.846	-1.37
213.065	45.74
213.283	51.88
213.502	76.46
213.72	74.41
213.938	35.5
214.157	21.16
214.375	23.21
214.594	-25.94
214.812	27.31
215.031	-17.75
215.249	4.78
215.467	60.07
215.686	37.55
215.904	80.55
216.122	10.92
216.341	64.17
216.559	41.64
216.778	17.07
216.996	64.17
217.214	-11.61
217.432	10.92
217.651	-15.7
217.869	2.73
218.087	-73.04
218.306	-25.94
218.524	51.88
218.742	37.55
218.96	27.31
219.179	45.74
219.397	60.07
219.615	115.37
219.833	17.07
220.051	25.26
220.27	53.93
220.488	-36.18
220.706	25.26
220.924	74.41
221.142	4.78
221.36	64.17
221.578	21.16
221.796	103.08
222.015	84.65
222.233	27.31
222.451	62.12
222.669	-58.71
222.887	19.11
223.105	15.02
223.323	0.68
223.541	12.97
223.759	47.79
223.977	-5.46
224.195	101.03
224.413	35.5
224.631	39.59
224.849	41.64
225.067	72.36
225.285	86.7
225.503	37.55
225.721	-17.75
225.939	-9.56
226.157	31.4
226.375	29.35
226.592	70.31
226.81	41.64
227.028	27.31
227.246	-9.56
227.464	-5.46
227.682	58.03
227.9	37.55
228.117	113.32
228.335	0.68
228.553	-3.41
228.771	51.88
228.989	39.59
229.206	58.03
229.424	33.45
229.642	25.26
229.86	103.08
230.077	27.31
230.295	-3.41
230.513	96.94
230.731	27.31
230.948	19.11
231.166	80.55
231.384	-15.7
231.601	68.27
231.819	68.27
232.037	-21.85
232.254	35.5
232.472	43.69
232.689	58.03
232.907	23.21
233.125	-7.51
233.342	74.41
233.56	76.46
233.777	4.78
233.995	27.31
234.213	68.27
234.43	45.74
234.648	70.31
234.865	23.21
235.083	51.88
235.3	-11.61
235.518	4.78
235.735	49.83
235.953	39.59
236.17	-25.94
236.388	68.27
236.605	-30.04
236.822	23.21
237.04	74.41
237.257	12.97
237.475	45.74
237.692	33.45
237.909	25.26
238.127	31.4
238.344	70.31
238.562	53.93
238.779	25.26
238.996	-64.85
239.214	25.26
239.431	103.08
239.648	47.79
239.865	-34.13
240.083	25.26
240.3	37.55
240.517	17.07
240.735	37.55
240.952	88.75
241.169	43.69
241.386	29.35
241.603	51.88
241.821	58.03
242.038	101.03
242.255	80.55
242.472	-40.28
242.689	64.17
242.907	37.55
243.124	29.35
243.341	6.83
243.558	-40.28
243.775	12.97
243.992	-52.56
244.209	-81.24
244.426	25.26
244.643	8.87
244.86	25.26
245.078	47.79
245.295	-30.04
245.512	51.88
245.729	-7.51
245.946	45.74
246.163	72.36
246.38	21.16
246.597	-1.37
246.814	35.5
247.031	25.26
247.248	62.12
247.464	12.97
247.681	15.02
247.898	-32.08
248.115	-9.56
248.332	17.07
248.549	27.31
248.766	121.51
248.983	45.74
249.2	0.68
249.417	47.79
249.633	37.55
249.85	4.78
250.067	-5.46
250.284	29.35
250.501	109.22
250.717	-48.47
250.934	-13.65
251.151	8.87
251.368	39.59
251.585	43.69
251.801	55.98
252.018	33.45
252.235	60.07
252.451	45.74
252.668	19.11
252.885	43.69
253.102	10.92
253.318	53.93
253.535	29.35
253.752	-25.94
253.968	74.41
254.185	35.5
254.401	43.69
254.618	41.64
254.835	21.16
255.051	113.32
255.268	33.45
255.484	53.93
255.701	31.4
255.917	51.88
256.134	-5.46
256.351	70.31
256.567	-21.85
256.784	23.21
257	-23.89
257.217	10.92
257.433	19.11
257.65	51.88
257.866	33.45
258.082	39.59
258.299	35.5
258.515	49.83
258.732	-11.61
258.948	58.03
259.165	47.79
259.381	-27.99
259.597	-19.8
259.814	49.83
260.03	39.59
260.246	66.22
260.463	53.93
260.679	82.6
260.895	-11.61
261.112	115.37
261.328	49.83
261.544	45.74
261.761	98.99
261.977	66.22
262.193	37.55
262.409	72.36
262.626	27.31
262.842	-75.09
263.058	8.87
263.274	2.73
263.49	37.55
263.707	80.55
263.923	-32.08
264.139	-11.61
264.355	39.59
264.571	39.59
264.787	-30.04
265.004	10.92
265.22	76.46
265.436	17.07
265.652	19.11
265.868	8.87
266.084	8.87
266.3	-46.42
266.516	12.97
266.732	41.64
266.948	78.51
267.164	39.59
267.38	31.4
267.596	0.68
267.812	82.6
268.028	-19.8
268.244	62.12
268.46	-27.99
268.676	29.35
268.892	-11.61
269.108	17.07
269.324	-3.41
269.54	43.69
269.756	70.31
269.972	-9.56
270.188	27.31
270.403	-25.94
270.619	15.02
270.835	2.73
271.051	33.45
271.267	-1.37
271.483	39.59
271.698	0.68
271.914	105.13
272.13	60.07
272.346	-15.7
272.562	68.27
272.777	66.22
272.993	21.16
273.209	-25.94
273.425	70.31
273.64	-7.51
273.856	53.93
274.072	17.07
274.287	4.78
274.503	43.69
274.719	0.68
274.934	41.64
275.15	-9.56
275.366	33.45
275.581	25.26
275.797	94.89
276.012	-3.41
276.228	33.45
276.444	15.02
276.659	60.07
276.875	72.36
277.09	-23.89
277.306	-13.65
277.521	35.5
277.737	82.6
277.952	66.22
278.168	82.6
278.383	12.97
278.599	86.7
278.814	49.83
279.03	31.4
279.245	92.84
279.461	-32.08
279.676	31.4
279.892	68.27
280.107	51.88
280.322	37.55
280.538	37.55
280.753	123.56
280.969	25.26
281.184	12.97
281.399	55.98
281.615	-11.61
281.83	21.16
282.045	8.87
282.26	92.84
282.476	-48.47
282.691	31.4
282.906	2.73
283.122	21.16
283.337	19.11
283.552	31.4
283.767	19.11
283.983	39.59
284.198	72.36
284.413	64.17
284.628	-15.7
284.843	88.75
285.058	82.6
285.274	68.27
285.489	8.87
285.704	41.64
285.919	10.92
286.134	10.92
286.349	-19.8
286.564	39.59
286.779	17.07
286.995	62.12
287.21	39.59
287.425	90.79
287.64	17.07
287.855	88.75
288.07	0.68
288.285	10.92
288.5	62.12
288.715	66.22
288.93	21.16
289.145	0.68
289.36	66.22
289.575	31.4
289.79	27.31
290.004	84.65
290.219	35.5
290.434	29.35
290.649	62.12
290.864	72.36
291.079	35.5
291.294	17.07
291.509	41.64
291.724	41.64
291.938	19.11
292.153	113.32
292.368	17.07
292.583	27.31
292.798	47.79
293.012	-13.65
293.227	92.84
293.442	58.03
293.657	64.17
293.871	0.68
294.086	17.07
294.301	23.21
294.516	55.98
294.73	64.17
294.945	-9.56
295.16	-23.89
295.374	98.99
295.589	78.51
295.804	39.59
296.018	27.31
296.233	53.93
296.447	25.26
296.662	49.83
296.877	35.5
297.091	80.55
297.306	17.07
297.52	2.73
297.735	8.87
297.949	-7.51
298.164	-3.41
298.378	29.35
298.593	68.27
298.807	47.79
299.022	84.65
299.236	55.98
299.451	43.69
299.665	53.93
299.88	25.26
300.094	6.83
300.309	39.59
300.523	29.35
300.737	80.55
300.952	27.31
301.166	58.03
301.381	41.64
301.595	29.35
301.809	53.93
302.024	43.69
302.238	-3.41
302.452	0.68
302.667	55.98
302.881	66.22
303.095	82.6
303.309	-23.89
303.524	35.5
303.738	2.73
303.952	96.94
304.166	66.22
304.381	2.73
304.595	19.11
304.809	117.42
305.023	58.03
305.237	25.26
305.452	19.11
305.666	-32.08
305.88	53.93
306.094	12.97
306.308	29.35
306.522	12.97
306.736	133.8
306.95	33.45
307.164	39.59
307.379	21.16
307.593	90.79
307.807	60.07
308.021	72.36
308.235	23.21
308.449	82.6
308.663	68.27
308.877	4.78
309.091	80.55
309.305	-42.32
309.519	43.69
309.733	96.94
309.947	35.5
310.161	66.22
310.374	98.99
310.588	27.31
310.802	66.22
311.016	39.59
311.23	21.16
311.444	53.93
311.658	53.93
311.872	29.35
312.085	33.45
312.299	176.81
312.513	-21.85
312.727	105.13
312.941	33.45
313.154	53.93
313.368	2.73
313.582	23.21
313.796	4.78
314.009	49.83
314.223	-7.51
314.437	70.31
314.651	58.03
314.864	-38.23
315.078	55.98
315.292	90.79
315.505	17.07
315.719	45.74
315.933	-5.46
316.146	-36.18
316.36	64.17
316.573	49.83
316.787	27.31
317.001	90.79
317.214	31.4
317.428	0.68
317.641	4.78
317.855	4.78
318.068	51.88
318.282	10.92
318.495	103.08
318.709	72.36
318.922	70.31
319.136	103.08
319.349	31.4
319.563	49.83
319.776	62.12
319.99	76.46
320.203	94.89
320.417	70.31
320.63	19.11
320.843	64.17
321.057	39.59
321.27	29.35
321.483	66.22
321.697	72.36
321.91	21.16
322.124	82.6
322.337	25.26
322.55	19.11
322.763	51.88
322.977	88.75
323.19	8.87
323.403	80.55
323.617	51.88
323.83	29.35
324.043	-5.46
324.256	41.64
324.469	19.11
324.683	131.75
324.896	68.27
325.109	-19.8
325.322	-7.51
325.535	29.35
325.748	66.22
325.962	39.59
326.175	47.79
326.388	31.4
326.601	-21.85
326.814	129.7
327.027	-23.89
327.24	37.55
327.453	58.03
327.666	43.69
327.879	105.13
328.092	111.27
328.305	35.5
328.518	72.36
328.731	-3.41
328.944	15.02
329.157	29.35
329.37	62.12
329.583	92.84
329.796	88.75
330.009	35.5
330.222	35.5
330.435	41.64
330.648	53.93
330.861	-7.51
331.073	133.8
331.286	68.27
331.499	45.74
331.712	-23.89
331.925	64.17
332.138	55.98
332.35	66.22
332.563	29.35
332.776	76.46
332.989	53.93
333.202	82.6
333.414	80.55
333.627	-42.32
333.84	-21.85
334.053	0.68
334.265	21.16
334.478	33.45
334.691	-23.89
334.903	78.51
335.116	-3.41
335.329	53.93
335.541	70.31
335.754	98.99
335.966	41.64
336.179	19.11
336.392	45.74
336.604	37.55
336.817	62.12
337.029	60.07
337.242	35.5
337.454	72.36
337.667	-3.41
337.88	119.46
338.092	70.31
338.305	66.22
338.517	-15.7
338.729	39.59
338.942	109.22
339.154	-23.89
339.367	-3.41
339.579	-27.99
339.792	43.69
340.004	-3.41
340.217	29.35
340.429	-32.08
340.641	62.12
340.854	27.31
341.066	2.73
341.278	25.26
341.491	74.41
341.703	94.89
341.915	-30.04
342.128	-7.51
342.34	76.46
342.552	41.64
342.764	60.07
342.977	37.55
343.189	72.36
343.401	98.99
343.613	2.73
343.826	78.51
344.038	8.87
344.25	23.21
344.462	35.5
344.674	70.31
344.886	6.83
345.099	88.75
345.311	82.6
345.523	-23.89
345.735	4.78
345.947	84.65
346.159	21.16
346.371	64.17
346.583	19.11
346.795	66.22
347.007	51.88
347.219	21.16
347.431	-19.8
347.643	78.51
347.855	51.88
348.067	119.46
348.279	27.31
348.491	94.89
348.703	19.11
348.915	-1.37
349.127	94.89
349.339	55.98
349.551	78.51
349.763	103.08
349.975	12.97
350.187	51.88
350.399	58.03
350.61	-3.41
350.822	82.6
351.034	62.12
351.246	-13.65
351.458	33.45
351.669	119.46
351.881	4.78
352.093	39.59
352.305	53.93
352.517	53.93
352.728	70.31
352.94	86.7
353.152	123.56
353.363	25.26
353.575	82.6
353.787	60.07
353.999	64.17
354.21	121.51
354.422	146.09
354.633	-17.75
354.845	33.45
355.057	33.45
355.268	33.45
355.48	35.5
355.692	70.31
355.903	58.03
356.115	80.55
356.326	39.59
356.538	21.16
356.749	55.98
356.961	21.16
357.172	70.31
357.384	80.55
357.595	70.31
357.807	8.87
358.018	-7.51
358.23	17.07
358.441	68.27
358.653	21.16
358.864	23.21
359.075	55.98
359.287	43.69
359.498	39.59
359.709	115.37
359.921	66.22
360.132	66.22
360.344	78.51
360.555	49.83
360.766	107.18
360.977	17.07
361.189	53.93
361.4	74.41
361.611	98.99
361.823	43.69
362.034	45.74
362.245	4.78
362.456	72.36
362.667	25.26
362.879	84.65
363.09	92.84
363.301	-7.51
363.512	55.98
363.723	86.7
363.935	17.07
364.146	33.45
364.357	72.36
364.568	74.41
364.779	109.22
364.99	68.27
365.201	96.94
365.412	88.75
365.623	-1.37
365.834	119.46
366.045	51.88
366.256	111.27
366.467	101.03
366.678	53.93
366.889	53.93
367.1	64.17
367.311	88.75
367.522	45.74
367.733	17.07
367.944	70.31
368.155	72.36
368.366	98.99
368.577	23.21
368.788	45.74
368.999	19.11
369.209	-13.65
369.42	-3.41
369.631	72.36
369.842	90.79
370.053	86.7
370.264	62.12
370.474	82.6
370.685	88.75
370.896	25.26
371.107	58.03
371.317	19.11
371.528	33.45
371.739	41.64
371.95	125.61
372.16	98.99
372.371	37.55
372.582	45.74
372.792	23.21
373.003	84.65
373.214	49.83
373.424	74.41
373.635	29.35
373.846	170.66
374.056	53.93
374.267	90.79
374.477	12.97
374.688	101.03
374.898	76.46
375.109	37.55
375.319	72.36
375.53	78.51
375.74	45.74
375.951	123.56
376.161	70.31
376.372	92.84
376.582	58.03
376.793	27.31
377.003	6.83
377.214	131.75
377.424	82.6
377.635	37.55
377.845	144.04
378.055	94.89
378.266	-36.18
378.476	43.69
378.686	74.41
378.897	94.89
379.107	84.65
379.317	29.35
379.528	29.35
379.738	27.31
379.948	23.21
380.158	23.21
380.369	76.46
380.579	37.55
380.789	66.22
380.999	12.97
381.21	86.7
381.42	119.46
381.63	41.64
381.84	62.12
382.05	88.75
382.261	195.24
382.471	29.35
382.681	78.51
382.891	27.31
383.101	62.12
383.311	8.87
383.521	29.35
383.731	17.07
383.941	160.42
384.151	43.69
384.361	49.83
384.571	76.46
384.781	12.97
384.991	156.33
385.201	131.75
385.411	90.79
385.621	103.08
385.831	45.74
386.041	12.97
386.251	55.98
386.461	139.94
386.671	29.35
386.881	37.55
387.091	68.27
387.301	121.51
387.511	49.83
387.72	156.33
387.93	101.03
388.14	176.81
388.35	90.79
388.56	80.55
388.769	78.51
388.979	43.69
389.189	98.99
389.399	62.12
389.609	121.51
389.818	90.79
390.028	45.74
390.238	53.93
390.447	74.41
390.657	-11.61
390.867	103.08
391.076	41.64
391.286	109.22
391.496	41.64
391.705	86.7
391.915	78.51
392.125	139.94
392.334	76.46
392.544	45.74
392.753	164.52
392.963	80.55
393.172	8.87
393.382	103.08
393.591	152.23
393.801	49.83
394.01	66.22
394.22	144.04
394.429	182.95
394.639	12.97
394.848	76.46
395.058	72.36
395.267	170.66
395.477	55.98
395.686	117.42
395.895	201.38
396.105	135.85
396.314	152.23
396.524	109.22
396.733	141.99
396.942	105.13
397.152	133.8
397.361	174.76
397.57	58.03
397.78	78.51
397.989	115.37
398.198	80.55
398.407	146.09
398.617	86.7
398.826	137.9
399.035	45.74
399.244	94.89
399.453	121.51
399.663	74.41
399.872	121.51
400.081	33.45
400.29	105.13
400.499	109.22
400.708	127.66
400.917	68.27
401.127	154.28
401.336	144.04
401.545	164.52
401.754	172.71
401.963	103.08
402.172	144.04
402.381	111.27
402.59	88.75
402.799	66.22
403.008	88.75
403.217	127.66
403.426	148.14
403.635	191.14
403.844	170.66
404.053	189.1
404.262	141.99
404.471	205.48
404.68	242.34
404.888	154.28
405.097	117.42
405.306	88.75
405.515	180.9
405.724	168.62
405.933	115.37
406.142	158.38
406.35	176.81
406.559	201.38
406.768	174.76
406.977	283.3
407.185	221.86
407.394	307.88
407.603	234.15
407.812	211.62
408.02	232.1
408.229	256.68
408.438	271.01
408.646	326.31
408.855	293.54
409.064	211.62
409.272	283.3
409.481	307.88
409.69	320.17
409.898	363.17
410.107	393.89
410.315	416.42
410.524	404.13
410.733	352.93
410.941	361.13
411.15	387.75
411.358	422.56
411.567	404.13
411.775	359.08
411.984	443.04
412.192	393.89
412.401	537.25
412.609	516.77
412.818	475.81
413.026	596.64
413.234	488.1
413.443	574.11
413.651	647.84
413.86	608.93
414.068	656.03
414.276	664.22
414.485	707.23
414.693	740
414.901	770.72
415.11	813.73
415.318	811.68
415.526	809.63
415.734	815.77
415.943	975.52
416.151	971.42
416.359	895.64
416.567	942.75
416.776	1030.81
416.984	1094.3
417.192	1063.58
417.4	977.56
417.608	996
417.817	1157.78
418.025	1266.33
418.233	1237.66
418.441	1331.86
418.649	1346.2
418.857	1442.45
419.065	1581.71
419.273	1460.88
419.481	1518.23
419.689	1602.19
419.897	1655.44
420.105	1763.98
420.313	1702.54
420.521	1794.7
420.729	1856.14
420.937	1991.31
421.145	2060.94
421.353	2065.04
421.561	2155.15
421.769	2273.93
421.977	2364.04
422.185	2323.08
422.393	2437.77
422.601	2587.27
422.809	2669.19
423.017	2638.47
423.224	2689.67
423.432	2927.23
423.64	2908.8
423.848	3129.98
424.056	3023.48
424.263	3226.23
424.471	3318.39
424.679	3312.25
424.887	3439.22
425.094	3484.28
425.302	3625.59
425.51	3834.48
425.718	3844.72
425.925	3981.93
426.133	3953.26
426.341	4321.9
426.548	4352.62
426.756	4543.08
426.964	4569.7
427.171	4848.22
427.379	4946.53
427.586	4981.34
427.794	5149.28
428.001	5413.46
428.209	5577.3
428.417	5632.6
428.624	5917.26
428.832	5900.88
429.039	5919.31
429.247	5886.54
429.454	6474.31
429.662	6926.91
429.869	6363.72
430.076	6867.52
430.284	6695.49
430.491	7172.67
430.699	7393.85
430.906	7494.2
431.114	7602.74
431.321	7846.45
431.528	7954.99
431.736	8284.72
431.943	8993.31
432.15	8466.99
432.358	8858.15
432.565	9169.44
432.772	9173.53
432.979	9611.8
433.187	9730.58
433.394	9722.39
433.601	10545.67
433.808	10519.05
434.016	10646.02
434.223	11061.76
434.43	11715.06
434.637	11379.2
434.844	12120.56
435.052	12306.93
435.259	12093.94
435.466	12145.14
435.673	12259.82
435.88	13320.67
436.087	13658.59
436.294	13748.7
436.501	13388.25
436.708	13705.69
436.915	14299.6
437.122	14703.05
437.329	14678.47
437.537	15227.33
437.743	15247.81
437.95	15256
438.157	16273.84
438.364	16603.57
438.571	16689.58
438.778	16603.57
438.985	18684.3
439.192	17729.95
439.399	18151.83
439.606	18045.34
439.813	19040.65
440.02	19704.19
440.227	19634.56
440.433	19349.89
440.64	20488.56
440.847	20029.82
441.054	20603.25
441.261	21891.42
441.467	21387.62
441.674	22073.69
441.881	22759.76
442.088	22856.01
442.294	22597.97
442.501	23028.04
442.708	23441.73
442.914	24631.6
443.121	25819.42
443.328	24996.14
443.534	26753.3
443.741	25940.25
443.948	25760.03
444.154	27678.98
444.361	27261.19
444.568	27482.38
444.774	27881.73
444.981	28174.59
445.187	28948.72
445.394	29612.26
445.6	29395.18
445.807	32342.21
446.013	30730.45
446.22	31287.5
446.426	32643.26
446.633	33325.23
446.839	33788.07
447.046	32602.3
447.252	34134.18
447.459	34455.71
447.665	34300.06
447.871	36163.71
448.078	37308.53
448.284	35614.86
448.491	36845.69
448.697	38068.33
448.903	38684.76
449.11	38907.99
449.316	38008.93
449.522	38645.85
449.728	39338.07
449.935	39604.3
450.141	40005.7
450.347	40962.11
450.553	39802.96
450.76	40048.71
450.966	41365.56
451.172	40693.82
451.378	41476.15
451.584	40888.38
451.791	42088.49
451.997	41834.54
452.203	42506.27
452.409	42264.61
452.615	42297.38
452.821	40456.26
453.027	40108.1
453.233	42074.15
453.44	40566.85
453.646	40757.31
453.852	41494.58
454.058	41793.58
454.264	40663.1
454.47	41527.34
454.676	40243.27
454.882	41652.27
455.088	37945.45
455.294	38371.43
455.5	38774.88
455.705	39209.04
455.911	37841
456.117	37173.36
456.323	36526.21
456.529	34271.39
456.735	35930.25
456.941	35328.14
457.147	34443.42
457.352	33583.27
457.558	33167.54
457.764	33419.44
457.97	32536.76
458.176	31598.79
458.381	31809.73
458.587	30226.65
458.793	30124.25
458.999	28672.25
459.204	30472.41
459.41	29677.8
459.616	27486.47
459.821	28029.18
460.027	27871.49
460.233	27048.21
460.438	26136.86
460.644	26204.44
460.85	25088.3
461.055	24754.48
461.261	24361.27
461.466	22901.07
461.672	21950.81
461.878	24017.21
462.083	22206.81
462.289	21692.77
462.494	21467.49
462.7	20740.46
462.905	20296.05
463.111	20781.42
463.316	20785.52
463.522	20314.48
463.727	20490.61
463.932	20148.6
464.138	20324.72
464.343	20298.1
464.549	19575.17
464.754	20306.29
464.959	20144.5
465.165	20246.9
465.37	19261.83
465.575	18934.15
465.781	19603.84
465.986	19624.32
466.191	18946.44
466.397	18471.31
466.602	17650.08
466.807	18465.17
467.012	18336.15
467.218	18330
467.423	18012.57
