Data from USB4F104151__174__11-09-23-524.txt Node

Date: Wed Mar 12 11:09:23 EDT 2025
User: louis
Spectrometer: USB4F10415
Trigger mode: 4
Integration Time (sec): 2.000000E-2
Scans to average: 1
Electric dark correction enabled: true
Nonlinearity correction enabled: false
Boxcar width: 0
XAxis mode: Wavelengths
Number of Pixels in Spectrum: 3648
>>>>>Begin Spectral Data<<<<<
178.204	-84.65
178.424	-84.65
178.644	-84.65
178.864	-105.13
179.084	-101.03
179.304	-0.68
179.524	-43.69
179.744	52.56
179.964	21.85
180.184	19.8
180.404	44.37
180.624	7.51
180.844	-37.55
181.064	-27.31
181.283	-2.73
181.503	-41.64
181.723	7.51
181.943	25.94
182.163	-15.02
182.383	-0.68
182.602	-8.87
182.822	60.76
183.042	-17.07
183.262	-17.07
183.482	36.18
183.701	32.08
183.921	11.61
184.141	-35.5
184.361	-58.03
184.58	19.8
184.8	13.65
185.02	77.14
185.239	19.8
185.459	23.89
185.679	64.85
185.898	21.85
186.118	56.66
186.338	17.75
186.557	38.23
186.777	-6.83
186.997	25.94
187.216	36.18
187.436	30.04
187.655	-21.16
187.875	25.94
188.095	-0.68
188.314	89.43
188.534	58.71
188.753	42.32
188.973	-8.87
189.192	36.18
189.412	5.46
189.631	21.85
189.851	-8.87
190.07	116.05
190.29	13.65
190.509	-31.4
190.729	-29.35
190.948	60.76
191.168	120.15
191.387	-12.97
191.607	-0.68
191.826	-2.73
192.045	36.18
192.265	73.04
192.484	-10.92
192.704	40.28
192.923	-55.98
193.142	36.18
193.362	7.51
193.581	-33.45
193.8	21.85
194.02	89.43
194.239	15.7
194.458	42.32
194.678	27.99
194.897	-8.87
195.116	-39.59
195.335	-6.83
195.555	93.52
195.774	-21.16
195.993	25.94
196.212	-2.73
196.432	21.85
196.651	75.09
196.87	-17.07
197.089	36.18
197.308	-76.46
197.528	71
197.747	36.18
197.966	1.37
198.185	42.32
198.404	62.8
198.623	5.46
198.842	25.94
199.062	7.51
199.281	54.61
199.5	52.56
199.719	23.89
199.938	38.23
200.157	36.18
200.376	-4.78
200.595	60.76
200.814	30.04
201.033	34.13
201.252	73.04
201.471	116.05
201.69	-19.11
201.909	38.23
202.128	48.47
202.347	40.28
202.566	-31.4
202.785	11.61
203.004	19.8
203.223	120.15
203.442	75.09
203.661	15.7
203.879	36.18
204.098	17.75
204.317	1.37
204.536	77.14
204.755	23.89
204.974	-4.78
205.193	-10.92
205.411	91.48
205.63	34.13
205.849	-47.79
206.068	62.8
206.287	-21.16
206.505	-33.45
206.724	-60.07
206.943	-19.11
207.162	13.65
207.381	42.32
207.599	85.33
207.818	66.9
208.037	15.7
208.255	11.61
208.474	-33.45
208.693	13.65
208.911	-4.78
209.13	40.28
209.349	13.65
209.567	54.61
209.786	11.61
210.005	5.46
210.223	-19.11
210.442	-2.73
210.661	-2.73
210.879	-47.79
211.098	-27.31
211.316	11.61
211.535	30.04
211.753	19.8
211.972	-10.92
212.191	40.28
212.409	36.18
212.628	15.7
212.846	1.37
213.065	64.85
213.283	83.28
213.502	-10.92
213.72	21.85
213.938	-35.5
214.157	9.56
214.375	7.51
214.594	54.61
214.812	-25.26
215.031	25.94
215.249	40.28
215.467	27.99
215.686	-6.83
215.904	27.99
216.122	40.28
216.341	79.19
216.559	-43.69
216.778	42.32
216.996	116.05
217.214	75.09
217.432	21.85
217.651	3.41
217.869	56.66
218.087	38.23
218.306	1.37
218.524	58.71
218.742	13.65
218.96	105.81
219.179	75.09
219.397	60.76
219.615	62.8
219.833	-55.98
220.051	48.47
220.27	-8.87
220.488	-17.07
220.706	48.47
220.924	19.8
221.142	-8.87
221.36	11.61
221.578	34.13
221.796	13.65
222.015	11.61
222.233	-43.69
222.451	1.37
222.669	-33.45
222.887	13.65
223.105	-0.68
223.323	-49.83
223.541	68.95
223.759	5.46
223.977	-53.93
224.195	-43.69
224.413	66.9
224.631	38.23
224.849	58.71
225.067	75.09
225.285	5.46
225.503	-6.83
225.721	-68.27
225.939	71
226.157	91.48
226.375	62.8
226.592	-55.98
226.81	-51.88
227.028	-0.68
227.246	44.37
227.464	-37.55
227.682	27.99
227.9	54.61
228.117	3.41
228.335	42.32
228.553	-2.73
228.771	9.56
228.989	-72.36
229.206	1.37
229.424	-33.45
229.642	-29.35
229.86	34.13
230.077	27.99
230.295	5.46
230.513	46.42
230.731	40.28
230.948	54.61
231.166	79.19
231.384	-55.98
231.601	111.96
231.819	25.94
232.037	38.23
232.254	-2.73
232.472	58.71
232.689	19.8
232.907	56.66
233.125	34.13
233.342	54.61
233.56	21.85
233.777	79.19
233.995	7.51
234.213	-29.35
234.43	34.13
234.648	30.04
234.865	21.85
235.083	23.89
235.3	73.04
235.518	9.56
235.735	15.7
235.953	9.56
236.17	60.76
236.388	11.61
236.605	42.32
236.822	93.52
237.04	50.52
237.257	77.14
237.475	15.7
237.692	13.65
237.909	-29.35
238.127	-45.74
238.344	48.47
238.562	-2.73
238.779	11.61
238.996	11.61
239.214	62.8
239.431	42.32
239.648	23.89
239.865	-12.97
240.083	46.42
240.3	23.89
240.517	3.41
240.735	-12.97
240.952	7.51
241.169	23.89
241.386	68.95
241.603	38.23
241.821	-10.92
242.038	36.18
242.255	-19.11
242.472	15.7
242.689	-6.83
242.907	79.19
243.124	1.37
243.341	154.96
243.558	-55.98
243.775	17.75
243.992	60.76
244.209	-2.73
244.426	50.52
244.643	50.52
244.86	-70.31
245.078	11.61
245.295	-25.26
245.512	38.23
245.729	25.94
245.946	13.65
246.163	11.61
246.38	81.24
246.597	3.41
246.814	73.04
247.031	81.24
247.248	62.8
247.464	-33.45
247.681	48.47
247.898	-2.73
248.115	85.33
248.332	38.23
248.549	30.04
248.766	105.81
248.983	42.32
249.2	-6.83
249.417	-2.73
249.633	9.56
249.85	36.18
250.067	77.14
250.284	81.24
250.501	34.13
250.717	83.28
250.934	23.89
251.151	-8.87
251.368	48.47
251.585	73.04
251.801	46.42
252.018	-27.31
252.235	116.05
252.451	32.08
252.668	-15.02
252.885	34.13
253.102	-29.35
253.318	-10.92
253.535	15.7
253.752	40.28
253.968	-35.5
254.185	-4.78
254.401	81.24
254.618	-2.73
254.835	-2.73
255.051	79.19
255.268	27.99
255.484	91.48
255.701	56.66
255.917	-8.87
256.134	34.13
256.351	91.48
256.567	34.13
256.784	30.04
257	19.8
257.217	87.38
257.433	-19.11
257.65	21.85
257.866	71
258.082	-23.21
258.299	27.99
258.515	17.75
258.732	15.7
258.948	-47.79
259.165	46.42
259.381	42.32
259.597	-12.97
259.814	73.04
260.03	27.99
260.246	32.08
260.463	36.18
260.679	52.56
260.895	-33.45
261.112	30.04
261.328	3.41
261.544	3.41
261.761	9.56
261.977	17.75
262.193	-2.73
262.409	60.76
262.626	1.37
262.842	40.28
263.058	36.18
263.274	58.71
263.49	7.51
263.707	34.13
263.923	-0.68
264.139	7.51
264.355	-17.07
264.571	34.13
264.787	44.37
265.004	-8.87
265.22	7.51
265.436	27.99
265.652	-10.92
265.868	30.04
266.084	19.8
266.3	34.13
266.516	17.75
266.732	42.32
266.948	64.85
267.164	19.8
267.38	46.42
267.596	-25.26
267.812	60.76
268.028	99.67
268.244	-29.35
268.46	64.85
268.676	9.56
268.892	32.08
269.108	66.9
269.324	42.32
269.54	25.94
269.756	-8.87
269.972	54.61
270.188	-25.26
270.403	-6.83
270.619	64.85
270.835	52.56
271.051	-8.87
271.267	79.19
271.483	27.99
271.698	19.8
271.914	-23.21
272.13	9.56
272.346	77.14
272.562	30.04
272.777	105.81
272.993	-47.79
273.209	19.8
273.425	5.46
273.64	30.04
273.856	52.56
274.072	54.61
274.287	15.7
274.503	56.66
274.719	34.13
274.934	75.09
275.15	-12.97
275.366	40.28
275.581	23.89
275.797	75.09
276.012	60.76
276.228	3.41
276.444	81.24
276.659	-0.68
276.875	-8.87
277.09	40.28
277.306	5.46
277.521	13.65
277.737	71
277.952	-6.83
278.168	-6.83
278.383	79.19
278.599	19.8
278.814	11.61
279.03	17.75
279.245	36.18
279.461	52.56
279.676	1.37
279.892	5.46
280.107	48.47
280.322	34.13
280.538	40.28
280.753	91.48
280.969	48.47
281.184	34.13
281.399	15.7
281.615	27.99
281.83	-47.79
282.045	-21.16
282.26	-2.73
282.476	34.13
282.691	75.09
282.906	46.42
283.122	52.56
283.337	27.99
283.552	30.04
283.767	44.37
283.983	64.85
284.198	34.13
284.413	62.8
284.628	17.75
284.843	1.37
285.058	7.51
285.274	38.23
285.489	5.46
285.704	5.46
285.919	-2.73
286.134	-4.78
286.349	7.51
286.564	32.08
286.779	-0.68
286.995	103.76
287.21	52.56
287.425	52.56
287.64	81.24
287.855	75.09
288.07	-2.73
288.285	44.37
288.5	50.52
288.715	25.94
288.93	-6.83
289.145	9.56
289.36	75.09
289.575	-12.97
289.79	9.56
290.004	27.99
290.219	64.85
290.434	46.42
290.649	7.51
290.864	13.65
291.079	101.72
291.294	54.61
291.509	75.09
291.724	34.13
291.938	66.9
292.153	-49.83
292.368	-2.73
292.583	-19.11
292.798	-4.78
293.012	-2.73
293.227	54.61
293.442	27.99
293.657	13.65
293.871	-6.83
294.086	30.04
294.301	105.81
294.516	56.66
294.73	38.23
294.945	-23.21
295.16	58.71
295.374	99.67
295.589	87.38
295.804	34.13
296.018	9.56
296.233	9.56
296.447	-17.07
296.662	21.85
296.877	46.42
297.091	-0.68
297.306	13.65
297.52	-31.4
297.735	64.85
297.949	-17.07
298.164	91.48
298.378	27.99
298.593	68.95
298.807	1.37
299.022	30.04
299.236	50.52
299.451	-2.73
299.665	48.47
299.88	-21.16
300.094	81.24
300.309	79.19
300.523	48.47
300.737	25.94
300.952	5.46
301.166	1.37
301.381	64.85
301.595	23.89
301.809	23.89
302.024	7.51
302.238	17.75
302.452	87.38
302.667	48.47
302.881	58.71
303.095	17.75
303.309	79.19
303.524	-0.68
303.738	3.41
303.952	50.52
304.166	5.46
304.381	-0.68
304.595	46.42
304.809	-45.74
305.023	56.66
305.237	30.04
305.452	-47.79
305.666	114
305.88	30.04
306.094	27.99
306.308	46.42
306.522	44.37
306.736	-33.45
306.95	13.65
307.164	-10.92
307.379	30.04
307.593	9.56
307.807	-4.78
308.021	66.9
308.235	75.09
308.449	-19.11
308.663	27.99
308.877	95.57
309.091	48.47
309.305	-21.16
309.519	48.47
309.733	30.04
309.947	73.04
310.161	-25.26
310.374	40.28
310.588	1.37
310.802	1.37
311.016	68.95
311.23	-15.02
311.444	73.04
311.658	32.08
311.872	25.94
312.085	13.65
312.299	21.85
312.513	-2.73
312.727	30.04
312.941	66.9
313.154	58.71
313.368	-0.68
313.582	-0.68
313.796	44.37
314.009	62.8
314.223	19.8
314.437	30.04
314.651	-19.11
314.864	52.56
315.078	-58.03
315.292	-0.68
315.505	-55.98
315.719	42.32
315.933	1.37
316.146	25.94
316.36	44.37
316.573	25.94
316.787	52.56
317.001	-19.11
317.214	60.76
317.428	-39.59
317.641	-19.11
317.855	-15.02
318.068	-47.79
318.282	-43.69
318.495	60.76
318.709	-8.87
318.922	17.75
319.136	1.37
319.349	40.28
319.563	-23.21
319.776	5.46
319.99	25.94
320.203	66.9
320.417	77.14
320.63	34.13
320.843	56.66
321.057	38.23
321.27	38.23
321.483	95.57
321.697	75.09
321.91	32.08
322.124	48.47
322.337	38.23
322.55	-23.21
322.763	25.94
322.977	-12.97
323.19	83.28
323.403	79.19
323.617	34.13
323.83	17.75
324.043	54.61
324.256	36.18
324.469	15.7
324.683	21.85
324.896	-15.02
325.109	25.94
325.322	-19.11
325.535	-19.11
325.748	46.42
325.962	7.51
326.175	75.09
326.388	11.61
326.601	15.7
326.814	9.56
327.027	-25.26
327.24	5.46
327.453	5.46
327.666	17.75
327.879	5.46
328.092	7.51
328.305	44.37
328.518	-35.5
328.731	7.51
328.944	81.24
329.157	-4.78
329.37	58.71
329.583	81.24
329.796	25.94
330.009	13.65
330.222	-4.78
330.435	5.46
330.648	60.76
330.861	1.37
331.073	13.65
331.286	111.96
331.499	17.75
331.712	-35.5
331.925	75.09
332.138	54.61
332.35	19.8
332.563	23.89
332.776	42.32
332.989	19.8
333.202	52.56
333.414	-2.73
333.627	38.23
333.84	-33.45
334.053	64.85
334.265	-23.21
334.478	-2.73
334.691	114
334.903	25.94
335.116	75.09
335.329	5.46
335.541	42.32
335.754	34.13
335.966	1.37
336.179	25.94
336.392	7.51
336.604	-21.16
336.817	27.99
337.029	34.13
337.242	9.56
337.454	36.18
337.667	50.52
337.88	101.72
338.092	44.37
338.305	34.13
338.517	-49.83
338.729	60.76
338.942	-12.97
339.154	17.75
339.367	73.04
339.579	-27.31
339.792	13.65
340.004	38.23
340.217	-12.97
340.429	-17.07
340.641	-0.68
340.854	23.89
341.066	32.08
341.278	111.96
341.491	54.61
341.703	21.85
341.915	87.38
342.128	23.89
342.34	71
342.552	-41.64
342.764	17.75
342.977	52.56
343.189	79.19
343.401	7.51
343.613	15.7
343.826	89.43
344.038	9.56
344.25	44.37
344.462	21.85
344.674	56.66
344.886	19.8
345.099	40.28
345.311	46.42
345.523	-8.87
345.735	48.47
345.947	89.43
346.159	62.8
346.371	11.61
346.583	25.94
346.795	-17.07
347.007	52.56
347.219	44.37
347.431	30.04
347.643	58.71
347.855	58.71
348.067	99.67
348.279	19.8
348.491	30.04
348.703	-31.4
348.915	36.18
349.127	-27.31
349.339	-45.74
349.551	38.23
349.763	30.04
349.975	71
350.187	52.56
350.399	-4.78
350.61	73.04
350.822	15.7
351.034	-37.55
351.246	36.18
351.458	-6.83
351.669	44.37
351.881	44.37
352.093	83.28
352.305	21.85
352.517	42.32
352.728	95.57
352.94	81.24
353.152	44.37
353.363	-49.83
353.575	68.95
353.787	58.71
353.999	64.85
354.21	60.76
354.422	50.52
354.633	9.56
354.845	40.28
355.057	21.85
355.268	93.52
355.48	62.8
355.692	-0.68
355.903	-6.83
356.115	42.32
356.326	60.76
356.538	126.29
356.749	-4.78
356.961	81.24
357.172	42.32
357.384	-62.12
357.595	21.85
357.807	60.76
358.018	-19.11
358.23	73.04
358.441	42.32
358.653	5.46
358.864	23.89
359.075	34.13
359.287	-0.68
359.498	48.47
359.709	44.37
359.921	27.99
360.132	-39.59
360.344	1.37
360.555	3.41
360.766	-19.11
360.977	52.56
361.189	62.8
361.4	40.28
361.611	44.37
361.823	34.13
362.034	23.89
362.245	3.41
362.456	-35.5
362.667	126.29
362.879	91.48
363.09	-2.73
363.301	38.23
363.512	-0.68
363.723	5.46
363.935	-25.26
364.146	40.28
364.357	48.47
364.568	97.62
364.779	-6.83
364.99	68.95
365.201	-53.93
365.412	87.38
365.623	34.13
365.834	36.18
366.045	-21.16
366.256	11.61
366.467	60.76
366.678	44.37
366.889	68.95
367.1	44.37
367.311	-2.73
367.522	-10.92
367.733	-41.64
367.944	50.52
368.155	-23.21
368.366	75.09
368.577	13.65
368.788	23.89
368.999	58.71
369.209	56.66
369.42	91.48
369.631	99.67
369.842	30.04
370.053	64.85
370.264	-8.87
370.474	21.85
370.685	23.89
370.896	42.32
371.107	46.42
371.317	75.09
371.528	17.75
371.739	99.67
371.95	-37.55
372.16	23.89
372.371	9.56
372.582	-6.83
372.792	68.95
373.003	32.08
373.214	11.61
373.424	13.65
373.635	85.33
373.846	48.47
374.056	38.23
374.267	62.8
374.477	17.75
374.688	13.65
374.898	19.8
375.109	46.42
375.319	64.85
375.53	-6.83
375.74	66.9
375.951	-2.73
376.161	56.66
376.372	40.28
376.582	75.09
376.793	-25.26
377.003	30.04
377.214	30.04
377.424	89.43
377.635	58.71
377.845	-12.97
378.055	-21.16
378.266	-12.97
378.476	91.48
378.686	19.8
378.897	-6.83
379.107	54.61
379.317	68.95
379.528	34.13
379.738	95.57
379.948	13.65
380.158	21.85
380.369	46.42
380.579	17.75
380.789	25.94
380.999	71
381.21	42.32
381.42	36.18
381.63	9.56
381.84	107.86
382.05	25.94
382.261	34.13
382.471	109.91
382.681	71
382.891	120.15
383.101	52.56
383.311	32.08
383.521	-12.97
383.731	-6.83
383.941	50.52
384.151	85.33
384.361	89.43
384.571	52.56
384.781	-0.68
384.991	21.85
385.201	60.76
385.411	7.51
385.621	-72.36
385.831	-68.27
386.041	38.23
386.251	54.61
386.461	46.42
386.671	32.08
386.881	-2.73
387.091	27.99
387.301	83.28
387.511	32.08
387.72	-27.31
387.93	73.04
388.14	46.42
388.35	38.23
388.56	77.14
388.769	21.85
388.979	103.76
389.189	-37.55
389.399	142.68
389.609	58.71
389.818	62.8
390.028	77.14
390.238	25.94
390.447	44.37
390.657	50.52
390.867	-31.4
391.076	21.85
391.286	11.61
391.496	-6.83
391.705	36.18
391.915	87.38
392.125	73.04
392.334	3.41
392.544	32.08
392.753	79.19
392.963	23.89
393.172	91.48
393.382	36.18
393.591	68.95
393.801	60.76
394.01	36.18
394.22	140.63
394.429	34.13
394.639	83.28
394.848	124.24
395.058	89.43
395.267	15.7
395.477	36.18
395.686	101.72
395.895	81.24
396.105	118.1
396.314	66.9
396.524	27.99
396.733	95.57
396.942	140.63
397.152	83.28
397.361	64.85
397.57	23.89
397.78	81.24
397.989	87.38
398.198	177.49
398.407	77.14
398.617	87.38
398.826	68.95
399.035	85.33
399.244	136.53
399.453	130.39
399.663	79.19
399.872	128.34
400.081	71
400.29	118.1
400.499	97.62
400.708	111.96
400.917	148.82
401.127	157.01
401.336	130.39
401.545	136.53
401.754	111.96
401.963	58.71
402.172	97.62
402.381	25.94
402.59	111.96
402.799	120.15
403.008	163.15
403.217	175.44
403.426	124.24
403.635	52.56
403.844	73.04
404.053	161.11
404.262	134.48
404.471	120.15
404.68	130.39
404.888	99.67
405.097	105.81
405.306	148.82
405.515	87.38
405.724	99.67
405.933	118.1
406.142	118.1
406.35	140.63
406.559	101.72
406.768	136.53
406.977	165.2
407.185	148.82
407.394	204.11
407.603	161.11
407.812	210.26
408.02	171.35
408.229	173.39
408.438	132.44
408.646	165.2
408.855	224.59
409.064	128.34
409.272	132.44
409.481	183.63
409.69	243.03
409.898	300.37
410.107	232.79
410.315	283.99
410.524	204.11
410.733	245.07
410.941	210.26
411.15	308.56
411.358	367.95
411.567	341.33
411.775	298.32
411.984	288.08
412.192	243.03
412.401	353.62
412.609	386.38
412.818	365.9
413.026	441.68
413.234	394.58
413.443	415.06
413.651	376.14
413.86	396.62
414.068	490.83
414.276	507.21
414.485	472.4
414.693	496.97
414.901	542.03
415.11	474.45
415.318	589.13
415.526	564.56
415.734	576.84
415.943	558.41
416.151	628.04
416.359	574.8
416.567	630.09
416.776	703.82
416.984	779.59
417.192	748.87
417.4	716.11
417.608	732.49
417.817	771.4
418.025	836.94
418.233	822.6
418.441	857.42
418.649	906.57
418.857	836.94
419.065	1029.45
419.273	931.14
419.481	1004.87
419.689	1074.5
419.897	1131.84
420.105	1236.29
420.313	1162.56
420.521	1271.11
420.729	1232.19
420.937	1273.15
421.145	1328.45
421.353	1367.36
421.561	1447.23
421.769	1500.48
421.977	1529.15
422.185	1529.15
422.393	1586.49
422.601	1658.17
422.809	1615.16
423.017	1805.63
423.224	1733.95
423.432	1811.77
423.64	1824.06
423.848	1965.37
424.056	1985.85
424.263	2121.01
424.471	2202.93
424.679	2157.88
424.887	2348.34
425.094	2417.97
425.302	2350.39
425.51	2446.64
425.718	2475.31
425.925	2520.37
426.133	2706.73
426.341	2807.08
426.548	2944.3
426.756	2880.81
426.964	2850.09
427.171	3265.83
427.379	3181.86
427.586	3310.88
427.794	3423.52
428.001	3513.63
428.209	3708.19
428.417	3593.5
428.624	3714.33
428.832	3872.03
429.039	3781.92
429.247	3833.11
429.454	4214.04
429.662	4510.99
429.869	4183.32
430.076	4549.9
430.284	4404.5
430.491	4527.38
430.699	4693.26
430.906	4771.08
431.114	4943.11
431.321	5074.18
431.528	5063.94
431.736	5448.96
431.943	5745.92
432.15	5557.5
432.358	5678.33
432.565	5836.03
432.772	5905.66
432.979	6227.19
433.187	6415.6
433.394	6317.3
433.601	6720.75
433.808	6804.72
434.016	6704.37
434.223	7011.56
434.43	7511.27
434.637	7288.04
434.844	7769.31
435.052	7908.57
435.259	7779.55
435.466	8086.75
435.673	7783.65
435.88	8623.31
436.087	8989.9
436.294	8793.3
436.501	8862.93
436.708	8721.62
436.915	9198.79
437.122	9432.26
437.329	9522.37
437.537	9665.73
437.743	9874.62
437.95	9774.27
438.157	10183.87
438.364	10896.56
438.571	10785.97
438.778	10519.73
438.985	11928.74
439.192	11228.33
439.399	11570.34
439.606	11310.25
439.813	11996.32
440.02	12680.34
440.227	12516.5
440.433	12455.06
440.64	13196.43
440.847	12729.49
441.054	13198.48
441.261	13984.9
441.467	13520.01
441.674	14234.75
441.881	14443.64
442.088	14255.23
442.294	14271.61
442.501	15066.22
442.708	14842.99
442.914	15520.87
443.121	16323.68
443.328	15873.12
443.534	17077.33
443.741	16256.09
443.948	16311.39
444.154	17493.07
444.361	17144.91
444.568	17445.96
444.774	17480.78
444.981	17669.19
445.187	17962.05
445.394	18832.44
445.6	18783.29
445.807	20388.89
446.013	19416.11
446.22	19985.44
446.426	20753.43
446.633	21031.96
446.839	21722.12
447.046	20792.34
447.252	21847.05
447.459	21959.69
447.665	21791.75
447.871	22787.07
448.078	23358.45
448.284	22459.39
448.491	22998.01
448.697	24069.09
448.903	24400.86
449.11	24423.39
449.316	24212.45
449.522	24769.5
449.728	25170.9
449.935	25170.9
450.141	25279.44
450.347	25930.7
450.553	25185.24
450.76	25189.33
450.966	25996.23
451.172	25738.19
451.378	26495.94
451.584	26256.32
451.791	26555.33
451.997	26536.9
452.203	26985.4
452.409	27026.36
452.615	26962.87
452.821	25904.07
453.027	25672.65
453.233	27157.43
453.44	25750.48
453.646	26188.74
453.852	26409.92
454.058	26528.7
454.264	25940.94
454.47	26352.58
454.676	25844.68
454.882	26715.07
455.088	24269.79
455.294	24787.93
455.5	25369.55
455.705	25250.77
455.911	24402.91
456.117	23763.95
456.323	23510
456.529	22101
456.735	23350.26
456.941	22668.28
457.147	22453.25
457.352	21312.53
457.558	21388.3
457.764	21160.98
457.97	21128.21
458.176	20427.81
458.381	20448.29
458.587	19432.49
458.793	19614.76
458.999	18605.11
459.204	19782.7
459.41	19385.39
459.616	17822.79
459.821	18021.44
460.027	18056.26
460.233	17452.11
460.438	16520.28
460.644	16639.06
460.85	15996
461.055	15799.4
461.261	15889.51
461.466	14503.03
461.672	14337.15
461.878	15486.06
462.083	14130.3
462.289	13941.89
462.494	13628.55
462.7	13276.3
462.905	12895.38
463.111	13452.42
463.316	13544.58
463.522	13053.07
463.727	13091.98
463.932	13061.26
464.138	12766.35
464.343	12872.85
464.549	12651.67
464.754	13016.21
464.959	12893.33
465.165	12633.24
465.37	12362.9
465.575	11836.58
465.781	12659.86
465.986	12573.85
466.191	11816.1
466.397	11709.6
466.602	11439.27
466.807	11629.73
467.012	11711.65
467.218	11543.72
467.423	11400.36
467.628	11599.01
467.833	11883.68
468.038	11492.52
468.244	11277.48
468.449	11605.16
