Data from USB4F104151__4__11-04-30-836.txt Node

Date: Wed Mar 12 11:04:30 EDT 2025
User: louis
Spectrometer: USB4F10415
Trigger mode: 4
Integration Time (sec): 2.000000E-2
Scans to average: 1
Electric dark correction enabled: true
Nonlinearity correction enabled: false
Boxcar width: 0
XAxis mode: Wavelengths
Number of Pixels in Spectrum: 3648
>>>>>Begin Spectral Data<<<<<
178.204	-72.02
178.424	-72.02
178.644	-72.02
178.864	-53.59
179.084	-74.07
179.304	-61.78
179.524	61.1
179.744	-6.49
179.964	24.23
180.184	-16.73
180.404	-22.87
180.624	-26.96
180.844	16.04
181.064	18.09
181.283	11.95
181.503	1.71
181.723	1.71
181.943	-10.58
182.163	79.53
182.383	-2.39
182.602	-31.06
182.822	13.99
183.042	18.09
183.262	20.14
183.482	46.76
183.701	73.39
183.921	52.91
184.141	48.81
184.361	75.43
184.58	91.82
184.8	34.47
185.02	69.29
185.239	1.71
185.459	20.14
185.679	11.95
185.898	13.99
186.118	40.62
186.338	18.09
186.557	36.52
186.777	40.62
186.997	42.67
187.216	57
187.436	106.15
187.655	116.39
187.875	28.33
188.095	-10.58
188.314	46.76
188.534	104.11
188.753	48.81
188.973	85.67
189.192	18.09
189.412	34.47
189.631	-6.49
189.851	34.47
190.07	38.57
190.29	42.67
190.509	-37.2
190.729	-2.39
190.948	-14.68
191.168	95.91
191.387	46.76
191.607	-14.68
191.826	26.28
192.045	-6.49
192.265	18.09
192.484	9.9
192.704	36.52
192.923	-10.58
193.142	77.48
193.362	44.71
193.581	50.86
193.8	50.86
194.02	5.8
194.239	48.81
194.458	3.75
194.678	-26.96
194.897	20.14
195.116	18.09
195.335	-20.82
195.555	5.8
195.774	36.52
195.993	59.05
196.212	52.91
196.432	57
196.651	54.95
196.87	57
197.089	83.63
197.308	50.86
197.528	95.91
197.747	-6.49
197.966	34.47
198.185	-26.96
198.404	1.71
198.623	7.85
198.842	52.91
199.062	38.57
199.281	54.95
199.5	75.43
199.719	75.43
199.938	18.09
200.157	13.99
200.376	44.71
200.595	-35.16
200.814	46.76
201.033	34.47
201.252	65.19
201.471	-8.53
201.69	112.3
201.909	38.57
202.128	11.95
202.347	-6.49
202.566	13.99
202.785	44.71
203.004	52.91
203.223	28.33
203.442	26.28
203.661	1.71
203.879	-2.39
204.098	30.38
204.317	-2.39
204.536	7.85
204.755	93.87
204.974	67.24
205.193	44.71
205.411	54.95
205.63	100.01
205.849	63.15
206.068	26.28
206.287	22.19
206.505	75.43
206.724	57
206.943	20.14
207.162	46.76
207.381	48.81
207.599	24.23
207.818	54.95
208.037	-6.49
208.255	59.05
208.474	13.99
208.693	122.54
208.911	36.52
209.13	54.95
209.349	-24.92
209.567	77.48
209.786	136.87
210.005	42.67
210.223	36.52
210.442	16.04
210.661	77.48
210.879	-29.01
211.098	122.54
211.316	1.71
211.535	30.38
211.753	48.81
211.972	30.38
212.191	57
212.409	-0.34
212.628	81.58
212.846	20.14
213.065	71.34
213.283	97.96
213.502	108.2
213.72	-24.92
213.938	24.23
214.157	69.29
214.375	38.57
214.594	44.71
214.812	28.33
215.031	57
215.249	9.9
215.467	26.28
215.686	42.67
215.904	-20.82
216.122	106.15
216.341	28.33
216.559	71.34
216.778	3.75
216.996	7.85
217.214	79.53
217.432	3.75
217.651	57
217.869	61.1
218.087	-8.53
218.306	9.9
218.524	81.58
218.742	-6.49
218.96	50.86
219.179	108.2
219.397	36.52
219.615	87.72
219.833	57
220.051	-37.2
220.27	143.02
220.488	18.09
220.706	9.9
220.924	63.15
221.142	61.1
221.36	38.57
221.578	40.62
221.796	48.81
222.015	13.99
222.233	97.96
222.451	97.96
222.669	50.86
222.887	67.24
223.105	42.67
223.323	9.9
223.541	38.57
223.759	67.24
223.977	-14.68
224.195	85.67
224.413	54.95
224.631	69.29
224.849	5.8
225.067	42.67
225.285	57
225.503	28.33
225.721	-53.59
225.939	63.15
226.157	48.81
226.375	169.64
226.592	20.14
226.81	106.15
227.028	57
227.246	54.95
227.464	42.67
227.682	44.71
227.9	20.14
228.117	61.1
228.335	50.86
228.553	28.33
228.771	52.91
228.989	91.82
229.206	24.23
229.424	34.47
229.642	48.81
229.86	-39.25
230.077	-43.35
230.295	18.09
230.513	-55.64
230.731	63.15
230.948	32.43
231.166	-10.58
231.384	16.04
231.601	11.95
231.819	-24.92
232.037	-31.06
232.254	18.09
232.472	32.43
232.689	5.8
232.907	59.05
233.125	83.63
233.342	9.9
233.56	42.67
233.777	46.76
233.995	3.75
234.213	65.19
234.43	50.86
234.648	83.63
234.865	79.53
235.083	-39.25
235.3	69.29
235.518	13.99
235.735	69.29
235.953	106.15
236.17	44.71
236.388	54.95
236.605	30.38
236.822	77.48
237.04	-12.63
237.257	36.52
237.475	44.71
237.692	59.05
237.909	1.71
238.127	5.8
238.344	40.62
238.562	22.19
238.779	54.95
238.996	34.47
239.214	42.67
239.431	38.57
239.648	32.43
239.865	22.19
240.083	85.67
240.3	13.99
240.517	-8.53
240.735	91.82
240.952	89.77
241.169	40.62
241.386	-14.68
241.603	13.99
241.821	20.14
242.038	79.53
242.255	75.43
242.472	32.43
242.689	59.05
242.907	75.43
243.124	-2.39
243.341	-41.3
243.558	18.09
243.775	-8.53
243.992	-59.73
244.209	34.47
244.426	89.77
244.643	-2.39
244.86	-8.53
245.078	42.67
245.295	104.11
245.512	153.26
245.729	52.91
245.946	93.87
246.163	67.24
246.38	38.57
246.597	28.33
246.814	-37.2
247.031	26.28
247.248	48.81
247.464	-31.06
247.681	69.29
247.898	79.53
248.115	67.24
248.332	59.05
248.549	81.58
248.766	54.95
248.983	118.44
249.2	81.58
249.417	24.23
249.633	83.63
249.85	63.15
250.067	77.48
250.284	69.29
250.501	-4.44
250.717	-16.73
250.934	-18.77
251.151	48.81
251.368	-24.92
251.585	50.86
251.801	36.52
252.018	100.01
252.235	46.76
252.451	50.86
252.668	-2.39
252.885	-0.34
253.102	50.86
253.318	26.28
253.535	1.71
253.752	13.99
253.968	-2.39
254.185	34.47
254.401	20.14
254.618	-24.92
254.835	22.19
255.051	81.58
255.268	81.58
255.484	-59.73
255.701	5.8
255.917	114.34
256.134	-59.73
256.351	48.81
256.567	-74.07
256.784	75.43
257	42.67
257.217	7.85
257.433	50.86
257.65	50.86
257.866	52.91
258.082	136.87
258.299	-22.87
258.515	73.39
258.732	69.29
258.948	118.44
259.165	18.09
259.381	24.23
259.597	118.44
259.814	59.05
260.03	20.14
260.246	89.77
260.463	91.82
260.679	30.38
260.895	63.15
261.112	1.71
261.328	20.14
261.544	95.91
261.761	71.34
261.977	18.09
262.193	-31.06
262.409	7.85
262.626	22.19
262.842	54.95
263.058	5.8
263.274	-31.06
263.49	73.39
263.707	46.76
263.923	38.57
264.139	73.39
264.355	81.58
264.571	77.48
264.787	26.28
265.004	69.29
265.22	7.85
265.436	132.78
265.652	67.24
265.868	54.95
266.084	1.71
266.3	85.67
266.516	42.67
266.732	-8.53
266.948	-10.58
267.164	20.14
267.38	24.23
267.596	77.48
267.812	67.24
268.028	-14.68
268.244	-31.06
268.46	5.8
268.676	38.57
268.892	46.76
269.108	3.75
269.324	22.19
269.54	42.67
269.756	32.43
269.972	-14.68
270.188	42.67
270.403	40.62
270.619	-6.49
270.835	120.49
271.051	-0.34
271.267	5.8
271.483	71.34
271.698	48.81
271.914	102.06
272.13	-8.53
272.346	18.09
272.562	95.91
272.777	79.53
272.993	-24.92
273.209	46.76
273.425	-0.34
273.64	-22.87
273.856	50.86
274.072	-16.73
274.287	57
274.503	9.9
274.719	79.53
274.934	1.71
275.15	50.86
275.366	38.57
275.581	34.47
275.797	61.1
276.012	24.23
276.228	9.9
276.444	5.8
276.659	38.57
276.875	122.54
277.09	-22.87
277.306	-18.77
277.521	106.15
277.737	42.67
277.952	91.82
278.168	24.23
278.383	26.28
278.599	28.33
278.814	-18.77
279.03	61.1
279.245	65.19
279.461	57
279.676	108.2
279.892	59.05
280.107	42.67
280.322	16.04
280.538	61.1
280.753	52.91
280.969	69.29
281.184	32.43
281.399	85.67
281.615	34.47
281.83	-2.39
282.045	-35.16
282.26	50.86
282.476	-0.34
282.691	118.44
282.906	34.47
283.122	46.76
283.337	1.71
283.552	38.57
283.767	46.76
283.983	32.43
284.198	-26.96
284.413	50.86
284.628	24.23
284.843	59.05
285.058	9.9
285.274	-4.44
285.489	83.63
285.704	5.8
285.919	50.86
286.134	50.86
286.349	44.71
286.564	-33.11
286.779	50.86
286.995	106.15
287.21	52.91
287.425	18.09
287.64	-0.34
287.855	38.57
288.07	-10.58
288.285	87.72
288.5	100.01
288.715	57
288.93	-26.96
289.145	1.71
289.36	65.19
289.575	83.63
289.79	63.15
290.004	48.81
290.219	149.16
290.434	18.09
290.649	30.38
290.864	-2.39
291.079	54.95
291.294	38.57
291.509	161.45
291.724	91.82
291.938	57
292.153	71.34
292.368	32.43
292.583	87.72
292.798	52.91
293.012	73.39
293.227	114.34
293.442	63.15
293.657	83.63
293.871	104.11
294.086	79.53
294.301	67.24
294.516	9.9
294.73	-8.53
294.945	-2.39
295.16	24.23
295.374	63.15
295.589	71.34
295.804	134.82
296.018	-31.06
296.233	42.67
296.447	75.43
296.662	34.47
296.877	91.82
297.091	71.34
297.306	69.29
297.52	73.39
297.735	59.05
297.949	77.48
298.164	9.9
298.378	9.9
298.593	18.09
298.807	26.28
299.022	34.47
299.236	-55.64
299.451	69.29
299.665	16.04
299.88	77.48
300.094	-29.01
300.309	59.05
300.523	108.2
300.737	-6.49
300.952	36.52
301.166	93.87
301.381	-24.92
301.595	-18.77
301.809	5.8
302.024	46.76
302.238	75.43
302.452	30.38
302.667	-12.63
302.881	-10.58
303.095	104.11
303.309	71.34
303.524	-22.87
303.738	18.09
303.952	-14.68
304.166	95.91
304.381	16.04
304.595	42.67
304.809	52.91
305.023	163.5
305.237	44.71
305.452	97.96
305.666	75.43
305.88	57
306.094	65.19
306.308	69.29
306.522	-2.39
306.736	-0.34
306.95	114.34
307.164	9.9
307.379	26.28
307.593	20.14
307.807	75.43
308.021	106.15
308.235	130.73
308.449	145.06
308.663	9.9
308.877	79.53
309.091	38.57
309.305	85.67
309.519	93.87
309.733	71.34
309.947	52.91
310.161	59.05
310.374	24.23
310.588	71.34
310.802	59.05
311.016	36.52
311.23	77.48
311.444	73.39
311.658	65.19
311.872	128.68
312.085	67.24
312.299	38.57
312.513	73.39
312.727	34.47
312.941	75.43
313.154	87.72
313.368	61.1
313.582	18.09
313.796	26.28
314.009	-26.96
314.223	59.05
314.437	71.34
314.651	48.81
314.864	87.72
315.078	34.47
315.292	81.58
315.505	-24.92
315.719	48.81
315.933	77.48
316.146	7.85
316.36	-6.49
316.573	100.01
316.787	-0.34
317.001	87.72
317.214	-6.49
317.428	30.38
317.641	63.15
317.855	83.63
318.068	87.72
318.282	13.99
318.495	108.2
318.709	28.33
318.922	-18.77
319.136	46.76
319.349	50.86
319.563	114.34
319.776	112.3
319.99	32.43
320.203	24.23
320.417	16.04
320.63	110.25
320.843	65.19
321.057	81.58
321.27	65.19
321.483	89.77
321.697	95.91
321.91	69.29
322.124	69.29
322.337	57
322.55	30.38
322.763	91.82
322.977	34.47
323.19	108.2
323.403	42.67
323.617	81.58
323.83	81.58
324.043	22.19
324.256	79.53
324.469	9.9
324.683	18.09
324.896	30.38
325.109	71.34
325.322	46.76
325.535	38.57
325.748	42.67
325.962	9.9
326.175	-16.73
326.388	87.72
326.601	79.53
326.814	67.24
327.027	75.43
327.24	89.77
327.453	22.19
327.666	44.71
327.879	83.63
328.092	30.38
328.305	73.39
328.518	73.39
328.731	71.34
328.944	16.04
329.157	89.77
329.37	95.91
329.583	69.29
329.796	57
330.009	85.67
330.222	1.71
330.435	-4.44
330.648	91.82
330.861	81.58
331.073	57
331.286	91.82
331.499	61.1
331.712	34.47
331.925	91.82
332.138	95.91
332.35	79.53
332.563	-10.58
332.776	73.39
332.989	-24.92
333.202	63.15
333.414	114.34
333.627	36.52
333.84	-6.49
334.053	67.24
334.265	3.75
334.478	73.39
334.691	-18.77
334.903	110.25
335.116	50.86
335.329	73.39
335.541	52.91
335.754	57
335.966	50.86
336.179	48.81
336.392	71.34
336.604	42.67
336.817	71.34
337.029	71.34
337.242	71.34
337.454	18.09
337.667	32.43
337.88	114.34
338.092	34.47
338.305	7.85
338.517	59.05
338.729	52.91
338.942	48.81
339.154	59.05
339.367	67.24
339.579	114.34
339.792	75.43
340.004	34.47
340.217	116.39
340.429	38.57
340.641	81.58
340.854	85.67
341.066	110.25
341.278	108.2
341.491	67.24
341.703	18.09
341.915	20.14
342.128	40.62
342.34	59.05
342.552	97.96
342.764	22.19
342.977	67.24
343.189	36.52
343.401	83.63
343.613	-8.53
343.826	42.67
344.038	13.99
344.25	102.06
344.462	30.38
344.674	110.25
344.886	30.38
345.099	22.19
345.311	-0.34
345.523	24.23
345.735	13.99
345.947	13.99
346.159	44.71
346.371	18.09
346.583	38.57
346.795	73.39
347.007	59.05
347.219	-26.96
347.431	42.67
347.643	81.58
347.855	52.91
348.067	-12.63
348.279	18.09
348.491	120.49
348.703	93.87
348.915	-16.73
349.127	30.38
349.339	7.85
349.551	79.53
349.763	5.8
349.975	87.72
350.187	22.19
350.399	63.15
350.61	54.95
350.822	114.34
351.034	59.05
351.246	79.53
351.458	122.54
351.669	50.86
351.881	110.25
352.093	83.63
352.305	42.67
352.517	61.1
352.728	73.39
352.94	67.24
353.152	93.87
353.363	52.91
353.575	67.24
353.787	81.58
353.999	52.91
354.21	57
354.422	118.44
354.633	73.39
354.845	63.15
355.057	100.01
355.268	112.3
355.48	32.43
355.692	81.58
355.903	22.19
356.115	28.33
356.326	87.72
356.538	91.82
356.749	67.24
356.961	61.1
357.172	57
357.384	67.24
357.595	110.25
357.807	38.57
358.018	18.09
358.23	30.38
358.441	54.95
358.653	143.02
358.864	57
359.075	34.47
359.287	34.47
359.498	87.72
359.709	85.67
359.921	95.91
360.132	-2.39
360.344	38.57
360.555	30.38
360.766	69.29
360.977	9.9
361.189	44.71
361.4	83.63
361.611	83.63
361.823	85.67
362.034	-14.68
362.245	22.19
362.456	110.25
362.667	36.52
362.879	46.76
363.09	-14.68
363.301	79.53
363.512	112.3
363.723	61.1
363.935	34.47
364.146	-8.53
364.357	40.62
364.568	3.75
364.779	5.8
364.99	-63.83
365.201	50.86
365.412	130.73
365.623	-35.16
365.834	48.81
366.045	81.58
366.256	87.72
366.467	48.81
366.678	28.33
366.889	16.04
367.1	48.81
367.311	85.67
367.522	75.43
367.733	46.76
367.944	104.11
368.155	97.96
368.366	73.39
368.577	75.43
368.788	73.39
368.999	130.73
369.209	145.06
369.42	145.06
369.631	114.34
369.842	114.34
370.053	102.06
370.264	38.57
370.474	151.21
370.685	42.67
370.896	61.1
371.107	93.87
371.317	116.39
371.528	73.39
371.739	108.2
371.95	61.1
372.16	89.77
372.371	42.67
372.582	26.28
372.792	73.39
373.003	59.05
373.214	116.39
373.424	44.71
373.635	40.62
373.846	52.91
374.056	85.67
374.267	30.38
374.477	69.29
374.688	40.62
374.898	36.52
375.109	38.57
375.319	97.96
375.53	40.62
375.74	28.33
375.951	87.72
376.161	75.43
376.372	93.87
376.582	108.2
376.793	59.05
377.003	122.54
377.214	116.39
377.424	79.53
377.635	34.47
377.845	87.72
378.055	26.28
378.266	42.67
378.476	52.91
378.686	67.24
378.897	69.29
379.107	59.05
379.317	42.67
379.528	34.47
379.738	124.58
379.948	65.19
380.158	57
380.369	112.3
380.579	104.11
380.789	87.72
380.999	110.25
381.21	59.05
381.42	116.39
381.63	161.45
381.84	138.92
382.05	57
382.261	36.52
382.471	67.24
382.681	81.58
382.891	75.43
383.101	79.53
383.311	40.62
383.521	110.25
383.731	151.21
383.941	83.63
384.151	102.06
384.361	24.23
384.571	124.58
384.781	59.05
384.991	102.06
385.201	95.91
385.411	26.28
385.621	65.19
385.831	122.54
386.041	16.04
386.251	40.62
386.461	155.3
386.671	18.09
386.881	87.72
387.091	-24.92
387.301	147.11
387.511	-2.39
387.72	46.76
387.93	50.86
388.14	-0.34
388.35	93.87
388.56	130.73
388.769	124.58
388.979	110.25
389.189	106.15
389.399	100.01
389.609	128.68
389.818	26.28
390.028	59.05
390.238	71.34
390.447	83.63
390.657	120.49
390.867	52.91
391.076	22.19
391.286	110.25
391.496	130.73
391.705	59.05
391.915	42.67
392.125	179.88
392.334	-6.49
392.544	116.39
392.753	67.24
392.963	104.11
393.172	126.63
393.382	54.95
393.591	83.63
393.801	91.82
394.01	143.02
394.22	120.49
394.429	97.96
394.639	67.24
394.848	126.63
395.058	91.82
395.267	75.43
395.477	122.54
395.686	77.48
395.895	128.68
396.105	77.48
396.314	122.54
396.524	122.54
396.733	134.82
396.942	114.34
397.152	110.25
397.361	77.48
397.57	128.68
397.78	183.98
397.989	136.87
398.198	122.54
398.407	83.63
398.617	97.96
398.826	87.72
399.035	112.3
399.244	161.45
399.453	134.82
399.663	188.07
399.872	167.59
400.081	93.87
400.29	124.58
400.499	104.11
400.708	175.78
400.917	134.82
401.127	153.26
401.336	97.96
401.545	165.54
401.754	212.65
401.963	147.11
402.172	110.25
402.381	126.63
402.59	155.3
402.799	87.72
403.008	169.64
403.217	175.78
403.426	194.22
403.635	186.02
403.844	204.46
404.053	151.21
404.262	171.69
404.471	188.07
404.68	75.43
404.888	183.98
405.097	126.63
405.306	151.21
405.515	186.02
405.724	233.13
405.933	214.7
406.142	202.41
406.35	204.46
406.559	145.06
406.768	145.06
406.977	253.61
407.185	235.18
407.394	224.94
407.603	229.03
407.812	265.89
408.02	233.13
408.229	315.05
408.438	278.18
408.646	249.51
408.855	308.9
409.064	282.28
409.272	257.7
409.481	364.2
409.69	302.76
409.898	265.89
410.107	333.48
410.315	321.19
410.524	345.77
410.733	378.53
410.941	401.06
411.15	407.2
411.358	345.77
411.567	458.4
411.775	468.64
411.984	491.17
412.192	431.78
412.401	376.48
412.609	538.27
412.818	556.71
413.026	493.22
413.234	523.94
413.443	585.38
413.651	632.48
413.86	603.81
414.068	698.02
414.276	564.9
414.485	650.91
414.693	749.22
414.901	761.5
415.11	839.33
415.318	704.16
415.526	777.89
415.734	773.79
415.943	865.95
416.151	949.92
416.359	898.72
416.567	824.99
416.776	1001.12
416.984	1052.31
417.192	1050.27
417.4	1076.89
417.608	1113.75
417.817	1054.36
418.025	1230.49
418.233	1271.45
418.441	1210.01
418.649	1312.41
418.857	1320.6
419.065	1476.24
419.273	1353.37
419.481	1363.61
419.689	1570.45
419.897	1629.84
420.105	1603.22
420.313	1775.25
420.521	1871.5
420.729	1642.13
420.937	1834.64
421.145	1906.32
421.353	1934.99
421.561	2098.83
421.769	2178.7
421.977	2209.42
422.185	2240.14
422.393	2381.45
422.601	2399.88
422.809	2442.89
423.017	2381.45
423.224	2668.16
423.432	2635.39
423.64	2543.24
423.848	3028.6
424.056	2879.1
424.263	3036.8
424.471	2989.69
424.679	3202.68
424.887	3559.03
425.094	3573.36
425.302	3507.83
425.51	3612.28
425.718	3737.2
425.925	3802.74
426.133	3890.8
426.341	4116.08
426.548	4292.2
426.756	4202.09
426.964	4275.82
427.171	4542.05
427.379	4666.98
427.586	4841.06
427.794	5013.09
428.001	5144.16
428.209	5391.96
428.417	5322.33
428.624	5803.6
428.832	5629.52
429.039	5785.17
429.247	5693.01
429.454	6116.94
429.662	6538.82
429.869	6176.33
430.076	6436.42
430.284	6469.19
430.491	6671.94
430.699	7235.13
430.906	6915.65
431.114	7032.38
431.321	7474.74
431.528	7671.35
431.736	8033.84
431.943	8314.41
432.15	8179.25
432.358	8541.74
432.565	8877.6
432.772	8674.85
432.979	9192.99
433.187	9381.4
433.394	9385.5
433.601	10163.73
433.808	10184.21
434.016	9985.55
434.223	10296.85
434.43	11193.86
434.637	10890.76
434.844	11304.45
435.052	11726.33
435.259	11744.76
435.466	11634.17
435.673	11630.07
435.88	12391.92
436.087	13069.8
436.294	13137.38
436.501	12879.33
436.708	13026.79
436.915	13528.54
437.122	14132.69
437.329	14321.1
437.537	14687.69
437.743	14634.44
437.95	14636.49
438.157	15547.84
438.364	16078.26
438.571	15998.39
438.778	16012.73
438.985	17474.98
439.192	16821.67
439.399	17407.39
439.606	17120.68
439.813	18150.81
440.02	19148.17
440.227	18750.86
440.433	18666.89
440.64	19225.99
440.847	19352.96
441.054	19555.71
441.261	20729.2
441.467	20729.2
441.674	21144.94
441.881	21869.92
442.088	21714.27
442.294	21585.25
442.501	22017.37
442.708	22689.1
442.914	23776.58
443.121	24323.38
443.328	23995.71
443.534	25775.39
443.741	24839.47
443.948	24448.31
444.154	26350.87
444.361	25869.6
444.568	26656.02
444.774	26426.65
444.981	26731.79
445.187	27401.48
445.394	28478.71
445.6	28155.13
445.807	30856.4
446.013	29533.42
446.22	30084.32
446.426	31499.47
446.633	31644.87
446.839	32691.38
447.046	31161.55
447.252	33068.21
447.459	32810.17
447.665	32826.55
447.871	34213.02
448.078	35724.43
448.284	34059.43
448.491	34942.1
448.697	36191.36
448.903	36535.42
449.11	36934.78
449.316	36162.69
449.522	36877.43
449.728	37792.87
449.935	37899.37
450.141	38165.6
450.347	38818.91
450.553	37510.25
450.76	37942.38
450.966	38988.89
451.172	38474.85
451.378	39701.58
451.584	38820.95
451.791	39658.57
451.997	39590.99
452.203	40354.88
452.409	39732.3
452.615	39550.03
452.821	38390.88
453.027	37799.02
453.233	39742.54
453.44	38087.78
453.646	38702.17
453.852	38919.26
454.058	39265.36
454.264	37850.22
454.47	38890.59
454.676	37985.38
454.882	39044.18
455.088	35689.61
455.294	35908.74
455.5	36322.43
455.705	36609.15
455.911	35226.77
456.117	34561.18
456.323	34120.87
456.529	32249.02
456.735	33365.17
456.941	32918.71
457.147	32056.51
457.352	30966.99
457.558	30592.22
457.764	30993.62
457.97	30018.78
458.176	29433.07
458.381	29168.88
458.587	27849.99
458.793	27749.64
458.999	26502.42
459.204	28267.77
459.41	27743.49
459.616	25769.25
459.821	25797.92
460.027	25511.21
460.233	25392.42
460.438	23680.32
460.644	23964.99
460.85	23000.4
461.055	22824.27
461.261	22650.19
461.466	21028.2
461.672	20659.57
461.878	21701.98
462.083	20575.6
462.289	20053.37
462.494	19862.91
462.7	18955.66
462.905	18498.96
463.111	18984.33
463.316	19385.73
463.522	18650.51
463.727	18675.09
463.932	18914.7
464.138	18423.19
464.343	18564.5
464.549	18177.43
464.754	18724.24
464.959	18447.76
465.165	18441.62
465.37	17501.6
465.575	17243.56
465.781	18025.88
465.986	17823.13
466.191	17423.78
466.397	17012.14
466.602	16321.97
466.807	16983.46
467.012	16979.37
467.218	16721.32
467.423	16530.86
467.628	16696.75
