Data from USB4F104151__263__11-11-58-647.txt Node

Date: Wed Mar 12 11:11:58 EDT 2025
User: louis
Spectrometer: USB4F10415
Trigger mode: 4
Integration Time (sec): 2.000000E-2
Scans to average: 1
Electric dark correction enabled: true
Nonlinearity correction enabled: false
Boxcar width: 0
XAxis mode: Wavelengths
Number of Pixels in Spectrum: 3648
>>>>>Begin Spectral Data<<<<<
178.204	-99.67
178.424	-99.67
178.644	-99.67
178.864	-52.56
179.084	-109.91
179.304	-30.04
179.524	-30.04
179.744	-38.23
179.964	17.07
180.184	29.35
180.404	80.55
180.624	12.97
180.844	27.31
181.064	-5.46
181.283	-11.61
181.503	-40.28
181.723	-11.61
181.943	-7.51
182.163	86.7
182.383	-48.47
182.602	-71
182.822	-9.56
183.042	90.79
183.262	-44.37
183.482	-19.8
183.701	-3.41
183.921	23.21
184.141	45.74
184.361	158.38
184.58	-87.38
184.8	96.94
185.02	47.79
185.239	-13.65
185.459	-17.75
185.679	53.93
185.898	31.4
186.118	92.84
186.338	-81.24
186.557	45.74
186.777	-13.65
186.997	45.74
187.216	15.02
187.436	55.98
187.655	60.07
187.875	-1.37
188.095	2.73
188.314	31.4
188.534	12.97
188.753	64.17
188.973	51.88
189.192	101.03
189.412	25.26
189.631	27.31
189.851	74.41
190.07	68.27
190.29	-38.23
190.509	41.64
190.729	6.83
190.948	-3.41
191.168	47.79
191.387	68.27
191.607	-7.51
191.826	33.45
192.045	-13.65
192.265	43.69
192.484	10.92
192.704	-5.46
192.923	-3.41
193.142	55.98
193.362	-5.46
193.581	19.11
193.8	117.42
194.02	-7.51
194.239	105.13
194.458	45.74
194.678	-27.99
194.897	47.79
195.116	-44.37
195.335	12.97
195.555	-1.37
195.774	19.11
195.993	27.31
196.212	64.17
196.432	-1.37
196.651	-1.37
196.87	53.93
197.089	55.98
197.308	27.31
197.528	64.17
197.747	-9.56
197.966	51.88
198.185	-13.65
198.404	-7.51
198.623	12.97
198.842	82.6
199.062	15.02
199.281	-60.76
199.5	25.26
199.719	10.92
199.938	-38.23
200.157	66.22
200.376	12.97
200.595	80.55
200.814	-66.9
201.033	49.83
201.252	41.64
201.471	15.02
201.69	92.84
201.909	23.21
202.128	-34.13
202.347	31.4
202.566	72.36
202.785	23.21
203.004	-36.18
203.223	49.83
203.442	37.55
203.661	-30.04
203.879	-15.7
204.098	-3.41
204.317	15.02
204.536	17.07
204.755	33.45
204.974	64.17
205.193	-17.75
205.411	94.89
205.63	53.93
205.849	66.22
206.068	45.74
206.287	31.4
206.505	41.64
206.724	41.64
206.943	68.27
207.162	31.4
207.381	53.93
207.599	21.16
207.818	37.55
208.037	31.4
208.255	-25.94
208.474	51.88
208.693	23.21
208.911	17.07
209.13	37.55
209.349	29.35
209.567	19.11
209.786	-15.7
210.005	0.68
210.223	-13.65
210.442	-30.04
210.661	-17.75
210.879	96.94
211.098	21.16
211.316	35.5
211.535	96.94
211.753	117.42
211.972	17.07
212.191	51.88
212.409	51.88
212.628	2.73
212.846	-79.19
213.065	23.21
213.283	55.98
213.502	-3.41
213.72	64.17
213.938	55.98
214.157	23.21
214.375	27.31
214.594	-44.37
214.812	-25.94
215.031	51.88
215.249	2.73
215.467	23.21
215.686	15.02
215.904	51.88
216.122	64.17
216.341	133.8
216.559	4.78
216.778	66.22
216.996	45.74
217.214	0.68
217.432	49.83
217.651	-30.04
217.869	45.74
218.087	60.07
218.306	4.78
218.524	-42.32
218.742	-3.41
218.96	31.4
219.179	-3.41
219.397	8.87
219.615	94.89
219.833	78.51
220.051	39.59
220.27	60.07
220.488	70.31
220.706	68.27
220.924	-38.23
221.142	80.55
221.36	4.78
221.578	10.92
221.796	68.27
222.015	62.12
222.233	35.5
222.451	62.12
222.669	-9.56
222.887	62.12
223.105	33.45
223.323	10.92
223.541	29.35
223.759	-62.8
223.977	-25.94
224.195	-38.23
224.413	-34.13
224.631	4.78
224.849	23.21
225.067	45.74
225.285	84.65
225.503	0.68
225.721	49.83
225.939	29.35
226.157	-30.04
226.375	33.45
226.592	33.45
226.81	62.12
227.028	10.92
227.246	31.4
227.464	31.4
227.682	39.59
227.9	109.22
228.117	10.92
228.335	70.31
228.553	29.35
228.771	-44.37
228.989	49.83
229.206	39.59
229.424	-3.41
229.642	43.69
229.86	-21.85
230.077	25.26
230.295	49.83
230.513	8.87
230.731	31.4
230.948	72.36
231.166	84.65
231.384	-15.7
231.601	8.87
231.819	23.21
232.037	-9.56
232.254	-1.37
232.472	12.97
232.689	-19.8
232.907	31.4
233.125	23.21
233.342	31.4
233.56	-38.23
233.777	-7.51
233.995	15.02
234.213	31.4
234.43	19.11
234.648	-21.85
234.865	33.45
235.083	68.27
235.3	-19.8
235.518	-38.23
235.735	86.7
235.953	92.84
236.17	51.88
236.388	-30.04
236.605	6.83
236.822	10.92
237.04	76.46
237.257	-5.46
237.475	-9.56
237.692	66.22
237.909	68.27
238.127	68.27
238.344	19.11
238.562	66.22
238.779	-44.37
238.996	51.88
239.214	0.68
239.431	-34.13
239.648	41.64
239.865	12.97
240.083	35.5
240.3	33.45
240.517	66.22
240.735	103.08
240.952	41.64
241.169	84.65
241.386	31.4
241.603	6.83
241.821	-23.89
242.038	33.45
242.255	23.21
242.472	-30.04
242.689	51.88
242.907	51.88
243.124	-9.56
243.341	41.64
243.558	0.68
243.775	15.02
243.992	-44.37
244.209	-17.75
244.426	0.68
244.643	53.93
244.86	39.59
245.078	-15.7
245.295	-1.37
245.512	111.27
245.729	-19.8
245.946	25.26
246.163	43.69
246.38	47.79
246.597	80.55
246.814	-9.56
247.031	-64.85
247.248	76.46
247.464	86.7
247.681	27.31
247.898	111.27
248.115	49.83
248.332	41.64
248.549	64.17
248.766	58.03
248.983	6.83
249.2	37.55
249.417	84.65
249.633	47.79
249.85	92.84
250.067	51.88
250.284	31.4
250.501	80.55
250.717	123.56
250.934	27.31
251.151	33.45
251.368	17.07
251.585	74.41
251.801	66.22
252.018	41.64
252.235	88.75
252.451	10.92
252.668	-3.41
252.885	80.55
253.102	43.69
253.318	6.83
253.535	25.26
253.752	43.69
253.968	-15.7
254.185	74.41
254.401	2.73
254.618	80.55
254.835	25.26
255.051	60.07
255.268	47.79
255.484	-30.04
255.701	53.93
255.917	-13.65
256.134	-40.28
256.351	25.26
256.567	-68.95
256.784	-13.65
257	12.97
257.217	6.83
257.433	101.03
257.65	68.27
257.866	2.73
258.082	-48.47
258.299	55.98
258.515	-34.13
258.732	21.16
258.948	-64.85
259.165	55.98
259.381	76.46
259.597	17.07
259.814	27.31
260.03	6.83
260.246	-38.23
260.463	23.21
260.679	0.68
260.895	-42.32
261.112	-23.89
261.328	-3.41
261.544	37.55
261.761	15.02
261.977	-23.89
262.193	-19.8
262.409	39.59
262.626	55.98
262.842	39.59
263.058	-17.75
263.274	-17.75
263.49	58.03
263.707	-5.46
263.923	6.83
264.139	-34.13
264.355	62.12
264.571	2.73
264.787	-42.32
265.004	-52.56
265.22	27.31
265.436	12.97
265.652	35.5
265.868	8.87
266.084	12.97
266.3	-3.41
266.516	-64.85
266.732	27.31
266.948	-30.04
267.164	60.07
267.38	35.5
267.596	86.7
267.812	66.22
268.028	8.87
268.244	60.07
268.46	53.93
268.676	15.02
268.892	-30.04
269.108	37.55
269.324	47.79
269.54	17.07
269.756	64.17
269.972	12.97
270.188	74.41
270.403	33.45
270.619	41.64
270.835	-9.56
271.051	12.97
271.267	-19.8
271.483	64.17
271.698	2.73
271.914	58.03
272.13	53.93
272.346	-3.41
272.562	4.78
272.777	66.22
272.993	-3.41
273.209	86.7
273.425	27.31
273.64	84.65
273.856	35.5
274.072	41.64
274.287	70.31
274.503	45.74
274.719	76.46
274.934	17.07
275.15	23.21
275.366	76.46
275.581	-25.94
275.797	39.59
276.012	23.21
276.228	47.79
276.444	15.02
276.659	76.46
276.875	58.03
277.09	31.4
277.306	80.55
277.521	35.5
277.737	-17.75
277.952	33.45
278.168	-46.42
278.383	53.93
278.599	35.5
278.814	49.83
279.03	-15.7
279.245	80.55
279.461	-15.7
279.676	66.22
279.892	-7.51
280.107	43.69
280.322	35.5
280.538	92.84
280.753	35.5
280.969	37.55
281.184	17.07
281.399	49.83
281.615	51.88
281.83	58.03
282.045	43.69
282.26	58.03
282.476	111.27
282.691	49.83
282.906	64.17
283.122	64.17
283.337	47.79
283.552	27.31
283.767	-15.7
283.983	53.93
284.198	-13.65
284.413	39.59
284.628	33.45
284.843	41.64
285.058	-25.94
285.274	58.03
285.489	60.07
285.704	82.6
285.919	12.97
286.134	76.46
286.349	33.45
286.564	23.21
286.779	78.51
286.995	51.88
287.21	21.16
287.425	55.98
287.64	-17.75
287.855	15.02
288.07	-21.85
288.285	62.12
288.5	-54.61
288.715	45.74
288.93	49.83
289.145	35.5
289.36	53.93
289.575	19.11
289.79	49.83
290.004	19.11
290.219	12.97
290.434	49.83
290.649	-3.41
290.864	33.45
291.079	21.16
291.294	25.26
291.509	105.13
291.724	-48.47
291.938	15.02
292.153	33.45
292.368	-34.13
292.583	45.74
292.798	25.26
293.012	37.55
293.227	62.12
293.442	23.21
293.657	70.31
293.871	86.7
294.086	-5.46
294.301	58.03
294.516	51.88
294.73	-17.75
294.945	6.83
295.16	-1.37
295.374	4.78
295.589	84.65
295.804	101.03
296.018	-66.9
296.233	-15.7
296.447	29.35
296.662	15.02
296.877	125.61
297.091	15.02
297.306	37.55
297.52	25.26
297.735	43.69
297.949	55.98
298.164	53.93
298.378	8.87
298.593	68.27
298.807	15.02
299.022	-9.56
299.236	90.79
299.451	19.11
299.665	62.12
299.88	31.4
300.094	86.7
300.309	27.31
300.523	6.83
300.737	25.26
300.952	29.35
301.166	8.87
301.381	8.87
301.595	4.78
301.809	94.89
302.024	-11.61
302.238	-13.65
302.452	21.16
302.667	-19.8
302.881	74.41
303.095	-17.75
303.309	29.35
303.524	29.35
303.738	-34.13
303.952	-42.32
304.166	19.11
304.381	12.97
304.595	60.07
304.809	49.83
305.023	74.41
305.237	29.35
305.452	39.59
305.666	0.68
305.88	72.36
306.094	45.74
306.308	96.94
306.522	98.99
306.736	80.55
306.95	-25.94
307.164	53.93
307.379	17.07
307.593	39.59
307.807	64.17
308.021	0.68
308.235	129.7
308.449	6.83
308.663	-3.41
308.877	103.08
309.091	37.55
309.305	-9.56
309.519	58.03
309.733	35.5
309.947	-17.75
310.161	29.35
310.374	51.88
310.588	74.41
310.802	6.83
311.016	64.17
311.23	23.21
311.444	15.02
311.658	-42.32
311.872	58.03
312.085	2.73
312.299	78.51
312.513	68.27
312.727	62.12
312.941	35.5
313.154	23.21
313.368	-30.04
313.582	12.97
313.796	15.02
314.009	53.93
314.223	47.79
314.437	8.87
314.651	-19.8
314.864	17.07
315.078	-19.8
315.292	-17.75
315.505	6.83
315.719	76.46
315.933	17.07
316.146	58.03
316.36	-44.37
316.573	113.32
316.787	19.11
317.001	-19.8
317.214	8.87
317.428	25.26
317.641	-25.94
317.855	53.93
318.068	31.4
318.282	31.4
318.495	101.03
318.709	58.03
318.922	105.13
319.136	55.98
319.349	62.12
319.563	-27.99
319.776	-13.65
319.99	-17.75
320.203	62.12
320.417	21.16
320.63	35.5
320.843	160.42
321.057	-3.41
321.27	68.27
321.483	41.64
321.697	58.03
321.91	25.26
322.124	-32.08
322.337	-3.41
322.55	21.16
322.763	37.55
322.977	12.97
323.19	35.5
323.403	-7.51
323.617	53.93
323.83	8.87
324.043	10.92
324.256	39.59
324.469	-19.8
324.683	23.21
324.896	-11.61
325.109	23.21
325.322	-17.75
325.535	70.31
325.748	45.74
325.962	98.99
326.175	-5.46
326.388	88.75
326.601	82.6
326.814	-1.37
327.027	39.59
327.24	41.64
327.453	-13.65
327.666	117.42
327.879	47.79
328.092	35.5
328.305	121.51
328.518	19.11
328.731	-7.51
328.944	-38.23
329.157	43.69
329.37	12.97
329.583	45.74
329.796	-23.89
330.009	19.11
330.222	-56.66
330.435	127.66
330.648	33.45
330.861	-32.08
331.073	58.03
331.286	8.87
331.499	29.35
331.712	66.22
331.925	-46.42
332.138	6.83
332.35	101.03
332.563	6.83
332.776	6.83
332.989	23.21
333.202	15.02
333.414	23.21
333.627	17.07
333.84	19.11
334.053	37.55
334.265	-13.65
334.478	74.41
334.691	35.5
334.903	2.73
335.116	8.87
335.329	49.83
335.541	10.92
335.754	12.97
335.966	84.65
336.179	23.21
336.392	29.35
336.604	84.65
336.817	70.31
337.029	101.03
337.242	2.73
337.454	4.78
337.667	-21.85
337.88	49.83
338.092	27.31
338.305	80.55
338.517	4.78
338.729	-23.89
338.942	19.11
339.154	86.7
339.367	19.11
339.579	2.73
339.792	37.55
340.004	17.07
340.217	25.26
340.429	53.93
340.641	-38.23
340.854	35.5
341.066	6.83
341.278	88.75
341.491	-17.75
341.703	-17.75
341.915	-30.04
342.128	35.5
342.34	-1.37
342.552	51.88
342.764	88.75
342.977	72.36
343.189	70.31
343.401	-5.46
343.613	-1.37
343.826	37.55
344.038	-52.56
344.25	68.27
344.462	6.83
344.674	47.79
344.886	45.74
345.099	33.45
345.311	72.36
345.523	86.7
345.735	49.83
345.947	68.27
346.159	-3.41
346.371	76.46
346.583	60.07
346.795	72.36
347.007	-7.51
347.219	41.64
347.431	-36.18
347.643	101.03
347.855	23.21
348.067	17.07
348.279	-23.89
348.491	45.74
348.703	-64.85
348.915	33.45
349.127	98.99
349.339	68.27
349.551	-9.56
349.763	12.97
349.975	78.51
350.187	58.03
350.399	62.12
350.61	41.64
350.822	4.78
351.034	60.07
351.246	35.5
351.458	35.5
351.669	72.36
351.881	68.27
352.093	39.59
352.305	78.51
352.517	25.26
352.728	66.22
352.94	2.73
353.152	72.36
353.363	0.68
353.575	8.87
353.787	64.17
353.999	31.4
354.21	55.98
354.422	-1.37
354.633	21.16
354.845	33.45
355.057	19.11
355.268	41.64
355.48	62.12
355.692	37.55
355.903	43.69
356.115	8.87
356.326	-9.56
356.538	88.75
356.749	0.68
356.961	103.08
357.172	27.31
357.384	113.32
357.595	8.87
357.807	21.16
358.018	6.83
358.23	88.75
358.441	72.36
358.653	-7.51
358.864	21.16
359.075	-62.8
359.287	68.27
359.498	62.12
359.709	-19.8
359.921	35.5
360.132	-7.51
360.344	94.89
360.555	6.83
360.766	-5.46
360.977	-7.51
361.189	29.35
361.4	8.87
361.611	12.97
361.823	55.98
362.034	55.98
362.245	12.97
362.456	15.02
362.667	17.07
362.879	51.88
363.09	-11.61
363.301	51.88
363.512	35.5
363.723	70.31
363.935	41.64
364.146	27.31
364.357	51.88
364.568	82.6
364.779	12.97
364.99	92.84
365.201	-7.51
365.412	43.69
365.623	64.17
365.834	27.31
366.045	80.55
366.256	-5.46
366.467	115.37
366.678	-7.51
366.889	51.88
367.1	35.5
367.311	27.31
367.522	78.51
367.733	37.55
367.944	47.79
368.155	15.02
368.366	27.31
368.577	25.26
368.788	35.5
368.999	27.31
369.209	31.4
369.42	107.18
369.631	64.17
369.842	-54.61
370.053	8.87
370.264	-5.46
370.474	31.4
370.685	4.78
370.896	-27.99
371.107	51.88
371.317	72.36
371.528	92.84
371.739	105.13
371.95	4.78
372.16	66.22
372.371	35.5
372.582	-1.37
372.792	41.64
373.003	10.92
373.214	12.97
373.424	23.21
373.635	68.27
373.846	51.88
374.056	25.26
374.267	25.26
374.477	29.35
374.688	35.5
374.898	55.98
375.109	33.45
375.319	19.11
375.53	58.03
375.74	4.78
375.951	39.59
376.161	80.55
376.372	68.27
376.582	39.59
376.793	62.12
377.003	19.11
377.214	43.69
377.424	-7.51
377.635	12.97
377.845	72.36
378.055	41.64
378.266	-1.37
378.476	37.55
378.686	62.12
378.897	72.36
379.107	31.4
379.317	31.4
379.528	-25.94
379.738	72.36
379.948	105.13
380.158	49.83
380.369	84.65
380.579	64.17
380.789	45.74
380.999	98.99
381.21	60.07
381.42	103.08
381.63	96.94
381.84	68.27
382.05	64.17
382.261	68.27
382.471	51.88
382.681	17.07
382.891	86.7
383.101	19.11
383.311	-9.56
383.521	-44.37
383.731	23.21
383.941	45.74
384.151	-21.85
384.361	-27.99
384.571	66.22
384.781	51.88
384.991	4.78
385.201	35.5
385.411	-19.8
385.621	80.55
385.831	41.64
386.041	60.07
386.251	96.94
386.461	78.51
386.671	78.51
386.881	90.79
387.091	-34.13
387.301	19.11
387.511	23.21
387.72	19.11
387.93	19.11
388.14	82.6
388.35	55.98
388.56	90.79
388.769	25.26
388.979	43.69
389.189	78.51
389.399	80.55
389.609	31.4
389.818	90.79
390.028	47.79
390.238	58.03
390.447	47.79
390.657	-17.75
390.867	-15.7
391.076	17.07
391.286	15.02
391.496	72.36
391.705	29.35
391.915	111.27
392.125	8.87
392.334	21.16
392.544	27.31
392.753	35.5
392.963	35.5
393.172	-32.08
393.382	-15.7
393.591	109.22
393.801	51.88
394.01	84.65
394.22	53.93
394.429	-1.37
394.639	58.03
394.848	103.08
395.058	64.17
395.267	25.26
395.477	27.31
395.686	29.35
395.895	62.12
396.105	88.75
396.314	152.23
396.524	31.4
396.733	-34.13
396.942	53.93
397.152	66.22
397.361	47.79
397.57	23.21
397.78	19.11
397.989	94.89
398.198	96.94
398.407	51.88
398.617	66.22
398.826	70.31
399.035	55.98
399.244	43.69
399.453	115.37
399.663	43.69
399.872	70.31
400.081	12.97
400.29	37.55
400.499	109.22
400.708	76.46
400.917	55.98
401.127	25.26
401.336	49.83
401.545	113.32
401.754	127.66
401.963	109.22
402.172	121.51
402.381	2.73
402.59	88.75
402.799	70.31
403.008	101.03
403.217	109.22
403.426	90.79
403.635	72.36
403.844	78.51
404.053	76.46
404.262	96.94
404.471	156.33
404.68	119.46
404.888	86.7
405.097	78.51
405.306	82.6
405.515	15.02
405.724	39.59
405.933	109.22
406.142	117.42
406.35	15.02
406.559	92.84
406.768	121.51
406.977	15.02
407.185	105.13
407.394	148.14
407.603	70.31
407.812	176.81
408.02	129.7
408.229	182.95
408.438	101.03
408.646	146.09
408.855	137.9
409.064	160.42
409.272	135.85
409.481	76.46
409.69	160.42
409.898	172.71
410.107	170.66
410.315	178.86
410.524	195.24
410.733	182.95
410.941	232.1
411.15	180.9
411.358	172.71
411.567	207.53
411.775	170.66
411.984	248.49
412.192	219.82
412.401	191.14
412.609	234.15
412.818	258.73
413.026	281.25
413.234	236.2
413.443	320.17
413.651	338.6
413.86	346.79
414.068	342.69
414.276	387.75
414.485	379.56
414.693	379.56
414.901	338.6
415.11	342.69
415.318	314.02
415.526	434.85
415.734	484
415.943	463.52
416.151	400.04
416.359	481.96
416.567	387.75
416.776	481.96
416.984	539.3
417.192	529.06
417.4	496.29
417.608	494.24
417.817	649.89
418.025	543.39
418.233	561.83
418.441	522.91
418.649	617.12
418.857	602.79
419.065	717.47
419.273	668.32
419.481	756.38
419.689	719.52
419.897	766.62
420.105	813.73
420.313	797.34
420.521	752.29
420.729	936.6
420.937	887.45
421.145	963.23
421.353	975.52
421.561	1014.43
421.769	1053.34
421.977	1061.53
422.185	983.71
422.393	1135.26
422.601	1139.35
422.809	1239.7
423.017	1217.18
423.224	1254.04
423.432	1251.99
423.64	1297.05
423.848	1428.12
424.056	1317.53
424.263	1516.18
424.471	1458.84
424.679	1632.91
424.887	1694.35
425.094	1643.15
425.302	1671.83
425.51	1712.78
425.718	1716.88
425.925	1833.61
426.133	1831.57
426.341	1923.73
426.548	2040.46
426.756	2093.71
426.964	2103.95
427.171	2222.73
427.379	2228.87
427.586	2269.83
427.794	2466.44
428.001	2468.48
428.209	2644.61
428.417	2519.68
428.624	2673.28
428.832	2669.19
429.039	2665.09
429.247	2734.72
429.454	3027.58
429.662	3191.42
429.869	2902.65
430.076	3183.23
430.284	3025.53
430.491	3201.66
430.699	3279.48
430.906	3355.26
431.114	3437.17
431.321	3541.62
431.528	3590.77
431.736	3781.23
431.943	4053.61
432.15	3873.39
432.358	3840.62
432.565	4192.87
432.772	4276.84
432.979	4385.38
433.187	4270.7
433.394	4328.04
433.601	4846.18
433.808	4706.91
434.016	4688.48
434.223	4928.1
434.43	5145.18
434.637	5075.55
434.844	5587.54
435.052	5456.47
435.259	5565.01
435.466	5605.97
435.673	5358.17
435.88	5790.29
436.087	6222.41
436.294	6169.16
436.501	6101.58
436.708	6060.62
436.915	6306.38
437.122	6656.58
437.329	6654.53
437.537	6746.69
437.743	7027.26
437.95	6931.01
438.157	7090.75
438.364	7408.19
438.571	7420.47
438.778	7680.57
438.985	8284.72
439.192	7967.28
439.399	8145.45
439.606	7889.46
439.813	8430.12
440.02	8673.83
440.227	8749.61
440.433	8530.47
440.64	8997.41
440.847	8929.83
441.054	9054.75
441.261	9679.38
441.467	9454.11
441.674	9665.05
441.881	10103.31
442.088	10017.3
442.294	9947.67
442.501	10119.7
442.708	10273.29
442.914	10709.51
443.121	11319.81
443.328	10873.35
443.534	11655.67
443.741	11532.79
443.948	11088.39
444.154	11897.33
444.361	11987.44
444.568	12218.86
444.774	12169.71
444.981	12360.17
445.187	12794.34
445.394	12970.47
445.6	12706.28
445.807	14103
446.013	13644.25
446.22	13808.09
446.426	14338.51
446.633	14344.66
446.839	14893.51
447.046	14258.64
447.252	15108.55
447.459	15237.57
447.665	15229.38
447.871	15702.46
448.078	16402.86
448.284	15595.96
448.491	16196.02
448.697	16785.83
448.903	16982.44
449.11	16857.51
449.316	16660.91
449.522	16976.3
449.728	17226.15
449.935	17627.55
450.141	17498.53
450.347	17975.7
450.553	17123.75
450.76	17824.15
450.966	18031
451.172	17990.04
451.378	18334.1
451.584	17805.72
451.791	18645.39
451.997	18399.63
452.203	18661.77
452.409	18708.88
452.615	18553.23
452.821	17850.78
453.027	17732
453.233	18385.3
453.44	17918.36
453.646	18143.64
453.852	17979.8
454.058	18258.32
454.264	17721.76
454.47	18186.65
454.676	17541.53
454.882	18477.46
455.088	16765.35
455.294	16896.42
455.5	17291.68
455.705	17340.83
455.911	17035.69
456.117	16613.81
456.323	16095.67
456.529	15411.65
456.735	15937.98
456.941	15583.68
457.147	15600.06
457.352	14868.94
457.558	14744.01
457.764	14733.77
457.97	14162.39
458.176	14092.76
458.381	14197.2
458.587	13472.22
458.793	13515.23
458.999	12491.24
459.204	13642.2
459.41	13294.05
459.616	12257.78
459.821	12511.72
460.027	12306.93
460.233	12343.79
460.438	11338.24
460.644	11672.06
460.85	10994.18
461.055	10930.69
461.261	10990.08
461.466	10164.75
461.672	9787.93
461.878	10482.19
462.083	9923.09
462.289	9587.22
462.494	9566.74
462.7	8962.59
462.905	9015.84
463.111	9165.34
463.316	9220.64
463.522	9118.24
463.727	8866.34
463.932	8667.69
464.138	8874.53
464.343	8753.7
464.549	8596.01
464.754	9034.27
464.959	9110.05
465.165	8729.13
465.37	8522.28
465.575	8073.78
465.781	8600.1
465.986	8583.72
466.191	8342.06
466.397	8206.89
466.602	7883.31
466.807	7944.75
467.012	8184.37
467.218	8049.2
467.423	7987.76
467.628	8008.24
467.833	8329.77
468.038	8114.73
468.244	7731.76
468.449	7979.57
468.654	7938.61
468.859	7619.13
469.064	7541.3
