Data from USB4F104151__65__11-06-04-286.txt Node

Date: Wed Mar 12 11:06:04 EDT 2025
User: louis
Spectrometer: USB4F10415
Trigger mode: 4
Integration Time (sec): 2.000000E-2
Scans to average: 1
Electric dark correction enabled: true
Nonlinearity correction enabled: false
Boxcar width: 0
XAxis mode: Wavelengths
Number of Pixels in Spectrum: 3648
>>>>>Begin Spectral Data<<<<<
178.204	-33.45
178.424	-33.45
178.644	-33.45
178.864	-109.23
179.084	-62.12
179.304	-12.97
179.524	111.96
179.744	-12.97
179.964	-2.73
180.184	17.75
180.404	-39.59
180.624	-74.41
180.844	5.46
181.064	-27.31
181.283	-4.78
181.503	1.37
181.723	38.23
181.943	-2.73
182.163	50.52
182.383	46.42
182.602	1.37
182.822	58.71
183.042	71
183.262	56.66
183.482	40.28
183.701	87.38
183.921	-0.68
184.141	-21.16
184.361	89.43
184.58	40.28
184.8	34.13
185.02	15.7
185.239	34.13
185.459	-29.35
185.679	50.52
185.898	-23.21
186.118	36.18
186.338	11.61
186.557	25.94
186.777	-2.73
186.997	23.89
187.216	15.7
187.436	91.48
187.655	36.18
187.875	75.09
188.095	-0.68
188.314	105.81
188.534	44.37
188.753	13.65
188.973	23.89
189.192	23.89
189.412	-19.11
189.631	11.61
189.851	-4.78
190.07	97.62
190.29	7.51
190.509	15.7
190.729	25.94
190.948	-29.35
191.168	85.33
191.387	81.24
191.607	25.94
191.826	38.23
192.045	-55.98
192.265	40.28
192.484	77.14
192.704	77.14
192.923	15.7
193.142	32.08
193.362	5.46
193.581	32.08
193.8	36.18
194.02	-12.97
194.239	-12.97
194.458	44.37
194.678	36.18
194.897	-4.78
195.116	25.94
195.335	48.47
195.555	56.66
195.774	-0.68
195.993	25.94
196.212	60.76
196.432	-15.02
196.651	15.7
196.87	83.28
197.089	32.08
197.308	42.32
197.528	7.51
197.747	15.7
197.966	-8.87
198.185	54.61
198.404	1.37
198.623	13.65
198.842	19.8
199.062	27.99
199.281	71
199.5	-0.68
199.719	66.9
199.938	48.47
200.157	54.61
200.376	107.86
200.595	44.37
200.814	19.8
201.033	11.61
201.252	15.7
201.471	75.09
201.69	48.47
201.909	19.8
202.128	38.23
202.347	44.37
202.566	9.56
202.785	48.47
203.004	-43.69
203.223	34.13
203.442	9.56
203.661	-6.83
203.879	-0.68
204.098	27.99
204.317	60.76
204.536	101.72
204.755	-2.73
204.974	77.14
205.193	71
205.411	15.7
205.63	52.56
205.849	27.99
206.068	87.38
206.287	56.66
206.505	40.28
206.724	9.56
206.943	-6.83
207.162	40.28
207.381	38.23
207.599	32.08
207.818	-8.87
208.037	38.23
208.255	56.66
208.474	25.94
208.693	107.86
208.911	21.84
209.13	75.09
209.349	73.04
209.567	40.28
209.786	15.7
210.005	38.23
210.223	7.51
210.442	23.89
210.661	40.28
210.879	-8.87
211.098	38.23
211.316	-0.68
211.535	54.61
211.753	11.61
211.972	109.91
212.191	-33.45
212.409	32.08
212.628	19.8
212.846	40.28
213.065	73.04
213.283	40.28
213.502	-19.11
213.72	19.8
213.938	25.94
214.157	32.08
214.375	30.04
214.594	-2.73
214.812	79.19
215.031	91.48
215.249	23.89
215.467	71
215.686	38.23
215.904	44.37
216.122	-60.07
216.341	27.99
216.559	56.66
216.778	79.19
216.996	23.89
217.214	30.04
217.432	73.04
217.651	15.7
217.869	13.65
218.087	7.51
218.306	11.61
218.524	7.51
218.742	-47.79
218.96	32.08
219.179	13.65
219.397	-23.21
219.615	15.7
219.833	17.75
220.051	38.23
220.27	38.23
220.488	54.61
220.706	32.08
220.924	-6.83
221.142	87.38
221.36	68.95
221.578	5.46
221.796	19.8
222.015	15.7
222.233	-41.64
222.451	52.56
222.669	-39.59
222.887	122.2
223.105	-86.7
223.323	56.66
223.541	54.61
223.759	77.14
223.977	40.28
224.195	46.42
224.413	30.04
224.631	23.89
224.849	-10.92
225.067	140.63
225.285	-19.11
225.503	-25.26
225.721	81.24
225.939	19.8
226.157	7.51
226.375	36.18
226.592	44.37
226.81	68.95
227.028	13.65
227.246	77.14
227.464	32.08
227.682	75.09
227.9	44.37
228.117	40.28
228.335	17.75
228.553	77.14
228.771	23.89
228.989	-2.73
229.206	15.7
229.424	19.8
229.642	-2.73
229.86	5.46
230.077	71
230.295	-4.78
230.513	19.8
230.731	77.14
230.948	62.8
231.166	85.33
231.384	48.47
231.601	52.56
231.819	15.7
232.037	91.48
232.254	7.51
232.472	9.56
232.689	32.08
232.907	13.65
233.125	23.89
233.342	42.32
233.56	11.61
233.777	75.09
233.995	32.08
234.213	64.85
234.43	5.46
234.648	23.89
234.865	-43.69
235.083	19.8
235.3	71
235.518	99.67
235.735	93.52
235.953	34.13
236.17	75.09
236.388	27.99
236.605	-4.78
236.822	85.33
237.04	36.18
237.257	81.24
237.475	3.41
237.692	50.52
237.909	95.57
238.127	36.18
238.344	23.89
238.562	-2.73
238.779	-8.87
238.996	30.04
239.214	-0.68
239.431	54.61
239.648	-47.79
239.865	48.47
240.083	13.65
240.3	38.23
240.517	32.08
240.735	58.71
240.952	25.94
241.169	44.37
241.386	3.41
241.603	21.84
241.821	15.7
242.038	17.75
242.255	56.66
242.472	-84.65
242.689	23.89
242.907	-0.68
243.124	56.66
243.341	46.42
243.558	1.37
243.775	132.44
243.992	-51.88
244.209	-0.68
244.426	46.42
244.643	91.48
244.86	-17.07
245.078	71
245.295	54.61
245.512	48.47
245.729	7.51
245.946	17.75
246.163	25.94
246.38	66.9
246.597	9.56
246.814	-0.68
247.031	-8.87
247.248	-29.35
247.464	66.9
247.681	71
247.898	66.9
248.115	46.42
248.332	25.94
248.549	-6.83
248.766	89.43
248.983	-21.16
249.2	40.28
249.417	79.19
249.633	30.04
249.85	34.13
250.067	-19.11
250.284	75.09
250.501	-15.02
250.717	107.86
250.934	81.24
251.151	17.75
251.368	-68.27
251.585	-0.68
251.801	38.23
252.018	-43.69
252.235	81.24
252.451	19.8
252.668	-8.87
252.885	66.9
253.102	58.71
253.318	46.42
253.535	75.09
253.752	13.65
253.968	-17.07
254.185	-10.92
254.401	15.7
254.618	68.95
254.835	62.8
255.051	97.62
255.268	7.51
255.484	-2.73
255.701	-29.35
255.917	75.09
256.134	-19.11
256.351	52.56
256.567	-12.97
256.784	-33.45
257	85.33
257.217	56.66
257.433	91.48
257.65	66.9
257.866	-10.92
258.082	-17.07
258.299	36.18
258.515	52.56
258.732	71
258.948	-39.59
259.165	71
259.381	30.04
259.597	11.61
259.814	93.52
260.03	32.08
260.246	17.75
260.463	56.66
260.679	40.28
260.895	64.85
261.112	79.19
261.328	66.9
261.544	71
261.761	36.18
261.977	32.08
262.193	-35.5
262.409	23.89
262.626	25.94
262.842	62.8
263.058	54.61
263.274	40.28
263.49	27.99
263.707	25.94
263.923	87.38
264.139	-27.31
264.355	62.8
264.571	99.67
264.787	9.56
265.004	23.89
265.22	58.71
265.436	9.56
265.652	-33.45
265.868	34.13
266.084	-0.68
266.3	79.19
266.516	23.89
266.732	85.33
266.948	42.32
267.164	-10.92
267.38	-4.78
267.596	32.08
267.812	23.89
268.028	-15.02
268.244	42.32
268.46	54.61
268.676	-53.93
268.892	44.37
269.108	-47.79
269.324	46.42
269.54	-21.16
269.756	91.48
269.972	23.89
270.188	7.51
270.403	-2.73
270.619	7.51
270.835	44.37
271.051	9.56
271.267	-23.21
271.483	-2.73
271.698	7.51
271.914	62.8
272.13	-6.83
272.346	3.41
272.562	52.56
272.777	19.8
272.993	87.38
273.209	68.95
273.425	83.28
273.64	-53.93
273.856	97.62
274.072	52.56
274.287	-4.78
274.503	-2.73
274.719	-12.97
274.934	-17.07
275.15	5.46
275.366	44.37
275.581	-17.07
275.797	-2.73
276.012	50.52
276.228	-19.11
276.444	1.37
276.659	114
276.875	-25.26
277.09	32.08
277.306	36.18
277.521	56.66
277.737	19.8
277.952	50.52
278.168	126.29
278.383	62.8
278.599	66.9
278.814	25.94
279.03	58.71
279.245	36.18
279.461	-0.68
279.676	79.19
279.892	56.66
280.107	23.89
280.322	21.84
280.538	-53.93
280.753	75.09
280.969	44.37
281.184	-23.21
281.399	48.47
281.615	-0.68
281.83	93.52
282.045	21.84
282.26	60.76
282.476	52.56
282.691	25.94
282.906	48.47
283.122	-21.16
283.337	15.7
283.552	68.95
283.767	19.8
283.983	81.24
284.198	-10.92
284.413	62.8
284.628	36.18
284.843	62.8
285.058	17.75
285.274	13.65
285.489	7.51
285.704	52.56
285.919	-4.78
286.134	3.41
286.349	-0.68
286.564	23.89
286.779	163.15
286.995	71
287.21	44.37
287.425	5.46
287.64	27.99
287.855	62.8
288.07	-66.22
288.285	97.62
288.5	101.72
288.715	38.23
288.93	107.86
289.145	5.46
289.36	38.23
289.575	42.32
289.79	50.52
290.004	1.37
290.219	60.76
290.434	36.18
290.649	21.84
290.864	19.8
291.079	99.67
291.294	-6.83
291.509	40.28
291.724	27.99
291.938	13.65
292.153	5.46
292.368	-8.87
292.583	36.18
292.798	36.18
293.012	64.85
293.227	30.04
293.442	36.18
293.657	77.14
293.871	101.72
294.086	58.71
294.301	99.67
294.516	71
294.73	85.33
294.945	-10.92
295.16	50.52
295.374	-17.07
295.589	56.66
295.804	56.66
296.018	54.61
296.233	111.96
296.447	23.89
296.662	-12.97
296.877	13.65
297.091	111.96
297.306	58.71
297.52	111.96
297.735	50.52
297.949	93.52
298.164	9.56
298.378	40.28
298.593	-8.87
298.807	-21.16
299.022	81.24
299.236	93.52
299.451	99.67
299.665	56.66
299.88	36.18
300.094	-10.92
300.309	42.32
300.523	38.23
300.737	17.75
300.952	36.18
301.166	95.57
301.381	34.13
301.595	17.75
301.809	25.94
302.024	25.94
302.238	-0.68
302.452	13.65
302.667	42.32
302.881	30.04
303.095	56.66
303.309	32.08
303.524	-4.78
303.738	15.7
303.952	48.47
304.166	11.61
304.381	-19.11
304.595	58.71
304.809	36.18
305.023	36.18
305.237	3.41
305.452	-12.97
305.666	54.61
305.88	62.8
306.094	7.51
306.308	81.24
306.522	114
306.736	11.61
306.95	19.8
307.164	36.18
307.379	38.23
307.593	50.52
307.807	40.28
308.021	103.76
308.235	7.51
308.449	-12.97
308.663	73.04
308.877	68.95
309.091	109.91
309.305	83.28
309.519	5.46
309.733	42.32
309.947	9.56
310.161	54.61
310.374	48.47
310.588	73.04
310.802	36.18
311.016	-27.31
311.23	124.24
311.444	32.08
311.658	34.13
311.872	-4.78
312.085	5.46
312.299	62.8
312.513	91.48
312.727	54.61
312.941	36.18
313.154	17.75
313.368	3.41
313.582	107.86
313.796	118.1
314.009	36.18
314.223	48.47
314.437	48.47
314.651	66.9
314.864	23.89
315.078	38.23
315.292	105.81
315.505	-39.59
315.719	27.99
315.933	27.99
316.146	15.7
316.36	64.85
316.573	46.42
316.787	85.33
317.001	11.61
317.214	7.51
317.428	87.38
317.641	15.7
317.855	1.37
318.068	30.04
318.282	15.7
318.495	111.96
318.709	95.57
318.922	-33.45
319.136	120.15
319.349	-4.78
319.563	42.32
319.776	23.89
319.99	30.04
320.203	60.76
320.417	36.18
320.63	48.47
320.843	79.19
321.057	81.24
321.27	85.33
321.483	40.28
321.697	58.71
321.91	-4.78
322.124	25.94
322.337	3.41
322.55	36.18
322.763	68.95
322.977	64.85
323.19	-21.16
323.403	-8.87
323.617	27.99
323.83	130.39
324.043	-62.12
324.256	3.41
324.469	-68.27
324.683	44.37
324.896	27.99
325.109	50.52
325.322	1.37
325.535	44.37
325.748	11.61
325.962	-6.83
326.175	81.24
326.388	7.51
326.601	23.89
326.814	56.66
327.027	-12.97
327.24	97.62
327.453	79.19
327.666	27.99
327.879	97.62
328.092	1.37
328.305	48.47
328.518	54.61
328.731	40.28
328.944	89.43
329.157	66.9
329.37	73.04
329.583	114
329.796	68.95
330.009	54.61
330.222	79.19
330.435	44.37
330.648	36.18
330.861	15.7
331.073	-0.68
331.286	64.85
331.499	-12.97
331.712	50.52
331.925	95.57
332.138	40.28
332.35	99.67
332.563	30.04
332.776	36.18
332.989	-25.26
333.202	93.52
333.414	99.67
333.627	48.47
333.84	103.76
334.053	68.95
334.265	52.56
334.478	81.24
334.691	-17.07
334.903	111.96
335.116	-15.02
335.329	30.04
335.541	99.67
335.754	56.66
335.966	54.61
336.179	54.61
336.392	13.65
336.604	54.61
336.817	75.09
337.029	34.13
337.242	42.32
337.454	11.61
337.667	7.51
337.88	48.47
338.092	19.8
338.305	56.66
338.517	64.85
338.729	23.89
338.942	-4.78
339.154	46.42
339.367	42.32
339.579	15.7
339.792	-0.68
340.004	89.43
340.217	30.04
340.429	101.72
340.641	95.57
340.854	30.04
341.066	3.41
341.278	42.32
341.491	97.62
341.703	52.56
341.915	52.56
342.128	81.24
342.34	64.85
342.552	58.71
342.764	68.95
342.977	79.19
343.189	83.28
343.401	15.7
343.613	-25.26
343.826	83.28
344.038	114
344.25	32.08
344.462	42.32
344.674	103.76
344.886	11.61
345.099	-49.83
345.311	68.95
345.523	85.33
345.735	38.23
345.947	17.75
346.159	40.28
346.371	-0.68
346.583	9.56
346.795	91.48
347.007	15.7
347.219	46.42
347.431	30.04
347.643	60.76
347.855	13.65
348.067	73.04
348.279	-4.78
348.491	3.41
348.703	-6.83
348.915	66.9
349.127	25.94
349.339	52.56
349.551	-4.78
349.763	116.05
349.975	17.75
350.187	93.52
350.399	99.67
350.61	27.99
350.822	40.28
351.034	25.94
351.246	36.18
351.458	-2.73
351.669	73.04
351.881	68.95
352.093	54.61
352.305	75.09
352.517	60.76
352.728	118.1
352.94	56.66
353.152	89.43
353.363	48.47
353.575	19.8
353.787	85.33
353.999	-31.4
354.21	30.04
354.422	1.37
354.633	-37.55
354.845	-10.92
355.057	87.38
355.268	34.13
355.48	83.28
355.692	-53.93
355.903	50.52
356.115	34.13
356.326	44.37
356.538	77.14
356.749	15.7
356.961	103.76
357.172	54.61
357.384	42.32
357.595	146.77
357.807	44.37
358.018	34.13
358.23	66.9
358.441	60.76
358.653	105.81
358.864	42.32
359.075	-39.59
359.287	13.65
359.498	30.04
359.709	32.08
359.921	19.8
360.132	73.04
360.344	40.28
360.555	60.76
360.766	111.96
360.977	54.61
361.189	79.19
361.4	-39.59
361.611	95.57
361.823	58.71
362.034	38.23
362.245	50.52
362.456	77.14
362.667	36.18
362.879	46.42
363.09	44.37
363.301	32.08
363.512	64.85
363.723	-2.73
363.935	56.66
364.146	54.61
364.357	19.8
364.568	-12.97
364.779	17.75
364.99	91.48
365.201	13.65
365.412	-8.87
365.623	36.18
365.834	21.84
366.045	42.32
366.256	77.14
366.467	23.89
366.678	93.52
366.889	5.46
367.1	48.47
367.311	7.51
367.522	32.08
367.733	62.8
367.944	-6.83
368.155	21.84
368.366	-10.92
368.577	56.66
368.788	120.15
368.999	73.04
369.209	21.84
369.42	64.85
369.631	1.37
369.842	21.84
370.053	42.32
370.264	27.99
370.474	114
370.685	114
370.896	118.1
371.107	91.48
371.317	-23.21
371.528	71
371.739	13.65
371.95	-8.87
372.16	30.04
372.371	13.65
372.582	71
372.792	56.66
373.003	30.04
373.214	7.51
373.424	34.13
373.635	-17.07
373.846	13.65
374.056	15.7
374.267	38.23
374.477	-27.31
374.688	21.84
374.898	85.33
375.109	32.08
375.319	46.42
375.53	89.43
375.74	89.43
375.951	48.47
376.161	19.8
376.372	56.66
376.582	-12.97
376.793	58.71
377.003	52.56
377.214	-8.87
377.424	-25.26
377.635	46.42
377.845	40.28
378.055	105.81
378.266	42.32
378.476	32.08
378.686	32.08
378.897	68.95
379.107	66.9
379.317	91.48
379.528	-12.97
379.738	58.71
379.948	-8.87
380.158	97.62
380.369	40.28
380.579	21.84
380.789	97.62
380.999	85.33
381.21	95.57
381.42	73.04
381.63	46.42
381.84	85.33
382.05	81.24
382.261	58.71
382.471	71
382.681	25.94
382.891	93.52
383.101	73.04
383.311	15.7
383.521	36.18
383.731	79.19
383.941	58.71
384.151	44.37
384.361	83.28
384.571	95.57
384.781	56.66
384.991	46.42
385.201	73.04
385.411	101.72
385.621	42.32
385.831	44.37
386.041	17.75
386.251	116.05
386.461	103.76
386.671	7.51
386.881	140.63
387.091	25.94
387.301	62.8
387.511	50.52
387.72	91.48
387.93	83.28
388.14	40.28
388.35	157.01
388.56	38.23
388.769	73.04
388.979	85.33
389.189	68.95
389.399	124.24
389.609	97.62
389.818	77.14
390.028	77.14
390.238	42.32
390.447	-4.78
390.657	122.2
390.867	107.86
391.076	52.56
391.286	48.47
391.496	71
391.705	66.9
391.915	103.76
392.125	48.47
392.334	40.28
392.544	138.58
392.753	48.47
392.963	23.89
393.172	152.91
393.382	116.05
393.591	122.2
393.801	60.76
394.01	83.28
394.22	85.33
394.429	62.8
394.639	62.8
394.848	93.52
395.058	64.85
395.267	140.63
395.477	152.91
395.686	11.61
395.895	146.77
396.105	142.68
396.314	54.61
396.524	107.86
396.733	87.38
396.942	114
397.152	62.8
397.361	116.05
397.57	32.08
397.78	91.48
397.989	122.2
398.198	130.39
398.407	114
398.617	165.2
398.826	116.05
399.035	64.85
399.244	77.14
399.453	152.91
399.663	185.68
399.872	132.44
400.081	130.39
400.29	116.05
400.499	109.91
400.708	48.47
400.917	122.2
401.127	75.09
401.336	163.15
401.545	146.77
401.754	183.63
401.963	134.48
402.172	85.33
402.381	105.81
402.59	165.2
402.799	54.61
403.008	89.43
403.217	154.96
403.426	142.68
403.635	171.35
403.844	163.15
404.053	154.96
404.262	126.29
404.471	116.05
404.68	101.72
404.888	154.96
405.097	165.2
405.306	120.15
405.515	204.11
405.724	71
405.933	165.2
406.142	204.11
406.35	173.39
406.559	232.79
406.768	177.49
406.977	200.02
407.185	150.87
407.394	189.78
407.603	146.77
407.812	163.15
408.02	181.59
408.229	183.63
408.438	171.35
408.646	255.31
408.855	202.07
409.064	171.35
409.272	212.31
409.481	316.75
409.69	277.84
409.898	259.41
410.107	314.7
410.315	376.14
410.524	249.17
410.733	343.38
410.941	273.75
411.15	331.09
411.358	380.24
411.567	337.23
411.775	349.52
411.984	374.1
412.192	484.69
412.401	410.96
412.609	472.4
412.818	490.83
413.026	445.77
413.234	468.3
413.443	441.68
413.651	474.45
413.86	548.17
414.068	564.56
414.276	578.89
414.485	662.86
414.693	656.72
414.901	656.72
415.11	736.59
415.318	632.14
415.526	666.96
415.734	750.92
415.943	755.02
416.151	757.07
416.359	806.22
416.567	826.7
416.776	859.46
416.984	965.96
417.192	892.23
417.4	957.77
417.608	970.05
417.817	957.77
418.025	1035.59
418.233	1168.71
418.441	1062.21
418.649	1146.18
418.857	1254.72
419.065	1228.1
419.273	1197.38
419.481	1246.53
419.689	1285.44
419.897	1477.95
420.105	1445.18
420.313	1553.73
420.521	1627.45
420.729	1609.02
420.937	1619.26
421.145	1674.56
421.353	1613.12
421.561	1889.59
421.769	1883.45
421.977	1932.6
422.185	1946.94
422.393	2014.52
422.601	2233.65
422.809	2192.69
423.017	2164.02
423.224	2258.23
423.432	2487.6
423.64	2409.78
423.848	2501.94
424.056	2495.79
424.263	2590
424.471	2659.63
424.679	2671.92
424.887	2827.56
425.094	2843.95
425.302	3009.83
425.51	3265.83
425.718	3237.16
425.925	3181.86
426.133	3255.59
426.341	3493.15
426.548	3718.43
426.756	3753.24
426.964	3839.26
427.171	3923.23
427.379	4216.08
427.586	4105.49
427.794	4189.46
428.001	4455.7
428.209	4597.01
428.417	4738.32
428.624	4979.98
428.832	4865.29
429.039	5006.6
429.247	4943.11
429.454	5555.46
429.662	5885.18
429.869	5573.89
430.076	5883.13
430.284	5627.14
430.491	5864.7
430.699	6319.35
430.906	6249.72
431.114	6317.3
431.321	6331.64
431.528	6638.83
431.736	7085.29
431.943	7335.14
432.15	7113.96
432.358	7351.53
432.565	7724.26
432.772	7546.08
432.979	7998.68
433.187	8164.57
433.394	8209.62
433.601	8817.87
433.808	8862.93
434.016	8774.86
434.223	9211.08
434.43	9811.14
434.637	9458.88
434.844	10034.36
435.052	10245.3
435.259	10144.95
435.466	10429.62
435.673	10263.74
435.88	10917.04
436.087	11420.84
436.294	11353.26
436.501	11156.65
436.708	11570.34
436.915	11932.83
437.122	12395.67
437.329	12182.68
437.537	12739.73
437.743	12844.18
437.95	12934.29
438.157	13603.97
438.364	13880.45
438.571	13909.12
438.778	14118.01
438.985	15266.92
439.192	14812.28
439.399	15254.64
439.606	14859.38
439.813	15488.1
440.02	16669.78
440.227	16389.21
440.433	16260.19
440.64	16704.6
440.847	16413.79
441.054	17237.07
441.261	18205.76
441.467	17847.36
441.674	18410.56
441.881	19022.9
442.088	18961.46
442.294	18820.15
442.501	19508.27
442.708	19747.88
442.914	20476.96
443.121	21447.69
443.328	20636.7
443.534	22313.98
443.741	21367.82
443.948	21263.38
444.154	23202.8
444.361	22629.37
444.568	22653.95
444.774	22840.31
444.981	23241.71
445.187	24056.81
445.394	24941.53
445.6	24437.73
445.807	26860.48
446.013	25899.98
446.22	25992.14
446.426	27188.15
446.633	27569.07
446.839	28363.68
447.046	27100.09
447.252	28500.9
447.459	28507.04
447.665	28834.72
447.871	29928.33
448.078	31189.88
448.284	29498.26
448.491	30399.37
448.697	31323
448.903	32322.41
449.11	32367.46
449.316	31519.6
449.522	32336.74
449.728	32740.19
449.935	33499.99
450.141	32998.24
450.347	34212.68
450.553	32830.3
450.76	33108.83
450.966	34468.68
451.172	34155.34
451.378	34798.4
451.584	34186.06
451.791	35046.21
451.997	34579.27
452.203	35042.11
452.409	35429.18
452.615	34939.71
452.821	33790.8
453.027	33315.67
453.233	35345.21
453.44	33690.45
453.646	34216.78
453.852	34333.51
454.058	34812.74
454.264	33440.6
454.47	34100.04
454.676	33631.06
454.882	34237.26
455.088	31540.08
455.294	31896.43
455.5	32623.46
455.705	32754.53
455.911	31427.45
456.117	31024
456.323	30251.91
456.529	28986.27
456.735	30000.01
456.941	29246.36
457.147	28836.77
457.352	27761.58
457.558	27497.39
457.764	27577.26
457.97	27239.35
458.176	26516.42
458.381	26270.66
458.587	24916.95
458.793	25088.98
458.999	23708.65
459.204	25713.61
459.41	24968.15
459.616	23002.1
459.821	23358.45
460.027	23266.29
460.233	22717.43
460.438	21531.66
460.644	21715.98
460.85	21077.01
461.055	20704.28
461.261	20599.83
461.466	19274.8
461.672	18304.06
461.878	19633.19
462.083	18467.9
462.289	18125.89
462.494	17888.32
462.7	17005.65
462.905	16622.68
463.111	17149.01
463.316	17362
463.522	16979.03
463.727	16839.76
463.932	16852.05
464.138	16741.46
464.343	16538.71
464.549	16628.82
464.754	17022.03
464.959	16817.24
465.165	16477.27
465.37	15916.13
465.575	15746.15
465.781	16235.61
465.986	16065.63
466.191	15555.69
466.397	15445.1
466.602	14734.45
466.807	15092.85
467.012	15144.05
467.218	15285.36
467.423	14881.91
467.628	15002.74
467.833	15807.59
468.038	14972.02
468.244	14605.43
468.449	15230.06
468.654	15047.79
468.859	14523.51
