Data from USB4F104151__159__11-08-33-889.txt Node

Date: Wed Mar 12 11:08:33 EDT 2025
User: louis
Spectrometer: USB4F10415
Trigger mode: 4
Integration Time (sec): 2.000000E-2
Scans to average: 1
Electric dark correction enabled: true
Nonlinearity correction enabled: false
Boxcar width: 0
XAxis mode: Wavelengths
Number of Pixels in Spectrum: 3648
>>>>>Begin Spectral Data<<<<<
178.204	-124.76
178.424	-124.76
178.644	-124.76
178.864	-73.56
179.084	-83.8
179.304	-42.84
179.524	22.7
179.744	30.89
179.964	4.27
180.184	-14.17
180.404	-3.93
180.624	-69.46
180.844	-18.26
181.064	53.42
181.283	-10.07
181.503	30.89
181.723	16.55
181.943	-71.51
182.163	61.61
182.383	-34.64
182.602	61.61
182.822	12.46
183.042	22.7
183.262	49.32
183.482	0.17
183.701	-3.93
183.921	20.65
184.141	8.36
184.361	73.9
184.58	34.99
184.8	-20.31
185.02	-34.64
185.239	53.42
185.459	4.27
185.679	121
185.898	-14.17
186.118	-20.31
186.338	10.41
186.557	53.42
186.777	-12.12
186.997	-34.64
187.216	-22.36
187.436	53.42
187.655	-5.97
187.875	57.51
188.095	8.36
188.314	30.89
188.534	8.36
188.753	94.38
188.973	24.75
189.192	47.27
189.412	12.46
189.631	59.56
189.851	-22.36
190.07	-8.02
190.29	4.27
190.509	-18.26
190.729	-10.07
190.948	6.31
191.168	102.57
191.387	-32.6
191.607	34.99
191.826	100.52
192.045	34.99
192.265	20.65
192.484	26.79
192.704	-5.97
192.923	-89.94
193.142	12.46
193.362	18.6
193.581	37.03
193.8	-3.93
194.02	-8.02
194.239	8.36
194.458	34.99
194.678	-8.02
194.897	-75.6
195.116	8.36
195.335	-22.36
195.555	-20.31
195.774	2.22
195.993	57.51
196.212	-1.88
196.432	53.42
196.651	-42.84
196.87	-30.55
197.089	45.23
197.308	12.46
197.528	43.18
197.747	4.27
197.966	51.37
198.185	88.23
198.404	32.94
198.623	-26.45
198.842	10.41
199.062	16.55
199.281	69.8
199.5	4.27
199.719	37.03
199.938	34.99
200.157	10.41
200.376	86.19
200.595	-14.17
200.814	26.79
201.033	67.75
201.252	-5.97
201.471	-26.45
201.69	20.65
201.909	-22.36
202.128	131.24
202.347	116.9
202.566	-55.12
202.785	-12.12
203.004	-104.28
203.223	73.9
203.442	45.23
203.661	30.89
203.879	-1.88
204.098	-3.93
204.317	-28.5
204.536	-61.27
204.755	22.7
204.974	-55.12
205.193	0.17
205.411	88.23
205.63	-28.5
205.849	53.42
206.068	-40.79
206.287	55.47
206.505	2.22
206.724	102.57
206.943	28.84
207.162	-24.4
207.381	-14.17
207.599	49.32
207.818	10.41
208.037	30.89
208.255	-44.88
208.474	61.61
208.693	61.61
208.911	12.46
209.13	22.7
209.349	32.94
209.567	-34.64
209.786	12.46
210.005	-22.36
210.223	-36.69
210.442	-5.97
210.661	63.66
210.879	-44.88
211.098	20.65
211.316	39.08
211.535	57.51
211.753	41.13
211.972	26.79
212.191	0.17
212.409	-1.88
212.628	-20.31
212.846	12.46
213.065	-46.93
213.283	8.36
213.502	-46.93
213.72	53.42
213.938	6.31
214.157	45.23
214.375	47.27
214.594	-10.07
214.812	18.6
215.031	-18.26
215.249	-32.6
215.467	-46.93
215.686	41.13
215.904	24.75
216.122	-44.88
216.341	67.75
216.559	18.6
216.778	16.55
216.996	-28.5
217.214	0.17
217.432	47.27
217.651	32.94
217.869	26.79
218.087	8.36
218.306	28.84
218.524	43.18
218.742	2.22
218.96	4.27
219.179	-14.17
219.397	10.41
219.615	-36.69
219.833	-20.31
220.051	37.03
220.27	47.27
220.488	4.27
220.706	39.08
220.924	12.46
221.142	-22.36
221.36	18.6
221.578	88.23
221.796	-48.98
222.015	28.84
222.233	20.65
222.451	-53.08
222.669	-18.26
222.887	-1.88
223.105	2.22
223.323	80.04
223.541	12.46
223.759	55.47
223.977	-16.21
224.195	59.56
224.413	26.79
224.631	12.46
224.849	-5.97
225.067	127.14
225.285	59.56
225.503	-22.36
225.721	-12.12
225.939	94.38
226.157	28.84
226.375	51.37
226.592	0.17
226.81	-1.88
227.028	-28.5
227.246	57.51
227.464	-16.21
227.682	-24.4
227.9	2.22
228.117	6.31
228.335	26.79
228.553	2.22
228.771	49.32
228.989	45.23
229.206	39.08
229.424	-48.98
229.642	-46.93
229.86	-16.21
230.077	26.79
230.295	59.56
230.513	-30.55
230.731	65.71
230.948	-3.93
231.166	69.8
231.384	-28.5
231.601	-8.02
231.819	41.13
232.037	37.03
232.254	-28.5
232.472	45.23
232.689	67.75
232.907	10.41
233.125	34.99
233.342	16.55
233.56	6.31
233.777	-1.88
233.995	4.27
234.213	61.61
234.43	32.94
234.648	67.75
234.865	-57.17
235.083	22.7
235.3	8.36
235.518	106.67
235.735	-24.4
235.953	-20.31
236.17	-36.69
236.388	6.31
236.605	47.27
236.822	-40.79
237.04	-16.21
237.257	-10.07
237.475	8.36
237.692	84.14
237.909	4.27
238.127	37.03
238.344	41.13
238.562	26.79
238.779	12.46
238.996	22.7
239.214	37.03
239.431	30.89
239.648	32.94
239.865	43.18
240.083	57.51
240.3	41.13
240.517	53.42
240.735	12.46
240.952	90.28
241.169	123.05
241.386	59.56
241.603	-32.6
241.821	0.17
242.038	45.23
242.255	30.89
242.472	-59.22
242.689	-8.02
242.907	55.47
243.124	77.99
243.341	-16.21
243.558	-40.79
243.775	10.41
243.992	-48.98
244.209	73.9
244.426	67.75
244.643	16.55
244.86	-59.22
245.078	55.47
245.295	47.27
245.512	-63.32
245.729	77.99
245.946	24.75
246.163	37.03
246.38	4.27
246.597	-3.93
246.814	-24.4
247.031	-32.6
247.248	61.61
247.464	90.28
247.681	61.61
247.898	12.46
248.115	18.6
248.332	-8.02
248.549	4.27
248.766	14.51
248.983	88.23
249.2	-38.74
249.417	49.32
249.633	45.23
249.85	4.27
250.067	-10.07
250.284	4.27
250.501	-61.27
250.717	51.37
250.934	-24.4
251.151	-22.36
251.368	-1.88
251.585	65.71
251.801	80.04
252.018	75.95
252.235	-3.93
252.451	-89.94
252.668	53.42
252.885	-38.74
253.102	-22.36
253.318	53.42
253.535	-65.36
253.752	0.17
253.968	114.86
254.185	-1.88
254.401	-12.12
254.618	24.75
254.835	-30.55
255.051	45.23
255.268	49.32
255.484	88.23
255.701	39.08
255.917	30.89
256.134	16.55
256.351	53.42
256.567	-1.88
256.784	43.18
257	-1.88
257.217	-3.93
257.433	24.75
257.65	28.84
257.866	53.42
258.082	-30.55
258.299	45.23
258.515	2.22
258.732	8.36
258.948	-91.99
259.165	37.03
259.381	53.42
259.597	12.46
259.814	59.56
260.03	-1.88
260.246	-22.36
260.463	-26.45
260.679	65.71
260.895	-14.17
261.112	-12.12
261.328	39.08
261.544	37.03
261.761	86.19
261.977	14.51
262.193	4.27
262.409	14.51
262.626	51.37
262.842	41.13
263.058	8.36
263.274	24.75
263.49	65.71
263.707	49.32
263.923	16.55
264.139	59.56
264.355	110.76
264.571	71.85
264.787	55.47
265.004	12.46
265.22	37.03
265.436	-28.5
265.652	94.38
265.868	-12.12
266.084	18.6
266.3	82.09
266.516	12.46
266.732	51.37
266.948	-51.03
267.164	110.76
267.38	30.89
267.596	75.95
267.812	24.75
268.028	-32.6
268.244	4.27
268.46	18.6
268.676	6.31
268.892	37.03
269.108	10.41
269.324	-16.21
269.54	-67.41
269.756	57.51
269.972	10.41
270.188	-16.21
270.403	0.17
270.619	6.31
270.835	0.17
271.051	75.95
271.267	45.23
271.483	49.32
271.698	-46.93
271.914	-53.08
272.13	55.47
272.346	-3.93
272.562	16.55
272.777	49.32
272.993	41.13
273.209	59.56
273.425	22.7
273.64	-5.97
273.856	43.18
274.072	55.47
274.287	49.32
274.503	32.94
274.719	26.79
274.934	-3.93
275.15	2.22
275.366	51.37
275.581	49.32
275.797	-40.79
276.012	-14.17
276.228	-38.74
276.444	16.55
276.659	34.99
276.875	-8.02
277.09	30.89
277.306	16.55
277.521	32.94
277.737	24.75
277.952	8.36
278.168	34.99
278.383	-20.31
278.599	10.41
278.814	0.17
279.03	0.17
279.245	65.71
279.461	-53.08
279.676	32.94
279.892	4.27
280.107	2.22
280.322	41.13
280.538	65.71
280.753	22.7
280.969	32.94
281.184	-16.21
281.399	59.56
281.615	-28.5
281.83	45.23
282.045	-12.12
282.26	24.75
282.476	20.65
282.691	6.31
282.906	-48.98
283.122	12.46
283.337	6.31
283.552	10.41
283.767	-22.36
283.983	67.75
284.198	-8.02
284.413	51.37
284.628	-65.36
284.843	0.17
285.058	77.99
285.274	61.61
285.489	-3.93
285.704	10.41
285.919	8.36
286.134	16.55
286.349	-10.07
286.564	84.14
286.779	67.75
286.995	59.56
287.21	18.6
287.425	41.13
287.64	0.17
287.855	0.17
288.07	63.66
288.285	37.03
288.5	20.65
288.715	-53.08
288.93	26.79
289.145	65.71
289.36	8.36
289.575	-8.02
289.79	6.31
290.004	-1.88
290.219	59.56
290.434	34.99
290.649	73.9
290.864	18.6
291.079	-40.79
291.294	4.27
291.509	32.94
291.724	32.94
291.938	51.37
292.153	-36.69
292.368	47.27
292.583	10.41
292.798	2.22
293.012	-8.02
293.227	14.51
293.442	57.51
293.657	-14.17
293.871	63.66
294.086	-63.32
294.301	75.95
294.516	37.03
294.73	-32.6
294.945	-8.02
295.16	32.94
295.374	77.99
295.589	-65.36
295.804	-1.88
296.018	10.41
296.233	77.99
296.447	10.41
296.662	30.89
296.877	32.94
297.091	30.89
297.306	24.75
297.52	20.65
297.735	-12.12
297.949	-12.12
298.164	2.22
298.378	10.41
298.593	34.99
298.807	-65.36
299.022	61.61
299.236	-18.26
299.451	-16.21
299.665	-22.36
299.88	26.79
300.094	-1.88
300.309	16.55
300.523	57.51
300.737	80.04
300.952	84.14
301.166	8.36
301.381	80.04
301.595	-28.5
301.809	57.51
302.024	-38.74
302.238	-44.88
302.452	22.7
302.667	30.89
302.881	32.94
303.095	55.47
303.309	37.03
303.524	32.94
303.738	-30.55
303.952	4.27
304.166	47.27
304.381	12.46
304.595	14.51
304.809	10.41
305.023	57.51
305.237	41.13
305.452	57.51
305.666	47.27
305.88	88.23
306.094	39.08
306.308	0.17
306.522	39.08
306.736	37.03
306.95	14.51
307.164	8.36
307.379	2.22
307.593	8.36
307.807	26.79
308.021	-3.93
308.235	-32.6
308.449	-14.17
308.663	73.9
308.877	41.13
309.091	69.8
309.305	53.42
309.519	-26.45
309.733	73.9
309.947	-12.12
310.161	-5.97
310.374	10.41
310.588	20.65
310.802	86.19
311.016	-16.21
311.23	-8.02
311.444	-65.36
311.658	57.51
311.872	18.6
312.085	65.71
312.299	82.09
312.513	80.04
312.727	24.75
312.941	-40.79
313.154	18.6
313.368	28.84
313.582	18.6
313.796	-57.17
314.009	63.66
314.223	30.89
314.437	39.08
314.651	6.31
314.864	57.51
315.078	8.36
315.292	-87.89
315.505	65.71
315.719	34.99
315.933	-26.45
316.146	39.08
316.36	-14.17
316.573	32.94
316.787	-65.36
317.001	94.38
317.214	-69.46
317.428	45.23
317.641	-8.02
317.855	8.36
318.068	-51.03
318.282	82.09
318.495	108.71
318.709	22.7
318.922	-10.07
319.136	92.33
319.349	102.57
319.563	-5.97
319.776	51.37
319.99	-8.02
320.203	32.94
320.417	69.8
320.63	28.84
320.843	8.36
321.057	37.03
321.27	57.51
321.483	-38.74
321.697	4.27
321.91	20.65
322.124	28.84
322.337	-14.17
322.55	-16.21
322.763	51.37
322.977	4.27
323.19	26.79
323.403	82.09
323.617	59.56
323.83	84.14
324.043	28.84
324.256	63.66
324.469	18.6
324.683	69.8
324.896	32.94
325.109	61.61
325.322	16.55
325.535	49.32
325.748	71.85
325.962	45.23
326.175	-3.93
326.388	37.03
326.601	4.27
326.814	53.42
327.027	77.99
327.24	63.66
327.453	-51.03
327.666	86.19
327.879	32.94
328.092	-24.4
328.305	32.94
328.518	24.75
328.731	65.71
328.944	49.32
329.157	51.37
329.37	168.1
329.583	82.09
329.796	80.04
330.009	20.65
330.222	-48.98
330.435	106.67
330.648	-8.02
330.861	6.31
331.073	24.75
331.286	-24.4
331.499	22.7
331.712	37.03
331.925	51.37
332.138	10.41
332.35	49.32
332.563	30.89
332.776	67.75
332.989	-22.36
333.202	-51.03
333.414	41.13
333.627	24.75
333.84	-30.55
334.053	8.36
334.265	14.51
334.478	-10.07
334.691	61.61
334.903	10.41
335.116	10.41
335.329	55.47
335.541	4.27
335.754	102.57
335.966	-42.84
336.179	-30.55
336.392	57.51
336.604	16.55
336.817	4.27
337.029	20.65
337.242	-24.4
337.454	147.62
337.667	-3.93
337.88	45.23
338.092	18.6
338.305	-16.21
338.517	43.18
338.729	20.65
338.942	6.31
339.154	32.94
339.367	12.46
339.579	-3.93
339.792	102.57
340.004	108.71
340.217	92.33
340.429	-3.93
340.641	-28.5
340.854	59.56
341.066	-3.93
341.278	12.46
341.491	16.55
341.703	-12.12
341.915	57.51
342.128	16.55
342.34	-22.36
342.552	4.27
342.764	22.7
342.977	45.23
343.189	77.99
343.401	28.84
343.613	2.22
343.826	-20.31
344.038	14.51
344.25	47.27
344.462	-59.22
344.674	53.42
344.886	16.55
345.099	59.56
345.311	-12.12
345.523	-8.02
345.735	47.27
345.947	71.85
346.159	-14.17
346.371	51.37
346.583	-24.4
346.795	61.61
347.007	28.84
347.219	37.03
347.431	10.41
347.643	61.61
347.855	-77.65
348.067	-10.07
348.279	57.51
348.491	34.99
348.703	18.6
348.915	57.51
349.127	10.41
349.339	63.66
349.551	49.32
349.763	84.14
349.975	-1.88
350.187	47.27
350.399	61.61
350.61	26.79
350.822	53.42
351.034	34.99
351.246	-38.74
351.458	-24.4
351.669	-3.93
351.881	51.37
352.093	102.57
352.305	96.43
352.517	37.03
352.728	0.17
352.94	16.55
353.152	-3.93
353.363	4.27
353.575	88.23
353.787	0.17
353.999	-32.6
354.21	18.6
354.422	28.84
354.633	24.75
354.845	-28.5
355.057	14.51
355.268	8.36
355.48	61.61
355.692	-20.31
355.903	75.95
356.115	55.47
356.326	41.13
356.538	0.17
356.749	32.94
356.961	116.9
357.172	49.32
357.384	-16.21
357.595	75.95
357.807	45.23
358.018	67.75
358.23	133.29
358.441	82.09
358.653	49.32
358.864	-20.31
359.075	-8.02
359.287	20.65
359.498	125.1
359.709	80.04
359.921	59.56
360.132	65.71
360.344	12.46
360.555	6.31
360.766	10.41
360.977	20.65
361.189	10.41
361.4	20.65
361.611	-16.21
361.823	12.46
362.034	100.52
362.245	114.86
362.456	-26.45
362.667	47.27
362.879	30.89
363.09	4.27
363.301	88.23
363.512	39.08
363.723	55.47
363.935	69.8
364.146	22.7
364.357	71.85
364.568	69.8
364.779	-5.97
364.99	77.99
365.201	-102.23
365.412	71.85
365.623	37.03
365.834	43.18
366.045	88.23
366.256	63.66
366.467	45.23
366.678	34.99
366.889	18.6
367.1	82.09
367.311	77.99
367.522	4.27
367.733	75.95
367.944	43.18
368.155	8.36
368.366	37.03
368.577	16.55
368.788	41.13
368.999	-8.02
369.209	8.36
369.42	112.81
369.631	41.13
369.842	67.75
370.053	-30.55
370.264	77.99
370.474	43.18
370.685	71.85
370.896	49.32
371.107	24.75
371.317	84.14
371.528	10.41
371.739	104.62
371.95	-5.97
372.16	34.99
372.371	61.61
372.582	12.46
372.792	61.61
373.003	14.51
373.214	4.27
373.424	57.51
373.635	-26.45
373.846	39.08
374.056	41.13
374.267	-3.93
374.477	43.18
374.688	139.43
374.898	63.66
375.109	-3.93
375.319	32.94
375.53	86.19
375.74	30.89
375.951	59.56
376.161	37.03
376.372	30.89
376.582	-16.21
376.793	12.46
377.003	34.99
377.214	-12.12
377.424	43.18
377.635	43.18
377.845	-16.21
378.055	45.23
378.266	4.27
378.476	34.99
378.686	34.99
378.897	26.79
379.107	133.29
379.317	34.99
379.528	39.08
379.738	84.14
379.948	39.08
380.158	92.33
380.369	51.37
380.579	61.61
380.789	-12.12
380.999	96.43
381.21	98.47
381.42	14.51
381.63	92.33
381.84	75.95
382.05	77.99
382.261	61.61
382.471	51.37
382.681	30.89
382.891	98.47
383.101	82.09
383.311	-10.07
383.521	90.28
383.731	45.23
383.941	75.95
384.151	88.23
384.361	59.56
384.571	86.19
384.781	77.99
384.991	-20.31
385.201	77.99
385.411	106.67
385.621	73.9
385.831	12.46
386.041	86.19
386.251	32.94
386.461	108.71
386.671	127.14
386.881	90.28
387.091	-12.12
387.301	98.47
387.511	18.6
387.72	28.84
387.93	10.41
388.14	57.51
388.35	32.94
388.56	73.9
388.769	49.32
388.979	137.38
389.189	16.55
389.399	108.71
389.609	106.67
389.818	12.46
390.028	90.28
390.238	100.52
390.447	47.27
390.657	98.47
390.867	22.7
391.076	39.08
391.286	96.43
391.496	131.24
391.705	12.46
391.915	108.71
392.125	63.66
392.334	47.27
392.544	114.86
392.753	18.6
392.963	10.41
393.172	16.55
393.382	12.46
393.591	102.57
393.801	125.1
394.01	90.28
394.22	63.66
394.429	45.23
394.639	45.23
394.848	88.23
395.058	112.81
395.267	88.23
395.477	100.52
395.686	65.71
395.895	129.19
396.105	141.48
396.314	77.99
396.524	114.86
396.733	71.85
396.942	30.89
397.152	106.67
397.361	133.29
397.57	75.95
397.78	90.28
397.989	53.42
398.198	108.71
398.407	45.23
398.617	102.57
398.826	84.14
399.035	110.76
399.244	114.86
399.453	102.57
399.663	149.67
399.872	153.77
400.081	61.61
400.29	139.43
400.499	118.95
400.708	194.73
400.917	139.43
401.127	61.61
401.336	108.71
401.545	202.92
401.754	145.58
401.963	137.38
402.172	141.48
402.381	86.19
402.59	137.38
402.799	151.72
403.008	143.53
403.217	176.3
403.426	96.43
403.635	92.33
403.844	104.62
404.053	200.87
404.262	143.53
404.471	178.34
404.68	204.97
404.888	231.59
405.097	161.96
405.306	168.1
405.515	184.49
405.724	159.91
405.933	196.78
406.142	217.26
406.35	295.08
406.559	229.54
406.768	192.68
406.977	245.93
407.185	274.6
407.394	235.69
407.603	202.92
407.812	233.64
408.02	256.17
408.229	290.98
408.438	274.6
408.646	262.31
408.855	250.02
409.064	286.89
409.272	272.55
409.481	327.85
409.69	258.21
409.898	364.71
410.107	295.08
410.315	438.44
410.524	325.8
410.733	389.28
410.941	417.96
411.15	450.72
411.358	420
411.567	405.67
411.775	475.3
411.984	497.83
412.192	442.53
412.401	610.47
412.609	567.46
412.818	508.07
413.026	510.11
413.234	569.51
413.443	676
413.651	604.32
413.86	626.85
414.068	716.96
414.276	669.86
414.485	780.45
414.693	706.72
414.901	731.3
415.11	864.41
415.318	798.88
415.526	864.41
415.734	946.33
415.943	925.85
416.151	1005.72
416.359	966.81
416.567	1067.16
416.776	1061.02
416.984	1116.31
417.192	1157.27
417.4	1198.23
417.608	1175.7
417.817	1173.66
418.025	1249.43
418.233	1333.4
418.441	1372.31
418.649	1400.98
418.857	1480.85
419.065	1575.06
419.273	1454.23
419.481	1517.72
419.689	1740.94
419.897	1792.14
420.105	1816.72
420.313	1786
420.521	1886.35
420.729	2007.18
420.937	2023.56
421.145	2070.67
421.353	2224.26
421.561	2195.59
421.769	2416.77
421.977	2412.68
422.185	2402.44
422.393	2504.84
422.601	2809.98
422.809	2756.74
423.017	2670.72
423.224	2910.33
423.432	3068.03
423.64	2998.4
423.848	3213.43
424.056	3233.91
424.263	3350.65
424.471	3432.57
424.679	3483.77
424.887	3659.89
425.094	3661.94
425.302	3756.15
425.51	3971.18
425.718	3977.33
425.925	4100.2
426.133	4302.95
426.341	4511.85
426.548	4585.57
426.756	4671.59
426.964	4657.25
427.171	5120.09
427.379	5038.17
427.586	5288.03
427.794	5415
428.001	5718.1
428.209	5869.65
428.417	5822.55
428.624	6170.7
428.832	6279.24
429.039	6154.32
429.247	6182.99
429.454	6711.36
429.662	7135.29
429.869	6531.14
430.076	7106.62
430.284	6924.35
430.491	7381.05
430.699	7749.68
430.906	7802.93
431.114	7708.73
431.321	8081.46
431.528	8110.13
431.736	8523.82
431.943	9211.93
432.15	8785.96
432.358	9082.91
432.565	9742.36
432.772	9433.11
432.979	10037.27
433.187	10074.13
433.394	10027.03
433.601	10862.6
433.808	10960.9
434.016	10950.66
434.223	11282.43
434.43	12144.63
434.637	11991.03
434.844	12509.16
435.052	12808.17
435.259	12656.62
435.466	12890.09
435.673	12648.43
435.88	13656.03
436.087	14131.16
436.294	14067.67
436.501	13746.14
436.708	14432.21
436.915	14417.87
437.122	15284.16
437.329	15308.74
437.537	15550.4
437.743	15886.26
437.95	15898.55
438.157	16756.65
438.364	17463.2
438.571	17303.46
438.778	17280.93
438.985	18636.69
439.192	18261.91
439.399	18823.05
439.606	18366.35
439.813	19361.67
440.02	20619.12
440.227	20260.73
440.433	19869.56
440.64	20750.19
440.847	20547.44
441.054	20805.49
441.261	22753.1
441.467	21978.97
441.674	22693.71
441.881	23416.65
442.088	23299.91
442.294	22992.72
442.501	23752.51
442.708	24121.15
442.914	25181.99
443.121	26289.95
443.328	25575.2
443.534	27223.82
443.741	26588.95
443.948	26337.05
444.154	28116.73
444.361	28055.29
444.568	28442.36
444.774	28073.73
444.981	28536.57
445.187	29187.82
445.394	30572.25
445.6	30213.85
445.807	32995
446.013	31368.91
446.22	31981.25
446.426	33306.29
446.633	33625.77
446.839	34604.7
447.046	32790.2
447.252	34582.17
447.459	35085.97
447.665	35051.16
447.871	36560.51
448.078	37836.39
448.284	35925.64
448.491	37434.99
448.697	38573.66
448.903	39302.74
449.11	39120.47
449.316	38252.13
449.522	38979.16
449.728	40293.96
449.935	40248.9
450.141	40379.97
450.347	41348.66
450.553	39749.2
450.76	40564.29
450.966	41633.33
451.172	41252.41
451.378	41877.04
451.584	41463.35
451.791	42386.98
451.997	42098.22
452.203	43079.19
452.409	42997.27
452.615	42604.06
452.821	40719.93
453.027	40564.29
453.233	42444.32
453.44	41377.33
453.646	41332.28
453.852	41408.05
454.058	42438.18
454.264	40640.06
454.47	41561.65
454.676	40420.93
454.882	41725.49
455.088	37959.27
455.294	38870.62
455.5	39181.91
455.705	39808.59
455.911	38307.43
456.117	37437.04
456.323	36525.69
456.529	34541.21
456.735	36087.43
456.941	35491.47
457.147	34733.72
457.352	33691.3
457.558	33232.56
457.764	33607.34
457.97	32638.65
458.176	32151.23
458.381	31940.29
458.587	30277.34
458.793	30594.78
458.999	28407.55
459.204	31045.33
459.41	30332.64
459.616	28049.15
459.821	27809.54
460.027	27612.93
460.233	27234.06
460.438	26140.44
460.644	26185.5
460.85	24774.45
461.055	24526.64
461.261	24454.97
461.466	22800.21
461.672	22144.86
461.878	23820.1
462.083	22009.69
462.289	21933.92
462.494	21641.06
462.7	20629.36
462.905	19986.3
463.111	20905.84
463.316	20789.1
463.522	20369.27
463.727	20375.41
463.932	20428.66
464.138	20017.02
464.343	20410.23
464.549	19539.84
464.754	20289.4
464.959	20281.21
465.165	20027.26
465.37	19124.1
465.575	18814.86
465.781	19601.28
465.986	19773.31
466.191	18931.59
466.397	18661.26
466.602	17336.23
466.807	18407.31
467.012	18270.1
