Data from USB4F104151__250__11-11-43-028.txt Node

Date: Wed Mar 12 11:11:43 EDT 2025
User: louis
Spectrometer: USB4F10415
Trigger mode: 4
Integration Time (sec): 2.000000E-2
Scans to average: 1
Electric dark correction enabled: true
Nonlinearity correction enabled: false
Boxcar width: 0
XAxis mode: Wavelengths
Number of Pixels in Spectrum: 3648
>>>>>Begin Spectral Data<<<<<
178.204	-7.17
178.424	-7.17
178.644	-7.17
178.864	-76.8
179.084	-80.89
179.304	3.07
179.524	23.55
179.744	-3.07
179.964	-25.6
180.184	64.51
180.404	11.26
180.624	19.46
180.844	-3.07
181.064	29.7
181.283	-80.89
181.503	-72.7
181.723	33.79
181.943	11.26
182.163	50.18
182.383	48.13
182.602	27.65
182.822	64.51
183.042	109.57
183.262	109.57
183.482	58.37
183.701	9.22
183.921	19.46
184.141	70.65
184.361	58.37
184.58	-13.31
184.8	82.94
185.02	11.26
185.239	46.08
185.459	19.46
185.679	70.65
185.898	-1.02
186.118	5.12
186.338	60.42
186.557	97.28
186.777	54.27
186.997	97.28
187.216	-9.22
187.436	91.13
187.655	25.6
187.875	-13.31
188.095	97.28
188.314	39.94
188.534	-29.7
188.753	91.13
188.973	74.75
189.192	46.08
189.412	80.89
189.631	29.7
189.851	17.41
190.07	97.28
190.29	3.07
190.509	29.7
190.729	64.51
190.948	-7.17
191.168	95.23
191.387	150.53
191.607	-5.12
191.826	11.26
192.045	162.81
192.265	97.28
192.484	56.32
192.704	25.6
192.923	-3.07
193.142	187.39
193.362	52.22
193.581	44.03
193.8	5.12
194.02	54.27
194.239	78.85
194.458	44.03
194.678	31.74
194.897	29.7
195.116	62.46
195.335	54.27
195.555	25.6
195.774	95.23
195.993	39.94
196.212	68.61
196.432	31.74
196.651	78.85
196.87	31.74
197.089	64.51
197.308	70.65
197.528	117.76
197.747	-37.89
197.966	107.52
198.185	72.7
198.404	115.71
198.623	113.66
198.842	-44.03
199.062	62.46
199.281	52.22
199.5	66.56
199.719	-15.36
199.938	58.37
200.157	13.31
200.376	27.65
200.595	76.8
200.814	76.8
201.033	37.89
201.252	84.99
201.471	78.85
201.69	103.42
201.909	31.74
202.128	-17.41
202.347	31.74
202.566	27.65
202.785	39.94
203.004	7.17
203.223	82.94
203.442	68.61
203.661	-37.89
203.879	62.46
204.098	70.65
204.317	29.7
204.536	7.17
204.755	70.65
204.974	62.46
205.193	66.56
205.411	60.42
205.63	54.27
205.849	117.76
206.068	5.12
206.287	33.79
206.505	37.89
206.724	48.13
206.943	1.02
207.162	121.85
207.381	56.32
207.599	64.51
207.818	109.57
208.037	-13.31
208.255	-5.12
208.474	46.08
208.693	11.26
208.911	37.89
209.13	-27.65
209.349	97.28
209.567	62.46
209.786	25.6
210.005	19.46
210.223	-5.12
210.442	9.22
210.661	-5.12
210.879	11.26
211.098	44.03
211.316	15.36
211.535	56.32
211.753	23.55
211.972	105.47
212.191	50.18
212.409	58.37
212.628	62.46
212.846	68.61
213.065	-9.22
213.283	62.46
213.502	80.89
213.72	80.89
213.938	74.75
214.157	78.85
214.375	113.66
214.594	3.07
214.812	91.13
215.031	87.04
215.249	-3.07
215.467	35.84
215.686	52.22
215.904	48.13
216.122	60.42
216.341	93.18
216.559	66.56
216.778	41.98
216.996	70.65
217.214	52.22
217.432	66.56
217.651	66.56
217.869	19.46
218.087	97.28
218.306	60.42
218.524	111.61
218.742	87.04
218.96	74.75
219.179	-35.84
219.397	37.89
219.615	76.8
219.833	66.56
220.051	78.85
220.27	142.33
220.488	48.13
220.706	-9.22
220.924	23.55
221.142	70.65
221.36	60.42
221.578	56.32
221.796	-11.26
222.015	-25.6
222.233	78.85
222.451	97.28
222.669	56.32
222.887	68.61
223.105	101.37
223.323	115.71
223.541	72.7
223.759	64.51
223.977	1.02
224.195	89.09
224.413	52.22
224.631	150.53
224.849	87.04
225.067	93.18
225.285	70.65
225.503	64.51
225.721	101.37
225.939	-1.02
226.157	58.37
226.375	142.33
226.592	11.26
226.81	123.9
227.028	-9.22
227.246	93.18
227.464	41.98
227.682	44.03
227.9	70.65
228.117	9.22
228.335	-9.22
228.553	33.79
228.771	56.32
228.989	76.8
229.206	62.46
229.424	50.18
229.642	23.55
229.86	23.55
230.077	103.42
230.295	80.89
230.513	39.94
230.731	50.18
230.948	99.33
231.166	84.99
231.384	35.84
231.601	58.37
231.819	15.36
232.037	35.84
232.254	128
232.472	113.66
232.689	-27.65
232.907	33.79
233.125	-21.5
233.342	3.07
233.56	56.32
233.777	19.46
233.995	70.65
234.213	66.56
234.43	64.51
234.648	21.5
234.865	64.51
235.083	35.84
235.3	33.79
235.518	50.18
235.735	89.09
235.953	46.08
236.17	60.42
236.388	-33.79
236.605	64.51
236.822	44.03
237.04	23.55
237.257	80.89
237.475	5.12
237.692	76.8
237.909	35.84
238.127	91.13
238.344	21.5
238.562	31.74
238.779	29.7
238.996	107.52
239.214	52.22
239.431	37.89
239.648	87.04
239.865	64.51
240.083	95.23
240.3	-25.6
240.517	66.56
240.735	5.12
240.952	78.85
241.169	107.52
241.386	68.61
241.603	-13.31
241.821	19.46
242.038	89.09
242.255	76.8
242.472	35.84
242.689	70.65
242.907	87.04
243.124	64.51
243.341	31.74
243.558	23.55
243.775	66.56
243.992	68.61
244.209	107.52
244.426	31.74
244.643	91.13
244.86	1.02
245.078	52.22
245.295	54.27
245.512	62.46
245.729	31.74
245.946	41.98
246.163	82.94
246.38	66.56
246.597	48.13
246.814	15.36
247.031	29.7
247.248	-29.7
247.464	-1.02
247.681	72.7
247.898	15.36
248.115	44.03
248.332	-27.65
248.549	54.27
248.766	146.43
248.983	19.46
249.2	78.85
249.417	60.42
249.633	11.26
249.85	11.26
250.067	99.33
250.284	72.7
250.501	93.18
250.717	33.79
250.934	78.85
251.151	15.36
251.368	97.28
251.585	103.42
251.801	58.37
252.018	48.13
252.235	72.7
252.451	25.6
252.668	52.22
252.885	84.99
253.102	60.42
253.318	33.79
253.535	103.42
253.752	48.13
253.968	-5.12
254.185	76.8
254.401	48.13
254.618	60.42
254.835	64.51
255.051	119.81
255.268	50.18
255.484	58.37
255.701	23.55
255.917	33.79
256.134	21.5
256.351	70.65
256.567	25.6
256.784	82.94
257	41.98
257.217	46.08
257.433	105.47
257.65	72.7
257.866	48.13
258.082	27.65
258.299	76.8
258.515	37.89
258.732	84.99
258.948	-3.07
259.165	97.28
259.381	87.04
259.597	70.65
259.814	31.74
260.03	37.89
260.246	103.42
260.463	76.8
260.679	15.36
260.895	-1.02
261.112	70.65
261.328	76.8
261.544	29.7
261.761	44.03
261.977	13.31
262.193	3.07
262.409	76.8
262.626	72.7
262.842	78.85
263.058	105.47
263.274	109.57
263.49	44.03
263.707	39.94
263.923	35.84
264.139	50.18
264.355	101.37
264.571	80.89
264.787	72.7
265.004	48.13
265.22	117.76
265.436	93.18
265.652	-15.36
265.868	3.07
266.084	52.22
266.3	33.79
266.516	3.07
266.732	89.09
266.948	11.26
267.164	31.74
267.38	123.9
267.596	56.32
267.812	76.8
268.028	117.76
268.244	35.84
268.46	17.41
268.676	60.42
268.892	-15.36
269.108	35.84
269.324	52.22
269.54	44.03
269.756	68.61
269.972	72.7
270.188	35.84
270.403	66.56
270.619	107.52
270.835	78.85
271.051	64.51
271.267	9.22
271.483	72.7
271.698	27.65
271.914	74.75
272.13	23.55
272.346	99.33
272.562	27.65
272.777	84.99
272.993	9.22
273.209	39.94
273.425	66.56
273.64	-5.12
273.856	52.22
274.072	9.22
274.287	66.56
274.503	144.38
274.719	128
274.934	97.28
275.15	23.55
275.366	78.85
275.581	80.89
275.797	68.61
276.012	44.03
276.228	97.28
276.444	31.74
276.659	19.46
276.875	29.7
277.09	3.07
277.306	105.47
277.521	-1.02
277.737	66.56
277.952	148.48
278.168	50.18
278.383	68.61
278.599	46.08
278.814	3.07
279.03	80.89
279.245	46.08
279.461	31.74
279.676	82.94
279.892	35.84
280.107	11.26
280.322	29.7
280.538	13.31
280.753	68.61
280.969	-5.12
281.184	11.26
281.399	11.26
281.615	113.66
281.83	64.51
282.045	87.04
282.26	21.5
282.476	39.94
282.691	76.8
282.906	52.22
283.122	64.51
283.337	-21.5
283.552	17.41
283.767	5.12
283.983	39.94
284.198	99.33
284.413	35.84
284.628	25.6
284.843	58.37
285.058	56.32
285.274	56.32
285.489	23.55
285.704	15.36
285.919	103.42
286.134	44.03
286.349	7.17
286.564	97.28
286.779	44.03
286.995	132.09
287.21	76.8
287.425	99.33
287.64	17.41
287.855	23.55
288.07	89.09
288.285	66.56
288.5	60.42
288.715	107.52
288.93	46.08
289.145	41.98
289.36	44.03
289.575	54.27
289.79	64.51
290.004	99.33
290.219	64.51
290.434	23.55
290.649	31.74
290.864	31.74
291.079	97.28
291.294	41.98
291.509	74.75
291.724	52.22
291.938	80.89
292.153	72.7
292.368	113.66
292.583	132.09
292.798	44.03
293.012	97.28
293.227	64.51
293.442	44.03
293.657	117.76
293.871	105.47
294.086	87.04
294.301	111.61
294.516	95.23
294.73	72.7
294.945	52.22
295.16	134.14
295.374	117.76
295.589	56.32
295.804	80.89
296.018	31.74
296.233	154.62
296.447	19.46
296.662	7.17
296.877	-31.74
297.091	97.28
297.306	80.89
297.52	-1.02
297.735	80.89
297.949	19.46
298.164	58.37
298.378	82.94
298.593	91.13
298.807	60.42
299.022	48.13
299.236	31.74
299.451	84.99
299.665	29.7
299.88	-3.07
300.094	111.61
300.309	60.42
300.523	119.81
300.737	48.13
300.952	87.04
301.166	78.85
301.381	7.17
301.595	74.75
301.809	-35.84
302.024	97.28
302.238	72.7
302.452	95.23
302.667	23.55
302.881	31.74
303.095	27.65
303.309	52.22
303.524	13.31
303.738	33.79
303.952	29.7
304.166	64.51
304.381	39.94
304.595	91.13
304.809	7.17
305.023	93.18
305.237	72.7
305.452	93.18
305.666	35.84
305.88	21.5
306.094	113.66
306.308	62.46
306.522	19.46
306.736	-9.22
306.95	84.99
307.164	64.51
307.379	-11.26
307.593	80.89
307.807	39.94
308.021	84.99
308.235	87.04
308.449	5.12
308.663	80.89
308.877	58.37
309.091	54.27
309.305	185.34
309.519	68.61
309.733	25.6
309.947	7.17
310.161	60.42
310.374	97.28
310.588	93.18
310.802	33.79
311.016	66.56
311.23	89.09
311.444	31.74
311.658	97.28
311.872	41.98
312.085	80.89
312.299	142.33
312.513	72.7
312.727	37.89
312.941	97.28
313.154	76.8
313.368	84.99
313.582	101.37
313.796	80.89
314.009	11.26
314.223	72.7
314.437	121.85
314.651	82.94
314.864	50.18
315.078	25.6
315.292	68.61
315.505	46.08
315.719	74.75
315.933	54.27
316.146	93.18
316.36	37.89
316.573	44.03
316.787	48.13
317.001	82.94
317.214	64.51
317.428	64.51
317.641	35.84
317.855	97.28
318.068	74.75
318.282	29.7
318.495	91.13
318.709	72.7
318.922	29.7
319.136	74.75
319.349	105.47
319.563	-15.36
319.776	87.04
319.99	72.7
320.203	29.7
320.417	97.28
320.63	7.17
320.843	66.56
321.057	35.84
321.27	68.61
321.483	3.07
321.697	95.23
321.91	72.7
322.124	27.65
322.337	41.98
322.55	7.17
322.763	1.02
322.977	56.32
323.19	50.18
323.403	5.12
323.617	52.22
323.83	39.94
324.043	76.8
324.256	48.13
324.469	19.46
324.683	68.61
324.896	48.13
325.109	99.33
325.322	15.36
325.535	50.18
325.748	105.47
325.962	93.18
326.175	27.65
326.388	80.89
326.601	46.08
326.814	68.61
327.027	52.22
327.24	50.18
327.453	78.85
327.666	39.94
327.879	99.33
328.092	50.18
328.305	29.7
328.518	91.13
328.731	46.08
328.944	87.04
329.157	70.65
329.37	87.04
329.583	144.38
329.796	50.18
330.009	23.55
330.222	136.19
330.435	46.08
330.648	3.07
330.861	82.94
331.073	121.85
331.286	33.79
331.499	72.7
331.712	58.37
331.925	162.81
332.138	97.28
332.35	35.84
332.563	29.7
332.776	78.85
332.989	27.65
333.202	9.22
333.414	1.02
333.627	82.94
333.84	1.02
334.053	70.65
334.265	23.55
334.478	80.89
334.691	27.65
334.903	29.7
335.116	68.61
335.329	29.7
335.541	48.13
335.754	115.71
335.966	13.31
336.179	95.23
336.392	136.19
336.604	48.13
336.817	62.46
337.029	21.5
337.242	-1.02
337.454	99.33
337.667	29.7
337.88	29.7
338.092	58.37
338.305	82.94
338.517	62.46
338.729	33.79
338.942	107.52
339.154	99.33
339.367	23.55
339.579	134.14
339.792	68.61
340.004	78.85
340.217	50.18
340.429	89.09
340.641	41.98
340.854	87.04
341.066	82.94
341.278	29.7
341.491	64.51
341.703	72.7
341.915	89.09
342.128	89.09
342.34	33.79
342.552	70.65
342.764	82.94
342.977	25.6
343.189	84.99
343.401	72.7
343.613	23.55
343.826	62.46
344.038	82.94
344.25	44.03
344.462	132.09
344.674	80.89
344.886	37.89
345.099	101.37
345.311	44.03
345.523	13.31
345.735	46.08
345.947	3.07
346.159	130.05
346.371	97.28
346.583	62.46
346.795	54.27
347.007	87.04
347.219	103.42
347.431	68.61
347.643	48.13
347.855	62.46
348.067	64.51
348.279	121.85
348.491	72.7
348.703	21.5
348.915	41.98
349.127	-1.02
349.339	80.89
349.551	103.42
349.763	117.76
349.975	46.08
350.187	101.37
350.399	64.51
350.61	168.96
350.822	58.37
351.034	128
351.246	99.33
351.458	70.65
351.669	25.6
351.881	89.09
352.093	21.5
352.305	113.66
352.517	80.89
352.728	93.18
352.94	105.47
353.152	17.41
353.363	54.27
353.575	91.13
353.787	175.1
353.999	105.47
354.21	95.23
354.422	54.27
354.633	15.36
354.845	78.85
355.057	44.03
355.268	68.61
355.48	58.37
355.692	72.7
355.903	128
356.115	60.42
356.326	52.22
356.538	138.24
356.749	37.89
356.961	146.43
357.172	70.65
357.384	87.04
357.595	68.61
357.807	101.37
358.018	60.42
358.23	78.85
358.441	87.04
358.653	58.37
358.864	33.79
359.075	80.89
359.287	70.65
359.498	105.47
359.709	7.17
359.921	58.37
360.132	66.56
360.344	105.47
360.555	62.46
360.766	-1.02
360.977	-33.79
361.189	119.81
361.4	33.79
361.611	52.22
361.823	64.51
362.034	99.33
362.245	70.65
362.456	117.76
362.667	80.89
362.879	56.32
363.09	97.28
363.301	60.42
363.512	78.85
363.723	68.61
363.935	64.51
364.146	142.33
364.357	76.8
364.568	48.13
364.779	41.98
364.99	97.28
365.201	84.99
365.412	123.9
365.623	70.65
365.834	66.56
366.045	-7.17
366.256	97.28
366.467	58.37
366.678	9.22
366.889	115.71
367.1	37.89
367.311	62.46
367.522	156.67
367.733	52.22
367.944	72.7
368.155	123.9
368.366	121.85
368.577	74.75
368.788	107.52
368.999	15.36
369.209	74.75
369.42	109.57
369.631	76.8
369.842	101.37
370.053	84.99
370.264	70.65
370.474	109.57
370.685	91.13
370.896	84.99
371.107	93.18
371.317	52.22
371.528	58.37
371.739	91.13
371.95	99.33
372.16	11.26
372.371	13.31
372.582	97.28
372.792	82.94
373.003	89.09
373.214	80.89
373.424	64.51
373.635	72.7
373.846	58.37
374.056	95.23
374.267	84.99
374.477	93.18
374.688	76.8
374.898	74.75
375.109	93.18
375.319	132.09
375.53	74.75
375.74	160.77
375.951	76.8
376.161	64.51
376.372	97.28
376.582	136.19
376.793	62.46
377.003	64.51
377.214	-15.36
377.424	93.18
377.635	113.66
377.845	58.37
378.055	150.53
378.266	19.46
378.476	23.55
378.686	60.42
378.897	91.13
379.107	52.22
379.317	148.48
379.528	72.7
379.738	105.47
379.948	13.31
380.158	27.65
380.369	58.37
380.579	39.94
380.789	130.05
380.999	58.37
381.21	76.8
381.42	56.32
381.63	93.18
381.84	105.47
382.05	105.47
382.261	136.19
382.471	89.09
382.681	91.13
382.891	62.46
383.101	93.18
383.311	132.09
383.521	76.8
383.731	64.51
383.941	121.85
384.151	44.03
384.361	152.57
384.571	58.37
384.781	166.91
384.991	84.99
385.201	113.66
385.411	70.65
385.621	25.6
385.831	166.91
386.041	187.39
386.251	87.04
386.461	29.7
386.671	97.28
386.881	19.46
387.091	89.09
387.301	99.33
387.511	89.09
387.72	91.13
387.93	19.46
388.14	211.96
388.35	138.24
388.56	144.38
388.769	29.7
388.979	82.94
389.189	128
389.399	93.18
389.609	29.7
389.818	52.22
390.028	136.19
390.238	136.19
390.447	113.66
390.657	99.33
390.867	99.33
391.076	97.28
391.286	21.5
391.496	121.85
391.705	52.22
391.915	125.95
392.125	117.76
392.334	150.53
392.544	125.95
392.753	105.47
392.963	72.7
393.172	179.2
393.382	68.61
393.591	101.37
393.801	13.31
394.01	60.42
394.22	76.8
394.429	82.94
394.639	56.32
394.848	109.57
395.058	173.05
395.267	66.56
395.477	117.76
395.686	125.95
395.895	162.81
396.105	144.38
396.314	179.2
396.524	97.28
396.733	95.23
396.942	89.09
397.152	95.23
397.361	119.81
397.57	158.72
397.78	173.05
397.989	138.24
398.198	52.22
398.407	201.72
398.617	95.23
398.826	171.01
399.035	138.24
399.244	168.96
399.453	115.71
399.663	156.67
399.872	146.43
400.081	105.47
400.29	150.53
400.499	132.09
400.708	136.19
400.917	113.66
401.127	107.52
401.336	105.47
401.545	138.24
401.754	183.29
401.963	154.62
402.172	148.48
402.381	152.57
402.59	177.15
402.799	150.53
403.008	142.33
403.217	193.53
403.426	168.96
403.635	91.13
403.844	158.72
404.053	277.5
404.262	216.06
404.471	146.43
404.68	181.25
404.888	154.62
405.097	201.72
405.306	222.2
405.515	142.33
405.724	248.83
405.933	220.16
406.142	230.4
406.35	207.87
406.559	238.59
406.768	171.01
406.977	271.36
407.185	297.98
407.394	232.44
407.603	283.64
407.812	252.92
408.02	275.45
408.229	300.03
408.438	230.4
408.646	252.92
408.855	326.65
409.064	326.65
409.272	285.69
409.481	318.46
409.69	396.28
409.898	336.89
410.107	316.41
410.315	386.04
410.524	371.71
410.733	355.32
410.941	322.56
411.15	490.49
411.358	461.82
411.567	478.2
411.775	439.29
411.984	459.77
412.192	474.1
412.401	519.16
412.609	580.6
412.818	658.42
413.026	619.51
413.234	730.1
413.443	599.03
413.651	625.65
413.86	732.15
414.068	693.24
414.276	760.82
414.485	744.44
414.693	744.44
414.901	863.22
415.11	875.51
415.318	781.3
415.526	945.14
415.734	934.9
415.943	850.93
416.151	947.19
416.359	1008.62
416.567	1029.1
416.776	1106.93
416.984	1096.69
417.192	1207.28
417.4	1108.98
417.608	1194.99
417.817	1293.29
418.025	1283.05
418.233	1379.31
418.441	1276.91
418.649	1383.4
418.857	1553.38
419.065	1596.39
419.273	1436.65
419.481	1491.95
419.689	1557.48
419.897	1729.51
420.105	1774.56
420.313	1801.19
420.521	1872.87
420.729	1870.82
420.937	1973.22
421.145	2032.61
421.353	2145.25
421.561	2100.19
421.769	2274.27
421.977	2421.72
422.185	2454.49
422.393	2503.64
422.601	2628.57
422.809	2642.9
423.017	2782.17
423.224	2857.94
423.432	2892.76
423.64	2849.75
423.848	3187.66
424.056	3001.3
424.263	3328.97
424.471	3331.02
424.679	3306.45
424.887	3509.19
425.094	3650.5
425.302	3634.12
425.51	3834.82
425.718	3865.54
425.925	3988.42
426.133	4142.02
426.341	4324.29
426.548	4467.64
426.756	4484.03
426.964	4662.2
427.171	4963.25
427.379	4987.83
427.586	5036.98
427.794	5094.32
428.001	5512.11
428.209	5835.69
428.417	5594.03
428.624	6155.17
428.832	6054.82
429.039	6110.11
429.247	5936.04
429.454	6644.63
429.662	6851.48
429.869	6532
430.076	6947.73
430.284	6914.97
430.491	7013.27
430.699	7549.84
430.906	7377.81
431.114	7629.71
431.321	7633.8
431.528	8121.22
431.736	8479.61
431.943	8985.46
432.15	8584.06
432.358	8715.13
432.565	9026.42
432.772	9161.59
432.979	9497.46
433.187	9730.92
433.394	9825.13
433.601	10638.17
433.808	10556.25
434.016	10380.13
434.223	11248.47
434.43	11649.87
434.637	11354.96
434.844	12106.57
435.052	12227.4
435.259	12397.38
435.466	12387.14
435.673	11795.28
435.88	13038.39
436.087	13591.34
436.294	13359.92
436.501	13237.05
436.708	13488.95
436.915	14181.16
437.122	14748.45
437.329	14748.45
437.537	15239.96
437.743	15420.18
437.95	15282.97
438.157	15827.73
438.364	16495.36
438.571	16737.02
438.778	16583.43
438.985	18162.41
439.192	17603.32
439.399	17953.52
439.606	17885.94
439.813	18670.31
440.02	19700.44
440.227	19301.08
440.433	19127
440.64	19870.42
440.847	19743.44
441.054	20198.09
441.261	21451.45
441.467	20998.85
441.674	21570.23
441.881	22348.46
442.088	22403.75
442.294	22141.61
442.501	22837.92
442.708	23372.44
442.914	24273.55
443.121	25492.09
443.328	24470.15
443.534	26548.84
443.741	25193.09
443.948	24930.95
444.154	26989.16
444.361	26681.96
444.568	27044.45
444.774	26935.91
444.981	27404.89
445.187	28117.59
445.394	29160
445.6	28822.09
445.807	31588.89
446.013	30022.2
446.22	30659.12
446.426	31773.21
446.633	32410.13
446.839	33032.71
447.046	31980.06
447.252	33772.03
447.459	33659.39
447.665	33409.54
447.871	34972.14
448.078	36360.66
448.284	34738.67
448.491	35322.34
448.697	36946.38
448.903	37728.7
449.11	37618.11
449.316	36743.63
449.522	37341.64
449.728	38517.17
449.935	38769.07
450.141	38791.6
450.347	39952.8
450.553	38470.07
450.76	38963.63
450.966	39971.23
451.172	39934.37
451.378	40632.72
451.584	39678.37
451.791	41019.79
451.997	40917.39
452.203	41298.31
452.409	41034.13
452.615	41232.78
452.821	39653.79
453.027	39242.15
453.233	40901.01
453.44	39362.98
453.646	40446.36
453.852	40098.2
454.058	40604.05
454.264	39131.56
454.47	40247.71
454.676	39164.33
454.882	40763.79
455.088	36919.76
455.294	37472.71
455.5	37847.49
455.705	38293.94
455.911	36956.62
456.117	36213.21
456.323	35545.57
456.529	33481.22
456.735	35377.64
456.941	34535.92
457.147	33772.03
457.352	32711.18
457.558	32350.74
457.764	32391.7
457.97	31951.38
458.176	31238.69
458.381	30851.63
458.587	29315.65
458.793	29325.89
458.999	28068.44
459.204	29909.56
459.41	29231.68
459.616	27380.32
459.821	27365.98
460.027	27245.15
460.233	26784.36
460.438	25051.78
460.644	25793.14
460.85	24171.15
461.055	24087.18
461.261	23980.69
461.466	22282.92
461.672	21578.42
461.878	22907.55
462.083	21498.55
462.289	21177.02
462.494	20966.08
462.7	20038.35
462.905	19536.6
463.111	20042.45
463.316	20323.02
463.522	20112.08
463.727	19847.89
463.932	19948.24
464.138	19528.41
464.343	19706.58
464.549	18934.5
464.754	19872.46
464.959	19555.03
465.165	19372.76
465.37	18651.88
465.575	18279.15
465.781	19139.29
465.986	18942.69
466.191	18541.29
466.397	18166.51
466.602	17326.84
466.807	17550.07
467.012	18021.1
467.218	17742.58
467.423	17490.68
467.628	17560.31
