Data from USB4F104151__153__11-08-27-570.txt Node

Date: Wed Mar 12 11:08:27 EDT 2025
User: louis
Spectrometer: USB4F10415
Trigger mode: 4
Integration Time (sec): 2.000000E-2
Scans to average: 1
Electric dark correction enabled: true
Nonlinearity correction enabled: false
Boxcar width: 0
XAxis mode: Wavelengths
Number of Pixels in Spectrum: 3648
>>>>>Begin Spectral Data<<<<<
178.204	-52.39
178.424	-52.39
178.644	-52.39
178.864	-93.35
179.084	-70.83
179.304	-44.2
179.524	25.43
179.744	-54.44
179.964	25.43
180.184	9.05
180.404	-58.54
180.624	78.68
180.844	7
181.064	25.43
181.283	0.85
181.503	33.62
181.723	-48.3
181.943	-70.83
182.163	54.1
182.383	7
182.602	99.16
182.822	31.57
183.042	9.05
183.262	-15.53
183.482	33.62
183.701	-27.82
183.921	82.77
184.141	-13.48
184.361	17.24
184.58	86.87
184.8	4.95
185.02	29.52
185.239	78.68
185.459	41.81
185.679	39.76
185.898	13.14
186.118	103.25
186.338	60.24
186.557	35.67
186.777	-9.39
186.997	84.82
187.216	15.19
187.436	47.96
187.655	86.87
187.875	39.76
188.095	-46.25
188.314	-15.53
188.534	45.91
188.753	17.24
188.973	-23.72
189.192	90.96
189.412	-25.77
189.631	2.9
189.851	11.09
190.07	11.09
190.29	25.43
190.509	-42.15
190.729	-19.63
190.948	-36.01
191.168	60.24
191.387	2.9
191.607	62.29
191.826	9.05
192.045	-52.39
192.265	52.05
192.484	-11.43
192.704	31.57
192.923	-19.63
193.142	93.01
193.362	-19.63
193.581	15.19
193.8	33.62
194.02	9.05
194.239	-9.39
194.458	60.24
194.678	45.91
194.897	82.77
195.116	76.63
195.335	23.38
195.555	13.14
195.774	74.58
195.993	74.58
196.212	37.72
196.432	19.29
196.651	-3.24
196.87	29.52
197.089	64.34
197.308	23.38
197.528	52.05
197.747	2.9
197.966	-42.15
198.185	23.38
198.404	-17.58
198.623	52.05
198.842	23.38
199.062	-5.29
199.281	45.91
199.5	-29.87
199.719	62.29
199.938	41.81
200.157	43.86
200.376	15.19
200.595	13.14
200.814	31.57
201.033	78.68
201.252	25.43
201.471	47.96
201.69	115.54
201.909	76.63
202.128	25.43
202.347	90.96
202.566	-52.39
202.785	66.39
203.004	17.24
203.223	146.26
203.442	19.29
203.661	62.29
203.879	41.81
204.098	47.96
204.317	9.05
204.536	90.96
204.755	39.76
204.974	-9.39
205.193	35.67
205.411	11.09
205.63	64.34
205.849	70.48
206.068	45.91
206.287	29.52
206.505	78.68
206.724	-3.24
206.943	31.57
207.162	-13.48
207.381	17.24
207.599	-9.39
207.818	35.67
208.037	45.91
208.255	-31.91
208.474	97.11
208.693	-7.34
208.911	-15.53
209.13	39.76
209.349	90.96
209.567	29.52
209.786	52.05
210.005	-11.43
210.223	15.19
210.442	-66.73
210.661	29.52
210.879	0.85
211.098	45.91
211.316	17.24
211.535	41.81
211.753	33.62
211.972	43.86
212.191	27.48
212.409	70.48
212.628	29.52
212.846	-15.53
213.065	35.67
213.283	84.82
213.502	27.48
213.72	-17.58
213.938	21.33
214.157	17.24
214.375	62.29
214.594	31.57
214.812	-17.58
215.031	54.1
215.249	29.52
215.467	64.34
215.686	-7.34
215.904	82.77
216.122	84.82
216.341	78.68
216.559	-3.24
216.778	43.86
216.996	23.38
217.214	15.19
217.432	-17.58
217.651	21.33
217.869	7
218.087	-52.39
218.306	45.91
218.524	-40.11
218.742	21.33
218.96	7
219.179	-27.82
219.397	21.33
219.615	25.43
219.833	-17.58
220.051	11.09
220.27	4.95
220.488	72.53
220.706	7
220.924	-29.87
221.142	31.57
221.36	-27.82
221.578	-23.72
221.796	-1.19
222.015	58.2
222.233	-36.01
222.451	56.15
222.669	29.52
222.887	37.72
223.105	-13.48
223.323	-33.96
223.541	56.15
223.759	47.96
223.977	25.43
224.195	56.15
224.413	-9.39
224.631	47.96
224.849	-5.29
225.067	33.62
225.285	17.24
225.503	13.14
225.721	-46.25
225.939	11.09
226.157	56.15
226.375	70.48
226.592	11.09
226.81	-11.43
227.028	-62.63
227.246	39.76
227.464	31.57
227.682	66.39
227.9	-33.96
228.117	-13.48
228.335	33.62
228.553	37.72
228.771	19.29
228.989	37.72
229.206	-50.35
229.424	56.15
229.642	4.95
229.86	88.92
230.077	111.44
230.295	-89.26
230.513	82.77
230.731	60.24
230.948	72.53
231.166	66.39
231.384	29.52
231.601	13.14
231.819	93.01
232.037	56.15
232.254	0.85
232.472	58.2
232.689	-1.19
232.907	33.62
233.125	68.44
233.342	45.91
233.56	-87.21
233.777	41.81
233.995	25.43
234.213	41.81
234.43	72.53
234.648	9.05
234.865	17.24
235.083	52.05
235.3	68.44
235.518	103.25
235.735	37.72
235.953	35.67
236.17	84.82
236.388	37.72
236.605	47.96
236.822	4.95
237.04	-17.58
237.257	33.62
237.475	41.81
237.692	0.85
237.909	68.44
238.127	33.62
238.344	99.16
238.562	133.97
238.779	19.29
238.996	68.44
239.214	21.33
239.431	50
239.648	21.33
239.865	45.91
240.083	27.48
240.3	86.87
240.517	13.14
240.735	-13.48
240.952	25.43
241.169	41.81
241.386	-46.25
241.603	31.57
241.821	72.53
242.038	35.67
242.255	19.29
242.472	-27.82
242.689	4.95
242.907	17.24
243.124	50
243.341	35.67
243.558	33.62
243.775	4.95
243.992	52.05
244.209	52.05
244.426	70.48
244.643	74.58
244.86	50
245.078	109.4
245.295	33.62
245.512	19.29
245.729	19.29
245.946	21.33
246.163	41.81
246.38	43.86
246.597	19.29
246.814	17.24
247.031	78.68
247.248	50
247.464	84.82
247.681	82.77
247.898	-27.82
248.115	95.06
248.332	9.05
248.549	0.85
248.766	82.77
248.983	35.67
249.2	-1.19
249.417	68.44
249.633	-1.19
249.85	2.9
250.067	45.91
250.284	-15.53
250.501	70.48
250.717	54.1
250.934	58.2
251.151	23.38
251.368	9.05
251.585	125.78
251.801	25.43
252.018	9.05
252.235	68.44
252.451	0.85
252.668	17.24
252.885	-3.24
253.102	19.29
253.318	19.29
253.535	-7.34
253.752	74.58
253.968	2.9
254.185	41.81
254.401	58.2
254.618	50
254.835	60.24
255.051	82.77
255.268	74.58
255.484	52.05
255.701	52.05
255.917	7
256.134	31.57
256.351	90.96
256.567	27.48
256.784	58.2
257	29.52
257.217	41.81
257.433	56.15
257.65	107.35
257.866	50
258.082	23.38
258.299	-15.53
258.515	50
258.732	-19.63
258.948	50
259.165	50
259.381	2.9
259.597	-23.72
259.814	66.39
260.03	82.77
260.246	29.52
260.463	-3.24
260.679	72.53
260.895	29.52
261.112	103.25
261.328	-11.43
261.544	-1.19
261.761	33.62
261.977	21.33
262.193	-36.01
262.409	23.38
262.626	97.11
262.842	-13.48
263.058	-23.72
263.274	146.26
263.49	25.43
263.707	105.3
263.923	50
264.139	-9.39
264.355	45.91
264.571	80.72
264.787	86.87
265.004	7
265.22	13.14
265.436	-17.58
265.652	95.06
265.868	45.91
266.084	-3.24
266.3	-42.15
266.516	47.96
266.732	-7.34
266.948	35.67
267.164	13.14
267.38	33.62
267.596	17.24
267.812	105.3
268.028	33.62
268.244	41.81
268.46	-5.29
268.676	39.76
268.892	-25.77
269.108	0.85
269.324	15.19
269.54	9.05
269.756	68.44
269.972	54.1
270.188	39.76
270.403	23.38
270.619	50
270.835	-5.29
271.051	35.67
271.267	2.9
271.483	35.67
271.698	185.17
271.914	31.57
272.13	70.48
272.346	60.24
272.562	2.9
272.777	-7.34
272.993	35.67
273.209	-7.34
273.425	90.96
273.64	21.33
273.856	7
274.072	33.62
274.287	-7.34
274.503	78.68
274.719	45.91
274.934	4.95
275.15	31.57
275.366	-17.58
275.581	99.16
275.797	-15.53
276.012	2.9
276.228	52.05
276.444	52.05
276.659	-7.34
276.875	29.52
277.09	33.62
277.306	13.14
277.521	21.33
277.737	-27.82
277.952	72.53
278.168	-5.29
278.383	95.06
278.599	-46.25
278.814	86.87
279.03	15.19
279.245	64.34
279.461	60.24
279.676	78.68
279.892	-48.3
280.107	54.1
280.322	52.05
280.538	31.57
280.753	4.95
280.969	-36.01
281.184	62.29
281.399	47.96
281.615	35.67
281.83	109.4
282.045	-7.34
282.26	11.09
282.476	13.14
282.691	58.2
282.906	7
283.122	-1.19
283.337	45.91
283.552	101.2
283.767	-15.53
283.983	99.16
284.198	47.96
284.413	4.95
284.628	60.24
284.843	45.91
285.058	74.58
285.274	43.86
285.489	-23.72
285.704	27.48
285.919	76.63
286.134	33.62
286.349	99.16
286.564	-40.11
286.779	-3.24
286.995	-56.49
287.21	50
287.425	56.15
287.64	33.62
287.855	19.29
288.07	4.95
288.285	62.29
288.5	142.16
288.715	41.81
288.93	-9.39
289.145	56.15
289.36	58.2
289.575	19.29
289.79	54.1
290.004	37.72
290.219	45.91
290.434	-27.82
290.649	13.14
290.864	17.24
291.079	43.86
291.294	35.67
291.509	101.2
291.724	33.62
291.938	-15.53
292.153	56.15
292.368	103.25
292.583	21.33
292.798	70.48
293.012	15.19
293.227	-3.24
293.442	-33.96
293.657	72.53
293.871	54.1
294.086	82.77
294.301	50
294.516	58.2
294.73	66.39
294.945	52.05
295.16	19.29
295.374	97.11
295.589	-19.63
295.804	41.81
296.018	37.72
296.233	68.44
296.447	86.87
296.662	13.14
296.877	74.58
297.091	9.05
297.306	62.29
297.52	76.63
297.735	58.2
297.949	70.48
298.164	-27.82
298.378	23.38
298.593	33.62
298.807	31.57
299.022	45.91
299.236	-9.39
299.451	39.76
299.665	0.85
299.88	76.63
300.094	15.19
300.309	62.29
300.523	4.95
300.737	62.29
300.952	21.33
301.166	54.1
301.381	19.29
301.595	33.62
301.809	29.52
302.024	15.19
302.238	2.9
302.452	76.63
302.667	23.38
302.881	29.52
303.095	62.29
303.309	2.9
303.524	23.38
303.738	-48.3
303.952	-7.34
304.166	21.33
304.381	9.05
304.595	29.52
304.809	19.29
305.023	50
305.237	60.24
305.452	62.29
305.666	4.95
305.88	54.1
306.094	52.05
306.308	64.34
306.522	23.38
306.736	27.48
306.95	29.52
307.164	11.09
307.379	21.33
307.593	88.92
307.807	9.05
308.021	25.43
308.235	4.95
308.449	52.05
308.663	-19.63
308.877	56.15
309.091	58.2
309.305	41.81
309.519	50
309.733	-5.29
309.947	25.43
310.161	31.57
310.374	60.24
310.588	78.68
310.802	54.1
311.016	29.52
311.23	54.1
311.444	66.39
311.658	-42.15
311.872	64.34
312.085	90.96
312.299	19.29
312.513	45.91
312.727	17.24
312.941	74.58
313.154	74.58
313.368	-40.11
313.582	107.35
313.796	19.29
314.009	-23.72
314.223	17.24
314.437	-5.29
314.651	7
314.864	54.1
315.078	70.48
315.292	-11.43
315.505	21.33
315.719	88.92
315.933	82.77
316.146	-25.77
316.36	2.9
316.573	74.58
316.787	43.86
317.001	52.05
317.214	62.29
317.428	41.81
317.641	13.14
317.855	64.34
318.068	27.48
318.282	15.19
318.495	66.39
318.709	60.24
318.922	107.35
319.136	82.77
319.349	66.39
319.563	19.29
319.776	45.91
319.99	2.9
320.203	23.38
320.417	17.24
320.63	54.1
320.843	125.78
321.057	84.82
321.27	-13.48
321.483	56.15
321.697	45.91
321.91	43.86
322.124	62.29
322.337	74.58
322.55	-40.11
322.763	50
322.977	17.24
323.19	2.9
323.403	-19.63
323.617	78.68
323.83	7
324.043	37.72
324.256	54.1
324.469	17.24
324.683	17.24
324.896	43.86
325.109	107.35
325.322	-19.63
325.535	52.05
325.748	15.19
325.962	64.34
326.175	23.38
326.388	50
326.601	-52.39
326.814	27.48
327.027	58.2
327.24	15.19
327.453	-60.59
327.666	56.15
327.879	33.62
328.092	88.92
328.305	70.48
328.518	21.33
328.731	-23.72
328.944	66.39
329.157	37.72
329.37	33.62
329.583	80.72
329.796	97.11
330.009	19.29
330.222	19.29
330.435	35.67
330.648	60.24
330.861	41.81
331.073	39.76
331.286	95.06
331.499	-31.91
331.712	37.72
331.925	29.52
332.138	115.54
332.35	70.48
332.563	25.43
332.776	66.39
332.989	78.68
333.202	31.57
333.414	70.48
333.627	47.96
333.84	45.91
334.053	4.95
334.265	107.35
334.478	88.92
334.691	80.72
334.903	103.25
335.116	86.87
335.329	52.05
335.541	-23.72
335.754	43.86
335.966	52.05
336.179	50
336.392	-11.43
336.604	-68.78
336.817	78.68
337.029	29.52
337.242	54.1
337.454	45.91
337.667	19.29
337.88	95.06
338.092	-5.29
338.305	183.12
338.517	17.24
338.729	23.38
338.942	84.82
339.154	-25.77
339.367	54.1
339.579	107.35
339.792	-42.15
340.004	70.48
340.217	37.72
340.429	66.39
340.641	-19.63
340.854	0.85
341.066	47.96
341.278	33.62
341.491	43.86
341.703	84.82
341.915	-13.48
342.128	52.05
342.34	43.86
342.552	140.12
342.764	11.09
342.977	78.68
343.189	58.2
343.401	50
343.613	-1.19
343.826	54.1
344.038	54.1
344.25	52.05
344.462	-17.58
344.674	64.34
344.886	4.95
345.099	64.34
345.311	78.68
345.523	-1.19
345.735	-25.77
345.947	33.62
346.159	9.05
346.371	-17.58
346.583	-9.39
346.795	66.39
347.007	-15.53
347.219	41.81
347.431	54.1
347.643	72.53
347.855	4.95
348.067	33.62
348.279	-36.01
348.491	76.63
348.703	64.34
348.915	76.63
349.127	-11.43
349.339	131.92
349.551	11.09
349.763	-21.67
349.975	-3.24
350.187	95.06
350.399	35.67
350.61	54.1
350.822	-9.39
351.034	84.82
351.246	27.48
351.458	90.96
351.669	43.86
351.881	7
352.093	127.83
352.305	66.39
352.517	-3.24
352.728	68.44
352.94	60.24
353.152	25.43
353.363	45.91
353.575	43.86
353.787	86.87
353.999	27.48
354.21	123.73
354.422	47.96
354.633	-5.29
354.845	37.72
355.057	37.72
355.268	72.53
355.48	88.92
355.692	-27.82
355.903	35.67
356.115	23.38
356.326	19.29
356.538	90.96
356.749	31.57
356.961	99.16
357.172	21.33
357.384	15.19
357.595	84.82
357.807	80.72
358.018	7
358.23	54.1
358.441	113.49
358.653	-5.29
358.864	43.86
359.075	-15.53
359.287	43.86
359.498	37.72
359.709	23.38
359.921	58.2
360.132	52.05
360.344	54.1
360.555	11.09
360.766	64.34
360.977	60.24
361.189	39.76
361.4	31.57
361.611	109.4
361.823	68.44
362.034	70.48
362.245	29.52
362.456	35.67
362.667	90.96
362.879	33.62
363.09	86.87
363.301	80.72
363.512	45.91
363.723	56.15
363.935	17.24
364.146	54.1
364.357	74.58
364.568	93.01
364.779	-21.67
364.99	45.91
365.201	23.38
365.412	88.92
365.623	29.52
365.834	31.57
366.045	88.92
366.256	19.29
366.467	86.87
366.678	47.96
366.889	39.76
367.1	39.76
367.311	-58.54
367.522	-1.19
367.733	113.49
367.944	23.38
368.155	52.05
368.366	54.1
368.577	45.91
368.788	25.43
368.999	41.81
369.209	23.38
369.42	101.2
369.631	78.68
369.842	0.85
370.053	33.62
370.264	76.63
370.474	-50.35
370.685	27.48
370.896	-3.24
371.107	82.77
371.317	-9.39
371.528	64.34
371.739	107.35
371.95	-1.19
372.16	70.48
372.371	54.1
372.582	76.63
372.792	54.1
373.003	15.19
373.214	23.38
373.424	62.29
373.635	25.43
373.846	66.39
374.056	58.2
374.267	35.67
374.477	66.39
374.688	97.11
374.898	23.38
375.109	27.48
375.319	111.44
375.53	64.34
375.74	86.87
375.951	90.96
376.161	62.29
376.372	127.83
376.582	4.95
376.793	107.35
377.003	60.24
377.214	29.52
377.424	39.76
377.635	80.72
377.845	70.48
378.055	54.1
378.266	119.64
378.476	78.68
378.686	103.25
378.897	88.92
379.107	88.92
379.317	64.34
379.528	-13.48
379.738	86.87
379.948	-38.06
380.158	90.96
380.369	37.72
380.579	74.58
380.789	11.09
380.999	33.62
381.21	60.24
381.42	103.25
381.63	23.38
381.84	31.57
382.05	95.06
382.261	60.24
382.471	21.33
382.681	29.52
382.891	97.11
383.101	84.82
383.311	-3.24
383.521	80.72
383.731	95.06
383.941	107.35
384.151	56.15
384.361	37.72
384.571	37.72
384.781	138.07
384.991	72.53
385.201	101.2
385.411	52.05
385.621	90.96
385.831	52.05
386.041	115.54
386.251	33.62
386.461	88.92
386.671	-31.91
386.881	17.24
387.091	66.39
387.301	60.24
387.511	-3.24
387.72	41.81
387.93	103.25
388.14	107.35
388.35	13.14
388.56	-9.39
388.769	86.87
388.979	107.35
389.189	15.19
389.399	27.48
389.609	95.06
389.818	86.87
390.028	95.06
390.238	101.2
390.447	41.81
390.657	107.35
390.867	-3.24
391.076	-27.82
391.286	123.73
391.496	117.59
391.705	68.44
391.915	95.06
392.125	78.68
392.334	68.44
392.544	80.72
392.753	21.33
392.963	150.36
393.172	80.72
393.382	27.48
393.591	105.3
393.801	11.09
394.01	60.24
394.22	47.96
394.429	60.24
394.639	41.81
394.848	99.16
395.058	88.92
395.267	70.48
395.477	84.82
395.686	133.97
395.895	58.2
396.105	115.54
396.314	29.52
396.524	52.05
396.733	52.05
396.942	45.91
397.152	64.34
397.361	142.16
397.57	15.19
397.78	154.45
397.989	80.72
398.198	58.2
398.407	35.67
398.617	17.24
398.826	58.2
399.035	-25.77
399.244	45.91
399.453	35.67
399.663	45.91
399.872	93.01
400.081	115.54
400.29	117.59
400.499	70.48
400.708	54.1
400.917	129.88
401.127	39.76
401.336	150.36
401.545	121.68
401.754	111.44
401.963	50
402.172	93.01
402.381	31.57
402.59	78.68
402.799	70.48
403.008	199.51
403.217	52.05
403.426	119.64
403.635	56.15
403.844	115.54
404.053	140.12
404.262	23.38
404.471	217.94
404.68	76.63
404.888	160.59
405.097	152.4
405.306	82.77
405.515	95.06
405.724	136.02
405.933	97.11
406.142	125.78
406.35	78.68
406.559	111.44
406.768	45.91
406.977	172.88
407.185	166.74
407.394	115.54
407.603	131.92
407.812	201.55
408.02	217.94
408.229	260.95
408.438	187.22
408.646	215.89
408.855	181.07
409.064	185.17
409.272	193.36
409.481	213.84
409.69	256.85
409.898	129.88
410.107	297.81
410.315	281.43
410.524	211.79
410.733	240.47
410.941	205.65
411.15	291.66
411.358	260.95
411.567	246.61
411.775	361.3
411.984	328.53
412.192	211.79
412.401	308.05
412.609	273.23
412.818	379.73
413.026	312.14
413.234	387.92
413.443	299.86
413.651	355.15
413.86	383.82
414.068	387.92
414.276	400.21
414.485	402.26
414.693	367.44
414.901	486.22
415.11	580.43
415.318	492.37
415.526	484.17
415.734	576.33
415.943	531.28
416.151	590.67
416.359	609.1
416.567	637.77
416.776	727.88
416.984	711.5
417.192	691.02
417.4	703.31
417.608	648.01
417.817	709.45
418.025	754.51
418.233	844.62
418.441	805.71
418.649	850.76
418.857	961.35
419.065	867.14
419.273	904.01
419.481	879.43
419.689	1006.41
419.897	963.4
420.105	1028.93
420.313	1047.37
420.521	1117
420.729	1030.98
420.937	1108.8
421.145	1104.71
421.353	1145.67
421.561	1274.69
421.769	1372.99
421.977	1362.75
422.185	1418.05
422.393	1442.62
422.601	1575.74
422.809	1620.8
423.017	1524.54
423.224	1588.03
423.432	1622.84
423.64	1694.52
423.848	1805.11
424.056	1782.59
424.263	1909.56
424.471	1987.38
424.679	1942.33
424.887	2075.45
425.094	2130.74
425.302	2179.89
425.51	2288.43
425.718	2382.64
425.925	2204.47
426.133	2429.74
426.341	2581.29
426.548	2566.96
426.756	2720.56
426.964	2685.74
427.171	2798.38
427.379	2855.72
427.586	3050.28
427.794	3081
428.001	3195.68
428.209	3181.35
428.417	3304.23
428.624	3463.97
428.832	3506.98
429.039	3492.64
429.247	3527.46
429.454	3726.11
429.662	4141.85
429.869	3760.92
430.076	3992.34
430.284	3885.85
430.491	4086.55
430.699	4375.31
430.906	4416.27
431.114	4664.08
431.321	4598.54
431.528	4848.4
431.736	4866.83
431.943	5133.06
432.15	5008.14
432.358	5163.78
432.565	5372.68
432.772	5376.77
432.979	5784.32
433.187	5769.98
433.394	5819.13
433.601	6198.01
433.808	6009.59
434.016	6060.79
434.223	6402.8
434.43	6806.25
434.637	6572.79
434.844	7111.4
435.052	7101.16
435.259	6974.19
435.466	7207.66
435.673	7135.98
435.88	7570.15
436.087	8075.99
436.294	7926.49
436.501	7834.33
436.708	7944.92
436.915	8188.63
437.122	8549.07
437.329	8565.46
437.537	8862.41
437.743	8966.86
437.95	8864.46
438.157	9380.55
438.364	9587.4
438.571	9708.23
438.778	9509.57
438.985	10320.57
439.192	10142.39
439.399	10420.92
439.606	10173.11
439.813	10595
440.02	11481.77
440.227	11281.07
440.433	11096.75
440.64	11389.61
440.847	11219.63
441.054	11635.36
441.261	12395.16
441.467	12372.63
441.674	12386.97
441.881	12997.26
442.088	12878.48
442.294	12919.44
442.501	13257.36
442.708	13621.89
442.914	13818.5
443.121	14471.8
443.328	14172.8
443.534	15239.79
443.741	14668.41
443.948	14492.28
444.154	15538.79
444.361	15346.28
444.568	15874.66
444.774	15450.73
444.981	15637.09
445.187	16310.88
445.394	16855.64
445.6	16611.93
445.807	18123.33
446.013	17521.23
446.22	17898.05
446.426	18524.73
446.633	18623.03
446.839	19245.62
447.046	18487.87
447.252	19309.1
447.459	19673.64
447.665	19366.45
447.871	20488.73
448.078	21086.74
448.284	20142.63
448.491	20527.64
448.697	21461.52
448.903	21897.74
449.11	21998.09
449.316	21570.06
449.522	21821.96
449.728	22567.42
449.935	22718.97
450.141	22467.07
450.347	23099.89
450.553	22424.06
450.76	22690.3
450.966	23269.87
451.172	23261.68
451.378	23173.62
451.584	23091.7
451.791	23767.53
451.997	23888.36
452.203	23888.36
452.409	23949.8
452.615	23859.69
452.821	22962.68
453.027	22522.37
453.233	23845.35
453.44	22692.35
453.646	22854.14
453.852	22759.93
454.058	23722.48
454.264	22923.77
454.47	23370.22
454.676	22755.83
454.882	23546.35
455.088	21688.84
455.294	21748.23
455.5	22127.11
455.705	22114.82
455.911	21455.37
456.117	20922.9
456.323	20666.91
456.529	19384.88
456.735	20193.83
456.941	19866.15
457.147	19585.58
457.352	18590.27
457.558	18803.25
457.764	18651.7
457.97	18235.97
458.176	17920.58
458.381	17660.49
458.587	16835.16
458.793	16908.88
458.999	16147.04
459.204	17306.19
459.41	16687.7
459.616	15596.14
459.821	15424.11
460.027	15377
460.233	15346.28
460.438	14557.82
460.644	14809.72
460.85	14049.92
461.055	13894.27
461.261	13736.58
461.466	12714.64
461.672	12245.66
461.878	13486.73
462.083	12536.47
462.289	12311.19
462.494	11889.31
462.7	11500.2
462.905	11416.23
463.111	11655.84
463.316	11694.75
463.522	11365.03
463.727	11397.8
463.932	11530.92
464.138	11088.56
464.343	11279.02
464.549	11190.95
464.754	11401.9
464.959	11371.18
465.165	11270.83
465.37	10769.07
465.575	10687.15
465.781	10932.91
465.986	10775.22
466.191	10459.83
466.397	10439.35
466.602	9784
466.807	10160.83
467.012	10408.63
467.218	9986.75
467.423	9900.73
467.628	10334.9
467.833	10441.4
468.038	10132.15
468.244	9900.73
468.449	10087.1
468.654	9894.59
468.859	9827.01
469.064	9759.42
469.269	9577.16
469.474	9353.93
