Data from USB4F104151__46__11-05-35-969.txt Node

Date: Wed Mar 12 11:05:35 EDT 2025
User: louis
Spectrometer: USB4F10415
Trigger mode: 4
Integration Time (sec): 2.000000E-2
Scans to average: 1
Electric dark correction enabled: true
Nonlinearity correction enabled: false
Boxcar width: 0
XAxis mode: Wavelengths
Number of Pixels in Spectrum: 3648
>>>>>Begin Spectral Data<<<<<
178.204	-127.83
178.424	-127.83
178.644	-127.83
178.864	-117.59
179.084	-68.44
179.304	-41.81
179.524	27.82
179.744	-35.67
179.964	95.4
180.184	23.72
180.404	-93.01
180.624	11.43
180.844	-50
181.064	-45.91
181.283	46.25
181.503	19.63
181.723	42.15
181.943	15.53
182.163	46.25
182.383	15.53
182.602	-25.43
182.822	91.31
183.042	5.29
183.262	19.63
183.482	27.82
183.701	11.43
183.921	-60.24
184.141	7.34
184.361	38.06
184.58	-27.48
184.8	27.82
185.02	17.58
185.239	11.43
185.459	60.59
185.679	81.07
185.898	21.67
186.118	50.35
186.338	-23.38
186.557	134.31
186.777	31.91
186.997	-17.24
187.216	50.35
187.436	66.73
187.655	-4.95
187.875	-2.9
188.095	60.59
188.314	54.44
188.534	64.68
188.753	-0.85
188.973	1.19
189.192	-23.38
189.412	21.67
189.631	17.58
189.851	-27.48
190.07	99.5
190.29	-15.19
190.509	25.77
190.729	-13.14
190.948	79.02
191.168	91.31
191.387	93.35
191.607	-15.19
191.826	83.11
192.045	72.87
192.265	56.49
192.484	19.63
192.704	-19.29
192.923	56.49
193.142	95.4
193.362	5.29
193.581	36.01
193.8	1.19
194.02	-15.19
194.239	-4.95
194.458	87.21
194.678	89.26
194.897	31.91
195.116	31.91
195.335	23.72
195.555	68.78
195.774	40.11
195.993	21.67
196.212	-27.48
196.432	27.82
196.651	3.24
196.87	52.39
197.089	50.35
197.308	13.48
197.528	21.67
197.747	-43.86
197.966	5.29
198.185	101.55
198.404	5.29
198.623	76.97
198.842	38.06
199.062	74.92
199.281	33.96
199.5	23.72
199.719	54.44
199.938	-39.76
200.157	1.19
200.376	109.74
200.595	-13.14
200.814	31.91
201.033	50.35
201.252	21.67
201.471	3.24
201.69	-17.24
201.909	42.15
202.128	13.48
202.347	-25.43
202.566	5.29
202.785	-25.43
203.004	-23.38
203.223	62.63
203.442	44.2
203.661	46.25
203.879	-39.76
204.098	-7
204.317	33.96
204.536	56.49
204.755	93.35
204.974	52.39
205.193	-41.81
205.411	72.87
205.63	72.87
205.849	81.07
206.068	56.49
206.287	68.78
206.505	25.77
206.724	109.74
206.943	-9.05
207.162	5.29
207.381	21.67
207.599	5.29
207.818	46.25
208.037	15.53
208.255	-4.95
208.474	25.77
208.693	46.25
208.911	7.34
209.13	70.83
209.349	-4.95
209.567	15.53
209.786	68.78
210.005	36.01
210.223	31.91
210.442	17.58
210.661	-23.38
210.879	74.92
211.098	64.68
211.316	146.6
211.535	15.53
211.753	31.91
211.972	15.53
212.191	42.15
212.409	13.48
212.628	9.39
212.846	15.53
213.065	-21.33
213.283	38.06
213.502	-31.57
213.72	25.77
213.938	87.21
214.157	70.83
214.375	60.59
214.594	-13.14
214.812	1.19
215.031	9.39
215.249	46.25
215.467	3.24
215.686	-2.9
215.904	68.78
216.122	48.3
216.341	15.53
216.559	54.44
216.778	56.49
216.996	72.87
217.214	17.58
217.432	-64.34
217.651	85.16
217.869	23.72
218.087	79.02
218.306	17.58
218.524	31.91
218.742	-11.09
218.96	62.63
219.179	-4.95
219.397	-7
219.615	99.5
219.833	126.12
220.051	15.53
220.27	85.16
220.488	89.26
220.706	52.39
220.924	29.87
221.142	-7
221.36	17.58
221.578	70.83
221.796	-17.24
222.015	13.48
222.233	52.39
222.451	29.87
222.669	36.01
222.887	54.44
223.105	13.48
223.323	128.17
223.541	74.92
223.759	58.54
223.977	-31.57
224.195	11.43
224.413	29.87
224.631	64.68
224.849	-41.81
225.067	83.11
225.285	38.06
225.503	-4.95
225.721	25.77
225.939	62.63
226.157	-2.9
226.375	109.74
226.592	-68.44
226.81	23.72
227.028	29.87
227.246	-2.9
227.464	5.29
227.682	89.26
227.9	15.53
228.117	23.72
228.335	31.91
228.553	5.29
228.771	40.11
228.989	46.25
229.206	29.87
229.424	-21.33
229.642	-37.72
229.86	33.96
230.077	33.96
230.295	40.11
230.513	40.11
230.731	56.49
230.948	42.15
231.166	44.2
231.384	-29.52
231.601	-11.09
231.819	29.87
232.037	-0.85
232.254	-31.57
232.472	76.97
232.689	66.73
232.907	-2.9
233.125	-23.38
233.342	15.53
233.56	31.91
233.777	5.29
233.995	81.07
234.213	79.02
234.43	91.31
234.648	44.2
234.865	48.3
235.083	95.4
235.3	72.87
235.518	3.24
235.735	95.4
235.953	25.77
236.17	25.77
236.388	54.44
236.605	21.67
236.822	70.83
237.04	27.82
237.257	9.39
237.475	-19.29
237.692	74.92
237.909	38.06
238.127	27.82
238.344	21.67
238.562	-4.95
238.779	3.24
238.996	93.35
239.214	46.25
239.431	62.63
239.648	40.11
239.865	83.11
240.083	40.11
240.3	33.96
240.517	31.91
240.735	79.02
240.952	44.2
241.169	17.58
241.386	29.87
241.603	25.77
241.821	9.39
242.038	-13.14
242.255	111.78
242.472	-17.24
242.689	27.82
242.907	27.82
243.124	15.53
243.341	60.59
243.558	74.92
243.775	-0.85
243.992	58.54
244.209	56.49
244.426	70.83
244.643	21.67
244.86	83.11
245.078	72.87
245.295	38.06
245.512	-23.38
245.729	29.87
245.946	27.82
246.163	48.3
246.38	3.24
246.597	70.83
246.814	113.83
247.031	50.35
247.248	3.24
247.464	17.58
247.681	31.91
247.898	17.58
248.115	-0.85
248.332	-11.09
248.549	-19.29
248.766	31.91
248.983	29.87
249.2	85.16
249.417	66.73
249.633	46.25
249.85	62.63
250.067	31.91
250.284	23.72
250.501	68.78
250.717	42.15
250.934	21.67
251.151	-4.95
251.368	-11.09
251.585	93.35
251.801	-33.62
252.018	19.63
252.235	103.59
252.451	7.34
252.668	-56.15
252.885	15.53
253.102	-31.57
253.318	-43.86
253.535	-35.67
253.752	23.72
253.968	-9.05
254.185	-0.85
254.401	-7
254.618	91.31
254.835	-19.29
255.051	56.49
255.268	15.53
255.484	29.87
255.701	-15.19
255.917	72.87
256.134	17.58
256.351	23.72
256.567	-41.81
256.784	-13.14
257	-66.39
257.217	50.35
257.433	21.67
257.65	9.39
257.866	38.06
258.082	31.91
258.299	-19.29
258.515	58.54
258.732	85.16
258.948	60.59
259.165	-21.33
259.381	15.53
259.597	70.83
259.814	1.19
260.03	33.96
260.246	5.29
260.463	3.24
260.679	83.11
260.895	21.67
261.112	-4.95
261.328	46.25
261.544	25.77
261.761	95.4
261.977	74.92
262.193	27.82
262.409	64.68
262.626	76.97
262.842	101.55
263.058	38.06
263.274	27.82
263.49	13.48
263.707	44.2
263.923	5.29
264.139	-13.14
264.355	38.06
264.571	83.11
264.787	29.87
265.004	-2.9
265.22	38.06
265.436	25.77
265.652	48.3
265.868	27.82
266.084	33.96
266.3	-23.38
266.516	-68.44
266.732	40.11
266.948	42.15
267.164	7.34
267.38	68.78
267.596	66.73
267.812	66.73
268.028	44.2
268.244	74.92
268.46	44.2
268.676	36.01
268.892	31.91
269.108	-13.14
269.324	21.67
269.54	-4.95
269.756	33.96
269.972	13.48
270.188	-23.38
270.403	-2.9
270.619	-25.43
270.835	42.15
271.051	3.24
271.267	13.48
271.483	23.72
271.698	-7
271.914	56.49
272.13	33.96
272.346	87.21
272.562	97.45
272.777	42.15
272.993	68.78
273.209	48.3
273.425	11.43
273.64	81.07
273.856	46.25
274.072	29.87
274.287	-17.24
274.503	48.3
274.719	33.96
274.934	5.29
275.15	-58.2
275.366	40.11
275.581	15.53
275.797	15.53
276.012	19.63
276.228	42.15
276.444	52.39
276.659	46.25
276.875	-11.09
277.09	-9.05
277.306	7.34
277.521	54.44
277.737	95.4
277.952	33.96
278.168	-29.52
278.383	44.2
278.599	46.25
278.814	21.67
279.03	21.67
279.245	-39.76
279.461	27.82
279.676	38.06
279.892	-23.38
280.107	29.87
280.322	64.68
280.538	-4.95
280.753	-4.95
280.969	9.39
281.184	38.06
281.399	40.11
281.615	64.68
281.83	21.67
282.045	19.63
282.26	54.44
282.476	83.11
282.691	54.44
282.906	19.63
283.122	27.82
283.337	50.35
283.552	40.11
283.767	44.2
283.983	21.67
284.198	15.53
284.413	64.68
284.628	33.96
284.843	21.67
285.058	21.67
285.274	-0.85
285.489	-25.43
285.704	44.2
285.919	19.63
286.134	95.4
286.349	44.2
286.564	13.48
286.779	105.64
286.995	13.48
287.21	-11.09
287.425	42.15
287.64	44.2
287.855	7.34
288.07	-4.95
288.285	64.68
288.5	40.11
288.715	9.39
288.93	50.35
289.145	25.77
289.36	7.34
289.575	56.49
289.79	33.96
290.004	3.24
290.219	-41.81
290.434	-21.33
290.649	56.49
290.864	-21.33
291.079	7.34
291.294	29.87
291.509	134.31
291.724	9.39
291.938	83.11
292.153	60.59
292.368	56.49
292.583	17.58
292.798	44.2
293.012	48.3
293.227	11.43
293.442	29.87
293.657	11.43
293.871	111.78
294.086	-4.95
294.301	-21.33
294.516	93.35
294.73	48.3
294.945	-19.29
295.16	50.35
295.374	58.54
295.589	95.4
295.804	-29.52
296.018	76.97
296.233	85.16
296.447	50.35
296.662	7.34
296.877	60.59
297.091	-58.2
297.306	42.15
297.52	72.87
297.735	9.39
297.949	3.24
298.164	50.35
298.378	21.67
298.593	62.63
298.807	68.78
299.022	-25.43
299.236	105.64
299.451	62.63
299.665	19.63
299.88	40.11
300.094	62.63
300.309	21.67
300.523	5.29
300.737	27.82
300.952	68.78
301.166	1.19
301.381	66.73
301.595	95.4
301.809	19.63
302.024	9.39
302.238	42.15
302.452	58.54
302.667	21.67
302.881	91.31
303.095	3.24
303.309	50.35
303.524	11.43
303.738	29.87
303.952	5.29
304.166	111.78
304.381	-0.85
304.595	74.92
304.809	-19.29
305.023	5.29
305.237	-39.76
305.452	42.15
305.666	40.11
305.88	66.73
306.094	85.16
306.308	101.55
306.522	66.73
306.736	97.45
306.95	101.55
307.164	-2.9
307.379	9.39
307.593	68.78
307.807	89.26
308.021	21.67
308.235	62.63
308.449	36.01
308.663	52.39
308.877	72.87
309.091	-2.9
309.305	111.78
309.519	-39.76
309.733	87.21
309.947	11.43
310.161	79.02
310.374	-13.14
310.588	124.07
310.802	-54.1
311.016	25.77
311.23	101.55
311.444	-9.05
311.658	42.15
311.872	97.45
312.085	21.67
312.299	5.29
312.513	83.11
312.727	66.73
312.941	-2.9
313.154	79.02
313.368	42.15
313.582	-0.85
313.796	93.35
314.009	60.59
314.223	27.82
314.437	15.53
314.651	60.59
314.864	38.06
315.078	-2.9
315.292	-31.57
315.505	29.87
315.719	7.34
315.933	50.35
316.146	42.15
316.36	33.96
316.573	-23.38
316.787	27.82
317.001	44.2
317.214	40.11
317.428	66.73
317.641	-13.14
317.855	70.83
318.068	46.25
318.282	95.4
318.495	66.73
318.709	36.01
318.922	-9.05
319.136	64.68
319.349	29.87
319.563	21.67
319.776	33.96
319.99	15.53
320.203	101.55
320.417	54.44
320.63	21.67
320.843	33.96
321.057	-11.09
321.27	62.63
321.483	97.45
321.697	46.25
321.91	111.78
322.124	54.44
322.337	15.53
322.55	-47.96
322.763	46.25
322.977	60.59
323.19	21.67
323.403	48.3
323.617	56.49
323.83	169.13
324.043	40.11
324.256	-11.09
324.469	-35.67
324.683	19.63
324.896	15.53
325.109	64.68
325.322	27.82
325.535	124.07
325.748	46.25
325.962	27.82
326.175	23.72
326.388	101.55
326.601	11.43
326.814	85.16
327.027	-19.29
327.24	81.07
327.453	91.31
327.666	36.01
327.879	76.97
328.092	31.91
328.305	54.44
328.518	50.35
328.731	-29.52
328.944	31.91
329.157	36.01
329.37	25.77
329.583	27.82
329.796	136.36
330.009	60.59
330.222	66.73
330.435	13.48
330.648	72.87
330.861	-7
331.073	74.92
331.286	52.39
331.499	52.39
331.712	19.63
331.925	72.87
332.138	-37.72
332.35	105.64
332.563	17.58
332.776	87.21
332.989	5.29
333.202	17.58
333.414	5.29
333.627	17.58
333.84	31.91
334.053	38.06
334.265	1.19
334.478	95.4
334.691	3.24
334.903	-19.29
335.116	74.92
335.329	42.15
335.541	68.78
335.754	91.31
335.966	-15.19
336.179	83.11
336.392	87.21
336.604	76.97
336.817	85.16
337.029	83.11
337.242	56.49
337.454	33.96
337.667	101.55
337.88	21.67
338.092	58.54
338.305	68.78
338.517	38.06
338.729	91.31
338.942	13.48
339.154	-27.48
339.367	11.43
339.579	60.59
339.792	38.06
340.004	142.5
340.217	62.63
340.429	3.24
340.641	74.92
340.854	19.63
341.066	-37.72
341.278	142.5
341.491	160.94
341.703	76.97
341.915	-2.9
342.128	89.26
342.34	-19.29
342.552	83.11
342.764	119.98
342.977	5.29
343.189	52.39
343.401	48.3
343.613	17.58
343.826	62.63
344.038	36.01
344.25	85.16
344.462	74.92
344.674	36.01
344.886	48.3
345.099	31.91
345.311	46.25
345.523	-0.85
345.735	19.63
345.947	-4.95
346.159	50.35
346.371	81.07
346.583	154.79
346.795	58.54
347.007	-15.19
347.219	17.58
347.431	38.06
347.643	42.15
347.855	42.15
348.067	56.49
348.279	-27.48
348.491	109.74
348.703	3.24
348.915	56.49
349.127	-7
349.339	5.29
349.551	33.96
349.763	11.43
349.975	-2.9
350.187	23.72
350.399	54.44
350.61	40.11
350.822	56.49
351.034	40.11
351.246	21.67
351.458	60.59
351.669	21.67
351.881	87.21
352.093	50.35
352.305	134.31
352.517	17.58
352.728	97.45
352.94	60.59
353.152	15.53
353.363	46.25
353.575	66.73
353.787	68.78
353.999	5.29
354.21	95.4
354.422	117.93
354.633	76.97
354.845	19.63
355.057	48.3
355.268	44.2
355.48	31.91
355.692	46.25
355.903	-9.05
356.115	25.77
356.326	9.39
356.538	52.39
356.749	103.59
356.961	70.83
357.172	11.43
357.384	44.2
357.595	154.79
357.807	50.35
358.018	7.34
358.23	44.2
358.441	42.15
358.653	87.21
358.864	-52.05
359.075	46.25
359.287	81.07
359.498	74.92
359.709	33.96
359.921	23.72
360.132	-19.29
360.344	87.21
360.555	64.68
360.766	48.3
360.977	107.69
361.189	21.67
361.4	79.02
361.611	66.73
361.823	23.72
362.034	103.59
362.245	70.83
362.456	33.96
362.667	21.67
362.879	-29.52
363.09	25.77
363.301	9.39
363.512	23.72
363.723	-7
363.935	54.44
364.146	68.78
364.357	44.2
364.568	83.11
364.779	52.39
364.99	95.4
365.201	-7
365.412	74.92
365.623	31.91
365.834	132.26
366.045	89.26
366.256	13.48
366.467	105.64
366.678	38.06
366.889	23.72
367.1	27.82
367.311	101.55
367.522	50.35
367.733	70.83
367.944	128.17
368.155	91.31
368.366	66.73
368.577	-4.95
368.788	138.41
368.999	50.35
369.209	15.53
369.42	83.11
369.631	58.54
369.842	87.21
370.053	62.63
370.264	42.15
370.474	58.54
370.685	42.15
370.896	33.96
371.107	83.11
371.317	25.77
371.528	38.06
371.739	103.59
371.95	-25.43
372.16	105.64
372.371	5.29
372.582	33.96
372.792	13.48
373.003	113.83
373.214	9.39
373.424	3.24
373.635	64.68
373.846	105.64
374.056	87.21
374.267	56.49
374.477	79.02
374.688	-23.38
374.898	27.82
375.109	42.15
375.319	-33.62
375.53	27.82
375.74	72.87
375.951	17.58
376.161	58.54
376.372	52.39
376.582	-11.09
376.793	13.48
377.003	38.06
377.214	5.29
377.424	-0.85
377.635	19.63
377.845	85.16
378.055	42.15
378.266	29.87
378.476	3.24
378.686	19.63
378.897	19.63
379.107	85.16
379.317	52.39
379.528	19.63
379.738	50.35
379.948	52.39
380.158	-80.72
380.369	36.01
380.579	60.59
380.789	21.67
380.999	81.07
381.21	95.4
381.42	74.92
381.63	40.11
381.84	17.58
382.05	52.39
382.261	72.87
382.471	-19.29
382.681	54.44
382.891	17.58
383.101	97.45
383.311	31.91
383.521	27.82
383.731	93.35
383.941	29.87
384.151	31.91
384.361	89.26
384.571	62.63
384.781	-2.9
384.991	119.98
385.201	140.46
385.411	15.53
385.621	44.2
385.831	85.16
386.041	140.46
386.251	62.63
386.461	107.69
386.671	91.31
386.881	62.63
387.091	62.63
387.301	119.98
387.511	9.39
387.72	13.48
387.93	76.97
388.14	79.02
388.35	91.31
388.56	44.2
388.769	17.58
388.979	62.63
389.189	105.64
389.399	36.01
389.609	29.87
389.818	70.83
390.028	99.5
390.238	81.07
390.447	27.82
390.657	42.15
390.867	50.35
391.076	132.26
391.286	97.45
391.496	38.06
391.705	7.34
391.915	3.24
392.125	68.78
392.334	38.06
392.544	27.82
392.753	95.4
392.963	9.39
393.172	70.83
393.382	3.24
393.591	93.35
393.801	68.78
394.01	91.31
394.22	103.59
394.429	79.02
394.639	76.97
394.848	56.49
395.058	111.78
395.267	29.87
395.477	76.97
395.686	136.36
395.895	38.06
396.105	150.7
396.314	142.5
396.524	79.02
396.733	52.39
396.942	58.54
397.152	64.68
397.361	115.88
397.57	25.77
397.78	76.97
397.989	101.55
398.198	115.88
398.407	50.35
398.617	72.87
398.826	103.59
399.035	158.89
399.244	68.78
399.453	111.78
399.663	101.55
399.872	83.11
400.081	21.67
400.29	210.09
400.499	109.74
400.708	119.98
400.917	76.97
401.127	95.4
401.336	95.4
401.545	187.56
401.754	87.21
401.963	42.15
402.172	152.74
402.381	15.53
402.59	97.45
402.799	126.12
403.008	79.02
403.217	109.74
403.426	62.63
403.635	85.16
403.844	103.59
404.053	56.49
404.262	160.94
404.471	132.26
404.68	132.26
404.888	142.5
405.097	105.64
405.306	99.5
405.515	167.08
405.724	183.46
405.933	136.36
406.142	62.63
406.35	205.99
406.559	122.02
406.768	122.02
406.977	158.89
407.185	158.89
407.394	134.31
407.603	167.08
407.812	144.55
408.02	179.37
408.229	214.18
408.438	179.37
408.646	179.37
408.855	205.99
409.064	175.27
409.272	236.71
409.481	265.38
409.69	263.33
409.898	173.22
410.107	185.51
410.315	308.39
410.524	236.71
410.733	195.75
410.941	249
411.15	222.38
411.358	314.53
411.567	355.49
411.775	332.97
411.984	310.44
412.192	304.29
412.401	298.15
412.609	314.53
412.818	380.07
413.026	410.79
413.234	322.73
413.443	330.92
413.651	484.52
413.86	408.74
414.068	509.09
414.276	554.15
414.485	564.39
414.693	545.95
414.901	509.09
415.11	599.2
415.318	515.23
415.526	627.87
415.734	625.83
415.943	660.64
416.151	699.55
416.359	580.77
416.567	695.46
416.776	650.4
416.984	765.09
417.192	783.52
417.4	791.71
417.608	799.9
417.817	773.28
418.025	928.92
418.233	951.45
418.441	773.28
418.649	887.97
418.857	961.69
419.065	1033.37
419.273	928.92
419.481	1072.28
419.689	1064.09
419.897	1223.83
420.105	1213.59
420.313	1158.3
420.521	1324.18
420.729	1330.33
420.937	1303.7
421.145	1309.85
421.353	1420.44
421.561	1582.23
421.769	1537.17
421.977	1557.65
422.185	1559.7
422.393	1631.38
422.601	1799.31
422.809	1764.5
423.017	1866.89
423.224	2014.35
423.432	1909.9
423.64	1914
423.848	2096.27
424.056	2159.75
424.263	2258.06
424.471	2229.38
424.679	2319.5
424.887	2280.58
425.094	2544.77
425.302	2493.57
425.51	2577.54
425.718	2669.7
425.925	2692.23
426.133	2851.97
426.341	2894.97
426.548	3056.76
426.756	3155.07
426.964	3120.25
427.171	3198.07
427.379	3296.38
427.586	3273.85
427.794	3576.95
428.001	3617.91
428.209	3816.56
428.417	3814.51
428.624	4146.28
428.832	4105.32
429.039	4023.41
429.247	4019.31
429.454	4402.28
429.662	4580.45
429.869	4371.56
430.076	4709.47
430.284	4643.94
430.491	4830.3
430.699	5051.49
430.906	5059.68
431.114	4973.66
431.321	5395.54
431.528	5436.5
431.736	5887.06
431.943	6065.23
432.15	5960.78
432.358	5829.71
432.565	6253.64
432.772	6329.42
432.979	6442.06
433.187	6720.58
433.394	6792.26
433.601	7035.97
433.808	7074.88
434.016	7189.56
434.223	7498.81
434.43	7914.55
434.637	7726.13
434.844	8154.16
435.052	8231.98
435.259	8139.82
435.466	8309.8
435.673	8430.63
435.88	8836.13
436.087	9382.94
436.294	9307.16
436.501	9075.74
436.708	9497.63
436.915	9454.62
437.122	10026
437.329	9864.21
437.537	10349.58
437.743	10456.08
437.95	10316.81
438.157	10982.4
438.364	11369.47
438.571	11138.05
438.778	11305.98
438.985	12542.96
439.192	11854.84
439.399	12276.72
439.606	12252.14
439.813	12772.33
440.02	13439.97
440.227	13315.04
440.433	13235.17
440.64	13702.11
440.847	13450.21
441.054	13683.67
441.261	14654.41
441.467	14588.88
441.674	14695.37
441.881	15324.1
442.088	15037.38
442.294	14965.7
442.501	15451.07
442.708	15911.86
442.914	16518.06
443.121	17128.36
443.328	16874.41
443.534	17859.48
443.741	17449.89
443.948	17222.56
444.154	18707.34
444.361	18217.88
444.568	18606.99
444.774	18574.22
444.981	18811.79
445.187	19311.49
445.394	20319.09
445.6	19850.11
445.807	21896.03
446.013	20358
446.22	21001.07
446.426	22047.58
446.633	22102.87
446.839	22967.12
447.046	21824.35
447.252	23161.67
447.459	23302.98
447.665	22801.23
447.871	23900.99
448.078	24902.45
448.284	23804.74
448.491	24722.23
448.697	25592.61
448.903	25813.79
449.11	25658.15
449.316	25371.43
449.522	25611.04
449.728	26350.36
449.935	26835.73
450.141	26649.36
450.347	27001.61
450.553	26573.59
450.76	26778.39
450.966	27669.25
451.172	27036.43
451.378	27618.05
451.584	27368.2
451.791	28209.92
451.997	27982.59
452.203	28398.33
452.409	28115.71
452.615	28087.04
452.821	26974.99
453.027	26534.68
453.233	28271.36
453.44	26684.18
453.646	27224.84
453.852	27239.18
454.058	27579.14
454.264	26977.04
454.47	27118.35
454.676	26549.01
454.882	27661.06
455.088	24650.55
455.294	25465.64
455.5	25717.54
455.705	25838.37
455.911	25076.52
456.117	24574.77
456.323	24441.65
456.529	22786.89
456.735	23749.44
456.941	23137.1
457.147	22485.84
457.352	21736.29
457.558	21631.84
457.764	22031.19
457.97	21144.42
458.176	20937.58
458.381	20675.44
458.587	19653.5
458.793	19954.55
458.999	18641.81
459.204	20077.43
459.41	19526.53
459.616	18209.68
459.821	18148.25
460.027	17863.58
460.233	17574.81
460.438	16845.74
460.644	17021.86
460.85	16266.16
461.055	16266.16
461.261	15909.82
461.466	14812.1
461.672	14410.7
461.878	15393.73
462.083	14234.58
462.289	13980.63
462.494	13841.37
462.7	13310.94
462.905	13241.31
463.111	13444.06
463.316	13736.92
463.522	13292.51
463.727	13075.43
463.932	13143.01
464.138	13081.57
464.343	13153.25
464.549	12633.07
464.754	13472.73
464.959	13208.55
465.165	12788.71
465.37	12309.49
465.575	12192.75
465.781	12553.2
465.986	12698.6
466.191	12014.58
466.397	12102.64
466.602	11482.11
466.807	11957.24
467.012	11944.95
467.218	11906.04
467.423	11785.21
467.628	12018.68
467.833	12184.56
468.038	11742.2
468.244	11308.03
