Data from USB4F104151__296__11-13-08-539.txt Node

Date: Wed Mar 12 11:13:08 EDT 2025
User: louis
Spectrometer: USB4F10415
Trigger mode: 4
Integration Time (sec): 2.000000E-2
Scans to average: 1
Electric dark correction enabled: true
Nonlinearity correction enabled: false
Boxcar width: 0
XAxis mode: Wavelengths
Number of Pixels in Spectrum: 3648
>>>>>Begin Spectral Data<<<<<
178.204	-99.84
178.424	-99.84
178.644	-99.84
178.864	-73.21
179.084	-81.41
179.304	8.7
179.524	45.57
179.744	-48.64
179.964	0.51
180.184	-48.64
180.404	-9.73
180.624	31.23
180.844	66.05
181.064	35.33
181.283	-5.63
181.503	-50.69
181.723	-24.06
181.943	49.66
182.163	10.75
182.383	10.75
182.602	-17.92
182.822	59.9
183.042	29.18
183.262	-5.63
183.482	-36.35
183.701	6.66
183.921	-34.3
184.141	-19.97
184.361	23.04
184.58	72.19
184.8	31.23
185.02	45.57
185.239	25.09
185.459	20.99
185.679	29.18
185.898	23.04
186.118	102.91
186.338	-42.5
186.557	31.23
186.777	6.66
186.997	14.85
187.216	55.81
187.436	61.95
187.655	-46.59
187.875	66.05
188.095	-40.45
188.314	-13.82
188.534	29.18
188.753	35.33
188.973	-1.54
189.192	27.14
189.412	10.75
189.631	43.52
189.851	33.28
190.07	43.52
190.29	20.99
190.509	-36.35
190.729	18.94
190.948	107.01
191.168	80.38
191.387	76.29
191.607	-7.68
191.826	47.62
192.045	-30.21
192.265	47.62
192.484	-26.11
192.704	-11.78
192.923	-38.4
193.142	18.94
193.362	10.75
193.581	35.33
193.8	-19.97
194.02	53.76
194.239	31.23
194.458	-24.06
194.678	-58.88
194.897	0.51
195.116	-1.54
195.335	25.09
195.555	-38.4
195.774	-38.4
195.993	-44.54
196.212	45.57
196.432	53.76
196.651	-1.54
196.87	23.04
197.089	39.42
197.308	12.8
197.528	-30.21
197.747	10.75
197.966	53.76
198.185	-73.21
198.404	-22.02
198.623	88.57
198.842	-5.63
199.062	33.28
199.281	45.57
199.5	-30.21
199.719	111.1
199.938	76.29
200.157	31.23
200.376	2.56
200.595	49.66
200.814	-19.97
201.033	-11.78
201.252	29.18
201.471	49.66
201.69	-3.58
201.909	37.38
202.128	37.38
202.347	6.66
202.566	14.85
202.785	-17.92
203.004	18.94
203.223	14.85
203.442	-44.54
203.661	35.33
203.879	23.04
204.098	-13.82
204.317	-28.16
204.536	68.09
204.755	55.81
204.974	72.19
205.193	41.47
205.411	33.28
205.63	33.28
205.849	51.71
206.068	14.85
206.287	-5.63
206.505	49.66
206.724	20.99
206.943	12.8
207.162	53.76
207.381	-1.54
207.599	61.95
207.818	29.18
208.037	-44.54
208.255	23.04
208.474	35.33
208.693	12.8
208.911	23.04
209.13	-9.73
209.349	23.04
209.567	23.04
209.786	51.71
210.005	39.42
210.223	12.8
210.442	-54.78
210.661	59.9
210.879	-34.3
211.098	18.94
211.316	10.75
211.535	94.72
211.753	-11.78
211.972	16.9
212.191	27.14
212.409	16.9
212.628	74.24
212.846	-5.63
213.065	-1.54
213.283	29.18
213.502	55.81
213.72	25.09
213.938	-22.02
214.157	43.52
214.375	-17.92
214.594	41.47
214.812	10.75
215.031	53.76
215.249	-46.59
215.467	33.28
215.686	-3.58
215.904	31.23
216.122	-32.26
216.341	35.33
216.559	8.7
216.778	41.47
216.996	-13.82
217.214	-15.87
217.432	-19.97
217.651	14.85
217.869	-52.74
218.087	-7.68
218.306	8.7
218.524	-17.92
218.742	-26.11
218.96	74.24
219.179	-1.54
219.397	-5.63
219.615	68.09
219.833	31.23
220.051	14.85
220.27	18.94
220.488	2.56
220.706	-1.54
220.924	37.38
221.142	-30.21
221.36	45.57
221.578	23.04
221.796	-105.98
222.015	55.81
222.233	8.7
222.451	43.52
222.669	-71.17
222.887	35.33
223.105	29.18
223.323	14.85
223.541	61.95
223.759	76.29
223.977	-118.27
224.195	18.94
224.413	61.95
224.631	82.43
224.849	31.23
225.067	90.62
225.285	-11.78
225.503	72.19
225.721	47.62
225.939	4.61
226.157	45.57
226.375	23.04
226.592	10.75
226.81	76.29
227.028	51.71
227.246	43.52
227.464	-17.92
227.682	45.57
227.9	59.9
228.117	27.14
228.335	43.52
228.553	25.09
228.771	-17.92
228.989	43.52
229.206	-5.63
229.424	49.66
229.642	8.7
229.86	-13.82
230.077	88.57
230.295	10.75
230.513	20.99
230.731	70.14
230.948	-13.82
231.166	74.24
231.384	12.8
231.601	-38.4
231.819	20.99
232.037	-48.64
232.254	-3.58
232.472	-3.58
232.689	8.7
232.907	88.57
233.125	10.75
233.342	12.8
233.56	8.7
233.777	59.9
233.995	2.56
234.213	49.66
234.43	18.94
234.648	-17.92
234.865	-15.87
235.083	49.66
235.3	10.75
235.518	16.9
235.735	74.24
235.953	-32.26
236.17	6.66
236.388	12.8
236.605	-22.02
236.822	-1.54
237.04	41.47
237.257	76.29
237.475	0.51
237.692	59.9
237.909	27.14
238.127	-7.68
238.344	-110.08
238.562	-30.21
238.779	45.57
238.996	-30.21
239.214	27.14
239.431	51.71
239.648	-34.3
239.865	12.8
240.083	-17.92
240.3	8.7
240.517	82.43
240.735	64
240.952	12.8
241.169	66.05
241.386	49.66
241.603	-19.97
241.821	23.04
242.038	55.81
242.255	57.86
242.472	49.66
242.689	-71.17
242.907	-15.87
243.124	35.33
243.341	84.48
243.558	66.05
243.775	-38.4
243.992	47.62
244.209	78.33
244.426	59.9
244.643	35.33
244.86	53.76
245.078	-7.68
245.295	20.99
245.512	31.23
245.729	0.51
245.946	27.14
246.163	61.95
246.38	18.94
246.597	2.56
246.814	18.94
247.031	27.14
247.248	74.24
247.464	-1.54
247.681	-9.73
247.898	51.71
248.115	55.81
248.332	-30.21
248.549	-56.83
248.766	123.39
248.983	45.57
249.2	-17.92
249.417	90.62
249.633	-62.98
249.85	27.14
250.067	29.18
250.284	45.57
250.501	47.62
250.717	53.76
250.934	-50.69
251.151	25.09
251.368	-9.73
251.585	53.76
251.801	31.23
252.018	2.56
252.235	18.94
252.451	0.51
252.668	27.14
252.885	55.81
253.102	-62.98
253.318	10.75
253.535	27.14
253.752	-17.92
253.968	29.18
254.185	-9.73
254.401	-24.06
254.618	37.38
254.835	18.94
255.051	107.01
255.268	35.33
255.484	23.04
255.701	-13.82
255.917	86.53
256.134	33.28
256.351	-1.54
256.567	2.56
256.784	-26.11
257	-11.78
257.217	-13.82
257.433	111.1
257.65	35.33
257.866	23.04
258.082	37.38
258.299	-7.68
258.515	-34.3
258.732	-95.74
258.948	-17.92
259.165	-19.97
259.381	25.09
259.597	-3.58
259.814	-60.93
260.03	-22.02
260.246	14.85
260.463	45.57
260.679	49.66
260.895	-1.54
261.112	20.99
261.328	45.57
261.544	59.9
261.761	35.33
261.977	-7.68
262.193	47.62
262.409	53.76
262.626	-19.97
262.842	4.61
263.058	37.38
263.274	84.48
263.49	12.8
263.707	10.75
263.923	-9.73
264.139	12.8
264.355	64
264.571	-9.73
264.787	33.28
265.004	-5.63
265.22	41.47
265.436	-71.17
265.652	2.56
265.868	31.23
266.084	-89.6
266.3	18.94
266.516	-13.82
266.732	-50.69
266.948	43.52
267.164	4.61
267.38	-19.97
267.596	8.7
267.812	14.85
268.028	35.33
268.244	-77.31
268.46	14.85
268.676	14.85
268.892	78.33
269.108	-3.58
269.324	-13.82
269.54	39.42
269.756	33.28
269.972	6.66
270.188	29.18
270.403	-50.69
270.619	64
270.835	-3.58
271.051	-34.3
271.267	0.51
271.483	68.09
271.698	18.94
271.914	25.09
272.13	-26.11
272.346	10.75
272.562	-3.58
272.777	-11.78
272.993	2.56
273.209	39.42
273.425	72.19
273.64	-17.92
273.856	49.66
274.072	18.94
274.287	27.14
274.503	23.04
274.719	25.09
274.934	43.52
275.15	-30.21
275.366	-34.3
275.581	6.66
275.797	-24.06
276.012	-11.78
276.228	59.9
276.444	-24.06
276.659	0.51
276.875	10.75
277.09	6.66
277.306	-26.11
277.521	64
277.737	-32.26
277.952	59.9
278.168	25.09
278.383	-75.26
278.599	4.61
278.814	18.94
279.03	27.14
279.245	64
279.461	6.66
279.676	76.29
279.892	-19.97
280.107	-22.02
280.322	76.29
280.538	41.47
280.753	-30.21
280.969	8.7
281.184	74.24
281.399	109.05
281.615	-38.4
281.83	31.23
282.045	29.18
282.26	-17.92
282.476	4.61
282.691	55.81
282.906	51.71
283.122	45.57
283.337	43.52
283.552	33.28
283.767	12.8
283.983	43.52
284.198	29.18
284.413	2.56
284.628	-1.54
284.843	39.42
285.058	59.9
285.274	0.51
285.489	68.09
285.704	27.14
285.919	-26.11
286.134	-22.02
286.349	-3.58
286.564	-7.68
286.779	49.66
286.995	-36.35
287.21	18.94
287.425	4.61
287.64	-11.78
287.855	-7.68
288.07	-67.07
288.285	-24.06
288.5	96.77
288.715	82.43
288.93	29.18
289.145	-7.68
289.36	2.56
289.575	35.33
289.79	-3.58
290.004	6.66
290.219	-19.97
290.434	6.66
290.649	39.42
290.864	43.52
291.079	2.56
291.294	-11.78
291.509	45.57
291.724	47.62
291.938	29.18
292.153	-22.02
292.368	-13.82
292.583	-30.21
292.798	-15.87
293.012	61.95
293.227	23.04
293.442	6.66
293.657	-26.11
293.871	27.14
294.086	37.38
294.301	76.29
294.516	18.94
294.73	55.81
294.945	-30.21
295.16	4.61
295.374	53.76
295.589	43.52
295.804	20.99
296.018	43.52
296.233	82.43
296.447	20.99
296.662	20.99
296.877	4.61
297.091	14.85
297.306	-7.68
297.52	2.56
297.735	47.62
297.949	8.7
298.164	66.05
298.378	-32.26
298.593	-5.63
298.807	27.14
299.022	20.99
299.236	68.09
299.451	2.56
299.665	29.18
299.88	55.81
300.094	-17.92
300.309	-11.78
300.523	-1.54
300.737	16.9
300.952	72.19
301.166	25.09
301.381	-17.92
301.595	20.99
301.809	107.01
302.024	-38.4
302.238	2.56
302.452	8.7
302.667	6.66
302.881	66.05
303.095	47.62
303.309	43.52
303.524	4.61
303.738	-26.11
303.952	6.66
304.166	-22.02
304.381	-50.69
304.595	25.09
304.809	-42.5
305.023	29.18
305.237	-58.88
305.452	14.85
305.666	18.94
305.88	45.57
306.094	-15.87
306.308	-13.82
306.522	31.23
306.736	27.14
306.95	-38.4
307.164	68.09
307.379	-28.16
307.593	35.33
307.807	-40.45
308.021	-34.3
308.235	31.23
308.449	-30.21
308.663	35.33
308.877	39.42
309.091	-9.73
309.305	78.33
309.519	64
309.733	43.52
309.947	2.56
310.161	-7.68
310.374	102.91
310.588	66.05
310.802	23.04
311.016	41.47
311.23	66.05
311.444	-42.5
311.658	6.66
311.872	-22.02
312.085	6.66
312.299	-9.73
312.513	31.23
312.727	51.71
312.941	55.81
313.154	88.57
313.368	109.05
313.582	35.33
313.796	-26.11
314.009	4.61
314.223	51.71
314.437	86.53
314.651	-32.26
314.864	-22.02
315.078	37.38
315.292	72.19
315.505	16.9
315.719	25.09
315.933	-46.59
316.146	-30.21
316.36	20.99
316.573	72.19
316.787	-62.98
317.001	135.68
317.214	-7.68
317.428	27.14
317.641	88.57
317.855	61.95
318.068	41.47
318.282	-13.82
318.495	61.95
318.709	6.66
318.922	45.57
319.136	37.38
319.349	66.05
319.563	18.94
319.776	12.8
319.99	64
320.203	27.14
320.417	31.23
320.63	39.42
320.843	78.33
321.057	-22.02
321.27	74.24
321.483	14.85
321.697	2.56
321.91	64
322.124	104.96
322.337	-30.21
322.55	55.81
322.763	-24.06
322.977	-13.82
323.19	-3.58
323.403	104.96
323.617	29.18
323.83	51.71
324.043	47.62
324.256	18.94
324.469	45.57
324.683	-19.97
324.896	78.33
325.109	121.34
325.322	-9.73
325.535	-5.63
325.748	-40.45
325.962	-13.82
326.175	23.04
326.388	-7.68
326.601	76.29
326.814	-56.83
327.027	-9.73
327.24	88.57
327.453	-1.54
327.666	78.33
327.879	6.66
328.092	-1.54
328.305	8.7
328.518	78.33
328.731	-60.93
328.944	-11.78
329.157	-30.21
329.37	59.9
329.583	70.14
329.796	115.2
330.009	104.96
330.222	72.19
330.435	-13.82
330.648	55.81
330.861	10.75
331.073	10.75
331.286	45.57
331.499	33.28
331.712	49.66
331.925	23.04
332.138	4.61
332.35	55.81
332.563	-3.58
332.776	35.33
332.989	-48.64
333.202	18.94
333.414	49.66
333.627	-38.4
333.84	-11.78
334.053	-26.11
334.265	39.42
334.478	121.34
334.691	51.71
334.903	2.56
335.116	33.28
335.329	14.85
335.541	29.18
335.754	-44.54
335.966	-44.54
336.179	-17.92
336.392	-15.87
336.604	70.14
336.817	-9.73
337.029	51.71
337.242	33.28
337.454	8.7
337.667	-44.54
337.88	117.25
338.092	35.33
338.305	10.75
338.517	-26.11
338.729	78.33
338.942	45.57
339.154	43.52
339.367	78.33
339.579	25.09
339.792	31.23
340.004	57.86
340.217	35.33
340.429	47.62
340.641	10.75
340.854	-5.63
341.066	-36.35
341.278	12.8
341.491	92.67
341.703	-1.54
341.915	-24.06
342.128	92.67
342.34	45.57
342.552	31.23
342.764	47.62
342.977	100.86
343.189	-30.21
343.401	20.99
343.613	18.94
343.826	10.75
344.038	27.14
344.25	64
344.462	20.99
344.674	68.09
344.886	12.8
345.099	16.9
345.311	47.62
345.523	45.57
345.735	37.38
345.947	33.28
346.159	12.8
346.371	31.23
346.583	47.62
346.795	117.25
347.007	49.66
347.219	37.38
347.431	-24.06
347.643	111.1
347.855	-30.21
348.067	76.29
348.279	-9.73
348.491	-30.21
348.703	10.75
348.915	66.05
349.127	-26.11
349.339	39.42
349.551	18.94
349.763	72.19
349.975	29.18
350.187	113.15
350.399	55.81
350.61	16.9
350.822	88.57
351.034	-13.82
351.246	12.8
351.458	-9.73
351.669	-30.21
351.881	20.99
352.093	90.62
352.305	33.28
352.517	20.99
352.728	39.42
352.94	-7.68
353.152	68.09
353.363	8.7
353.575	25.09
353.787	25.09
353.999	66.05
354.21	109.05
354.422	-46.59
354.633	-13.82
354.845	31.23
355.057	10.75
355.268	2.56
355.48	20.99
355.692	-19.97
355.903	-13.82
356.115	18.94
356.326	10.75
356.538	72.19
356.749	37.38
356.961	-3.58
357.172	55.81
357.384	55.81
357.595	119.29
357.807	12.8
358.018	45.57
358.23	-5.63
358.441	51.71
358.653	61.95
358.864	25.09
359.075	41.47
359.287	53.76
359.498	-3.58
359.709	29.18
359.921	47.62
360.132	20.99
360.344	49.66
360.555	33.28
360.766	57.86
360.977	43.52
361.189	14.85
361.4	23.04
361.611	-11.78
361.823	49.66
362.034	-9.73
362.245	-19.97
362.456	74.24
362.667	94.72
362.879	53.76
363.09	10.75
363.301	27.14
363.512	41.47
363.723	66.05
363.935	8.7
364.146	14.85
364.357	25.09
364.568	23.04
364.779	-3.58
364.99	102.91
365.201	-9.73
365.412	59.9
365.623	-5.63
365.834	78.33
366.045	14.85
366.256	51.71
366.467	61.95
366.678	80.38
366.889	64
367.1	-5.63
367.311	41.47
367.522	88.57
367.733	29.18
367.944	6.66
368.155	-1.54
368.366	55.81
368.577	70.14
368.788	86.53
368.999	25.09
369.209	47.62
369.42	80.38
369.631	74.24
369.842	2.56
370.053	-1.54
370.264	23.04
370.474	10.75
370.685	61.95
370.896	55.81
371.107	45.57
371.317	37.38
371.528	31.23
371.739	49.66
371.95	76.29
372.16	10.75
372.371	88.57
372.582	18.94
372.792	100.86
373.003	-13.82
373.214	27.14
373.424	33.28
373.635	20.99
373.846	96.77
374.056	-81.41
374.267	18.94
374.477	10.75
374.688	53.76
374.898	-17.92
375.109	0.51
375.319	0.51
375.53	6.66
375.74	27.14
375.951	39.42
376.161	80.38
376.372	55.81
376.582	-22.02
376.793	14.85
377.003	104.96
377.214	16.9
377.424	84.48
377.635	66.05
377.845	43.52
378.055	43.52
378.266	68.09
378.476	8.7
378.686	31.23
378.897	51.71
379.107	49.66
379.317	23.04
379.528	-3.58
379.738	94.72
379.948	64
380.158	12.8
380.369	29.18
380.579	51.71
380.789	-5.63
380.999	25.09
381.21	18.94
381.42	27.14
381.63	51.71
381.84	14.85
382.05	23.04
382.261	33.28
382.471	68.09
382.681	-48.64
382.891	84.48
383.101	27.14
383.311	-9.73
383.521	39.42
383.731	-22.02
383.941	74.24
384.151	23.04
384.361	94.72
384.571	-58.88
384.781	102.91
384.991	37.38
385.201	84.48
385.411	43.52
385.621	74.24
385.831	47.62
386.041	111.1
386.251	76.29
386.461	35.33
386.671	61.95
386.881	12.8
387.091	31.23
387.301	-1.54
387.511	16.9
387.72	53.76
387.93	45.57
388.14	14.85
388.35	27.14
388.56	47.62
388.769	76.29
388.979	76.29
389.189	16.9
389.399	25.09
389.609	92.67
389.818	49.66
390.028	55.81
390.238	57.86
390.447	-28.16
390.657	139.77
390.867	61.95
391.076	51.71
391.286	27.14
391.496	39.42
391.705	37.38
391.915	72.19
392.125	18.94
392.334	53.76
392.544	49.66
392.753	31.23
392.963	45.57
393.172	92.67
393.382	-52.74
393.591	27.14
393.801	55.81
394.01	61.95
394.22	111.1
394.429	-30.21
394.639	-5.63
394.848	27.14
395.058	14.85
395.267	-22.02
395.477	76.29
395.686	74.24
395.895	178.69
396.105	31.23
396.314	104.96
396.524	96.77
396.733	115.2
396.942	23.04
397.152	109.05
397.361	66.05
397.57	35.33
397.78	107.01
397.989	121.34
398.198	90.62
398.407	197.12
398.617	100.86
398.826	45.57
399.035	49.66
399.244	94.72
399.453	33.28
399.663	66.05
399.872	92.67
400.081	92.67
400.29	72.19
400.499	45.57
400.708	168.45
400.917	64
401.127	78.33
401.336	117.25
401.545	199.16
401.754	125.44
401.963	156.16
402.172	158.21
402.381	94.72
402.59	82.43
402.799	80.38
403.008	86.53
403.217	133.63
403.426	88.57
403.635	66.05
403.844	64
404.053	145.92
404.262	104.96
404.471	154.11
404.68	117.25
404.888	115.2
405.097	94.72
405.306	139.77
405.515	115.2
405.724	102.91
405.933	170.49
406.142	166.4
406.35	178.69
406.559	117.25
406.768	162.3
406.977	145.92
407.185	150.01
407.394	258.56
407.603	207.36
407.812	201.21
408.02	190.97
408.229	94.72
408.438	199.16
408.646	264.7
408.855	227.84
409.064	225.79
409.272	172.54
409.481	254.46
409.69	211.45
409.898	223.74
410.107	352.76
410.315	299.52
410.524	219.64
410.733	248.32
410.941	403.96
411.15	324.09
411.358	326.14
411.567	399.87
411.775	383.48
411.984	397.82
412.192	348.67
412.401	342.52
412.609	418.3
412.818	430.59
413.026	449.02
413.234	518.65
413.443	420.35
413.651	436.73
413.86	449.02
414.068	492.02
414.276	563.7
414.485	522.74
414.693	557.56
414.901	635.38
415.11	639.48
415.318	688.63
415.526	666.1
415.734	684.53
415.943	745.97
416.151	758.26
416.359	717.3
416.567	825.84
416.776	795.12
416.984	940.53
417.192	928.24
417.4	868.85
417.608	850.42
417.817	993.78
418.025	956.91
418.233	1059.31
418.441	1055.22
418.649	1075.7
418.857	1137.13
419.065	1106.42
419.273	1159.66
419.481	1272.3
419.689	1298.92
419.897	1337.84
420.105	1397.23
420.313	1403.37
420.521	1550.82
420.729	1421.8
420.937	1522.15
421.145	1599.98
421.353	1729
421.561	1802.72
421.769	1726.95
421.977	1782.24
422.185	1772
422.393	2007.52
422.601	1999.33
422.809	1929.7
423.017	1956.32
423.224	2169.31
423.432	2185.69
423.64	2228.7
423.848	2593.24
424.056	2482.65
424.263	2705.88
424.471	2587.1
424.679	2691.54
424.887	2791.89
425.094	2824.66
425.302	2736.6
425.51	3023.31
425.718	3078.61
425.925	3156.43
426.133	3348.94
426.341	3422.67
426.548	3690.95
426.756	3508.68
426.964	3566.03
427.171	3684.81
427.379	3895.75
427.586	4061.63
427.794	3951.04
428.001	4243.9
428.209	4354.49
428.417	4385.21
428.624	4561.34
428.832	4700.6
429.039	4649.4
429.247	4655.54
429.454	5007.8
429.662	5480.88
429.869	5091.76
430.076	5558.7
430.284	5333.42
430.491	5585.32
430.699	5869.99
430.906	5956.01
431.114	6150.56
431.321	6121.89
431.528	6328.74
431.736	6695.32
431.943	7043.48
432.15	6736.28
432.358	7088.53
432.565	7260.56
432.772	7426.45
432.979	7567.76
433.187	7668.11
433.394	7852.42
433.601	8309.12
433.808	8302.98
434.016	8241.54
434.223	8784.25
434.43	9075.06
434.637	9116.02
434.844	9646.44
435.052	9761.13
435.259	9507.18
435.466	9793.9
435.673	9597.29
435.88	10365.28
436.087	10914.14
436.294	10916.19
436.501	10443.1
436.708	10893.66
436.915	11327.83
437.122	11778.38
437.329	11706.7
437.537	11960.65
437.743	12243.27
437.95	11962.7
438.157	12622.14
438.364	13111.61
438.571	13148.47
438.778	13175.09
438.985	14473.51
439.192	13859.12
439.399	14645.54
439.606	14287.14
439.813	14897.44
440.02	15677.71
440.227	15651.09
440.433	15300.89
440.64	15855.89
440.847	15606.03
441.054	16091.4
441.261	17096.96
441.467	16744.7
441.674	17103.1
441.881	17805.55
442.088	17789.17
442.294	17760.5
442.501	18139.37
442.708	18471.14
442.914	19185.88
443.121	19978.45
443.328	19634.39
443.534	20994.24
443.741	20295.88
443.948	20207.82
444.154	21518.52
444.361	21330.11
444.568	21651.64
444.774	21373.11
444.981	21868.72
445.187	22454.44
445.394	23419.03
445.6	23140.51
445.807	25325.69
446.013	24297.61
446.22	24737.93
446.426	25485.44
446.633	25679.99
446.839	26290.29
447.046	25598.07
447.252	26755.18
447.459	26839.14
447.665	26933.35
447.871	27736.15
448.078	29116.48
448.284	27730.01
448.491	28788.81
448.697	29679.68
448.903	30124.08
449.11	30318.64
449.316	29646.91
449.522	30267.44
449.728	30920.74
449.935	31289.38
450.141	30961.7
450.347	31866.91
450.553	31031.33
450.76	31473.7
450.966	32098.33
451.172	32102.42
451.378	32591.89
451.584	32319.51
451.791	32634.89
451.997	32694.29
452.203	33155.08
452.409	33210.37
452.615	32997.38
452.821	31619.1
453.027	31465.5
453.233	33081.35
453.44	31459.36
453.646	32196.63
453.852	32223.25
454.058	32708.62
454.264	31723.55
454.47	32514.06
454.676	31559.71
454.882	32655.37
455.088	29874.23
455.294	30027.83
455.5	30455.86
455.705	31154.21
455.911	29720.63
456.117	29536.32
456.323	28756.04
456.529	27312.22
456.735	28608.59
456.941	27717.72
457.147	27082.85
457.352	26220.66
457.558	26392.69
457.764	26347.63
457.97	25565.31
458.176	24881.28
458.381	24957.06
458.587	23931.03
458.793	24037.52
458.999	22761.64
459.204	24221.84
459.41	23785.62
459.616	21969.07
459.821	21952.69
460.027	22202.54
460.233	21627.06
460.438	20404.42
460.644	21043.39
460.85	19740.88
461.055	19609.81
461.261	19464.41
461.466	18000.11
461.672	17475.83
461.878	18505.96
462.083	17578.23
462.289	17215.74
462.494	16720.13
462.7	16169.23
462.905	15794.45
463.111	16189.7
463.316	16312.58
463.522	16048.4
463.727	16103.69
463.932	15923.47
464.138	15653.14
464.343	16263.43
464.549	15755.54
464.754	15816.97
464.959	15802.64
465.165	15460.63
465.37	15231.26
465.575	14739.74
465.781	15337.75
465.986	15429.91
466.191	14881.05
466.397	14541.09
466.602	13879.6
466.807	14364.96
467.012	14336.29
467.218	14317.86
467.423	14092.58
467.628	14082.35
467.833	14942.49
