Data from USB4F104151__275__11-12-15-365.txt Node

Date: Wed Mar 12 11:12:15 EDT 2025
User: louis
Spectrometer: USB4F10415
Trigger mode: 4
Integration Time (sec): 2.000000E-2
Scans to average: 1
Electric dark correction enabled: true
Nonlinearity correction enabled: false
Boxcar width: 0
XAxis mode: Wavelengths
Number of Pixels in Spectrum: 3648
>>>>>Begin Spectral Data<<<<<
178.204	-75.26
178.424	-75.26
178.644	-75.26
178.864	-36.35
179.084	-126.46
179.304	-42.5
179.524	-38.4
179.744	16.9
179.964	27.14
180.184	-7.68
180.404	-30.21
180.624	53.76
180.844	31.23
181.064	-7.68
181.283	0.51
181.503	25.09
181.723	-28.16
181.943	-58.88
182.163	68.09
182.383	2.56
182.602	90.62
182.822	55.81
183.042	102.91
183.262	0.51
183.482	14.85
183.701	10.75
183.921	61.95
184.141	35.33
184.361	61.95
184.58	8.7
184.8	78.33
185.02	57.86
185.239	35.33
185.459	98.81
185.679	107.01
185.898	-28.16
186.118	-15.87
186.338	25.09
186.557	45.57
186.777	37.38
186.997	37.38
187.216	-7.68
187.436	29.18
187.655	41.47
187.875	61.95
188.095	49.66
188.314	82.43
188.534	41.47
188.753	33.28
188.973	14.85
189.192	16.9
189.412	-7.68
189.631	18.94
189.851	-9.73
190.07	43.52
190.29	-7.68
190.509	-36.35
190.729	-24.06
190.948	64
191.168	115.2
191.387	-28.16
191.607	-7.68
191.826	-11.78
192.045	45.57
192.265	37.38
192.484	66.05
192.704	-22.02
192.923	33.28
193.142	23.04
193.362	12.8
193.581	-3.58
193.8	-40.45
194.02	18.94
194.239	61.95
194.458	20.99
194.678	-75.26
194.897	45.57
195.116	8.7
195.335	61.95
195.555	64
195.774	70.14
195.993	8.7
196.212	-40.45
196.432	-30.21
196.651	-26.11
196.87	29.18
197.089	86.53
197.308	31.23
197.528	55.81
197.747	25.09
197.966	12.8
198.185	61.95
198.404	25.09
198.623	74.24
198.842	-26.11
199.062	-9.73
199.281	45.57
199.5	111.1
199.719	76.29
199.938	16.9
200.157	55.81
200.376	0.51
200.595	74.24
200.814	59.9
201.033	-13.82
201.252	64
201.471	70.14
201.69	18.94
201.909	-9.73
202.128	23.04
202.347	78.33
202.566	29.18
202.785	43.52
203.004	-11.78
203.223	107.01
203.442	-11.78
203.661	-17.92
203.879	-28.16
204.098	-11.78
204.317	2.56
204.536	23.04
204.755	8.7
204.974	6.66
205.193	-54.78
205.411	61.95
205.63	64
205.849	61.95
206.068	35.33
206.287	-19.97
206.505	55.81
206.724	14.85
206.943	10.75
207.162	41.47
207.381	31.23
207.599	10.75
207.818	27.14
208.037	8.7
208.255	14.85
208.474	6.66
208.693	43.52
208.911	10.75
209.13	18.94
209.349	57.86
209.567	14.85
209.786	70.14
210.005	-11.78
210.223	-9.73
210.442	41.47
210.661	78.33
210.879	61.95
211.098	59.9
211.316	-36.35
211.535	35.33
211.753	-26.11
211.972	41.47
212.191	18.94
212.409	-5.63
212.628	-3.58
212.846	0.51
213.065	70.14
213.283	8.7
213.502	49.66
213.72	-7.68
213.938	16.9
214.157	23.04
214.375	66.05
214.594	35.33
214.812	33.28
215.031	86.53
215.249	-71.17
215.467	98.81
215.686	-5.63
215.904	18.94
216.122	59.9
216.341	74.24
216.559	86.53
216.778	84.48
216.996	39.42
217.214	-30.21
217.432	-15.87
217.651	12.8
217.869	70.14
218.087	0.51
218.306	20.99
218.524	57.86
218.742	-28.16
218.96	82.43
219.179	12.8
219.397	-7.68
219.615	12.8
219.833	45.57
220.051	35.33
220.27	47.62
220.488	74.24
220.706	12.8
220.924	10.75
221.142	-3.58
221.36	-60.93
221.578	18.94
221.796	-15.87
222.015	-3.58
222.233	-46.59
222.451	12.8
222.669	29.18
222.887	-17.92
223.105	-50.69
223.323	43.52
223.541	-9.73
223.759	86.53
223.977	98.81
224.195	80.38
224.413	59.9
224.631	16.9
224.849	39.42
225.067	102.91
225.285	37.38
225.503	64
225.721	2.56
225.939	12.8
226.157	86.53
226.375	61.95
226.592	98.81
226.81	23.04
227.028	64
227.246	135.68
227.464	49.66
227.682	66.05
227.9	25.09
228.117	23.04
228.335	59.9
228.553	-9.73
228.771	4.61
228.989	49.66
229.206	51.71
229.424	12.8
229.642	0.51
229.86	-9.73
230.077	55.81
230.295	-9.73
230.513	12.8
230.731	100.86
230.948	43.52
231.166	68.09
231.384	45.57
231.601	20.99
231.819	6.66
232.037	-9.73
232.254	53.76
232.472	-1.54
232.689	29.18
232.907	-62.98
233.125	33.28
233.342	-30.21
233.56	35.33
233.777	-5.63
233.995	43.52
234.213	64
234.43	53.76
234.648	-13.82
234.865	10.75
235.083	41.47
235.3	12.8
235.518	78.33
235.735	94.72
235.953	84.48
236.17	-38.4
236.388	72.19
236.605	47.62
236.822	66.05
237.04	27.14
237.257	-24.06
237.475	20.99
237.692	76.29
237.909	25.09
238.127	29.18
238.344	-40.45
238.562	53.76
238.779	16.9
238.996	-7.68
239.214	-9.73
239.431	23.04
239.648	16.9
239.865	23.04
240.083	47.62
240.3	14.85
240.517	49.66
240.735	70.14
240.952	12.8
241.169	41.47
241.386	39.42
241.603	41.47
241.821	12.8
242.038	94.72
242.255	8.7
242.472	20.99
242.689	61.95
242.907	18.94
243.124	-17.92
243.341	41.47
243.558	-26.11
243.775	12.8
243.992	29.18
244.209	14.85
244.426	-17.92
244.643	41.47
244.86	51.71
245.078	45.57
245.295	23.04
245.512	-36.35
245.729	-13.82
245.946	35.33
246.163	68.09
246.38	-7.68
246.597	-7.68
246.814	-50.69
247.031	49.66
247.248	23.04
247.464	33.28
247.681	18.94
247.898	14.85
248.115	55.81
248.332	20.99
248.549	61.95
248.766	51.71
248.983	57.86
249.2	45.57
249.417	-38.4
249.633	70.14
249.85	12.8
250.067	-22.02
250.284	4.61
250.501	4.61
250.717	82.43
250.934	-50.69
251.151	53.76
251.368	96.77
251.585	12.8
251.801	-46.59
252.018	55.81
252.235	68.09
252.451	-15.87
252.668	76.29
252.885	78.33
253.102	94.72
253.318	-11.78
253.535	25.09
253.752	-38.4
253.968	82.43
254.185	72.19
254.401	6.66
254.618	66.05
254.835	-7.68
255.051	37.38
255.268	49.66
255.484	33.28
255.701	-11.78
255.917	-9.73
256.134	25.09
256.351	12.8
256.567	-15.87
256.784	121.34
257	8.7
257.217	45.57
257.433	4.61
257.65	43.52
257.866	35.33
258.082	10.75
258.299	-75.26
258.515	-13.82
258.732	51.71
258.948	-7.68
259.165	49.66
259.381	-13.82
259.597	78.33
259.814	-3.58
260.03	29.18
260.246	66.05
260.463	59.9
260.679	45.57
260.895	6.66
261.112	37.38
261.328	59.9
261.544	43.52
261.761	84.48
261.977	43.52
262.193	-17.92
262.409	33.28
262.626	45.57
262.842	-1.54
263.058	45.57
263.274	-42.5
263.49	12.8
263.707	23.04
263.923	25.09
264.139	16.9
264.355	49.66
264.571	39.42
264.787	14.85
265.004	-28.16
265.22	88.57
265.436	57.86
265.652	43.52
265.868	-3.58
266.084	-34.3
266.3	74.24
266.516	-13.82
266.732	74.24
266.948	61.95
267.164	47.62
267.38	72.19
267.596	72.19
267.812	70.14
268.028	31.23
268.244	70.14
268.46	-9.73
268.676	-34.3
268.892	31.23
269.108	47.62
269.324	33.28
269.54	2.56
269.756	59.9
269.972	-42.5
270.188	12.8
270.403	-50.69
270.619	-87.55
270.835	33.28
271.051	-54.78
271.267	29.18
271.483	49.66
271.698	-36.35
271.914	-11.78
272.13	18.94
272.346	33.28
272.562	-58.88
272.777	100.86
272.993	33.28
273.209	-19.97
273.425	18.94
273.64	41.47
273.856	100.86
274.072	6.66
274.287	92.67
274.503	92.67
274.719	29.18
274.934	33.28
275.15	8.7
275.366	59.9
275.581	14.85
275.797	8.7
276.012	39.42
276.228	0.51
276.444	33.28
276.659	20.99
276.875	33.28
277.09	43.52
277.306	43.52
277.521	39.42
277.737	-36.35
277.952	27.14
278.168	74.24
278.383	104.96
278.599	82.43
278.814	-17.92
279.03	6.66
279.245	57.86
279.461	86.53
279.676	57.86
279.892	-24.06
280.107	10.75
280.322	25.09
280.538	14.85
280.753	-19.97
280.969	76.29
281.184	41.47
281.399	31.23
281.615	55.81
281.83	-40.45
282.045	23.04
282.26	-22.02
282.476	90.62
282.691	8.7
282.906	64
283.122	47.62
283.337	-7.68
283.552	49.66
283.767	43.52
283.983	88.57
284.198	8.7
284.413	-11.78
284.628	-44.54
284.843	37.38
285.058	16.9
285.274	-24.06
285.489	27.14
285.704	35.33
285.919	18.94
286.134	72.19
286.349	96.77
286.564	41.47
286.779	74.24
286.995	94.72
287.21	25.09
287.425	-89.6
287.64	-19.97
287.855	4.61
288.07	35.33
288.285	37.38
288.5	8.7
288.715	-11.78
288.93	-50.69
289.145	20.99
289.36	-22.02
289.575	-3.58
289.79	45.57
290.004	64
290.219	41.47
290.434	25.09
290.649	-5.63
290.864	6.66
291.079	-9.73
291.294	23.04
291.509	12.8
291.724	86.53
291.938	70.14
292.153	-11.78
292.368	-7.68
292.583	113.15
292.798	47.62
293.012	-15.87
293.227	16.9
293.442	29.18
293.657	33.28
293.871	16.9
294.086	41.47
294.301	55.81
294.516	-62.98
294.73	29.18
294.945	-36.35
295.16	90.62
295.374	16.9
295.589	8.7
295.804	74.24
296.018	8.7
296.233	35.33
296.447	61.95
296.662	45.57
296.877	61.95
297.091	109.05
297.306	41.47
297.52	-40.45
297.735	70.14
297.949	-32.26
298.164	121.34
298.378	-5.63
298.593	-54.78
298.807	-36.35
299.022	-11.78
299.236	14.85
299.451	59.9
299.665	78.33
299.88	64
300.094	27.14
300.309	84.48
300.523	27.14
300.737	-3.58
300.952	61.95
301.166	39.42
301.381	16.9
301.595	-30.21
301.809	2.56
302.024	12.8
302.238	45.57
302.452	-3.58
302.667	-34.3
302.881	57.86
303.095	8.7
303.309	74.24
303.524	-9.73
303.738	8.7
303.952	6.66
304.166	82.43
304.381	29.18
304.595	-1.54
304.809	-28.16
305.023	-1.54
305.237	51.71
305.452	49.66
305.666	55.81
305.88	98.81
306.094	-9.73
306.308	2.56
306.522	31.23
306.736	4.61
306.95	92.67
307.164	78.33
307.379	47.62
307.593	37.38
307.807	-3.58
308.021	31.23
308.235	-1.54
308.449	-40.45
308.663	66.05
308.877	76.29
309.091	111.1
309.305	76.29
309.519	-3.58
309.733	31.23
309.947	27.14
310.161	41.47
310.374	-19.97
310.588	25.09
310.802	25.09
311.016	27.14
311.23	4.61
311.444	6.66
311.658	29.18
311.872	88.57
312.085	84.48
312.299	-7.68
312.513	41.47
312.727	55.81
312.941	-5.63
313.154	113.15
313.368	41.47
313.582	72.19
313.796	39.42
314.009	45.57
314.223	20.99
314.437	29.18
314.651	31.23
314.864	-24.06
315.078	-40.45
315.292	31.23
315.505	-13.82
315.719	4.61
315.933	117.25
316.146	25.09
316.36	49.66
316.573	12.8
316.787	49.66
317.001	39.42
317.214	-7.68
317.428	27.14
317.641	6.66
317.855	51.71
318.068	94.72
318.282	-7.68
318.495	6.66
318.709	4.61
318.922	20.99
319.136	43.52
319.349	43.52
319.563	20.99
319.776	51.71
319.99	10.75
320.203	35.33
320.417	6.66
320.63	-24.06
320.843	57.86
321.057	-54.78
321.27	43.52
321.483	78.33
321.697	70.14
321.91	57.86
322.124	139.77
322.337	8.7
322.55	66.05
322.763	20.99
322.977	37.38
323.19	20.99
323.403	92.67
323.617	94.72
323.83	61.95
324.043	-3.58
324.256	20.99
324.469	14.85
324.683	4.61
324.896	59.9
325.109	35.33
325.322	-5.63
325.535	72.19
325.748	80.38
325.962	37.38
326.175	47.62
326.388	6.66
326.601	57.86
326.814	72.19
327.027	39.42
327.24	127.49
327.453	-32.26
327.666	-9.73
327.879	86.53
328.092	70.14
328.305	25.09
328.518	29.18
328.731	31.23
328.944	41.47
329.157	4.61
329.37	66.05
329.583	37.38
329.796	72.19
330.009	41.47
330.222	45.57
330.435	82.43
330.648	80.38
330.861	41.47
331.073	29.18
331.286	154.11
331.499	35.33
331.712	47.62
331.925	-3.58
332.138	33.28
332.35	76.29
332.563	33.28
332.776	64
332.989	49.66
333.202	86.53
333.414	4.61
333.627	55.81
333.84	45.57
334.053	37.38
334.265	16.9
334.478	-65.02
334.691	-3.58
334.903	-5.63
335.116	35.33
335.329	-11.78
335.541	16.9
335.754	76.29
335.966	20.99
336.179	59.9
336.392	59.9
336.604	41.47
336.817	96.77
337.029	12.8
337.242	-28.16
337.454	111.1
337.667	16.9
337.88	64
338.092	29.18
338.305	86.53
338.517	18.94
338.729	35.33
338.942	-24.06
339.154	64
339.367	25.09
339.579	4.61
339.792	8.7
340.004	76.29
340.217	59.9
340.429	18.94
340.641	55.81
340.854	68.09
341.066	4.61
341.278	16.9
341.491	57.86
341.703	12.8
341.915	57.86
342.128	47.62
342.34	100.86
342.552	45.57
342.764	-17.92
342.977	12.8
343.189	64
343.401	86.53
343.613	20.99
343.826	-9.73
344.038	90.62
344.25	41.47
344.462	6.66
344.674	14.85
344.886	55.81
345.099	88.57
345.311	-3.58
345.523	76.29
345.735	-28.16
345.947	57.86
346.159	51.71
346.371	16.9
346.583	45.57
346.795	-13.82
347.007	57.86
347.219	25.09
347.431	29.18
347.643	59.9
347.855	43.52
348.067	61.95
348.279	-30.21
348.491	-1.54
348.703	25.09
348.915	64
349.127	39.42
349.339	49.66
349.551	-24.06
349.763	66.05
349.975	-19.97
350.187	-1.54
350.399	10.75
350.61	-1.54
350.822	-28.16
351.034	18.94
351.246	49.66
351.458	39.42
351.669	51.71
351.881	74.24
352.093	43.52
352.305	23.04
352.517	18.94
352.728	98.81
352.94	20.99
353.152	70.14
353.363	-7.68
353.575	45.57
353.787	35.33
353.999	0.51
354.21	25.09
354.422	16.9
354.633	55.81
354.845	61.95
355.057	23.04
355.268	100.86
355.48	-36.35
355.692	-15.87
355.903	64
356.115	0.51
356.326	-9.73
356.538	76.29
356.749	53.76
356.961	92.67
357.172	102.91
357.384	35.33
357.595	66.05
357.807	78.33
358.018	37.38
358.23	53.76
358.441	47.62
358.653	-5.63
358.864	55.81
359.075	16.9
359.287	-3.58
359.498	39.42
359.709	102.91
359.921	78.33
360.132	39.42
360.344	66.05
360.555	78.33
360.766	14.85
360.977	-7.68
361.189	41.47
361.4	35.33
361.611	92.67
361.823	51.71
362.034	20.99
362.245	6.66
362.456	20.99
362.667	41.47
362.879	23.04
363.09	113.15
363.301	-13.82
363.512	-7.68
363.723	82.43
363.935	20.99
364.146	109.05
364.357	121.34
364.568	53.76
364.779	57.86
364.99	51.71
365.201	74.24
365.412	102.91
365.623	8.7
365.834	78.33
366.045	59.9
366.256	16.9
366.467	47.62
366.678	16.9
366.889	-5.63
367.1	51.71
367.311	100.86
367.522	72.19
367.733	86.53
367.944	47.62
368.155	16.9
368.366	47.62
368.577	72.19
368.788	92.67
368.999	10.75
369.209	25.09
369.42	102.91
369.631	94.72
369.842	80.38
370.053	10.75
370.264	55.81
370.474	-30.21
370.685	20.99
370.896	49.66
371.107	57.86
371.317	98.81
371.528	4.61
371.739	98.81
371.95	4.61
372.16	51.71
372.371	80.38
372.582	23.04
372.792	35.33
373.003	31.23
373.214	80.38
373.424	31.23
373.635	16.9
373.846	66.05
374.056	51.71
374.267	57.86
374.477	94.72
374.688	68.09
374.898	16.9
375.109	6.66
375.319	20.99
375.53	70.14
375.74	51.71
375.951	49.66
376.161	57.86
376.372	39.42
376.582	70.14
376.793	66.05
377.003	74.24
377.214	29.18
377.424	41.47
377.635	-32.26
377.845	-22.02
378.055	139.77
378.266	-3.58
378.476	-40.45
378.686	-34.3
378.897	-19.97
379.107	47.62
379.317	35.33
379.528	37.38
379.738	33.28
379.948	16.9
380.158	55.81
380.369	55.81
380.579	55.81
380.789	117.25
380.999	55.81
381.21	68.09
381.42	27.14
381.63	25.09
381.84	37.38
382.05	14.85
382.261	78.33
382.471	-11.78
382.681	37.38
382.891	129.53
383.101	29.18
383.311	8.7
383.521	20.99
383.731	84.48
383.941	68.09
384.151	23.04
384.361	-3.58
384.571	45.57
384.781	98.81
384.991	74.24
385.201	121.34
385.411	51.71
385.621	37.38
385.831	23.04
386.041	29.18
386.251	78.33
386.461	55.81
386.671	47.62
386.881	4.61
387.091	61.95
387.301	119.29
387.511	37.38
387.72	27.14
387.93	37.38
388.14	70.14
388.35	6.66
388.56	72.19
388.769	57.86
388.979	39.42
389.189	57.86
389.399	66.05
389.609	107.01
389.818	84.48
390.028	74.24
390.238	61.95
390.447	14.85
390.657	29.18
390.867	55.81
391.076	78.33
391.286	72.19
391.496	72.19
391.705	0.51
391.915	96.77
392.125	102.91
392.334	45.57
392.544	119.29
392.753	61.95
392.963	0.51
393.172	82.43
393.382	-7.68
393.591	74.24
393.801	55.81
394.01	107.01
394.22	64
394.429	64
394.639	123.39
394.848	72.19
395.058	39.42
395.267	59.9
395.477	96.77
395.686	29.18
395.895	59.9
396.105	66.05
396.314	82.43
396.524	72.19
396.733	72.19
396.942	49.66
397.152	35.33
397.361	109.05
397.57	68.09
397.78	8.7
397.989	90.62
398.198	135.68
398.407	88.57
398.617	86.53
398.826	35.33
399.035	-11.78
399.244	113.15
399.453	57.86
399.663	88.57
399.872	88.57
400.081	0.51
400.29	164.35
400.499	174.59
400.708	127.49
400.917	27.14
401.127	117.25
401.336	66.05
401.545	135.68
401.754	94.72
401.963	64
402.172	78.33
402.381	80.38
402.59	117.25
402.799	68.09
403.008	162.3
403.217	141.82
403.426	217.6
403.635	88.57
403.844	88.57
404.053	135.68
404.262	164.35
404.471	104.96
404.68	137.73
404.888	107.01
405.097	170.49
405.306	164.35
405.515	113.15
405.724	139.77
405.933	88.57
406.142	174.59
406.35	147.97
406.559	135.68
406.768	113.15
406.977	238.08
407.185	102.91
407.394	248.32
407.603	217.6
407.812	215.55
408.02	231.93
408.229	211.45
408.438	172.54
408.646	197.12
408.855	209.4
409.064	209.4
409.272	227.84
409.481	262.65
409.69	223.74
409.898	213.5
410.107	248.32
410.315	260.6
410.524	328.19
410.733	291.32
410.941	320
411.15	309.76
411.358	330.23
411.567	463.35
411.775	326.14
411.984	399.87
412.192	352.76
412.401	401.91
412.609	410.11
412.818	444.92
413.026	438.78
413.234	526.84
413.443	516.6
413.651	418.3
413.86	528.89
414.068	532.98
414.276	571.9
414.485	606.71
414.693	625.14
414.901	633.33
415.11	588.28
415.318	571.9
415.526	688.63
415.734	686.58
415.943	690.68
416.151	735.73
416.359	745.97
416.567	813.56
416.776	811.51
416.984	795.12
417.192	838.13
417.4	836.08
417.608	899.57
417.817	887.28
418.025	874.99
418.233	1098.22
418.441	1038.83
418.649	1151.47
418.857	1167.85
419.065	1077.74
419.273	1208.81
419.481	1184.24
419.689	1147.37
419.897	1341.93
420.105	1356.27
420.313	1487.34
420.521	1511.91
420.729	1442.28
420.937	1546.73
421.145	1561.06
421.353	1702.37
421.561	1706.47
421.769	1876.45
421.977	1804.77
422.185	1823.2
422.393	1837.54
422.601	2087.39
422.809	2056.67
423.017	2015.71
423.224	2154.98
423.432	2261.47
423.64	2226.65
423.848	2445.79
424.056	2404.83
424.263	2456.03
424.471	2519.51
424.679	2593.24
424.887	2697.69
425.094	2834.9
425.302	2779.61
425.51	2802.13
425.718	2937.3
425.925	2943.44
426.133	3142.1
426.341	3318.22
426.548	3549.64
426.756	3371.47
426.964	3516.87
427.171	3797.45
427.379	3871.17
427.586	3916.23
427.794	3926.47
428.001	4266.43
428.209	4235.71
428.417	4442.56
428.624	4569.53
428.832	4610.49
429.039	4692.41
429.247	4616.63
429.454	5261.74
429.662	5450.16
429.869	5038.52
430.076	5339.57
430.284	5278.13
430.491	5312.94
430.699	5695.91
430.906	5794.22
431.114	5931.43
431.321	6048.16
431.528	6152.61
431.736	6529.44
431.943	6859.16
432.15	6613.4
432.358	6801.82
432.565	6939.03
432.772	7092.63
432.979	7520.65
433.187	7426.45
433.394	7655.82
433.601	8188.29
433.808	8165.76
434.016	7932.29
434.223	8481.15
434.43	9091.45
434.637	8798.59
434.844	9144.69
435.052	9425.26
435.259	9519.47
435.466	9492.85
435.673	9515.37
435.88	10062.18
436.087	10596.7
436.294	10553.69
436.501	10316.13
436.708	10355.04
436.915	10953.05
437.122	11473.23
437.329	11272.53
437.537	11458.9
437.743	11948.36
437.95	11669.84
438.157	12290.37
438.364	12853.56
438.571	12607.81
438.778	13025.59
438.985	14125.35
439.192	13338.93
439.399	13855.02
439.606	13740.33
439.813	14549.28
440.02	15354.13
440.227	15135
440.433	14811.42
440.64	15239.45
440.847	15388.95
441.054	15655.19
441.261	16570.63
441.467	16382.21
441.674	16658.69
441.881	17334.52
442.088	17150.2
442.294	17033.47
442.501	17447.16
442.708	18131.18
442.914	18567.4
443.121	19478.74
443.328	18999.52
443.534	20459.72
443.741	19542.23
443.948	19278.04
444.154	20660.42
444.361	20832.45
444.568	20965.57
444.774	20865.22
444.981	20996.29
445.187	21672.12
445.394	22296.75
445.6	22132.91
445.807	24223.89
446.013	23367.84
446.22	23728.28
446.426	24588.42
446.633	25041.03
446.839	25907.32
447.046	24613
447.252	26153.07
447.459	26003.57
447.665	26022
447.871	26757.22
448.078	28219.47
448.284	26667.11
448.491	28020.82
448.697	28502.09
448.903	28917.83
449.11	29136.96
449.316	28389.45
449.522	29085.76
449.728	29956.15
449.935	30359.6
450.141	29911.1
450.347	30935.08
450.553	29806.65
450.76	30228.53
450.966	31115.3
451.172	30750.76
451.378	31330.34
451.584	30791.72
451.791	31479.84
451.997	31449.12
452.203	31989.78
452.409	31723.55
452.615	31817.75
452.821	30656.56
453.027	30511.15
453.233	32061.46
453.44	30646.32
453.646	30791.72
453.852	30902.31
454.058	31653.92
454.264	30400.56
454.47	31166.5
454.676	30681.13
454.882	31696.92
455.088	28573.77
455.294	28878.92
455.5	29216.83
455.705	29890.62
455.911	28672.07
456.117	27899.99
456.323	27668.57
456.529	26374.25
456.735	27381.85
456.941	26478.7
457.147	26130.55
457.352	25518.2
457.558	24895.62
457.764	25063.55
457.97	24707.21
458.176	24014.99
458.381	24172.69
458.587	22845.6
458.793	22870.18
458.999	21698.74
459.204	23459.99
459.41	22737.06
459.616	20848.83
459.821	21190.84
460.027	21098.69
460.233	20797.63
460.438	19626.2
460.644	19609.81
460.85	18946.27
461.055	18579.68
461.261	18643.17
461.466	17068.28
461.672	16572.68
461.878	17799.41
462.083	16623.87
462.289	16335.11
462.494	16238.86
462.7	15632.66
462.905	15042.84
463.111	15628.56
463.316	15720.72
463.522	15255.83
463.727	15716.62
463.932	15378.71
464.138	15196.44
464.343	15282.45
464.549	14905.63
464.754	15479.06
464.959	15014.17
465.165	14881.05
465.37	14367.01
465.575	14022.95
465.781	14637.34
465.986	14647.58
466.191	14268.71
466.397	14000.43
466.602	13115.7
466.807	13902.12
467.012	13912.36
467.218	13549.87
467.423	13568.3
467.628	13660.46
467.833	14207.27
468.038	13412.66
468.244	13267.25
468.449	13689.14
468.654	13259.06
468.859	13027.64
469.064	13177.14
