Data from USB4F104151__148__11-08-19-271.txt Node

Date: Wed Mar 12 11:08:19 EDT 2025
User: louis
Spectrometer: USB4F10415
Trigger mode: 4
Integration Time (sec): 2.000000E-2
Scans to average: 1
Electric dark correction enabled: true
Nonlinearity correction enabled: false
Boxcar width: 0
XAxis mode: Wavelengths
Number of Pixels in Spectrum: 3648
>>>>>Begin Spectral Data<<<<<
178.204	-37.03
178.424	-37.03
178.644	-37.03
178.864	-84.14
179.084	-139.43
179.304	20.31
179.524	-32.94
179.744	-71.85
179.964	36.69
180.184	67.41
180.404	46.93
180.624	-0.17
180.844	40.79
181.064	5.97
181.283	-20.65
181.503	-28.84
181.723	-63.66
181.943	-47.27
182.163	-45.23
182.383	-80.04
182.602	-51.37
182.822	-14.51
183.042	59.22
183.262	-32.94
183.482	24.4
183.701	30.55
183.921	-28.84
184.141	-71.85
184.361	40.79
184.58	10.07
184.8	-88.23
185.02	-49.32
185.239	8.02
185.459	34.64
185.679	63.32
185.898	44.88
186.118	46.93
186.338	-24.75
186.557	-37.03
186.777	38.74
186.997	12.12
187.216	-32.94
187.436	44.88
187.655	-16.55
187.875	5.97
188.095	-0.17
188.314	-61.61
188.534	32.6
188.753	8.02
188.973	-10.41
189.192	-10.41
189.412	26.45
189.631	61.27
189.851	38.74
190.07	-20.65
190.29	8.02
190.509	8.02
190.729	42.84
190.948	53.08
191.168	108.37
191.387	-12.46
191.607	36.69
191.826	8.02
192.045	8.02
192.265	-12.46
192.484	5.97
192.704	67.41
192.923	53.08
193.142	85.84
193.362	5.97
193.581	1.88
193.8	69.46
194.02	5.97
194.239	69.46
194.458	55.12
194.678	-2.22
194.897	24.4
195.116	46.93
195.335	57.17
195.555	46.93
195.774	-28.84
195.993	-2.22
196.212	16.21
196.432	32.6
196.651	-14.51
196.87	-16.55
197.089	16.21
197.308	34.64
197.528	36.69
197.747	-10.41
197.966	-22.7
198.185	55.12
198.404	38.74
198.623	120.66
198.842	87.89
199.062	46.93
199.281	71.51
199.5	-32.94
199.719	79.7
199.938	32.6
200.157	-0.17
200.376	-4.27
200.595	12.12
200.814	-41.13
201.033	26.45
201.252	16.21
201.471	-24.75
201.69	26.45
201.909	24.4
202.128	16.21
202.347	16.21
202.566	-18.6
202.785	44.88
203.004	-53.42
203.223	-16.55
203.442	-28.84
203.661	1.88
203.879	-77.99
204.098	85.84
204.317	14.17
204.536	28.5
204.755	26.45
204.974	104.28
205.193	-18.6
205.411	71.51
205.63	-34.99
205.849	-30.89
206.068	-37.03
206.287	-4.27
206.505	16.21
206.724	10.07
206.943	-6.31
207.162	-96.43
207.381	10.07
207.599	42.84
207.818	28.5
208.037	-20.65
208.255	16.21
208.474	44.88
208.693	-18.6
208.911	-8.36
209.13	-10.41
209.349	59.22
209.567	-18.6
209.786	61.27
210.005	73.56
210.223	63.32
210.442	-8.36
210.661	57.17
210.879	53.08
211.098	30.55
211.316	18.26
211.535	48.98
211.753	12.12
211.972	-6.31
212.191	36.69
212.409	34.64
212.628	32.6
212.846	-34.99
213.065	53.08
213.283	71.51
213.502	-14.51
213.72	-37.03
213.938	-28.84
214.157	53.08
214.375	30.55
214.594	-22.7
214.812	24.4
215.031	36.69
215.249	42.84
215.467	71.51
215.686	20.31
215.904	-14.51
216.122	42.84
216.341	-43.18
216.559	67.41
216.778	-0.17
216.996	73.56
217.214	36.69
217.432	-4.27
217.651	-18.6
217.869	-55.47
218.087	-18.6
218.306	14.17
218.524	1.88
218.742	10.07
218.96	83.8
219.179	-8.36
219.397	-16.55
219.615	34.64
219.833	48.98
220.051	-16.55
220.27	91.99
220.488	61.27
220.706	-32.94
220.924	-24.75
221.142	44.88
221.36	77.65
221.578	-61.61
221.796	20.31
222.015	-20.65
222.233	55.12
222.451	40.79
222.669	-0.17
222.887	40.79
223.105	114.52
223.323	38.74
223.541	85.84
223.759	14.17
223.977	18.26
224.195	24.4
224.413	36.69
224.631	22.36
224.849	-2.22
225.067	110.42
225.285	12.12
225.503	44.88
225.721	-4.27
225.939	36.69
226.157	67.41
226.375	61.27
226.592	-41.13
226.81	-57.51
227.028	20.31
227.246	18.26
227.464	-0.17
227.682	-37.03
227.9	-10.41
228.117	96.08
228.335	61.27
228.553	59.22
228.771	-14.51
228.989	16.21
229.206	3.93
229.424	-16.55
229.642	12.12
229.86	12.12
230.077	12.12
230.295	-16.55
230.513	-4.27
230.731	22.36
230.948	48.98
231.166	-2.22
231.384	10.07
231.601	-8.36
231.819	73.56
232.037	-22.7
232.254	-12.46
232.472	65.36
232.689	28.5
232.907	-8.36
233.125	22.36
233.342	28.5
233.56	-8.36
233.777	-41.13
233.995	38.74
234.213	61.27
234.43	34.64
234.648	-28.84
234.865	87.89
235.083	-2.22
235.3	-20.65
235.518	87.89
235.735	-22.7
235.953	44.88
236.17	36.69
236.388	-4.27
236.605	18.26
236.822	16.21
237.04	12.12
237.257	5.97
237.475	18.26
237.692	32.6
237.909	-4.27
238.127	28.5
238.344	-12.46
238.562	22.36
238.779	30.55
238.996	-28.84
239.214	63.32
239.431	-18.6
239.648	96.08
239.865	24.4
240.083	8.02
240.3	55.12
240.517	5.97
240.735	16.21
240.952	55.12
241.169	30.55
241.386	53.08
241.603	55.12
241.821	-30.89
242.038	-24.75
242.255	-14.51
242.472	44.88
242.689	18.26
242.907	-0.17
243.124	-28.84
243.341	73.56
243.558	-12.46
243.775	14.17
243.992	-16.55
244.209	1.88
244.426	44.88
244.643	83.8
244.86	55.12
245.078	61.27
245.295	46.93
245.512	89.94
245.729	34.64
245.946	55.12
246.163	44.88
246.38	61.27
246.597	22.36
246.814	22.36
247.031	48.98
247.248	40.79
247.464	20.31
247.681	8.02
247.898	132.95
248.115	24.4
248.332	-34.99
248.549	53.08
248.766	89.94
248.983	63.32
249.2	-12.46
249.417	65.36
249.633	30.55
249.85	3.93
250.067	28.5
250.284	-18.6
250.501	38.74
250.717	44.88
250.934	-51.37
251.151	-34.99
251.368	-24.75
251.585	79.7
251.801	63.32
252.018	-32.94
252.235	77.65
252.451	3.93
252.668	79.7
252.885	42.84
253.102	22.36
253.318	-20.65
253.535	24.4
253.752	-51.37
253.968	-28.84
254.185	3.93
254.401	-12.46
254.618	10.07
254.835	20.31
255.051	106.32
255.268	28.5
255.484	-2.22
255.701	20.31
255.917	65.36
256.134	-30.89
256.351	22.36
256.567	-0.17
256.784	32.6
257	5.97
257.217	-20.65
257.433	30.55
257.65	63.32
257.866	34.64
258.082	94.04
258.299	8.02
258.515	22.36
258.732	24.4
258.948	8.02
259.165	48.98
259.381	-28.84
259.597	30.55
259.814	3.93
260.03	1.88
260.246	55.12
260.463	36.69
260.679	20.31
260.895	87.89
261.112	20.31
261.328	-24.75
261.544	48.98
261.761	102.23
261.977	3.93
262.193	8.02
262.409	46.93
262.626	40.79
262.842	-53.42
263.058	-10.41
263.274	75.6
263.49	24.4
263.707	-0.17
263.923	30.55
264.139	-2.22
264.355	28.5
264.571	112.47
264.787	38.74
265.004	28.5
265.22	-18.6
265.436	-67.75
265.652	-16.55
265.868	-4.27
266.084	1.88
266.3	-0.17
266.516	61.27
266.732	42.84
266.948	34.64
267.164	3.93
267.38	59.22
267.596	-16.55
267.812	73.56
268.028	85.84
268.244	-49.32
268.46	20.31
268.676	34.64
268.892	-8.36
269.108	8.02
269.324	-24.75
269.54	53.08
269.756	65.36
269.972	-12.46
270.188	36.69
270.403	-28.84
270.619	5.97
270.835	-12.46
271.051	30.55
271.267	18.26
271.483	42.84
271.698	36.69
271.914	44.88
272.13	-2.22
272.346	38.74
272.562	-6.31
272.777	53.08
272.993	-22.7
273.209	24.4
273.425	61.27
273.64	79.7
273.856	73.56
274.072	20.31
274.287	-63.66
274.503	26.45
274.719	69.46
274.934	3.93
275.15	-53.42
275.366	-41.13
275.581	34.64
275.797	48.98
276.012	65.36
276.228	100.18
276.444	-2.22
276.659	59.22
276.875	59.22
277.09	-14.51
277.306	-12.46
277.521	28.5
277.737	44.88
277.952	36.69
278.168	38.74
278.383	89.94
278.599	87.89
278.814	32.6
279.03	32.6
279.245	5.97
279.461	8.02
279.676	40.79
279.892	57.17
280.107	10.07
280.322	12.12
280.538	12.12
280.753	36.69
280.969	34.64
281.184	61.27
281.399	77.65
281.615	61.27
281.83	81.75
282.045	20.31
282.26	1.88
282.476	-61.61
282.691	-0.17
282.906	-12.46
283.122	114.52
283.337	12.12
283.552	14.17
283.767	59.22
283.983	3.93
284.198	28.5
284.413	114.52
284.628	40.79
284.843	155.47
285.058	65.36
285.274	3.93
285.489	75.6
285.704	48.98
285.919	-45.23
286.134	18.26
286.349	34.64
286.564	34.64
286.779	24.4
286.995	-12.46
287.21	28.5
287.425	83.8
287.64	14.17
287.855	44.88
288.07	34.64
288.285	42.84
288.5	42.84
288.715	108.37
288.93	3.93
289.145	83.8
289.36	51.03
289.575	-4.27
289.79	51.03
290.004	-2.22
290.219	42.84
290.434	10.07
290.649	61.27
290.864	1.88
291.079	-69.8
291.294	48.98
291.509	20.31
291.724	46.93
291.938	73.56
292.153	8.02
292.368	12.12
292.583	-34.99
292.798	8.02
293.012	63.32
293.227	63.32
293.442	89.94
293.657	55.12
293.871	94.04
294.086	63.32
294.301	32.6
294.516	40.79
294.73	44.88
294.945	26.45
295.16	22.36
295.374	59.22
295.589	83.8
295.804	57.17
296.018	77.65
296.233	-34.99
296.447	26.45
296.662	48.98
296.877	-75.95
297.091	36.69
297.306	32.6
297.52	-28.84
297.735	61.27
297.949	14.17
298.164	57.17
298.378	16.21
298.593	14.17
298.807	77.65
299.022	69.46
299.236	26.45
299.451	53.08
299.665	20.31
299.88	24.4
300.094	-6.31
300.309	34.64
300.523	8.02
300.737	-20.65
300.952	-2.22
301.166	12.12
301.381	3.93
301.595	26.45
301.809	48.98
302.024	48.98
302.238	-10.41
302.452	14.17
302.667	38.74
302.881	75.6
303.095	75.6
303.309	-0.17
303.524	63.32
303.738	34.64
303.952	87.89
304.166	-6.31
304.381	-12.46
304.595	57.17
304.809	-6.31
305.023	20.31
305.237	-22.7
305.452	112.47
305.666	-49.32
305.88	38.74
306.094	73.56
306.308	42.84
306.522	-22.7
306.736	51.03
306.95	73.56
307.164	81.75
307.379	-18.6
307.593	69.46
307.807	57.17
308.021	85.84
308.235	61.27
308.449	-2.22
308.663	12.12
308.877	5.97
309.091	-16.55
309.305	53.08
309.519	-41.13
309.733	73.56
309.947	32.6
310.161	81.75
310.374	3.93
310.588	-20.65
310.802	-0.17
311.016	-30.89
311.23	8.02
311.444	57.17
311.658	-6.31
311.872	48.98
312.085	51.03
312.299	28.5
312.513	20.31
312.727	32.6
312.941	22.36
313.154	79.7
313.368	1.88
313.582	-32.94
313.796	143.19
314.009	26.45
314.223	132.95
314.437	36.69
314.651	118.61
314.864	40.79
315.078	-4.27
315.292	83.8
315.505	3.93
315.719	-34.99
315.933	46.93
316.146	51.03
316.36	-0.17
316.573	81.75
316.787	59.22
317.001	87.89
317.214	28.5
317.428	48.98
317.641	55.12
317.855	24.4
318.068	-2.22
318.282	59.22
318.495	57.17
318.709	108.37
318.922	61.27
319.136	26.45
319.349	-8.36
319.563	-26.79
319.776	79.7
319.99	34.64
320.203	26.45
320.417	20.31
320.63	73.56
320.843	18.26
321.057	14.17
321.27	16.21
321.483	26.45
321.697	28.5
321.91	73.56
322.124	36.69
322.337	42.84
322.55	14.17
322.763	-24.75
322.977	36.69
323.19	-28.84
323.403	83.8
323.617	22.36
323.83	-16.55
324.043	38.74
324.256	14.17
324.469	10.07
324.683	-8.36
324.896	48.98
325.109	8.02
325.322	69.46
325.535	110.42
325.748	18.26
325.962	85.84
326.175	40.79
326.388	-4.27
326.601	65.36
326.814	63.32
327.027	-32.94
327.24	61.27
327.453	-0.17
327.666	57.17
327.879	-2.22
328.092	-20.65
328.305	61.27
328.518	36.69
328.731	81.75
328.944	3.93
329.157	40.79
329.37	-37.03
329.583	114.52
329.796	-12.46
330.009	34.64
330.222	30.55
330.435	51.03
330.648	32.6
330.861	61.27
331.073	53.08
331.286	16.21
331.499	42.84
331.712	-69.8
331.925	22.36
332.138	75.6
332.35	55.12
332.563	-10.41
332.776	12.12
332.989	16.21
333.202	38.74
333.414	65.36
333.627	67.41
333.84	22.36
334.053	20.31
334.265	32.6
334.478	-65.71
334.691	65.36
334.903	32.6
335.116	5.97
335.329	20.31
335.541	63.32
335.754	153.43
335.966	-30.89
336.179	53.08
336.392	71.51
336.604	106.32
336.817	104.28
337.029	38.74
337.242	20.31
337.454	114.52
337.667	69.46
337.88	59.22
338.092	12.12
338.305	38.74
338.517	28.5
338.729	77.65
338.942	77.65
339.154	28.5
339.367	-26.79
339.579	61.27
339.792	63.32
340.004	10.07
340.217	12.12
340.429	122.71
340.641	30.55
340.854	8.02
341.066	-51.37
341.278	61.27
341.491	104.28
341.703	75.6
341.915	51.03
342.128	55.12
342.34	67.41
342.552	-4.27
342.764	10.07
342.977	61.27
343.189	44.88
343.401	30.55
343.613	12.12
343.826	22.36
344.038	46.93
344.25	32.6
344.462	14.17
344.674	3.93
344.886	77.65
345.099	65.36
345.311	57.17
345.523	53.08
345.735	-61.61
345.947	61.27
346.159	81.75
346.371	20.31
346.583	85.84
346.795	32.6
347.007	-34.99
347.219	10.07
347.431	1.88
347.643	59.22
347.855	22.36
348.067	-39.08
348.279	14.17
348.491	59.22
348.703	77.65
348.915	24.4
349.127	8.02
349.339	28.5
349.551	-4.27
349.763	112.47
349.975	73.56
350.187	85.84
350.399	36.69
350.61	-26.79
350.822	8.02
351.034	61.27
351.246	40.79
351.458	42.84
351.669	73.56
351.881	87.89
352.093	1.88
352.305	28.5
352.517	55.12
352.728	46.93
352.94	10.07
353.152	26.45
353.363	34.64
353.575	63.32
353.787	8.02
353.999	-20.65
354.21	102.23
354.422	5.97
354.633	-8.36
354.845	30.55
355.057	65.36
355.268	79.7
355.48	73.56
355.692	-12.46
355.903	-12.46
356.115	28.5
356.326	-2.22
356.538	69.46
356.749	104.28
356.961	26.45
357.172	40.79
357.384	34.64
357.595	1.88
357.807	32.6
358.018	1.88
358.23	55.12
358.441	94.04
358.653	32.6
358.864	34.64
359.075	32.6
359.287	32.6
359.498	48.98
359.709	61.27
359.921	10.07
360.132	-22.7
360.344	48.98
360.555	44.88
360.766	8.02
360.977	71.51
361.189	69.46
361.4	14.17
361.611	-16.55
361.823	46.93
362.034	55.12
362.245	-49.32
362.456	34.64
362.667	57.17
362.879	-18.6
363.09	40.79
363.301	53.08
363.512	42.84
363.723	91.99
363.935	120.66
364.146	75.6
364.357	20.31
364.568	16.21
364.779	-75.95
364.99	53.08
365.201	-37.03
365.412	104.28
365.623	46.93
365.834	71.51
366.045	-10.41
366.256	87.89
366.467	34.64
366.678	77.65
366.889	73.56
367.1	55.12
367.311	79.7
367.522	42.84
367.733	26.45
367.944	61.27
368.155	-37.03
368.366	-6.31
368.577	118.61
368.788	114.52
368.999	26.45
369.209	22.36
369.42	57.17
369.631	139.09
369.842	53.08
370.053	91.99
370.264	3.93
370.474	-10.41
370.685	16.21
370.896	10.07
371.107	61.27
371.317	8.02
371.528	24.4
371.739	124.76
371.95	32.6
372.16	108.37
372.371	-30.89
372.582	57.17
372.792	1.88
373.003	42.84
373.214	69.46
373.424	91.99
373.635	3.93
373.846	87.89
374.056	71.51
374.267	130.9
374.477	46.93
374.688	57.17
374.898	53.08
375.109	98.13
375.319	34.64
375.53	110.42
375.74	53.08
375.951	18.26
376.161	20.31
376.372	22.36
376.582	18.26
376.793	75.6
377.003	87.89
377.214	63.32
377.424	57.17
377.635	73.56
377.845	38.74
378.055	151.38
378.266	14.17
378.476	36.69
378.686	-10.41
378.897	69.46
379.107	81.75
379.317	53.08
379.528	24.4
379.738	-16.55
379.948	-10.41
380.158	18.26
380.369	-4.27
380.579	85.84
380.789	108.37
380.999	16.21
381.21	81.75
381.42	57.17
381.63	38.74
381.84	102.23
382.05	116.56
382.261	34.64
382.471	40.79
382.681	67.41
382.891	48.98
383.101	22.36
383.311	-24.75
383.521	59.22
383.731	77.65
383.941	28.5
384.151	-8.36
384.361	8.02
384.571	38.74
384.781	24.4
384.991	65.36
385.201	75.6
385.411	-63.66
385.621	55.12
385.831	-6.31
386.041	65.36
386.251	57.17
386.461	77.65
386.671	89.94
386.881	61.27
387.091	-20.65
387.301	59.22
387.511	53.08
387.72	55.12
387.93	85.84
388.14	67.41
388.35	114.52
388.56	59.22
388.769	36.69
388.979	-4.27
389.189	1.88
389.399	57.17
389.609	28.5
389.818	73.56
390.028	16.21
390.238	36.69
390.447	55.12
390.657	67.41
390.867	16.21
391.076	12.12
391.286	87.89
391.496	106.32
391.705	16.21
391.915	65.36
392.125	40.79
392.334	12.12
392.544	89.94
392.753	180.05
392.963	28.5
393.172	85.84
393.382	3.93
393.591	91.99
393.801	28.5
394.01	112.47
394.22	94.04
394.429	26.45
394.639	38.74
394.848	141.14
395.058	71.51
395.267	83.8
395.477	126.8
395.686	46.93
395.895	42.84
396.105	130.9
396.314	137.04
396.524	155.47
396.733	122.71
396.942	139.09
397.152	157.52
397.361	87.89
397.57	149.33
397.78	108.37
397.989	91.99
398.198	173.91
398.407	91.99
398.617	110.42
398.826	69.46
399.035	77.65
399.244	159.57
399.453	81.75
399.663	96.08
399.872	67.41
400.081	106.32
400.29	63.32
400.499	77.65
400.708	132.95
400.917	130.9
401.127	116.56
401.336	147.28
401.545	98.13
401.754	94.04
401.963	61.27
402.172	96.08
402.381	100.18
402.59	180.05
402.799	106.32
403.008	106.32
403.217	132.95
403.426	55.12
403.635	137.04
403.844	98.13
404.053	167.76
404.262	110.42
404.471	186.19
404.68	175.95
404.888	128.85
405.097	73.56
405.306	186.19
405.515	116.56
405.724	118.61
405.933	204.63
406.142	221.01
406.35	186.19
406.559	122.71
406.768	114.52
406.977	106.32
407.185	221.01
407.394	200.53
407.603	153.43
407.812	214.87
408.02	261.97
408.229	143.19
408.438	157.52
408.646	137.04
408.855	173.91
409.064	290.64
409.272	231.25
409.481	276.31
409.69	212.82
409.898	329.55
410.107	276.31
410.315	284.5
410.524	284.5
410.733	298.83
410.941	300.88
411.15	337.74
411.358	313.17
411.567	386.9
411.775	423.76
411.984	444.24
412.192	413.52
412.401	421.71
412.609	505.68
412.818	477.01
413.026	483.15
413.234	413.52
413.443	474.96
413.651	530.25
413.86	542.54
414.068	503.63
414.276	567.12
414.485	554.83
414.693	601.93
414.901	597.84
415.11	585.55
415.318	612.17
415.526	653.13
415.734	782.15
415.943	704.33
416.151	696.14
416.359	714.57
416.567	763.72
416.776	827.21
416.984	868.17
417.192	892.74
417.4	905.03
417.608	911.18
417.817	968.52
418.025	999.24
418.233	1029.96
418.441	1070.92
418.649	1058.63
418.857	1122.12
419.065	1199.94
419.273	1187.65
419.481	1201.99
419.689	1277.76
419.897	1343.3
420.105	1388.35
420.313	1400.64
420.521	1492.8
420.729	1525.57
420.937	1531.71
421.145	1578.81
421.353	1668.92
421.561	1765.18
421.769	1804.09
421.977	1781.56
422.185	1945.4
422.393	1980.22
422.601	2174.77
422.809	2111.29
423.017	2160.44
423.224	2125.62
423.432	2166.58
423.64	2342.71
423.848	2471.73
424.056	2404.14
424.263	2574.13
424.471	2561.84
424.679	2694.96
424.887	2694.96
425.094	2953
425.302	2883.37
425.51	2991.91
425.718	3034.92
425.925	3256.1
426.133	3086.12
426.341	3508
426.548	3559.2
426.756	3594.01
426.964	3643.17
427.171	3882.78
427.379	3946.27
427.586	3974.94
427.794	4093.72
428.001	4415.25
428.209	4593.42
428.417	4488.98
428.624	4785.93
428.832	4718.35
429.039	4673.29
429.247	4757.26
429.454	5054.22
429.662	5535.49
429.869	5191.43
430.076	5588.74
430.284	5410.56
430.491	5609.22
430.699	5834.49
430.906	5975.8
431.114	5932.79
431.321	6153.98
431.528	6326
431.736	6721.26
431.943	7106.28
432.15	6833.9
432.358	6735.6
432.565	7352.04
432.772	7321.32
432.979	7827.17
433.187	7530.21
433.394	7876.32
433.601	8447.7
433.808	8388.31
434.016	8152.79
434.223	8570.58
434.43	9166.54
434.637	9055.95
434.844	9471.68
435.052	9838.27
435.259	9825.98
435.466	9805.5
435.673	9621.19
435.88	10409.65
436.087	10819.25
436.294	10722.99
436.501	10776.24
436.708	10866.35
436.915	11308.71
437.122	11845.28
437.329	11714.21
437.537	12140.19
437.743	12218.01
437.95	12215.96
438.157	12666.52
438.364	13135.5
438.571	13117.07
438.778	13084.3
438.985	14351.99
439.192	13645.45
439.399	14204.54
439.606	14098.05
439.813	14765.68
440.02	15711.85
440.227	15433.32
440.433	15367.79
440.64	15765.09
440.847	15558.25
441.054	15748.71
441.261	17186.38
441.467	16803.41
441.674	17372.75
441.881	17962.56
442.088	17870.4
442.294	17563.21
442.501	17894.98
442.708	18607.67
442.914	19007.03
443.121	19797.54
443.328	19627.56
443.534	20905.49
443.741	20389.41
443.948	19981.86
444.154	21425.68
444.361	21407.25
444.568	21315.09
444.774	21401.1
444.981	21779.98
445.187	22251.01
445.394	23287.28
445.6	22898.17
445.807	25316.82
446.013	24165.86
446.22	24528.35
446.426	25671.12
446.633	25654.73
446.839	26277.32
447.046	25333.2
447.252	26811.84
447.459	26928.57
447.665	26750.4
447.871	27964.84
448.078	28732.83
448.284	27506.1
448.491	28519.84
448.697	29263.25
448.903	30033.29
449.11	29982.09
449.316	29681.04
449.522	30477.7
449.728	30893.44
449.935	31393.14
450.141	31059.32
450.347	31980.91
450.553	30533
450.76	31413.62
450.966	32197.99
451.172	31462.77
451.378	32302.44
451.584	31972.72
451.791	32632.16
451.997	32490.85
452.203	33176.92
452.409	33097.05
452.615	32808.29
452.821	31448.44
453.027	31335.8
453.233	32861.54
453.44	31425.91
453.646	31812.98
453.852	31729.01
454.058	32458.09
454.264	31417.72
454.47	32177.51
454.676	31343.99
454.882	32249.19
455.088	29451.67
455.294	29592.98
455.5	30240.14
455.705	30358.92
455.911	29277.59
456.117	28648.86
456.323	28153.26
456.529	26514.88
456.735	27989.42
456.941	27401.65
457.147	27028.92
457.352	26213.83
457.558	25701.84
457.764	25920.97
457.97	25306.58
458.176	24729.05
458.381	24649.18
458.587	23180.79
458.793	23735.79
458.999	21992.97
459.204	23707.12
459.41	23256.56
459.616	21310.99
459.821	21782.02
460.027	21593.61
460.233	21118.48
460.438	20209.18
460.644	20190.75
460.85	19263.02
461.055	19252.78
461.261	18886.2
461.466	17552.97
461.672	17010.26
461.878	18048.58
462.083	17188.43
462.289	16750.17
462.494	16477.79
462.7	16006.75
462.905	15507.05
463.111	16109.15
463.316	16139.87
463.522	15640.17
463.727	15656.55
463.932	15707.75
464.138	15322.73
464.343	15615.59
464.549	15042.16
464.754	15513.19
464.959	15461.99
465.165	15343.21
465.37	14882.42
465.575	14607.99
465.781	15089.26
465.986	15050.35
466.191	14491.26
466.397	14374.52
466.602	13448.84
466.807	14118.53
467.012	14212.73
467.218	14118.53
467.423	13936.26
