Data from USB4F104151__126__11-07-36-856.txt Node

Date: Wed Mar 12 11:07:36 EDT 2025
User: louis
Spectrometer: USB4F10415
Trigger mode: 4
Integration Time (sec): 2.000000E-2
Scans to average: 1
Electric dark correction enabled: true
Nonlinearity correction enabled: false
Boxcar width: 0
XAxis mode: Wavelengths
Number of Pixels in Spectrum: 3648
>>>>>Begin Spectral Data<<<<<
178.204	-93.35
178.424	-93.35
178.644	-93.35
178.864	-70.83
179.084	-62.63
179.304	-15.53
179.524	17.24
179.744	41.81
179.964	13.14
180.184	17.24
180.404	23.38
180.624	-31.91
180.844	7
181.064	-15.53
181.283	2.9
181.503	-27.82
181.723	-31.91
181.943	-68.78
182.163	68.44
182.383	-42.15
182.602	56.15
182.822	-17.58
183.042	29.52
183.262	19.29
183.482	-33.96
183.701	47.96
183.921	7
184.141	-42.15
184.361	66.39
184.58	-9.39
184.8	-15.53
185.02	58.2
185.239	-11.43
185.459	-29.87
185.679	-42.15
185.898	45.91
186.118	50
186.338	2.9
186.557	21.33
186.777	-72.87
186.997	-27.82
187.216	11.09
187.436	70.48
187.655	33.62
187.875	13.14
188.095	-15.53
188.314	-1.19
188.534	-3.24
188.753	-25.77
188.973	-1.19
189.192	11.09
189.412	23.38
189.631	68.44
189.851	-11.43
190.07	68.44
190.29	58.2
190.509	17.24
190.729	47.96
190.948	88.92
191.168	70.48
191.387	25.43
191.607	-7.34
191.826	86.87
192.045	33.62
192.265	-25.77
192.484	-5.29
192.704	-9.39
192.923	-21.67
193.142	50
193.362	78.68
193.581	29.52
193.8	0.85
194.02	-7.34
194.239	-19.63
194.458	-11.43
194.678	9.05
194.897	17.24
195.116	11.09
195.335	45.91
195.555	-1.19
195.774	58.2
195.993	-9.39
196.212	-11.43
196.432	-27.82
196.651	39.76
196.87	43.86
197.089	56.15
197.308	45.91
197.528	115.54
197.747	-81.07
197.966	50
198.185	56.15
198.404	17.24
198.623	74.58
198.842	-15.53
199.062	50
199.281	45.91
199.5	76.63
199.719	35.67
199.938	33.62
200.157	68.44
200.376	-38.06
200.595	21.33
200.814	13.14
201.033	13.14
201.252	35.67
201.471	-9.39
201.69	-42.15
201.909	43.86
202.128	45.91
202.347	-17.58
202.566	13.14
202.785	-27.82
203.004	-56.49
203.223	64.34
203.442	9.05
203.661	4.95
203.879	-11.43
204.098	-52.39
204.317	0.85
204.536	47.96
204.755	43.86
204.974	62.29
205.193	37.72
205.411	25.43
205.63	-31.91
205.849	23.38
206.068	-3.24
206.287	-3.24
206.505	54.1
206.724	2.9
206.943	54.1
207.162	17.24
207.381	29.52
207.599	-27.82
207.818	0.85
208.037	41.81
208.255	66.39
208.474	41.81
208.693	-21.67
208.911	33.62
209.13	7
209.349	99.16
209.567	33.62
209.786	19.29
210.005	41.81
210.223	47.96
210.442	-44.2
210.661	13.14
210.879	-29.87
211.098	54.1
211.316	-31.91
211.535	80.72
211.753	-56.49
211.972	86.87
212.191	-7.34
212.409	0.85
212.628	25.43
212.846	-72.87
213.065	47.96
213.283	70.48
213.502	70.48
213.72	-56.49
213.938	-93.35
214.157	31.57
214.375	4.95
214.594	15.19
214.812	17.24
215.031	47.96
215.249	58.2
215.467	-5.29
215.686	17.24
215.904	23.38
216.122	39.76
216.341	64.34
216.559	54.1
216.778	-3.24
216.996	31.57
217.214	11.09
217.432	-25.77
217.651	9.05
217.869	-3.24
218.087	-1.19
218.306	21.33
218.524	-1.19
218.742	-19.63
218.96	62.29
219.179	60.24
219.397	-7.34
219.615	78.68
219.833	27.48
220.051	-50.35
220.27	9.05
220.488	54.1
220.706	-5.29
220.924	21.33
221.142	45.91
221.36	-29.87
221.578	4.95
221.796	39.76
222.015	-11.43
222.233	-13.48
222.451	50
222.669	17.24
222.887	93.01
223.105	4.95
223.323	-13.48
223.541	0.85
223.759	-1.19
223.977	-11.43
224.195	50
224.413	25.43
224.631	27.48
224.849	15.19
225.067	123.73
225.285	-15.53
225.503	43.86
225.721	-5.29
225.939	39.76
226.157	-7.34
226.375	35.67
226.592	11.09
226.81	76.63
227.028	33.62
227.246	62.29
227.464	-17.58
227.682	76.63
227.9	15.19
228.117	-1.19
228.335	-42.15
228.553	-3.24
228.771	56.15
228.989	-25.77
229.206	4.95
229.424	58.2
229.642	39.76
229.86	21.33
230.077	64.34
230.295	15.19
230.513	45.91
230.731	52.05
230.948	-5.29
231.166	82.77
231.384	15.19
231.601	43.86
231.819	17.24
232.037	-27.82
232.254	31.57
232.472	17.24
232.689	-29.87
232.907	17.24
233.125	19.29
233.342	-33.96
233.56	45.91
233.777	7
233.995	13.14
234.213	-13.48
234.43	23.38
234.648	45.91
234.865	35.67
235.083	31.57
235.3	0.85
235.518	-60.59
235.735	66.39
235.953	-21.67
236.17	31.57
236.388	88.92
236.605	0.85
236.822	-9.39
237.04	21.33
237.257	-29.87
237.475	17.24
237.692	56.15
237.909	-25.77
238.127	52.05
238.344	39.76
238.562	7
238.779	-15.53
238.996	4.95
239.214	33.62
239.431	31.57
239.648	39.76
239.865	25.43
240.083	4.95
240.3	66.39
240.517	9.05
240.735	29.52
240.952	29.52
241.169	47.96
241.386	21.33
241.603	-1.19
241.821	37.72
242.038	47.96
242.255	86.87
242.472	-3.24
242.689	19.29
242.907	56.15
243.124	76.63
243.341	25.43
243.558	17.24
243.775	-17.58
243.992	-21.67
244.209	-23.72
244.426	76.63
244.643	64.34
244.86	-11.43
245.078	17.24
245.295	-25.77
245.512	23.38
245.729	35.67
245.946	-7.34
246.163	-1.19
246.38	-44.2
246.597	-7.34
246.814	-3.24
247.031	-36.01
247.248	15.19
247.464	-27.82
247.681	50
247.898	-19.63
248.115	-25.77
248.332	2.9
248.549	21.33
248.766	-5.29
248.983	21.33
249.2	2.9
249.417	-9.39
249.633	-7.34
249.85	-36.01
250.067	17.24
250.284	23.38
250.501	-9.39
250.717	0.85
250.934	27.48
251.151	0.85
251.368	82.77
251.585	-44.2
251.801	-46.25
252.018	70.48
252.235	113.49
252.451	41.81
252.668	66.39
252.885	66.39
253.102	70.48
253.318	2.9
253.535	-19.63
253.752	41.81
253.968	-5.29
254.185	78.68
254.401	-25.77
254.618	23.38
254.835	0.85
255.051	41.81
255.268	54.1
255.484	0.85
255.701	11.09
255.917	35.67
256.134	39.76
256.351	27.48
256.567	7
256.784	95.06
257	-15.53
257.217	19.29
257.433	74.58
257.65	15.19
257.866	50
258.082	-38.06
258.299	-56.49
258.515	25.43
258.732	-5.29
258.948	17.24
259.165	-7.34
259.381	43.86
259.597	33.62
259.814	-7.34
260.03	-40.11
260.246	37.72
260.463	68.44
260.679	29.52
260.895	-15.53
261.112	84.82
261.328	4.95
261.544	-23.72
261.761	84.82
261.977	35.67
262.193	-5.29
262.409	33.62
262.626	0.85
262.842	39.76
263.058	-70.83
263.274	29.52
263.49	-76.97
263.707	76.63
263.923	-9.39
264.139	-17.58
264.355	-56.49
264.571	-5.29
264.787	-46.25
265.004	35.67
265.22	-1.19
265.436	35.67
265.652	23.38
265.868	11.09
266.084	-46.25
266.3	52.05
266.516	-11.43
266.732	9.05
266.948	-7.34
267.164	54.1
267.38	13.14
267.596	9.05
267.812	84.82
268.028	62.29
268.244	66.39
268.46	13.14
268.676	13.14
268.892	-25.77
269.108	-40.11
269.324	-5.29
269.54	-25.77
269.756	76.63
269.972	101.2
270.188	27.48
270.403	-5.29
270.619	47.96
270.835	58.2
271.051	33.62
271.267	-21.67
271.483	31.57
271.698	21.33
271.914	66.39
272.13	74.58
272.346	-44.2
272.562	17.24
272.777	13.14
272.993	-48.3
273.209	47.96
273.425	33.62
273.64	-46.25
273.856	21.33
274.072	15.19
274.287	-17.58
274.503	9.05
274.719	66.39
274.934	50
275.15	-31.91
275.366	-5.29
275.581	-40.11
275.797	-19.63
276.012	9.05
276.228	99.16
276.444	-29.87
276.659	45.91
276.875	29.52
277.09	62.29
277.306	-27.82
277.521	33.62
277.737	21.33
277.952	35.67
278.168	-13.48
278.383	76.63
278.599	-46.25
278.814	15.19
279.03	-3.24
279.245	37.72
279.461	-1.19
279.676	45.91
279.892	-23.72
280.107	17.24
280.322	68.44
280.538	15.19
280.753	-54.44
280.969	41.81
281.184	25.43
281.399	99.16
281.615	-21.67
281.83	72.53
282.045	-91.31
282.26	84.82
282.476	-38.06
282.691	15.19
282.906	19.29
283.122	54.1
283.337	0.85
283.552	4.95
283.767	25.43
283.983	-38.06
284.198	2.9
284.413	-64.68
284.628	-15.53
284.843	62.29
285.058	72.53
285.274	-46.25
285.489	-3.24
285.704	-31.91
285.919	41.81
286.134	-11.43
286.349	88.92
286.564	17.24
286.779	-7.34
286.995	50
287.21	2.9
287.425	-1.19
287.64	15.19
287.855	-1.19
288.07	9.05
288.285	7
288.5	-15.53
288.715	62.29
288.93	37.72
289.145	11.09
289.36	41.81
289.575	-40.11
289.79	37.72
290.004	37.72
290.219	33.62
290.434	47.96
290.649	-3.24
290.864	-13.48
291.079	50
291.294	-17.58
291.509	47.96
291.724	37.72
291.938	-5.29
292.153	2.9
292.368	9.05
292.583	88.92
292.798	29.52
293.012	50
293.227	62.29
293.442	17.24
293.657	-17.58
293.871	56.15
294.086	52.05
294.301	52.05
294.516	31.57
294.73	11.09
294.945	25.43
295.16	109.4
295.374	52.05
295.589	39.76
295.804	-60.59
296.018	-19.63
296.233	9.05
296.447	-33.96
296.662	88.92
296.877	15.19
297.091	-1.19
297.306	33.62
297.52	-62.63
297.735	47.96
297.949	52.05
298.164	-5.29
298.378	-19.63
298.593	-7.34
298.807	23.38
299.022	29.52
299.236	19.29
299.451	23.38
299.665	68.44
299.88	31.57
300.094	9.05
300.309	66.39
300.523	-11.43
300.737	7
300.952	45.91
301.166	4.95
301.381	31.57
301.595	-1.19
301.809	-31.91
302.024	103.25
302.238	-54.44
302.452	54.1
302.667	54.1
302.881	41.81
303.095	-76.97
303.309	84.82
303.524	-40.11
303.738	35.67
303.952	-11.43
304.166	13.14
304.381	-48.3
304.595	29.52
304.809	-33.96
305.023	68.44
305.237	11.09
305.452	17.24
305.666	21.33
305.88	43.86
306.094	9.05
306.308	45.91
306.522	41.81
306.736	58.2
306.95	-15.53
307.164	27.48
307.379	39.76
307.593	84.82
307.807	7
308.021	29.52
308.235	15.19
308.449	13.14
308.663	-1.19
308.877	21.33
309.091	-9.39
309.305	50
309.519	-1.19
309.733	80.72
309.947	4.95
310.161	33.62
310.374	25.43
310.588	27.48
310.802	82.77
311.016	-5.29
311.23	62.29
311.444	74.58
311.658	-31.91
311.872	86.87
312.085	-19.63
312.299	2.9
312.513	39.76
312.727	27.48
312.941	-11.43
313.154	56.15
313.368	138.07
313.582	54.1
313.796	-11.43
314.009	64.34
314.223	52.05
314.437	43.86
314.651	21.33
314.864	-54.44
315.078	33.62
315.292	29.52
315.505	86.87
315.719	50
315.933	31.57
316.146	39.76
316.36	37.72
316.573	41.81
316.787	103.25
317.001	23.38
317.214	54.1
317.428	88.92
317.641	33.62
317.855	33.62
318.068	64.34
318.282	45.91
318.495	21.33
318.709	64.34
318.922	33.62
319.136	35.67
319.349	66.39
319.563	-21.67
319.776	45.91
319.99	19.29
320.203	62.29
320.417	-9.39
320.63	78.68
320.843	90.96
321.057	60.24
321.27	66.39
321.483	78.68
321.697	111.44
321.91	93.01
322.124	47.96
322.337	86.87
322.55	-3.24
322.763	78.68
322.977	-15.53
323.19	58.2
323.403	72.53
323.617	19.29
323.83	58.2
324.043	-107.69
324.256	35.67
324.469	74.58
324.683	-44.2
324.896	27.48
325.109	-11.43
325.322	-3.24
325.535	58.2
325.748	-1.19
325.962	66.39
326.175	-27.82
326.388	-5.29
326.601	2.9
326.814	45.91
327.027	133.97
327.24	-5.29
327.453	23.38
327.666	43.86
327.879	47.96
328.092	138.07
328.305	-40.11
328.518	2.9
328.731	21.33
328.944	25.43
329.157	2.9
329.37	31.57
329.583	64.34
329.796	-68.78
330.009	-52.39
330.222	70.48
330.435	7
330.648	109.4
330.861	-3.24
331.073	76.63
331.286	-3.24
331.499	50
331.712	39.76
331.925	37.72
332.138	11.09
332.35	17.24
332.563	39.76
332.776	86.87
332.989	-9.39
333.202	80.72
333.414	-17.58
333.627	13.14
333.84	-17.58
334.053	9.05
334.265	-31.91
334.478	37.72
334.691	2.9
334.903	27.48
335.116	4.95
335.329	60.24
335.541	35.67
335.754	39.76
335.966	82.77
336.179	0.85
336.392	-44.2
336.604	7
336.817	-19.63
337.029	17.24
337.242	-19.63
337.454	4.95
337.667	93.01
337.88	-5.29
338.092	27.48
338.305	15.19
338.517	31.57
338.729	-21.67
338.942	-15.53
339.154	56.15
339.367	-38.06
339.579	45.91
339.792	-3.24
340.004	-3.24
340.217	27.48
340.429	-7.34
340.641	64.34
340.854	78.68
341.066	45.91
341.278	66.39
341.491	99.16
341.703	7
341.915	19.29
342.128	68.44
342.34	9.05
342.552	21.33
342.764	9.05
342.977	17.24
343.189	13.14
343.401	19.29
343.613	76.63
343.826	21.33
344.038	39.76
344.25	15.19
344.462	-27.82
344.674	39.76
344.886	45.91
345.099	50
345.311	9.05
345.523	21.33
345.735	33.62
345.947	37.72
346.159	27.48
346.371	43.86
346.583	37.72
346.795	45.91
347.007	33.62
347.219	39.76
347.431	21.33
347.643	76.63
347.855	-15.53
348.067	-11.43
348.279	70.48
348.491	127.83
348.703	23.38
348.915	29.52
349.127	9.05
349.339	43.86
349.551	60.24
349.763	90.96
349.975	9.05
350.187	54.1
350.399	80.72
350.61	54.1
350.822	27.48
351.034	76.63
351.246	-15.53
351.458	35.67
351.669	54.1
351.881	15.19
352.093	56.15
352.305	74.58
352.517	62.29
352.728	80.72
352.94	17.24
353.152	4.95
353.363	-33.96
353.575	25.43
353.787	76.63
353.999	39.76
354.21	54.1
354.422	19.29
354.633	56.15
354.845	62.29
355.057	-1.19
355.268	45.91
355.48	23.38
355.692	-3.24
355.903	31.57
356.115	0.85
356.326	-31.91
356.538	99.16
356.749	39.76
356.961	52.05
357.172	-42.15
357.384	-9.39
357.595	13.14
357.807	13.14
358.018	9.05
358.23	21.33
358.441	74.58
358.653	76.63
358.864	15.19
359.075	-5.29
359.287	-25.77
359.498	95.06
359.709	11.09
359.921	-3.24
360.132	15.19
360.344	29.52
360.555	-7.34
360.766	33.62
360.977	39.76
361.189	41.81
361.4	35.67
361.611	123.73
361.823	-46.25
362.034	29.52
362.245	35.67
362.456	-5.29
362.667	90.96
362.879	109.4
363.09	13.14
363.301	19.29
363.512	-1.19
363.723	17.24
363.935	-17.58
364.146	84.82
364.357	-38.06
364.568	13.14
364.779	47.96
364.99	66.39
365.201	29.52
365.412	31.57
365.623	21.33
365.834	33.62
366.045	115.54
366.256	35.67
366.467	56.15
366.678	60.24
366.889	17.24
367.1	35.67
367.311	21.33
367.522	9.05
367.733	29.52
367.944	78.68
368.155	-46.25
368.366	25.43
368.577	-11.43
368.788	45.91
368.999	70.48
369.209	45.91
369.42	117.59
369.631	64.34
369.842	66.39
370.053	21.33
370.264	41.81
370.474	70.48
370.685	21.33
370.896	17.24
371.107	39.76
371.317	21.33
371.528	21.33
371.739	107.35
371.95	58.2
372.16	13.14
372.371	-1.19
372.582	-21.67
372.792	27.48
373.003	99.16
373.214	82.77
373.424	-15.53
373.635	41.81
373.846	41.81
374.056	56.15
374.267	58.2
374.477	-17.58
374.688	72.53
374.898	-9.39
375.109	76.63
375.319	21.33
375.53	-42.15
375.74	-15.53
375.951	-13.48
376.161	-19.63
376.372	74.58
376.582	54.1
376.793	84.82
377.003	13.14
377.214	37.72
377.424	19.29
377.635	70.48
377.845	17.24
378.055	27.48
378.266	41.81
378.476	84.82
378.686	62.29
378.897	19.29
379.107	70.48
379.317	50
379.528	31.57
379.738	47.96
379.948	68.44
380.158	-3.24
380.369	88.92
380.579	133.97
380.789	25.43
380.999	80.72
381.21	62.29
381.42	76.63
381.63	99.16
381.84	76.63
382.05	43.86
382.261	21.33
382.471	50
382.681	70.48
382.891	37.72
383.101	7
383.311	64.34
383.521	50
383.731	68.44
383.941	19.29
384.151	-3.24
384.361	52.05
384.571	76.63
384.781	80.72
384.991	107.35
385.201	97.11
385.411	58.2
385.621	60.24
385.831	-23.72
386.041	56.15
386.251	66.39
386.461	2.9
386.671	119.64
386.881	4.95
387.091	15.19
387.301	68.44
387.511	17.24
387.72	9.05
387.93	7
388.14	29.52
388.35	41.81
388.56	60.24
388.769	25.43
388.979	88.92
389.189	72.53
389.399	21.33
389.609	33.62
389.818	97.11
390.028	62.29
390.238	45.91
390.447	-17.58
390.657	37.72
390.867	58.2
391.076	35.67
391.286	90.96
391.496	29.52
391.705	23.38
391.915	39.76
392.125	62.29
392.334	84.82
392.544	105.3
392.753	58.2
392.963	37.72
393.172	58.2
393.382	47.96
393.591	68.44
393.801	99.16
394.01	99.16
394.22	90.96
394.429	52.05
394.639	107.35
394.848	27.48
395.058	80.72
395.267	39.76
395.477	66.39
395.686	41.81
395.895	74.58
396.105	95.06
396.314	131.92
396.524	78.68
396.733	66.39
396.942	80.72
397.152	50
397.361	119.64
397.57	47.96
397.78	101.2
397.989	43.86
398.198	99.16
398.407	54.1
398.617	74.58
398.826	99.16
399.035	31.57
399.244	64.34
399.453	58.2
399.663	39.76
399.872	162.64
400.081	54.1
400.29	150.36
400.499	88.92
400.708	105.3
400.917	47.96
401.127	103.25
401.336	35.67
401.545	119.64
401.754	56.15
401.963	31.57
402.172	123.73
402.381	119.64
402.59	68.44
402.799	168.79
403.008	113.49
403.217	150.36
403.426	136.02
403.635	95.06
403.844	107.35
404.053	62.29
404.262	123.73
404.471	117.59
404.68	170.83
404.888	140.12
405.097	156.5
405.306	113.49
405.515	82.77
405.724	203.6
405.933	207.7
406.142	113.49
406.35	219.99
406.559	195.41
406.768	203.6
406.977	195.41
407.185	148.31
407.394	203.6
407.603	129.88
407.812	138.07
408.02	248.66
408.229	154.45
408.438	187.22
408.646	244.56
408.855	226.13
409.064	244.56
409.272	211.79
409.481	236.37
409.69	168.79
409.898	215.89
410.107	312.14
410.315	260.95
410.524	301.9
410.733	320.34
410.941	213.84
411.15	381.78
411.358	346.96
411.567	316.24
411.775	373.58
411.984	381.78
412.192	377.68
412.401	457.55
412.609	465.74
412.818	365.39
413.026	439.12
413.234	437.07
413.443	435.02
413.651	447.31
413.86	416.59
414.068	555.85
414.276	551.76
414.485	543.57
414.693	574.28
414.901	623.44
415.11	541.52
415.318	615.24
415.526	688.97
415.734	590.67
415.943	738.12
416.151	688.97
416.359	703.31
416.567	672.59
416.776	791.37
416.984	820.04
417.192	863.05
417.4	901.96
417.608	807.75
417.817	867.14
418.025	914.25
418.233	895.82
418.441	990.02
418.649	1022.79
418.857	1112.9
419.065	1100.61
419.273	1119.04
419.481	1170.24
419.689	1264.45
419.897	1254.21
420.105	1278.79
420.313	1334.08
420.521	1360.7
420.729	1332.03
420.937	1395.52
421.145	1561.41
421.353	1581.89
421.561	1696.57
421.769	1690.43
421.977	1755.96
422.185	1731.39
422.393	1917.75
422.601	2093.88
422.809	1993.53
423.017	1981.24
423.224	2083.64
423.432	2181.94
423.64	2091.83
423.848	2341.68
424.056	2368.31
424.263	2403.12
424.471	2489.14
424.679	2523.95
424.887	2743.08
425.094	2808.62
425.302	2818.86
425.51	2777.9
425.718	3031.85
425.925	3068.71
426.133	3189.54
426.341	3316.51
426.548	3328.8
426.756	3326.75
426.964	3408.67
427.171	3717.92
427.379	3709.72
427.586	3795.74
427.794	3959.58
428.001	4041.5
428.209	4367.12
428.417	4279.06
428.624	4481.81
428.832	4477.71
429.039	4547.34
429.247	4504.34
429.454	4815.63
429.662	4985.61
429.869	4842.25
430.076	5237.51
430.284	5047.05
430.491	5323.52
430.699	5647.1
430.906	5530.37
431.114	5776.13
431.321	5948.15
431.528	6052.6
431.736	6318.84
431.943	6816.49
432.15	6406.9
432.358	6681.33
432.565	6912.75
432.772	6898.41
432.979	7439.08
433.187	7281.38
433.394	7477.99
433.601	8129.24
433.808	7906.01
434.016	8008.41
434.223	8209.11
434.43	8878.8
434.637	8604.37
434.844	9171.66
435.052	9423.56
435.259	9106.12
435.466	9292.49
435.673	9220.81
435.88	9710.27
436.087	10470.07
436.294	10089.15
436.501	10056.38
436.708	10193.59
436.915	10658.48
437.122	10980.01
437.329	11164.33
437.537	11385.51
437.743	11659.94
437.95	11377.32
438.157	12245.66
438.364	12808.85
438.571	12651.16
438.778	12657.3
438.985	14043.78
439.192	13283.98
439.399	13759.11
439.606	13249.16
439.813	14234.24
440.02	14893.68
440.227	14713.46
440.433	14545.53
440.64	14996.08
440.847	15002.22
441.054	15338.09
441.261	16343.64
441.467	15977.06
441.674	16634.46
441.881	17314.38
442.088	16910.93
442.294	17205.84
442.501	17355.34
442.708	17609.29
442.914	18588.22
443.121	19165.74
443.328	18756.15
443.534	20064.8
443.741	19425.84
443.948	19024.44
444.154	20644.38
444.361	20466.21
444.568	20904.47
444.774	20931.09
444.981	20816.41
445.187	21527.05
445.394	22333.95
445.6	22120.96
445.807	24314.34
446.013	23112.18
446.22	23507.44
446.426	24289.76
446.633	24756.7
446.839	25491.92
447.046	24183.27
447.252	25635.28
447.459	25702.86
447.665	25790.92
447.871	26776
448.078	27646.38
448.284	26630.59
448.491	27449.78
448.697	28492.19
448.903	29082.01
449.11	29229.46
449.316	28494.24
449.522	29116.83
449.728	29800.85
449.935	29739.41
450.141	29946.25
450.347	30978.43
450.553	29714.83
450.76	30228.87
450.966	30640.51
451.172	30501.25
451.378	31320.44
451.584	30626.18
451.791	31183.23
451.997	31172.99
452.203	31617.39
452.409	31912.3
452.615	31914.35
452.821	30417.29
453.027	30290.31
453.233	31836.53
453.44	30777.73
453.646	30583.17
453.852	30751.1
454.058	31840.62
454.264	30294.41
454.47	31232.38
454.676	30253.45
454.882	31084.92
455.088	28606.88
455.294	28993.95
455.5	29559.19
455.705	29856.14
455.911	28565.92
456.117	27933.1
456.323	27070.9
456.529	26157.51
456.735	27251.13
456.941	26577.34
457.147	26016.2
457.352	25342.42
457.558	25047.51
457.764	25180.63
457.97	24654.3
458.176	23972.33
458.381	23894.5
458.587	22915.58
458.793	22542.85
458.999	21699.08
459.204	23155.19
459.41	22409.73
459.616	21285.39
459.821	21070.36
460.027	21010.96
460.233	20734.49
460.438	19671.59
460.644	19958.31
460.85	18919.99
461.055	18758.2
461.261	18666.04
461.466	17181.26
461.672	16810.58
461.878	17953.35
462.083	16656.98
462.289	16288.35
462.494	16376.41
462.7	15655.53
462.905	15467.11
463.111	15729.25
463.316	15659.62
463.522	15280.75
463.727	15366.76
463.932	15270.51
464.138	15481.45
464.343	15223.41
464.549	14873.2
464.754	15499.88
464.959	15217.26
465.165	15088.24
465.37	14455.42
465.575	14254.72
465.781	14615.16
465.986	14615.16
466.191	14279.29
466.397	13965.95
466.602	13386.38
466.807	13886.08
467.012	13666.95
467.218	13681.28
467.423	13695.62
467.628	13658.76
467.833	14215.8
468.038	13771.4
468.244	13240.97
468.449	13767.3
468.654	13578.89
