Data from USB4F104151__26__11-05-08-431.txt Node

Date: Wed Mar 12 11:05:08 EDT 2025
User: louis
Spectrometer: USB4F10415
Trigger mode: 4
Integration Time (sec): 2.000000E-2
Scans to average: 1
Electric dark correction enabled: true
Nonlinearity correction enabled: false
Boxcar width: 0
XAxis mode: Wavelengths
Number of Pixels in Spectrum: 3648
>>>>>Begin Spectral Data<<<<<
178.204	-111.44
178.424	-111.44
178.644	-111.44
178.864	-103.25
179.084	-148.31
179.304	19.63
179.524	-76.63
179.744	21.67
179.964	-25.43
180.184	1.19
180.404	-37.72
180.624	-11.09
180.844	-11.09
181.064	-31.57
181.283	89.26
181.503	-19.29
181.723	81.07
181.943	3.24
182.163	54.44
182.383	54.44
182.602	95.4
182.822	3.24
183.042	-39.76
183.262	74.92
183.482	3.24
183.701	70.83
183.921	107.69
184.141	-50
184.361	-11.09
184.58	-54.1
184.8	-9.05
185.02	36.01
185.239	-33.62
185.459	11.43
185.679	56.49
185.898	-7
186.118	62.63
186.338	11.43
186.557	17.58
186.777	27.82
186.997	19.63
187.216	21.67
187.436	93.35
187.655	38.06
187.875	3.24
188.095	-4.95
188.314	91.31
188.534	-15.19
188.753	46.25
188.973	-21.33
189.192	52.39
189.412	23.72
189.631	27.82
189.851	19.63
190.07	40.11
190.29	-4.95
190.509	-25.43
190.729	58.54
190.948	87.21
191.168	119.98
191.387	15.53
191.607	-19.29
191.826	11.43
192.045	11.43
192.265	-35.67
192.484	-17.24
192.704	42.15
192.923	5.29
193.142	3.24
193.362	11.43
193.581	56.49
193.8	23.72
194.02	19.63
194.239	-15.19
194.458	68.78
194.678	68.78
194.897	93.35
195.116	50.35
195.335	60.59
195.555	44.2
195.774	11.43
195.993	-47.96
196.212	64.68
196.432	-25.43
196.651	46.25
196.87	21.67
197.089	31.91
197.308	17.58
197.528	9.39
197.747	11.43
197.966	27.82
198.185	54.44
198.404	19.63
198.623	76.97
198.842	15.53
199.062	-15.19
199.281	40.11
199.5	-58.2
199.719	58.54
199.938	-11.09
200.157	23.72
200.376	25.77
200.595	-19.29
200.814	42.15
201.033	-13.14
201.252	-62.29
201.471	68.78
201.69	13.48
201.909	11.43
202.128	-11.09
202.347	29.87
202.566	40.11
202.785	-13.14
203.004	-2.9
203.223	93.35
203.442	83.11
203.661	-19.29
203.879	19.63
204.098	105.64
204.317	38.06
204.536	31.91
204.755	40.11
204.974	17.58
205.193	-0.85
205.411	50.35
205.63	-43.86
205.849	-0.85
206.068	44.2
206.287	-2.9
206.505	-21.33
206.724	11.43
206.943	85.16
207.162	-45.91
207.381	46.25
207.599	115.88
207.818	-19.29
208.037	62.63
208.255	44.2
208.474	52.39
208.693	-31.57
208.911	66.73
209.13	42.15
209.349	29.87
209.567	-68.44
209.786	-7
210.005	76.97
210.223	-27.48
210.442	36.01
210.661	46.25
210.879	-23.38
211.098	-21.33
211.316	29.87
211.535	87.21
211.753	7.34
211.972	-15.19
212.191	15.53
212.409	93.35
212.628	27.82
212.846	7.34
213.065	-19.29
213.283	19.63
213.502	48.3
213.72	46.25
213.938	-7
214.157	36.01
214.375	-4.95
214.594	56.49
214.812	-41.81
215.031	-9.05
215.249	-45.91
215.467	13.48
215.686	21.67
215.904	72.87
216.122	1.19
216.341	-35.67
216.559	109.74
216.778	7.34
216.996	74.92
217.214	21.67
217.432	36.01
217.651	36.01
217.869	-60.24
218.087	-31.57
218.306	-29.52
218.524	50.35
218.742	-50
218.96	-7
219.179	15.53
219.397	66.73
219.615	70.83
219.833	-21.33
220.051	-23.38
220.27	60.59
220.488	54.44
220.706	50.35
220.924	36.01
221.142	11.43
221.36	7.34
221.578	46.25
221.796	52.39
222.015	-23.38
222.233	29.87
222.451	79.02
222.669	-11.09
222.887	48.3
223.105	-58.2
223.323	7.34
223.541	42.15
223.759	91.31
223.977	31.91
224.195	64.68
224.413	101.55
224.631	23.72
224.849	62.63
225.067	156.84
225.285	-23.38
225.503	29.87
225.721	23.72
225.939	-21.33
226.157	27.82
226.375	99.5
226.592	19.63
226.81	58.54
227.028	60.59
227.246	72.87
227.464	33.96
227.682	66.73
227.9	-0.85
228.117	36.01
228.335	-37.72
228.553	-35.67
228.771	40.11
228.989	48.3
229.206	50.35
229.424	-21.33
229.642	23.72
229.86	29.87
230.077	54.44
230.295	52.39
230.513	44.2
230.731	15.53
230.948	3.24
231.166	83.11
231.384	27.82
231.601	15.53
231.819	105.64
232.037	27.82
232.254	-11.09
232.472	42.15
232.689	-0.85
232.907	60.59
233.125	19.63
233.342	-4.95
233.56	-23.38
233.777	17.58
233.995	23.72
234.213	79.02
234.43	7.34
234.648	17.58
234.865	-19.29
235.083	27.82
235.3	62.63
235.518	-33.62
235.735	19.63
235.953	89.26
236.17	-7
236.388	25.77
236.605	60.59
236.822	111.78
237.04	52.39
237.257	19.63
237.475	19.63
237.692	36.01
237.909	58.54
238.127	79.02
238.344	33.96
238.562	-0.85
238.779	-25.43
238.996	-19.29
239.214	-7
239.431	62.63
239.648	60.59
239.865	-7
240.083	11.43
240.3	36.01
240.517	29.87
240.735	-4.95
240.952	58.54
241.169	33.96
241.386	25.77
241.603	52.39
241.821	83.11
242.038	66.73
242.255	72.87
242.472	62.63
242.689	-0.85
242.907	9.39
243.124	25.77
243.341	36.01
243.558	-7
243.775	-47.96
243.992	1.19
244.209	85.16
244.426	58.54
244.643	19.63
244.86	76.97
245.078	-4.95
245.295	40.11
245.512	72.87
245.729	93.35
245.946	81.07
246.163	-21.33
246.38	17.58
246.597	58.54
246.814	38.06
247.031	76.97
247.248	29.87
247.464	17.58
247.681	-13.14
247.898	70.83
248.115	19.63
248.332	19.63
248.549	36.01
248.766	38.06
248.983	17.58
249.2	70.83
249.417	97.45
249.633	93.35
249.85	-9.05
250.067	25.77
250.284	44.2
250.501	93.35
250.717	42.15
250.934	44.2
251.151	13.48
251.368	-4.95
251.585	1.19
251.801	-72.53
252.018	-11.09
252.235	9.39
252.451	-43.86
252.668	58.54
252.885	19.63
253.102	38.06
253.318	13.48
253.535	11.43
253.752	-27.48
253.968	1.19
254.185	29.87
254.401	29.87
254.618	-25.43
254.835	-103.25
255.051	11.43
255.268	19.63
255.484	44.2
255.701	-11.09
255.917	19.63
256.134	46.25
256.351	-17.24
256.567	-47.96
256.784	29.87
257	44.2
257.217	76.97
257.433	-23.38
257.65	15.53
257.866	36.01
258.082	58.54
258.299	-68.44
258.515	56.49
258.732	25.77
258.948	15.53
259.165	-15.19
259.381	17.58
259.597	50.35
259.814	-11.09
260.03	105.64
260.246	7.34
260.463	15.53
260.679	13.48
260.895	31.91
261.112	27.82
261.328	-13.14
261.544	5.29
261.761	-13.14
261.977	50.35
262.193	-0.85
262.409	-13.14
262.626	7.34
262.842	17.58
263.058	40.11
263.274	64.68
263.49	60.59
263.707	31.91
263.923	-4.95
264.139	11.43
264.355	48.3
264.571	38.06
264.787	66.73
265.004	33.96
265.22	-4.95
265.436	89.26
265.652	38.06
265.868	42.15
266.084	64.68
266.3	11.43
266.516	1.19
266.732	-7
266.948	27.82
267.164	38.06
267.38	25.77
267.596	58.54
267.812	7.34
268.028	81.07
268.244	15.53
268.46	76.97
268.676	-2.9
268.892	5.29
269.108	50.35
269.324	-41.81
269.54	-43.86
269.756	9.39
269.972	13.48
270.188	87.21
270.403	23.72
270.619	52.39
270.835	68.78
271.051	44.2
271.267	36.01
271.483	31.91
271.698	68.78
271.914	117.93
272.13	93.35
272.346	-7
272.562	117.93
272.777	-4.95
272.993	-41.81
273.209	60.59
273.425	134.31
273.64	93.35
273.856	27.82
274.072	23.72
274.287	-23.38
274.503	105.64
274.719	72.87
274.934	-0.85
275.15	-19.29
275.366	5.29
275.581	76.97
275.797	27.82
276.012	15.53
276.228	17.58
276.444	33.96
276.659	70.83
276.875	-4.95
277.09	76.97
277.306	29.87
277.521	-11.09
277.737	38.06
277.952	-27.48
278.168	72.87
278.383	11.43
278.599	29.87
278.814	19.63
279.03	50.35
279.245	52.39
279.461	87.21
279.676	31.91
279.892	9.39
280.107	-2.9
280.322	21.67
280.538	58.54
280.753	50.35
280.969	44.2
281.184	3.24
281.399	7.34
281.615	42.15
281.83	15.53
282.045	29.87
282.26	42.15
282.476	1.19
282.691	70.83
282.906	23.72
283.122	-9.05
283.337	17.58
283.552	79.02
283.767	15.53
283.983	-17.24
284.198	27.82
284.413	44.2
284.628	-90.96
284.843	74.92
285.058	1.19
285.274	-60.24
285.489	-25.43
285.704	40.11
285.919	-25.43
286.134	23.72
286.349	9.39
286.564	46.25
286.779	87.21
286.995	15.53
287.21	48.3
287.425	42.15
287.64	29.87
287.855	-0.85
288.07	19.63
288.285	21.67
288.5	89.26
288.715	64.68
288.93	64.68
289.145	44.2
289.36	93.35
289.575	29.87
289.79	89.26
290.004	-2.9
290.219	-0.85
290.434	9.39
290.649	11.43
290.864	-19.29
291.079	-9.05
291.294	-7
291.509	44.2
291.724	-7
291.938	87.21
292.153	-9.05
292.368	68.78
292.583	56.49
292.798	31.91
293.012	74.92
293.227	11.43
293.442	81.07
293.657	25.77
293.871	11.43
294.086	42.15
294.301	40.11
294.516	70.83
294.73	74.92
294.945	33.96
295.16	23.72
295.374	93.35
295.589	-0.85
295.804	-21.33
296.018	5.29
296.233	72.87
296.447	-27.48
296.662	-2.9
296.877	64.68
297.091	33.96
297.306	64.68
297.52	-37.72
297.735	38.06
297.949	99.5
298.164	56.49
298.378	79.02
298.593	3.24
298.807	-15.19
299.022	70.83
299.236	1.19
299.451	3.24
299.665	62.63
299.88	31.91
300.094	93.35
300.309	7.34
300.523	33.96
300.737	33.96
300.952	52.39
301.166	-7
301.381	-19.29
301.595	-17.24
301.809	23.72
302.024	-4.95
302.238	-19.29
302.452	29.87
302.667	119.98
302.881	48.3
303.095	52.39
303.309	36.01
303.524	64.68
303.738	21.67
303.952	-9.05
304.166	31.91
304.381	83.11
304.595	50.35
304.809	15.53
305.023	3.24
305.237	-60.24
305.452	-13.14
305.666	40.11
305.88	58.54
306.094	-7
306.308	48.3
306.522	38.06
306.736	105.64
306.95	-2.9
307.164	17.58
307.379	11.43
307.593	40.11
307.807	70.83
308.021	38.06
308.235	7.34
308.449	21.67
308.663	15.53
308.877	36.01
309.091	48.3
309.305	7.34
309.519	-45.91
309.733	62.63
309.947	36.01
310.161	-11.09
310.374	23.72
310.588	19.63
310.802	40.11
311.016	103.59
311.23	17.58
311.444	56.49
311.658	60.59
311.872	62.63
312.085	48.3
312.299	40.11
312.513	23.72
312.727	68.78
312.941	-13.14
313.154	48.3
313.368	-13.14
313.582	62.63
313.796	-21.33
314.009	1.19
314.223	38.06
314.437	44.2
314.651	21.67
314.864	44.2
315.078	36.01
315.292	36.01
315.505	-74.58
315.719	19.63
315.933	-52.05
316.146	15.53
316.36	-15.19
316.573	27.82
316.787	11.43
317.001	-13.14
317.214	1.19
317.428	70.83
317.641	44.2
317.855	-7
318.068	-33.62
318.282	-0.85
318.495	13.48
318.709	72.87
318.922	17.58
319.136	36.01
319.349	15.53
319.563	9.39
319.776	48.3
319.99	-4.95
320.203	42.15
320.417	-25.43
320.63	-31.57
320.843	38.06
321.057	31.91
321.27	3.24
321.483	52.39
321.697	130.22
321.91	-17.24
322.124	7.34
322.337	-37.72
322.55	-17.24
322.763	50.35
322.977	-31.57
323.19	13.48
323.403	11.43
323.617	31.91
323.83	44.2
324.043	33.96
324.256	29.87
324.469	-19.29
324.683	48.3
324.896	72.87
325.109	-31.57
325.322	81.07
325.535	68.78
325.748	38.06
325.962	15.53
326.175	81.07
326.388	56.49
326.601	81.07
326.814	-15.19
327.027	40.11
327.24	85.16
327.453	-45.91
327.666	83.11
327.879	21.67
328.092	42.15
328.305	-9.05
328.518	81.07
328.731	46.25
328.944	99.5
329.157	87.21
329.37	50.35
329.583	62.63
329.796	99.5
330.009	56.49
330.222	72.87
330.435	3.24
330.648	38.06
330.861	7.34
331.073	46.25
331.286	31.91
331.499	58.54
331.712	23.72
331.925	-43.86
332.138	42.15
332.35	76.97
332.563	52.39
332.776	5.29
332.989	-15.19
333.202	-4.95
333.414	25.77
333.627	40.11
333.84	21.67
334.053	-35.67
334.265	3.24
334.478	81.07
334.691	9.39
334.903	60.59
335.116	-9.05
335.329	36.01
335.541	40.11
335.754	58.54
335.966	19.63
336.179	124.07
336.392	23.72
336.604	27.82
336.817	-0.85
337.029	111.78
337.242	36.01
337.454	79.02
337.667	74.92
337.88	68.78
338.092	48.3
338.305	44.2
338.517	-33.62
338.729	146.6
338.942	11.43
339.154	13.48
339.367	-25.43
339.579	-0.85
339.792	5.29
340.004	64.68
340.217	36.01
340.429	74.92
340.641	-58.2
340.854	-37.72
341.066	52.39
341.278	5.29
341.491	46.25
341.703	-4.95
341.915	11.43
342.128	52.39
342.34	3.24
342.552	-19.29
342.764	89.26
342.977	-13.14
343.189	-4.95
343.401	46.25
343.613	13.48
343.826	19.63
344.038	101.55
344.25	66.73
344.462	81.07
344.674	50.35
344.886	52.39
345.099	40.11
345.311	25.77
345.523	58.54
345.735	83.11
345.947	36.01
346.159	-15.19
346.371	68.78
346.583	17.58
346.795	36.01
347.007	-4.95
347.219	38.06
347.431	-2.9
347.643	72.87
347.855	-11.09
348.067	-56.15
348.279	-0.85
348.491	62.63
348.703	40.11
348.915	15.53
349.127	42.15
349.339	1.19
349.551	48.3
349.763	76.97
349.975	97.45
350.187	46.25
350.399	-31.57
350.61	58.54
350.822	17.58
351.034	42.15
351.246	31.91
351.458	13.48
351.669	50.35
351.881	95.4
352.093	5.29
352.305	11.43
352.517	-21.33
352.728	48.3
352.94	74.92
353.152	91.31
353.363	-17.24
353.575	7.34
353.787	52.39
353.999	42.15
354.21	85.16
354.422	21.67
354.633	17.58
354.845	52.39
355.057	38.06
355.268	19.63
355.48	33.96
355.692	44.2
355.903	-31.57
356.115	-50
356.326	46.25
356.538	23.72
356.749	13.48
356.961	83.11
357.172	-29.52
357.384	68.78
357.595	60.59
357.807	33.96
358.018	21.67
358.23	70.83
358.441	5.29
358.653	83.11
358.864	72.87
359.075	40.11
359.287	85.16
359.498	29.87
359.709	27.82
359.921	83.11
360.132	97.45
360.344	36.01
360.555	52.39
360.766	-11.09
360.977	50.35
361.189	25.77
361.4	38.06
361.611	56.49
361.823	11.43
362.034	79.02
362.245	36.01
362.456	76.97
362.667	44.2
362.879	87.21
363.09	-56.15
363.301	76.97
363.512	21.67
363.723	33.96
363.935	60.59
364.146	-13.14
364.357	36.01
364.568	42.15
364.779	17.58
364.99	23.72
365.201	-54.1
365.412	134.31
365.623	31.91
365.834	52.39
366.045	56.49
366.256	52.39
366.467	23.72
366.678	79.02
366.889	15.53
367.1	64.68
367.311	7.34
367.522	25.77
367.733	46.25
367.944	13.48
368.155	17.58
368.366	33.96
368.577	11.43
368.788	25.77
368.999	107.69
369.209	81.07
369.42	89.26
369.631	105.64
369.842	17.58
370.053	38.06
370.264	81.07
370.474	-47.96
370.685	58.54
370.896	74.92
371.107	60.59
371.317	19.63
371.528	113.83
371.739	-15.19
371.95	-21.33
372.16	105.64
372.371	13.48
372.582	52.39
372.792	9.39
373.003	21.67
373.214	146.6
373.424	-25.43
373.635	13.48
373.846	-37.72
374.056	58.54
374.267	44.2
374.477	66.73
374.688	99.5
374.898	81.07
375.109	48.3
375.319	74.92
375.53	42.15
375.74	23.72
375.951	-25.43
376.161	81.07
376.372	-15.19
376.582	81.07
376.793	40.11
377.003	38.06
377.214	74.92
377.424	15.53
377.635	25.77
377.845	19.63
378.055	52.39
378.266	13.48
378.476	91.31
378.686	58.54
378.897	44.2
379.107	19.63
379.317	38.06
379.528	17.58
379.738	101.55
379.948	64.68
380.158	31.91
380.369	27.82
380.579	50.35
380.789	83.11
380.999	89.26
381.21	109.74
381.42	70.83
381.63	66.73
381.84	46.25
382.05	74.92
382.261	62.63
382.471	-19.29
382.681	-4.95
382.891	81.07
383.101	111.78
383.311	81.07
383.521	83.11
383.731	52.39
383.941	60.59
384.151	122.02
384.361	66.73
384.571	54.44
384.781	60.59
384.991	29.87
385.201	54.44
385.411	58.54
385.621	-21.33
385.831	3.24
386.041	99.5
386.251	-23.38
386.461	134.31
386.671	-9.05
386.881	81.07
387.091	7.34
387.301	48.3
387.511	25.77
387.72	54.44
387.93	76.97
388.14	46.25
388.35	1.19
388.56	31.91
388.769	52.39
388.979	-9.05
389.189	-9.05
389.399	-17.24
389.609	74.92
389.818	105.64
390.028	85.16
390.238	-2.9
390.447	13.48
390.657	79.02
390.867	23.72
391.076	105.64
391.286	126.12
391.496	105.64
391.705	29.87
391.915	60.59
392.125	85.16
392.334	-2.9
392.544	132.26
392.753	31.91
392.963	64.68
393.172	81.07
393.382	50.35
393.591	72.87
393.801	167.08
394.01	107.69
394.22	60.59
394.429	48.3
394.639	93.35
394.848	21.67
395.058	79.02
395.267	52.39
395.477	58.54
395.686	68.78
395.895	142.5
396.105	169.13
396.314	40.11
396.524	60.59
396.733	97.45
396.942	48.3
397.152	85.16
397.361	74.92
397.57	60.59
397.78	119.98
397.989	128.17
398.198	142.5
398.407	124.07
398.617	87.21
398.826	58.54
399.035	93.35
399.244	126.12
399.453	122.02
399.663	109.74
399.872	113.83
400.081	119.98
400.29	31.91
400.499	115.88
400.708	101.55
400.917	158.89
401.127	119.98
401.336	189.61
401.545	150.7
401.754	134.31
401.963	85.16
402.172	117.93
402.381	21.67
402.59	148.65
402.799	103.59
403.008	181.42
403.217	115.88
403.426	58.54
403.635	132.26
403.844	60.59
404.053	183.46
404.262	126.12
404.471	150.7
404.68	115.88
404.888	99.5
405.097	152.74
405.306	150.7
405.515	140.46
405.724	91.31
405.933	154.79
406.142	130.22
406.35	122.02
406.559	154.79
406.768	156.84
406.977	152.74
407.185	183.46
407.394	203.94
407.603	148.65
407.812	216.23
408.02	156.84
408.229	150.7
408.438	205.99
408.646	195.75
408.855	226.47
409.064	296.1
409.272	249
409.481	193.7
409.69	300.2
409.898	201.9
410.107	269.48
410.315	287.91
410.524	263.33
410.733	337.06
410.941	314.53
411.15	396.45
411.358	341.16
411.567	408.74
411.775	396.45
411.984	324.77
412.192	339.11
412.401	283.81
412.609	427.17
412.818	425.12
413.026	404.64
413.234	453.8
413.443	408.74
413.651	480.42
413.86	502.95
414.068	558.24
414.276	517.28
414.485	550.05
414.693	646.3
414.901	611.49
415.11	558.24
415.318	658.59
415.526	576.67
415.734	726.18
415.943	744.61
416.151	728.22
416.359	738.46
416.567	781.47
416.776	863.39
416.984	900.25
417.192	892.06
417.4	867.49
417.608	810.14
417.817	867.49
418.025	1025.18
418.233	1023.13
418.441	1076.38
418.649	998.56
418.857	1094.81
419.065	1252.5
419.273	1193.11
419.481	1195.16
419.689	1363.09
419.897	1313.94
420.105	1336.47
420.313	1408.15
420.521	1469.59
420.729	1426.58
420.937	1445.01
421.145	1584.27
421.353	1760.4
421.561	1823.89
421.769	1608.85
421.977	2006.16
422.185	1760.4
422.393	1864.85
422.601	2061.45
422.809	2067.6
423.017	2120.84
423.224	2245.77
423.432	2210.95
423.64	2397.32
423.848	2491.52
424.056	2475.14
424.263	2520.2
424.471	2499.72
424.679	2641.03
424.887	2925.69
425.094	2911.36
425.302	2952.32
425.51	3099.77
425.718	3150.97
425.925	3089.53
426.133	3275.9
426.341	3357.82
426.548	3720.31
426.756	3609.72
426.964	3566.71
427.171	3804.27
427.379	3878
427.586	3996.78
427.794	4033.65
428.001	4258.92
428.209	4486.25
428.417	4480.1
428.624	4650.08
428.832	4742.24
429.039	4738.15
429.247	4703.33
429.454	5264.47
429.662	5524.57
429.869	5088.35
430.076	5530.71
430.284	5526.61
430.491	5569.62
430.699	5940.3
430.906	5885.01
431.114	6044.75
431.321	6071.37
431.528	6487.11
431.736	6755.4
431.943	6888.51
432.15	6743.11
432.358	6941.76
432.565	7371.83
432.772	7349.31
432.979	7500.86
433.187	7666.74
433.394	7763
433.601	8440.87
433.808	8385.58
434.016	8420.39
434.223	8782.88
434.43	9137.18
434.637	8956.96
434.844	9647.13
435.052	9686.04
435.259	9894.93
435.466	9735.19
435.673	9686.04
435.88	10525.71
436.087	11068.42
436.294	10783.75
436.501	10793.99
436.708	10806.28
436.915	11283.45
437.122	11645.94
437.329	11643.9
437.537	12004.34
437.743	12344.3
437.95	12348.4
438.157	12588.01
438.364	13308.9
438.571	13458.4
438.778	13282.27
438.985	14539.72
439.192	13808.6
439.399	14353.36
439.606	14050.26
439.813	15006.66
440.02	15911.86
440.227	15598.52
440.433	15379.39
440.64	15846.33
440.847	15786.94
441.054	16047.03
441.261	17339.3
441.467	17183.65
441.674	17505.18
441.881	17820.57
442.088	17773.47
442.294	17615.77
442.501	18240.4
442.708	18688.91
442.914	19575.68
443.121	20362.1
443.328	19473.28
443.534	21132.14
443.741	20747.12
443.948	20177.78
444.154	21908.32
444.361	21375.84
444.568	21848.93
444.774	21541.73
444.981	21957.47
445.187	22635.35
445.394	23536.45
445.6	23106.38
445.807	25637.67
446.013	24349.5
446.22	24879.92
446.426	26139.42
446.633	26022.69
446.839	27177.74
447.046	25705.25
447.252	27007.76
447.459	27370.25
447.665	27284.23
447.871	28441.34
448.078	29301.48
448.284	28209.92
448.491	28758.77
448.697	29780.71
448.903	30503.64
449.11	30229.21
449.316	29805.28
449.522	30808.79
449.728	31341.26
449.935	31650.5
450.141	31496.91
450.347	32070.34
450.553	31052.5
450.76	31535.82
450.966	32295.61
451.172	31994.56
451.378	32344.77
451.584	32484.03
451.791	33079.99
451.997	32721.59
452.203	33073.84
452.409	33145.52
452.615	33510.06
452.821	31935.17
453.027	31085.26
453.233	33329.84
453.44	31797.96
453.646	32084.67
453.852	32148.16
454.058	32754.36
454.264	31199.95
454.47	31994.56
454.676	31501
454.882	32549.56
455.088	29569.77
455.294	30141.15
455.5	30239.45
455.705	30798.55
455.911	29700.84
456.117	29178.61
456.323	28537.59
456.529	26764.05
456.735	28003.07
456.941	27538.18
457.147	26848.02
457.352	26139.42
457.558	25928.48
457.764	25811.74
457.97	25396.01
458.176	24746.8
458.381	24970.03
458.587	23348.04
458.793	23698.24
458.999	22037.34
459.204	23911.23
459.41	23139.15
459.616	21695.33
459.821	21525.35
460.027	21341.03
460.233	20800.37
460.438	19991.42
460.644	20181.88
460.85	19358.6
461.055	19030.92
461.261	19217.29
461.466	17535.9
461.672	16894.89
461.878	18391.95
462.083	16868.27
462.289	16634.8
462.494	16542.64
462.7	15795.13
462.905	15358.91
463.111	15801.27
463.316	16229.3
463.522	15643.58
463.727	15668.16
463.932	15569.85
464.138	15647.68
464.343	15627.2
464.549	15070.15
464.754	15551.42
464.959	15539.13
465.165	15408.06
465.37	14629.84
465.575	14126.04
465.781	15016.9
465.986	15227.84
466.191	14480.33
466.397	14142.42
466.602	13474.78
466.807	13951.96
467.012	13956.05
467.218	13962.2
467.423	13802.46
467.628	13935.57
467.833	14291.92
468.038	13861.85
