Data from USB4F104151__285__11-12-57-001.txt Node

Date: Wed Mar 12 11:12:57 EDT 2025
User: louis
Spectrometer: USB4F10415
Trigger mode: 4
Integration Time (sec): 2.000000E-2
Scans to average: 1
Electric dark correction enabled: true
Nonlinearity correction enabled: false
Boxcar width: 0
XAxis mode: Wavelengths
Number of Pixels in Spectrum: 3648
>>>>>Begin Spectral Data<<<<<
178.204	-73.73
178.424	-73.73
178.644	-73.73
178.864	-88.06
179.084	-36.86
179.304	-14.34
179.524	6.14
179.744	63.49
179.964	49.15
180.184	-22.53
180.404	-26.62
180.624	59.39
180.844	-63.49
181.064	-2.05
181.283	4.1
181.503	-30.72
181.723	-22.53
181.943	12.29
182.163	32.77
182.383	30.72
182.602	43.01
182.822	47.1
183.042	24.58
183.262	0
183.482	26.62
183.701	-57.34
183.921	26.62
184.141	6.14
184.361	-16.38
184.58	-28.67
184.8	45.06
185.02	49.15
185.239	-24.58
185.459	20.48
185.679	8.19
185.898	26.62
186.118	104.45
186.338	6.14
186.557	96.25
186.777	20.48
186.997	69.63
187.216	34.82
187.436	102.4
187.655	73.73
187.875	22.53
188.095	-43.01
188.314	12.29
188.534	63.49
188.753	53.25
188.973	59.39
189.192	24.58
189.412	-43.01
189.631	-14.34
189.851	-75.77
190.07	30.72
190.29	4.1
190.509	43.01
190.729	79.87
190.948	36.86
191.168	137.21
191.387	2.05
191.607	-45.06
191.826	51.2
192.045	-10.24
192.265	63.49
192.484	28.67
192.704	71.68
192.923	-55.3
193.142	47.1
193.362	16.38
193.581	-32.77
193.8	92.16
194.02	4.1
194.239	55.3
194.458	30.72
194.678	-12.29
194.897	-24.58
195.116	30.72
195.335	65.53
195.555	59.39
195.774	0
195.993	0
196.212	16.38
196.432	34.82
196.651	-14.34
196.87	38.91
197.089	73.73
197.308	16.38
197.528	47.1
197.747	34.82
197.966	34.82
198.185	22.53
198.404	-38.91
198.623	-18.43
198.842	16.38
199.062	88.06
199.281	-12.29
199.5	12.29
199.719	4.1
199.938	118.78
200.157	38.91
200.376	26.62
200.595	61.44
200.814	43.01
201.033	-34.82
201.252	8.19
201.471	61.44
201.69	73.73
201.909	34.82
202.128	63.49
202.347	-16.38
202.566	24.58
202.785	-36.86
203.004	-16.38
203.223	73.73
203.442	53.25
203.661	30.72
203.879	86.01
204.098	77.82
204.317	-63.49
204.536	55.3
204.755	83.97
204.974	10.24
205.193	18.43
205.411	59.39
205.63	55.3
205.849	2.05
206.068	-20.48
206.287	69.63
206.505	43.01
206.724	22.53
206.943	55.3
207.162	0
207.381	10.24
207.599	20.48
207.818	22.53
208.037	10.24
208.255	14.34
208.474	71.68
208.693	-12.29
208.911	2.05
209.13	4.1
209.349	47.1
209.567	81.92
209.786	14.34
210.005	65.53
210.223	110.59
210.442	14.34
210.661	-18.43
210.879	-6.14
211.098	116.73
211.316	10.24
211.535	8.19
211.753	67.58
211.972	77.82
212.191	2.05
212.409	2.05
212.628	-38.91
212.846	55.3
213.065	-49.15
213.283	49.15
213.502	16.38
213.72	-30.72
213.938	-6.14
214.157	83.97
214.375	16.38
214.594	71.68
214.812	34.82
215.031	-6.14
215.249	92.16
215.467	-12.29
215.686	-28.67
215.904	26.62
216.122	24.58
216.341	153.6
216.559	12.29
216.778	55.3
216.996	40.96
217.214	10.24
217.432	14.34
217.651	-4.1
217.869	57.34
218.087	12.29
218.306	22.53
218.524	-10.24
218.742	26.62
218.96	10.24
219.179	122.88
219.397	26.62
219.615	47.1
219.833	-30.72
220.051	26.62
220.27	45.06
220.488	65.53
220.706	38.91
220.924	-24.58
221.142	38.91
221.36	-55.3
221.578	112.64
221.796	10.24
222.015	-6.14
222.233	32.77
222.451	30.72
222.669	63.49
222.887	-2.05
223.105	51.2
223.323	92.16
223.541	2.05
223.759	18.43
223.977	4.1
224.195	-2.05
224.413	126.97
224.631	98.3
224.849	51.2
225.067	104.45
225.285	0
225.503	18.43
225.721	22.53
225.939	-4.1
226.157	16.38
226.375	36.86
226.592	-28.67
226.81	-12.29
227.028	20.48
227.246	120.83
227.464	10.24
227.682	-12.29
227.9	59.39
228.117	-51.2
228.335	18.43
228.553	-30.72
228.771	63.49
228.989	-30.72
229.206	4.1
229.424	0
229.642	24.58
229.86	-4.1
230.077	-24.58
230.295	-4.1
230.513	14.34
230.731	-2.05
230.948	6.14
231.166	118.78
231.384	-8.19
231.601	18.43
231.819	47.1
232.037	88.06
232.254	20.48
232.472	14.34
232.689	55.3
232.907	14.34
233.125	16.38
233.342	16.38
233.56	-69.63
233.777	18.43
233.995	40.96
234.213	53.25
234.43	-16.38
234.648	67.58
234.865	-30.72
235.083	-14.34
235.3	47.1
235.518	71.68
235.735	24.58
235.953	-22.53
236.17	63.49
236.388	43.01
236.605	59.39
236.822	51.2
237.04	43.01
237.257	4.1
237.475	63.49
237.692	0
237.909	12.29
238.127	0
238.344	-20.48
238.562	40.96
238.779	47.1
238.996	-16.38
239.214	-24.58
239.431	-2.05
239.648	2.05
239.865	-4.1
240.083	-6.14
240.3	55.3
240.517	-32.77
240.735	-22.53
240.952	26.62
241.169	18.43
241.386	4.1
241.603	65.53
241.821	6.14
242.038	43.01
242.255	79.87
242.472	49.15
242.689	12.29
242.907	49.15
243.124	61.44
243.341	22.53
243.558	57.34
243.775	-4.1
243.992	22.53
244.209	20.48
244.426	55.3
244.643	47.1
244.86	47.1
245.078	-18.43
245.295	10.24
245.512	51.2
245.729	36.86
245.946	8.19
246.163	26.62
246.38	38.91
246.597	20.48
246.814	22.53
247.031	18.43
247.248	63.49
247.464	16.38
247.681	6.14
247.898	57.34
248.115	4.1
248.332	-43.01
248.549	122.88
248.766	59.39
248.983	22.53
249.2	-4.1
249.417	-8.19
249.633	47.1
249.85	59.39
250.067	2.05
250.284	36.86
250.501	30.72
250.717	20.48
250.934	-55.3
251.151	98.3
251.368	-38.91
251.585	38.91
251.801	4.1
252.018	-12.29
252.235	40.96
252.451	6.14
252.668	-51.2
252.885	28.67
253.102	63.49
253.318	34.82
253.535	43.01
253.752	-14.34
253.968	0
254.185	-30.72
254.401	49.15
254.618	-8.19
254.835	14.34
255.051	118.78
255.268	47.1
255.484	8.19
255.701	-34.82
255.917	-12.29
256.134	51.2
256.351	104.45
256.567	2.05
256.784	4.1
257	-30.72
257.217	100.35
257.433	63.49
257.65	57.34
257.866	79.87
258.082	36.86
258.299	26.62
258.515	-2.05
258.732	65.53
258.948	6.14
259.165	26.62
259.381	14.34
259.597	79.87
259.814	-34.82
260.03	2.05
260.246	16.38
260.463	53.25
260.679	16.38
260.895	59.39
261.112	45.06
261.328	28.67
261.544	6.14
261.761	75.77
261.977	2.05
262.193	-10.24
262.409	49.15
262.626	43.01
262.842	24.58
263.058	-10.24
263.274	51.2
263.49	20.48
263.707	45.06
263.923	-16.38
264.139	-8.19
264.355	0
264.571	-4.1
264.787	61.44
265.004	102.4
265.22	18.43
265.436	45.06
265.652	-12.29
265.868	61.44
266.084	6.14
266.3	20.48
266.516	53.25
266.732	14.34
266.948	77.82
267.164	4.1
267.38	-57.34
267.596	0
267.812	102.4
268.028	65.53
268.244	32.77
268.46	-4.1
268.676	-34.82
268.892	22.53
269.108	10.24
269.324	73.73
269.54	-6.14
269.756	36.86
269.972	-22.53
270.188	49.15
270.403	77.82
270.619	43.01
270.835	38.91
271.051	83.97
271.267	2.05
271.483	108.54
271.698	-20.48
271.914	26.62
272.13	36.86
272.346	-12.29
272.562	30.72
272.777	49.15
272.993	6.14
273.209	8.19
273.425	22.53
273.64	-12.29
273.856	-14.34
274.072	16.38
274.287	10.24
274.503	69.63
274.719	43.01
274.934	71.68
275.15	28.67
275.366	40.96
275.581	-22.53
275.797	24.58
276.012	47.1
276.228	-6.14
276.444	14.34
276.659	120.83
276.875	22.53
277.09	34.82
277.306	-38.91
277.521	36.86
277.737	69.63
277.952	6.14
278.168	6.14
278.383	116.73
278.599	26.62
278.814	32.77
279.03	96.25
279.245	12.29
279.461	108.54
279.676	51.2
279.892	49.15
280.107	-34.82
280.322	75.77
280.538	32.77
280.753	83.97
280.969	4.1
281.184	-2.05
281.399	30.72
281.615	30.72
281.83	0
282.045	55.3
282.26	-40.96
282.476	65.53
282.691	61.44
282.906	34.82
283.122	51.2
283.337	-14.34
283.552	55.3
283.767	14.34
283.983	36.86
284.198	20.48
284.413	10.24
284.628	-10.24
284.843	-6.14
285.058	34.82
285.274	-47.1
285.489	-4.1
285.704	32.77
285.919	-45.06
286.134	36.86
286.349	-4.1
286.564	10.24
286.779	14.34
286.995	-34.82
287.21	10.24
287.425	63.49
287.64	-4.1
287.855	55.3
288.07	-45.06
288.285	10.24
288.5	90.11
288.715	38.91
288.93	59.39
289.145	2.05
289.36	26.62
289.575	16.38
289.79	34.82
290.004	59.39
290.219	55.3
290.434	-57.34
290.649	51.2
290.864	28.67
291.079	2.05
291.294	59.39
291.509	53.25
291.724	40.96
291.938	51.2
292.153	26.62
292.368	36.86
292.583	26.62
292.798	6.14
293.012	10.24
293.227	22.53
293.442	36.86
293.657	2.05
293.871	24.58
294.086	22.53
294.301	-10.24
294.516	65.53
294.73	34.82
294.945	-71.68
295.16	2.05
295.374	-34.82
295.589	53.25
295.804	12.29
296.018	26.62
296.233	63.49
296.447	65.53
296.662	2.05
296.877	65.53
297.091	79.87
297.306	26.62
297.52	-24.58
297.735	-10.24
297.949	110.59
298.164	55.3
298.378	100.35
298.593	14.34
298.807	32.77
299.022	-30.72
299.236	75.77
299.451	36.86
299.665	4.1
299.88	28.67
300.094	69.63
300.309	38.91
300.523	94.21
300.737	-47.1
300.952	34.82
301.166	-14.34
301.381	24.58
301.595	53.25
301.809	18.43
302.024	-6.14
302.238	-14.34
302.452	55.3
302.667	-57.34
302.881	116.73
303.095	79.87
303.309	34.82
303.524	65.53
303.738	-2.05
303.952	30.72
304.166	116.73
304.381	-34.82
304.595	118.78
304.809	-43.01
305.023	45.06
305.237	28.67
305.452	-14.34
305.666	63.49
305.88	38.91
306.094	2.05
306.308	12.29
306.522	55.3
306.736	47.1
306.95	-14.34
307.164	-26.62
307.379	102.4
307.593	32.77
307.807	-4.1
308.021	32.77
308.235	40.96
308.449	86.01
308.663	-22.53
308.877	75.77
309.091	28.67
309.305	94.21
309.519	-6.14
309.733	40.96
309.947	12.29
310.161	22.53
310.374	53.25
310.588	2.05
310.802	-4.1
311.016	43.01
311.23	38.91
311.444	-16.38
311.658	-10.24
311.872	51.2
312.085	53.25
312.299	43.01
312.513	8.19
312.727	-57.34
312.941	34.82
313.154	47.1
313.368	100.35
313.582	110.59
313.796	43.01
314.009	10.24
314.223	65.53
314.437	34.82
314.651	36.86
314.864	26.62
315.078	49.15
315.292	57.34
315.505	-36.86
315.719	12.29
315.933	45.06
316.146	16.38
316.36	30.72
316.573	18.43
316.787	49.15
317.001	32.77
317.214	57.34
317.428	14.34
317.641	-12.29
317.855	51.2
318.068	24.58
318.282	10.24
318.495	2.05
318.709	18.43
318.922	47.1
319.136	73.73
319.349	47.1
319.563	34.82
319.776	79.87
319.99	-34.82
320.203	4.1
320.417	26.62
320.63	51.2
320.843	57.34
321.057	120.83
321.27	65.53
321.483	14.34
321.697	79.87
321.91	55.3
322.124	55.3
322.337	47.1
322.55	81.92
322.763	30.72
322.977	-6.14
323.19	10.24
323.403	8.19
323.617	104.45
323.83	45.06
324.043	53.25
324.256	77.82
324.469	-4.1
324.683	63.49
324.896	30.72
325.109	47.1
325.322	-38.91
325.535	43.01
325.748	36.86
325.962	30.72
326.175	-20.48
326.388	83.97
326.601	-10.24
326.814	16.38
327.027	30.72
327.24	83.97
327.453	22.53
327.666	28.67
327.879	-6.14
328.092	118.78
328.305	71.68
328.518	69.63
328.731	59.39
328.944	43.01
329.157	8.19
329.37	12.29
329.583	77.82
329.796	63.49
330.009	14.34
330.222	104.45
330.435	61.44
330.648	43.01
330.861	59.39
331.073	-43.01
331.286	22.53
331.499	0
331.712	45.06
331.925	10.24
332.138	36.86
332.35	30.72
332.563	81.92
332.776	-22.53
332.989	24.58
333.202	22.53
333.414	-14.34
333.627	106.49
333.84	106.49
334.053	10.24
334.265	-16.38
334.478	38.91
334.691	55.3
334.903	59.39
335.116	-10.24
335.329	59.39
335.541	86.01
335.754	43.01
335.966	75.77
336.179	-2.05
336.392	6.14
336.604	22.53
336.817	18.43
337.029	6.14
337.242	57.34
337.454	14.34
337.667	32.77
337.88	59.39
338.092	-6.14
338.305	40.96
338.517	49.15
338.729	92.16
338.942	2.05
339.154	-34.82
339.367	24.58
339.579	43.01
339.792	4.1
340.004	47.1
340.217	94.21
340.429	-6.14
340.641	18.43
340.854	24.58
341.066	22.53
341.278	90.11
341.491	83.97
341.703	-18.43
341.915	-77.82
342.128	-6.14
342.34	116.73
342.552	100.35
342.764	59.39
342.977	65.53
343.189	32.77
343.401	2.05
343.613	47.1
343.826	10.24
344.038	-16.38
344.25	51.2
344.462	8.19
344.674	88.06
344.886	98.3
345.099	28.67
345.311	124.93
345.523	43.01
345.735	106.49
345.947	55.3
346.159	32.77
346.371	18.43
346.583	38.91
346.795	71.68
347.007	81.92
347.219	73.73
347.431	88.06
347.643	75.77
347.855	14.34
348.067	34.82
348.279	-20.48
348.491	69.63
348.703	81.92
348.915	69.63
349.127	55.3
349.339	122.88
349.551	61.44
349.763	30.72
349.975	-2.05
350.187	47.1
350.399	129.02
350.61	47.1
350.822	4.1
351.034	40.96
351.246	-12.29
351.458	77.82
351.669	116.73
351.881	26.62
352.093	18.43
352.305	143.36
352.517	6.14
352.728	131.07
352.94	55.3
353.152	-18.43
353.363	59.39
353.575	73.73
353.787	30.72
353.999	59.39
354.21	26.62
354.422	40.96
354.633	-2.05
354.845	6.14
355.057	129.02
355.268	-32.77
355.48	38.91
355.692	53.25
355.903	71.68
356.115	26.62
356.326	100.35
356.538	18.43
356.749	59.39
356.961	126.97
357.172	28.67
357.384	-49.15
357.595	38.91
357.807	43.01
358.018	8.19
358.23	36.86
358.441	61.44
358.653	43.01
358.864	71.68
359.075	-10.24
359.287	55.3
359.498	77.82
359.709	34.82
359.921	-20.48
360.132	90.11
360.344	49.15
360.555	59.39
360.766	124.93
360.977	36.86
361.189	79.87
361.4	32.77
361.611	47.1
361.823	36.86
362.034	6.14
362.245	30.72
362.456	53.25
362.667	-8.19
362.879	4.1
363.09	43.01
363.301	65.53
363.512	30.72
363.723	6.14
363.935	8.19
364.146	88.06
364.357	43.01
364.568	24.58
364.779	-14.34
364.99	102.4
365.201	49.15
365.412	71.68
365.623	-2.05
365.834	38.91
366.045	30.72
366.256	114.69
366.467	63.49
366.678	-30.72
366.889	67.58
367.1	-24.58
367.311	34.82
367.522	-20.48
367.733	69.63
367.944	114.69
368.155	-16.38
368.366	8.19
368.577	53.25
368.788	55.3
368.999	88.06
369.209	59.39
369.42	20.48
369.631	79.87
369.842	108.54
370.053	26.62
370.264	-43.01
370.474	26.62
370.685	96.25
370.896	-8.19
371.107	47.1
371.317	38.91
371.528	-20.48
371.739	59.39
371.95	30.72
372.16	63.49
372.371	67.58
372.582	-20.48
372.792	36.86
373.003	49.15
373.214	34.82
373.424	36.86
373.635	32.77
373.846	79.87
374.056	63.49
374.267	98.3
374.477	28.67
374.688	30.72
374.898	100.35
375.109	63.49
375.319	65.53
375.53	71.68
375.74	-2.05
375.951	77.82
376.161	104.45
376.372	120.83
376.582	8.19
376.793	122.88
377.003	8.19
377.214	14.34
377.424	122.88
377.635	36.86
377.845	38.91
378.055	-6.14
378.266	59.39
378.476	0
378.686	71.68
378.897	51.2
379.107	-4.1
379.317	59.39
379.528	20.48
379.738	24.58
379.948	59.39
380.158	24.58
380.369	79.87
380.579	47.1
380.789	75.77
380.999	57.34
381.21	55.3
381.42	26.62
381.63	77.82
381.84	-2.05
382.05	92.16
382.261	75.77
382.471	112.64
382.681	20.48
382.891	96.25
383.101	18.43
383.311	-8.19
383.521	71.68
383.731	88.06
383.941	20.48
384.151	45.06
384.361	94.21
384.571	43.01
384.781	108.54
384.991	-43.01
385.201	69.63
385.411	92.16
385.621	81.92
385.831	30.72
386.041	61.44
386.251	-10.24
386.461	43.01
386.671	90.11
386.881	102.4
387.091	32.77
387.301	81.92
387.511	8.19
387.72	98.3
387.93	28.67
388.14	96.25
388.35	79.87
388.56	43.01
388.769	102.4
388.979	75.77
389.189	18.43
389.399	-55.3
389.609	47.1
389.818	40.96
390.028	53.25
390.238	49.15
390.447	-30.72
390.657	59.39
390.867	36.86
391.076	59.39
391.286	98.3
391.496	43.01
391.705	24.58
391.915	96.25
392.125	8.19
392.334	63.49
392.544	169.98
392.753	104.45
392.963	88.06
393.172	90.11
393.382	4.1
393.591	145.41
393.801	75.77
394.01	96.25
394.22	94.21
394.429	86.01
394.639	63.49
394.848	34.82
395.058	98.3
395.267	-12.29
395.477	38.91
395.686	88.06
395.895	38.91
396.105	149.5
396.314	96.25
396.524	61.44
396.733	36.86
396.942	126.97
397.152	151.55
397.361	94.21
397.57	141.31
397.78	63.49
397.989	106.49
398.198	137.21
398.407	28.67
398.617	100.35
398.826	51.2
399.035	114.69
399.244	137.21
399.453	116.73
399.663	112.64
399.872	210.94
400.081	129.02
400.29	169.98
400.499	69.63
400.708	151.55
400.917	129.02
401.127	174.08
401.336	63.49
401.545	239.61
401.754	47.1
401.963	118.78
402.172	90.11
402.381	38.91
402.59	124.93
402.799	151.55
403.008	176.13
403.217	108.54
403.426	167.93
403.635	61.44
403.844	133.12
404.053	112.64
404.262	38.91
404.471	141.31
404.68	151.55
404.888	145.41
405.097	143.36
405.306	165.89
405.515	155.65
405.724	104.45
405.933	217.08
406.142	116.73
406.35	131.07
406.559	141.31
406.768	266.24
406.977	219.13
407.185	184.32
407.394	161.79
407.603	135.17
407.812	212.99
408.02	202.75
408.229	235.52
408.438	243.71
408.646	249.85
408.855	256
409.064	278.52
409.272	290.81
409.481	276.48
409.69	305.15
409.898	299
410.107	327.67
410.315	311.29
410.524	311.29
410.733	342.01
410.941	305.15
411.15	370.68
411.358	432.12
411.567	419.83
411.775	378.87
411.984	411.64
412.192	440.31
412.401	419.83
412.609	428.03
412.818	481.27
413.026	485.37
413.234	481.27
413.443	518.14
413.651	550.9
413.86	641.01
414.068	612.34
414.276	628.73
414.485	622.58
414.693	618.49
414.901	675.83
415.11	737.27
415.318	632.82
415.526	684.02
415.734	770.04
415.943	720.88
416.151	780.28
416.359	837.62
416.567	868.34
416.776	841.72
416.984	972.79
417.192	976.88
417.4	1007.6
417.608	997.36
417.817	993.26
418.025	1083.38
418.233	1171.44
418.441	1105.9
418.649	1148.91
418.857	1189.87
419.065	1300.46
419.273	1308.65
419.481	1380.33
419.689	1468.39
419.897	1374.19
420.105	1480.68
420.313	1632.23
420.521	1599.46
420.729	1562.6
420.937	1681.38
421.145	1794.02
421.353	1806.31
421.561	1867.75
421.769	1974.24
421.977	2170.85
422.185	2115.55
422.393	2195.42
422.601	2326.49
422.809	2179.04
423.017	2404.32
423.224	2363.36
423.432	2478.04
423.64	2435.03
423.848	2703.32
424.056	2648.02
424.263	2940.88
424.471	2850.77
424.679	2906.07
424.887	2971.6
425.094	3196.88
425.302	3223.5
425.51	3229.65
425.718	3364.81
425.925	3393.48
426.133	3735.49
426.341	3723.21
426.548	3882.95
426.756	3829.7
426.964	3864.52
427.171	4126.66
427.379	4485.05
427.586	4231.1
427.794	4460.48
428.001	4722.62
428.209	4915.12
428.417	4745.14
428.624	5242.8
428.832	5216.18
429.039	5099.44
429.247	5156.79
429.454	5713.83
429.662	6174.63
429.869	5695.4
430.076	6016.93
430.284	5767.08
430.491	6154.15
430.699	6381.47
430.906	6539.16
431.114	6639.51
431.321	6662.04
431.528	7055.25
431.736	7309.2
431.943	7673.74
432.15	7524.24
432.358	7704.46
432.565	8003.46
432.772	7876.49
432.979	8290.18
433.187	8658.81
433.394	8681.34
433.601	9234.29
433.808	9072.5
434.016	9090.93
434.223	9430.9
434.43	9881.45
434.637	9899.88
434.844	10458.98
435.052	10749.79
435.259	10563.42
435.466	10733.4
435.673	10487.65
435.88	11376.47
436.087	11720.53
436.294	11722.57
436.501	11671.37
436.708	11601.74
436.915	12279.62
437.122	12781.37
437.329	12783.42
437.537	13080.38
437.743	13184.82
437.95	13158.2
438.157	13713.2
438.364	14554.91
438.571	14495.52
438.778	14532.39
438.985	15769.36
439.192	15341.33
439.399	15642.39
439.606	15374.1
439.813	16252.68
440.02	17094.4
440.227	16844.54
440.433	16600.83
440.64	17016.57
440.847	17266.42
441.054	17686.26
441.261	18888.42
441.467	18360.04
441.674	18867.94
441.881	19678.93
442.088	19230.43
442.294	19463.9
442.501	19814.1
442.708	19959.5
442.914	21132.99
443.121	21800.63
443.328	21075.65
443.534	22771.36
443.741	22093.49
443.948	21706.42
444.154	23416.47
444.361	23295.64
444.568	23359.13
444.774	23338.65
444.981	23608.98
445.187	24450.7
445.394	25255.55
445.6	25089.67
445.807	27575.9
446.013	26252.91
446.22	26719.85
446.426	27635.29
446.633	27700.83
446.839	28978.76
447.046	27756.12
447.252	29122.12
447.459	29449.79
447.665	29089.35
447.871	30203.44
448.078	31718.94
448.284	29992.5
448.491	31006.25
448.697	32063
448.903	32646.67
449.11	32736.78
449.316	31985.18
449.522	32970.25
449.728	33424.9
449.935	33797.63
450.141	33777.15
450.347	34412.02
450.553	33472
450.76	33695.23
450.966	34930.15
451.172	34434.55
451.378	35419.62
451.584	34866.67
451.791	35560.93
451.997	35091.94
452.203	35991
452.409	35655.14
452.615	35544.55
452.821	34639.34
453.027	33701.37
453.233	36070.87
453.44	34356.72
453.646	34577.9
453.852	34932.2
454.058	35362.28
454.264	33928.7
454.47	35034.6
454.676	33861.12
454.882	35298.79
455.088	31970.84
455.294	32753.16
455.5	32861.71
455.705	33426.95
455.911	32026.14
456.117	31286.82
456.323	30940.71
456.529	29331.01
456.735	30371.38
456.941	30064.18
457.147	29367.87
457.352	28434
457.558	28173.91
457.764	27866.71
457.97	27586.14
458.176	26865.25
458.381	26928.74
458.587	25972.34
458.793	25468.54
458.999	24096.4
459.204	26044.02
459.41	25208.45
459.616	23781.01
459.821	23633.56
460.027	23631.51
460.233	23000.74
460.438	21829.3
460.644	22345.39
460.85	21229.24
461.055	21044.93
461.261	20631.24
461.466	19283.67
461.672	19007.2
461.878	20047.57
462.083	18953.95
462.289	18454.25
462.494	18181.87
462.7	17178.36
462.905	16989.95
463.111	17598.2
463.316	17508.08
463.522	17016.57
463.727	17188.6
463.932	17225.47
464.138	17086.2
464.343	16963.33
464.549	16645.89
464.754	17127.16
464.959	17059.58
465.165	16852.73
465.37	16301.83
465.575	15918.86
465.781	16498.44
465.986	16725.76
466.191	15763.22
466.397	15449.88
466.602	14794.53
466.807	15425.3
467.012	15548.18
467.218	15380.25
467.423	15097.63
467.628	15236.89
467.833	15955.72
468.038	15419.16
468.244	14638.88
468.449	15433.49
468.654	15062.81
