Data from USB4F104151__236__11-11-16-459.txt Node

Date: Wed Mar 12 11:11:16 EDT 2025
User: louis
Spectrometer: USB4F10415
Trigger mode: 4
Integration Time (sec): 2.000000E-2
Scans to average: 1
Electric dark correction enabled: true
Nonlinearity correction enabled: false
Boxcar width: 0
XAxis mode: Wavelengths
Number of Pixels in Spectrum: 3648
>>>>>Begin Spectral Data<<<<<
178.204	-101.89
178.424	-101.89
178.644	-101.89
178.864	-181.76
179.084	-132.61
179.304	41.47
179.524	-17.92
179.744	-17.92
179.964	-26.11
180.184	37.38
180.404	6.66
180.624	-11.78
180.844	6.66
181.064	-19.97
181.283	25.09
181.503	18.94
181.723	-42.5
181.943	-110.08
182.163	109.05
182.383	0.51
182.602	35.33
182.822	37.38
183.042	59.9
183.262	18.94
183.482	31.23
183.701	-3.58
183.921	14.85
184.141	-13.82
184.361	29.18
184.58	72.19
184.8	29.18
185.02	-9.73
185.239	25.09
185.459	35.33
185.679	47.62
185.898	-28.16
186.118	18.94
186.338	-3.58
186.557	25.09
186.777	-7.68
186.997	29.18
187.216	-77.31
187.436	59.9
187.655	12.8
187.875	59.9
188.095	-52.74
188.314	51.71
188.534	-34.3
188.753	16.9
188.973	-3.58
189.192	6.66
189.412	68.09
189.631	27.14
189.851	10.75
190.07	43.52
190.29	20.99
190.509	12.8
190.729	53.76
190.948	-48.64
191.168	94.72
191.387	-13.82
191.607	-24.06
191.826	72.19
192.045	-38.4
192.265	90.62
192.484	64
192.704	10.75
192.923	-30.21
193.142	59.9
193.362	88.57
193.581	-19.97
193.8	-28.16
194.02	47.62
194.239	-7.68
194.458	29.18
194.678	68.09
194.897	0.51
195.116	18.94
195.335	31.23
195.555	88.57
195.774	18.94
195.993	29.18
196.212	41.47
196.432	27.14
196.651	-24.06
196.87	25.09
197.089	35.33
197.308	74.24
197.528	20.99
197.747	2.56
197.966	88.57
198.185	29.18
198.404	61.95
198.623	-9.73
198.842	41.47
199.062	-15.87
199.281	43.52
199.5	72.19
199.719	43.52
199.938	150.01
200.157	-3.58
200.376	51.71
200.595	35.33
200.814	18.94
201.033	8.7
201.252	35.33
201.471	2.56
201.69	39.42
201.909	-62.98
202.128	68.09
202.347	51.71
202.566	-24.06
202.785	59.9
203.004	10.75
203.223	45.57
203.442	4.61
203.661	-5.63
203.879	16.9
204.098	51.71
204.317	-1.54
204.536	2.56
204.755	12.8
204.974	51.71
205.193	14.85
205.411	61.95
205.63	88.57
205.849	49.66
206.068	84.48
206.287	45.57
206.505	55.81
206.724	90.62
206.943	-22.02
207.162	68.09
207.381	100.86
207.599	51.71
207.818	90.62
208.037	88.57
208.255	82.43
208.474	4.61
208.693	57.86
208.911	-42.5
209.13	27.14
209.349	35.33
209.567	53.76
209.786	92.67
210.005	20.99
210.223	55.81
210.442	84.48
210.661	16.9
210.879	45.57
211.098	72.19
211.316	10.75
211.535	25.09
211.753	-1.54
211.972	66.05
212.191	-52.74
212.409	-44.54
212.628	82.43
212.846	45.57
213.065	41.47
213.283	74.24
213.502	-1.54
213.72	29.18
213.938	2.56
214.157	23.04
214.375	6.66
214.594	55.81
214.812	68.09
215.031	-9.73
215.249	-13.82
215.467	-7.68
215.686	10.75
215.904	61.95
216.122	4.61
216.341	88.57
216.559	0.51
216.778	35.33
216.996	0.51
217.214	47.62
217.432	20.99
217.651	27.14
217.869	2.56
218.087	14.85
218.306	35.33
218.524	41.47
218.742	-5.63
218.96	49.66
219.179	10.75
219.397	14.85
219.615	70.14
219.833	94.72
220.051	-15.87
220.27	2.56
220.488	25.09
220.706	47.62
220.924	33.28
221.142	-36.35
221.36	-3.58
221.578	51.71
221.796	0.51
222.015	78.33
222.233	14.85
222.451	59.9
222.669	-11.78
222.887	78.33
223.105	-9.73
223.323	80.38
223.541	-11.78
223.759	55.81
223.977	-38.4
224.195	27.14
224.413	-1.54
224.631	39.42
224.849	-9.73
225.067	96.77
225.285	64
225.503	-56.83
225.721	-105.98
225.939	57.86
226.157	31.23
226.375	-5.63
226.592	66.05
226.81	66.05
227.028	-5.63
227.246	68.09
227.464	-32.26
227.682	45.57
227.9	96.77
228.117	-22.02
228.335	39.42
228.553	43.52
228.771	27.14
228.989	-9.73
229.206	33.28
229.424	8.7
229.642	33.28
229.86	39.42
230.077	-65.02
230.295	14.85
230.513	4.61
230.731	55.81
230.948	109.05
231.166	47.62
231.384	12.8
231.601	-48.64
231.819	25.09
232.037	68.09
232.254	-15.87
232.472	10.75
232.689	-54.78
232.907	125.44
233.125	6.66
233.342	55.81
233.56	12.8
233.777	-30.21
233.995	-24.06
234.213	137.73
234.43	0.51
234.648	57.86
234.865	10.75
235.083	41.47
235.3	47.62
235.518	64
235.735	64
235.953	123.39
236.17	51.71
236.388	-95.74
236.605	74.24
236.822	70.14
237.04	53.76
237.257	29.18
237.475	70.14
237.692	25.09
237.909	35.33
238.127	-24.06
238.344	16.9
238.562	16.9
238.779	18.94
238.996	31.23
239.214	27.14
239.431	2.56
239.648	20.99
239.865	-40.45
240.083	29.18
240.3	25.09
240.517	12.8
240.735	64
240.952	57.86
241.169	55.81
241.386	84.48
241.603	29.18
241.821	6.66
242.038	31.23
242.255	4.61
242.472	6.66
242.689	51.71
242.907	-30.21
243.124	31.23
243.341	-3.58
243.558	-1.54
243.775	16.9
243.992	-17.92
244.209	12.8
244.426	78.33
244.643	66.05
244.86	27.14
245.078	64
245.295	6.66
245.512	72.19
245.729	35.33
245.946	-30.21
246.163	-3.58
246.38	41.47
246.597	14.85
246.814	74.24
247.031	59.9
247.248	61.95
247.464	8.7
247.681	45.57
247.898	47.62
248.115	74.24
248.332	-19.97
248.549	133.63
248.766	43.52
248.983	90.62
249.2	66.05
249.417	23.04
249.633	31.23
249.85	43.52
250.067	6.66
250.284	-17.92
250.501	45.57
250.717	90.62
250.934	-7.68
251.151	14.85
251.368	23.04
251.585	47.62
251.801	16.9
252.018	-69.12
252.235	10.75
252.451	-28.16
252.668	18.94
252.885	6.66
253.102	59.9
253.318	72.19
253.535	4.61
253.752	47.62
253.968	33.28
254.185	-24.06
254.401	6.66
254.618	35.33
254.835	25.09
255.051	96.77
255.268	49.66
255.484	16.9
255.701	64
255.917	35.33
256.134	20.99
256.351	-1.54
256.567	31.23
256.784	117.25
257	31.23
257.217	49.66
257.433	41.47
257.65	61.95
257.866	78.33
258.082	10.75
258.299	-19.97
258.515	-9.73
258.732	2.56
258.948	39.42
259.165	53.76
259.381	51.71
259.597	29.18
259.814	12.8
260.03	88.57
260.246	80.38
260.463	47.62
260.679	76.29
260.895	35.33
261.112	25.09
261.328	66.05
261.544	12.8
261.761	98.81
261.977	72.19
262.193	64
262.409	25.09
262.626	12.8
262.842	8.7
263.058	25.09
263.274	33.28
263.49	41.47
263.707	98.81
263.923	70.14
264.139	72.19
264.355	133.63
264.571	-30.21
264.787	47.62
265.004	82.43
265.22	27.14
265.436	12.8
265.652	-62.98
265.868	53.76
266.084	8.7
266.3	78.33
266.516	2.56
266.732	-22.02
266.948	39.42
267.164	4.61
267.38	6.66
267.596	-24.06
267.812	70.14
268.028	53.76
268.244	18.94
268.46	-30.21
268.676	10.75
268.892	84.48
269.108	14.85
269.324	47.62
269.54	55.81
269.756	29.18
269.972	55.81
270.188	107.01
270.403	39.42
270.619	6.66
270.835	47.62
271.051	80.38
271.267	14.85
271.483	-13.82
271.698	70.14
271.914	98.81
272.13	86.53
272.346	14.85
272.562	12.8
272.777	18.94
272.993	25.09
273.209	35.33
273.425	14.85
273.64	20.99
273.856	-1.54
274.072	55.81
274.287	4.61
274.503	57.86
274.719	-5.63
274.934	14.85
275.15	35.33
275.366	27.14
275.581	-5.63
275.797	109.05
276.012	29.18
276.228	18.94
276.444	37.38
276.659	57.86
276.875	23.04
277.09	-7.68
277.306	31.23
277.521	78.33
277.737	78.33
277.952	33.28
278.168	86.53
278.383	51.71
278.599	16.9
278.814	45.57
279.03	-11.78
279.245	66.05
279.461	2.56
279.676	25.09
279.892	2.56
280.107	16.9
280.322	14.85
280.538	33.28
280.753	74.24
280.969	59.9
281.184	47.62
281.399	64
281.615	61.95
281.83	55.81
282.045	-17.92
282.26	20.99
282.476	80.38
282.691	55.81
282.906	111.1
283.122	41.47
283.337	39.42
283.552	-13.82
283.767	76.29
283.983	49.66
284.198	68.09
284.413	23.04
284.628	39.42
284.843	104.96
285.058	92.67
285.274	20.99
285.489	-13.82
285.704	29.18
285.919	-50.69
286.134	0.51
286.349	31.23
286.564	68.09
286.779	35.33
286.995	-7.68
287.21	-34.3
287.425	84.48
287.64	2.56
287.855	41.47
288.07	31.23
288.285	27.14
288.5	-1.54
288.715	82.43
288.93	-26.11
289.145	64
289.36	41.47
289.575	-9.73
289.79	31.23
290.004	117.25
290.219	47.62
290.434	51.71
290.649	53.76
290.864	-11.78
291.079	76.29
291.294	57.86
291.509	-24.06
291.724	-9.73
291.938	-13.82
292.153	68.09
292.368	29.18
292.583	70.14
292.798	76.29
293.012	-36.35
293.227	-17.92
293.442	82.43
293.657	6.66
293.871	135.68
294.086	45.57
294.301	111.1
294.516	59.9
294.73	31.23
294.945	-15.87
295.16	6.66
295.374	25.09
295.589	43.52
295.804	18.94
296.018	29.18
296.233	47.62
296.447	43.52
296.662	47.62
296.877	100.86
297.091	-22.02
297.306	29.18
297.52	66.05
297.735	100.86
297.949	0.51
298.164	90.62
298.378	61.95
298.593	-15.87
298.807	0.51
299.022	33.28
299.236	51.71
299.451	-50.69
299.665	12.8
299.88	4.61
300.094	43.52
300.309	31.23
300.523	16.9
300.737	47.62
300.952	49.66
301.166	57.86
301.381	18.94
301.595	6.66
301.809	74.24
302.024	-9.73
302.238	47.62
302.452	61.95
302.667	59.9
302.881	88.57
303.095	49.66
303.309	49.66
303.524	-9.73
303.738	16.9
303.952	45.57
304.166	4.61
304.381	-3.58
304.595	55.81
304.809	10.75
305.023	57.86
305.237	41.47
305.452	109.05
305.666	55.81
305.88	64
306.094	64
306.308	-26.11
306.522	-3.58
306.736	-1.54
306.95	70.14
307.164	-26.11
307.379	68.09
307.593	51.71
307.807	23.04
308.021	27.14
308.235	61.95
308.449	39.42
308.663	14.85
308.877	72.19
309.091	31.23
309.305	43.52
309.519	4.61
309.733	82.43
309.947	23.04
310.161	80.38
310.374	59.9
310.588	20.99
310.802	14.85
311.016	31.23
311.23	-17.92
311.444	-1.54
311.658	61.95
311.872	59.9
312.085	64
312.299	57.86
312.513	70.14
312.727	72.19
312.941	23.04
313.154	27.14
313.368	82.43
313.582	41.47
313.796	57.86
314.009	-36.35
314.223	31.23
314.437	41.47
314.651	45.57
314.864	47.62
315.078	33.28
315.292	2.56
315.505	27.14
315.719	123.39
315.933	41.47
316.146	27.14
316.36	90.62
316.573	20.99
316.787	68.09
317.001	76.29
317.214	51.71
317.428	61.95
317.641	66.05
317.855	-50.69
318.068	10.75
318.282	27.14
318.495	39.42
318.709	61.95
318.922	39.42
319.136	49.66
319.349	49.66
319.563	18.94
319.776	82.43
319.99	23.04
320.203	18.94
320.417	70.14
320.63	64
320.843	-24.06
321.057	53.76
321.27	49.66
321.483	2.56
321.697	43.52
321.91	-19.97
322.124	107.01
322.337	16.9
322.55	2.56
322.763	129.53
322.977	90.62
323.19	-15.87
323.403	49.66
323.617	147.97
323.83	53.76
324.043	94.72
324.256	14.85
324.469	100.86
324.683	96.77
324.896	55.81
325.109	6.66
325.322	37.38
325.535	107.01
325.748	78.33
325.962	-5.63
326.175	35.33
326.388	35.33
326.601	8.7
326.814	88.57
327.027	-13.82
327.24	82.43
327.453	53.76
327.666	47.62
327.879	92.67
328.092	47.62
328.305	59.9
328.518	10.75
328.731	29.18
328.944	78.33
329.157	76.29
329.37	-44.54
329.583	100.86
329.796	2.56
330.009	-36.35
330.222	0.51
330.435	23.04
330.648	84.48
330.861	-17.92
331.073	-7.68
331.286	121.34
331.499	59.9
331.712	45.57
331.925	78.33
332.138	-32.26
332.35	20.99
332.563	10.75
332.776	94.72
332.989	4.61
333.202	55.81
333.414	76.29
333.627	16.9
333.84	27.14
334.053	117.25
334.265	-11.78
334.478	92.67
334.691	23.04
334.903	20.99
335.116	51.71
335.329	12.8
335.541	78.33
335.754	33.28
335.966	37.38
336.179	37.38
336.392	45.57
336.604	10.75
336.817	41.47
337.029	18.94
337.242	88.57
337.454	55.81
337.667	64
337.88	107.01
338.092	88.57
338.305	27.14
338.517	49.66
338.729	-32.26
338.942	-54.78
339.154	-11.78
339.367	53.76
339.579	64
339.792	41.47
340.004	35.33
340.217	35.33
340.429	113.15
340.641	12.8
340.854	45.57
341.066	-11.78
341.278	66.05
341.491	20.99
341.703	39.42
341.915	-15.87
342.128	31.23
342.34	16.9
342.552	64
342.764	47.62
342.977	55.81
343.189	14.85
343.401	33.28
343.613	-3.58
343.826	45.57
344.038	37.38
344.25	-40.45
344.462	43.52
344.674	86.53
344.886	35.33
345.099	59.9
345.311	2.56
345.523	-60.93
345.735	-46.59
345.947	35.33
346.159	-36.35
346.371	6.66
346.583	-3.58
346.795	20.99
347.007	27.14
347.219	25.09
347.431	20.99
347.643	66.05
347.855	0.51
348.067	16.9
348.279	-1.54
348.491	55.81
348.703	92.67
348.915	74.24
349.127	-5.63
349.339	41.47
349.551	39.42
349.763	-13.82
349.975	4.61
350.187	57.86
350.399	-13.82
350.61	86.53
350.822	39.42
351.034	47.62
351.246	47.62
351.458	76.29
351.669	59.9
351.881	0.51
352.093	16.9
352.305	66.05
352.517	64
352.728	2.56
352.94	8.7
353.152	0.51
353.363	35.33
353.575	53.76
353.787	-34.3
353.999	84.48
354.21	-3.58
354.422	20.99
354.633	-3.58
354.845	10.75
355.057	70.14
355.268	18.94
355.48	23.04
355.692	6.66
355.903	104.96
356.115	-34.3
356.326	-30.21
356.538	131.58
356.749	27.14
356.961	41.47
357.172	80.38
357.384	4.61
357.595	76.29
357.807	74.24
358.018	98.81
358.23	94.72
358.441	98.81
358.653	66.05
358.864	53.76
359.075	68.09
359.287	27.14
359.498	66.05
359.709	80.38
359.921	6.66
360.132	33.28
360.344	29.18
360.555	64
360.766	78.33
360.977	35.33
361.189	53.76
361.4	20.99
361.611	72.19
361.823	92.67
362.034	-22.02
362.245	4.61
362.456	10.75
362.667	20.99
362.879	6.66
363.09	84.48
363.301	-7.68
363.512	35.33
363.723	70.14
363.935	12.8
364.146	115.2
364.357	35.33
364.568	64
364.779	29.18
364.99	76.29
365.201	64
365.412	66.05
365.623	-40.45
365.834	10.75
366.045	-112.13
366.256	76.29
366.467	76.29
366.678	29.18
366.889	31.23
367.1	90.62
367.311	31.23
367.522	-30.21
367.733	135.68
367.944	115.2
368.155	12.8
368.366	80.38
368.577	43.52
368.788	125.44
368.999	82.43
369.209	8.7
369.42	35.33
369.631	125.44
369.842	82.43
370.053	119.29
370.264	102.91
370.474	88.57
370.685	29.18
370.896	33.28
371.107	90.62
371.317	61.95
371.528	-30.21
371.739	88.57
371.95	111.1
372.16	41.47
372.371	-5.63
372.582	66.05
372.792	45.57
373.003	80.38
373.214	80.38
373.424	35.33
373.635	72.19
373.846	59.9
374.056	111.1
374.267	59.9
374.477	23.04
374.688	72.19
374.898	37.38
375.109	43.52
375.319	68.09
375.53	84.48
375.74	37.38
375.951	-1.54
376.161	74.24
376.372	61.95
376.582	-26.11
376.793	2.56
377.003	84.48
377.214	86.53
377.424	61.95
377.635	88.57
377.845	-30.21
378.055	86.53
378.266	-11.78
378.476	-32.26
378.686	23.04
378.897	66.05
379.107	35.33
379.317	55.81
379.528	70.14
379.738	59.9
379.948	45.57
380.158	-3.58
380.369	14.85
380.579	47.62
380.789	80.38
380.999	86.53
381.21	72.19
381.42	57.86
381.63	-1.54
381.84	133.63
382.05	18.94
382.261	84.48
382.471	55.81
382.681	64
382.891	55.81
383.101	64
383.311	31.23
383.521	43.52
383.731	-11.78
383.941	100.86
384.151	2.56
384.361	55.81
384.571	84.48
384.781	45.57
384.991	16.9
385.201	98.81
385.411	18.94
385.621	59.9
385.831	14.85
386.041	57.86
386.251	0.51
386.461	82.43
386.671	74.24
386.881	88.57
387.091	-50.69
387.301	47.62
387.511	68.09
387.72	8.7
387.93	64
388.14	-3.58
388.35	35.33
388.56	33.28
388.769	39.42
388.979	78.33
389.189	66.05
389.399	59.9
389.609	98.81
389.818	76.29
390.028	6.66
390.238	80.38
390.447	27.14
390.657	43.52
390.867	86.53
391.076	12.8
391.286	20.99
391.496	43.52
391.705	64
391.915	92.67
392.125	39.42
392.334	119.29
392.544	59.9
392.753	57.86
392.963	133.63
393.172	55.81
393.382	66.05
393.591	139.77
393.801	80.38
394.01	170.49
394.22	72.19
394.429	14.85
394.639	137.73
394.848	49.66
395.058	47.62
395.267	98.81
395.477	86.53
395.686	127.49
395.895	47.62
396.105	129.53
396.314	129.53
396.524	172.54
396.733	117.25
396.942	94.72
397.152	14.85
397.361	94.72
397.57	66.05
397.78	129.53
397.989	147.97
398.198	139.77
398.407	98.81
398.617	49.66
398.826	88.57
399.035	84.48
399.244	80.38
399.453	92.67
399.663	72.19
399.872	123.39
400.081	14.85
400.29	147.97
400.499	-50.69
400.708	121.34
400.917	102.91
401.127	107.01
401.336	96.77
401.545	113.15
401.754	109.05
401.963	125.44
402.172	16.9
402.381	86.53
402.59	55.81
402.799	-17.92
403.008	209.4
403.217	145.92
403.426	64
403.635	76.29
403.844	121.34
404.053	76.29
404.262	188.93
404.471	137.73
404.68	115.2
404.888	152.06
405.097	70.14
405.306	143.87
405.515	102.91
405.724	152.06
405.933	86.53
406.142	195.07
406.35	131.58
406.559	104.96
406.768	135.68
406.977	231.93
407.185	100.86
407.394	195.07
407.603	115.2
407.812	160.25
408.02	246.27
408.229	172.54
408.438	147.97
408.646	193.02
408.855	231.93
409.064	209.4
409.272	203.26
409.481	236.03
409.69	250.36
409.898	129.53
410.107	199.16
410.315	330.23
410.524	276.99
410.733	197.12
410.941	299.52
411.15	336.38
411.358	379.39
411.567	385.53
411.775	317.95
411.984	383.48
412.192	336.38
412.401	338.43
412.609	342.52
412.818	332.28
413.026	430.59
413.234	379.39
413.443	334.33
413.651	444.92
413.86	481.78
414.068	500.22
414.276	494.07
414.485	522.74
414.693	479.74
414.901	604.66
415.11	545.27
415.318	575.99
415.526	571.9
415.734	553.46
415.943	573.94
416.151	621.05
416.359	715.25
416.567	696.82
416.776	733.68
416.984	719.35
417.192	735.73
417.4	733.68
417.608	723.44
417.817	799.22
418.025	899.57
418.233	899.57
418.441	805.36
418.649	854.51
418.857	1063.41
419.065	1022.45
419.273	948.72
419.481	995.82
419.689	1090.03
419.897	1159.66
420.105	1137.13
420.313	1221.1
420.521	1171.95
420.729	1208.81
420.937	1380.84
421.145	1284.59
421.353	1411.56
421.561	1434.09
421.769	1534.44
421.977	1509.86
422.185	1608.17
422.393	1681.89
422.601	1747.43
422.809	1790.44
423.017	1841.64
423.224	1851.88
423.432	1888.74
423.64	1958.37
423.848	2177.5
424.056	2132.45
424.263	2154.98
424.471	2230.75
424.679	2212.32
424.887	2449.88
425.094	2576.86
425.302	2503.13
425.51	2623.96
425.718	2695.64
425.925	2656.73
426.133	2759.13
426.341	2937.3
426.548	2998.74
426.756	3131.86
426.964	3039.7
427.171	3226.06
427.379	3314.13
427.586	3477.96
427.794	3439.05
428.001	3719.62
428.209	3981.76
428.417	3801.54
428.624	3946.95
428.832	3977.67
429.039	3885.51
429.247	4161.98
429.454	4434.36
429.662	4739.51
429.869	4344.25
430.076	4612.54
430.284	4696.5
430.491	4790.71
430.699	5128.63
430.906	5015.99
431.114	5104.05
431.321	5161.39
431.528	5525.93
431.736	5595.56
431.943	5962.15
432.15	5884.33
432.358	5812.65
432.565	6341.02
432.772	5978.53
432.979	6586.78
433.187	6640.03
433.394	6676.89
433.601	7117.2
433.808	7270.8
434.016	7053.72
434.223	7264.66
434.43	7733.64
434.637	7707.02
434.844	8063.36
435.052	8329.6
435.259	8008.07
435.466	8305.03
435.673	8161.67
435.88	8790.39
436.087	9292.15
436.294	9255.28
436.501	8941.94
436.708	9236.85
436.915	9398.64
437.122	9935.21
437.329	9613.68
437.537	10094.95
437.743	10203.49
437.95	10336.61
438.157	10879.32
438.364	11170.13
438.571	11090.26
438.778	11305.3
438.985	12224.84
439.192	11831.63
439.399	12323.14
439.606	11704.65
439.813	12452.16
440.02	13261.11
440.227	12876.09
440.433	12992.83
440.64	13306.16
440.847	13132.09
441.054	13666.61
441.261	14440.74
441.467	14143.78
441.674	14567.71
441.881	15159.58
442.088	15012.12
442.294	14905.63
442.501	15212.82
442.708	15661.33
442.914	16292.1
443.121	16881.92
443.328	16423.17
443.534	17787.12
443.741	17119.48
443.948	16888.06
444.154	18268.39
444.361	17924.33
444.568	18036.97
444.774	18051.31
444.981	18325.74
445.187	19085.53
445.394	19773.65
445.6	19546.33
445.807	21262.52
446.013	20076.75
446.22	20705.48
446.426	21352.63
446.633	21717.17
446.839	22333.61
447.046	21495.99
447.252	22644.9
447.459	22513.83
447.665	22708.39
447.871	23812.24
448.078	24227.98
448.284	23320.73
448.491	23750.81
448.697	25172.1
448.903	25415.8
449.11	25333.89
449.316	24893.57
449.522	25643.13
449.728	25567.35
449.935	26110.07
450.141	26187.89
450.347	26658.92
450.553	25784.44
450.76	26110.07
450.966	27267.17
451.172	26964.07
451.378	27398.24
451.584	26863.72
451.791	27381.85
451.997	27029.6
452.203	28039.25
452.409	27887.7
452.615	28043.35
452.821	26814.57
453.027	26120.31
453.233	27981.91
453.44	26368.11
453.646	26538.09
453.852	26534
454.058	27529.31
454.264	26257.52
454.47	26974.31
454.676	26048.63
454.882	27232.35
455.088	24854.66
455.294	25215.1
455.5	25401.47
455.705	25993.33
455.911	24785.03
456.117	24322.19
456.323	23890.07
456.529	22452.39
456.735	23380.12
456.941	23173.28
457.147	22579.37
457.352	21680.31
457.558	21704.88
457.764	21584.05
457.97	21139.65
458.176	20875.46
458.381	20914.37
458.587	19726.55
458.793	20007.12
458.999	18921.7
459.204	19910.86
459.41	19785.94
459.616	17959.15
459.821	18239.72
460.027	18104.56
460.233	17877.23
460.438	16738.56
460.644	17152.25
460.85	16386.31
461.055	16097.55
461.261	15952.14
461.466	14864.67
461.672	14360.87
461.878	15227.16
462.083	14338.34
462.289	14188.84
462.494	14033.19
462.7	13224.25
462.905	13300.02
463.111	13521.2
463.316	13607.22
463.522	13453.62
463.727	13480.24
463.932	13402.42
464.138	13064.5
464.343	13013.31
464.549	12753.21
464.754	13396.28
464.959	13154.62
465.165	12925.24
465.37	12495.17
465.575	12245.32
465.781	12636.48
465.986	12644.67
466.191	12147.01
466.397	12063.05
466.602	11518.29
466.807	11823.44
467.012	11870.54
467.218	11792.72
467.423	11805
467.628	11843.92
467.833	12089.67
468.038	11802.96
468.244	11491.66
468.449	11866.44
468.654	11374.93
468.859	11626.83
