Data from USB4F104151__13__11-04-42-235.txt Node

Date: Wed Mar 12 11:04:42 EDT 2025
User: louis
Spectrometer: USB4F10415
Trigger mode: 4
Integration Time (sec): 2.000000E-2
Scans to average: 1
Electric dark correction enabled: true
Nonlinearity correction enabled: false
Boxcar width: 0
XAxis mode: Wavelengths
Number of Pixels in Spectrum: 3648
>>>>>Begin Spectral Data<<<<<
178.204	1.71
178.424	1.71
178.644	1.71
178.864	-76.12
179.084	-45.4
179.304	44.71
179.524	-0.34
179.744	7.85
179.964	-20.82
180.184	-41.3
180.404	7.85
180.624	-31.06
180.844	-63.83
181.064	18.09
181.283	32.43
181.503	32.43
181.723	13.99
181.943	-45.4
182.163	1.71
182.383	-22.87
182.602	67.24
182.822	7.85
183.042	59.05
183.262	44.71
183.482	-57.68
183.701	102.06
183.921	11.95
184.141	79.53
184.361	1.71
184.58	9.9
184.8	-39.25
185.02	-31.06
185.239	48.81
185.459	95.91
185.679	71.34
185.898	-16.73
186.118	52.91
186.338	11.95
186.557	48.81
186.777	-6.49
186.997	-45.4
187.216	-12.63
187.436	81.58
187.655	59.05
187.875	5.8
188.095	-20.82
188.314	30.38
188.534	87.72
188.753	-26.96
188.973	89.77
189.192	106.15
189.412	48.81
189.631	13.99
189.851	85.67
190.07	93.87
190.29	32.43
190.509	28.33
190.729	85.67
190.948	50.86
191.168	151.21
191.387	-6.49
191.607	50.86
191.826	79.53
192.045	-6.49
192.265	22.19
192.484	48.81
192.704	85.67
192.923	32.43
193.142	57
193.362	-2.39
193.581	46.76
193.8	106.15
194.02	67.24
194.239	89.77
194.458	87.72
194.678	61.1
194.897	42.67
195.116	-8.53
195.335	-29.01
195.555	-22.87
195.774	-72.02
195.993	83.63
196.212	-8.53
196.432	28.33
196.651	69.29
196.87	48.81
197.089	85.67
197.308	1.71
197.528	59.05
197.747	-53.59
197.966	54.95
198.185	-31.06
198.404	-35.16
198.623	22.19
198.842	40.62
199.062	44.71
199.281	104.11
199.5	-6.49
199.719	1.71
199.938	36.52
200.157	69.29
200.376	22.19
200.595	50.86
200.814	22.19
201.033	-57.68
201.252	71.34
201.471	22.19
201.69	79.53
201.909	-16.73
202.128	-0.34
202.347	-8.53
202.566	71.34
202.785	-8.53
203.004	-12.63
203.223	79.53
203.442	85.67
203.661	13.99
203.879	-51.54
204.098	-12.63
204.317	28.33
204.536	61.1
204.755	77.48
204.974	16.04
205.193	-2.39
205.411	69.29
205.63	65.19
205.849	61.1
206.068	-39.25
206.287	73.39
206.505	104.11
206.724	22.19
206.943	69.29
207.162	-59.73
207.381	48.81
207.599	63.15
207.818	116.39
208.037	13.99
208.255	5.8
208.474	61.1
208.693	38.57
208.911	-35.16
209.13	-16.73
209.349	32.43
209.567	52.91
209.786	38.57
210.005	65.19
210.223	-2.39
210.442	9.9
210.661	-69.97
210.879	42.67
211.098	-18.77
211.316	36.52
211.535	16.04
211.753	22.19
211.972	-8.53
212.191	89.77
212.409	5.8
212.628	52.91
212.846	50.86
213.065	110.25
213.283	44.71
213.502	-10.58
213.72	-8.53
213.938	18.09
214.157	28.33
214.375	100.01
214.594	3.75
214.812	77.48
215.031	5.8
215.249	28.33
215.467	61.1
215.686	59.05
215.904	38.57
216.122	106.15
216.341	34.47
216.559	54.95
216.778	1.71
216.996	28.33
217.214	36.52
217.432	32.43
217.651	18.09
217.869	87.72
218.087	40.62
218.306	-29.01
218.524	5.8
218.742	71.34
218.96	-10.58
219.179	28.33
219.397	-39.25
219.615	38.57
219.833	28.33
220.051	30.38
220.27	36.52
220.488	-0.34
220.706	63.15
220.924	-2.39
221.142	11.95
221.36	-63.83
221.578	20.14
221.796	13.99
222.015	46.76
222.233	50.86
222.451	95.91
222.669	26.28
222.887	59.05
223.105	75.43
223.323	46.76
223.541	-2.39
223.759	140.97
223.977	42.67
224.195	36.52
224.413	63.15
224.631	63.15
224.849	71.34
225.067	28.33
225.285	-6.49
225.503	13.99
225.721	-29.01
225.939	67.24
226.157	-12.63
226.375	26.28
226.592	30.38
226.81	81.58
227.028	63.15
227.246	120.49
227.464	-12.63
227.682	73.39
227.9	13.99
228.117	79.53
228.335	34.47
228.553	48.81
228.771	46.76
228.989	46.76
229.206	106.15
229.424	42.67
229.642	26.28
229.86	46.76
230.077	20.14
230.295	-6.49
230.513	24.23
230.731	13.99
230.948	24.23
231.166	71.34
231.384	38.57
231.601	59.05
231.819	122.54
232.037	-29.01
232.254	-4.44
232.472	-14.68
232.689	-26.96
232.907	50.86
233.125	87.72
233.342	48.81
233.56	36.52
233.777	-22.87
233.995	57
234.213	42.67
234.43	57
234.648	7.85
234.865	28.33
235.083	46.76
235.3	46.76
235.518	22.19
235.735	97.96
235.953	42.67
236.17	-0.34
236.388	38.57
236.605	26.28
236.822	46.76
237.04	95.91
237.257	24.23
237.475	-24.92
237.692	104.11
237.909	69.29
238.127	40.62
238.344	-12.63
238.562	46.76
238.779	44.71
238.996	59.05
239.214	69.29
239.431	57
239.648	-10.58
239.865	36.52
240.083	13.99
240.3	-0.34
240.517	54.95
240.735	81.58
240.952	83.63
241.169	-35.16
241.386	124.58
241.603	67.24
241.821	-22.87
242.038	48.81
242.255	1.71
242.472	7.85
242.689	151.21
242.907	138.92
243.124	93.87
243.341	-51.54
243.558	32.43
243.775	46.76
243.992	13.99
244.209	110.25
244.426	122.54
244.643	20.14
244.86	44.71
245.078	54.95
245.295	40.62
245.512	79.53
245.729	-26.96
245.946	-37.2
246.163	52.91
246.38	24.23
246.597	24.23
246.814	61.1
247.031	63.15
247.248	34.47
247.464	48.81
247.681	34.47
247.898	65.19
248.115	-22.87
248.332	46.76
248.549	75.43
248.766	81.58
248.983	112.3
249.2	95.91
249.417	59.05
249.633	71.34
249.85	65.19
250.067	18.09
250.284	57
250.501	122.54
250.717	22.19
250.934	-57.68
251.151	5.8
251.368	67.24
251.585	48.81
251.801	11.95
252.018	-10.58
252.235	-43.35
252.451	-26.96
252.668	54.95
252.885	59.05
253.102	24.23
253.318	46.76
253.535	22.19
253.752	95.91
253.968	26.28
254.185	-4.44
254.401	28.33
254.618	134.82
254.835	30.38
255.051	110.25
255.268	-69.97
255.484	89.77
255.701	-6.49
255.917	54.95
256.134	7.85
256.351	79.53
256.567	110.25
256.784	77.48
257	130.73
257.217	46.76
257.433	34.47
257.65	-10.58
257.866	20.14
258.082	46.76
258.299	-4.44
258.515	20.14
258.732	-10.58
258.948	65.19
259.165	63.15
259.381	24.23
259.597	16.04
259.814	42.67
260.03	48.81
260.246	42.67
260.463	71.34
260.679	57
260.895	-35.16
261.112	-6.49
261.328	32.43
261.544	36.52
261.761	-26.96
261.977	59.05
262.193	5.8
262.409	5.8
262.626	32.43
262.842	22.19
263.058	1.71
263.274	24.23
263.49	48.81
263.707	26.28
263.923	67.24
264.139	7.85
264.355	71.34
264.571	61.1
264.787	91.82
265.004	95.91
265.22	63.15
265.436	116.39
265.652	75.43
265.868	54.95
266.084	34.47
266.3	-12.63
266.516	13.99
266.732	7.85
266.948	59.05
267.164	26.28
267.38	79.53
267.596	-18.77
267.812	81.58
268.028	30.38
268.244	52.91
268.46	42.67
268.676	54.95
268.892	65.19
269.108	7.85
269.324	52.91
269.54	69.29
269.756	32.43
269.972	73.39
270.188	28.33
270.403	18.09
270.619	-0.34
270.835	34.47
271.051	-26.96
271.267	-18.77
271.483	-14.68
271.698	106.15
271.914	30.38
272.13	34.47
272.346	52.91
272.562	24.23
272.777	81.58
272.993	-18.77
273.209	65.19
273.425	-20.82
273.64	50.86
273.856	65.19
274.072	-55.64
274.287	-41.3
274.503	67.24
274.719	-6.49
274.934	140.97
275.15	22.19
275.366	118.44
275.581	-6.49
275.797	50.86
276.012	18.09
276.228	67.24
276.444	34.47
276.659	95.91
276.875	5.8
277.09	67.24
277.306	79.53
277.521	63.15
277.737	89.77
277.952	71.34
278.168	26.28
278.383	30.38
278.599	40.62
278.814	52.91
279.03	13.99
279.245	65.19
279.461	28.33
279.676	34.47
279.892	7.85
280.107	7.85
280.322	22.19
280.538	57
280.753	38.57
280.969	87.72
281.184	-2.39
281.399	59.05
281.615	16.04
281.83	118.44
282.045	-16.73
282.26	11.95
282.476	75.43
282.691	38.57
282.906	28.33
283.122	18.09
283.337	22.19
283.552	63.15
283.767	13.99
283.983	52.91
284.198	48.81
284.413	-2.39
284.628	52.91
284.843	110.25
285.058	89.77
285.274	24.23
285.489	-4.44
285.704	36.52
285.919	61.1
286.134	65.19
286.349	-33.11
286.564	106.15
286.779	124.58
286.995	48.81
287.21	34.47
287.425	61.1
287.64	34.47
287.855	42.67
288.07	16.04
288.285	83.63
288.5	143.02
288.715	26.28
288.93	42.67
289.145	-4.44
289.36	24.23
289.575	75.43
289.79	40.62
290.004	85.67
290.219	71.34
290.434	38.57
290.649	24.23
290.864	9.9
291.079	85.67
291.294	3.75
291.509	75.43
291.724	-10.58
291.938	20.14
292.153	71.34
292.368	-18.77
292.583	100.01
292.798	44.71
293.012	102.06
293.227	75.43
293.442	24.23
293.657	24.23
293.871	42.67
294.086	24.23
294.301	50.86
294.516	42.67
294.73	28.33
294.945	40.62
295.16	-0.34
295.374	-4.44
295.589	75.43
295.804	44.71
296.018	-33.11
296.233	91.82
296.447	7.85
296.662	20.14
296.877	46.76
297.091	81.58
297.306	7.85
297.52	79.53
297.735	48.81
297.949	-16.73
298.164	50.86
298.378	61.1
298.593	59.05
298.807	-26.96
299.022	61.1
299.236	44.71
299.451	24.23
299.665	30.38
299.88	52.91
300.094	9.9
300.309	87.72
300.523	44.71
300.737	-10.58
300.952	34.47
301.166	-14.68
301.381	61.1
301.595	28.33
301.809	18.09
302.024	61.1
302.238	20.14
302.452	54.95
302.667	24.23
302.881	81.58
303.095	18.09
303.309	30.38
303.524	69.29
303.738	65.19
303.952	1.71
304.166	106.15
304.381	38.57
304.595	46.76
304.809	42.67
305.023	75.43
305.237	57
305.452	-8.53
305.666	54.95
305.88	116.39
306.094	67.24
306.308	79.53
306.522	87.72
306.736	77.48
306.95	108.2
307.164	13.99
307.379	63.15
307.593	114.34
307.807	18.09
308.021	5.8
308.235	3.75
308.449	54.95
308.663	46.76
308.877	118.44
309.091	-57.68
309.305	102.06
309.519	124.58
309.733	151.21
309.947	44.71
310.161	28.33
310.374	30.38
310.588	54.95
310.802	42.67
311.016	128.68
311.23	89.77
311.444	54.95
311.658	102.06
311.872	16.04
312.085	28.33
312.299	65.19
312.513	30.38
312.727	30.38
312.941	28.33
313.154	22.19
313.368	-10.58
313.582	9.9
313.796	65.19
314.009	28.33
314.223	149.16
314.437	81.58
314.651	77.48
314.864	20.14
315.078	67.24
315.292	-24.92
315.505	44.71
315.719	106.15
315.933	13.99
316.146	50.86
316.36	-6.49
316.573	75.43
316.787	134.82
317.001	91.82
317.214	18.09
317.428	118.44
317.641	36.52
317.855	13.99
318.068	38.57
318.282	153.26
318.495	44.71
318.709	87.72
318.922	36.52
319.136	22.19
319.349	46.76
319.563	1.71
319.776	91.82
319.99	69.29
320.203	-51.54
320.417	126.63
320.63	13.99
320.843	124.58
321.057	67.24
321.27	22.19
321.483	5.8
321.697	44.71
321.91	28.33
322.124	50.86
322.337	42.67
322.55	-37.2
322.763	-18.77
322.977	59.05
323.19	89.77
323.403	32.43
323.617	61.1
323.83	71.34
324.043	34.47
324.256	32.43
324.469	97.96
324.683	-0.34
324.896	18.09
325.109	83.63
325.322	1.71
325.535	40.62
325.748	50.86
325.962	61.1
326.175	18.09
326.388	106.15
326.601	116.39
326.814	34.47
327.027	24.23
327.24	71.34
327.453	11.95
327.666	-41.3
327.879	110.25
328.092	65.19
328.305	100.01
328.518	-4.44
328.731	77.48
328.944	-0.34
329.157	50.86
329.37	-12.63
329.583	44.71
329.796	81.58
330.009	-12.63
330.222	5.8
330.435	124.58
330.648	13.99
330.861	36.52
331.073	61.1
331.286	20.14
331.499	28.33
331.712	-12.63
331.925	18.09
332.138	-6.49
332.35	69.29
332.563	28.33
332.776	63.15
332.989	97.96
333.202	50.86
333.414	9.9
333.627	83.63
333.84	30.38
334.053	95.91
334.265	140.97
334.478	-10.58
334.691	93.87
334.903	83.63
335.116	38.57
335.329	1.71
335.541	50.86
335.754	52.91
335.966	-6.49
336.179	34.47
336.392	54.95
336.604	97.96
336.817	67.24
337.029	26.28
337.242	93.87
337.454	11.95
337.667	89.77
337.88	91.82
338.092	46.76
338.305	26.28
338.517	59.05
338.729	26.28
338.942	38.57
339.154	7.85
339.367	91.82
339.579	28.33
339.792	52.91
340.004	71.34
340.217	34.47
340.429	30.38
340.641	9.9
340.854	38.57
341.066	-26.96
341.278	50.86
341.491	36.52
341.703	61.1
341.915	-12.63
342.128	93.87
342.34	-0.34
342.552	1.71
342.764	110.25
342.977	110.25
343.189	59.05
343.401	-4.44
343.613	-51.54
343.826	147.11
344.038	26.28
344.25	65.19
344.462	65.19
344.674	110.25
344.886	132.78
345.099	46.76
345.311	46.76
345.523	54.95
345.735	108.2
345.947	34.47
346.159	97.96
346.371	30.38
346.583	54.95
346.795	46.76
347.007	-43.35
347.219	97.96
347.431	32.43
347.643	93.87
347.855	75.43
348.067	81.58
348.279	34.47
348.491	7.85
348.703	116.39
348.915	120.49
349.127	87.72
349.339	110.25
349.551	71.34
349.763	93.87
349.975	67.24
350.187	136.87
350.399	-8.53
350.61	46.76
350.822	63.15
351.034	63.15
351.246	22.19
351.458	46.76
351.669	52.91
351.881	54.95
352.093	79.53
352.305	63.15
352.517	83.63
352.728	71.34
352.94	34.47
353.152	50.86
353.363	57
353.575	18.09
353.787	104.11
353.999	87.72
354.21	69.29
354.422	95.91
354.633	5.8
354.845	57
355.057	18.09
355.268	46.76
355.48	69.29
355.692	71.34
355.903	38.57
356.115	124.58
356.326	57
356.538	71.34
356.749	59.05
356.961	63.15
357.172	57
357.384	28.33
357.595	54.95
357.807	73.39
358.018	-37.2
358.23	73.39
358.441	48.81
358.653	61.1
358.864	63.15
359.075	34.47
359.287	22.19
359.498	18.09
359.709	24.23
359.921	85.67
360.132	34.47
360.344	-0.34
360.555	77.48
360.766	42.67
360.977	120.49
361.189	122.54
361.4	52.91
361.611	126.63
361.823	-2.39
362.034	69.29
362.245	40.62
362.456	69.29
362.667	57
362.879	97.96
363.09	79.53
363.301	122.54
363.512	163.5
363.723	-37.2
363.935	26.28
364.146	75.43
364.357	54.95
364.568	61.1
364.779	-20.82
364.99	102.06
365.201	73.39
365.412	46.76
365.623	32.43
365.834	73.39
366.045	104.11
366.256	130.73
366.467	67.24
366.678	71.34
366.889	85.67
367.1	18.09
367.311	75.43
367.522	71.34
367.733	54.95
367.944	30.38
368.155	30.38
368.366	104.11
368.577	83.63
368.788	11.95
368.999	-0.34
369.209	79.53
369.42	102.06
369.631	97.96
369.842	30.38
370.053	93.87
370.264	112.3
370.474	-4.44
370.685	11.95
370.896	106.15
371.107	85.67
371.317	120.49
371.528	48.81
371.739	140.97
371.95	48.81
372.16	159.4
372.371	20.14
372.582	79.53
372.792	32.43
373.003	110.25
373.214	-2.39
373.424	83.63
373.635	46.76
373.846	108.2
374.056	122.54
374.267	100.01
374.477	57
374.688	63.15
374.898	3.75
375.109	100.01
375.319	93.87
375.53	63.15
375.74	116.39
375.951	95.91
376.161	52.91
376.372	110.25
376.582	77.48
376.793	87.72
377.003	69.29
377.214	79.53
377.424	85.67
377.635	147.11
377.845	-47.44
378.055	106.15
378.266	18.09
378.476	83.63
378.686	3.75
378.897	73.39
379.107	61.1
379.317	50.86
379.528	46.76
379.738	95.91
379.948	81.58
380.158	69.29
380.369	108.2
380.579	22.19
380.789	-8.53
380.999	75.43
381.21	79.53
381.42	54.95
381.63	104.11
381.84	116.39
382.05	87.72
382.261	97.96
382.471	95.91
382.681	110.25
382.891	89.77
383.101	83.63
383.311	38.57
383.521	77.48
383.731	77.48
383.941	20.14
384.151	75.43
384.361	22.19
384.571	87.72
384.781	34.47
384.991	132.78
385.201	61.1
385.411	22.19
385.621	61.1
385.831	79.53
386.041	50.86
386.251	104.11
386.461	167.59
386.671	13.99
386.881	145.06
387.091	11.95
387.301	122.54
387.511	73.39
387.72	114.34
387.93	59.05
388.14	120.49
388.35	67.24
388.56	91.82
388.769	118.44
388.979	100.01
389.189	126.63
389.399	108.2
389.609	108.2
389.818	89.77
390.028	91.82
390.238	153.26
390.447	42.67
390.657	155.3
390.867	69.29
391.076	112.3
391.286	93.87
391.496	147.11
391.705	28.33
391.915	52.91
392.125	173.74
392.334	114.34
392.544	145.06
392.753	112.3
392.963	3.75
393.172	153.26
393.382	57
393.591	136.87
393.801	177.83
394.01	165.54
394.22	171.69
394.429	102.06
394.639	108.2
394.848	110.25
395.058	116.39
395.267	83.63
395.477	134.82
395.686	97.96
395.895	200.36
396.105	149.16
396.314	124.58
396.524	126.63
396.733	77.48
396.942	104.11
397.152	130.73
397.361	155.3
397.57	183.98
397.78	145.06
397.989	136.87
398.198	218.79
398.407	163.5
398.617	110.25
398.826	163.5
399.035	175.78
399.244	116.39
399.453	179.88
399.663	130.73
399.872	85.67
400.081	91.82
400.29	181.93
400.499	143.02
400.708	204.46
400.917	126.63
401.127	192.17
401.336	126.63
401.545	204.46
401.754	153.26
401.963	198.31
402.172	149.16
402.381	183.98
402.59	67.24
402.799	134.82
403.008	128.68
403.217	186.02
403.426	198.31
403.635	159.4
403.844	173.74
404.053	253.61
404.262	218.79
404.471	216.74
404.68	216.74
404.888	231.08
405.097	206.5
405.306	173.74
405.515	175.78
405.724	188.07
405.933	341.67
406.142	235.18
406.35	259.75
406.559	235.18
406.768	292.52
406.977	267.94
407.185	235.18
407.394	280.23
407.603	296.61
407.812	286.37
408.02	224.94
408.229	290.47
408.438	333.48
408.646	321.19
408.855	302.76
409.064	401.06
409.272	319.14
409.481	464.55
409.69	372.39
409.898	417.44
410.107	491.17
410.315	468.64
410.524	478.88
410.733	470.69
410.941	450.21
411.15	489.12
411.358	638.62
411.567	552.61
411.775	562.85
411.984	540.32
412.192	665.25
412.401	702.11
412.609	732.83
412.818	681.63
413.026	738.98
413.234	667.3
413.443	708.26
413.651	794.27
413.86	788.13
414.068	847.52
414.276	855.71
414.485	888.48
414.693	853.66
414.901	929.44
415.11	980.64
415.318	1003.16
415.526	1050.27
415.734	1134.23
415.943	1142.43
416.151	1173.14
416.359	1136.28
416.567	1160.86
416.776	1224.34
416.984	1314.45
417.192	1363.61
417.4	1382.04
417.608	1453.72
417.817	1549.97
418.025	1472.15
418.233	1683.09
418.441	1619.6
418.649	1549.97
418.857	1767.06
419.065	1697.42
419.273	1840.78
419.481	1998.48
419.689	2090.63
419.897	2137.74
420.105	2299.53
420.313	2068.11
420.521	2326.15
420.729	2391.69
420.937	2442.89
421.145	2535.04
421.353	2616.96
421.561	2688.64
421.769	2768.51
421.977	2827.9
422.185	2922.11
422.393	3010.17
422.601	3288.7
422.809	3198.59
423.017	3270.26
423.224	3571.32
423.432	3673.71
423.64	3726.96
423.848	3894.9
424.056	3841.65
424.263	4099.69
424.471	4111.98
424.679	4236.91
424.887	4535.91
425.094	4501.09
425.302	4574.82
425.51	4693.6
425.718	4937.31
425.925	4929.12
426.133	5191.26
426.341	5525.08
426.548	5600.85
426.756	5703.25
426.964	5760.59
427.171	5992.02
427.379	6065.74
427.586	6387.27
427.794	6559.3
428.001	6925.89
428.209	7118.4
428.417	6981.18
428.624	7571
428.832	7593.53
429.039	7616.05
429.247	7513.66
429.454	8257.07
429.662	8748.58
429.869	8193.58
430.076	8746.53
430.284	8357.42
430.491	8980
430.699	9356.83
430.906	9422.36
431.114	9639.45
431.321	9909.78
431.528	10133.01
431.736	10845.7
431.943	11400.7
432.15	10847.75
432.358	11091.46
432.565	11654.65
432.772	11757.05
432.979	12223.98
433.187	12512.75
433.394	12625.39
433.601	13440.48
433.808	13585.88
434.016	13293.02
434.223	14063.06
434.43	14630.35
434.637	14695.88
434.844	15412.67
435.052	15605.18
435.259	15627.71
435.466	15726.01
435.673	15343.04
435.88	16725.42
436.087	17599.9
436.294	17327.52
436.501	17141.16
436.708	17487.26
436.915	17929.63
437.122	18636.17
437.329	18654.61
437.537	19322.24
437.743	19690.88
437.95	19811.71
438.157	20491.63
438.364	21419.36
438.571	21159.27
438.778	21437.8
438.985	23379.27
439.192	22476.12
439.399	23317.83
439.606	22789.45
439.813	24114.49
440.02	25568.55
440.227	24859.95
440.433	24640.82
440.64	25857.31
440.847	25599.27
441.054	26078.49
441.261	27864.32
441.467	27438.34
441.674	28179.71
441.881	28994.8
442.088	28742.9
442.294	28626.17
442.501	29525.22
442.708	30143.71
442.914	31229.13
443.121	32427.2
443.328	31755.46
443.534	34024.61
443.741	33045.68
443.948	32427.2
444.154	34882.71
444.361	34516.12
444.568	35271.82
444.774	34895
444.981	35157.14
445.187	36379.78
445.394	38087.78
445.6	37592.17
445.807	40782.91
446.013	39447.63
446.22	39844.94
446.426	41544.75
446.633	41835.56
446.839	42900.51
447.046	41270.32
447.252	43629.58
447.459	43494.42
447.665	43236.37
447.871	45210.62
448.078	46910.43
448.284	44678.14
448.491	45945.84
448.697	47942.61
448.903	48116.68
449.11	48395.21
449.316	47289.31
449.522	48417.74
449.728	49509.3
449.935	50396.07
450.141	50205.61
450.347	51338.14
450.553	49544.12
450.76	50004.91
450.966	51354.52
451.172	50527.14
451.378	52083.6
451.584	50666.41
451.791	52317.07
451.997	51803.03
452.203	52874.12
452.409	52358.03
452.615	52210.57
452.821	50248.62
453.027	49830.83
453.233	52190.09
453.44	50658.21
453.646	50834.34
453.852	51035.04
454.058	51602.33
454.264	49896.37
454.47	50826.15
454.676	49875.89
454.882	51293.08
455.088	46670.82
455.294	47184.86
455.5	47881.17
455.705	48782.27
455.911	46805.98
456.117	45714.42
456.323	44950.52
456.529	42535.97
456.735	44012.56
456.941	42998.81
457.147	42452
457.352	41204.79
457.558	40850.49
457.764	40909.88
457.97	39547.98
458.176	38831.19
458.381	38906.97
458.587	37039.22
458.793	36523.13
458.999	35140.75
459.204	37473.39
459.41	36615.29
459.616	34266.27
459.821	34063.52
460.027	33967.27
460.233	33068.21
460.438	31325.39
460.644	31954.12
460.85	30297.31
461.055	30158.05
461.261	29727.97
461.466	27723.01
461.672	26742.03
461.878	28953.84
462.083	27243.79
462.289	26582.29
462.494	26494.23
462.7	25023.79
462.905	24558.9
463.111	25451.81
463.316	25296.17
463.522	24884.53
463.727	25056.56
463.932	25126.19
464.138	24495.41
464.343	24685.87
464.549	23772.48
464.754	24808.75
464.959	24427.83
465.165	24288.57
465.37	23614.79
465.575	22760.78
465.781	23643.46
465.986	24079.68
466.191	22943.05
466.397	22381.91
466.602	21495.14
466.807	22472.02
