Data from USB4F104151__72__11-06-18-724.txt Node

Date: Wed Mar 12 11:06:18 EDT 2025
User: louis
Spectrometer: USB4F10415
Trigger mode: 4
Integration Time (sec): 2.000000E-2
Scans to average: 1
Electric dark correction enabled: true
Nonlinearity correction enabled: false
Boxcar width: 0
XAxis mode: Wavelengths
Number of Pixels in Spectrum: 3648
>>>>>Begin Spectral Data<<<<<
178.204	-65.02
178.424	-65.02
178.644	-65.02
178.864	-122.37
179.084	-138.75
179.304	-15.87
179.524	41.47
179.744	8.7
179.964	-9.73
180.184	29.18
180.404	70.14
180.624	-42.5
180.844	41.47
181.064	-15.87
181.283	-28.16
181.503	-93.69
181.723	14.85
181.943	0.51
182.163	84.48
182.383	10.75
182.602	45.57
182.822	55.81
183.042	-7.68
183.262	66.05
183.482	41.47
183.701	27.14
183.921	51.71
184.141	-50.69
184.361	55.81
184.58	8.7
184.8	39.42
185.02	-22.02
185.239	68.09
185.459	18.94
185.679	61.95
185.898	-13.82
186.118	45.57
186.338	-36.35
186.557	53.76
186.777	-32.26
186.997	-28.16
187.216	66.05
187.436	8.7
187.655	-11.78
187.875	4.61
188.095	70.14
188.314	0.51
188.534	45.57
188.753	57.86
188.973	10.75
189.192	37.38
189.412	-13.82
189.631	6.66
189.851	53.76
190.07	33.28
190.29	41.47
190.509	-17.92
190.729	2.56
190.948	45.57
191.168	53.76
191.387	82.43
191.607	-11.78
191.826	31.23
192.045	39.42
192.265	78.33
192.484	0.51
192.704	0.51
192.923	2.56
193.142	135.68
193.362	55.81
193.581	39.42
193.8	27.14
194.02	33.28
194.239	2.56
194.458	57.86
194.678	-32.26
194.897	27.14
195.116	43.52
195.335	33.28
195.555	23.04
195.774	43.52
195.993	-1.54
196.212	39.42
196.432	8.7
196.651	59.9
196.87	25.09
197.089	70.14
197.308	-9.73
197.528	33.28
197.747	-32.26
197.966	43.52
198.185	4.61
198.404	-15.87
198.623	57.86
198.842	29.18
199.062	53.76
199.281	23.04
199.5	20.99
199.719	-36.35
199.938	29.18
200.157	-15.87
200.376	29.18
200.595	6.66
200.814	2.56
201.033	35.33
201.252	29.18
201.471	68.09
201.69	86.53
201.909	-36.35
202.128	-40.45
202.347	0.51
202.566	0.51
202.785	12.8
203.004	-15.87
203.223	33.28
203.442	39.42
203.661	53.76
203.879	72.19
204.098	55.81
204.317	-13.82
204.536	55.81
204.755	49.66
204.974	61.95
205.193	55.81
205.411	70.14
205.63	25.09
205.849	68.09
206.068	33.28
206.287	53.76
206.505	76.29
206.724	39.42
206.943	47.62
207.162	61.95
207.381	47.62
207.599	20.99
207.818	59.9
208.037	-36.35
208.255	-3.58
208.474	20.99
208.693	14.85
208.911	66.05
209.13	53.76
209.349	53.76
209.567	10.75
209.786	31.23
210.005	35.33
210.223	39.42
210.442	59.9
210.661	37.38
210.879	51.71
211.098	31.23
211.316	-7.68
211.535	55.81
211.753	12.8
211.972	-3.58
212.191	23.04
212.409	-62.98
212.628	61.95
212.846	20.99
213.065	-5.63
213.283	29.18
213.502	4.61
213.72	29.18
213.938	0.51
214.157	-54.78
214.375	-7.68
214.594	-15.87
214.812	49.66
215.031	6.66
215.249	100.86
215.467	-13.82
215.686	-30.21
215.904	25.09
216.122	-11.78
216.341	10.75
216.559	-13.82
216.778	68.09
216.996	72.19
217.214	4.61
217.432	0.51
217.651	25.09
217.869	6.66
218.087	64
218.306	-93.69
218.524	43.52
218.742	-44.54
218.96	-28.16
219.179	-7.68
219.397	-17.92
219.615	39.42
219.833	14.85
220.051	18.94
220.27	39.42
220.488	53.76
220.706	78.33
220.924	18.94
221.142	57.86
221.36	-28.16
221.578	-11.78
221.796	-3.58
222.015	2.56
222.233	41.47
222.451	84.48
222.669	4.61
222.887	51.71
223.105	10.75
223.323	41.47
223.541	6.66
223.759	33.28
223.977	0.51
224.195	92.67
224.413	10.75
224.631	27.14
224.849	29.18
225.067	57.86
225.285	53.76
225.503	-17.92
225.721	-1.54
225.939	-11.78
226.157	16.9
226.375	49.66
226.592	33.28
226.81	70.14
227.028	16.9
227.246	64
227.464	8.7
227.682	66.05
227.9	27.14
228.117	-11.78
228.335	-65.02
228.553	0.51
228.771	47.62
228.989	57.86
229.206	88.57
229.424	-13.82
229.642	76.29
229.86	-7.68
230.077	16.9
230.295	-15.87
230.513	59.9
230.731	25.09
230.948	33.28
231.166	-28.16
231.384	33.28
231.601	23.04
231.819	-32.26
232.037	20.99
232.254	8.7
232.472	37.38
232.689	-3.58
232.907	-36.35
233.125	49.66
233.342	0.51
233.56	82.43
233.777	-15.87
233.995	-7.68
234.213	49.66
234.43	6.66
234.648	29.18
234.865	-7.68
235.083	25.09
235.3	68.09
235.518	51.71
235.735	41.47
235.953	57.86
236.17	35.33
236.388	66.05
236.605	-24.06
236.822	-40.45
237.04	37.38
237.257	51.71
237.475	64
237.692	86.53
237.909	16.9
238.127	14.85
238.344	-26.11
238.562	53.76
238.779	-62.98
238.996	27.14
239.214	-73.21
239.431	68.09
239.648	-5.63
239.865	51.71
240.083	25.09
240.3	51.71
240.517	20.99
240.735	-9.73
240.952	-5.63
241.169	59.9
241.386	39.42
241.603	70.14
241.821	-19.97
242.038	31.23
242.255	4.61
242.472	25.09
242.689	-1.54
242.907	-11.78
243.124	59.9
243.341	-89.6
243.558	49.66
243.775	12.8
243.992	-17.92
244.209	0.51
244.426	18.94
244.643	100.86
244.86	68.09
245.078	6.66
245.295	14.85
245.512	16.9
245.729	-44.54
245.946	45.57
246.163	47.62
246.38	31.23
246.597	35.33
246.814	10.75
247.031	45.57
247.248	90.62
247.464	37.38
247.681	-1.54
247.898	43.52
248.115	-15.87
248.332	29.18
248.549	23.04
248.766	59.9
248.983	-5.63
249.2	6.66
249.417	70.14
249.633	-1.54
249.85	74.24
250.067	55.81
250.284	68.09
250.501	10.75
250.717	39.42
250.934	16.9
251.151	51.71
251.368	51.71
251.585	45.57
251.801	66.05
252.018	12.8
252.235	14.85
252.451	49.66
252.668	43.52
252.885	45.57
253.102	49.66
253.318	37.38
253.535	55.81
253.752	-15.87
253.968	16.9
254.185	2.56
254.401	-3.58
254.618	47.62
254.835	23.04
255.051	35.33
255.268	64
255.484	33.28
255.701	-19.97
255.917	51.71
256.134	20.99
256.351	-30.21
256.567	20.99
256.784	-3.58
257	45.57
257.217	111.1
257.433	29.18
257.65	-28.16
257.866	100.86
258.082	68.09
258.299	74.24
258.515	94.72
258.732	16.9
258.948	-26.11
259.165	80.38
259.381	49.66
259.597	61.95
259.814	61.95
260.03	76.29
260.246	18.94
260.463	37.38
260.679	74.24
260.895	82.43
261.112	94.72
261.328	123.39
261.544	8.7
261.761	84.48
261.977	72.19
262.193	-1.54
262.409	107.01
262.626	80.38
262.842	-48.64
263.058	61.95
263.274	14.85
263.49	109.05
263.707	129.53
263.923	-50.69
264.139	-5.63
264.355	88.57
264.571	14.85
264.787	-28.16
265.004	20.99
265.22	43.52
265.436	76.29
265.652	23.04
265.868	-11.78
266.084	98.81
266.3	119.29
266.516	-56.83
266.732	74.24
266.948	-19.97
267.164	20.99
267.38	59.9
267.596	-11.78
267.812	94.72
268.028	29.18
268.244	53.76
268.46	33.28
268.676	35.33
268.892	-1.54
269.108	8.7
269.324	14.85
269.54	-79.36
269.756	55.81
269.972	-9.73
270.188	27.14
270.403	45.57
270.619	47.62
270.835	12.8
271.051	61.95
271.267	74.24
271.483	57.86
271.698	33.28
271.914	86.53
272.13	41.47
272.346	64
272.562	107.01
272.777	88.57
272.993	25.09
273.209	16.9
273.425	14.85
273.64	29.18
273.856	72.19
274.072	47.62
274.287	10.75
274.503	113.15
274.719	4.61
274.934	53.76
275.15	49.66
275.366	14.85
275.581	12.8
275.797	33.28
276.012	47.62
276.228	-7.68
276.444	29.18
276.659	55.81
276.875	4.61
277.09	33.28
277.306	8.7
277.521	4.61
277.737	-60.93
277.952	41.47
278.168	25.09
278.383	14.85
278.599	-28.16
278.814	16.9
279.03	61.95
279.245	53.76
279.461	80.38
279.676	70.14
279.892	8.7
280.107	14.85
280.322	-7.68
280.538	10.75
280.753	12.8
280.969	20.99
281.184	82.43
281.399	-7.68
281.615	23.04
281.83	-3.58
282.045	-79.36
282.26	57.86
282.476	4.61
282.691	76.29
282.906	4.61
283.122	39.42
283.337	-56.83
283.552	57.86
283.767	-3.58
283.983	27.14
284.198	76.29
284.413	-46.59
284.628	18.94
284.843	45.57
285.058	33.28
285.274	43.52
285.489	12.8
285.704	29.18
285.919	72.19
286.134	25.09
286.349	-28.16
286.564	4.61
286.779	74.24
286.995	59.9
287.21	45.57
287.425	35.33
287.64	70.14
287.855	27.14
288.07	-26.11
288.285	78.33
288.5	27.14
288.715	29.18
288.93	92.67
289.145	4.61
289.36	16.9
289.575	-5.63
289.79	53.76
290.004	72.19
290.219	-22.02
290.434	6.66
290.649	2.56
290.864	51.71
291.079	61.95
291.294	51.71
291.509	55.81
291.724	72.19
291.938	29.18
292.153	86.53
292.368	31.23
292.583	66.05
292.798	18.94
293.012	-1.54
293.227	23.04
293.442	84.48
293.657	72.19
293.871	84.48
294.086	23.04
294.301	55.81
294.516	64
294.73	41.47
294.945	23.04
295.16	25.09
295.374	25.09
295.589	86.53
295.804	43.52
296.018	25.09
296.233	88.57
296.447	119.29
296.662	68.09
296.877	0.51
297.091	12.8
297.306	8.7
297.52	8.7
297.735	-11.78
297.949	51.71
298.164	78.33
298.378	90.62
298.593	20.99
298.807	74.24
299.022	80.38
299.236	-22.02
299.451	-38.4
299.665	84.48
299.88	41.47
300.094	23.04
300.309	59.9
300.523	57.86
300.737	78.33
300.952	16.9
301.166	57.86
301.381	31.23
301.595	8.7
301.809	45.57
302.024	4.61
302.238	16.9
302.452	98.81
302.667	70.14
302.881	47.62
303.095	2.56
303.309	94.72
303.524	64
303.738	43.52
303.952	68.09
304.166	10.75
304.381	37.38
304.595	33.28
304.809	-44.54
305.023	14.85
305.237	49.66
305.452	39.42
305.666	49.66
305.88	20.99
306.094	-15.87
306.308	109.05
306.522	-1.54
306.736	4.61
306.95	115.2
307.164	-19.97
307.379	12.8
307.593	35.33
307.807	78.33
308.021	14.85
308.235	-19.97
308.449	0.51
308.663	18.94
308.877	55.81
309.091	68.09
309.305	143.87
309.519	-24.06
309.733	51.71
309.947	-7.68
310.161	94.72
310.374	57.86
310.588	57.86
310.802	29.18
311.016	66.05
311.23	55.81
311.444	53.76
311.658	94.72
311.872	70.14
312.085	70.14
312.299	86.53
312.513	-22.02
312.727	27.14
312.941	37.38
313.154	107.01
313.368	66.05
313.582	68.09
313.796	100.86
314.009	-36.35
314.223	6.66
314.437	41.47
314.651	27.14
314.864	74.24
315.078	-71.17
315.292	88.57
315.505	-13.82
315.719	53.76
315.933	51.71
316.146	-26.11
316.36	-48.64
316.573	68.09
316.787	100.86
317.001	43.52
317.214	109.05
317.428	10.75
317.641	57.86
317.855	70.14
318.068	16.9
318.282	31.23
318.495	86.53
318.709	25.09
318.922	-3.58
319.136	80.38
319.349	37.38
319.563	-19.97
319.776	57.86
319.99	39.42
320.203	18.94
320.417	94.72
320.63	25.09
320.843	100.86
321.057	41.47
321.27	-19.97
321.483	55.81
321.697	70.14
321.91	45.57
322.124	158.21
322.337	39.42
322.55	29.18
322.763	41.47
322.977	49.66
323.19	31.23
323.403	14.85
323.617	102.91
323.83	70.14
324.043	86.53
324.256	45.57
324.469	53.76
324.683	68.09
324.896	25.09
325.109	4.61
325.322	-11.78
325.535	80.38
325.748	53.76
325.962	16.9
326.175	74.24
326.388	-24.06
326.601	23.04
326.814	12.8
327.027	33.28
327.24	129.53
327.453	33.28
327.666	2.56
327.879	10.75
328.092	70.14
328.305	61.95
328.518	4.61
328.731	74.24
328.944	98.81
329.157	43.52
329.37	41.47
329.583	147.97
329.796	-22.02
330.009	25.09
330.222	100.86
330.435	-3.58
330.648	-46.59
330.861	102.91
331.073	47.62
331.286	-17.92
331.499	45.57
331.712	14.85
331.925	-28.16
332.138	80.38
332.35	72.19
332.563	45.57
332.776	70.14
332.989	68.09
333.202	0.51
333.414	84.48
333.627	-7.68
333.84	82.43
334.053	49.66
334.265	-19.97
334.478	-7.68
334.691	51.71
334.903	94.72
335.116	-24.06
335.329	78.33
335.541	96.77
335.754	76.29
335.966	51.71
336.179	57.86
336.392	29.18
336.604	25.09
336.817	-5.63
337.029	100.86
337.242	-1.54
337.454	25.09
337.667	0.51
337.88	102.91
338.092	86.53
338.305	70.14
338.517	45.57
338.729	12.8
338.942	49.66
339.154	41.47
339.367	29.18
339.579	61.95
339.792	45.57
340.004	43.52
340.217	74.24
340.429	4.61
340.641	25.09
340.854	-11.78
341.066	-11.78
341.278	88.57
341.491	121.34
341.703	55.81
341.915	-19.97
342.128	33.28
342.34	45.57
342.552	72.19
342.764	31.23
342.977	74.24
343.189	33.28
343.401	111.1
343.613	14.85
343.826	41.47
344.038	115.2
344.25	-7.68
344.462	49.66
344.674	45.57
344.886	119.29
345.099	64
345.311	-17.92
345.523	-11.78
345.735	35.33
345.947	31.23
346.159	27.14
346.371	80.38
346.583	76.29
346.795	111.1
347.007	37.38
347.219	82.43
347.431	66.05
347.643	90.62
347.855	23.04
348.067	61.95
348.279	18.94
348.491	6.66
348.703	14.85
348.915	94.72
349.127	10.75
349.339	123.39
349.551	10.75
349.763	39.42
349.975	-28.16
350.187	33.28
350.399	47.62
350.61	53.76
350.822	125.44
351.034	12.8
351.246	107.01
351.458	139.77
351.669	45.57
351.881	55.81
352.093	-73.21
352.305	51.71
352.517	53.76
352.728	70.14
352.94	43.52
353.152	35.33
353.363	27.14
353.575	92.67
353.787	8.7
353.999	31.23
354.21	74.24
354.422	74.24
354.633	51.71
354.845	61.95
355.057	107.01
355.268	27.14
355.48	4.61
355.692	47.62
355.903	20.99
356.115	25.09
356.326	45.57
356.538	88.57
356.749	96.77
356.961	37.38
357.172	4.61
357.384	43.52
357.595	139.77
357.807	-9.73
358.018	35.33
358.23	55.81
358.441	86.53
358.653	0.51
358.864	86.53
359.075	82.43
359.287	16.9
359.498	74.24
359.709	66.05
359.921	-5.63
360.132	31.23
360.344	115.2
360.555	66.05
360.766	107.01
360.977	66.05
361.189	86.53
361.4	119.29
361.611	96.77
361.823	70.14
362.034	33.28
362.245	10.75
362.456	6.66
362.667	82.43
362.879	66.05
363.09	-17.92
363.301	98.81
363.512	66.05
363.723	84.48
363.935	29.18
364.146	84.48
364.357	-42.5
364.568	119.29
364.779	10.75
364.99	107.01
365.201	6.66
365.412	49.66
365.623	-48.64
365.834	70.14
366.045	64
366.256	107.01
366.467	68.09
366.678	53.76
366.889	29.18
367.1	88.57
367.311	135.68
367.522	86.53
367.733	90.62
367.944	18.94
368.155	25.09
368.366	43.52
368.577	143.87
368.788	-5.63
368.999	33.28
369.209	141.82
369.42	129.53
369.631	102.91
369.842	41.47
370.053	72.19
370.264	66.05
370.474	84.48
370.685	47.62
370.896	31.23
371.107	80.38
371.317	66.05
371.528	64
371.739	47.62
371.95	96.77
372.16	31.23
372.371	45.57
372.582	64
372.792	86.53
373.003	98.81
373.214	4.61
373.424	23.04
373.635	86.53
373.846	68.09
374.056	70.14
374.267	55.81
374.477	86.53
374.688	35.33
374.898	39.42
375.109	66.05
375.319	53.76
375.53	33.28
375.74	98.81
375.951	94.72
376.161	39.42
376.372	162.3
376.582	10.75
376.793	57.86
377.003	29.18
377.214	14.85
377.424	82.43
377.635	53.76
377.845	6.66
378.055	-11.78
378.266	37.38
378.476	131.58
378.686	66.05
378.897	74.24
379.107	74.24
379.317	123.39
379.528	53.76
379.738	68.09
379.948	-24.06
380.158	107.01
380.369	57.86
380.579	29.18
380.789	66.05
380.999	66.05
381.21	59.9
381.42	117.25
381.63	53.76
381.84	47.62
382.05	12.8
382.261	107.01
382.471	64
382.681	37.38
382.891	98.81
383.101	45.57
383.311	37.38
383.521	35.33
383.731	94.72
383.941	131.58
384.151	33.28
384.361	115.2
384.571	0.51
384.781	125.44
384.991	125.44
385.201	98.81
385.411	20.99
385.621	119.29
385.831	72.19
386.041	51.71
386.251	78.33
386.461	84.48
386.671	45.57
386.881	41.47
387.091	80.38
387.301	113.15
387.511	111.1
387.72	12.8
387.93	127.49
388.14	35.33
388.35	33.28
388.56	133.63
388.769	74.24
388.979	47.62
389.189	80.38
389.399	53.76
389.609	127.49
389.818	109.05
390.028	33.28
390.238	123.39
390.447	94.72
390.657	88.57
390.867	53.76
391.076	2.56
391.286	66.05
391.496	70.14
391.705	18.94
391.915	82.43
392.125	90.62
392.334	84.48
392.544	96.77
392.753	18.94
392.963	61.95
393.172	98.81
393.382	12.8
393.591	94.72
393.801	72.19
394.01	125.44
394.22	66.05
394.429	104.96
394.639	119.29
394.848	78.33
395.058	57.86
395.267	6.66
395.477	135.68
395.686	109.05
395.895	141.82
396.105	104.96
396.314	113.15
396.524	156.16
396.733	107.01
396.942	164.35
397.152	107.01
397.361	143.87
397.57	102.91
397.78	109.05
397.989	104.96
398.198	205.31
398.407	70.14
398.617	176.64
398.826	111.1
399.035	90.62
399.244	113.15
399.453	135.68
399.663	209.4
399.872	61.95
400.081	121.34
400.29	184.83
400.499	121.34
400.708	176.64
400.917	111.1
401.127	96.77
401.336	111.1
401.545	135.68
401.754	160.25
401.963	154.11
402.172	121.34
402.381	147.97
402.59	125.44
402.799	127.49
403.008	143.87
403.217	98.81
403.426	170.49
403.635	164.35
403.844	168.45
404.053	135.68
404.262	49.66
404.471	258.56
404.68	143.87
404.888	203.26
405.097	154.11
405.306	170.49
405.515	199.16
405.724	193.02
405.933	215.55
406.142	150.01
406.35	236.03
406.559	322.04
406.768	262.65
406.977	221.69
407.185	385.53
407.394	340.47
407.603	221.69
407.812	303.61
408.02	262.65
408.229	233.98
408.438	332.28
408.646	238.08
408.855	315.9
409.064	311.8
409.272	272.89
409.481	418.3
409.69	379.39
409.898	446.97
410.107	395.77
410.315	428.54
410.524	467.45
410.733	416.25
410.941	385.53
411.15	512.5
411.358	514.55
411.567	623.09
411.775	541.18
411.984	543.22
412.192	649.72
412.401	647.67
412.609	637.43
412.818	686.58
413.026	698.87
413.234	731.64
413.443	752.12
413.651	786.93
413.86	666.1
414.068	788.98
414.276	774.64
414.485	831.99
414.693	854.51
414.901	913.91
415.11	887.28
415.318	1026.54
415.526	1020.4
415.734	991.73
415.943	999.92
416.151	1077.74
416.359	1038.83
416.567	1188.33
416.776	1245.68
416.984	1260.01
417.192	1270.25
417.4	1278.44
417.608	1303.02
417.817	1382.89
418.025	1423.85
418.233	1632.74
418.441	1556.97
418.649	1661.41
418.857	1675.75
419.065	1745.38
419.273	1647.08
419.481	1860.07
419.689	1894.88
419.897	2036.19
420.105	2025.95
420.313	1999.33
420.521	2023.91
420.729	2120.16
420.937	2216.41
421.145	2408.92
421.353	2466.27
421.561	2494.94
421.769	2660.82
421.977	2834.9
422.185	2845.14
422.393	2912.72
422.601	3060.18
422.809	3109.33
423.017	3176.91
423.224	3357.13
423.432	3336.65
423.64	3359.18
423.848	3574.22
424.056	3547.59
424.263	3871.17
424.471	3822.02
424.679	4016.58
424.887	4209.09
425.094	4223.42
425.302	4342.21
425.51	4493.76
425.718	4587.96
425.925	4590.01
426.133	4768.18
426.341	4958.64
426.548	5216.69
426.756	5321.13
426.964	5300.66
427.171	5585.32
427.379	5880.23
427.586	5929.38
427.794	6023.59
428.001	6322.59
428.209	6668.7
428.417	6478.24
428.624	7141.78
428.832	7131.54
429.039	6912.41
429.247	7182.74
429.454	7848.33
429.662	8266.11
429.869	7725.45
430.076	8305.03
430.284	8057.22
430.491	8391.04
430.699	8784.25
430.906	8933.75
431.114	9046.39
431.321	9369.97
431.528	9400.69
431.736	9963.88
431.943	10670.43
432.15	10119.53
432.358	10531.17
432.565	10877.27
432.772	10852.7
432.979	11194.71
433.187	11721.04
433.394	11733.32
433.601	12554.56
433.808	12546.37
434.016	12403.01
434.223	12843.32
434.43	14022.95
434.637	13578.54
434.844	14399.78
435.052	14551.33
435.259	14530.85
435.466	14674.21
435.673	14330.15
435.88	15569.17
436.087	16201.99
436.294	16560.39
436.501	16052.49
436.708	16296.2
436.915	16750.85
437.122	17565.94
437.329	17711.35
437.537	18041.07
437.743	18335.98
437.95	17918.19
438.157	19122.4
438.364	19968.21
438.571	19818.71
438.778	19814.61
438.985	21936.31
439.192	20840.64
439.399	21762.23
439.606	21061.82
439.813	22112.43
440.02	23675.03
440.227	23222.43
440.433	22880.42
440.64	23656.6
440.847	23818.39
441.054	24270.99
441.261	25938.04
441.467	25483.39
441.674	26017.91
441.881	26728.55
442.088	27021.41
442.294	26542.19
442.501	27744.34
442.708	27967.57
442.914	28936.26
443.121	30072.89
443.328	29442.11
443.534	31334.43
443.741	30554.16
443.948	30238.77
444.154	32477.2
444.361	32053.27
444.568	32313.36
444.774	32606.22
444.981	32509.97
445.187	33710.08
445.394	35131.37
445.6	34684.91
445.807	38107.07
446.013	36224.98
446.22	36882.38
446.426	38203.32
446.633	38760.37
446.839	39630.76
447.046	38391.73
447.252	40363.93
447.459	40685.46
447.665	40769.43
447.871	41924.48
448.078	43583.33
448.284	41217.93
448.491	42504.06
448.697	44685.14
448.903	45463.37
449.11	45373.26
449.316	44423
449.522	45313.87
449.728	46634.81
449.935	46911.28
450.141	46245.69
450.347	47363.89
450.553	45979.46
450.76	46786.36
450.966	47552.3
451.172	47734.57
451.378	48379.68
451.584	47630.12
451.791	48733.98
451.997	48484.12
452.203	49800.97
452.409	49399.57
452.615	48865.05
452.821	47298.35
453.027	46933.81
453.233	49123.09
453.44	47228.72
453.646	47826.73
453.852	47560.49
454.058	48097.06
454.264	47052.59
454.47	47863.59
454.676	46886.71
454.882	48195.36
455.088	44042.08
455.294	44808.02
455.5	45694.79
455.705	45801.29
455.911	43841.38
456.117	43161.45
456.323	42694.52
456.529	40236.95
456.735	42090.37
456.941	40638.36
457.147	40269.72
457.352	38993.84
457.558	38582.2
457.764	38531
457.97	37961.66
458.176	36952.01
458.381	36935.63
458.587	35100.65
458.793	35342.31
458.999	33468.42
459.204	35706.85
459.41	34906.09
459.616	32282.64
459.821	32999.43
460.027	32264.21
460.233	31897.63
460.438	30451.76
460.644	30230.58
460.85	29085.76
461.055	28960.84
461.261	28727.37
461.466	26665.07
461.672	25723
461.878	27854.93
462.083	25766.01
462.289	25356.41
462.494	25204.86
462.7	24076.43
462.905	23623.83
463.111	23998.61
463.316	24215.69
463.522	23914.64
463.727	23953.55
463.932	23842.96
464.138	23441.56
464.343	23556.25
464.549	23048.35
464.754	24160.4
464.959	23763.09
465.165	23355.55
465.37	22331.56
465.575	21962.93
465.781	22847.65
465.986	22921.38
466.191	21881.01
466.397	21618.87
466.602	20617.41
466.807	21276.86
467.012	21278.91
467.218	21336.25
467.423	20830.4
