Data from USB4F104151__39__11-05-23-330.txt Node

Date: Wed Mar 12 11:05:23 EDT 2025
User: louis
Spectrometer: USB4F10415
Trigger mode: 4
Integration Time (sec): 2.000000E-2
Scans to average: 1
Electric dark correction enabled: true
Nonlinearity correction enabled: false
Boxcar width: 0
XAxis mode: Wavelengths
Number of Pixels in Spectrum: 3648
>>>>>Begin Spectral Data<<<<<
178.204	-83.45
178.424	-83.45
178.644	-83.45
178.864	-26.11
179.084	-48.64
179.304	-24.06
179.524	-75.26
179.744	23.04
179.964	66.05
180.184	-11.78
180.404	-5.63
180.624	35.33
180.844	20.99
181.064	-50.69
181.283	18.94
181.503	-38.4
181.723	41.47
181.943	-58.88
182.163	86.53
182.383	6.66
182.602	-17.92
182.822	55.81
183.042	57.86
183.262	-60.93
183.482	84.48
183.701	35.33
183.921	41.47
184.141	51.71
184.361	115.2
184.58	31.23
184.8	-32.26
185.02	64
185.239	51.71
185.459	-1.54
185.679	31.23
185.898	-22.02
186.118	104.96
186.338	-17.92
186.557	86.53
186.777	14.85
186.997	37.38
187.216	-17.92
187.436	59.9
187.655	20.99
187.875	37.38
188.095	43.52
188.314	109.05
188.534	31.23
188.753	55.81
188.973	37.38
189.192	43.52
189.412	86.53
189.631	61.95
189.851	-67.07
190.07	78.33
190.29	6.66
190.509	25.09
190.729	27.14
190.948	80.38
191.168	78.33
191.387	78.33
191.607	74.24
191.826	70.14
192.045	51.71
192.265	66.05
192.484	-26.11
192.704	51.71
192.923	-13.82
193.142	25.09
193.362	23.04
193.581	55.81
193.8	59.9
194.02	41.47
194.239	16.9
194.458	121.34
194.678	33.28
194.897	66.05
195.116	18.94
195.335	23.04
195.555	31.23
195.774	39.42
195.993	0.51
196.212	82.43
196.432	-1.54
196.651	78.33
196.87	10.75
197.089	51.71
197.308	-26.11
197.528	70.14
197.747	27.14
197.966	117.25
198.185	45.57
198.404	31.23
198.623	-42.5
198.842	-7.68
199.062	31.23
199.281	43.52
199.5	29.18
199.719	-13.82
199.938	61.95
200.157	109.05
200.376	72.19
200.595	31.23
200.814	51.71
201.033	29.18
201.252	47.62
201.471	86.53
201.69	-3.58
201.909	-15.87
202.128	70.14
202.347	92.67
202.566	-5.63
202.785	51.71
203.004	-3.58
203.223	43.52
203.442	23.04
203.661	76.29
203.879	0.51
204.098	39.42
204.317	35.33
204.536	102.91
204.755	-26.11
204.974	109.05
205.193	51.71
205.411	104.96
205.63	45.57
205.849	37.38
206.068	-42.5
206.287	8.7
206.505	31.23
206.724	66.05
206.943	80.38
207.162	37.38
207.381	2.56
207.599	45.57
207.818	-40.45
208.037	82.43
208.255	31.23
208.474	-13.82
208.693	113.15
208.911	20.99
209.13	43.52
209.349	-48.64
209.567	55.81
209.786	64
210.005	74.24
210.223	27.14
210.442	14.85
210.661	-19.97
210.879	47.62
211.098	49.66
211.316	14.85
211.535	76.29
211.753	76.29
211.972	-15.87
212.191	61.95
212.409	49.66
212.628	88.57
212.846	-54.78
213.065	-1.54
213.283	102.91
213.502	37.38
213.72	16.9
213.938	39.42
214.157	31.23
214.375	90.62
214.594	-42.5
214.812	43.52
215.031	47.62
215.249	-44.54
215.467	66.05
215.686	-54.78
215.904	47.62
216.122	0.51
216.341	139.77
216.559	29.18
216.778	37.38
216.996	-11.78
217.214	10.75
217.432	29.18
217.651	18.94
217.869	72.19
218.087	-40.45
218.306	51.71
218.524	88.57
218.742	20.99
218.96	16.9
219.179	111.1
219.397	-5.63
219.615	37.38
219.833	74.24
220.051	6.66
220.27	80.38
220.488	70.14
220.706	64
220.924	10.75
221.142	-7.68
221.36	-7.68
221.578	29.18
221.796	-7.68
222.015	49.66
222.233	41.47
222.451	18.94
222.669	-11.78
222.887	74.24
223.105	-9.73
223.323	-34.3
223.541	18.94
223.759	33.28
223.977	68.09
224.195	64
224.413	33.28
224.631	72.19
224.849	31.23
225.067	104.96
225.285	55.81
225.503	23.04
225.721	-38.4
225.939	18.94
226.157	31.23
226.375	57.86
226.592	35.33
226.81	39.42
227.028	88.57
227.246	31.23
227.464	18.94
227.682	33.28
227.9	31.23
228.117	39.42
228.335	109.05
228.553	20.99
228.771	6.66
228.989	59.9
229.206	4.61
229.424	51.71
229.642	10.75
229.86	74.24
230.077	-7.68
230.295	45.57
230.513	59.9
230.731	27.14
230.948	20.99
231.166	66.05
231.384	-42.5
231.601	59.9
231.819	80.38
232.037	29.18
232.254	-34.3
232.472	20.99
232.689	64
232.907	57.86
233.125	82.43
233.342	59.9
233.56	31.23
233.777	66.05
233.995	-22.02
234.213	92.67
234.43	-15.87
234.648	18.94
234.865	66.05
235.083	74.24
235.3	25.09
235.518	68.09
235.735	29.18
235.953	33.28
236.17	45.57
236.388	37.38
236.605	-17.92
236.822	53.76
237.04	-34.3
237.257	80.38
237.475	29.18
237.692	47.62
237.909	47.62
238.127	92.67
238.344	88.57
238.562	18.94
238.779	31.23
238.996	57.86
239.214	0.51
239.431	64
239.648	35.33
239.865	37.38
240.083	39.42
240.3	86.53
240.517	64
240.735	-11.78
240.952	20.99
241.169	43.52
241.386	47.62
241.603	82.43
241.821	14.85
242.038	86.53
242.255	-54.78
242.472	-9.73
242.689	66.05
242.907	84.48
243.124	78.33
243.341	12.8
243.558	4.61
243.775	102.91
243.992	45.57
244.209	31.23
244.426	43.52
244.643	55.81
244.86	-28.16
245.078	18.94
245.295	84.48
245.512	51.71
245.729	72.19
245.946	-28.16
246.163	55.81
246.38	39.42
246.597	43.52
246.814	57.86
247.031	55.81
247.248	2.56
247.464	74.24
247.681	-5.63
247.898	35.33
248.115	64
248.332	51.71
248.549	16.9
248.766	59.9
248.983	53.76
249.2	51.71
249.417	27.14
249.633	-3.58
249.85	4.61
250.067	12.8
250.284	37.38
250.501	12.8
250.717	47.62
250.934	-32.26
251.151	64
251.368	31.23
251.585	55.81
251.801	35.33
252.018	37.38
252.235	-7.68
252.451	0.51
252.668	39.42
252.885	25.09
253.102	-50.69
253.318	6.66
253.535	-13.82
253.752	37.38
253.968	70.14
254.185	20.99
254.401	135.68
254.618	55.81
254.835	27.14
255.051	-30.21
255.268	47.62
255.484	55.81
255.701	-1.54
255.917	111.1
256.134	94.72
256.351	57.86
256.567	8.7
256.784	37.38
257	47.62
257.217	35.33
257.433	-5.63
257.65	37.38
257.866	66.05
258.082	0.51
258.299	-38.4
258.515	53.76
258.732	43.52
258.948	2.56
259.165	-13.82
259.381	53.76
259.597	35.33
259.814	31.23
260.03	31.23
260.246	39.42
260.463	-5.63
260.679	-3.58
260.895	51.71
261.112	49.66
261.328	47.62
261.544	-28.16
261.761	41.47
261.977	23.04
262.193	37.38
262.409	61.95
262.626	0.51
262.842	43.52
263.058	-75.26
263.274	76.29
263.49	57.86
263.707	23.04
263.923	45.57
264.139	25.09
264.355	88.57
264.571	94.72
264.787	55.81
265.004	53.76
265.22	27.14
265.436	-54.78
265.652	47.62
265.868	96.77
266.084	55.81
266.3	74.24
266.516	31.23
266.732	57.86
266.948	-11.78
267.164	64
267.38	43.52
267.596	14.85
267.812	176.64
268.028	-5.63
268.244	61.95
268.46	-11.78
268.676	33.28
268.892	14.85
269.108	47.62
269.324	0.51
269.54	0.51
269.756	113.15
269.972	27.14
270.188	10.75
270.403	59.9
270.619	55.81
270.835	4.61
271.051	104.96
271.267	4.61
271.483	-26.11
271.698	29.18
271.914	-50.69
272.13	6.66
272.346	41.47
272.562	98.81
272.777	131.58
272.993	-44.54
273.209	72.19
273.425	61.95
273.64	41.47
273.856	-17.92
274.072	27.14
274.287	59.9
274.503	80.38
274.719	88.57
274.934	72.19
275.15	41.47
275.366	37.38
275.581	45.57
275.797	14.85
276.012	37.38
276.228	31.23
276.444	23.04
276.659	78.33
276.875	-32.26
277.09	-5.63
277.306	-46.59
277.521	57.86
277.737	31.23
277.952	47.62
278.168	33.28
278.383	14.85
278.599	31.23
278.814	53.76
279.03	6.66
279.245	-22.02
279.461	41.47
279.676	51.71
279.892	57.86
280.107	8.7
280.322	51.71
280.538	6.66
280.753	-11.78
280.969	64
281.184	-3.58
281.399	25.09
281.615	-11.78
281.83	78.33
282.045	80.38
282.26	10.75
282.476	20.99
282.691	37.38
282.906	37.38
283.122	29.18
283.337	31.23
283.552	47.62
283.767	8.7
283.983	18.94
284.198	29.18
284.413	82.43
284.628	2.56
284.843	-3.58
285.058	64
285.274	68.09
285.489	-11.78
285.704	33.28
285.919	31.23
286.134	-24.06
286.349	27.14
286.564	-13.82
286.779	53.76
286.995	10.75
287.21	90.62
287.425	113.15
287.64	-17.92
287.855	29.18
288.07	8.7
288.285	53.76
288.5	96.77
288.715	76.29
288.93	29.18
289.145	18.94
289.36	70.14
289.575	4.61
289.79	45.57
290.004	27.14
290.219	64
290.434	2.56
290.649	33.28
290.864	-30.21
291.079	-22.02
291.294	64
291.509	49.66
291.724	-5.63
291.938	31.23
292.153	25.09
292.368	-5.63
292.583	66.05
292.798	18.94
293.012	-24.06
293.227	68.09
293.442	-9.73
293.657	0.51
293.871	76.29
294.086	82.43
294.301	20.99
294.516	72.19
294.73	49.66
294.945	31.23
295.16	33.28
295.374	6.66
295.589	10.75
295.804	-34.3
296.018	-22.02
296.233	72.19
296.447	86.53
296.662	66.05
296.877	33.28
297.091	37.38
297.306	86.53
297.52	31.23
297.735	39.42
297.949	107.01
298.164	23.04
298.378	25.09
298.593	47.62
298.807	-11.78
299.022	66.05
299.236	59.9
299.451	18.94
299.665	72.19
299.88	-1.54
300.094	6.66
300.309	66.05
300.523	33.28
300.737	64
300.952	25.09
301.166	68.09
301.381	53.76
301.595	82.43
301.809	64
302.024	55.81
302.238	6.66
302.452	88.57
302.667	-9.73
302.881	107.01
303.095	70.14
303.309	84.48
303.524	80.38
303.738	92.67
303.952	-17.92
304.166	39.42
304.381	-32.26
304.595	51.71
304.809	-9.73
305.023	64
305.237	23.04
305.452	78.33
305.666	49.66
305.88	49.66
306.094	98.81
306.308	0.51
306.522	51.71
306.736	55.81
306.95	80.38
307.164	10.75
307.379	14.85
307.593	-22.02
307.807	107.01
308.021	59.9
308.235	102.91
308.449	18.94
308.663	76.29
308.877	35.33
309.091	84.48
309.305	-3.58
309.519	4.61
309.733	82.43
309.947	53.76
310.161	68.09
310.374	6.66
310.588	51.71
310.802	49.66
311.016	76.29
311.23	96.77
311.444	74.24
311.658	49.66
311.872	59.9
312.085	10.75
312.299	0.51
312.513	20.99
312.727	145.92
312.941	4.61
313.154	33.28
313.368	-11.78
313.582	27.14
313.796	41.47
314.009	80.38
314.223	23.04
314.437	90.62
314.651	51.71
314.864	-22.02
315.078	8.7
315.292	39.42
315.505	6.66
315.719	14.85
315.933	39.42
316.146	33.28
316.36	64
316.573	-11.78
316.787	123.39
317.001	119.29
317.214	39.42
317.428	61.95
317.641	39.42
317.855	123.39
318.068	-1.54
318.282	53.76
318.495	31.23
318.709	-13.82
318.922	31.23
319.136	53.76
319.349	96.77
319.563	76.29
319.776	29.18
319.99	-13.82
320.203	78.33
320.417	12.8
320.63	154.11
320.843	-1.54
321.057	25.09
321.27	31.23
321.483	6.66
321.697	92.67
321.91	90.62
322.124	82.43
322.337	88.57
322.55	39.42
322.763	94.72
322.977	98.81
323.19	6.66
323.403	35.33
323.617	92.67
323.83	90.62
324.043	94.72
324.256	41.47
324.469	8.7
324.683	80.38
324.896	82.43
325.109	74.24
325.322	57.86
325.535	25.09
325.748	33.28
325.962	18.94
326.175	12.8
326.388	10.75
326.601	-3.58
326.814	-1.54
327.027	127.49
327.24	33.28
327.453	20.99
327.666	94.72
327.879	74.24
328.092	49.66
328.305	80.38
328.518	125.44
328.731	-15.87
328.944	47.62
329.157	-3.58
329.37	23.04
329.583	39.42
329.796	53.76
330.009	-5.63
330.222	25.09
330.435	-24.06
330.648	49.66
330.861	39.42
331.073	98.81
331.286	53.76
331.499	125.44
331.712	35.33
331.925	14.85
332.138	78.33
332.35	78.33
332.563	20.99
332.776	23.04
332.989	-24.06
333.202	-3.58
333.414	66.05
333.627	-13.82
333.84	-13.82
334.053	51.71
334.265	78.33
334.478	80.38
334.691	43.52
334.903	20.99
335.116	31.23
335.329	10.75
335.541	43.52
335.754	90.62
335.966	68.09
336.179	29.18
336.392	86.53
336.604	82.43
336.817	31.23
337.029	109.05
337.242	72.19
337.454	68.09
337.667	29.18
337.88	137.73
338.092	35.33
338.305	10.75
338.517	-5.63
338.729	59.9
338.942	100.86
339.154	-1.54
339.367	59.9
339.579	16.9
339.792	12.8
340.004	61.95
340.217	10.75
340.429	66.05
340.641	18.94
340.854	43.52
341.066	-11.78
341.278	72.19
341.491	51.71
341.703	37.38
341.915	-9.73
342.128	29.18
342.34	86.53
342.552	16.9
342.764	29.18
342.977	70.14
343.189	18.94
343.401	119.29
343.613	31.23
343.826	76.29
344.038	59.9
344.25	37.38
344.462	35.33
344.674	72.19
344.886	10.75
345.099	33.28
345.311	35.33
345.523	88.57
345.735	-28.16
345.947	27.14
346.159	55.81
346.371	23.04
346.583	12.8
346.795	82.43
347.007	-3.58
347.219	74.24
347.431	-26.11
347.643	41.47
347.855	61.95
348.067	-5.63
348.279	88.57
348.491	29.18
348.703	59.9
348.915	37.38
349.127	94.72
349.339	51.71
349.551	98.81
349.763	14.85
349.975	-1.54
350.187	74.24
350.399	35.33
350.61	27.14
350.822	53.76
351.034	70.14
351.246	80.38
351.458	76.29
351.669	98.81
351.881	84.48
352.093	55.81
352.305	45.57
352.517	59.9
352.728	18.94
352.94	80.38
353.152	16.9
353.363	4.61
353.575	68.09
353.787	96.77
353.999	43.52
354.21	72.19
354.422	31.23
354.633	45.57
354.845	6.66
355.057	12.8
355.268	80.38
355.48	100.86
355.692	-9.73
355.903	14.85
356.115	72.19
356.326	78.33
356.538	113.15
356.749	39.42
356.961	45.57
357.172	55.81
357.384	16.9
357.595	37.38
357.807	18.94
358.018	59.9
358.23	27.14
358.441	96.77
358.653	29.18
358.864	61.95
359.075	64
359.287	33.28
359.498	98.81
359.709	14.85
359.921	68.09
360.132	-24.06
360.344	25.09
360.555	43.52
360.766	23.04
360.977	55.81
361.189	2.56
361.4	78.33
361.611	104.96
361.823	119.29
362.034	20.99
362.245	12.8
362.456	86.53
362.667	80.38
362.879	88.57
363.09	45.57
363.301	74.24
363.512	64
363.723	43.52
363.935	41.47
364.146	41.47
364.357	27.14
364.568	66.05
364.779	-9.73
364.99	127.49
365.201	55.81
365.412	-9.73
365.623	39.42
365.834	10.75
366.045	70.14
366.256	76.29
366.467	66.05
366.678	35.33
366.889	55.81
367.1	59.9
367.311	55.81
367.522	23.04
367.733	37.38
367.944	55.81
368.155	-22.02
368.366	18.94
368.577	23.04
368.788	94.72
368.999	37.38
369.209	92.67
369.42	25.09
369.631	96.77
369.842	35.33
370.053	10.75
370.264	72.19
370.474	125.44
370.685	53.76
370.896	16.9
371.107	45.57
371.317	-15.87
371.528	-1.54
371.739	133.63
371.95	-9.73
372.16	14.85
372.371	-1.54
372.582	14.85
372.792	35.33
373.003	49.66
373.214	55.81
373.424	51.71
373.635	66.05
373.846	20.99
374.056	70.14
374.267	57.86
374.477	47.62
374.688	39.42
374.898	55.81
375.109	80.38
375.319	37.38
375.53	33.28
375.74	35.33
375.951	70.14
376.161	27.14
376.372	100.86
376.582	33.28
376.793	92.67
377.003	53.76
377.214	74.24
377.424	43.52
377.635	39.42
377.845	-36.35
378.055	29.18
378.266	57.86
378.476	76.29
378.686	113.15
378.897	94.72
379.107	92.67
379.317	115.2
379.528	35.33
379.738	-44.54
379.948	8.7
380.158	115.2
380.369	49.66
380.579	102.91
380.789	74.24
380.999	86.53
381.21	115.2
381.42	86.53
381.63	41.47
381.84	47.62
382.05	35.33
382.261	76.29
382.471	76.29
382.681	57.86
382.891	86.53
383.101	39.42
383.311	35.33
383.521	10.75
383.731	86.53
383.941	86.53
384.151	-7.68
384.361	55.81
384.571	84.48
384.781	147.97
384.991	51.71
385.201	55.81
385.411	57.86
385.621	12.8
385.831	8.7
386.041	61.95
386.251	66.05
386.461	6.66
386.671	27.14
386.881	98.81
387.091	84.48
387.301	160.25
387.511	55.81
387.72	35.33
387.93	8.7
388.14	55.81
388.35	90.62
388.56	104.96
388.769	78.33
388.979	10.75
389.189	107.01
389.399	49.66
389.609	-32.26
389.818	41.47
390.028	39.42
390.238	150.01
390.447	-11.78
390.657	119.29
390.867	70.14
391.076	92.67
391.286	190.97
391.496	55.81
391.705	145.92
391.915	47.62
392.125	59.9
392.334	20.99
392.544	119.29
392.753	133.63
392.963	20.99
393.172	82.43
393.382	2.56
393.591	115.2
393.801	53.76
394.01	102.91
394.22	61.95
394.429	55.81
394.639	59.9
394.848	139.77
395.058	53.76
395.267	43.52
395.477	66.05
395.686	-9.73
395.895	190.97
396.105	211.45
396.314	78.33
396.524	76.29
396.733	78.33
396.942	94.72
397.152	49.66
397.361	72.19
397.57	55.81
397.78	59.9
397.989	117.25
398.198	123.39
398.407	57.86
398.617	57.86
398.826	133.63
399.035	115.2
399.244	66.05
399.453	115.2
399.663	102.91
399.872	55.81
400.081	104.96
400.29	145.92
400.499	78.33
400.708	92.67
400.917	74.24
401.127	109.05
401.336	76.29
401.545	117.25
401.754	174.59
401.963	141.82
402.172	154.11
402.381	88.57
402.59	135.68
402.799	113.15
403.008	41.47
403.217	166.4
403.426	111.1
403.635	90.62
403.844	145.92
404.053	125.44
404.262	104.96
404.471	104.96
404.68	186.88
404.888	102.91
405.097	123.39
405.306	158.21
405.515	170.49
405.724	141.82
405.933	211.45
406.142	172.54
406.35	221.69
406.559	141.82
406.768	162.3
406.977	217.6
407.185	178.69
407.394	227.84
407.603	217.6
407.812	133.63
408.02	170.49
408.229	170.49
408.438	170.49
408.646	227.84
408.855	147.97
409.064	207.36
409.272	272.89
409.481	238.08
409.69	188.93
409.898	244.22
410.107	281.08
410.315	233.98
410.524	266.75
410.733	338.43
410.941	311.8
411.15	283.13
411.358	276.99
411.567	416.25
411.775	389.63
411.984	344.57
412.192	424.44
412.401	309.76
412.609	395.77
412.818	420.35
413.026	424.44
413.234	414.2
413.443	481.78
413.651	465.4
413.86	487.93
414.068	496.12
414.276	543.22
414.485	578.04
414.693	567.8
414.901	596.47
415.11	645.62
415.318	575.99
415.526	590.33
415.734	657.91
415.943	717.3
416.151	723.44
416.359	739.83
416.567	655.86
416.776	883.19
416.984	858.61
417.192	895.47
417.4	834.04
417.608	827.89
417.817	827.89
418.025	893.43
418.233	1057.26
418.441	956.91
418.649	1034.74
418.857	1053.17
419.065	1155.57
419.273	1225.2
419.481	1141.23
419.689	1288.68
419.897	1317.36
420.105	1386.99
420.313	1397.23
420.521	1391.08
420.729	1378.79
420.937	1516.01
421.145	1518.06
421.353	1636.84
421.561	1651.17
421.769	1608.17
421.977	1845.73
422.185	1726.95
422.393	1898.98
422.601	1956.32
422.809	1984.99
423.017	1982.95
423.224	2052.58
423.432	2214.37
423.64	2206.17
423.848	2308.57
424.056	2286.05
424.263	2468.31
424.471	2449.88
424.679	2484.7
424.887	2785.75
425.094	2712.02
425.302	2695.64
425.51	2841.04
425.718	2947.54
425.925	2951.63
426.133	3082.7
426.341	3295.69
426.548	3250.64
426.756	3482.06
426.964	3455.44
427.171	3643.85
427.379	3824.07
427.586	3736.01
427.794	4037.06
428.001	4172.22
428.209	4391.36
428.417	4252.1
428.624	4610.49
428.832	4430.27
429.039	4549.05
429.247	4510.14
429.454	4981.17
429.662	5163.44
429.869	4727.22
430.076	5284.27
430.284	5015.99
430.491	5444.01
430.699	5704.1
430.906	5552.56
431.114	5685.67
431.321	5833.13
431.528	6046.12
431.736	6482.33
431.943	6785.43
432.15	6584.73
432.358	6486.43
432.565	7039.38
432.772	6902.17
432.979	7199.12
433.187	7405.97
433.394	7432.59
433.601	7846.28
433.808	8051.08
434.016	7891.34
434.223	8251.78
434.43	8788.35
434.637	8585.6
434.844	9183.6
435.052	9402.74
435.259	9277.81
435.466	9488.75
435.673	9392.5
435.88	9869.67
436.087	10385.76
436.294	10424.67
436.501	10201.44
436.708	10396
436.915	10772.83
437.122	11157.85
437.329	11186.52
437.537	11569.49
437.743	11921.74
437.95	11569.49
438.157	12163.4
438.364	12642.62
438.571	12611.9
438.778	12736.83
438.985	13938.99
439.192	13513.01
439.399	13885.74
439.606	13371.7
439.813	14170.41
440.02	15008.03
440.227	14831.9
440.433	14600.48
440.64	15130.91
440.847	14981.4
441.054	15278.36
441.261	16521.48
441.467	16142.6
441.674	16627.97
441.881	17219.83
442.088	17324.28
442.294	17193.21
442.501	17516.79
442.708	18098.41
442.914	18518.25
443.121	19210.46
443.328	18882.78
443.534	20154.57
443.741	19572.95
443.948	19378.39
444.154	20607.17
444.361	20416.71
444.568	20707.52
444.774	20834.5
444.981	20805.83
445.187	21358.78
445.394	22583.46
445.6	22122.67
445.807	24369.29
446.013	23308.44
446.22	23636.12
446.426	24713.35
446.633	24600.71
446.839	25399.42
447.046	24287.37
447.252	25989.24
447.459	25956.47
447.665	25950.32
447.871	27101.28
448.078	27961.43
448.284	26849.38
448.491	27566.17
448.697	28655.69
448.903	28885.06
449.11	28717.13
449.316	28592.2
449.522	28915.78
449.728	29765.69
449.935	29982.77
450.141	29950.01
450.347	30457.9
450.553	29737.02
450.76	30296.11
450.966	30871.59
451.172	30470.19
451.378	31074.34
451.584	30746.67
451.791	31027.24
451.997	31039.53
452.203	31817.75
452.409	31426.59
452.615	31557.66
452.821	30165.04
453.027	29866.04
453.233	31316
453.44	30257.2
453.646	30283.83
453.852	30486.57
454.058	30945.32
454.264	30177.33
454.47	30599.21
454.676	30052.41
454.882	31236.13
455.088	28221.52
455.294	28393.55
455.5	28741.71
455.705	28964.93
455.911	28024.92
456.117	27465.82
456.323	27021.41
456.529	25393.28
456.735	26591.34
456.941	25835.64
457.147	25239.68
457.352	24604.81
457.558	24133.78
457.764	24490.12
457.97	23666.84
458.176	23472.28
458.381	23556.25
458.587	22263.98
458.793	22001.84
458.999	21233.85
459.204	22593.7
459.41	22165.68
459.616	20611.27
459.821	20377.8
460.027	20289.74
460.233	19859.66
460.438	18804.96
460.644	18940.13
460.85	18415.85
461.055	17971.44
461.261	17776.88
461.466	16724.22
461.672	16089.35
461.878	17232.12
462.083	16032.01
462.289	16036.11
462.494	15556.88
462.7	15055.13
462.905	14489.89
463.111	15122.71
463.316	15186.2
463.522	15104.28
463.727	15126.81
463.932	14899.48
464.138	14747.93
464.343	14668.06
464.549	14420.26
464.754	14770.46
464.959	14672.16
465.165	14758.17
465.37	13994.28
465.575	13648.18
465.781	14240.04
465.986	14199.08
466.191	13846.83
466.397	13605.17
466.602	13003.07
466.807	13377.84
467.012	13117.75
467.218	13592.88
467.423	13076.79
467.628	13277.49
467.833	13967.66
468.038	13263.16
468.244	12812.6
468.449	13564.21
