Data from USB4F104151__173__11-09-23-024.txt Node

Date: Wed Mar 12 11:09:23 EDT 2025
User: louis
Spectrometer: USB4F10415
Trigger mode: 4
Integration Time (sec): 2.000000E-2
Scans to average: 1
Electric dark correction enabled: true
Nonlinearity correction enabled: false
Boxcar width: 0
XAxis mode: Wavelengths
Number of Pixels in Spectrum: 3648
>>>>>Begin Spectral Data<<<<<
178.204	-106.32
178.424	-106.32
178.644	-106.32
178.864	-69.46
179.084	-73.56
179.304	-10.07
179.524	37.03
179.744	10.41
179.964	26.79
180.184	-71.51
180.404	26.79
180.624	26.79
180.844	20.65
181.064	-57.17
181.283	-46.93
181.503	24.75
181.723	12.46
181.943	-3.93
182.163	77.99
182.383	-1.88
182.602	77.99
182.822	39.08
183.042	0.17
183.262	16.55
183.482	-16.21
183.701	-3.93
183.921	-42.84
184.141	-1.88
184.361	-32.6
184.58	77.99
184.8	34.99
185.02	16.55
185.239	28.84
185.459	-30.55
185.679	41.13
185.898	-8.02
186.118	0.17
186.338	32.94
186.557	69.8
186.777	26.79
186.997	-1.88
187.216	-16.21
187.436	92.33
187.655	18.6
187.875	63.66
188.095	12.46
188.314	8.36
188.534	67.75
188.753	18.6
188.973	75.95
189.192	37.03
189.412	16.55
189.631	-79.7
189.851	-1.88
190.07	8.36
190.29	20.65
190.509	-1.88
190.729	14.51
190.948	61.61
191.168	104.62
191.387	12.46
191.607	2.22
191.826	4.27
192.045	6.31
192.265	-1.88
192.484	0.17
192.704	-55.12
192.923	43.18
193.142	69.8
193.362	-20.31
193.581	8.36
193.8	90.28
194.02	32.94
194.239	-16.21
194.458	18.6
194.678	8.36
194.897	-18.26
195.116	-42.84
195.335	6.31
195.555	102.57
195.774	69.8
195.993	49.32
196.212	10.41
196.432	-3.93
196.651	8.36
196.87	-16.21
197.089	20.65
197.308	8.36
197.528	71.85
197.747	10.41
197.966	-3.93
198.185	28.84
198.404	51.37
198.623	59.56
198.842	32.94
199.062	98.47
199.281	14.51
199.5	63.66
199.719	-32.6
199.938	59.56
200.157	63.66
200.376	12.46
200.595	53.42
200.814	61.61
201.033	-55.12
201.252	-65.36
201.471	0.17
201.69	-22.36
201.909	90.28
202.128	43.18
202.347	47.27
202.566	84.14
202.785	-16.21
203.004	-53.08
203.223	90.28
203.442	43.18
203.661	28.84
203.879	49.32
204.098	10.41
204.317	-26.45
204.536	32.94
204.755	39.08
204.974	-1.88
205.193	59.56
205.411	106.67
205.63	20.65
205.849	65.71
206.068	-14.17
206.287	28.84
206.505	22.7
206.724	-3.93
206.943	-16.21
207.162	45.23
207.381	45.23
207.599	14.51
207.818	4.27
208.037	-10.07
208.255	-20.31
208.474	16.55
208.693	-16.21
208.911	-10.07
209.13	67.75
209.349	59.56
209.567	-22.36
209.786	-46.93
210.005	67.75
210.223	12.46
210.442	12.46
210.661	-71.51
210.879	37.03
211.098	10.41
211.316	75.95
211.535	92.33
211.753	16.55
211.972	6.31
212.191	26.79
212.409	47.27
212.628	-34.64
212.846	6.31
213.065	41.13
213.283	12.46
213.502	-67.41
213.72	61.61
213.938	-26.45
214.157	82.09
214.375	43.18
214.594	-40.79
214.812	-55.12
215.031	-3.93
215.249	-40.79
215.467	14.51
215.686	-16.21
215.904	18.6
216.122	57.51
216.341	96.43
216.559	-26.45
216.778	61.61
216.996	63.66
217.214	63.66
217.432	8.36
217.651	84.14
217.869	-8.02
218.087	10.41
218.306	20.65
218.524	-20.31
218.742	-14.17
218.96	37.03
219.179	24.75
219.397	-5.97
219.615	32.94
219.833	80.04
220.051	-30.55
220.27	59.56
220.488	30.89
220.706	80.04
220.924	57.51
221.142	51.37
221.36	0.17
221.578	-28.5
221.796	-5.97
222.015	-16.21
222.233	-8.02
222.451	71.85
222.669	14.51
222.887	41.13
223.105	-20.31
223.323	75.95
223.541	2.22
223.759	-12.12
223.977	18.6
224.195	94.38
224.413	47.27
224.631	8.36
224.849	-40.79
225.067	-10.07
225.285	-36.69
225.503	57.51
225.721	4.27
225.939	20.65
226.157	69.8
226.375	-22.36
226.592	39.08
226.81	47.27
227.028	20.65
227.246	65.71
227.464	55.47
227.682	8.36
227.9	88.23
228.117	30.89
228.335	-42.84
228.553	-34.64
228.771	-30.55
228.989	92.33
229.206	71.85
229.424	26.79
229.642	0.17
229.86	34.99
230.077	12.46
230.295	49.32
230.513	16.55
230.731	26.79
230.948	57.51
231.166	22.7
231.384	43.18
231.601	55.47
231.819	-57.17
232.037	77.99
232.254	-22.36
232.472	4.27
232.689	-24.4
232.907	-40.79
233.125	4.27
233.342	71.85
233.56	-12.12
233.777	0.17
233.995	53.42
234.213	28.84
234.43	26.79
234.648	32.94
234.865	8.36
235.083	12.46
235.3	-18.26
235.518	39.08
235.735	8.36
235.953	-18.26
236.17	-12.12
236.388	4.27
236.605	8.36
236.822	41.13
237.04	-36.69
237.257	65.71
237.475	-16.21
237.692	-28.5
237.909	53.42
238.127	26.79
238.344	0.17
238.562	63.66
238.779	-18.26
238.996	-16.21
239.214	53.42
239.431	82.09
239.648	41.13
239.865	32.94
240.083	61.61
240.3	69.8
240.517	22.7
240.735	-5.97
240.952	47.27
241.169	80.04
241.386	28.84
241.603	24.75
241.821	39.08
242.038	69.8
242.255	-12.12
242.472	61.61
242.689	51.37
242.907	88.23
243.124	57.51
243.341	49.32
243.558	10.41
243.775	-12.12
243.992	2.22
244.209	18.6
244.426	108.71
244.643	94.38
244.86	104.62
245.078	8.36
245.295	65.71
245.512	39.08
245.729	34.99
245.946	73.9
246.163	-3.93
246.38	28.84
246.597	-24.4
246.814	-8.02
247.031	32.94
247.248	4.27
247.464	22.7
247.681	116.9
247.898	16.55
248.115	4.27
248.332	-14.17
248.549	8.36
248.766	8.36
248.983	65.71
249.2	2.22
249.417	65.71
249.633	12.46
249.85	131.24
250.067	-34.64
250.284	51.37
250.501	37.03
250.717	104.62
250.934	28.84
251.151	0.17
251.368	-26.45
251.585	16.55
251.801	16.55
252.018	69.8
252.235	-20.31
252.451	-5.97
252.668	34.99
252.885	71.85
253.102	-12.12
253.318	-3.93
253.535	24.75
253.752	-8.02
253.968	24.75
254.185	53.42
254.401	45.23
254.618	26.79
254.835	-59.22
255.051	61.61
255.268	61.61
255.484	71.85
255.701	10.41
255.917	51.37
256.134	0.17
256.351	63.66
256.567	86.19
256.784	4.27
257	-48.98
257.217	26.79
257.433	39.08
257.65	32.94
257.866	-18.26
258.082	-46.93
258.299	28.84
258.515	-18.26
258.732	6.31
258.948	34.99
259.165	-10.07
259.381	4.27
259.597	30.89
259.814	14.51
260.03	53.42
260.246	47.27
260.463	24.75
260.679	53.42
260.895	90.28
261.112	14.51
261.328	57.51
261.544	37.03
261.761	106.67
261.977	28.84
262.193	61.61
262.409	49.32
262.626	-3.93
262.842	12.46
263.058	12.46
263.274	69.8
263.49	69.8
263.707	-26.45
263.923	20.65
264.139	51.37
264.355	86.19
264.571	16.55
264.787	26.79
265.004	18.6
265.22	57.51
265.436	32.94
265.652	32.94
265.868	30.89
266.084	-57.17
266.3	90.28
266.516	-44.88
266.732	-14.17
266.948	-22.36
267.164	-1.88
267.38	39.08
267.596	49.32
267.812	10.41
268.028	45.23
268.244	49.32
268.46	-42.84
268.676	-51.03
268.892	67.75
269.108	75.95
269.324	16.55
269.54	37.03
269.756	61.61
269.972	-34.64
270.188	-28.5
270.403	110.76
270.619	-5.97
270.835	24.75
271.051	6.31
271.267	32.94
271.483	86.19
271.698	-14.17
271.914	0.17
272.13	12.46
272.346	-12.12
272.562	24.75
272.777	6.31
272.993	22.7
273.209	63.66
273.425	32.94
273.64	-32.6
273.856	-8.02
274.072	24.75
274.287	-36.69
274.503	61.61
274.719	-40.79
274.934	22.7
275.15	-20.31
275.366	80.04
275.581	-26.45
275.797	2.22
276.012	-30.55
276.228	45.23
276.444	16.55
276.659	67.75
276.875	14.51
277.09	-34.64
277.306	-12.12
277.521	47.27
277.737	6.31
277.952	59.56
278.168	-40.79
278.383	43.18
278.599	-22.36
278.814	-34.64
279.03	12.46
279.245	57.51
279.461	32.94
279.676	53.42
279.892	16.55
280.107	-18.26
280.322	32.94
280.538	39.08
280.753	-10.07
280.969	88.23
281.184	37.03
281.399	45.23
281.615	71.85
281.83	20.65
282.045	26.79
282.26	10.41
282.476	10.41
282.691	61.61
282.906	20.65
283.122	53.42
283.337	-128.85
283.552	49.32
283.767	-81.75
283.983	30.89
284.198	47.27
284.413	14.51
284.628	-42.84
284.843	-48.98
285.058	94.38
285.274	59.56
285.489	43.18
285.704	24.75
285.919	47.27
286.134	-61.27
286.349	2.22
286.564	47.27
286.779	65.71
286.995	24.75
287.21	20.65
287.425	32.94
287.64	24.75
287.855	2.22
288.07	26.79
288.285	-12.12
288.5	30.89
288.715	45.23
288.93	22.7
289.145	16.55
289.36	34.99
289.575	37.03
289.79	49.32
290.004	-16.21
290.219	75.95
290.434	69.8
290.649	16.55
290.864	-28.5
291.079	-10.07
291.294	14.51
291.509	77.99
291.724	-30.55
291.938	2.22
292.153	16.55
292.368	22.7
292.583	4.27
292.798	12.46
293.012	39.08
293.227	37.03
293.442	-1.88
293.657	73.9
293.871	69.8
294.086	34.99
294.301	4.27
294.516	32.94
294.73	-16.21
294.945	6.31
295.16	59.56
295.374	-10.07
295.589	84.14
295.804	6.31
296.018	16.55
296.233	37.03
296.447	28.84
296.662	47.27
296.877	-14.17
297.091	49.32
297.306	-24.4
297.52	0.17
297.735	8.36
297.949	-12.12
298.164	14.51
298.378	8.36
298.593	55.47
298.807	-40.79
299.022	53.42
299.236	32.94
299.451	51.37
299.665	10.41
299.88	10.41
300.094	-57.17
300.309	102.57
300.523	-22.36
300.737	-12.12
300.952	92.33
301.166	-3.93
301.381	53.42
301.595	63.66
301.809	18.6
302.024	-61.27
302.238	28.84
302.452	10.41
302.667	-5.97
302.881	34.99
303.095	41.13
303.309	82.09
303.524	10.41
303.738	49.32
303.952	37.03
304.166	94.38
304.381	-12.12
304.595	0.17
304.809	82.09
305.023	55.47
305.237	49.32
305.452	-63.32
305.666	32.94
305.88	102.57
306.094	-20.31
306.308	-22.36
306.522	73.9
306.736	39.08
306.95	-12.12
307.164	20.65
307.379	28.84
307.593	39.08
307.807	80.04
308.021	-8.02
308.235	14.51
308.449	47.27
308.663	63.66
308.877	37.03
309.091	26.79
309.305	77.99
309.519	49.32
309.733	45.23
309.947	-28.5
310.161	32.94
310.374	10.41
310.588	8.36
310.802	-38.74
311.016	49.32
311.23	51.37
311.444	0.17
311.658	39.08
311.872	77.99
312.085	53.42
312.299	-12.12
312.513	2.22
312.727	67.75
312.941	-65.36
313.154	43.18
313.368	69.8
313.582	-3.93
313.796	8.36
314.009	30.89
314.223	-18.26
314.437	22.7
314.651	28.84
314.864	28.84
315.078	12.46
315.292	20.65
315.505	-38.74
315.719	69.8
315.933	-14.17
316.146	-3.93
316.36	30.89
316.573	26.79
316.787	53.42
317.001	59.56
317.214	24.75
317.428	30.89
317.641	28.84
317.855	22.7
318.068	37.03
318.282	-8.02
318.495	32.94
318.709	2.22
318.922	39.08
319.136	53.42
319.349	59.56
319.563	18.6
319.776	-10.07
319.99	69.8
320.203	75.95
320.417	39.08
320.63	16.55
320.843	86.19
321.057	14.51
321.27	16.55
321.483	55.47
321.697	51.37
321.91	2.22
322.124	-18.26
322.337	57.51
322.55	8.36
322.763	71.85
322.977	65.71
323.19	-38.74
323.403	45.23
323.617	88.23
323.83	71.85
324.043	12.46
324.256	71.85
324.469	-53.08
324.683	67.75
324.896	67.75
325.109	2.22
325.322	-34.64
325.535	-3.93
325.748	0.17
325.962	14.51
326.175	90.28
326.388	-30.55
326.601	-12.12
326.814	-3.93
327.027	98.47
327.24	110.76
327.453	-3.93
327.666	69.8
327.879	98.47
328.092	-12.12
328.305	-30.55
328.518	65.71
328.731	-16.21
328.944	71.85
329.157	53.42
329.37	41.13
329.583	16.55
329.796	51.37
330.009	10.41
330.222	114.86
330.435	-46.93
330.648	45.23
330.861	14.51
331.073	47.27
331.286	112.81
331.499	32.94
331.712	-28.5
331.925	49.32
332.138	16.55
332.35	57.51
332.563	26.79
332.776	106.67
332.989	37.03
333.202	-3.93
333.414	57.51
333.627	67.75
333.84	28.84
334.053	84.14
334.265	-30.55
334.478	30.89
334.691	92.33
334.903	39.08
335.116	63.66
335.329	-8.02
335.541	-61.27
335.754	55.47
335.966	-14.17
336.179	30.89
336.392	59.56
336.604	45.23
336.817	26.79
337.029	65.71
337.242	16.55
337.454	82.09
337.667	22.7
337.88	39.08
338.092	-26.45
338.305	67.75
338.517	30.89
338.729	77.99
338.942	-24.4
339.154	55.47
339.367	59.56
339.579	94.38
339.792	6.31
340.004	45.23
340.217	-12.12
340.429	12.46
340.641	-12.12
340.854	2.22
341.066	63.66
341.278	53.42
341.491	82.09
341.703	-8.02
341.915	45.23
342.128	51.37
342.34	-32.6
342.552	-3.93
342.764	14.51
342.977	-69.46
343.189	2.22
343.401	-34.64
343.613	4.27
343.826	57.51
344.038	8.36
344.25	32.94
344.462	-28.5
344.674	26.79
344.886	24.75
345.099	57.51
345.311	14.51
345.523	82.09
345.735	-59.22
345.947	43.18
346.159	12.46
346.371	80.04
346.583	59.56
346.795	94.38
347.007	69.8
347.219	-5.97
347.431	-40.79
347.643	82.09
347.855	6.31
348.067	-18.26
348.279	45.23
348.491	63.66
348.703	53.42
348.915	-3.93
349.127	-87.89
349.339	12.46
349.551	45.23
349.763	73.9
349.975	28.84
350.187	-20.31
350.399	82.09
350.61	20.65
350.822	2.22
351.034	127.14
351.246	-12.12
351.458	45.23
351.669	-3.93
351.881	55.47
352.093	47.27
352.305	43.18
352.517	32.94
352.728	45.23
352.94	-30.55
353.152	12.46
353.363	10.41
353.575	10.41
353.787	159.91
353.999	4.27
354.21	69.8
354.422	75.95
354.633	32.94
354.845	30.89
355.057	-12.12
355.268	26.79
355.48	20.65
355.692	-8.02
355.903	16.55
356.115	41.13
356.326	-40.79
356.538	104.62
356.749	80.04
356.961	90.28
357.172	8.36
357.384	88.23
357.595	4.27
357.807	98.47
358.018	45.23
358.23	22.7
358.441	69.8
358.653	51.37
358.864	8.36
359.075	12.46
359.287	30.89
359.498	30.89
359.709	-42.84
359.921	32.94
360.132	51.37
360.344	-8.02
360.555	-79.7
360.766	45.23
360.977	53.42
361.189	59.56
361.4	96.43
361.611	32.94
361.823	110.76
362.034	4.27
362.245	53.42
362.456	59.56
362.667	22.7
362.879	63.66
363.09	10.41
363.301	24.75
363.512	34.99
363.723	32.94
363.935	-3.93
364.146	73.9
364.357	75.95
364.568	98.47
364.779	84.14
364.99	47.27
365.201	12.46
365.412	69.8
365.623	2.22
365.834	49.32
366.045	26.79
366.256	47.27
366.467	37.03
366.678	67.75
366.889	57.51
367.1	-8.02
367.311	32.94
367.522	47.27
367.733	-12.12
367.944	2.22
368.155	14.51
368.366	55.47
368.577	26.79
368.788	69.8
368.999	8.36
369.209	39.08
369.42	43.18
369.631	127.14
369.842	8.36
370.053	-3.93
370.264	0.17
370.474	14.51
370.685	12.46
370.896	57.51
371.107	86.19
371.317	59.56
371.528	57.51
371.739	82.09
371.95	75.95
372.16	53.42
372.371	41.13
372.582	8.36
372.792	8.36
373.003	55.47
373.214	65.71
373.424	37.03
373.635	18.6
373.846	114.86
374.056	39.08
374.267	43.18
374.477	49.32
374.688	-30.55
374.898	73.9
375.109	57.51
375.319	69.8
375.53	4.27
375.74	53.42
375.951	20.65
376.161	57.51
376.372	45.23
376.582	41.13
376.793	2.22
377.003	63.66
377.214	-16.21
377.424	-36.69
377.635	-30.55
377.845	20.65
378.055	106.67
378.266	-24.4
378.476	159.91
378.686	8.36
378.897	34.99
379.107	90.28
379.317	96.43
379.528	22.7
379.738	34.99
379.948	26.79
380.158	16.55
380.369	39.08
380.579	30.89
380.789	0.17
380.999	94.38
381.21	26.79
381.42	135.34
381.63	24.75
381.84	26.79
382.05	55.47
382.261	92.33
382.471	57.51
382.681	59.56
382.891	71.85
383.101	47.27
383.311	65.71
383.521	49.32
383.731	-16.21
383.941	47.27
384.151	-44.88
384.361	75.95
384.571	0.17
384.781	55.47
384.991	-18.26
385.201	80.04
385.411	28.84
385.621	37.03
385.831	37.03
386.041	59.56
386.251	45.23
386.461	98.47
386.671	57.51
386.881	6.31
387.091	20.65
387.301	69.8
387.511	67.75
387.72	114.86
387.93	39.08
388.14	65.71
388.35	0.17
388.56	65.71
388.769	53.42
388.979	80.04
389.189	12.46
389.399	57.51
389.609	65.71
389.818	63.66
390.028	45.23
390.238	16.55
390.447	67.75
390.657	151.72
390.867	51.37
391.076	69.8
391.286	69.8
391.496	96.43
391.705	-14.17
391.915	98.47
392.125	65.71
392.334	57.51
392.544	34.99
392.753	88.23
392.963	-1.88
393.172	10.41
393.382	39.08
393.591	112.81
393.801	37.03
394.01	104.62
394.22	65.71
394.429	80.04
394.639	77.99
394.848	28.84
395.058	18.6
395.267	77.99
395.477	86.19
395.686	20.65
395.895	18.6
396.105	118.95
396.314	-32.6
396.524	73.9
396.733	98.47
396.942	67.75
397.152	118.95
397.361	100.52
397.57	47.27
397.78	153.77
397.989	51.37
398.198	90.28
398.407	55.47
398.617	114.86
398.826	45.23
399.035	69.8
399.244	73.9
399.453	67.75
399.663	67.75
399.872	116.9
400.081	125.1
400.29	155.82
400.499	102.57
400.708	104.62
400.917	73.9
401.127	61.61
401.336	82.09
401.545	139.43
401.754	131.24
401.963	49.32
402.172	45.23
402.381	47.27
402.59	141.48
402.799	116.9
403.008	41.13
403.217	39.08
403.426	75.95
403.635	2.22
403.844	86.19
404.053	45.23
404.262	16.55
404.471	135.34
404.68	90.28
404.888	77.99
405.097	118.95
405.306	73.9
405.515	118.95
405.724	69.8
405.933	98.47
406.142	102.57
406.35	229.54
406.559	188.58
406.768	104.62
406.977	182.44
407.185	166.06
407.394	86.19
407.603	231.59
407.812	96.43
408.02	215.21
408.229	139.43
408.438	151.72
408.646	151.72
408.855	153.77
409.064	184.49
409.272	182.44
409.481	241.83
409.69	176.3
409.898	155.82
410.107	266.41
410.315	219.3
410.524	225.45
410.733	204.97
410.941	274.6
411.15	235.69
411.358	276.65
411.567	280.74
411.775	241.83
411.984	295.08
412.192	372.9
412.401	288.93
412.609	368.81
412.818	409.76
413.026	401.57
413.234	370.85
413.443	311.46
413.651	473.25
413.86	440.48
414.068	442.53
414.276	409.76
414.485	530.59
414.693	409.76
414.901	489.64
415.11	518.31
415.318	524.45
415.526	520.35
415.734	594.08
415.943	612.51
416.151	581.79
416.359	635.04
416.567	639.14
416.776	596.13
416.984	712.86
417.192	727.2
417.4	624.8
417.608	729.25
417.817	759.97
418.025	860.32
418.233	983.2
418.441	839.84
418.649	827.55
418.857	850.08
419.065	1036.44
419.273	919.71
419.481	983.2
419.689	993.44
419.897	1052.83
420.105	1116.31
420.313	1161.37
420.521	1269.91
420.729	1220.76
420.937	1208.47
421.145	1278.1
421.353	1353.88
421.561	1421.46
421.769	1425.56
421.977	1536.15
422.185	1458.32
422.393	1681.55
422.601	1648.79
422.809	1751.18
423.017	1626.26
423.224	1812.62
423.432	1921.17
423.64	1802.38
423.848	1939.6
424.056	1917.07
424.263	2119.82
424.471	2140.3
424.679	2140.3
424.887	2179.21
425.094	2371.72
425.302	2295.94
425.51	2408.58
425.718	2506.88
425.925	2631.81
426.133	2594.95
426.341	2672.77
426.548	2908.29
426.756	2861.18
426.964	2799.74
427.171	3041.4
427.379	3223.67
427.586	3278.97
427.794	3217.53
428.001	3508.34
428.209	3678.32
428.417	3502.2
428.624	3797.1
428.832	3780.72
429.039	3795.06
429.247	3948.65
429.454	4030.57
429.662	4323.43
429.869	4073.58
430.076	4479.08
430.284	4257.9
430.491	4434.02
430.699	4692.07
430.906	4880.48
431.114	4634.72
431.321	5034.08
431.528	4980.83
431.736	5406.81
431.943	5627.99
432.15	5398.62
432.358	5625.94
432.565	5908.56
432.772	5744.72
432.979	6113.36
433.187	6328.39
433.394	6246.48
433.601	6678.6
433.808	6737.99
434.016	6684.74
434.223	6821.95
434.43	7092.29
434.637	6914.11
434.844	7688.25
435.052	7612.47
435.259	7635
435.466	7815.22
435.673	7704.63
435.88	8196.14
436.087	8570.92
436.294	8763.43
436.501	8474.67
436.708	8628.26
436.915	8843.3
437.122	9320.48
437.329	9392.16
437.537	9465.88
437.743	9599
437.95	9682.97
438.157	10186.77
438.364	10430.48
438.571	10272.78
438.778	10399.76
438.985	11540.47
439.192	11083.78
439.399	11671.54
439.606	11237.38
439.813	11698.17
440.02	12349.42
440.227	12247.02
440.433	12224.5
440.64	12374
440.847	12683.24
441.054	12742.63
441.261	13533.15
441.467	13463.52
441.674	13803.48
441.881	14401.49
442.088	14196.69
442.294	14290.9
442.501	14440.4
442.708	14837.7
442.914	15361.98
443.121	15900.6
443.328	15579.07
443.534	16750.51
443.741	16187.32
443.948	16005.05
444.154	17379.23
444.361	17174.44
444.568	17395.62
444.774	16977.83
444.981	17381.28
445.187	17794.97
445.394	18632.59
445.6	18159.51
445.807	20166.52
446.013	19160.97
446.22	19715.97
446.426	20320.12
446.633	20371.32
446.839	21100.39
447.046	19965.82
447.252	21444.45
447.459	21768.03
447.665	21423.97
447.871	22646.61
448.078	23258.95
448.284	22101.85
448.491	22755.15
448.697	23605.06
448.903	24284.98
449.11	23998.27
449.316	23582.53
449.522	24145.72
449.728	24778.54
449.935	24923.95
450.141	24842.03
450.347	25433.89
450.553	24538.93
450.76	25149.23
450.966	25472.81
451.172	25421.61
451.378	26289.95
451.584	25626.4
451.791	26339.1
451.997	26220.31
452.203	26627.86
452.409	26566.42
452.615	26392.34
452.821	25470.76
453.027	25261.87
453.233	26500.89
453.44	25278.25
453.646	25833.25
453.852	25681.7
454.058	26210.07
454.264	25593.64
454.47	26171.16
454.676	25171.75
454.882	26079
455.088	23762.75
455.294	24016.7
455.5	24833.84
455.705	24594.23
455.911	23478.08
456.117	23355.21
456.323	22918.99
456.529	21829.47
456.735	22923.08
456.941	21931.87
457.147	21675.87
457.352	21098.34
457.558	20985.71
457.764	21092.2
457.97	20565.87
458.176	20000.63
458.381	19971.96
458.587	19242.89
458.793	19064.71
458.999	18007.96
459.204	19218.31
459.41	18831.24
459.616	17612.7
459.821	17807.26
460.027	17737.63
460.233	16981.93
460.438	16297.91
460.644	16699.31
460.85	15796.15
461.055	15833.02
461.261	15417.28
461.466	14565.32
461.672	14055.38
461.878	14776.27
462.083	13965.27
462.289	13727.71
462.494	13631.45
462.7	12818.41
462.905	12687.34
463.111	13162.47
463.316	13172.71
463.522	12658.67
463.727	12908.52
463.932	13033.44
464.138	12566.51
464.343	12875.75
464.549	12220.4
464.754	12720.1
464.959	12591.08
465.165	12378.09
465.37	12013.56
465.575	11771.9
465.781	12175.34
465.986	12333.04
466.191	11882.49
466.397	11767.8
466.602	10973.19
466.807	11384.83
467.012	11352.06
467.218	11257.85
467.423	11372.54
467.628	11229.18
467.833	11741.18
468.038	11401.21
