Data from USB4F104151__246__11-11-36-489.txt Node

Date: Wed Mar 12 11:11:36 EDT 2025
User: louis
Spectrometer: USB4F10415
Trigger mode: 4
Integration Time (sec): 2.000000E-2
Scans to average: 1
Electric dark correction enabled: true
Nonlinearity correction enabled: false
Boxcar width: 0
XAxis mode: Wavelengths
Number of Pixels in Spectrum: 3648
>>>>>Begin Spectral Data<<<<<
178.204	-19.97
178.424	-19.97
178.644	-19.97
178.864	-128.51
179.084	10.75
179.304	-13.82
179.524	10.75
179.744	10.75
179.964	16.9
180.184	-9.73
180.404	-54.78
180.624	-17.92
180.844	49.66
181.064	-58.88
181.283	51.71
181.503	16.9
181.723	-1.54
181.943	-22.02
182.163	78.33
182.383	53.76
182.602	35.33
182.822	33.28
183.042	59.9
183.262	47.62
183.482	55.81
183.701	61.95
183.921	29.18
184.141	72.19
184.361	31.23
184.58	12.8
184.8	47.62
185.02	12.8
185.239	96.77
185.459	29.18
185.679	51.71
185.898	96.77
186.118	25.09
186.338	27.14
186.557	90.62
186.777	14.85
186.997	119.29
187.216	57.86
187.436	92.67
187.655	104.96
187.875	31.23
188.095	86.53
188.314	119.29
188.534	100.86
188.753	80.38
188.973	66.05
189.192	61.95
189.412	59.9
189.631	49.66
189.851	78.33
190.07	90.62
190.29	43.52
190.509	90.62
190.729	-7.68
190.948	76.29
191.168	123.39
191.387	127.49
191.607	51.71
191.826	66.05
192.045	96.77
192.265	76.29
192.484	115.2
192.704	109.05
192.923	68.09
193.142	61.95
193.362	70.14
193.581	100.86
193.8	39.42
194.02	49.66
194.239	35.33
194.458	84.48
194.678	72.19
194.897	51.71
195.116	-54.78
195.335	-11.78
195.555	53.76
195.774	160.25
195.993	72.19
196.212	80.38
196.432	111.1
196.651	61.95
196.87	47.62
197.089	98.81
197.308	127.49
197.528	49.66
197.747	66.05
197.966	39.42
198.185	59.9
198.404	74.24
198.623	82.43
198.842	88.57
199.062	96.77
199.281	78.33
199.5	14.85
199.719	43.52
199.938	57.86
200.157	72.19
200.376	41.47
200.595	94.72
200.814	113.15
201.033	61.95
201.252	0.51
201.471	111.1
201.69	100.86
201.909	76.29
202.128	59.9
202.347	94.72
202.566	6.66
202.785	35.33
203.004	16.9
203.223	12.8
203.442	-24.06
203.661	12.8
203.879	92.67
204.098	143.87
204.317	20.99
204.536	43.52
204.755	47.62
204.974	150.01
205.193	86.53
205.411	133.63
205.63	18.94
205.849	43.52
206.068	55.81
206.287	147.97
206.505	64
206.724	76.29
206.943	37.38
207.162	94.72
207.381	94.72
207.599	47.62
207.818	-26.11
208.037	59.9
208.255	92.67
208.474	68.09
208.693	113.15
208.911	59.9
209.13	100.86
209.349	64
209.567	72.19
209.786	64
210.005	123.39
210.223	143.87
210.442	29.18
210.661	82.43
210.879	49.66
211.098	53.76
211.316	23.04
211.535	100.86
211.753	57.86
211.972	94.72
212.191	53.76
212.409	55.81
212.628	-24.06
212.846	88.57
213.065	76.29
213.283	18.94
213.502	20.99
213.72	123.39
213.938	72.19
214.157	10.75
214.375	80.38
214.594	82.43
214.812	96.77
215.031	102.91
215.249	55.81
215.467	82.43
215.686	113.15
215.904	98.81
216.122	68.09
216.341	55.81
216.559	45.57
216.778	111.1
216.996	150.01
217.214	37.38
217.432	-15.87
217.651	18.94
217.869	70.14
218.087	94.72
218.306	-7.68
218.524	43.52
218.742	37.38
218.96	57.86
219.179	45.57
219.397	55.81
219.615	78.33
219.833	92.67
220.051	49.66
220.27	72.19
220.488	-5.63
220.706	80.38
220.924	39.42
221.142	72.19
221.36	66.05
221.578	154.11
221.796	47.62
222.015	55.81
222.233	59.9
222.451	96.77
222.669	4.61
222.887	45.57
223.105	31.23
223.323	39.42
223.541	107.01
223.759	109.05
223.977	59.9
224.195	80.38
224.413	64
224.631	78.33
224.849	113.15
225.067	94.72
225.285	47.62
225.503	92.67
225.721	35.33
225.939	18.94
226.157	47.62
226.375	121.34
226.592	51.71
226.81	2.56
227.028	84.48
227.246	84.48
227.464	-19.97
227.682	96.77
227.9	78.33
228.117	57.86
228.335	76.29
228.553	113.15
228.771	80.38
228.989	117.25
229.206	64
229.424	0.51
229.642	59.9
229.86	64
230.077	141.82
230.295	117.25
230.513	23.04
230.731	27.14
230.948	78.33
231.166	35.33
231.384	45.57
231.601	96.77
231.819	55.81
232.037	74.24
232.254	-11.78
232.472	55.81
232.689	104.96
232.907	152.06
233.125	43.52
233.342	117.25
233.56	-13.82
233.777	121.34
233.995	92.67
234.213	94.72
234.43	78.33
234.648	90.62
234.865	141.82
235.083	100.86
235.3	119.29
235.518	45.57
235.735	80.38
235.953	59.9
236.17	41.47
236.388	57.86
236.605	96.77
236.822	143.87
237.04	61.95
237.257	25.09
237.475	45.57
237.692	59.9
237.909	31.23
238.127	68.09
238.344	82.43
238.562	-3.58
238.779	41.47
238.996	41.47
239.214	68.09
239.431	154.11
239.648	41.47
239.865	68.09
240.083	66.05
240.3	107.01
240.517	45.57
240.735	96.77
240.952	72.19
241.169	27.14
241.386	47.62
241.603	86.53
241.821	78.33
242.038	129.53
242.255	152.06
242.472	-32.26
242.689	2.56
242.907	117.25
243.124	16.9
243.341	86.53
243.558	137.73
243.775	33.28
243.992	35.33
244.209	80.38
244.426	47.62
244.643	57.86
244.86	74.24
245.078	84.48
245.295	57.86
245.512	35.33
245.729	31.23
245.946	80.38
246.163	119.29
246.38	94.72
246.597	0.51
246.814	76.29
247.031	51.71
247.248	47.62
247.464	57.86
247.681	31.23
247.898	61.95
248.115	100.86
248.332	74.24
248.549	64
248.766	154.11
248.983	64
249.2	39.42
249.417	98.81
249.633	51.71
249.85	156.16
250.067	14.85
250.284	104.96
250.501	104.96
250.717	90.62
250.934	16.9
251.151	68.09
251.368	49.66
251.585	98.81
251.801	84.48
252.018	55.81
252.235	51.71
252.451	55.81
252.668	74.24
252.885	49.66
253.102	78.33
253.318	109.05
253.535	53.76
253.752	68.09
253.968	43.52
254.185	66.05
254.401	53.76
254.618	12.8
254.835	12.8
255.051	84.48
255.268	66.05
255.484	16.9
255.701	55.81
255.917	80.38
256.134	-5.63
256.351	111.1
256.567	29.18
256.784	10.75
257	39.42
257.217	86.53
257.433	39.42
257.65	104.96
257.866	96.77
258.082	16.9
258.299	10.75
258.515	113.15
258.732	61.95
258.948	10.75
259.165	100.86
259.381	49.66
259.597	61.95
259.814	94.72
260.03	86.53
260.246	59.9
260.463	61.95
260.679	31.23
260.895	145.92
261.112	117.25
261.328	129.53
261.544	117.25
261.761	94.72
261.977	92.67
262.193	109.05
262.409	61.95
262.626	96.77
262.842	70.14
263.058	82.43
263.274	18.94
263.49	94.72
263.707	80.38
263.923	29.18
264.139	51.71
264.355	61.95
264.571	84.48
264.787	45.57
265.004	96.77
265.22	78.33
265.436	49.66
265.652	55.81
265.868	96.77
266.084	61.95
266.3	43.52
266.516	18.94
266.732	53.76
266.948	86.53
267.164	43.52
267.38	35.33
267.596	51.71
267.812	111.1
268.028	43.52
268.244	59.9
268.46	70.14
268.676	39.42
268.892	96.77
269.108	51.71
269.324	51.71
269.54	51.71
269.756	123.39
269.972	84.48
270.188	104.96
270.403	0.51
270.619	80.38
270.835	27.14
271.051	72.19
271.267	82.43
271.483	88.57
271.698	59.9
271.914	80.38
272.13	80.38
272.346	94.72
272.562	82.43
272.777	61.95
272.993	96.77
273.209	74.24
273.425	100.86
273.64	113.15
273.856	31.23
274.072	55.81
274.287	43.52
274.503	49.66
274.719	70.14
274.934	145.92
275.15	53.76
275.366	82.43
275.581	-9.73
275.797	104.96
276.012	107.01
276.228	70.14
276.444	107.01
276.659	98.81
276.875	8.7
277.09	168.45
277.306	121.34
277.521	61.95
277.737	57.86
277.952	20.99
278.168	88.57
278.383	35.33
278.599	53.76
278.814	53.76
279.03	74.24
279.245	68.09
279.461	61.95
279.676	100.86
279.892	88.57
280.107	64
280.322	84.48
280.538	59.9
280.753	70.14
280.969	43.52
281.184	53.76
281.399	156.16
281.615	70.14
281.83	92.67
282.045	16.9
282.26	29.18
282.476	74.24
282.691	66.05
282.906	37.38
283.122	90.62
283.337	31.23
283.552	104.96
283.767	51.71
283.983	70.14
284.198	88.57
284.413	113.15
284.628	37.38
284.843	39.42
285.058	129.53
285.274	51.71
285.489	10.75
285.704	98.81
285.919	39.42
286.134	86.53
286.349	72.19
286.564	35.33
286.779	104.96
286.995	123.39
287.21	-71.17
287.425	182.78
287.64	94.72
287.855	66.05
288.07	59.9
288.285	166.4
288.5	82.43
288.715	78.33
288.93	45.57
289.145	2.56
289.36	98.81
289.575	33.28
289.79	133.63
290.004	68.09
290.219	84.48
290.434	98.81
290.649	8.7
290.864	68.09
291.079	35.33
291.294	55.81
291.509	109.05
291.724	78.33
291.938	39.42
292.153	31.23
292.368	127.49
292.583	94.72
292.798	31.23
293.012	16.9
293.227	59.9
293.442	88.57
293.657	160.25
293.871	102.91
294.086	88.57
294.301	92.67
294.516	111.1
294.73	94.72
294.945	27.14
295.16	23.04
295.374	20.99
295.589	115.2
295.804	18.94
296.018	74.24
296.233	90.62
296.447	74.24
296.662	150.01
296.877	51.71
297.091	109.05
297.306	117.25
297.52	123.39
297.735	104.96
297.949	72.19
298.164	147.97
298.378	94.72
298.593	53.76
298.807	23.04
299.022	90.62
299.236	39.42
299.451	43.52
299.665	80.38
299.88	51.71
300.094	88.57
300.309	39.42
300.523	113.15
300.737	113.15
300.952	100.86
301.166	100.86
301.381	27.14
301.595	29.18
301.809	92.67
302.024	53.76
302.238	68.09
302.452	64
302.667	119.29
302.881	143.87
303.095	39.42
303.309	145.92
303.524	92.67
303.738	61.95
303.952	123.39
304.166	92.67
304.381	-9.73
304.595	84.48
304.809	31.23
305.023	72.19
305.237	104.96
305.452	55.81
305.666	150.01
305.88	98.81
306.094	59.9
306.308	113.15
306.522	61.95
306.736	84.48
306.95	59.9
307.164	59.9
307.379	39.42
307.593	98.81
307.807	98.81
308.021	92.67
308.235	64
308.449	104.96
308.663	100.86
308.877	96.77
309.091	143.87
309.305	12.8
309.519	47.62
309.733	150.01
309.947	23.04
310.161	43.52
310.374	78.33
310.588	80.38
310.802	90.62
311.016	78.33
311.23	78.33
311.444	88.57
311.658	117.25
311.872	72.19
312.085	49.66
312.299	102.91
312.513	154.11
312.727	102.91
312.941	111.1
313.154	45.57
313.368	18.94
313.582	109.05
313.796	102.91
314.009	64
314.223	64
314.437	18.94
314.651	78.33
314.864	-24.06
315.078	27.14
315.292	98.81
315.505	70.14
315.719	47.62
315.933	113.15
316.146	119.29
316.36	51.71
316.573	70.14
316.787	88.57
317.001	66.05
317.214	-1.54
317.428	66.05
317.641	55.81
317.855	35.33
318.068	117.25
318.282	80.38
318.495	137.73
318.709	35.33
318.922	-15.87
319.136	100.86
319.349	10.75
319.563	74.24
319.776	84.48
319.99	119.29
320.203	127.49
320.417	33.28
320.63	113.15
320.843	174.59
321.057	37.38
321.27	135.68
321.483	125.44
321.697	135.68
321.91	76.29
322.124	45.57
322.337	94.72
322.55	109.05
322.763	84.48
322.977	82.43
323.19	125.44
323.403	123.39
323.617	111.1
323.83	162.3
324.043	4.61
324.256	92.67
324.469	100.86
324.683	76.29
324.896	84.48
325.109	57.86
325.322	43.52
325.535	180.73
325.748	61.95
325.962	133.63
326.175	-24.06
326.388	45.57
326.601	109.05
326.814	59.9
327.027	70.14
327.24	201.21
327.453	125.44
327.666	53.76
327.879	98.81
328.092	2.56
328.305	55.81
328.518	78.33
328.731	57.86
328.944	150.01
329.157	37.38
329.37	96.77
329.583	39.42
329.796	96.77
330.009	154.11
330.222	-19.97
330.435	96.77
330.648	143.87
330.861	100.86
331.073	53.76
331.286	199.16
331.499	129.53
331.712	84.48
331.925	121.34
332.138	102.91
332.35	64
332.563	72.19
332.776	61.95
332.989	84.48
333.202	82.43
333.414	80.38
333.627	61.95
333.84	88.57
334.053	18.94
334.265	94.72
334.478	72.19
334.691	111.1
334.903	90.62
335.116	43.52
335.329	113.15
335.541	102.91
335.754	90.62
335.966	47.62
336.179	41.47
336.392	109.05
336.604	92.67
336.817	125.44
337.029	51.71
337.242	-9.73
337.454	51.71
337.667	23.04
337.88	125.44
338.092	104.96
338.305	43.52
338.517	127.49
338.729	84.48
338.942	31.23
339.154	49.66
339.367	23.04
339.579	66.05
339.792	39.42
340.004	145.92
340.217	84.48
340.429	72.19
340.641	66.05
340.854	39.42
341.066	59.9
341.278	84.48
341.491	61.95
341.703	139.77
341.915	43.52
342.128	29.18
342.34	141.82
342.552	35.33
342.764	39.42
342.977	117.25
343.189	6.66
343.401	107.01
343.613	4.61
343.826	55.81
344.038	88.57
344.25	88.57
344.462	90.62
344.674	45.57
344.886	29.18
345.099	78.33
345.311	68.09
345.523	131.58
345.735	55.81
345.947	111.1
346.159	119.29
346.371	107.01
346.583	14.85
346.795	123.39
347.007	12.8
347.219	80.38
347.431	98.81
347.643	115.2
347.855	98.81
348.067	158.21
348.279	-7.68
348.491	76.29
348.703	70.14
348.915	96.77
349.127	82.43
349.339	84.48
349.551	102.91
349.763	113.15
349.975	66.05
350.187	96.77
350.399	117.25
350.61	111.1
350.822	23.04
351.034	59.9
351.246	102.91
351.458	88.57
351.669	174.59
351.881	111.1
352.093	53.76
352.305	70.14
352.517	57.86
352.728	158.21
352.94	6.66
353.152	150.01
353.363	102.91
353.575	70.14
353.787	119.29
353.999	53.76
354.21	51.71
354.422	57.86
354.633	74.24
354.845	166.4
355.057	117.25
355.268	88.57
355.48	76.29
355.692	47.62
355.903	92.67
356.115	92.67
356.326	74.24
356.538	127.49
356.749	143.87
356.961	74.24
357.172	109.05
357.384	88.57
357.595	166.4
357.807	98.81
358.018	117.25
358.23	100.86
358.441	107.01
358.653	129.53
358.864	59.9
359.075	70.14
359.287	158.21
359.498	72.19
359.709	88.57
359.921	10.75
360.132	86.53
360.344	98.81
360.555	49.66
360.766	121.34
360.977	55.81
361.189	121.34
361.4	80.38
361.611	111.1
361.823	96.77
362.034	47.62
362.245	117.25
362.456	143.87
362.667	66.05
362.879	80.38
363.09	47.62
363.301	78.33
363.512	88.57
363.723	119.29
363.935	100.86
364.146	113.15
364.357	102.91
364.568	88.57
364.779	119.29
364.99	174.59
365.201	96.77
365.412	147.97
365.623	72.19
365.834	55.81
366.045	150.01
366.256	57.86
366.467	176.64
366.678	92.67
366.889	76.29
367.1	72.19
367.311	82.43
367.522	55.81
367.733	125.44
367.944	66.05
368.155	68.09
368.366	117.25
368.577	133.63
368.788	96.77
368.999	80.38
369.209	117.25
369.42	162.3
369.631	197.12
369.842	84.48
370.053	45.57
370.264	70.14
370.474	47.62
370.685	107.01
370.896	53.76
371.107	102.91
371.317	76.29
371.528	100.86
371.739	76.29
371.95	35.33
372.16	92.67
372.371	39.42
372.582	117.25
372.792	113.15
373.003	80.38
373.214	111.1
373.424	82.43
373.635	14.85
373.846	119.29
374.056	82.43
374.267	158.21
374.477	70.14
374.688	92.67
374.898	113.15
375.109	113.15
375.319	78.33
375.53	55.81
375.74	16.9
375.951	86.53
376.161	129.53
376.372	143.87
376.582	117.25
376.793	12.8
377.003	76.29
377.214	53.76
377.424	109.05
377.635	141.82
377.845	119.29
378.055	94.72
378.266	111.1
378.476	66.05
378.686	123.39
378.897	121.34
379.107	172.54
379.317	131.58
379.528	64
379.738	-11.78
379.948	74.24
380.158	94.72
380.369	23.04
380.579	133.63
380.789	98.81
380.999	68.09
381.21	141.82
381.42	125.44
381.63	39.42
381.84	109.05
382.05	82.43
382.261	133.63
382.471	80.38
382.681	172.54
382.891	76.29
383.101	78.33
383.311	31.23
383.521	92.67
383.731	121.34
383.941	98.81
384.151	88.57
384.361	90.62
384.571	27.14
384.781	55.81
384.991	82.43
385.201	127.49
385.411	64
385.621	107.01
385.831	80.38
386.041	104.96
386.251	53.76
386.461	150.01
386.671	55.81
386.881	66.05
387.091	25.09
387.301	152.06
387.511	129.53
387.72	143.87
387.93	78.33
388.14	98.81
388.35	86.53
388.56	109.05
388.769	129.53
388.979	100.86
389.189	29.18
389.399	100.86
389.609	78.33
389.818	137.73
390.028	123.39
390.238	154.11
390.447	96.77
390.657	111.1
390.867	133.63
391.076	31.23
391.286	133.63
391.496	131.58
391.705	78.33
391.915	109.05
392.125	55.81
392.334	154.11
392.544	102.91
392.753	174.59
392.963	127.49
393.172	113.15
393.382	129.53
393.591	164.35
393.801	70.14
394.01	90.62
394.22	137.73
394.429	166.4
394.639	131.58
394.848	154.11
395.058	27.14
395.267	123.39
395.477	78.33
395.686	154.11
395.895	84.48
396.105	252.41
396.314	47.62
396.524	119.29
396.733	133.63
396.942	102.91
397.152	117.25
397.361	166.4
397.57	64
397.78	154.11
397.989	154.11
398.198	174.59
398.407	100.86
398.617	70.14
398.826	182.78
399.035	158.21
399.244	162.3
399.453	137.73
399.663	164.35
399.872	207.36
400.081	125.44
400.29	152.06
400.499	96.77
400.708	150.01
400.917	143.87
401.127	188.93
401.336	150.01
401.545	207.36
401.754	193.02
401.963	215.55
402.172	160.25
402.381	158.21
402.59	137.73
402.799	184.83
403.008	227.84
403.217	172.54
403.426	195.07
403.635	141.82
403.844	164.35
404.053	184.83
404.262	244.22
404.471	236.03
404.68	102.91
404.888	176.64
405.097	197.12
405.306	180.73
405.515	264.7
405.724	207.36
405.933	219.64
406.142	254.46
406.35	223.74
406.559	291.32
406.768	297.47
406.977	301.56
407.185	254.46
407.394	369.15
407.603	242.17
407.812	297.47
408.02	340.47
408.229	301.56
408.438	338.43
408.646	242.17
408.855	350.71
409.064	348.67
409.272	295.42
409.481	340.47
409.69	332.28
409.898	324.09
410.107	399.87
410.315	414.2
410.524	375.29
410.733	446.97
410.941	389.63
411.15	412.15
411.358	438.78
411.567	428.54
411.775	451.07
411.984	489.98
412.192	516.6
412.401	537.08
412.609	586.23
412.818	547.32
413.026	606.71
413.234	614.9
413.443	524.79
413.651	582.14
413.86	639.48
414.068	694.77
414.276	733.68
414.485	657.91
414.693	748.02
414.901	764.4
415.11	801.27
415.318	831.99
415.526	819.7
415.734	881.14
415.943	866.8
416.151	940.53
416.359	973.3
416.567	993.78
416.776	1014.26
416.984	1042.93
417.192	1092.08
417.4	1018.35
417.608	1171.95
417.817	1208.81
418.025	1200.62
418.233	1268.2
418.441	1237.49
418.649	1364.46
418.857	1446.38
419.065	1432.04
419.273	1470.95
419.481	1587.69
419.689	1602.02
419.897	1743.33
420.105	1688.04
420.313	1737.19
420.521	1855.97
420.729	1749.48
420.937	2034.14
421.145	2056.67
421.353	2060.77
421.561	2120.16
421.769	2195.93
421.977	2294.24
422.185	2210.27
422.393	2339.29
422.601	2513.37
422.809	2492.89
423.017	2539.99
423.224	2697.69
423.432	2783.7
423.64	2775.51
423.848	2980.31
424.056	2894.29
424.263	3146.19
424.471	3234.25
424.679	3185.1
424.887	3338.7
425.094	3475.91
425.302	3463.63
425.51	3488.2
425.718	3693
425.925	3819.97
426.133	3860.93
426.341	4116.93
426.548	4370.88
426.756	4364.73
426.964	4340.16
427.171	4655.54
427.379	4868.53
427.586	4735.42
427.794	5015.99
428.001	5188.02
428.209	5429.68
428.417	5169.59
428.624	5593.51
428.832	5831.08
429.039	5646.76
429.247	5661.1
429.454	6117.79
429.662	6668.7
429.869	6158.75
430.076	6551.96
430.284	6463.9
430.491	6562.2
430.699	7125.4
430.906	7027.09
431.114	7324.05
431.321	7563.66
431.528	7805.32
431.736	8149.38
431.943	8302.98
432.15	8139.14
432.358	8333.7
432.565	8700.28
432.772	8640.89
432.979	9073.01
433.187	9093.49
433.394	9261.43
433.601	9927.02
433.808	9976.17
434.016	10103.14
434.223	10410.34
434.43	11061.59
434.637	10803.55
434.844	11518.29
435.052	11614.54
435.259	11495.76
435.466	11731.28
435.673	11565.39
435.88	12489.03
436.087	13084.98
436.294	13074.74
436.501	12566.85
436.708	12702.01
436.915	13293.88
437.122	13728.05
437.329	13930.8
437.537	14426.4
437.743	14721.31
437.95	14596.39
438.157	15141.14
438.364	15685.9
438.571	15317.27
438.778	15653.14
438.985	17289.46
439.192	16640.26
439.399	17006.84
439.606	16808.19
439.813	17654
440.02	18505.96
440.227	18501.86
440.433	18120.94
440.64	18743.52
440.847	18452.71
441.054	18927.84
441.261	20320.46
441.467	20195.53
441.674	20453.58
441.881	21188.8
442.088	21156.03
442.294	21110.97
442.501	21489.85
442.708	22024.37
442.914	22698.15
443.121	23906.45
443.328	23054.5
443.534	24715.4
443.741	24006.8
443.948	23580.82
444.154	25389.18
444.361	25438.33
444.568	25452.67
444.774	25448.57
444.981	25809.01
445.187	26663.02
445.394	27553.88
445.6	27015.27
445.807	29986.87
446.013	28762.19
446.22	28893.26
446.426	30023.73
446.633	30335.03
446.839	31520.8
447.046	30246.96
447.252	31821.85
447.459	31911.96
447.665	31946.78
447.871	32954.38
448.078	34400.24
448.284	32831.5
448.491	33662.97
448.697	34965.48
448.903	35690.46
449.11	35790.81
449.316	34820.08
449.522	35876.83
449.728	36618.19
449.935	36622.29
450.141	36806.61
450.347	37574.59
450.553	36962.25
450.76	36886.48
450.966	38049.72
451.172	37552.07
451.378	38576.05
451.584	37967.8
451.791	38631.35
451.997	38698.93
452.203	39208.87
452.409	39083.95
452.615	38944.69
452.821	37402.57
453.027	36775.89
453.233	39061.42
453.44	37257.16
453.646	37855.17
453.852	38123.45
454.058	38578.1
454.264	37412.81
454.47	38166.46
454.676	37277.64
454.882	38649.78
455.088	34924.52
455.294	35612.64
455.5	36175.83
455.705	36466.64
455.911	34795.5
456.117	34498.55
456.323	33738.75
456.529	31850.52
456.735	33814.52
456.941	32489.49
457.147	31834.14
457.352	31254.56
457.558	30875.69
457.764	30875.69
457.97	29882.42
458.176	29696.06
458.381	29440.06
458.587	28176.47
458.793	28315.73
458.999	26757.22
459.204	28692.55
459.41	28008.53
459.616	26017.91
459.821	25802.87
460.027	25997.43
460.233	25454.72
460.438	24236.17
460.644	24600.71
460.85	23087.26
461.055	23029.92
461.261	22855.84
461.466	21153.98
461.672	20773.06
461.878	22132.91
462.083	20601.03
462.289	20209.87
462.494	20029.65
462.7	19067.1
462.905	18575.59
463.111	18976.99
463.316	19450.07
463.522	18897.12
463.727	19239.13
463.932	18960.61
464.138	18688.23
464.343	18520.29
464.549	18049.26
464.754	18905.31
464.959	18890.98
465.165	18587.88
465.37	18010.35
465.575	17174.78
465.781	17893.61
