Data from USB4F104151__131__11-07-47-015.txt Node

Date: Wed Mar 12 11:07:47 EDT 2025
User: louis
Spectrometer: USB4F10415
Trigger mode: 4
Integration Time (sec): 2.000000E-2
Scans to average: 1
Electric dark correction enabled: true
Nonlinearity correction enabled: false
Boxcar width: 0
XAxis mode: Wavelengths
Number of Pixels in Spectrum: 3648
>>>>>Begin Spectral Data<<<<<
178.204	62.46
178.424	62.46
178.644	62.46
178.864	-11.26
179.084	-29.7
179.304	-46.08
179.524	72.7
179.744	5.12
179.964	37.89
180.184	-58.37
180.404	11.26
180.624	-9.22
180.844	-9.22
181.064	-23.55
181.283	11.26
181.503	-21.5
181.723	29.7
181.943	-64.51
182.163	123.9
182.383	119.81
182.602	23.55
182.822	39.94
183.042	37.89
183.262	60.42
183.482	103.42
183.701	44.03
183.921	-15.36
184.141	15.36
184.361	84.99
184.58	56.32
184.8	70.65
185.02	64.51
185.239	68.61
185.459	68.61
185.679	39.94
185.898	-21.5
186.118	25.6
186.338	7.17
186.557	66.56
186.777	46.08
186.997	29.7
187.216	44.03
187.436	52.22
187.655	66.56
187.875	33.79
188.095	50.18
188.314	125.95
188.534	76.8
188.753	80.89
188.973	5.12
189.192	27.65
189.412	123.9
189.631	121.85
189.851	68.61
190.07	60.42
190.29	27.65
190.509	-58.37
190.729	39.94
190.948	3.07
191.168	115.71
191.387	31.74
191.607	72.7
191.826	23.55
192.045	37.89
192.265	91.13
192.484	19.46
192.704	39.94
192.923	-27.65
193.142	21.5
193.362	41.98
193.581	105.47
193.8	113.66
194.02	130.05
194.239	39.94
194.458	48.13
194.678	27.65
194.897	21.5
195.116	66.56
195.335	138.24
195.555	84.99
195.774	29.7
195.993	-19.46
196.212	-27.65
196.432	60.42
196.651	29.7
196.87	-23.55
197.089	101.37
197.308	103.42
197.528	80.89
197.747	21.5
197.966	-11.26
198.185	125.95
198.404	76.8
198.623	39.94
198.842	50.18
199.062	56.32
199.281	107.52
199.5	58.37
199.719	48.13
199.938	78.85
200.157	68.61
200.376	72.7
200.595	72.7
200.814	87.04
201.033	52.22
201.252	76.8
201.471	105.47
201.69	52.22
201.909	56.32
202.128	54.27
202.347	95.23
202.566	46.08
202.785	27.65
203.004	5.12
203.223	80.89
203.442	-5.12
203.661	68.61
203.879	144.38
204.098	68.61
204.317	15.36
204.536	44.03
204.755	39.94
204.974	70.65
205.193	23.55
205.411	87.04
205.63	13.31
205.849	7.17
206.068	-44.03
206.287	72.7
206.505	60.42
206.724	13.31
206.943	29.7
207.162	-9.22
207.381	39.94
207.599	-15.36
207.818	62.46
208.037	-15.36
208.255	41.98
208.474	-11.26
208.693	11.26
208.911	52.22
209.13	7.17
209.349	13.31
209.567	60.42
209.786	48.13
210.005	31.74
210.223	95.23
210.442	68.61
210.661	101.37
210.879	37.89
211.098	23.55
211.316	-7.17
211.535	64.51
211.753	119.81
211.972	60.42
212.191	31.74
212.409	19.46
212.628	-7.17
212.846	44.03
213.065	97.28
213.283	13.31
213.502	-7.17
213.72	-13.31
213.938	58.37
214.157	136.19
214.375	44.03
214.594	9.22
214.812	60.42
215.031	72.7
215.249	29.7
215.467	99.33
215.686	-46.08
215.904	72.7
216.122	31.74
216.341	54.27
216.559	89.09
216.778	7.17
216.996	74.75
217.214	41.98
217.432	60.42
217.651	11.26
217.869	62.46
218.087	115.71
218.306	31.74
218.524	48.13
218.742	52.22
218.96	89.09
219.179	50.18
219.397	39.94
219.615	64.51
219.833	41.98
220.051	27.65
220.27	56.32
220.488	50.18
220.706	23.55
220.924	39.94
221.142	-5.12
221.36	46.08
221.578	70.65
221.796	29.7
222.015	56.32
222.233	31.74
222.451	136.19
222.669	46.08
222.887	13.31
223.105	31.74
223.323	27.65
223.541	44.03
223.759	89.09
223.977	7.17
224.195	121.85
224.413	29.7
224.631	-3.07
224.849	52.22
225.067	35.84
225.285	39.94
225.503	62.46
225.721	29.7
225.939	54.27
226.157	99.33
226.375	134.14
226.592	23.55
226.81	31.74
227.028	7.17
227.246	62.46
227.464	82.94
227.682	66.56
227.9	93.18
228.117	93.18
228.335	44.03
228.553	7.17
228.771	46.08
228.989	78.85
229.206	66.56
229.424	41.98
229.642	-46.08
229.86	89.09
230.077	95.23
230.295	15.36
230.513	93.18
230.731	50.18
230.948	80.89
231.166	54.27
231.384	68.61
231.601	31.74
231.819	105.47
232.037	27.65
232.254	87.04
232.472	72.7
232.689	29.7
232.907	87.04
233.125	68.61
233.342	25.6
233.56	70.65
233.777	48.13
233.995	1.02
234.213	70.65
234.43	117.76
234.648	44.03
234.865	128
235.083	44.03
235.3	1.02
235.518	-7.17
235.735	72.7
235.953	113.66
236.17	62.46
236.388	23.55
236.605	9.22
236.822	25.6
237.04	78.85
237.257	52.22
237.475	-7.17
237.692	7.17
237.909	37.89
238.127	41.98
238.344	121.85
238.562	117.76
238.779	64.51
238.996	56.32
239.214	19.46
239.431	17.41
239.648	15.36
239.865	109.57
240.083	93.18
240.3	39.94
240.517	56.32
240.735	-17.41
240.952	-25.6
241.169	95.23
241.386	54.27
241.603	39.94
241.821	1.02
242.038	72.7
242.255	13.31
242.472	44.03
242.689	35.84
242.907	21.5
243.124	21.5
243.341	95.23
243.558	-5.12
243.775	35.84
243.992	54.27
244.209	89.09
244.426	76.8
244.643	64.51
244.86	1.02
245.078	64.51
245.295	56.32
245.512	41.98
245.729	5.12
245.946	60.42
246.163	64.51
246.38	64.51
246.597	66.56
246.814	31.74
247.031	89.09
247.248	31.74
247.464	7.17
247.681	76.8
247.898	109.57
248.115	44.03
248.332	-11.26
248.549	64.51
248.766	58.37
248.983	97.28
249.2	39.94
249.417	87.04
249.633	-13.31
249.85	119.81
250.067	5.12
250.284	72.7
250.501	105.47
250.717	54.27
250.934	80.89
251.151	91.13
251.368	82.94
251.585	11.26
251.801	41.98
252.018	31.74
252.235	113.66
252.451	-3.07
252.668	56.32
252.885	50.18
253.102	84.99
253.318	48.13
253.535	62.46
253.752	56.32
253.968	48.13
254.185	19.46
254.401	72.7
254.618	82.94
254.835	37.89
255.051	189.44
255.268	72.7
255.484	44.03
255.701	39.94
255.917	87.04
256.134	64.51
256.351	117.76
256.567	19.46
256.784	56.32
257	-19.46
257.217	76.8
257.433	130.05
257.65	93.18
257.866	35.84
258.082	48.13
258.299	17.41
258.515	60.42
258.732	-27.65
258.948	11.26
259.165	52.22
259.381	23.55
259.597	64.51
259.814	97.28
260.03	37.89
260.246	25.6
260.463	76.8
260.679	70.65
260.895	31.74
261.112	76.8
261.328	62.46
261.544	23.55
261.761	125.95
261.977	52.22
262.193	15.36
262.409	3.07
262.626	29.7
262.842	78.85
263.058	-9.22
263.274	123.9
263.49	48.13
263.707	76.8
263.923	76.8
264.139	35.84
264.355	68.61
264.571	111.61
264.787	54.27
265.004	95.23
265.22	-13.31
265.436	66.56
265.652	80.89
265.868	76.8
266.084	56.32
266.3	138.24
266.516	-13.31
266.732	-15.36
266.948	68.61
267.164	66.56
267.38	13.31
267.596	23.55
267.812	123.9
268.028	99.33
268.244	19.46
268.46	19.46
268.676	84.99
268.892	95.23
269.108	-17.41
269.324	66.56
269.54	35.84
269.756	89.09
269.972	64.51
270.188	76.8
270.403	-17.41
270.619	123.9
270.835	72.7
271.051	150.53
271.267	80.89
271.483	72.7
271.698	48.13
271.914	37.89
272.13	35.84
272.346	121.85
272.562	58.37
272.777	62.46
272.993	60.42
273.209	68.61
273.425	23.55
273.64	3.07
273.856	107.52
274.072	60.42
274.287	-11.26
274.503	52.22
274.719	89.09
274.934	-5.12
275.15	-33.79
275.366	39.94
275.581	58.37
275.797	50.18
276.012	48.13
276.228	17.41
276.444	-5.12
276.659	66.56
276.875	82.94
277.09	44.03
277.306	13.31
277.521	33.79
277.737	31.74
277.952	119.81
278.168	58.37
278.383	54.27
278.599	50.18
278.814	-58.37
279.03	74.75
279.245	44.03
279.461	46.08
279.676	84.99
279.892	21.5
280.107	52.22
280.322	62.46
280.538	46.08
280.753	-9.22
280.969	72.7
281.184	121.85
281.399	39.94
281.615	66.56
281.83	111.61
282.045	-7.17
282.26	35.84
282.476	70.65
282.691	84.99
282.906	-25.6
283.122	56.32
283.337	78.85
283.552	70.65
283.767	-7.17
283.983	144.38
284.198	44.03
284.413	58.37
284.628	66.56
284.843	64.51
285.058	138.24
285.274	109.57
285.489	3.07
285.704	87.04
285.919	-29.7
286.134	148.48
286.349	11.26
286.564	29.7
286.779	113.66
286.995	95.23
287.21	37.89
287.425	109.57
287.64	-21.5
287.855	99.33
288.07	17.41
288.285	56.32
288.5	89.09
288.715	27.65
288.93	37.89
289.145	60.42
289.36	134.14
289.575	15.36
289.79	23.55
290.004	29.7
290.219	21.5
290.434	62.46
290.649	136.19
290.864	109.57
291.079	50.18
291.294	-5.12
291.509	-13.31
291.724	136.19
291.938	54.27
292.153	66.56
292.368	62.46
292.583	15.36
292.798	82.94
293.012	29.7
293.227	5.12
293.442	48.13
293.657	84.99
293.871	52.22
294.086	35.84
294.301	15.36
294.516	39.94
294.73	138.24
294.945	64.51
295.16	136.19
295.374	78.85
295.589	46.08
295.804	64.51
296.018	64.51
296.233	37.89
296.447	-35.84
296.662	27.65
296.877	62.46
297.091	66.56
297.306	99.33
297.52	72.7
297.735	138.24
297.949	84.99
298.164	89.09
298.378	-9.22
298.593	60.42
298.807	93.18
299.022	105.47
299.236	134.14
299.451	27.65
299.665	46.08
299.88	91.13
300.094	-7.17
300.309	48.13
300.523	29.7
300.737	68.61
300.952	95.23
301.166	-1.02
301.381	80.89
301.595	-5.12
301.809	-29.7
302.024	70.65
302.238	62.46
302.452	82.94
302.667	64.51
302.881	91.13
303.095	-21.5
303.309	109.57
303.524	-9.22
303.738	17.41
303.952	-15.36
304.166	97.28
304.381	64.51
304.595	50.18
304.809	15.36
305.023	17.41
305.237	52.22
305.452	7.17
305.666	3.07
305.88	87.04
306.094	27.65
306.308	84.99
306.522	41.98
306.736	44.03
306.95	89.09
307.164	78.85
307.379	23.55
307.593	101.37
307.807	48.13
308.021	93.18
308.235	33.79
308.449	48.13
308.663	103.42
308.877	93.18
309.091	29.7
309.305	46.08
309.519	105.47
309.733	91.13
309.947	107.52
310.161	31.74
310.374	68.61
310.588	74.75
310.802	23.55
311.016	62.46
311.23	125.95
311.444	44.03
311.658	33.79
311.872	56.32
312.085	54.27
312.299	162.81
312.513	50.18
312.727	97.28
312.941	93.18
313.154	17.41
313.368	-17.41
313.582	50.18
313.796	70.65
314.009	44.03
314.223	78.85
314.437	37.89
314.651	64.51
314.864	64.51
315.078	21.5
315.292	109.57
315.505	-37.89
315.719	46.08
315.933	175.1
316.146	23.55
316.36	35.84
316.573	105.47
316.787	33.79
317.001	74.75
317.214	52.22
317.428	33.79
317.641	21.5
317.855	35.84
318.068	21.5
318.282	62.46
318.495	89.09
318.709	107.52
318.922	78.85
319.136	19.46
319.349	84.99
319.563	3.07
319.776	101.37
319.99	52.22
320.203	95.23
320.417	91.13
320.63	80.89
320.843	33.79
321.057	89.09
321.27	56.32
321.483	7.17
321.697	64.51
321.91	156.67
322.124	84.99
322.337	101.37
322.55	87.04
322.763	66.56
322.977	89.09
323.19	64.51
323.403	-29.7
323.617	70.65
323.83	80.89
324.043	70.65
324.256	84.99
324.469	101.37
324.683	37.89
324.896	113.66
325.109	130.05
325.322	33.79
325.535	11.26
325.748	121.85
325.962	48.13
326.175	87.04
326.388	97.28
326.601	91.13
326.814	105.47
327.027	31.74
327.24	101.37
327.453	37.89
327.666	121.85
327.879	5.12
328.092	105.47
328.305	64.51
328.518	84.99
328.731	27.65
328.944	62.46
329.157	19.46
329.37	99.33
329.583	91.13
329.796	123.9
330.009	56.32
330.222	-39.94
330.435	168.96
330.648	66.56
330.861	134.14
331.073	46.08
331.286	44.03
331.499	-44.03
331.712	27.65
331.925	74.75
332.138	37.89
332.35	109.57
332.563	64.51
332.776	97.28
332.989	56.32
333.202	60.42
333.414	52.22
333.627	89.09
333.84	11.26
334.053	66.56
334.265	119.81
334.478	1.02
334.691	56.32
334.903	48.13
335.116	50.18
335.329	84.99
335.541	93.18
335.754	189.44
335.966	39.94
336.179	121.85
336.392	89.09
336.604	1.02
336.817	113.66
337.029	162.81
337.242	52.22
337.454	68.61
337.667	21.5
337.88	95.23
338.092	91.13
338.305	-1.02
338.517	99.33
338.729	101.37
338.942	74.75
339.154	39.94
339.367	19.46
339.579	76.8
339.792	46.08
340.004	101.37
340.217	62.46
340.429	56.32
340.641	37.89
340.854	99.33
341.066	31.74
341.278	54.27
341.491	146.43
341.703	25.6
341.915	-7.17
342.128	142.33
342.34	21.5
342.552	109.57
342.764	76.8
342.977	72.7
343.189	64.51
343.401	130.05
343.613	56.32
343.826	23.55
344.038	52.22
344.25	105.47
344.462	17.41
344.674	23.55
344.886	91.13
345.099	105.47
345.311	19.46
345.523	25.6
345.735	23.55
345.947	74.75
346.159	23.55
346.371	60.42
346.583	66.56
346.795	84.99
347.007	25.6
347.219	23.55
347.431	33.79
347.643	72.7
347.855	80.89
348.067	66.56
348.279	-5.12
348.491	74.75
348.703	76.8
348.915	35.84
349.127	128
349.339	46.08
349.551	89.09
349.763	39.94
349.975	70.65
350.187	101.37
350.399	132.09
350.61	52.22
350.822	-9.22
351.034	13.31
351.246	134.14
351.458	17.41
351.669	27.65
351.881	136.19
352.093	168.96
352.305	80.89
352.517	60.42
352.728	113.66
352.94	48.13
353.152	58.37
353.363	37.89
353.575	35.84
353.787	33.79
353.999	35.84
354.21	140.29
354.422	82.94
354.633	11.26
354.845	1.02
355.057	52.22
355.268	82.94
355.48	103.42
355.692	9.22
355.903	58.37
356.115	37.89
356.326	82.94
356.538	72.7
356.749	105.47
356.961	105.47
357.172	46.08
357.384	25.6
357.595	119.81
357.807	50.18
358.018	33.79
358.23	23.55
358.441	121.85
358.653	89.09
358.864	-15.36
359.075	-11.26
359.287	17.41
359.498	87.04
359.709	54.27
359.921	95.23
360.132	62.46
360.344	91.13
360.555	23.55
360.766	74.75
360.977	70.65
361.189	107.52
361.4	105.47
361.611	72.7
361.823	-7.17
362.034	97.28
362.245	11.26
362.456	29.7
362.667	109.57
362.879	17.41
363.09	7.17
363.301	78.85
363.512	-19.46
363.723	82.94
363.935	29.7
364.146	125.95
364.357	80.89
364.568	91.13
364.779	11.26
364.99	136.19
365.201	-39.94
365.412	68.61
365.623	89.09
365.834	115.71
366.045	25.6
366.256	113.66
366.467	48.13
366.678	35.84
366.889	72.7
367.1	107.52
367.311	19.46
367.522	27.65
367.733	95.23
367.944	87.04
368.155	39.94
368.366	142.33
368.577	138.24
368.788	130.05
368.999	125.95
369.209	72.7
369.42	27.65
369.631	62.46
369.842	80.89
370.053	25.6
370.264	136.19
370.474	60.42
370.685	87.04
370.896	37.89
371.107	84.99
371.317	56.32
371.528	148.48
371.739	82.94
371.95	39.94
372.16	109.57
372.371	-31.74
372.582	95.23
372.792	99.33
373.003	97.28
373.214	66.56
373.424	123.9
373.635	66.56
373.846	56.32
374.056	89.09
374.267	78.85
374.477	76.8
374.688	123.9
374.898	101.37
375.109	128
375.319	60.42
375.53	144.38
375.74	109.57
375.951	76.8
376.161	52.22
376.372	78.85
376.582	37.89
376.793	17.41
377.003	76.8
377.214	78.85
377.424	111.61
377.635	87.04
377.845	68.61
378.055	130.05
378.266	99.33
378.476	72.7
378.686	54.27
378.897	101.37
379.107	60.42
379.317	7.17
379.528	103.42
379.738	58.37
379.948	72.7
380.158	70.65
380.369	111.61
380.579	93.18
380.789	-29.7
380.999	89.09
381.21	78.85
381.42	72.7
381.63	15.36
381.84	52.22
382.05	76.8
382.261	185.34
382.471	37.89
382.681	27.65
382.891	101.37
383.101	56.32
383.311	64.51
383.521	109.57
383.731	97.28
383.941	101.37
384.151	134.14
384.361	76.8
384.571	68.61
384.781	89.09
384.991	89.09
385.201	91.13
385.411	66.56
385.621	21.5
385.831	117.76
386.041	-13.31
386.251	60.42
386.461	107.52
386.671	95.23
386.881	7.17
387.091	31.74
387.301	70.65
387.511	134.14
387.72	111.61
387.93	99.33
388.14	123.9
388.35	7.17
388.56	44.03
388.769	44.03
388.979	21.5
389.189	66.56
389.399	62.46
389.609	74.75
389.818	91.13
390.028	35.84
390.238	64.51
390.447	99.33
390.657	95.23
390.867	60.42
391.076	15.36
391.286	89.09
391.496	78.85
391.705	91.13
391.915	123.9
392.125	62.46
392.334	66.56
392.544	111.61
392.753	123.9
392.963	39.94
393.172	160.77
393.382	-1.02
393.591	87.04
393.801	82.94
394.01	48.13
394.22	107.52
394.429	125.95
394.639	11.26
394.848	74.75
395.058	142.33
395.267	158.72
395.477	50.18
395.686	64.51
395.895	201.72
396.105	175.1
396.314	140.29
396.524	70.65
396.733	74.75
396.942	175.1
397.152	105.47
397.361	99.33
397.57	1.02
397.78	105.47
397.989	130.05
398.198	205.82
398.407	66.56
398.617	130.05
398.826	89.09
399.035	117.76
399.244	136.19
399.453	117.76
399.663	138.24
399.872	99.33
400.081	76.8
400.29	142.33
400.499	109.57
400.708	162.81
400.917	132.09
401.127	171.01
401.336	140.29
401.545	107.52
401.754	107.52
401.963	105.47
402.172	152.57
402.381	132.09
402.59	132.09
402.799	140.29
403.008	97.28
403.217	60.42
403.426	179.2
403.635	119.81
403.844	93.18
404.053	70.65
404.262	125.95
404.471	168.96
404.68	187.39
404.888	136.19
405.097	97.28
405.306	152.57
405.515	103.42
405.724	216.06
405.933	111.61
406.142	154.62
406.35	148.48
406.559	195.58
406.768	154.62
406.977	119.81
407.185	205.82
407.394	166.91
407.603	173.05
407.812	195.58
408.02	214.01
408.229	185.34
408.438	138.24
408.646	181.25
408.855	250.88
409.064	263.16
409.272	154.62
409.481	279.55
409.69	214.01
409.898	199.68
410.107	205.82
410.315	279.55
410.524	211.96
410.733	291.84
410.941	267.26
411.15	367.61
411.358	349.18
411.567	326.65
411.775	316.41
411.984	336.89
412.192	310.27
412.401	277.5
412.609	361.47
412.818	383.99
413.026	383.99
413.234	371.71
413.443	408.57
413.651	396.28
413.86	508.92
414.068	484.34
414.276	478.2
414.485	539.64
414.693	564.22
414.901	619.51
415.11	560.12
415.318	519.16
415.526	576.5
415.734	615.41
415.943	660.47
416.151	695.29
416.359	619.51
416.567	623.61
416.776	695.29
416.984	711.67
417.192	680.95
417.4	750.58
417.608	857.07
417.817	869.36
418.025	869.36
418.233	895.99
418.441	902.13
418.649	936.95
418.857	957.43
419.065	1059.82
419.273	971.76
419.481	1162.22
419.689	1096.69
419.897	1192.94
420.105	1158.13
420.313	1229.81
420.521	1223.66
420.729	1258.48
420.937	1293.29
421.145	1459.18
421.353	1483.75
421.561	1436.65
421.769	1557.48
421.977	1506.28
422.185	1543.14
422.393	1637.35
422.601	1809.38
422.809	1680.36
423.017	1780.71
423.224	1917.92
423.432	1903.59
423.64	1924.07
423.848	2112.48
424.056	2014.18
424.263	2216.93
424.471	2157.54
424.679	2210.78
424.887	2255.84
425.094	2378.72
425.302	2569.18
425.51	2536.41
425.718	2593.75
425.925	2567.13
426.133	2874.32
426.341	2765.78
426.548	2960.34
426.756	2989.01
426.964	3005.39
427.171	3122.13
427.379	3204.05
427.586	3277.77
427.794	3433.42
428.001	3578.83
428.209	3580.87
428.417	3744.71
428.624	3967.94
428.832	3808.2
429.039	3904.45
429.247	3974.08
429.454	4293.57
429.662	4473.79
429.869	4242.37
430.076	4479.93
430.284	4434.88
430.491	4600.76
430.699	5020.6
430.906	4848.57
431.114	5082.03
431.321	5196.72
431.528	5311.41
431.736	5614.51
431.943	5979.04
432.15	5608.36
432.358	5698.47
432.565	5964.71
432.772	6060.96
432.979	6319.01
433.187	6347.68
433.394	6327.2
433.601	6929.3
433.808	7033.75
434.016	6929.3
434.223	7201.68
434.43	7719.82
434.637	7607.18
434.844	7990.15
435.052	7979.91
435.259	8047.49
435.466	8242.05
435.673	8027.01
435.88	8530.81
436.087	9071.48
436.294	9030.52
436.501	8835.96
436.708	8909.69
436.915	9151.35
437.122	9610.09
437.329	9841.51
437.537	9909.1
437.743	10087.27
437.95	10103.65
438.157	10771.29
438.364	10896.22
438.571	10988.38
438.778	11002.71
438.985	12069.7
439.192	11551.57
439.399	11946.83
439.606	11469.65
439.813	12335.94
440.02	13118.26
440.227	12890.94
440.433	12862.27
440.64	13325.11
440.847	12915.51
441.054	13230.9
441.261	14527.27
441.467	14152.49
441.674	14433.06
441.881	14934.81
442.088	14775.07
442.294	14644
442.501	15411.99
442.708	15598.35
442.914	16020.24
443.121	16571.14
443.328	16249.61
443.534	17433.33
443.741	17136.38
443.948	16706.31
444.154	17877.74
444.361	17609.46
444.568	17910.51
444.774	17715.95
444.981	18303.72
445.187	18572
445.394	19559.13
445.6	18944.73
445.807	21050.05
446.013	19796.69
446.22	20544.2
446.426	21578.42
446.633	21443.26
446.839	22110.89
447.046	21383.87
447.252	22428.33
447.459	22557.35
447.665	22336.17
447.871	23048.86
448.078	24306.32
448.284	23163.55
448.491	23868.05
448.697	24672.9
448.903	25121.41
449.11	25264.77
449.316	24863.36
449.522	25649.78
449.728	25928.31
449.935	26380.91
450.141	25995.89
450.347	26593.9
450.553	25791.09
450.76	26118.77
450.966	27093.6
451.172	26733.16
451.378	27066.98
451.584	26649.19
451.791	27372.13
451.997	27359.84
452.203	27667.03
452.409	27695.71
452.615	27341.41
452.821	26499.69
453.027	26364.53
453.233	27640.41
453.44	26327.66
453.646	26573.42
453.852	27140.71
454.058	27470.43
454.264	26554.99
454.47	27216.48
454.676	26264.18
454.882	27349.6
455.088	24609.42
455.294	25342.59
455.5	25563.77
455.705	25901.68
455.911	24883.84
456.117	24210.06
456.323	23954.07
456.529	22823.59
456.735	23495.32
456.941	23247.52
457.147	22571.69
457.352	21840.56
457.558	21672.63
457.764	21877.43
457.97	21424.83
458.176	20986.56
458.381	20927.17
458.587	19866.32
458.793	19780.31
458.999	18918.11
459.204	20378.31
459.41	19538.65
459.616	18248.43
459.821	18404.07
460.027	18246.38
460.233	17847.02
460.438	17148.67
460.644	17392.37
460.85	16376.58
461.055	16491.27
461.261	16278.28
461.466	15104.79
461.672	14404.39
461.878	15547.15
462.083	14551.84
462.289	14435.11
462.494	14211.88
462.7	13490.99
462.905	13099.83
463.111	13665.07
463.316	13693.74
463.522	13404.98
463.727	13542.19
463.932	13560.63
464.138	13300.53
464.343	13294.39
464.549	12917.56
464.754	13290.29
464.959	13480.75
465.165	13298.49
465.37	12684.09
465.575	12163.91
465.781	12905.28
465.986	12942.14
466.191	12290.88
466.397	12151.62
466.602	11533.14
466.807	12118.86
467.012	12102.47
467.218	12143.43
467.423	11807.56
