Data from USB4F104151__157__11-08-32-630.txt Node

Date: Wed Mar 12 11:08:32 EDT 2025
User: louis
Spectrometer: USB4F10415
Trigger mode: 4
Integration Time (sec): 2.000000E-2
Scans to average: 1
Electric dark correction enabled: true
Nonlinearity correction enabled: false
Boxcar width: 0
XAxis mode: Wavelengths
Number of Pixels in Spectrum: 3648
>>>>>Begin Spectral Data<<<<<
178.204	-35.16
178.424	-35.16
178.644	-35.16
178.864	-63.83
179.084	-37.2
179.304	5.8
179.524	30.38
179.744	36.52
179.964	24.23
180.184	-49.49
180.404	5.8
180.624	1.71
180.844	-31.06
181.064	-57.68
181.283	-37.2
181.503	61.1
181.723	9.9
181.943	-4.44
182.163	110.25
182.383	69.29
182.602	-6.49
182.822	-39.25
183.042	65.19
183.262	79.53
183.482	-14.68
183.701	18.09
183.921	95.91
184.141	75.43
184.361	54.95
184.58	61.1
184.8	28.33
185.02	-8.53
185.239	24.23
185.459	-12.63
185.679	48.81
185.898	79.53
186.118	26.28
186.338	100.01
186.557	38.57
186.777	11.95
186.997	-53.59
187.216	-31.06
187.436	100.01
187.655	42.67
187.875	32.43
188.095	42.67
188.314	24.23
188.534	85.67
188.753	30.38
188.973	87.72
189.192	16.04
189.412	-22.87
189.631	67.24
189.851	28.33
190.07	104.11
190.29	20.14
190.509	3.75
190.729	42.67
190.948	108.2
191.168	140.97
191.387	18.09
191.607	34.47
191.826	50.86
192.045	52.91
192.265	30.38
192.484	3.75
192.704	54.95
192.923	-26.96
193.142	87.72
193.362	-6.49
193.581	36.52
193.8	67.24
194.02	100.01
194.239	-16.73
194.458	81.58
194.678	42.67
194.897	24.23
195.116	57
195.335	18.09
195.555	97.96
195.774	65.19
195.993	30.38
196.212	32.43
196.432	124.58
196.651	20.14
196.87	65.19
197.089	42.67
197.308	61.1
197.528	100.01
197.747	77.48
197.966	38.57
198.185	20.14
198.404	48.81
198.623	40.62
198.842	7.85
199.062	48.81
199.281	89.77
199.5	20.14
199.719	67.24
199.938	36.52
200.157	75.43
200.376	32.43
200.595	57
200.814	-4.44
201.033	16.04
201.252	83.63
201.471	63.15
201.69	61.1
201.909	9.9
202.128	42.67
202.347	22.19
202.566	147.11
202.785	13.99
203.004	38.57
203.223	63.15
203.442	75.43
203.661	34.47
203.879	48.81
204.098	63.15
204.317	34.47
204.536	118.44
204.755	46.76
204.974	93.87
205.193	79.53
205.411	20.14
205.63	28.33
205.849	11.95
206.068	44.71
206.287	-14.68
206.505	28.33
206.724	83.63
206.943	69.29
207.162	9.9
207.381	110.25
207.599	32.43
207.818	71.34
208.037	67.24
208.255	-4.44
208.474	20.14
208.693	104.11
208.911	34.47
209.13	77.48
209.349	48.81
209.567	28.33
209.786	91.82
210.005	30.38
210.223	26.28
210.442	-16.73
210.661	36.52
210.879	48.81
211.098	102.06
211.316	48.81
211.535	46.76
211.753	65.19
211.972	42.67
212.191	83.63
212.409	30.38
212.628	63.15
212.846	18.09
213.065	-14.68
213.283	20.14
213.502	-16.73
213.72	126.63
213.938	30.38
214.157	50.86
214.375	54.95
214.594	30.38
214.812	65.19
215.031	77.48
215.249	52.91
215.467	18.09
215.686	28.33
215.904	48.81
216.122	57
216.341	50.86
216.559	83.63
216.778	34.47
216.996	77.48
217.214	32.43
217.432	-6.49
217.651	-22.87
217.869	30.38
218.087	-10.58
218.306	-8.53
218.524	95.91
218.742	-20.82
218.96	11.95
219.179	79.53
219.397	63.15
219.615	-10.58
219.833	63.15
220.051	77.48
220.27	32.43
220.488	122.54
220.706	9.9
220.924	44.71
221.142	65.19
221.36	18.09
221.578	50.86
221.796	54.95
222.015	-4.44
222.233	9.9
222.451	77.48
222.669	-16.73
222.887	-0.34
223.105	-47.44
223.323	32.43
223.541	16.04
223.759	83.63
223.977	104.11
224.195	26.28
224.413	89.77
224.631	-0.34
224.849	69.29
225.067	34.47
225.285	-8.53
225.503	42.67
225.721	16.04
225.939	-4.44
226.157	34.47
226.375	63.15
226.592	32.43
226.81	32.43
227.028	28.33
227.246	11.95
227.464	1.71
227.682	95.91
227.9	71.34
228.117	36.52
228.335	3.75
228.553	75.43
228.771	42.67
228.989	69.29
229.206	24.23
229.424	71.34
229.642	63.15
229.86	-6.49
230.077	28.33
230.295	61.1
230.513	42.67
230.731	20.14
230.948	67.24
231.166	63.15
231.384	26.28
231.601	61.1
231.819	95.91
232.037	81.58
232.254	52.91
232.472	-24.92
232.689	-45.4
232.907	65.19
233.125	65.19
233.342	32.43
233.56	54.95
233.777	50.86
233.995	65.19
234.213	110.25
234.43	71.34
234.648	48.81
234.865	5.8
235.083	87.72
235.3	3.75
235.518	59.05
235.735	40.62
235.953	48.81
236.17	61.1
236.388	102.06
236.605	20.14
236.822	87.72
237.04	-4.44
237.257	-2.39
237.475	1.71
237.692	108.2
237.909	32.43
238.127	28.33
238.344	11.95
238.562	32.43
238.779	5.8
238.996	34.47
239.214	89.77
239.431	61.1
239.648	83.63
239.865	-4.44
240.083	116.39
240.3	34.47
240.517	-0.34
240.735	42.67
240.952	87.72
241.169	26.28
241.386	26.28
241.603	42.67
241.821	26.28
242.038	73.39
242.255	40.62
242.472	11.95
242.689	-18.77
242.907	52.91
243.124	20.14
243.341	52.91
243.558	36.52
243.775	-16.73
243.992	30.38
244.209	85.67
244.426	44.71
244.643	9.9
244.86	32.43
245.078	91.82
245.295	22.19
245.512	54.95
245.729	-14.68
245.946	32.43
246.163	65.19
246.38	28.33
246.597	34.47
246.814	73.39
247.031	20.14
247.248	61.1
247.464	42.67
247.681	81.58
247.898	126.63
248.115	57
248.332	36.52
248.549	87.72
248.766	93.87
248.983	75.43
249.2	9.9
249.417	91.82
249.633	34.47
249.85	110.25
250.067	57
250.284	81.58
250.501	34.47
250.717	-4.44
250.934	40.62
251.151	30.38
251.368	7.85
251.585	24.23
251.801	67.24
252.018	63.15
252.235	26.28
252.451	-51.54
252.668	50.86
252.885	48.81
253.102	36.52
253.318	-4.44
253.535	-12.63
253.752	93.87
253.968	79.53
254.185	32.43
254.401	120.49
254.618	20.14
254.835	114.34
255.051	61.1
255.268	-0.34
255.484	100.01
255.701	85.67
255.917	11.95
256.134	57
256.351	91.82
256.567	3.75
256.784	77.48
257	46.76
257.217	73.39
257.433	106.15
257.65	79.53
257.866	1.71
258.082	-6.49
258.299	52.91
258.515	40.62
258.732	24.23
258.948	34.47
259.165	77.48
259.381	97.96
259.597	91.82
259.814	81.58
260.03	83.63
260.246	42.67
260.463	79.53
260.679	59.05
260.895	28.33
261.112	126.63
261.328	16.04
261.544	42.67
261.761	77.48
261.977	136.87
262.193	-26.96
262.409	69.29
262.626	136.87
262.842	-8.53
263.058	50.86
263.274	77.48
263.49	75.43
263.707	85.67
263.923	1.71
264.139	63.15
264.355	104.11
264.571	143.02
264.787	50.86
265.004	26.28
265.22	20.14
265.436	57
265.652	50.86
265.868	44.71
266.084	32.43
266.3	140.97
266.516	40.62
266.732	54.95
266.948	73.39
267.164	5.8
267.38	26.28
267.596	52.91
267.812	44.71
268.028	-2.39
268.244	97.96
268.46	22.19
268.676	20.14
268.892	48.81
269.108	7.85
269.324	24.23
269.54	34.47
269.756	67.24
269.972	-29.01
270.188	87.72
270.403	77.48
270.619	65.19
270.835	30.38
271.051	-37.2
271.267	71.34
271.483	42.67
271.698	30.38
271.914	57
272.13	52.91
272.346	-2.39
272.562	-8.53
272.777	50.86
272.993	57
273.209	26.28
273.425	44.71
273.64	89.77
273.856	24.23
274.072	26.28
274.287	-37.2
274.503	67.24
274.719	97.96
274.934	63.15
275.15	-6.49
275.366	95.91
275.581	-8.53
275.797	46.76
276.012	34.47
276.228	73.39
276.444	73.39
276.659	73.39
276.875	11.95
277.09	69.29
277.306	30.38
277.521	67.24
277.737	-35.16
277.952	120.49
278.168	42.67
278.383	54.95
278.599	89.77
278.814	77.48
279.03	32.43
279.245	83.63
279.461	30.38
279.676	67.24
279.892	-47.44
280.107	7.85
280.322	-24.92
280.538	50.86
280.753	-6.49
280.969	22.19
281.184	-0.34
281.399	16.04
281.615	40.62
281.83	63.15
282.045	7.85
282.26	79.53
282.476	65.19
282.691	54.95
282.906	46.76
283.122	114.34
283.337	65.19
283.552	34.47
283.767	36.52
283.983	106.15
284.198	71.34
284.413	110.25
284.628	-18.77
284.843	77.48
285.058	44.71
285.274	-41.3
285.489	-37.2
285.704	26.28
285.919	40.62
286.134	-6.49
286.349	46.76
286.564	22.19
286.779	79.53
286.995	18.09
287.21	75.43
287.425	18.09
287.64	-29.01
287.855	13.99
288.07	5.8
288.285	85.67
288.5	93.87
288.715	16.04
288.93	3.75
289.145	-37.2
289.36	48.81
289.575	89.77
289.79	59.05
290.004	75.43
290.219	16.04
290.434	13.99
290.649	91.82
290.864	-10.58
291.079	65.19
291.294	32.43
291.509	89.77
291.724	-0.34
291.938	73.39
292.153	159.4
292.368	71.34
292.583	91.82
292.798	42.67
293.012	93.87
293.227	50.86
293.442	65.19
293.657	52.91
293.871	40.62
294.086	38.57
294.301	102.06
294.516	87.72
294.73	42.67
294.945	18.09
295.16	69.29
295.374	85.67
295.589	54.95
295.804	65.19
296.018	85.67
296.233	52.91
296.447	59.05
296.662	61.1
296.877	140.97
297.091	77.48
297.306	69.29
297.52	-4.44
297.735	40.62
297.949	1.71
298.164	63.15
298.378	-18.77
298.593	81.58
298.807	32.43
299.022	75.43
299.236	-10.58
299.451	77.48
299.665	83.63
299.88	40.62
300.094	34.47
300.309	77.48
300.523	67.24
300.737	59.05
300.952	59.05
301.166	97.96
301.381	28.33
301.595	18.09
301.809	32.43
302.024	100.01
302.238	61.1
302.452	89.77
302.667	36.52
302.881	104.11
303.095	73.39
303.309	44.71
303.524	40.62
303.738	57
303.952	89.77
304.166	65.19
304.381	26.28
304.595	116.39
304.809	71.34
305.023	46.76
305.237	34.47
305.452	32.43
305.666	118.44
305.88	97.96
306.094	-22.87
306.308	42.67
306.522	102.06
306.736	69.29
306.95	-14.68
307.164	116.39
307.379	87.72
307.593	46.76
307.807	50.86
308.021	42.67
308.235	40.62
308.449	9.9
308.663	143.02
308.877	95.91
309.091	13.99
309.305	128.68
309.519	32.43
309.733	52.91
309.947	34.47
310.161	134.82
310.374	18.09
310.588	46.76
310.802	69.29
311.016	67.24
311.23	59.05
311.444	61.1
311.658	-12.63
311.872	145.06
312.085	83.63
312.299	134.82
312.513	87.72
312.727	67.24
312.941	97.96
313.154	73.39
313.368	42.67
313.582	65.19
313.796	67.24
314.009	122.54
314.223	44.71
314.437	77.48
314.651	20.14
314.864	97.96
315.078	71.34
315.292	3.75
315.505	32.43
315.719	124.58
315.933	59.05
316.146	36.52
316.36	69.29
316.573	118.44
316.787	52.91
317.001	100.01
317.214	104.11
317.428	18.09
317.641	44.71
317.855	59.05
318.068	48.81
318.282	65.19
318.495	108.2
318.709	155.3
318.922	85.67
319.136	26.28
319.349	36.52
319.563	18.09
319.776	61.1
319.99	40.62
320.203	61.1
320.417	52.91
320.63	118.44
320.843	110.25
321.057	48.81
321.27	-18.77
321.483	104.11
321.697	102.06
321.91	77.48
322.124	40.62
322.337	38.57
322.55	50.86
322.763	112.3
322.977	91.82
323.19	143.02
323.403	32.43
323.617	83.63
323.83	46.76
324.043	48.81
324.256	83.63
324.469	18.09
324.683	42.67
324.896	11.95
325.109	91.82
325.322	9.9
325.535	130.73
325.748	85.67
325.962	81.58
326.175	85.67
326.388	71.34
326.601	20.14
326.814	97.96
327.027	24.23
327.24	79.53
327.453	46.76
327.666	79.53
327.879	118.44
328.092	100.01
328.305	75.43
328.518	61.1
328.731	-10.58
328.944	73.39
329.157	54.95
329.37	34.47
329.583	57
329.796	13.99
330.009	89.77
330.222	95.91
330.435	26.28
330.648	65.19
330.861	69.29
331.073	-8.53
331.286	102.06
331.499	93.87
331.712	28.33
331.925	65.19
332.138	1.71
332.35	67.24
332.563	28.33
332.776	97.96
332.989	52.91
333.202	3.75
333.414	81.58
333.627	57
333.84	57
334.053	46.76
334.265	-67.92
334.478	87.72
334.691	-24.92
334.903	106.15
335.116	3.75
335.329	59.05
335.541	122.54
335.754	71.34
335.966	16.04
336.179	75.43
336.392	22.19
336.604	71.34
336.817	77.48
337.029	-6.49
337.242	110.25
337.454	24.23
337.667	52.91
337.88	48.81
338.092	54.95
338.305	57
338.517	-24.92
338.729	77.48
338.942	71.34
339.154	106.15
339.367	22.19
339.579	48.81
339.792	81.58
340.004	20.14
340.217	-0.34
340.429	22.19
340.641	44.71
340.854	34.47
341.066	28.33
341.278	48.81
341.491	63.15
341.703	79.53
341.915	69.29
342.128	42.67
342.34	122.54
342.552	5.8
342.764	149.16
342.977	59.05
343.189	69.29
343.401	81.58
343.613	30.38
343.826	91.82
344.038	48.81
344.25	63.15
344.462	3.75
344.674	57
344.886	97.96
345.099	69.29
345.311	79.53
345.523	149.16
345.735	67.24
345.947	71.34
346.159	16.04
346.371	69.29
346.583	50.86
346.795	102.06
347.007	59.05
347.219	73.39
347.431	85.67
347.643	110.25
347.855	87.72
348.067	104.11
348.279	24.23
348.491	50.86
348.703	26.28
348.915	73.39
349.127	-29.01
349.339	-10.58
349.551	42.67
349.763	44.71
349.975	57
350.187	118.44
350.399	87.72
350.61	40.62
350.822	77.48
351.034	61.1
351.246	38.57
351.458	153.26
351.669	73.39
351.881	50.86
352.093	112.3
352.305	40.62
352.517	20.14
352.728	44.71
352.94	110.25
353.152	28.33
353.363	50.86
353.575	95.91
353.787	50.86
353.999	85.67
354.21	134.82
354.422	79.53
354.633	30.38
354.845	89.77
355.057	79.53
355.268	97.96
355.48	69.29
355.692	65.19
355.903	63.15
356.115	44.71
356.326	44.71
356.538	59.05
356.749	5.8
356.961	69.29
357.172	67.24
357.384	95.91
357.595	48.81
357.807	42.67
358.018	93.87
358.23	61.1
358.441	136.87
358.653	52.91
358.864	54.95
359.075	134.82
359.287	30.38
359.498	59.05
359.709	54.95
359.921	59.05
360.132	20.14
360.344	108.2
360.555	79.53
360.766	83.63
360.977	65.19
361.189	81.58
361.4	61.1
361.611	124.58
361.823	77.48
362.034	36.52
362.245	91.82
362.456	-12.63
362.667	69.29
362.879	11.95
363.09	11.95
363.301	110.25
363.512	30.38
363.723	77.48
363.935	61.1
364.146	71.34
364.357	-37.2
364.568	69.29
364.779	118.44
364.99	65.19
365.201	106.15
365.412	34.47
365.623	34.47
365.834	73.39
366.045	91.82
366.256	32.43
366.467	75.43
366.678	104.11
366.889	48.81
367.1	81.58
367.311	97.96
367.522	67.24
367.733	122.54
367.944	110.25
368.155	65.19
368.366	85.67
368.577	42.67
368.788	85.67
368.999	-2.39
369.209	32.43
369.42	106.15
369.631	104.11
369.842	42.67
370.053	126.63
370.264	104.11
370.474	102.06
370.685	97.96
370.896	26.28
371.107	57
371.317	77.48
371.528	136.87
371.739	40.62
371.95	81.58
372.16	89.77
372.371	67.24
372.582	130.73
372.792	34.47
373.003	104.11
373.214	34.47
373.424	73.39
373.635	52.91
373.846	118.44
374.056	24.23
374.267	100.01
374.477	112.3
374.688	81.58
374.898	48.81
375.109	52.91
375.319	147.11
375.53	102.06
375.74	83.63
375.951	67.24
376.161	61.1
376.372	100.01
376.582	69.29
376.793	126.63
377.003	77.48
377.214	7.85
377.424	75.43
377.635	73.39
377.845	34.47
378.055	102.06
378.266	91.82
378.476	85.67
378.686	32.43
378.897	145.06
379.107	59.05
379.317	28.33
379.528	16.04
379.738	65.19
379.948	54.95
380.158	65.19
380.369	106.15
380.579	69.29
380.789	77.48
380.999	155.3
381.21	104.11
381.42	145.06
381.63	65.19
381.84	106.15
382.05	132.78
382.261	93.87
382.471	85.67
382.681	112.3
382.891	44.71
383.101	97.96
383.311	93.87
383.521	16.04
383.731	81.58
383.941	67.24
384.151	59.05
384.361	52.91
384.571	104.11
384.781	165.54
384.991	140.97
385.201	95.91
385.411	147.11
385.621	106.15
385.831	61.1
386.041	106.15
386.251	134.82
386.461	69.29
386.671	11.95
386.881	95.91
387.091	97.96
387.301	140.97
387.511	44.71
387.72	71.34
387.93	67.24
388.14	26.28
388.35	122.54
388.56	40.62
388.769	40.62
388.979	52.91
389.189	102.06
389.399	106.15
389.609	63.15
389.818	91.82
390.028	93.87
390.238	102.06
390.447	73.39
390.657	134.82
390.867	3.75
391.076	89.77
391.286	32.43
391.496	52.91
391.705	100.01
391.915	134.82
392.125	91.82
392.334	83.63
392.544	110.25
392.753	50.86
392.963	46.76
393.172	112.3
393.382	79.53
393.591	177.83
393.801	26.28
394.01	169.64
394.22	63.15
394.429	116.39
394.639	44.71
394.848	186.02
395.058	140.97
395.267	128.68
395.477	26.28
395.686	138.92
395.895	124.58
396.105	169.64
396.314	155.3
396.524	110.25
396.733	153.26
396.942	153.26
397.152	110.25
397.361	108.2
397.57	61.1
397.78	102.06
397.989	106.15
398.198	143.02
398.407	130.73
398.617	169.64
398.826	95.91
399.035	100.01
399.244	175.78
399.453	151.21
399.663	188.07
399.872	157.35
400.081	157.35
400.29	181.93
400.499	97.96
400.708	198.31
400.917	120.49
401.127	179.88
401.336	75.43
401.545	143.02
401.754	143.02
401.963	200.36
402.172	149.16
402.381	241.32
402.59	118.44
402.799	83.63
403.008	120.49
403.217	155.3
403.426	159.4
403.635	93.87
403.844	138.92
404.053	136.87
404.262	175.78
404.471	222.89
404.68	231.08
404.888	196.26
405.097	134.82
405.306	179.88
405.515	261.8
405.724	181.93
405.933	173.74
406.142	204.46
406.35	241.32
406.559	251.56
406.768	257.7
406.977	194.22
407.185	294.57
407.394	259.75
407.603	317.09
407.812	257.7
408.02	233.13
408.229	288.42
408.438	269.99
408.646	358.05
408.855	308.9
409.064	315.05
409.272	319.14
409.481	317.09
409.69	255.65
409.898	364.2
410.107	423.59
410.315	394.92
410.524	429.73
410.733	439.97
410.941	374.44
411.15	425.64
411.358	507.55
411.567	478.88
411.775	470.69
411.984	530.08
412.192	540.32
412.401	599.71
412.609	579.23
412.818	589.47
413.026	601.76
413.234	630.43
413.443	583.33
413.651	634.53
413.86	638.62
414.068	714.4
414.276	745.12
414.485	798.37
414.693	806.56
414.901	837.28
415.11	872.09
415.318	824.99
415.526	925.34
415.734	970.4
415.943	954.01
416.151	994.97
416.359	972.44
416.567	1058.46
416.776	1054.36
416.984	1154.71
417.192	1255.06
417.4	1138.33
417.608	1240.73
417.817	1345.17
418.025	1318.55
418.233	1437.33
418.441	1304.21
418.649	1416.85
418.857	1480.34
419.065	1668.75
419.273	1394.33
419.481	1681.04
419.689	1793.68
419.897	1810.06
420.105	1871.5
420.313	1871.5
420.521	1988.24
420.729	1908.37
420.937	2057.87
421.145	2057.87
421.353	2205.32
421.561	2381.45
421.769	2336.39
421.977	2463.37
422.185	2363.01
422.393	2610.82
422.601	2682.5
422.809	2719.36
423.017	2844.29
423.224	2772.61
423.432	2999.93
423.64	3067.52
423.848	3264.12
424.056	3288.7
424.263	3391.09
424.471	3339.9
424.679	3528.31
424.887	3772.02
425.094	3677.81
425.302	3866.22
425.51	3831.41
425.718	4120.17
425.925	4052.59
426.133	4306.54
426.341	4552.29
426.548	4689.51
426.756	4648.55
426.964	4752.99
427.171	4982.37
427.379	5078.62
427.586	5330.52
427.794	5285.47
428.001	5617.24
428.209	5889.62
428.417	5776.98
428.624	6356.55
428.832	6307.4
429.039	6391.37
429.247	6334.03
429.454	6749.76
429.662	7159.36
429.869	6721.09
430.076	7194.17
430.284	7067.2
430.491	7376.44
430.699	7749.17
430.906	7734.84
431.114	7810.61
431.321	8109.61
431.528	8390.19
431.736	8883.75
431.943	9147.94
432.15	8996.39
432.358	9090.59
432.565	9709.08
432.772	9391.64
432.979	9983.51
433.187	10255.89
433.394	10360.33
433.601	10896.9
433.808	10896.9
434.016	10888.71
434.223	11329.02
434.43	12115.44
434.637	11886.07
434.844	12463.6
435.052	12940.77
435.259	12576.23
435.466	12844.52
435.673	12787.18
435.88	13671.9
436.087	14380.5
436.294	14376.4
436.501	13809.11
436.708	14144.98
436.915	14579.15
437.122	15314.37
437.329	15351.23
437.537	15740.35
437.743	15951.29
437.95	15640
438.157	16688.56
438.364	17323.43
438.571	17149.35
438.778	17323.43
438.985	19084.68
439.192	18222.48
439.399	18900.36
439.606	18466.19
439.813	19488.13
440.02	20669.81
440.227	20049.27
440.433	20028.79
440.64	20747.63
440.847	20583.79
441.054	21146.98
441.261	22027.61
441.467	22054.23
441.674	22891.85
441.881	23383.37
442.088	23321.93
442.294	22920.52
442.501	23805.25
442.708	24020.28
442.914	25384.23
443.121	25922.85
443.328	25677.09
443.534	27094.29
443.741	26744.08
443.948	25963.81
444.154	28364.03
444.361	27639.04
444.568	27852.03
444.774	27966.72
444.981	28812.53
445.187	29154.54
445.394	30536.92
445.6	29955.3
445.807	32969.91
446.013	31478.99
446.22	31900.87
446.426	33635.5
446.633	33610.92
446.839	34567.32
447.046	33447.08
447.252	34964.63
447.459	34843.8
447.665	34886.81
447.871	36459.65
448.078	37743.72
448.284	36031.62
448.491	37260.4
448.697	38769.76
448.903	39048.28
449.11	39033.94
449.316	37923.94
449.522	39326.8
449.728	40340.55
449.935	40836.16
450.141	40424.51
450.347	41532.46
450.553	40111.17
450.76	40727.61
450.966	41757.74
451.172	41049.14
451.378	42048.55
451.584	41540.66
451.791	42163.24
451.997	42120.23
452.203	42642.46
452.409	42642.46
452.615	42329.12
452.821	41114.68
453.027	40729.66
453.233	42490.91
453.44	40545.34
453.646	41208.89
453.852	41206.84
454.058	41927.72
454.264	40657.98
454.47	41432.11
454.676	40674.37
454.882	41643.06
455.088	38268
455.294	38999.13
455.5	39570.51
455.705	39765.07
455.911	37917.8
456.117	37112.95
456.323	36883.58
456.529	34661.53
456.735	36211.84
456.941	35239.06
457.147	34747.54
457.352	33739.94
457.558	33275.05
457.764	33262.77
457.97	32732.34
458.176	32109.76
458.381	32175.3
458.587	30502.11
458.793	30393.56
458.999	28605.69
459.204	30870.74
459.41	30008.54
459.616	28101.89
459.821	27819.27
460.027	28054.78
460.233	27319.56
460.438	25779.49
460.644	26338.58
460.85	24943.92
461.055	24741.17
461.261	24442.17
461.466	22787.41
461.672	22111.58
461.878	23512.39
462.083	22283.61
462.289	22089.05
462.494	21654.88
462.7	20741.49
462.905	20012.41
463.111	20743.53
463.316	20864.36
463.522	20176.25
463.727	20383.09
463.932	20411.76
464.138	20239.73
464.343	20288.89
464.549	19778.94
464.754	20368.76
464.959	20016.51
465.165	20096.38
465.37	19314.05
465.575	18544.02
465.781	19488.13
465.986	19684.73
466.191	18840.97
466.397	18396.56
466.602	17730.97
466.807	18408.85
467.012	18365.84
