Data from USB4F104151__169__11-08-56-347.txt Node

Date: Wed Mar 12 11:08:56 EDT 2025
User: louis
Spectrometer: USB4F10415
Trigger mode: 4
Integration Time (sec): 2.000000E-2
Scans to average: 1
Electric dark correction enabled: true
Nonlinearity correction enabled: false
Boxcar width: 0
XAxis mode: Wavelengths
Number of Pixels in Spectrum: 3648
>>>>>Begin Spectral Data<<<<<
178.204	-90.96
178.424	-90.96
178.644	-90.96
178.864	-84.82
179.084	-90.96
179.304	9.39
179.524	-15.19
179.744	-35.67
179.964	-17.24
180.184	17.58
180.404	17.58
180.624	5.29
180.844	17.58
181.064	-25.43
181.283	15.53
181.503	11.43
181.723	-0.85
181.943	-54.1
182.163	29.87
182.383	-23.38
182.602	13.48
182.822	-41.81
183.042	42.15
183.262	-54.1
183.482	76.97
183.701	36.01
183.921	-47.96
184.141	-2.9
184.361	109.74
184.58	17.58
184.8	17.58
185.02	15.53
185.239	-31.57
185.459	83.11
185.679	1.19
185.898	36.01
186.118	60.59
186.338	27.82
186.557	40.11
186.777	-45.91
186.997	3.24
187.216	-13.14
187.436	36.01
187.655	83.11
187.875	27.82
188.095	27.82
188.314	44.2
188.534	46.25
188.753	17.58
188.973	-25.43
189.192	-21.33
189.412	33.96
189.631	13.48
189.851	31.91
190.07	33.96
190.29	29.87
190.509	58.54
190.729	-11.09
190.948	48.3
191.168	101.55
191.387	95.4
191.607	-47.96
191.826	-2.9
192.045	-19.29
192.265	-9.05
192.484	-29.52
192.704	-37.72
192.923	-29.52
193.142	85.16
193.362	-13.14
193.581	19.63
193.8	36.01
194.02	56.49
194.239	-39.76
194.458	7.34
194.678	29.87
194.897	74.92
195.116	25.77
195.335	-60.24
195.555	-33.62
195.774	42.15
195.993	3.24
196.212	3.24
196.432	11.43
196.651	76.97
196.87	-13.14
197.089	74.92
197.308	-23.38
197.528	3.24
197.747	50.35
197.966	13.48
198.185	3.24
198.404	-54.1
198.623	52.39
198.842	36.01
199.062	54.44
199.281	42.15
199.5	25.77
199.719	-4.95
199.938	5.29
200.157	17.58
200.376	76.97
200.595	42.15
200.814	-9.05
201.033	9.39
201.252	87.21
201.471	-2.9
201.69	-23.38
201.909	36.01
202.128	11.43
202.347	31.91
202.566	21.67
202.785	64.68
203.004	-4.95
203.223	103.59
203.442	-56.15
203.661	7.34
203.879	1.19
204.098	7.34
204.317	-0.85
204.536	58.54
204.755	-29.52
204.974	40.11
205.193	19.63
205.411	58.54
205.63	-45.91
205.849	33.96
206.068	7.34
206.287	-23.38
206.505	101.55
206.724	15.53
206.943	5.29
207.162	33.96
207.381	40.11
207.599	81.07
207.818	-0.85
208.037	25.77
208.255	-27.48
208.474	13.48
208.693	58.54
208.911	25.77
209.13	85.16
209.349	36.01
209.567	60.59
209.786	68.78
210.005	17.58
210.223	17.58
210.442	13.48
210.661	19.63
210.879	-4.95
211.098	21.67
211.316	-0.85
211.535	40.11
211.753	-11.09
211.972	46.25
212.191	56.49
212.409	3.24
212.628	83.11
212.846	-11.09
213.065	54.44
213.283	97.45
213.502	68.78
213.72	-27.48
213.938	68.78
214.157	-4.95
214.375	31.91
214.594	-21.33
214.812	-29.52
215.031	31.91
215.249	9.39
215.467	7.34
215.686	9.39
215.904	146.6
216.122	52.39
216.341	101.55
216.559	-2.9
216.778	44.2
216.996	62.63
217.214	23.72
217.432	105.64
217.651	17.58
217.869	105.64
218.087	70.83
218.306	-9.05
218.524	50.35
218.742	-31.57
218.96	15.53
219.179	-58.2
219.397	95.4
219.615	29.87
219.833	52.39
220.051	-82.77
220.27	66.73
220.488	7.34
220.706	33.96
220.924	19.63
221.142	-4.95
221.36	-33.62
221.578	83.11
221.796	33.96
222.015	11.43
222.233	62.63
222.451	101.55
222.669	25.77
222.887	83.11
223.105	-39.76
223.323	42.15
223.541	-19.29
223.759	25.77
223.977	11.43
224.195	27.82
224.413	19.63
224.631	3.24
224.849	3.24
225.067	150.7
225.285	15.53
225.503	-9.05
225.721	-54.1
225.939	13.48
226.157	-84.82
226.375	70.83
226.592	-21.33
226.81	-4.95
227.028	72.87
227.246	-2.9
227.464	19.63
227.682	81.07
227.9	76.97
228.117	-13.14
228.335	-31.57
228.553	-25.43
228.771	31.91
228.989	40.11
229.206	-45.91
229.424	76.97
229.642	50.35
229.86	21.67
230.077	62.63
230.295	23.72
230.513	-0.85
230.731	42.15
230.948	-58.2
231.166	48.3
231.384	44.2
231.601	97.45
231.819	103.59
232.037	-29.52
232.254	5.29
232.472	44.2
232.689	-7
232.907	64.68
233.125	23.72
233.342	56.49
233.56	1.19
233.777	-23.38
233.995	9.39
234.213	29.87
234.43	79.02
234.648	33.96
234.865	9.39
235.083	19.63
235.3	-2.9
235.518	36.01
235.735	68.78
235.953	40.11
236.17	7.34
236.388	11.43
236.605	-15.19
236.822	25.77
237.04	29.87
237.257	93.35
237.475	-25.43
237.692	29.87
237.909	31.91
238.127	48.3
238.344	46.25
238.562	13.48
238.779	-58.2
238.996	44.2
239.214	128.17
239.431	46.25
239.648	-2.9
239.865	-2.9
240.083	9.39
240.3	19.63
240.517	105.64
240.735	11.43
240.952	9.39
241.169	42.15
241.386	-47.96
241.603	48.3
241.821	76.97
242.038	60.59
242.255	46.25
242.472	-2.9
242.689	46.25
242.907	48.3
243.124	58.54
243.341	-29.52
243.558	-11.09
243.775	-2.9
243.992	25.77
244.209	-4.95
244.426	124.07
244.643	25.77
244.86	54.44
245.078	52.39
245.295	-2.9
245.512	74.92
245.729	62.63
245.946	-13.14
246.163	31.91
246.38	17.58
246.597	-13.14
246.814	15.53
247.031	68.78
247.248	23.72
247.464	56.49
247.681	-4.95
247.898	50.35
248.115	56.49
248.332	13.48
248.549	144.55
248.766	36.01
248.983	72.87
249.2	33.96
249.417	-0.85
249.633	23.72
249.85	33.96
250.067	31.91
250.284	-19.29
250.501	-4.95
250.717	-41.81
250.934	-2.9
251.151	-15.19
251.368	3.24
251.585	52.39
251.801	13.48
252.018	3.24
252.235	113.83
252.451	95.4
252.668	17.58
252.885	27.82
253.102	23.72
253.318	17.58
253.535	38.06
253.752	48.3
253.968	5.29
254.185	25.77
254.401	27.82
254.618	38.06
254.835	38.06
255.051	58.54
255.268	74.92
255.484	58.54
255.701	11.43
255.917	7.34
256.134	-11.09
256.351	46.25
256.567	3.24
256.784	52.39
257	7.34
257.217	60.59
257.433	54.44
257.65	31.91
257.866	89.26
258.082	58.54
258.299	-15.19
258.515	3.24
258.732	19.63
258.948	17.58
259.165	5.29
259.381	48.3
259.597	33.96
259.814	36.01
260.03	52.39
260.246	48.3
260.463	56.49
260.679	81.07
260.895	-66.39
261.112	17.58
261.328	-25.43
261.544	64.68
261.761	58.54
261.977	150.7
262.193	33.96
262.409	21.67
262.626	11.43
262.842	25.77
263.058	89.26
263.274	1.19
263.49	11.43
263.707	21.67
263.923	13.48
264.139	31.91
264.355	72.87
264.571	36.01
264.787	-52.05
265.004	85.16
265.22	64.68
265.436	9.39
265.652	21.67
265.868	31.91
266.084	15.53
266.3	23.72
266.516	19.63
266.732	64.68
266.948	29.87
267.164	64.68
267.38	79.02
267.596	76.97
267.812	91.31
268.028	31.91
268.244	-43.86
268.46	56.49
268.676	19.63
268.892	99.5
269.108	40.11
269.324	31.91
269.54	-33.62
269.756	97.45
269.972	-25.43
270.188	56.49
270.403	42.15
270.619	56.49
270.835	68.78
271.051	21.67
271.267	19.63
271.483	74.92
271.698	25.77
271.914	44.2
272.13	25.77
272.346	40.11
272.562	-29.52
272.777	46.25
272.993	-7
273.209	9.39
273.425	3.24
273.64	-23.38
273.856	87.21
274.072	-15.19
274.287	-13.14
274.503	11.43
274.719	60.59
274.934	19.63
275.15	64.68
275.366	68.78
275.581	3.24
275.797	17.58
276.012	-27.48
276.228	-33.62
276.444	-25.43
276.659	19.63
276.875	27.82
277.09	27.82
277.306	29.87
277.521	25.77
277.737	9.39
277.952	89.26
278.168	9.39
278.383	44.2
278.599	23.72
278.814	38.06
279.03	56.49
279.245	56.49
279.461	-54.1
279.676	58.54
279.892	44.2
280.107	44.2
280.322	58.54
280.538	23.72
280.753	42.15
280.969	-27.48
281.184	31.91
281.399	72.87
281.615	42.15
281.83	23.72
282.045	21.67
282.26	23.72
282.476	31.91
282.691	79.02
282.906	13.48
283.122	-15.19
283.337	-21.33
283.552	93.35
283.767	1.19
283.983	-15.19
284.198	7.34
284.413	97.45
284.628	-13.14
284.843	46.25
285.058	19.63
285.274	48.3
285.489	-29.52
285.704	-7
285.919	56.49
286.134	-33.62
286.349	-2.9
286.564	-15.19
286.779	58.54
286.995	68.78
287.21	-33.62
287.425	21.67
287.64	-25.43
287.855	27.82
288.07	42.15
288.285	-35.67
288.5	79.02
288.715	11.43
288.93	27.82
289.145	-15.19
289.36	27.82
289.575	101.55
289.79	25.77
290.004	-54.1
290.219	64.68
290.434	7.34
290.649	52.39
290.864	25.77
291.079	109.74
291.294	58.54
291.509	17.58
291.724	50.35
291.938	58.54
292.153	-13.14
292.368	31.91
292.583	-19.29
292.798	107.69
293.012	33.96
293.227	-0.85
293.442	-74.58
293.657	38.06
293.871	107.69
294.086	-29.52
294.301	13.48
294.516	-45.91
294.73	38.06
294.945	81.07
295.16	68.78
295.374	-21.33
295.589	136.36
295.804	54.44
296.018	15.53
296.233	-47.96
296.447	44.2
296.662	83.11
296.877	56.49
297.091	40.11
297.306	58.54
297.52	23.72
297.735	-17.24
297.949	-11.09
298.164	9.39
298.378	66.73
298.593	-50
298.807	36.01
299.022	-19.29
299.236	83.11
299.451	27.82
299.665	81.07
299.88	72.87
300.094	9.39
300.309	11.43
300.523	9.39
300.737	-15.19
300.952	31.91
301.166	11.43
301.381	-37.72
301.595	42.15
301.809	50.35
302.024	76.97
302.238	-17.24
302.452	-11.09
302.667	-95.06
302.881	44.2
303.095	19.63
303.309	21.67
303.524	36.01
303.738	119.98
303.952	58.54
304.166	27.82
304.381	-11.09
304.595	48.3
304.809	-13.14
305.023	64.68
305.237	44.2
305.452	36.01
305.666	19.63
305.88	68.78
306.094	15.53
306.308	29.87
306.522	29.87
306.736	76.97
306.95	3.24
307.164	7.34
307.379	48.3
307.593	46.25
307.807	11.43
308.021	3.24
308.235	-9.05
308.449	27.82
308.663	-11.09
308.877	60.59
309.091	111.78
309.305	60.59
309.519	11.43
309.733	68.78
309.947	42.15
310.161	109.74
310.374	99.5
310.588	21.67
310.802	19.63
311.016	31.91
311.23	-21.33
311.444	7.34
311.658	27.82
311.872	99.5
312.085	27.82
312.299	50.35
312.513	76.97
312.727	-4.95
312.941	11.43
313.154	3.24
313.368	99.5
313.582	31.91
313.796	23.72
314.009	-9.05
314.223	60.59
314.437	15.53
314.651	9.39
314.864	31.91
315.078	-17.24
315.292	-23.38
315.505	-15.19
315.719	62.63
315.933	48.3
316.146	15.53
316.36	36.01
316.573	101.55
316.787	33.96
317.001	11.43
317.214	-17.24
317.428	91.31
317.641	-35.67
317.855	111.78
318.068	15.53
318.282	11.43
318.495	25.77
318.709	36.01
318.922	-9.05
319.136	60.59
319.349	89.26
319.563	25.77
319.776	56.49
319.99	-62.29
320.203	13.48
320.417	-27.48
320.63	54.44
320.843	68.78
321.057	46.25
321.27	48.3
321.483	3.24
321.697	44.2
321.91	68.78
322.124	119.98
322.337	13.48
322.55	58.54
322.763	85.16
322.977	-4.95
323.19	3.24
323.403	54.44
323.617	17.58
323.83	79.02
324.043	-17.24
324.256	48.3
324.469	36.01
324.683	95.4
324.896	11.43
325.109	93.35
325.322	-2.9
325.535	79.02
325.748	128.17
325.962	40.11
326.175	19.63
326.388	146.6
326.601	85.16
326.814	-13.14
327.027	52.39
327.24	-39.76
327.453	-11.09
327.666	119.98
327.879	60.59
328.092	62.63
328.305	33.96
328.518	-15.19
328.731	-0.85
328.944	25.77
329.157	126.12
329.37	15.53
329.583	40.11
329.796	85.16
330.009	23.72
330.222	9.39
330.435	27.82
330.648	113.83
330.861	40.11
331.073	38.06
331.286	31.91
331.499	-0.85
331.712	72.87
331.925	79.02
332.138	68.78
332.35	19.63
332.563	-29.52
332.776	81.07
332.989	58.54
333.202	-19.29
333.414	-52.05
333.627	68.78
333.84	17.58
334.053	68.78
334.265	-11.09
334.478	36.01
334.691	85.16
334.903	64.68
335.116	3.24
335.329	60.59
335.541	5.29
335.754	68.78
335.966	-35.67
336.179	21.67
336.392	-13.14
336.604	40.11
336.817	44.2
337.029	23.72
337.242	19.63
337.454	68.78
337.667	-64.34
337.88	42.15
338.092	79.02
338.305	101.55
338.517	-52.05
338.729	58.54
338.942	74.92
339.154	11.43
339.367	-2.9
339.579	122.02
339.792	44.2
340.004	58.54
340.217	19.63
340.429	109.74
340.641	48.3
340.854	62.63
341.066	15.53
341.278	42.15
341.491	31.91
341.703	56.49
341.915	126.12
342.128	54.44
342.34	79.02
342.552	36.01
342.764	-33.62
342.977	-2.9
343.189	117.93
343.401	3.24
343.613	21.67
343.826	23.72
344.038	3.24
344.25	25.77
344.462	-9.05
344.674	72.87
344.886	31.91
345.099	64.68
345.311	-29.52
345.523	-33.62
345.735	-68.44
345.947	25.77
346.159	111.78
346.371	-9.05
346.583	46.25
346.795	36.01
347.007	7.34
347.219	33.96
347.431	54.44
347.643	29.87
347.855	66.73
348.067	187.56
348.279	-9.05
348.491	50.35
348.703	91.31
348.915	19.63
349.127	13.48
349.339	-9.05
349.551	-4.95
349.763	87.21
349.975	40.11
350.187	27.82
350.399	42.15
350.61	95.4
350.822	60.59
351.034	-9.05
351.246	50.35
351.458	76.97
351.669	79.02
351.881	36.01
352.093	7.34
352.305	44.2
352.517	29.87
352.728	72.87
352.94	-0.85
353.152	17.58
353.363	15.53
353.575	68.78
353.787	64.68
353.999	27.82
354.21	72.87
354.422	68.78
354.633	15.53
354.845	115.88
355.057	21.67
355.268	54.44
355.48	70.83
355.692	42.15
355.903	87.21
356.115	46.25
356.326	5.29
356.538	38.06
356.749	56.49
356.961	83.11
357.172	36.01
357.384	11.43
357.595	130.22
357.807	38.06
358.018	38.06
358.23	-13.14
358.441	56.49
358.653	83.11
358.864	29.87
359.075	-23.38
359.287	21.67
359.498	52.39
359.709	-25.43
359.921	3.24
360.132	-11.09
360.344	33.96
360.555	-7
360.766	31.91
360.977	60.59
361.189	42.15
361.4	42.15
361.611	9.39
361.823	-17.24
362.034	101.55
362.245	-0.85
362.456	29.87
362.667	-2.9
362.879	-4.95
363.09	52.39
363.301	-7
363.512	62.63
363.723	27.82
363.935	54.44
364.146	52.39
364.357	-21.33
364.568	36.01
364.779	17.58
364.99	93.35
365.201	-0.85
365.412	115.88
365.623	48.3
365.834	-39.76
366.045	38.06
366.256	70.83
366.467	81.07
366.678	31.91
366.889	-7
367.1	17.58
367.311	79.02
367.522	42.15
367.733	97.45
367.944	31.91
368.155	-29.52
368.366	23.72
368.577	64.68
368.788	50.35
368.999	-25.43
369.209	62.63
369.42	-0.85
369.631	-4.95
369.842	31.91
370.053	31.91
370.264	101.55
370.474	19.63
370.685	44.2
370.896	40.11
371.107	68.78
371.317	87.21
371.528	3.24
371.739	93.35
371.95	48.3
372.16	58.54
372.371	33.96
372.582	68.78
372.792	44.2
373.003	48.3
373.214	89.26
373.424	56.49
373.635	38.06
373.846	91.31
374.056	76.97
374.267	79.02
374.477	29.87
374.688	5.29
374.898	13.48
375.109	81.07
375.319	62.63
375.53	99.5
375.74	7.34
375.951	130.22
376.161	23.72
376.372	81.07
376.582	21.67
376.793	3.24
377.003	25.77
377.214	68.78
377.424	89.26
377.635	117.93
377.845	48.3
378.055	33.96
378.266	58.54
378.476	31.91
378.686	52.39
378.897	99.5
379.107	56.49
379.317	101.55
379.528	19.63
379.738	42.15
379.948	54.44
380.158	101.55
380.369	33.96
380.579	101.55
380.789	44.2
380.999	54.44
381.21	99.5
381.42	54.44
381.63	74.92
381.84	36.01
382.05	85.16
382.261	29.87
382.471	85.16
382.681	56.49
382.891	7.34
383.101	44.2
383.311	31.91
383.521	15.53
383.731	3.24
383.941	89.26
384.151	33.96
384.361	33.96
384.571	36.01
384.781	48.3
384.991	58.54
385.201	76.97
385.411	79.02
385.621	85.16
385.831	128.17
386.041	128.17
386.251	83.11
386.461	109.74
386.671	-19.29
386.881	101.55
387.091	-9.05
387.301	101.55
387.511	68.78
387.72	58.54
387.93	83.11
388.14	105.64
388.35	17.58
388.56	21.67
388.769	81.07
388.979	76.97
389.189	62.63
389.399	64.68
389.609	31.91
389.818	113.83
390.028	19.63
390.238	-25.43
390.447	3.24
390.657	29.87
390.867	-31.57
391.076	68.78
391.286	76.97
391.496	23.72
391.705	64.68
391.915	40.11
392.125	72.87
392.334	87.21
392.544	13.48
392.753	52.39
392.963	46.25
393.172	11.43
393.382	109.74
393.591	91.31
393.801	44.2
394.01	154.79
394.22	40.11
394.429	72.87
394.639	93.35
394.848	117.93
395.058	64.68
395.267	62.63
395.477	132.26
395.686	91.31
395.895	122.02
396.105	148.65
396.314	64.68
396.524	40.11
396.733	72.87
396.942	95.4
397.152	117.93
397.361	83.11
397.57	11.43
397.78	52.39
397.989	109.74
398.198	101.55
398.407	70.83
398.617	33.96
398.826	113.83
399.035	56.49
399.244	156.84
399.453	87.21
399.663	87.21
399.872	68.78
400.081	93.35
400.29	173.22
400.499	128.17
400.708	130.22
400.917	111.78
401.127	44.2
401.336	115.88
401.545	162.98
401.754	76.97
401.963	64.68
402.172	115.88
402.381	99.5
402.59	113.83
402.799	169.13
403.008	132.26
403.217	132.26
403.426	99.5
403.635	103.59
403.844	89.26
404.053	144.55
404.262	36.01
404.471	140.46
404.68	134.31
404.888	46.25
405.097	158.89
405.306	130.22
405.515	91.31
405.724	144.55
405.933	162.98
406.142	140.46
406.35	130.22
406.559	154.79
406.768	167.08
406.977	179.37
407.185	158.89
407.394	103.59
407.603	117.93
407.812	220.33
408.02	230.57
408.229	195.75
408.438	183.46
408.646	191.66
408.855	152.74
409.064	169.13
409.272	165.03
409.481	208.04
409.69	216.23
409.898	199.85
410.107	218.28
410.315	281.77
410.524	244.9
410.733	259.24
410.941	289.96
411.15	310.44
411.358	318.63
411.567	296.1
411.775	341.16
411.984	275.62
412.192	365.73
412.401	296.1
412.609	375.97
412.818	345.25
413.026	453.8
413.234	326.82
413.443	318.63
413.651	435.36
413.86	410.79
414.068	498.85
414.276	480.42
414.485	476.32
414.693	523.43
414.901	625.83
415.11	576.67
415.318	525.47
415.526	640.16
415.734	646.3
415.943	572.58
416.151	701.6
416.359	629.92
416.567	763.04
416.776	722.08
416.984	748.7
417.192	828.57
417.4	806.05
417.608	773.28
417.817	799.9
418.025	908.44
418.233	959.64
418.441	926.88
418.649	1021.08
418.857	961.69
419.065	1117.34
419.273	1070.23
419.481	1070.23
419.689	1191.06
419.897	1229.98
420.105	1234.07
420.313	1252.5
420.521	1236.12
420.729	1256.6
420.937	1277.08
421.145	1510.55
421.353	1442.96
421.561	1485.97
421.769	1526.93
421.977	1614.99
422.185	1653.91
422.393	1778.83
422.601	1852.56
422.809	1907.85
423.017	1830.03
423.224	1881.23
423.432	1930.38
423.64	1899.66
423.848	2176.14
424.056	2075.79
424.263	2237.58
424.471	2409.61
424.679	2389.13
424.887	2372.74
425.094	2475.14
425.302	2563.2
425.51	2612.35
425.718	2479.24
425.925	2770.05
426.133	2776.19
426.341	2978.94
426.548	3071.1
426.756	3103.87
426.964	3214.46
427.171	3435.64
427.379	3421.3
427.586	3402.87
427.794	3533.94
428.001	3681.39
428.209	3861.62
428.417	3789.94
428.624	4000.88
428.832	4158.57
429.039	4041.84
429.247	3933.29
429.454	4648.04
429.662	4709.47
429.869	4447.33
430.076	4832.35
430.284	4787.3
430.491	4879.46
430.699	5168.22
430.906	5106.78
431.114	4895.84
431.321	5334.11
431.528	5356.63
431.736	5772.37
431.943	6126.67
432.15	6073.42
432.358	5995.6
432.565	6358.09
432.772	6214.73
432.979	6526.02
433.187	6616.13
433.394	6734.92
433.601	7212.09
433.808	7257.15
434.016	7205.95
434.223	7511.1
434.43	7971.89
434.637	7763
434.844	8248.36
435.052	8393.77
435.259	8356.91
435.466	8438.83
435.673	8363.05
435.88	8844.32
436.087	9280.54
436.294	9344.03
436.501	9157.66
436.708	9262.11
436.915	9610.26
437.122	9907.22
437.329	9958.42
437.537	10349.58
437.743	10443.79
437.95	10308.62
438.157	10972.16
438.364	11451.39
438.571	11273.21
438.778	11361.28
438.985	12409.84
439.192	11883.51
439.399	12035.06
439.606	12018.68
439.813	12723.18
440.02	13693.91
440.227	13188.07
440.433	13063.14
440.64	13587.42
440.847	13515.74
441.054	13900.76
441.261	14541.77
441.467	14474.19
441.674	14869.45
441.881	15186.88
442.088	15289.28
442.294	15481.79
442.501	15608.76
442.708	15797.18
442.914	16477.1
443.121	17144.74
443.328	17034.15
443.534	17888.15
443.741	17572.77
443.948	17023.91
444.154	18602.89
444.361	18389.91
444.568	18529.17
444.774	18602.89
444.981	18764.68
445.187	19032.97
445.394	20030.33
445.6	19669.89
445.807	21791.58
446.013	20552.56
446.22	20943.72
446.426	21945.18
446.633	22178.65
446.839	22541.14
447.046	21719.9
447.252	23194.44
447.459	23323.46
447.665	23026.51
447.871	23999.29
448.078	24908.59
448.284	23694.15
448.491	24408.89
448.697	25367.34
448.903	25844.51
449.11	25881.38
449.316	24984.37
449.522	25744.16
449.728	26376.98
449.935	26407.7
450.141	26903.31
450.347	27284.23
450.553	26325.78
450.76	26503.96
450.966	27517.7
451.172	27386.63
451.378	27650.82
451.584	27450.12
451.791	27876.1
451.997	27640.58
452.203	28320.51
452.409	28025.6
452.615	27937.54
452.821	26751.76
453.027	26860.3
453.233	28001.02
453.44	26944.27
453.646	27208.46
453.852	27366.15
454.058	27732.74
454.264	26759.95
454.47	27644.68
454.676	26506.01
454.882	27755.27
455.088	25045.8
455.294	25510.69
455.5	26049.31
455.705	26192.67
455.911	24972.08
456.117	24515.38
456.323	24349.5
456.529	23116.62
456.735	23941.95
456.941	23235.4
457.147	22948.68
457.352	22192.98
457.558	21791.58
457.764	22133.59
457.97	21496.67
458.176	20910.96
458.381	21078.89
458.587	19999.61
458.793	20120.44
458.999	19028.87
459.204	20319.09
459.41	19995.51
459.616	18463.63
459.821	18412.43
460.027	18447.25
460.233	18008.98
460.438	16974.76
460.644	17251.24
460.85	16489.39
461.055	16253.87
461.261	16206.77
461.466	15045.57
461.672	14703.56
461.878	15621.05
462.083	14822.34
462.289	14332.88
462.494	14113.75
462.7	13390.81
462.905	13286.37
463.111	13644.76
463.316	13892.57
463.522	13532.12
463.727	13509.6
463.932	13315.04
464.138	13521.88
464.343	13427.68
464.549	12981.22
464.754	13448.16
464.959	13206.5
465.165	13265.89
465.37	12583.91
465.575	12217.33
465.781	12747.75
465.986	12991.46
466.191	12583.91
466.397	12121.07
466.602	11664.38
466.807	11961.33
467.012	12041.2
467.218	11803.64
467.423	11676.66
467.628	11899.89
467.833	12237.81
