Data from USB4F104151__87__11-06-41-722.txt Node

Date: Wed Mar 12 11:06:41 EDT 2025
User: louis
Spectrometer: USB4F10415
Trigger mode: 4
Integration Time (sec): 2.000000E-2
Scans to average: 1
Electric dark correction enabled: true
Nonlinearity correction enabled: false
Boxcar width: 0
XAxis mode: Wavelengths
Number of Pixels in Spectrum: 3648
>>>>>Begin Spectral Data<<<<<
178.204	-73.21
178.424	-73.21
178.644	-73.21
178.864	-116.22
179.084	-73.21
179.304	18.94
179.524	25.09
179.744	-24.06
179.964	-3.58
180.184	-26.11
180.404	-38.4
180.624	18.94
180.844	41.47
181.064	-26.11
181.283	14.85
181.503	-24.06
181.723	23.04
181.943	6.66
182.163	61.95
182.383	23.04
182.602	47.62
182.822	51.71
183.042	47.62
183.262	35.33
183.482	76.29
183.701	23.04
183.921	39.42
184.141	-40.45
184.361	27.14
184.58	16.9
184.8	-9.73
185.02	-15.87
185.239	23.04
185.459	80.38
185.679	43.52
185.898	-15.87
186.118	55.81
186.338	-36.35
186.557	27.14
186.777	-11.78
186.997	27.14
187.216	37.38
187.436	-1.54
187.655	117.25
187.875	25.09
188.095	-15.87
188.314	61.95
188.534	68.09
188.753	-22.02
188.973	66.05
189.192	86.53
189.412	-3.58
189.631	64
189.851	64
190.07	84.48
190.29	8.7
190.509	61.95
190.729	16.9
190.948	119.29
191.168	53.76
191.387	92.67
191.607	-9.73
191.826	64
192.045	27.14
192.265	-17.92
192.484	12.8
192.704	-34.3
192.923	14.85
193.142	47.62
193.362	-11.78
193.581	18.94
193.8	64
194.02	18.94
194.239	-15.87
194.458	55.81
194.678	25.09
194.897	20.99
195.116	0.51
195.335	27.14
195.555	-1.54
195.774	72.19
195.993	23.04
196.212	37.38
196.432	59.9
196.651	2.56
196.87	39.42
197.089	35.33
197.308	64
197.528	-3.58
197.747	-5.63
197.966	0.51
198.185	78.33
198.404	43.52
198.623	16.9
198.842	23.04
199.062	53.76
199.281	29.18
199.5	51.71
199.719	23.04
199.938	-1.54
200.157	109.05
200.376	31.23
200.595	100.86
200.814	31.23
201.033	0.51
201.252	41.47
201.471	68.09
201.69	59.9
201.909	35.33
202.128	98.81
202.347	-11.78
202.566	-22.02
202.785	-11.78
203.004	-11.78
203.223	80.38
203.442	-7.68
203.661	-7.68
203.879	25.09
204.098	37.38
204.317	43.52
204.536	6.66
204.755	84.48
204.974	6.66
205.193	14.85
205.411	55.81
205.63	23.04
205.849	29.18
206.068	0.51
206.287	12.8
206.505	78.33
206.724	33.28
206.943	20.99
207.162	64
207.381	59.9
207.599	-7.68
207.818	-42.5
208.037	25.09
208.255	8.7
208.474	12.8
208.693	115.2
208.911	-13.82
209.13	88.57
209.349	-5.63
209.567	96.77
209.786	88.57
210.005	-22.02
210.223	-11.78
210.442	51.71
210.661	41.47
210.879	2.56
211.098	4.61
211.316	-17.92
211.535	98.81
211.753	20.99
211.972	74.24
212.191	68.09
212.409	41.47
212.628	35.33
212.846	-11.78
213.065	-1.54
213.283	27.14
213.502	27.14
213.72	43.52
213.938	68.09
214.157	88.57
214.375	29.18
214.594	-30.21
214.812	-9.73
215.031	90.62
215.249	33.28
215.467	61.95
215.686	45.57
215.904	43.52
216.122	2.56
216.341	31.23
216.559	4.61
216.778	72.19
216.996	31.23
217.214	-52.74
217.432	-58.88
217.651	90.62
217.869	-65.02
218.087	154.11
218.306	80.38
218.524	2.56
218.742	6.66
218.96	16.9
219.179	2.56
219.397	14.85
219.615	47.62
219.833	-7.68
220.051	-30.21
220.27	115.2
220.488	49.66
220.706	76.29
220.924	27.14
221.142	27.14
221.36	51.71
221.578	-50.69
221.796	47.62
222.015	-67.07
222.233	-11.78
222.451	20.99
222.669	-38.4
222.887	66.05
223.105	-1.54
223.323	10.75
223.541	-13.82
223.759	84.48
223.977	111.1
224.195	51.71
224.413	6.66
224.631	47.62
224.849	78.33
225.067	76.29
225.285	41.47
225.503	31.23
225.721	14.85
225.939	39.42
226.157	107.01
226.375	113.15
226.592	-26.11
226.81	88.57
227.028	27.14
227.246	100.86
227.464	31.23
227.682	-3.58
227.9	55.81
228.117	-30.21
228.335	-13.82
228.553	33.28
228.771	111.1
228.989	29.18
229.206	-26.11
229.424	49.66
229.642	-11.78
229.86	78.33
230.077	39.42
230.295	66.05
230.513	2.56
230.731	23.04
230.948	25.09
231.166	39.42
231.384	66.05
231.601	59.9
231.819	86.53
232.037	18.94
232.254	-40.45
232.472	131.58
232.689	8.7
232.907	39.42
233.125	-1.54
233.342	25.09
233.56	37.38
233.777	-15.87
233.995	47.62
234.213	25.09
234.43	37.38
234.648	-7.68
234.865	-1.54
235.083	27.14
235.3	51.71
235.518	59.9
235.735	125.44
235.953	47.62
236.17	4.61
236.388	41.47
236.605	10.75
236.822	70.14
237.04	29.18
237.257	18.94
237.475	16.9
237.692	49.66
237.909	20.99
238.127	64
238.344	-40.45
238.562	72.19
238.779	125.44
238.996	45.57
239.214	72.19
239.431	43.52
239.648	16.9
239.865	33.28
240.083	43.52
240.3	-44.54
240.517	41.47
240.735	80.38
240.952	10.75
241.169	-19.97
241.386	37.38
241.603	84.48
241.821	18.94
242.038	0.51
242.255	37.38
242.472	-7.68
242.689	-56.83
242.907	-15.87
243.124	31.23
243.341	-30.21
243.558	57.86
243.775	68.09
243.992	31.23
244.209	37.38
244.426	80.38
244.643	18.94
244.86	-5.63
245.078	37.38
245.295	35.33
245.512	41.47
245.729	12.8
245.946	4.61
246.163	10.75
246.38	123.39
246.597	76.29
246.814	39.42
247.031	33.28
247.248	47.62
247.464	39.42
247.681	-5.63
247.898	41.47
248.115	0.51
248.332	45.57
248.549	61.95
248.766	66.05
248.983	64
249.2	68.09
249.417	31.23
249.633	18.94
249.85	49.66
250.067	25.09
250.284	10.75
250.501	104.96
250.717	10.75
250.934	43.52
251.151	10.75
251.368	107.01
251.585	-17.92
251.801	49.66
252.018	-3.58
252.235	45.57
252.451	49.66
252.668	51.71
252.885	59.9
253.102	45.57
253.318	45.57
253.535	27.14
253.752	55.81
253.968	47.62
254.185	49.66
254.401	80.38
254.618	12.8
254.835	31.23
255.051	137.73
255.268	80.38
255.484	39.42
255.701	-13.82
255.917	6.66
256.134	-38.4
256.351	18.94
256.567	51.71
256.784	25.09
257	88.57
257.217	107.01
257.433	0.51
257.65	-17.92
257.866	27.14
258.082	8.7
258.299	8.7
258.515	113.15
258.732	-26.11
258.948	-28.16
259.165	88.57
259.381	12.8
259.597	41.47
259.814	53.76
260.03	59.9
260.246	20.99
260.463	76.29
260.679	88.57
260.895	94.72
261.112	12.8
261.328	14.85
261.544	-17.92
261.761	55.81
261.977	37.38
262.193	143.87
262.409	74.24
262.626	-30.21
262.842	33.28
263.058	86.53
263.274	113.15
263.49	64
263.707	55.81
263.923	55.81
264.139	53.76
264.355	47.62
264.571	43.52
264.787	-11.78
265.004	29.18
265.22	35.33
265.436	43.52
265.652	55.81
265.868	25.09
266.084	37.38
266.3	-1.54
266.516	-11.78
266.732	35.33
266.948	104.96
267.164	66.05
267.38	-13.82
267.596	43.52
267.812	64
268.028	47.62
268.244	-1.54
268.46	10.75
268.676	37.38
268.892	-9.73
269.108	51.71
269.324	-48.64
269.54	72.19
269.756	109.05
269.972	33.28
270.188	55.81
270.403	-11.78
270.619	68.09
270.835	47.62
271.051	18.94
271.267	-30.21
271.483	133.63
271.698	70.14
271.914	18.94
272.13	4.61
272.346	-22.02
272.562	10.75
272.777	57.86
272.993	35.33
273.209	37.38
273.425	12.8
273.64	66.05
273.856	2.56
274.072	31.23
274.287	29.18
274.503	41.47
274.719	16.9
274.934	27.14
275.15	-5.63
275.366	6.66
275.581	-19.97
275.797	20.99
276.012	16.9
276.228	27.14
276.444	31.23
276.659	10.75
276.875	-22.02
277.09	18.94
277.306	23.04
277.521	92.67
277.737	98.81
277.952	-1.54
278.168	-42.5
278.383	61.95
278.599	6.66
278.814	107.01
279.03	-24.06
279.245	72.19
279.461	27.14
279.676	55.81
279.892	18.94
280.107	35.33
280.322	6.66
280.538	12.8
280.753	-7.68
280.969	80.38
281.184	20.99
281.399	10.75
281.615	80.38
281.83	47.62
282.045	25.09
282.26	88.57
282.476	4.61
282.691	49.66
282.906	72.19
283.122	41.47
283.337	4.61
283.552	80.38
283.767	-1.54
283.983	6.66
284.198	43.52
284.413	59.9
284.628	0.51
284.843	68.09
285.058	25.09
285.274	102.91
285.489	-5.63
285.704	68.09
285.919	2.56
286.134	113.15
286.349	6.66
286.564	23.04
286.779	25.09
286.995	14.85
287.21	6.66
287.425	33.28
287.64	33.28
287.855	-24.06
288.07	84.48
288.285	29.18
288.5	72.19
288.715	20.99
288.93	37.38
289.145	-42.5
289.36	88.57
289.575	14.85
289.79	64
290.004	96.77
290.219	61.95
290.434	27.14
290.649	70.14
290.864	39.42
291.079	35.33
291.294	82.43
291.509	16.9
291.724	51.71
291.938	29.18
292.153	55.81
292.368	125.44
292.583	92.67
292.798	35.33
293.012	-7.68
293.227	31.23
293.442	0.51
293.657	35.33
293.871	18.94
294.086	74.24
294.301	20.99
294.516	61.95
294.73	10.75
294.945	-38.4
295.16	23.04
295.374	96.77
295.589	-9.73
295.804	-3.58
296.018	39.42
296.233	16.9
296.447	41.47
296.662	6.66
296.877	25.09
297.091	35.33
297.306	16.9
297.52	49.66
297.735	64
297.949	76.29
298.164	107.01
298.378	14.85
298.593	80.38
298.807	25.09
299.022	86.53
299.236	18.94
299.451	43.52
299.665	47.62
299.88	16.9
300.094	18.94
300.309	-32.26
300.523	39.42
300.737	55.81
300.952	94.72
301.166	23.04
301.381	20.99
301.595	2.56
301.809	80.38
302.024	29.18
302.238	49.66
302.452	55.81
302.667	16.9
302.881	35.33
303.095	41.47
303.309	133.63
303.524	29.18
303.738	43.52
303.952	47.62
304.166	51.71
304.381	64
304.595	59.9
304.809	49.66
305.023	84.48
305.237	27.14
305.452	82.43
305.666	90.62
305.88	29.18
306.094	39.42
306.308	66.05
306.522	68.09
306.736	61.95
306.95	59.9
307.164	61.95
307.379	61.95
307.593	55.81
307.807	59.9
308.021	35.33
308.235	39.42
308.449	39.42
308.663	45.57
308.877	16.9
309.091	31.23
309.305	-1.54
309.519	-32.26
309.733	49.66
309.947	64
310.161	25.09
310.374	27.14
310.588	27.14
310.802	49.66
311.016	20.99
311.23	98.81
311.444	43.52
311.658	53.76
311.872	55.81
312.085	37.38
312.299	96.77
312.513	-5.63
312.727	66.05
312.941	-9.73
313.154	-30.21
313.368	18.94
313.582	72.19
313.796	12.8
314.009	61.95
314.223	66.05
314.437	59.9
314.651	4.61
314.864	25.09
315.078	6.66
315.292	31.23
315.505	16.9
315.719	18.94
315.933	-1.54
316.146	59.9
316.36	117.25
316.573	123.39
316.787	94.72
317.001	74.24
317.214	76.29
317.428	33.28
317.641	-26.11
317.855	-22.02
318.068	72.19
318.282	35.33
318.495	66.05
318.709	76.29
318.922	-26.11
319.136	72.19
319.349	-38.4
319.563	39.42
319.776	39.42
319.99	47.62
320.203	18.94
320.417	31.23
320.63	59.9
320.843	37.38
321.057	88.57
321.27	35.33
321.483	12.8
321.697	139.77
321.91	6.66
322.124	29.18
322.337	49.66
322.55	18.94
322.763	33.28
322.977	-1.54
323.19	14.85
323.403	57.86
323.617	25.09
323.83	49.66
324.043	64
324.256	74.24
324.469	2.56
324.683	55.81
324.896	8.7
325.109	115.2
325.322	4.61
325.535	12.8
325.748	37.38
325.962	6.66
326.175	72.19
326.388	43.52
326.601	115.2
326.814	43.52
327.027	45.57
327.24	68.09
327.453	20.99
327.666	86.53
327.879	133.63
328.092	45.57
328.305	35.33
328.518	68.09
328.731	49.66
328.944	25.09
329.157	39.42
329.37	43.52
329.583	37.38
329.796	78.33
330.009	43.52
330.222	29.18
330.435	80.38
330.648	74.24
330.861	25.09
331.073	-50.69
331.286	-15.87
331.499	88.57
331.712	14.85
331.925	74.24
332.138	4.61
332.35	47.62
332.563	78.33
332.776	80.38
332.989	-1.54
333.202	51.71
333.414	23.04
333.627	76.29
333.84	129.53
334.053	18.94
334.265	12.8
334.478	72.19
334.691	49.66
334.903	-13.82
335.116	12.8
335.329	109.05
335.541	-36.35
335.754	14.85
335.966	59.9
336.179	94.72
336.392	2.56
336.604	35.33
336.817	137.73
337.029	90.62
337.242	6.66
337.454	43.52
337.667	100.86
337.88	18.94
338.092	98.81
338.305	51.71
338.517	35.33
338.729	12.8
338.942	107.01
339.154	70.14
339.367	57.86
339.579	115.2
339.792	2.56
340.004	25.09
340.217	111.1
340.429	31.23
340.641	59.9
340.854	39.42
341.066	-13.82
341.278	133.63
341.491	66.05
341.703	39.42
341.915	-13.82
342.128	90.62
342.34	70.14
342.552	27.14
342.764	55.81
342.977	-46.59
343.189	47.62
343.401	-17.92
343.613	59.9
343.826	84.48
344.038	8.7
344.25	117.25
344.462	37.38
344.674	43.52
344.886	72.19
345.099	88.57
345.311	64
345.523	37.38
345.735	27.14
345.947	125.44
346.159	66.05
346.371	41.47
346.583	37.38
346.795	35.33
347.007	-24.06
347.219	10.75
347.431	96.77
347.643	76.29
347.855	131.58
348.067	102.91
348.279	92.67
348.491	61.95
348.703	27.14
348.915	88.57
349.127	16.9
349.339	70.14
349.551	-1.54
349.763	113.15
349.975	94.72
350.187	90.62
350.399	14.85
350.61	35.33
350.822	129.53
351.034	68.09
351.246	41.47
351.458	55.81
351.669	59.9
351.881	57.86
352.093	4.61
352.305	88.57
352.517	-15.87
352.728	61.95
352.94	133.63
353.152	53.76
353.363	18.94
353.575	35.33
353.787	16.9
353.999	76.29
354.21	35.33
354.422	25.09
354.633	35.33
354.845	82.43
355.057	88.57
355.268	-24.06
355.48	-9.73
355.692	64
355.903	-32.26
356.115	55.81
356.326	43.52
356.538	123.39
356.749	76.29
356.961	59.9
357.172	43.52
357.384	55.81
357.595	45.57
357.807	41.47
358.018	43.52
358.23	92.67
358.441	141.82
358.653	74.24
358.864	23.04
359.075	92.67
359.287	33.28
359.498	76.29
359.709	80.38
359.921	121.34
360.132	-1.54
360.344	4.61
360.555	90.62
360.766	125.44
360.977	4.61
361.189	39.42
361.4	27.14
361.611	84.48
361.823	61.95
362.034	23.04
362.245	80.38
362.456	43.52
362.667	53.76
362.879	37.38
363.09	-3.58
363.301	66.05
363.512	41.47
363.723	39.42
363.935	70.14
364.146	18.94
364.357	66.05
364.568	70.14
364.779	66.05
364.99	86.53
365.201	-13.82
365.412	35.33
365.623	20.99
365.834	0.51
366.045	-36.35
366.256	-3.58
366.467	8.7
366.678	31.23
366.889	45.57
367.1	98.81
367.311	86.53
367.522	49.66
367.733	37.38
367.944	107.01
368.155	-44.54
368.366	104.96
368.577	80.38
368.788	47.62
368.999	51.71
369.209	82.43
369.42	145.92
369.631	84.48
369.842	-5.63
370.053	51.71
370.264	76.29
370.474	29.18
370.685	8.7
370.896	14.85
371.107	55.81
371.317	121.34
371.528	47.62
371.739	76.29
371.95	68.09
372.16	59.9
372.371	84.48
372.582	47.62
372.792	86.53
373.003	16.9
373.214	64
373.424	119.29
373.635	39.42
373.846	55.81
374.056	-1.54
374.267	72.19
374.477	33.28
374.688	47.62
374.898	37.38
375.109	57.86
375.319	51.71
375.53	53.76
375.74	119.29
375.951	4.61
376.161	55.81
376.372	10.75
376.582	61.95
376.793	94.72
377.003	-13.82
377.214	68.09
377.424	10.75
377.635	66.05
377.845	25.09
378.055	90.62
378.266	61.95
378.476	100.86
378.686	76.29
378.897	0.51
379.107	12.8
379.317	92.67
379.528	121.34
379.738	135.68
379.948	84.48
380.158	82.43
380.369	53.76
380.579	92.67
380.789	68.09
380.999	16.9
381.21	88.57
381.42	86.53
381.63	82.43
381.84	137.73
382.05	66.05
382.261	72.19
382.471	51.71
382.681	43.52
382.891	84.48
383.101	70.14
383.311	41.47
383.521	33.28
383.731	117.25
383.941	20.99
384.151	39.42
384.361	96.77
384.571	82.43
384.781	6.66
384.991	14.85
385.201	84.48
385.411	88.57
385.621	27.14
385.831	94.72
386.041	92.67
386.251	72.19
386.461	84.48
386.671	113.15
386.881	94.72
387.091	16.9
387.301	14.85
387.511	51.71
387.72	-7.68
387.93	84.48
388.14	90.62
388.35	115.2
388.56	96.77
388.769	68.09
388.979	74.24
389.189	57.86
389.399	47.62
389.609	57.86
389.818	45.57
390.028	68.09
390.238	14.85
390.447	82.43
390.657	53.76
390.867	47.62
391.076	-3.58
391.286	84.48
391.496	53.76
391.705	53.76
391.915	117.25
392.125	94.72
392.334	96.77
392.544	129.53
392.753	94.72
392.963	35.33
393.172	84.48
393.382	82.43
393.591	102.91
393.801	35.33
394.01	123.39
394.22	131.58
394.429	154.11
394.639	18.94
394.848	133.63
395.058	43.52
395.267	158.21
395.477	53.76
395.686	107.01
395.895	70.14
396.105	76.29
396.314	147.97
396.524	6.66
396.733	61.95
396.942	117.25
397.152	139.77
397.361	113.15
397.57	107.01
397.78	141.82
397.989	102.91
398.198	113.15
398.407	29.18
398.617	109.05
398.826	84.48
399.035	197.12
399.244	127.49
399.453	88.57
399.663	141.82
399.872	123.39
400.081	143.87
400.29	135.68
400.499	109.05
400.708	125.44
400.917	170.49
401.127	82.43
401.336	72.19
401.545	115.2
401.754	117.25
401.963	168.45
402.172	92.67
402.381	51.71
402.59	102.91
402.799	107.01
403.008	137.73
403.217	94.72
403.426	147.97
403.635	111.1
403.844	53.76
404.053	80.38
404.262	127.49
404.471	227.84
404.68	240.12
404.888	180.73
405.097	92.67
405.306	174.59
405.515	178.69
405.724	166.4
405.933	133.63
406.142	158.21
406.35	195.07
406.559	215.55
406.768	133.63
406.977	250.36
407.185	229.88
407.394	195.07
407.603	219.64
407.812	213.5
408.02	182.78
408.229	207.36
408.438	150.01
408.646	295.42
408.855	217.6
409.064	215.55
409.272	211.45
409.481	262.65
409.69	320
409.898	285.18
410.107	354.81
410.315	371.19
410.524	336.38
410.733	320
410.941	307.71
411.15	420.35
411.358	442.87
411.567	430.59
411.775	381.43
411.984	442.87
412.192	375.29
412.401	434.68
412.609	492.02
412.818	469.5
413.026	475.64
413.234	592.37
413.443	526.84
413.651	557.56
413.86	600.57
414.068	582.14
414.276	633.33
414.485	623.09
414.693	668.15
414.901	678.39
415.11	702.97
415.318	770.55
415.526	698.87
415.734	770.55
415.943	723.44
416.151	848.37
416.359	801.27
416.567	735.73
416.776	891.38
416.984	979.44
417.192	918
417.4	942.58
417.608	967.15
417.817	1063.41
418.025	1032.69
418.233	1229.29
418.441	1182.19
418.649	1219.05
418.857	1159.66
419.065	1257.96
419.273	1180.14
419.481	1395.18
419.689	1419.75
419.897	1518.06
420.105	1528.3
420.313	1604.07
420.521	1593.83
420.729	1718.76
420.937	1743.33
421.145	1669.61
421.353	1880.55
421.561	1866.21
421.769	1886.69
421.977	2054.62
422.185	2034.14
422.393	2058.72
422.601	2222.56
422.809	2275.81
423.017	2288.09
423.224	2413.02
423.432	2419.16
423.64	2423.26
423.848	2761.17
424.056	2689.49
424.263	2974.16
424.471	2867.67
424.679	3049.94
424.887	3148.24
425.094	3221.97
425.302	3097.04
425.51	3262.93
425.718	3285.45
425.925	3391.95
426.133	3518.92
426.341	3807.69
426.548	3877.32
426.756	3875.27
426.964	3930.56
427.171	4207.04
427.379	4450.75
427.586	4303.29
427.794	4497.85
428.001	4676.02
428.209	4934.07
428.417	4792.76
428.624	5226.93
428.832	5202.35
429.039	5276.08
429.247	5259.7
429.454	5646.76
429.662	6066.6
429.869	5497.26
430.076	6125.99
430.284	5890.47
430.491	6261.15
430.699	6461.85
430.906	6525.34
431.114	6490.52
431.321	6787.48
431.528	6986.13
431.736	7272.85
431.943	7772.55
432.15	7365.01
432.358	7670.15
432.565	7954.82
432.772	8104.32
432.979	8411.52
433.187	8632.7
433.394	8653.18
433.601	9165.17
433.808	9175.41
434.016	9062.77
434.223	9552.24
434.43	10115.43
434.637	9908.58
434.844	10568.03
435.052	10740.06
435.259	10371.43
435.466	10697.05
435.673	10543.46
435.88	11448.66
436.087	11901.26
436.294	12056.9
436.501	11706.7
436.708	11770.19
436.915	12190.02
437.122	12949.82
437.329	12779.84
437.537	12984.63
437.743	13326.64
437.95	13330.74
438.157	13953.32
438.364	14606.63
438.571	14324.01
438.778	14407.97
438.985	15761.68
439.192	14905.63
439.399	15700.24
439.606	15610.13
439.813	16195.85
440.02	17527.03
440.227	16638.21
440.433	16853.25
440.64	17119.48
440.847	17285.37
441.054	17713.39
441.261	18843.87
441.467	18551.01
441.674	19214.55
441.881	19673.3
442.088	19333.34
442.294	19144.92
442.501	20181.2
442.708	20275.4
442.914	21074.11
443.121	22177.97
443.328	21491.9
443.534	22898.85
443.741	22161.58
443.948	22075.57
444.154	23877.78
444.361	23777.43
444.568	23507.1
444.774	23738.52
444.981	24000.66
445.187	24793.22
445.394	25725.05
445.6	25206.91
445.807	27773.02
446.013	26861.67
446.22	26671.21
446.426	28272.72
446.633	28237.91
446.839	29247.55
447.046	27891.8
447.252	29564.99
447.459	29595.71
447.665	29595.71
447.871	30744.62
448.078	31825.95
448.284	30666.8
448.491	31510.56
448.697	32880.65
448.903	32921.61
449.11	33062.92
449.316	32796.68
449.522	33249.28
449.728	33888.25
449.935	34506.74
450.141	34273.27
450.347	34523.12
450.553	34068.47
450.76	34320.37
450.966	35264.49
451.172	35069.93
451.378	36059.1
451.584	35188.71
451.791	35870.68
451.997	35354.6
452.203	36270.04
452.409	35987.42
452.615	35968.99
452.821	34643.95
453.027	34435.06
453.233	36063.19
453.44	34490.35
453.646	34967.53
453.852	35434.47
454.058	35643.36
454.264	34430.96
454.47	35225.57
454.676	34676.72
454.882	35620.83
455.088	32452.62
455.294	32782.35
455.5	33275.91
455.705	33906.68
455.911	32491.54
456.117	31873.05
456.323	31426.59
456.529	29532.22
456.735	30736.43
456.941	30052.41
457.147	29462.59
457.352	28731.47
457.558	28135.51
457.764	28477.52
457.97	27988.05
458.176	27256.93
458.381	27086.95
458.587	25882.74
458.793	25720.95
458.999	24641.67
459.204	26146.93
459.41	25409.66
459.616	24158.35
459.821	23863.44
460.027	23765.14
460.233	23107.74
460.438	21956.78
460.644	22327.47
460.85	21698.74
461.055	21072.06
461.261	21201.08
461.466	19400.92
461.672	18643.17
461.878	20302.03
462.083	18880.74
462.289	18495.72
462.494	18352.36
462.7	17434.87
462.905	17123.58
463.111	17733.87
463.316	17834.22
463.522	17246.46
463.727	17246.46
463.932	17238.26
464.138	17250.55
464.343	17236.22
464.549	16771.33
464.754	17467.64
464.959	17154.3
465.165	17289.46
465.37	16439.56
465.575	15966.48
465.781	16664.83
465.986	16572.68
466.191	16146.7
466.397	15610.13
466.602	14991.64
466.807	15436.05
467.012	15671.57
467.218	15655.19
467.423	15362.33
467.628	15515.92
467.833	16122.12
468.038	15515.92
468.244	15149.34
