Data from USB4F104151__143__11-08-11-631.txt Node

Date: Wed Mar 12 11:08:11 EDT 2025
User: louis
Spectrometer: USB4F10415
Trigger mode: 4
Integration Time (sec): 2.000000E-2
Scans to average: 1
Electric dark correction enabled: true
Nonlinearity correction enabled: false
Boxcar width: 0
XAxis mode: Wavelengths
Number of Pixels in Spectrum: 3648
>>>>>Begin Spectral Data<<<<<
178.204	-80.55
178.424	-80.55
178.644	-80.55
178.864	-70.31
179.084	7.51
179.304	30.04
179.524	-33.45
179.744	-37.55
179.964	21.85
180.184	19.8
180.404	32.08
180.624	19.8
180.844	-15.02
181.064	-21.16
181.283	-37.55
181.503	32.08
181.723	-10.92
181.943	-21.16
182.163	19.8
182.383	-2.73
182.602	71
182.822	25.94
183.042	23.89
183.262	17.75
183.482	52.56
183.701	60.76
183.921	17.75
184.141	-17.07
184.361	38.23
184.58	-23.21
184.8	34.13
185.02	-25.26
185.239	-10.92
185.459	54.61
185.679	79.19
185.898	-35.5
186.118	21.85
186.338	21.85
186.557	103.76
186.777	19.8
186.997	64.85
187.216	21.85
187.436	-4.78
187.655	21.85
187.875	34.13
188.095	13.65
188.314	138.58
188.534	7.51
188.753	-47.79
188.973	38.23
189.192	97.62
189.412	5.46
189.631	-25.26
189.851	48.47
190.07	54.61
190.29	122.2
190.509	5.46
190.729	54.61
190.948	87.38
191.168	75.09
191.387	27.99
191.607	54.61
191.826	77.14
192.045	56.66
192.265	58.71
192.484	52.56
192.704	7.51
192.923	13.65
193.142	73.04
193.362	56.66
193.581	-43.69
193.8	79.19
194.02	91.48
194.239	-0.68
194.458	93.52
194.678	81.24
194.897	42.32
195.116	36.18
195.335	60.76
195.555	87.38
195.774	68.95
195.993	54.61
196.212	48.47
196.432	-0.68
196.651	-55.98
196.87	15.7
197.089	109.91
197.308	11.61
197.528	99.67
197.747	13.65
197.966	7.51
198.185	-8.87
198.404	36.18
198.623	19.8
198.842	71
199.062	40.28
199.281	66.9
199.5	77.14
199.719	89.43
199.938	32.08
200.157	62.8
200.376	91.48
200.595	13.65
200.814	9.56
201.033	-45.74
201.252	75.09
201.471	56.66
201.69	87.38
201.909	23.89
202.128	27.99
202.347	36.18
202.566	32.08
202.785	-0.68
203.004	-19.11
203.223	140.63
203.442	62.8
203.661	5.46
203.879	25.94
204.098	40.28
204.317	-25.26
204.536	32.08
204.755	-19.11
204.974	27.99
205.193	38.23
205.411	118.1
205.63	27.99
205.849	15.7
206.068	40.28
206.287	25.94
206.505	46.42
206.724	111.96
206.943	48.47
207.162	79.19
207.381	107.86
207.599	27.99
207.818	32.08
208.037	5.46
208.255	60.76
208.474	44.37
208.693	40.28
208.911	27.99
209.13	40.28
209.349	99.67
209.567	68.95
209.786	93.52
210.005	38.23
210.223	17.75
210.442	-27.31
210.661	93.52
210.879	-0.68
211.098	3.41
211.316	105.81
211.535	15.7
211.753	44.37
211.972	1.37
212.191	68.95
212.409	46.42
212.628	85.33
212.846	-6.83
213.065	85.33
213.283	75.09
213.502	-43.69
213.72	-6.83
213.938	11.61
214.157	44.37
214.375	52.56
214.594	-17.07
214.812	21.85
215.031	68.95
215.249	85.33
215.467	40.28
215.686	-12.97
215.904	66.9
216.122	68.95
216.341	11.61
216.559	19.8
216.778	77.14
216.996	30.04
217.214	40.28
217.432	36.18
217.651	34.13
217.869	11.61
218.087	52.56
218.306	36.18
218.524	126.29
218.742	-37.55
218.96	105.81
219.179	52.56
219.397	21.85
219.615	93.52
219.833	83.28
220.051	-31.4
220.27	75.09
220.488	25.94
220.706	30.04
220.924	-10.92
221.142	38.23
221.36	-29.35
221.578	126.29
221.796	-45.74
222.015	34.13
222.233	77.14
222.451	56.66
222.669	62.8
222.887	62.8
223.105	-2.73
223.323	-10.92
223.541	64.85
223.759	-10.92
223.977	-49.83
224.195	62.8
224.413	46.42
224.631	38.23
224.849	-12.97
225.067	105.81
225.285	109.91
225.503	5.46
225.721	-70.31
225.939	30.04
226.157	77.14
226.375	111.96
226.592	36.18
226.81	105.81
227.028	60.76
227.246	91.48
227.464	58.71
227.682	32.08
227.9	17.75
228.117	73.04
228.335	54.61
228.553	19.8
228.771	-4.78
228.989	46.42
229.206	7.51
229.424	11.61
229.642	64.85
229.86	73.04
230.077	44.37
230.295	52.56
230.513	71
230.731	66.9
230.948	171.35
231.166	138.58
231.384	9.56
231.601	54.61
231.819	66.9
232.037	-0.68
232.254	44.37
232.472	77.14
232.689	120.15
232.907	81.24
233.125	27.99
233.342	-21.16
233.56	38.23
233.777	27.99
233.995	11.61
234.213	34.13
234.43	-4.78
234.648	42.32
234.865	97.62
235.083	42.32
235.3	56.66
235.518	38.23
235.735	34.13
235.953	66.9
236.17	56.66
236.388	85.33
236.605	-12.97
236.822	54.61
237.04	107.86
237.257	81.24
237.475	60.76
237.692	52.56
237.909	32.08
238.127	103.76
238.344	50.52
238.562	38.23
238.779	-21.16
238.996	-19.11
239.214	107.86
239.431	9.56
239.648	3.41
239.865	79.19
240.083	75.09
240.3	-17.07
240.517	-6.83
240.735	60.76
240.952	40.28
241.169	58.71
241.386	73.04
241.603	99.67
241.821	56.66
242.038	56.66
242.255	93.52
242.472	30.04
242.689	77.14
242.907	54.61
243.124	7.51
243.341	58.71
243.558	60.76
243.775	-41.64
243.992	-15.02
244.209	40.28
244.426	-2.73
244.643	13.65
244.86	114
245.078	75.09
245.295	-43.69
245.512	-25.26
245.729	30.04
245.946	81.24
246.163	21.85
246.38	48.47
246.597	58.71
246.814	17.75
247.031	50.52
247.248	25.94
247.464	30.04
247.681	71
247.898	-29.35
248.115	97.62
248.332	-15.02
248.549	101.72
248.766	-12.97
248.983	34.13
249.2	30.04
249.417	52.56
249.633	46.42
249.85	11.61
250.067	30.04
250.284	21.85
250.501	50.52
250.717	91.48
250.934	9.56
251.151	77.14
251.368	56.66
251.585	62.8
251.801	15.7
252.018	21.85
252.235	-15.02
252.451	38.23
252.668	-8.87
252.885	5.46
253.102	114
253.318	54.61
253.535	56.66
253.752	118.1
253.968	48.47
254.185	-2.73
254.401	21.85
254.618	71
254.835	30.04
255.051	101.72
255.268	64.85
255.484	64.85
255.701	9.56
255.917	13.65
256.134	42.32
256.351	32.08
256.567	7.51
256.784	85.33
257	-4.78
257.217	1.37
257.433	97.62
257.65	87.38
257.866	1.37
258.082	56.66
258.299	79.19
258.515	13.65
258.732	19.8
258.948	-41.64
259.165	-21.16
259.381	21.85
259.597	140.63
259.814	7.51
260.03	81.24
260.246	25.94
260.463	64.85
260.679	15.7
260.895	9.56
261.112	-15.02
261.328	71
261.544	15.7
261.761	99.67
261.977	93.52
262.193	-27.31
262.409	27.99
262.626	85.33
262.842	25.94
263.058	-25.26
263.274	48.47
263.49	81.24
263.707	142.68
263.923	-0.68
264.139	30.04
264.355	89.43
264.571	50.52
264.787	25.94
265.004	93.52
265.22	40.28
265.436	48.47
265.652	79.19
265.868	83.28
266.084	77.14
266.3	81.24
266.516	15.7
266.732	79.19
266.948	54.61
267.164	77.14
267.38	79.19
267.596	46.42
267.812	58.71
268.028	66.9
268.244	79.19
268.46	68.95
268.676	120.15
268.892	95.57
269.108	27.99
269.324	60.76
269.54	-2.73
269.756	34.13
269.972	-0.68
270.188	-64.17
270.403	44.37
270.619	48.47
270.835	48.47
271.051	36.18
271.267	111.96
271.483	9.56
271.698	19.8
271.914	36.18
272.13	68.95
272.346	77.14
272.562	21.85
272.777	46.42
272.993	114
273.209	-0.68
273.425	7.51
273.64	19.8
273.856	-15.02
274.072	36.18
274.287	52.56
274.503	15.7
274.719	71
274.934	36.18
275.15	30.04
275.366	23.89
275.581	73.04
275.797	11.61
276.012	-4.78
276.228	27.99
276.444	71
276.659	71
276.875	54.61
277.09	19.8
277.306	54.61
277.521	60.76
277.737	-2.73
277.952	56.66
278.168	109.91
278.383	46.42
278.599	89.43
278.814	-10.92
279.03	46.42
279.245	58.71
279.461	89.43
279.676	93.52
279.892	-19.11
280.107	77.14
280.322	93.52
280.538	50.52
280.753	114
280.969	68.95
281.184	40.28
281.399	23.89
281.615	5.46
281.83	60.76
282.045	-10.92
282.26	64.85
282.476	89.43
282.691	42.32
282.906	50.52
283.122	77.14
283.337	25.94
283.552	-17.07
283.767	23.89
283.983	32.08
284.198	40.28
284.413	19.8
284.628	44.37
284.843	52.56
285.058	-19.11
285.274	38.23
285.489	34.13
285.704	17.75
285.919	9.56
286.134	38.23
286.349	5.46
286.564	81.24
286.779	93.52
286.995	66.9
287.21	15.7
287.425	114
287.64	32.08
287.855	23.89
288.07	-37.55
288.285	109.91
288.5	58.71
288.715	99.67
288.93	85.33
289.145	81.24
289.36	79.19
289.575	-10.92
289.79	77.14
290.004	27.99
290.219	64.85
290.434	30.04
290.649	73.04
290.864	19.8
291.079	75.09
291.294	81.24
291.509	-12.97
291.724	23.89
291.938	116.05
292.153	52.56
292.368	-4.78
292.583	5.46
292.798	-0.68
293.012	81.24
293.227	130.39
293.442	60.76
293.657	79.19
293.871	25.94
294.086	27.99
294.301	36.18
294.516	105.81
294.73	71
294.945	66.9
295.16	19.8
295.374	36.18
295.589	-0.68
295.804	-31.4
296.018	42.32
296.233	77.14
296.447	32.08
296.662	21.85
296.877	132.44
297.091	23.89
297.306	66.9
297.52	79.19
297.735	85.33
297.949	-43.69
298.164	75.09
298.378	11.61
298.593	68.95
298.807	3.41
299.022	95.57
299.236	73.04
299.451	75.09
299.665	54.61
299.88	-8.87
300.094	36.18
300.309	66.9
300.523	64.85
300.737	60.76
300.952	48.47
301.166	54.61
301.381	-27.31
301.595	87.38
301.809	-23.21
302.024	-8.87
302.238	30.04
302.452	46.42
302.667	3.41
302.881	56.66
303.095	27.99
303.309	66.9
303.524	50.52
303.738	83.28
303.952	68.95
304.166	50.52
304.381	73.04
304.595	134.48
304.809	40.28
305.023	73.04
305.237	32.08
305.452	44.37
305.666	97.62
305.88	21.85
306.094	32.08
306.308	36.18
306.522	23.89
306.736	56.66
306.95	1.37
307.164	-27.31
307.379	48.47
307.593	19.8
307.807	48.47
308.021	103.76
308.235	1.37
308.449	13.65
308.663	73.04
308.877	-4.78
309.091	68.95
309.305	27.99
309.519	1.37
309.733	62.8
309.947	32.08
310.161	54.61
310.374	64.85
310.588	64.85
310.802	1.37
311.016	60.76
311.23	27.99
311.444	17.75
311.658	54.61
311.872	60.76
312.085	111.96
312.299	93.52
312.513	68.95
312.727	40.28
312.941	40.28
313.154	-2.73
313.368	13.65
313.582	48.47
313.796	-19.11
314.009	48.47
314.223	103.76
314.437	58.71
314.651	19.8
314.864	58.71
315.078	64.85
315.292	142.68
315.505	71
315.719	23.89
315.933	83.28
316.146	83.28
316.36	-31.4
316.573	130.39
316.787	30.04
317.001	5.46
317.214	81.24
317.428	46.42
317.641	81.24
317.855	36.18
318.068	66.9
318.282	46.42
318.495	46.42
318.709	87.38
318.922	62.8
319.136	81.24
319.349	77.14
319.563	66.9
319.776	17.75
319.99	-47.79
320.203	91.48
320.417	32.08
320.63	60.76
320.843	11.61
321.057	60.76
321.27	81.24
321.483	54.61
321.697	87.38
321.91	99.67
322.124	64.85
322.337	46.42
322.55	-23.21
322.763	11.61
322.977	64.85
323.19	44.37
323.403	38.23
323.617	40.28
323.83	36.18
324.043	97.62
324.256	15.7
324.469	48.47
324.683	34.13
324.896	36.18
325.109	101.72
325.322	-33.45
325.535	107.86
325.748	48.47
325.962	52.56
326.175	38.23
326.388	77.14
326.601	97.62
326.814	64.85
327.027	50.52
327.24	79.19
327.453	-49.83
327.666	52.56
327.879	-8.87
328.092	105.81
328.305	71
328.518	128.34
328.731	56.66
328.944	38.23
329.157	66.9
329.37	40.28
329.583	38.23
329.796	66.9
330.009	36.18
330.222	120.15
330.435	38.23
330.648	105.81
330.861	19.8
331.073	27.99
331.286	38.23
331.499	95.57
331.712	-23.21
331.925	9.56
332.138	89.43
332.35	21.85
332.563	54.61
332.776	93.52
332.989	17.75
333.202	60.76
333.414	46.42
333.627	107.86
333.84	73.04
334.053	52.56
334.265	-35.5
334.478	-62.12
334.691	58.71
334.903	83.28
335.116	25.94
335.329	60.76
335.541	44.37
335.754	122.2
335.966	44.37
336.179	64.85
336.392	81.24
336.604	-39.59
336.817	56.66
337.029	23.89
337.242	34.13
337.454	105.81
337.667	-4.78
337.88	60.76
338.092	48.47
338.305	58.71
338.517	81.24
338.729	54.61
338.942	99.67
339.154	3.41
339.367	54.61
339.579	7.51
339.792	68.95
340.004	52.56
340.217	73.04
340.429	32.08
340.641	-45.74
340.854	40.28
341.066	-33.45
341.278	81.24
341.491	120.15
341.703	21.85
341.915	71
342.128	-0.68
342.34	17.75
342.552	13.65
342.764	-17.07
342.977	27.99
343.189	-4.78
343.401	44.37
343.613	27.99
343.826	152.91
344.038	93.52
344.25	68.95
344.462	-8.87
344.674	105.81
344.886	-64.17
345.099	21.85
345.311	46.42
345.523	85.33
345.735	40.28
345.947	77.14
346.159	122.2
346.371	40.28
346.583	-6.83
346.795	68.95
347.007	60.76
347.219	38.23
347.431	19.8
347.643	83.28
347.855	5.46
348.067	71
348.279	-12.97
348.491	89.43
348.703	83.28
348.915	71
349.127	46.42
349.339	60.76
349.551	68.95
349.763	114
349.975	101.72
350.187	36.18
350.399	77.14
350.61	60.76
350.822	93.52
351.034	83.28
351.246	46.42
351.458	52.56
351.669	81.24
351.881	71
352.093	46.42
352.305	97.62
352.517	-62.12
352.728	103.76
352.94	54.61
353.152	11.61
353.363	58.71
353.575	44.37
353.787	122.2
353.999	5.46
354.21	81.24
354.422	62.8
354.633	-8.87
354.845	-10.92
355.057	44.37
355.268	-12.97
355.48	97.62
355.692	23.89
355.903	85.33
356.115	50.52
356.326	52.56
356.538	48.47
356.749	126.29
356.961	46.42
357.172	34.13
357.384	46.42
357.595	50.52
357.807	91.48
358.018	73.04
358.23	66.9
358.441	87.38
358.653	66.9
358.864	64.85
359.075	89.43
359.287	64.85
359.498	48.47
359.709	105.81
359.921	85.33
360.132	93.52
360.344	79.19
360.555	-10.92
360.766	101.72
360.977	-10.92
361.189	189.78
361.4	-6.83
361.611	81.24
361.823	-8.87
362.034	50.52
362.245	3.41
362.456	-25.26
362.667	58.71
362.879	81.24
363.09	64.85
363.301	1.37
363.512	3.41
363.723	60.76
363.935	81.24
364.146	60.76
364.357	75.09
364.568	64.85
364.779	64.85
364.99	99.67
365.201	50.52
365.412	71
365.623	60.76
365.834	101.72
366.045	68.95
366.256	19.8
366.467	21.85
366.678	48.47
366.889	15.7
367.1	87.38
367.311	85.33
367.522	44.37
367.733	120.15
367.944	3.41
368.155	68.95
368.366	17.75
368.577	68.95
368.788	68.95
368.999	23.89
369.209	50.52
369.42	58.71
369.631	93.52
369.842	89.43
370.053	30.04
370.264	83.28
370.474	68.95
370.685	58.71
370.896	58.71
371.107	89.43
371.317	50.52
371.528	66.9
371.739	7.51
371.95	9.56
372.16	48.47
372.371	-64.17
372.582	-21.16
372.792	91.48
373.003	85.33
373.214	89.43
373.424	163.15
373.635	77.14
373.846	64.85
374.056	19.8
374.267	75.09
374.477	71
374.688	30.04
374.898	23.89
375.109	93.52
375.319	38.23
375.53	105.81
375.74	122.2
375.951	95.57
376.161	21.85
376.372	95.57
376.582	91.48
376.793	142.68
377.003	36.18
377.214	64.85
377.424	99.67
377.635	19.8
377.845	79.19
378.055	109.91
378.266	23.89
378.476	77.14
378.686	73.04
378.897	81.24
379.107	64.85
379.317	79.19
379.528	81.24
379.738	99.67
379.948	-45.74
380.158	42.32
380.369	77.14
380.579	3.41
380.789	30.04
380.999	71
381.21	-0.68
381.42	126.29
381.63	77.14
381.84	89.43
382.05	93.52
382.261	60.76
382.471	77.14
382.681	66.9
382.891	101.72
383.101	-35.5
383.311	157.01
383.521	44.37
383.731	50.52
383.941	42.32
384.151	42.32
384.361	66.9
384.571	163.15
384.781	109.91
384.991	134.48
385.201	56.66
385.411	68.95
385.621	89.43
385.831	97.62
386.041	32.08
386.251	32.08
386.461	13.65
386.671	-4.78
386.881	83.28
387.091	32.08
387.301	91.48
387.511	99.67
387.72	75.09
387.93	38.23
388.14	36.18
388.35	97.62
388.56	77.14
388.769	25.94
388.979	93.52
389.189	-21.16
389.399	81.24
389.609	81.24
389.818	118.1
390.028	97.62
390.238	109.91
390.447	32.08
390.657	17.75
390.867	30.04
391.076	95.57
391.286	-17.07
391.496	105.81
391.705	62.8
391.915	52.56
392.125	64.85
392.334	118.1
392.544	91.48
392.753	40.28
392.963	89.43
393.172	79.19
393.382	130.39
393.591	77.14
393.801	56.66
394.01	60.76
394.22	52.56
394.429	38.23
394.639	120.15
394.848	99.67
395.058	144.72
395.267	122.2
395.477	89.43
395.686	134.48
395.895	66.9
396.105	152.91
396.314	66.9
396.524	159.06
396.733	60.76
396.942	48.47
397.152	101.72
397.361	91.48
397.57	122.2
397.78	138.58
397.989	138.58
398.198	124.24
398.407	144.72
398.617	66.9
398.826	118.1
399.035	128.34
399.244	42.32
399.453	107.86
399.663	107.86
399.872	111.96
400.081	87.38
400.29	148.82
400.499	152.91
400.708	150.87
400.917	99.67
401.127	109.91
401.336	93.52
401.545	124.24
401.754	132.44
401.963	197.97
402.172	109.91
402.381	107.86
402.59	136.53
402.799	146.77
403.008	114
403.217	109.91
403.426	177.49
403.635	105.81
403.844	171.35
404.053	165.2
404.262	179.54
404.471	181.59
404.68	134.48
404.888	126.29
405.097	222.55
405.306	152.91
405.515	163.15
405.724	165.2
405.933	183.63
406.142	220.5
406.35	171.35
406.559	161.11
406.768	136.53
406.977	152.91
407.185	189.78
407.394	193.87
407.603	142.68
407.812	236.88
408.02	245.07
408.229	212.31
408.438	189.78
408.646	206.16
408.855	187.73
409.064	271.7
409.272	230.74
409.481	240.98
409.69	230.74
409.898	238.93
410.107	253.27
410.315	413.01
410.524	374.1
410.733	400.72
410.941	316.75
411.15	277.84
411.358	271.7
411.567	423.25
411.775	427.34
411.984	372.05
412.192	425.29
412.401	402.77
412.609	453.97
412.818	415.06
413.026	437.58
413.234	525.65
413.443	521.55
413.651	494.93
413.86	607.56
414.068	570.7
414.276	595.28
414.485	605.52
414.693	572.75
414.901	742.73
415.11	673.1
415.318	681.29
415.526	654.67
415.734	683.34
415.943	720.2
416.151	761.16
416.359	697.67
416.567	722.25
416.776	783.69
416.984	834.89
417.192	922.95
417.4	951.62
417.608	890.18
417.817	920.9
418.025	1062.21
418.233	1115.46
418.441	1090.88
418.649	1115.46
418.857	1099.08
419.065	1203.52
419.273	1187.14
419.481	1238.34
419.689	1312.07
419.897	1324.35
420.105	1369.41
420.313	1402.18
420.521	1396.03
420.729	1492.29
420.937	1592.64
421.145	1549.63
421.353	1627.45
421.561	1717.56
421.769	1865.02
421.977	1846.59
422.185	1854.78
422.393	2002.23
422.601	2080.05
422.809	2114.87
423.017	2262.32
423.224	2243.89
423.432	2295.09
423.64	2233.65
423.848	2485.55
424.056	2426.16
424.263	2624.81
424.471	2536.75
424.679	2692.4
424.887	2899.24
425.094	2866.47
425.302	3032.36
425.51	3038.5
425.718	3108.13
425.925	3192.1
426.133	3433.76
426.341	3458.34
426.548	3591.45
426.756	3575.07
426.964	3593.5
427.171	3890.46
427.379	3970.33
427.586	4046.1
427.794	4068.63
428.001	4345.11
428.209	4386.07
428.417	4410.64
428.624	4748.56
428.832	4853
429.039	4801.8
429.247	4750.6
429.454	5143.81
429.662	5510.4
429.869	5332.23
430.076	5553.41
430.284	5307.65
430.491	5664
430.699	5885.18
430.906	5825.79
431.114	6089.98
431.321	6262.01
431.528	6429.94
431.736	6829.29
431.943	7101.67
432.15	7050.47
432.358	6946.03
432.565	7427.3
432.772	7281.89
432.979	7726.3
433.187	7818.46
433.394	7795.93
433.601	8402.13
433.808	8373.46
434.016	8230.1
434.223	8676.56
434.43	9383.11
434.637	8998.09
434.844	9622.72
435.052	9747.65
435.259	9663.68
435.466	9696.45
435.673	9819.33
435.88	10450.1
436.087	11019.44
436.294	10720.43
436.501	10529.97
436.708	10728.63
436.915	11355.3
437.122	11805.86
437.329	11728.03
437.537	11963.55
437.743	12416.15
437.95	12131.48
438.157	12694.68
438.364	13319.31
438.571	13155.47
438.778	13526.15
438.985	14679.16
439.192	14003.33
439.399	14259.32
439.606	14017.66
439.813	14865.52
440.02	15805.54
440.227	15590.5
440.433	15162.48
440.64	15930.47
440.847	15500.39
441.054	15875.17
441.261	17421.39
441.467	17050.71
441.674	17415.24
441.881	17779.78
442.088	17890.37
442.294	17318.99
442.501	18369.6
442.708	18529.34
442.914	19418.16
443.121	20042.79
443.328	19295.28
443.534	21150.74
443.741	20327.46
443.948	20130.85
444.154	21509.13
444.361	21312.53
444.568	21541.9
444.774	21527.56
444.981	21969.93
445.187	22406.14
445.394	23372.78
445.6	23211
445.807	25334.74
446.013	24030.18
446.22	24646.62
446.426	25725.9
446.633	25795.53
446.839	26782.65
447.046	25525.2
447.252	27038.65
447.459	26948.54
447.665	26813.37
447.871	28107.69
448.078	29150.1
448.284	27694
448.491	28582.82
448.697	29758.35
448.903	30339.97
449.11	30241.67
449.316	29817.74
449.522	30217.1
449.728	30868.35
449.935	31089.53
450.141	30909.31
450.347	31986.54
450.553	30878.59
450.76	31482.74
450.966	32234.35
451.172	31738.74
451.378	32287.59
451.584	31994.73
451.791	32519.01
451.997	32734.05
452.203	33084.25
452.409	33256.28
452.615	33317.72
452.821	31912.81
453.027	31306.62
453.233	33022.81
453.44	31277.94
453.646	32195.43
453.852	31834.99
454.058	32588.64
454.264	31531.89
454.47	32062.32
454.676	31548.28
454.882	32705.38
455.088	29746.06
455.294	30120.84
455.5	30258.06
455.705	30796.67
455.911	29381.52
456.117	28726.17
456.323	28427.17
456.529	26862.52
456.735	28564.39
456.941	27503.54
457.147	27046.84
457.352	26145.73
457.558	25981.9
457.764	26168.26
457.97	25324.5
458.176	25238.48
458.381	24800.22
458.587	23571.44
458.793	24093.67
458.999	22512.64
459.204	23899.11
459.41	23444.46
459.616	22107.14
459.821	21863.43
460.027	21779.47
460.233	21437.45
460.438	20309.02
460.644	20694.04
460.85	19641.39
461.055	19348.53
461.261	18965.56
461.466	17775.69
461.672	17278.03
461.878	18646.07
462.083	17364.04
462.289	17030.23
462.494	16811.09
462.7	16237.66
462.905	15424.62
463.111	16276.57
463.316	16270.43
463.522	16028.77
463.727	15955.04
463.932	15828.07
464.138	16002.15
464.343	16086.11
464.549	15408.23
464.754	15803.49
464.959	15815.78
465.165	15524.97
465.37	15322.22
465.575	14472.31
465.781	14974.06
465.986	15180.91
466.191	14998.64
466.397	14425.21
466.602	13474.95
466.807	13954.18
467.012	14347.39
467.218	14234.75
467.423	13855.87
467.628	14115.97
467.833	14556.28
468.038	14279.8
468.244	13640.84
468.449	14191.74
