Data from USB4F104151__151__11-08-26-410.txt Node

Date: Wed Mar 12 11:08:26 EDT 2025
User: louis
Spectrometer: USB4F10415
Trigger mode: 4
Integration Time (sec): 2.000000E-2
Scans to average: 1
Electric dark correction enabled: true
Nonlinearity correction enabled: false
Boxcar width: 0
XAxis mode: Wavelengths
Number of Pixels in Spectrum: 3648
>>>>>Begin Spectral Data<<<<<
178.204	-91.48
178.424	-91.48
178.644	-91.48
178.864	-50.52
179.084	-89.43
179.304	-11.61
179.524	31.4
179.744	27.31
179.964	84.65
180.184	6.83
180.404	0.68
180.624	-50.52
180.844	12.97
181.064	-30.04
181.283	-9.56
181.503	-68.95
181.723	6.83
181.943	-25.94
182.163	-1.37
182.383	68.27
182.602	45.74
182.822	39.59
183.042	-46.42
183.262	-50.52
183.482	60.07
183.701	19.11
183.921	12.97
184.141	0.68
184.361	33.45
184.58	23.21
184.8	68.27
185.02	-17.75
185.239	60.07
185.459	2.73
185.679	49.83
185.898	-27.99
186.118	-34.13
186.338	15.02
186.557	41.64
186.777	-93.52
186.997	-23.89
187.216	-1.37
187.436	41.64
187.655	41.64
187.875	12.97
188.095	4.78
188.314	-17.75
188.534	94.89
188.753	25.26
188.973	31.4
189.192	74.41
189.412	10.92
189.631	-34.13
189.851	55.98
190.07	55.98
190.29	10.92
190.509	-3.41
190.729	-15.7
190.948	15.02
191.168	68.27
191.387	12.97
191.607	-15.7
191.826	25.26
192.045	2.73
192.265	-36.18
192.484	-46.42
192.704	-17.75
192.923	-17.75
193.142	119.46
193.362	2.73
193.581	2.73
193.8	68.27
194.02	29.35
194.239	39.59
194.458	62.12
194.678	31.4
194.897	64.17
195.116	-1.37
195.335	23.21
195.555	64.17
195.774	43.69
195.993	64.17
196.212	43.69
196.432	15.02
196.651	27.31
196.87	-77.14
197.089	10.92
197.308	39.59
197.528	-7.51
197.747	4.78
197.966	15.02
198.185	4.78
198.404	-38.23
198.623	76.46
198.842	64.17
199.062	-5.46
199.281	55.98
199.5	12.97
199.719	2.73
199.938	-23.89
200.157	45.74
200.376	96.94
200.595	23.21
200.814	25.26
201.033	29.35
201.252	-3.41
201.471	55.98
201.69	53.93
201.909	15.02
202.128	-11.61
202.347	105.13
202.566	70.31
202.785	-5.46
203.004	12.97
203.223	31.4
203.442	43.69
203.661	37.55
203.879	-1.37
204.098	107.18
204.317	-40.28
204.536	15.02
204.755	43.69
204.974	70.31
205.193	8.87
205.411	17.07
205.63	51.88
205.849	4.78
206.068	19.11
206.287	-1.37
206.505	43.69
206.724	-9.56
206.943	23.21
207.162	-13.65
207.381	94.89
207.599	55.98
207.818	111.27
208.037	92.84
208.255	17.07
208.474	33.45
208.693	29.35
208.911	25.26
209.13	37.55
209.349	58.03
209.567	2.73
209.786	68.27
210.005	37.55
210.223	-5.46
210.442	-17.75
210.661	31.4
210.879	-9.56
211.098	82.6
211.316	47.79
211.535	19.11
211.753	43.69
211.972	29.35
212.191	-11.61
212.409	-11.61
212.628	37.55
212.846	10.92
213.065	12.97
213.283	68.27
213.502	80.55
213.72	68.27
213.938	6.83
214.157	15.02
214.375	64.17
214.594	37.55
214.812	27.31
215.031	-9.56
215.249	53.93
215.467	88.75
215.686	-17.75
215.904	60.07
216.122	-13.65
216.341	58.03
216.559	31.4
216.778	55.98
216.996	29.35
217.214	43.69
217.432	19.11
217.651	-1.37
217.869	10.92
218.087	-13.65
218.306	-42.32
218.524	-7.51
218.742	-5.46
218.96	98.99
219.179	12.97
219.397	-17.75
219.615	27.31
219.833	0.68
220.051	37.55
220.27	64.17
220.488	21.16
220.706	6.83
220.924	-9.56
221.142	35.5
221.36	27.31
221.578	64.17
221.796	45.74
222.015	62.12
222.233	60.07
222.451	76.46
222.669	-19.8
222.887	0.68
223.105	-1.37
223.323	62.12
223.541	66.22
223.759	113.32
223.977	29.35
224.195	80.55
224.413	109.22
224.631	62.12
224.849	68.27
225.067	43.69
225.285	62.12
225.503	-19.8
225.721	-25.94
225.939	39.59
226.157	-11.61
226.375	107.18
226.592	-21.85
226.81	-54.61
227.028	-9.56
227.246	60.07
227.464	-71
227.682	35.5
227.9	55.98
228.117	55.98
228.335	31.4
228.553	68.27
228.771	15.02
228.989	55.98
229.206	23.21
229.424	70.31
229.642	-13.65
229.86	51.88
230.077	80.55
230.295	51.88
230.513	76.46
230.731	-1.37
230.948	2.73
231.166	76.46
231.384	58.03
231.601	70.31
231.819	-19.8
232.037	23.21
232.254	70.31
232.472	-44.37
232.689	-56.66
232.907	92.84
233.125	-34.13
233.342	41.64
233.56	53.93
233.777	-44.37
233.995	101.03
234.213	31.4
234.43	47.79
234.648	-5.46
234.865	6.83
235.083	68.27
235.3	8.87
235.518	-38.23
235.735	31.4
235.953	68.27
236.17	-23.89
236.388	-40.28
236.605	19.11
236.822	68.27
237.04	80.55
237.257	60.07
237.475	-1.37
237.692	49.83
237.909	84.65
238.127	17.07
238.344	94.89
238.562	-3.41
238.779	39.59
238.996	29.35
239.214	-52.56
239.431	8.87
239.648	-3.41
239.865	33.45
240.083	49.83
240.3	37.55
240.517	41.64
240.735	35.5
240.952	-11.61
241.169	23.21
241.386	-38.23
241.603	17.07
241.821	23.21
242.038	31.4
242.255	-7.51
242.472	4.78
242.689	37.55
242.907	31.4
243.124	23.21
243.341	37.55
243.558	47.79
243.775	-25.94
243.992	41.64
244.209	-58.71
244.426	39.59
244.643	64.17
244.86	-30.04
245.078	33.45
245.295	15.02
245.512	31.4
245.729	45.74
245.946	51.88
246.163	2.73
246.38	47.79
246.597	84.65
246.814	19.11
247.031	35.5
247.248	49.83
247.464	98.99
247.681	19.11
247.898	-58.71
248.115	-9.56
248.332	39.59
248.549	12.97
248.766	115.37
248.983	8.87
249.2	10.92
249.417	27.31
249.633	-50.52
249.85	-34.13
250.067	19.11
250.284	-3.41
250.501	29.35
250.717	107.18
250.934	19.11
251.151	31.4
251.368	12.97
251.585	19.11
251.801	72.36
252.018	12.97
252.235	21.16
252.451	53.93
252.668	12.97
252.885	25.26
253.102	76.46
253.318	96.94
253.535	70.31
253.752	55.98
253.968	31.4
254.185	21.16
254.401	41.64
254.618	-52.56
254.835	-25.94
255.051	72.36
255.268	45.74
255.484	31.4
255.701	41.64
255.917	-3.41
256.134	17.07
256.351	-15.7
256.567	-21.85
256.784	43.69
257	21.16
257.217	43.69
257.433	74.41
257.65	60.07
257.866	37.55
258.082	2.73
258.299	4.78
258.515	76.46
258.732	-9.56
258.948	33.45
259.165	49.83
259.381	-23.89
259.597	-48.47
259.814	49.83
260.03	-30.04
260.246	-1.37
260.463	15.02
260.679	76.46
260.895	15.02
261.112	113.32
261.328	39.59
261.544	-1.37
261.761	-3.41
261.977	-81.24
262.193	31.4
262.409	76.46
262.626	-54.61
262.842	12.97
263.058	-21.85
263.274	74.41
263.49	45.74
263.707	72.36
263.923	115.37
264.139	-17.75
264.355	0.68
264.571	76.46
264.787	43.69
265.004	105.13
265.22	-71
265.436	21.16
265.652	10.92
265.868	0.68
266.084	37.55
266.3	98.99
266.516	41.64
266.732	2.73
266.948	55.98
267.164	12.97
267.38	25.26
267.596	64.17
267.812	51.88
268.028	78.51
268.244	58.03
268.46	111.27
268.676	-5.46
268.892	19.11
269.108	19.11
269.324	-1.37
269.54	37.55
269.756	19.11
269.972	-15.7
270.188	17.07
270.403	53.93
270.619	-9.56
270.835	88.75
271.051	62.12
271.267	33.45
271.483	74.41
271.698	41.64
271.914	125.61
272.13	-34.13
272.346	-32.08
272.562	88.75
272.777	43.69
272.993	27.31
273.209	64.17
273.425	35.5
273.64	-3.41
273.856	35.5
274.072	-19.8
274.287	6.83
274.503	109.22
274.719	15.02
274.934	37.55
275.15	35.5
275.366	-19.8
275.581	12.97
275.797	21.16
276.012	51.88
276.228	94.89
276.444	12.97
276.659	21.16
276.875	27.31
277.09	19.11
277.306	88.75
277.521	0.68
277.737	-5.46
277.952	98.99
278.168	-9.56
278.383	41.64
278.599	21.16
278.814	103.08
279.03	55.98
279.245	64.17
279.461	15.02
279.676	74.41
279.892	-5.46
280.107	45.74
280.322	-38.23
280.538	8.87
280.753	80.55
280.969	55.98
281.184	39.59
281.399	98.99
281.615	-77.14
281.83	25.26
282.045	-3.41
282.26	76.46
282.476	6.83
282.691	51.88
282.906	0.68
283.122	19.11
283.337	17.07
283.552	17.07
283.767	-9.56
283.983	25.26
284.198	94.89
284.413	2.73
284.628	17.07
284.843	25.26
285.058	-44.37
285.274	82.6
285.489	41.64
285.704	92.84
285.919	-5.46
286.134	25.26
286.349	60.07
286.564	10.92
286.779	19.11
286.995	25.26
287.21	-11.61
287.425	84.65
287.64	47.79
287.855	-13.65
288.07	-52.56
288.285	39.59
288.5	37.55
288.715	29.35
288.93	111.27
289.145	-52.56
289.36	-42.32
289.575	-50.52
289.79	60.07
290.004	35.5
290.219	55.98
290.434	2.73
290.649	-21.85
290.864	31.4
291.079	47.79
291.294	92.84
291.509	72.36
291.724	31.4
291.938	-60.76
292.153	35.5
292.368	-11.61
292.583	43.69
292.798	27.31
293.012	53.93
293.227	4.78
293.442	76.46
293.657	-38.23
293.871	2.73
294.086	60.07
294.301	31.4
294.516	33.45
294.73	76.46
294.945	41.64
295.16	31.4
295.374	111.27
295.589	60.07
295.804	33.45
296.018	117.42
296.233	23.21
296.447	25.26
296.662	58.03
296.877	-1.37
297.091	47.79
297.306	17.07
297.52	21.16
297.735	62.12
297.949	8.87
298.164	78.51
298.378	51.88
298.593	-15.7
298.807	15.02
299.022	12.97
299.236	39.59
299.451	21.16
299.665	35.5
299.88	-7.51
300.094	-25.94
300.309	33.45
300.523	-30.04
300.737	-7.51
300.952	-13.65
301.166	55.98
301.381	37.55
301.595	-105.81
301.809	-34.13
302.024	0.68
302.238	-38.23
302.452	55.98
302.667	23.21
302.881	51.88
303.095	101.03
303.309	90.79
303.524	10.92
303.738	62.12
303.952	27.31
304.166	15.02
304.381	-21.85
304.595	35.5
304.809	74.41
305.023	33.45
305.237	80.55
305.452	39.59
305.666	17.07
305.88	15.02
306.094	66.22
306.308	39.59
306.522	-11.61
306.736	37.55
306.95	-15.7
307.164	4.78
307.379	10.92
307.593	45.74
307.807	43.69
308.021	66.22
308.235	-25.94
308.449	15.02
308.663	31.4
308.877	-27.99
309.091	33.45
309.305	111.27
309.519	68.27
309.733	80.55
309.947	39.59
310.161	8.87
310.374	80.55
310.588	47.79
310.802	8.87
311.016	33.45
311.23	82.6
311.444	76.46
311.658	55.98
311.872	-7.51
312.085	74.41
312.299	-44.37
312.513	88.75
312.727	43.69
312.941	53.93
313.154	45.74
313.368	82.6
313.582	55.98
313.796	23.21
314.009	-30.04
314.223	10.92
314.437	58.03
314.651	27.31
314.864	-27.99
315.078	-27.99
315.292	8.87
315.505	49.83
315.719	109.22
315.933	-9.56
316.146	21.16
316.36	33.45
316.573	-9.56
316.787	-34.13
317.001	53.93
317.214	10.92
317.428	39.59
317.641	-19.8
317.855	0.68
318.068	25.26
318.282	47.79
318.495	51.88
318.709	0.68
318.922	-50.52
319.136	10.92
319.349	80.55
319.563	41.64
319.776	55.98
319.99	-17.75
320.203	60.07
320.417	0.68
320.63	15.02
320.843	19.11
321.057	6.83
321.27	-3.41
321.483	-23.89
321.697	86.7
321.91	72.36
322.124	49.83
322.337	55.98
322.55	66.22
322.763	62.12
322.977	35.5
323.19	12.97
323.403	68.27
323.617	43.69
323.83	113.32
324.043	25.26
324.256	27.31
324.469	-3.41
324.683	53.93
324.896	-34.13
325.109	17.07
325.322	25.26
325.535	84.65
325.748	49.83
325.962	25.26
326.175	-15.7
326.388	64.17
326.601	23.21
326.814	-46.42
327.027	35.5
327.24	88.75
327.453	-42.32
327.666	76.46
327.879	21.16
328.092	29.35
328.305	-7.51
328.518	68.27
328.731	-75.09
328.944	33.45
329.157	47.79
329.37	-7.51
329.583	37.55
329.796	68.27
330.009	-1.37
330.222	35.5
330.435	31.4
330.648	8.87
330.861	-3.41
331.073	53.93
331.286	19.11
331.499	76.46
331.712	29.35
331.925	8.87
332.138	39.59
332.35	80.55
332.563	-3.41
332.776	35.5
332.989	37.55
333.202	88.75
333.414	-9.56
333.627	35.5
333.84	105.13
334.053	29.35
334.265	6.83
334.478	60.07
334.691	29.35
334.903	15.02
335.116	29.35
335.329	4.78
335.541	25.26
335.754	37.55
335.966	10.92
336.179	84.65
336.392	-34.13
336.604	43.69
336.817	45.74
337.029	64.17
337.242	-27.99
337.454	0.68
337.667	0.68
337.88	21.16
338.092	23.21
338.305	72.36
338.517	2.73
338.729	131.75
338.942	51.88
339.154	-7.51
339.367	84.65
339.579	39.59
339.792	-1.37
340.004	53.93
340.217	27.31
340.429	21.16
340.641	41.64
340.854	21.16
341.066	70.31
341.278	17.07
341.491	47.79
341.703	21.16
341.915	23.21
342.128	27.31
342.34	47.79
342.552	27.31
342.764	33.45
342.977	62.12
343.189	58.03
343.401	92.84
343.613	10.92
343.826	53.93
344.038	-5.46
344.25	101.03
344.462	-19.8
344.674	76.46
344.886	-36.18
345.099	-19.8
345.311	31.4
345.523	23.21
345.735	-1.37
345.947	17.07
346.159	35.5
346.371	25.26
346.583	-23.89
346.795	-3.41
347.007	-9.56
347.219	21.16
347.431	27.31
347.643	-3.41
347.855	80.55
348.067	103.08
348.279	17.07
348.491	-36.18
348.703	133.8
348.915	72.36
349.127	82.6
349.339	-13.65
349.551	41.64
349.763	101.03
349.975	98.99
350.187	94.89
350.399	19.11
350.61	33.45
350.822	-3.41
351.034	101.03
351.246	39.59
351.458	119.46
351.669	35.5
351.881	43.69
352.093	58.03
352.305	-13.65
352.517	51.88
352.728	127.66
352.94	23.21
353.152	92.84
353.363	-32.08
353.575	43.69
353.787	35.5
353.999	33.45
354.21	39.59
354.422	-25.94
354.633	4.78
354.845	37.55
355.057	8.87
355.268	-23.89
355.48	107.18
355.692	29.35
355.903	58.03
356.115	-1.37
356.326	0.68
356.538	90.79
356.749	-19.8
356.961	66.22
357.172	12.97
357.384	10.92
357.595	86.7
357.807	37.55
358.018	31.4
358.23	6.83
358.441	33.45
358.653	68.27
358.864	-40.28
359.075	66.22
359.287	80.55
359.498	58.03
359.709	29.35
359.921	60.07
360.132	12.97
360.344	72.36
360.555	10.92
360.766	53.93
360.977	15.02
361.189	8.87
361.4	15.02
361.611	84.65
361.823	6.83
362.034	2.73
362.245	31.4
362.456	10.92
362.667	6.83
362.879	78.51
363.09	51.88
363.301	64.17
363.512	53.93
363.723	27.31
363.935	6.83
364.146	51.88
364.357	6.83
364.568	92.84
364.779	72.36
364.99	64.17
365.201	68.27
365.412	15.02
365.623	-50.52
365.834	105.13
366.045	-25.94
366.256	-36.18
366.467	-40.28
366.678	10.92
366.889	-11.61
367.1	-30.04
367.311	70.31
367.522	6.83
367.733	68.27
367.944	0.68
368.155	68.27
368.366	-7.51
368.577	39.59
368.788	74.41
368.999	29.35
369.209	21.16
369.42	51.88
369.631	55.98
369.842	25.26
370.053	-5.46
370.264	58.03
370.474	-15.7
370.685	55.98
370.896	-1.37
371.107	55.98
371.317	23.21
371.528	10.92
371.739	25.26
371.95	-7.51
372.16	41.64
372.371	4.78
372.582	51.88
372.792	19.11
373.003	45.74
373.214	-19.8
373.424	19.11
373.635	76.46
373.846	88.75
374.056	33.45
374.267	35.5
374.477	49.83
374.688	-1.37
374.898	19.11
375.109	-5.46
375.319	53.93
375.53	76.46
375.74	21.16
375.951	35.5
376.161	105.13
376.372	-1.37
376.582	90.79
376.793	15.02
377.003	-7.51
377.214	2.73
377.424	25.26
377.635	74.41
377.845	45.74
378.055	60.07
378.266	51.88
378.476	47.79
378.686	33.45
378.897	88.75
379.107	127.66
379.317	55.98
379.528	109.22
379.738	70.31
379.948	-9.56
380.158	68.27
380.369	53.93
380.579	43.69
380.789	62.12
380.999	82.6
381.21	-3.41
381.42	109.22
381.63	64.17
381.84	66.22
382.05	51.88
382.261	103.08
382.471	6.83
382.681	-38.23
382.891	64.17
383.101	21.16
383.311	12.97
383.521	119.46
383.731	76.46
383.941	-3.41
384.151	88.75
384.361	27.31
384.571	51.88
384.781	76.46
384.991	-9.56
385.201	27.31
385.411	74.41
385.621	33.45
385.831	51.88
386.041	37.55
386.251	80.55
386.461	64.17
386.671	66.22
386.881	68.27
387.091	29.35
387.301	19.11
387.511	29.35
387.72	55.98
387.93	45.74
388.14	23.21
388.35	37.55
388.56	74.41
388.769	119.46
388.979	-1.37
389.189	35.5
389.399	94.89
389.609	107.18
389.818	101.03
390.028	98.99
390.238	41.64
390.447	170.66
390.657	96.94
390.867	2.73
391.076	41.64
391.286	58.03
391.496	15.02
391.705	33.45
391.915	35.5
392.125	47.79
392.334	2.73
392.544	47.79
392.753	53.93
392.963	10.92
393.172	78.51
393.382	15.02
393.591	78.51
393.801	31.4
394.01	96.94
394.22	78.51
394.429	27.31
394.639	21.16
394.848	53.93
395.058	43.69
395.267	62.12
395.477	117.42
395.686	113.32
395.895	49.83
396.105	113.32
396.314	64.17
396.524	33.45
396.733	76.46
396.942	121.51
397.152	45.74
397.361	148.14
397.57	33.45
397.78	90.79
397.989	19.11
398.198	98.99
398.407	76.46
398.617	37.55
398.826	113.32
399.035	60.07
399.244	72.36
399.453	15.02
399.663	111.27
399.872	96.94
400.081	68.27
400.29	105.13
400.499	131.75
400.708	86.7
400.917	60.07
401.127	94.89
401.336	72.36
401.545	127.66
401.754	72.36
401.963	45.74
402.172	43.69
402.381	25.26
402.59	27.31
402.799	66.22
403.008	92.84
403.217	51.88
403.426	23.21
403.635	39.59
403.844	31.4
404.053	113.32
404.262	51.88
404.471	141.99
404.68	70.31
404.888	135.85
405.097	160.42
405.306	127.66
405.515	137.9
405.724	109.22
405.933	64.17
406.142	174.76
406.35	84.65
406.559	82.6
406.768	178.86
406.977	133.8
407.185	121.51
407.394	113.32
407.603	139.94
407.812	162.47
408.02	193.19
408.229	129.7
408.438	139.94
408.646	96.94
408.855	180.9
409.064	129.7
409.272	223.91
409.481	158.38
409.69	98.99
409.898	156.33
410.107	228.01
410.315	213.67
410.524	234.15
410.733	244.39
410.941	297.64
411.15	309.93
411.358	311.97
411.567	307.88
411.775	252.58
411.984	277.16
412.192	281.25
412.401	273.06
412.609	379.56
412.818	350.89
413.026	363.17
413.234	338.6
413.443	369.32
413.651	307.88
413.86	424.61
414.068	375.46
414.276	434.85
414.485	451.24
414.693	387.75
414.901	486.05
415.11	463.52
415.318	445.09
415.526	436.9
415.734	557.73
415.943	580.26
416.151	633.5
416.359	586.4
416.567	570.02
416.776	639.65
416.984	639.65
417.192	731.81
417.4	608.93
417.608	721.57
417.817	694.94
418.025	719.52
418.233	813.73
418.441	727.71
418.649	778.91
418.857	914.08
419.065	795.29
419.273	821.92
419.481	924.32
419.689	996
419.897	1034.91
420.105	1082.01
420.313	993.95
420.521	1014.43
420.729	1051.29
420.937	1149.59
421.145	1245.85
421.353	1192.6
421.561	1342.1
421.769	1356.44
421.977	1446.55
422.185	1407.64
422.393	1428.12
422.601	1612.43
422.809	1606.29
423.017	1475.22
423.224	1630.87
423.432	1727.12
423.64	1653.39
423.848	1901.2
424.056	1739.41
424.263	1878.67
424.471	1944.2
424.679	2079.37
424.887	2058.89
425.094	2224.78
425.302	2122.38
425.51	2271.88
425.718	2284.17
425.925	2421.38
426.133	2388.61
426.341	2589.32
426.548	2710.15
426.756	2499.2
426.964	2732.67
427.171	2781.82
427.379	2888.32
427.586	2933.37
427.794	3134.07
428.001	3230.33
428.209	3383.93
428.417	3312.25
428.624	3631.73
428.832	3586.68
429.039	3584.63
429.247	3486.33
429.454	3906.16
429.662	4053.61
429.869	3758.71
430.076	4280.94
430.284	3902.06
430.491	4129.39
430.699	4467.3
430.906	4364.9
431.114	4434.53
431.321	4645.48
431.528	4661.86
431.736	5026.4
431.943	5257.82
432.15	5012.06
432.358	5171.8
432.565	5622.36
432.772	5427.8
432.979	5655.12
433.187	5728.85
433.394	5782.1
433.601	6218.32
433.808	6152.78
434.016	6253.13
434.223	6298.19
434.43	6797.89
434.637	6562.37
434.844	7072.32
435.052	7199.29
435.259	7176.77
435.466	7178.81
435.673	7146.05
435.88	7635.51
436.087	8030.77
436.294	8032.82
436.501	7871.03
436.708	8084.02
436.915	8153.65
437.122	8589.86
437.329	8546.86
437.537	8745.51
437.743	9024.03
437.95	9081.38
438.157	9433.63
438.364	9857.56
438.571	9460.25
438.778	9644.57
438.985	10770.95
439.192	10295.82
439.399	10555.91
439.606	10367.5
439.813	10895.88
440.02	11659.77
440.227	11182.59
440.433	11213.31
440.64	11825.65
440.847	11375.1
441.054	11725.3
441.261	12747.24
441.467	12556.78
441.674	12724.71
441.881	12993
442.088	13050.34
442.294	12823.01
442.501	13283.81
442.708	13562.33
442.914	14287.31
443.121	14850.5
443.328	14389.71
443.534	15546.81
443.741	14766.54
443.948	14647.76
444.154	15784.38
444.361	15700.41
444.568	15845.82
444.774	15645.12
444.981	16081.33
445.187	16409.01
445.394	17369.51
445.6	16908.71
445.807	18497.94
446.013	17678.75
446.22	18123.16
446.426	18665.87
446.633	18438.55
446.839	19442.05
447.046	18612.62
447.252	19755.39
447.459	19951.99
447.665	19591.55
447.871	20666.74
448.078	21178.73
448.284	20156.79
448.491	21037.42
448.697	21776.73
448.903	21948.76
449.11	22223.19
449.316	21809.5
449.522	22348.12
449.728	22901.07
449.935	23169.35
450.141	22618.45
450.347	23456.07
450.553	22524.24
450.76	22694.22
450.966	23548.23
451.172	23304.52
451.378	23679.3
451.584	23566.66
451.791	23900.48
451.997	23855.42
452.203	24383.8
452.409	24254.78
452.615	24021.31
452.821	23167.31
453.027	23042.38
453.233	24334.65
453.44	23087.43
453.646	23406.92
453.852	23421.25
454.058	23822.66
454.264	22999.37
454.47	23456.07
454.676	23036.24
454.882	23687.49
455.088	21743.97
455.294	21920.09
455.5	22319.45
455.705	22219.1
455.911	21420.39
456.117	21356.9
456.323	20697.45
456.529	19616.13
456.735	20408.69
456.941	20035.96
457.147	19829.12
457.352	19212.68
457.558	18753.93
457.764	18692.49
457.97	18655.63
458.176	17940.89
458.381	17938.84
458.587	17117.61
458.793	17453.47
458.999	16241.07
459.204	17525.15
459.41	17111.46
459.616	15899.06
459.821	15897.02
460.027	15602.11
460.233	15360.45
460.438	14356.94
460.644	14918.09
460.85	14160.34
461.055	13892.05
461.261	13994.45
461.466	12728.81
461.672	12444.14
461.878	13558.24
462.083	12460.52
462.289	12372.46
462.494	12231.15
462.7	11438.59
462.905	11293.18
463.111	11729.4
463.316	11708.92
463.522	11567.61
463.727	11602.43
463.932	11497.98
464.138	11182.59
464.343	11479.55
464.549	11131.39
464.754	11524.6
464.959	11278.85
465.165	11246.08
465.37	10754.57
465.575	10557.96
465.781	11026.95
465.986	11168.26
466.191	10865.16
466.397	10517
466.602	9857.56
466.807	10371.6
467.012	10226.19
467.218	10242.57
467.423	10156.56
467.628	10213.9
467.833	10744.33
468.038	10328.59
468.244	9978.39
