Data from USB4F104151__45__11-05-30-397.txt Node

Date: Wed Mar 12 11:05:30 EDT 2025
User: louis
Spectrometer: USB4F10415
Trigger mode: 4
Integration Time (sec): 2.000000E-2
Scans to average: 1
Electric dark correction enabled: true
Nonlinearity correction enabled: false
Boxcar width: 0
XAxis mode: Wavelengths
Number of Pixels in Spectrum: 3648
>>>>>Begin Spectral Data<<<<<
178.204	-18.77
178.424	-18.77
178.644	-18.77
178.864	-47.44
179.084	1.71
179.304	9.9
179.524	30.38
179.744	-84.31
179.964	48.81
180.184	-43.35
180.404	18.09
180.624	22.19
180.844	-8.53
181.064	-2.39
181.283	-2.39
181.503	-6.49
181.723	18.09
181.943	28.33
182.163	104.11
182.383	-0.34
182.602	77.48
182.822	108.2
183.042	1.71
183.262	38.57
183.482	97.96
183.701	24.23
183.921	81.58
184.141	73.39
184.361	65.19
184.58	-10.58
184.8	52.91
185.02	3.75
185.239	100.01
185.459	95.91
185.679	63.15
185.898	63.15
186.118	50.86
186.338	112.3
186.557	50.86
186.777	-24.92
186.997	30.38
187.216	5.8
187.436	97.96
187.655	100.01
187.875	46.76
188.095	44.71
188.314	87.72
188.534	128.68
188.753	30.38
188.973	65.19
189.192	59.05
189.412	30.38
189.631	22.19
189.851	5.8
190.07	30.38
190.29	13.99
190.509	13.99
190.729	87.72
190.948	50.86
191.168	102.06
191.387	11.95
191.607	16.04
191.826	79.53
192.045	50.86
192.265	87.72
192.484	52.91
192.704	91.82
192.923	73.39
193.142	61.1
193.362	18.09
193.581	110.25
193.8	44.71
194.02	63.15
194.239	46.76
194.458	75.43
194.678	44.71
194.897	38.57
195.116	46.76
195.335	26.28
195.555	36.52
195.774	-4.44
195.993	61.1
196.212	42.67
196.432	13.99
196.651	50.86
196.87	20.14
197.089	50.86
197.308	28.33
197.528	18.09
197.747	57
197.966	126.63
198.185	71.34
198.404	-2.39
198.623	20.14
198.842	118.44
199.062	77.48
199.281	57
199.5	30.38
199.719	5.8
199.938	44.71
200.157	52.91
200.376	46.76
200.595	120.49
200.814	52.91
201.033	71.34
201.252	50.86
201.471	57
201.69	-12.63
201.909	30.38
202.128	13.99
202.347	75.43
202.566	59.05
202.785	81.58
203.004	-10.58
203.223	67.24
203.442	42.67
203.661	5.8
203.879	20.14
204.098	46.76
204.317	-10.58
204.536	73.39
204.755	36.52
204.974	-8.53
205.193	57
205.411	100.01
205.63	20.14
205.849	44.71
206.068	44.71
206.287	114.34
206.505	30.38
206.724	77.48
206.943	36.52
207.162	67.24
207.381	42.67
207.599	34.47
207.818	-18.77
208.037	38.57
208.255	34.47
208.474	104.11
208.693	79.53
208.911	32.43
209.13	46.76
209.349	67.24
209.567	106.15
209.786	63.15
210.005	50.86
210.223	116.39
210.442	1.71
210.661	79.53
210.879	13.99
211.098	61.1
211.316	-22.87
211.535	22.19
211.753	20.14
211.972	16.04
212.191	44.71
212.409	9.9
212.628	87.72
212.846	5.8
213.065	87.72
213.283	36.52
213.502	11.95
213.72	83.63
213.938	85.67
214.157	36.52
214.375	26.28
214.594	57
214.812	46.76
215.031	108.2
215.249	30.38
215.467	79.53
215.686	63.15
215.904	69.29
216.122	71.34
216.341	85.67
216.559	46.76
216.778	85.67
216.996	28.33
217.214	24.23
217.432	24.23
217.651	57
217.869	-37.2
218.087	59.05
218.306	11.95
218.524	89.77
218.742	112.3
218.96	83.63
219.179	36.52
219.397	118.44
219.615	44.71
219.833	112.3
220.051	5.8
220.27	79.53
220.488	22.19
220.706	22.19
220.924	-2.39
221.142	67.24
221.36	57
221.578	61.1
221.796	73.39
222.015	67.24
222.233	102.06
222.451	54.95
222.669	18.09
222.887	95.91
223.105	13.99
223.323	59.05
223.541	28.33
223.759	11.95
223.977	40.62
224.195	69.29
224.413	85.67
224.631	122.54
224.849	48.81
225.067	38.57
225.285	46.76
225.503	83.63
225.721	54.95
225.939	18.09
226.157	50.86
226.375	100.01
226.592	63.15
226.81	11.95
227.028	20.14
227.246	95.91
227.464	65.19
227.682	75.43
227.9	-0.34
228.117	77.48
228.335	-22.87
228.553	38.57
228.771	91.82
228.989	26.28
229.206	28.33
229.424	30.38
229.642	59.05
229.86	34.47
230.077	52.91
230.295	38.57
230.513	24.23
230.731	112.3
230.948	124.58
231.166	97.96
231.384	-2.39
231.601	81.58
231.819	106.15
232.037	20.14
232.254	44.71
232.472	106.15
232.689	63.15
232.907	-6.49
233.125	77.48
233.342	34.47
233.56	89.77
233.777	79.53
233.995	-0.34
234.213	100.01
234.43	65.19
234.648	46.76
234.865	102.06
235.083	89.77
235.3	67.24
235.518	42.67
235.735	97.96
235.953	46.76
236.17	59.05
236.388	32.43
236.605	26.28
236.822	155.3
237.04	38.57
237.257	75.43
237.475	28.33
237.692	42.67
237.909	54.95
238.127	67.24
238.344	130.73
238.562	-43.35
238.779	5.8
238.996	20.14
239.214	89.77
239.431	140.97
239.648	9.9
239.865	81.58
240.083	44.71
240.3	61.1
240.517	59.05
240.735	18.09
240.952	134.82
241.169	63.15
241.386	32.43
241.603	-10.58
241.821	116.39
242.038	120.49
242.255	9.9
242.472	63.15
242.689	44.71
242.907	40.62
243.124	-12.63
243.341	81.58
243.558	48.81
243.775	46.76
243.992	13.99
244.209	-2.39
244.426	79.53
244.643	89.77
244.86	52.91
245.078	26.28
245.295	54.95
245.512	79.53
245.729	63.15
245.946	61.1
246.163	50.86
246.38	50.86
246.597	95.91
246.814	9.9
247.031	52.91
247.248	71.34
247.464	106.15
247.681	85.67
247.898	57
248.115	104.11
248.332	73.39
248.549	18.09
248.766	3.75
248.983	87.72
249.2	85.67
249.417	75.43
249.633	134.82
249.85	52.91
250.067	95.91
250.284	83.63
250.501	91.82
250.717	50.86
250.934	65.19
251.151	59.05
251.368	108.2
251.585	87.72
251.801	38.57
252.018	26.28
252.235	57
252.451	59.05
252.668	69.29
252.885	140.97
253.102	42.67
253.318	34.47
253.535	83.63
253.752	5.8
253.968	57
254.185	93.87
254.401	50.86
254.618	120.49
254.835	-22.87
255.051	128.68
255.268	28.33
255.484	52.91
255.701	44.71
255.917	83.63
256.134	44.71
256.351	65.19
256.567	1.71
256.784	46.76
257	-10.58
257.217	87.72
257.433	44.71
257.65	50.86
257.866	36.52
258.082	42.67
258.299	20.14
258.515	30.38
258.732	63.15
258.948	-14.68
259.165	73.39
259.381	83.63
259.597	-2.39
259.814	3.75
260.03	20.14
260.246	100.01
260.463	59.05
260.679	100.01
260.895	83.63
261.112	100.01
261.328	63.15
261.544	30.38
261.761	104.11
261.977	83.63
262.193	30.38
262.409	87.72
262.626	65.19
262.842	13.99
263.058	9.9
263.274	7.85
263.49	54.95
263.707	20.14
263.923	52.91
264.139	34.47
264.355	26.28
264.571	73.39
264.787	26.28
265.004	48.81
265.22	97.96
265.436	44.71
265.652	63.15
265.868	79.53
266.084	38.57
266.3	32.43
266.516	28.33
266.732	79.53
266.948	24.23
267.164	46.76
267.38	91.82
267.596	75.43
267.812	110.25
268.028	104.11
268.244	79.53
268.46	83.63
268.676	87.72
268.892	97.96
269.108	-2.39
269.324	38.57
269.54	16.04
269.756	112.3
269.972	-8.53
270.188	118.44
270.403	50.86
270.619	67.24
270.835	48.81
271.051	85.67
271.267	20.14
271.483	13.99
271.698	34.47
271.914	22.19
272.13	52.91
272.346	71.34
272.562	57
272.777	102.06
272.993	87.72
273.209	59.05
273.425	1.71
273.64	-8.53
273.856	61.1
274.072	20.14
274.287	46.76
274.503	61.1
274.719	116.39
274.934	-6.49
275.15	-16.73
275.366	75.43
275.581	65.19
275.797	30.38
276.012	57
276.228	42.67
276.444	102.06
276.659	-49.49
276.875	-22.87
277.09	54.95
277.306	34.47
277.521	38.57
277.737	46.76
277.952	54.95
278.168	-14.68
278.383	93.87
278.599	1.71
278.814	5.8
279.03	77.48
279.245	93.87
279.461	40.62
279.676	28.33
279.892	87.72
280.107	3.75
280.322	89.77
280.538	52.91
280.753	38.57
280.969	108.2
281.184	106.15
281.399	104.11
281.615	20.14
281.83	69.29
282.045	73.39
282.26	67.24
282.476	46.76
282.691	112.3
282.906	54.95
283.122	28.33
283.337	54.95
283.552	32.43
283.767	93.87
283.983	30.38
284.198	54.95
284.413	87.72
284.628	5.8
284.843	65.19
285.058	30.38
285.274	54.95
285.489	46.76
285.704	34.47
285.919	22.19
286.134	3.75
286.349	50.86
286.564	75.43
286.779	30.38
286.995	42.67
287.21	52.91
287.425	108.2
287.64	63.15
287.855	71.34
288.07	59.05
288.285	48.81
288.5	-55.64
288.715	114.34
288.93	30.38
289.145	38.57
289.36	57
289.575	40.62
289.79	52.91
290.004	61.1
290.219	71.34
290.434	11.95
290.649	3.75
290.864	73.39
291.079	28.33
291.294	52.91
291.509	48.81
291.724	36.52
291.938	69.29
292.153	71.34
292.368	36.52
292.583	89.77
292.798	87.72
293.012	97.96
293.227	20.14
293.442	52.91
293.657	85.67
293.871	42.67
294.086	57
294.301	36.52
294.516	118.44
294.73	42.67
294.945	46.76
295.16	89.77
295.374	48.81
295.589	85.67
295.804	50.86
296.018	136.87
296.233	77.48
296.447	89.77
296.662	-10.58
296.877	106.15
297.091	77.48
297.306	22.19
297.52	59.05
297.735	13.99
297.949	91.82
298.164	26.28
298.378	22.19
298.593	67.24
298.807	61.1
299.022	79.53
299.236	143.02
299.451	50.86
299.665	71.34
299.88	52.91
300.094	100.01
300.309	63.15
300.523	69.29
300.737	36.52
300.952	132.78
301.166	89.77
301.381	44.71
301.595	46.76
301.809	50.86
302.024	112.3
302.238	50.86
302.452	67.24
302.667	48.81
302.881	36.52
303.095	28.33
303.309	112.3
303.524	-12.63
303.738	67.24
303.952	32.43
304.166	34.47
304.381	18.09
304.595	67.24
304.809	52.91
305.023	52.91
305.237	54.95
305.452	59.05
305.666	16.04
305.88	57
306.094	30.38
306.308	52.91
306.522	22.19
306.736	75.43
306.95	-2.39
307.164	151.21
307.379	104.11
307.593	122.54
307.807	112.3
308.021	42.67
308.235	73.39
308.449	-72.02
308.663	46.76
308.877	16.04
309.091	69.29
309.305	13.99
309.519	44.71
309.733	40.62
309.947	24.23
310.161	67.24
310.374	40.62
310.588	71.34
310.802	52.91
311.016	3.75
311.23	106.15
311.444	104.11
311.658	89.77
311.872	77.48
312.085	153.26
312.299	40.62
312.513	67.24
312.727	54.95
312.941	59.05
313.154	22.19
313.368	59.05
313.582	63.15
313.796	69.29
314.009	-45.4
314.223	83.63
314.437	59.05
314.651	-6.49
314.864	50.86
315.078	54.95
315.292	102.06
315.505	67.24
315.719	67.24
315.933	116.39
316.146	65.19
316.36	-4.44
316.573	22.19
316.787	63.15
317.001	95.91
317.214	71.34
317.428	46.76
317.641	42.67
317.855	122.54
318.068	28.33
318.282	65.19
318.495	50.86
318.709	59.05
318.922	124.58
319.136	38.57
319.349	54.95
319.563	79.53
319.776	46.76
319.99	57
320.203	63.15
320.417	50.86
320.63	9.9
320.843	124.58
321.057	26.28
321.27	85.67
321.483	120.49
321.697	108.2
321.91	20.14
322.124	85.67
322.337	50.86
322.55	67.24
322.763	44.71
322.977	85.67
323.19	124.58
323.403	57
323.617	48.81
323.83	65.19
324.043	1.71
324.256	112.3
324.469	44.71
324.683	32.43
324.896	9.9
325.109	63.15
325.322	34.47
325.535	38.57
325.748	147.11
325.962	104.11
326.175	155.3
326.388	61.1
326.601	104.11
326.814	67.24
327.027	-47.44
327.24	79.53
327.453	7.85
327.666	130.73
327.879	87.72
328.092	95.91
328.305	48.81
328.518	116.39
328.731	-24.92
328.944	13.99
329.157	71.34
329.37	65.19
329.583	79.53
329.796	83.63
330.009	36.52
330.222	52.91
330.435	112.3
330.648	91.82
330.861	34.47
331.073	67.24
331.286	120.49
331.499	93.87
331.712	59.05
331.925	28.33
332.138	87.72
332.35	24.23
332.563	59.05
332.776	116.39
332.989	30.38
333.202	79.53
333.414	102.06
333.627	65.19
333.84	71.34
334.053	34.47
334.265	-6.49
334.478	89.77
334.691	38.57
334.903	85.67
335.116	106.15
335.329	44.71
335.541	104.11
335.754	11.95
335.966	38.57
336.179	89.77
336.392	-4.44
336.604	87.72
336.817	30.38
337.029	122.54
337.242	54.95
337.454	132.78
337.667	77.48
337.88	50.86
338.092	11.95
338.305	22.19
338.517	-45.4
338.729	-33.11
338.942	-10.58
339.154	50.86
339.367	44.71
339.579	106.15
339.792	61.1
340.004	9.9
340.217	85.67
340.429	42.67
340.641	40.62
340.854	145.06
341.066	81.58
341.278	54.95
341.491	136.87
341.703	57
341.915	26.28
342.128	36.52
342.34	11.95
342.552	89.77
342.764	83.63
342.977	20.14
343.189	50.86
343.401	71.34
343.613	30.38
343.826	16.04
344.038	83.63
344.25	48.81
344.462	36.52
344.674	106.15
344.886	-57.68
345.099	63.15
345.311	40.62
345.523	48.81
345.735	48.81
345.947	83.63
346.159	83.63
346.371	85.67
346.583	69.29
346.795	95.91
347.007	-26.96
347.219	87.72
347.431	20.14
347.643	75.43
347.855	13.99
348.067	110.25
348.279	18.09
348.491	77.48
348.703	-10.58
348.915	26.28
349.127	116.39
349.339	132.78
349.551	54.95
349.763	38.57
349.975	93.87
350.187	32.43
350.399	28.33
350.61	20.14
350.822	-16.73
351.034	54.95
351.246	79.53
351.458	46.76
351.669	104.11
351.881	57
352.093	163.5
352.305	112.3
352.517	97.96
352.728	59.05
352.94	18.09
353.152	100.01
353.363	118.44
353.575	140.97
353.787	20.14
353.999	91.82
354.21	34.47
354.422	57
354.633	54.95
354.845	126.63
355.057	54.95
355.268	91.82
355.48	50.86
355.692	65.19
355.903	3.75
356.115	54.95
356.326	7.85
356.538	67.24
356.749	102.06
356.961	136.87
357.172	71.34
357.384	34.47
357.595	91.82
357.807	87.72
358.018	-14.68
358.23	97.96
358.441	91.82
358.653	102.06
358.864	22.19
359.075	116.39
359.287	50.86
359.498	112.3
359.709	108.2
359.921	116.39
360.132	116.39
360.344	30.38
360.555	42.67
360.766	73.39
360.977	118.44
361.189	97.96
361.4	71.34
361.611	91.82
361.823	52.91
362.034	81.58
362.245	36.52
362.456	61.1
362.667	124.58
362.879	118.44
363.09	106.15
363.301	63.15
363.512	97.96
363.723	32.43
363.935	61.1
364.146	128.68
364.357	59.05
364.568	57
364.779	32.43
364.99	118.44
365.201	91.82
365.412	89.77
365.623	11.95
365.834	95.91
366.045	46.76
366.256	194.22
366.467	63.15
366.678	71.34
366.889	57
367.1	128.68
367.311	112.3
367.522	85.67
367.733	110.25
367.944	22.19
368.155	38.57
368.366	40.62
368.577	87.72
368.788	32.43
368.999	79.53
369.209	67.24
369.42	140.97
369.631	149.16
369.842	-53.59
370.053	71.34
370.264	67.24
370.474	59.05
370.685	97.96
370.896	67.24
371.107	192.17
371.317	44.71
371.528	81.58
371.739	120.49
371.95	73.39
372.16	95.91
372.371	73.39
372.582	24.23
372.792	85.67
373.003	114.34
373.214	108.2
373.424	100.01
373.635	38.57
373.846	65.19
374.056	63.15
374.267	32.43
374.477	165.54
374.688	63.15
374.898	126.63
375.109	69.29
375.319	128.68
375.53	32.43
375.74	50.86
375.951	36.52
376.161	40.62
376.372	87.72
376.582	42.67
376.793	91.82
377.003	26.28
377.214	42.67
377.424	-2.39
377.635	124.58
377.845	116.39
378.055	116.39
378.266	40.62
378.476	36.52
378.686	120.49
378.897	54.95
379.107	73.39
379.317	118.44
379.528	42.67
379.738	114.34
379.948	79.53
380.158	57
380.369	67.24
380.579	87.72
380.789	87.72
380.999	87.72
381.21	54.95
381.42	81.58
381.63	50.86
381.84	50.86
382.05	71.34
382.261	83.63
382.471	91.82
382.681	46.76
382.891	140.97
383.101	83.63
383.311	61.1
383.521	114.34
383.731	110.25
383.941	69.29
384.151	50.86
384.361	50.86
384.571	120.49
384.781	81.58
384.991	116.39
385.201	157.35
385.411	59.05
385.621	32.43
385.831	69.29
386.041	124.58
386.251	11.95
386.461	87.72
386.671	61.1
386.881	36.52
387.091	95.91
387.301	87.72
387.511	20.14
387.72	104.11
387.93	71.34
388.14	46.76
388.35	163.5
388.56	61.1
388.769	126.63
388.979	75.43
389.189	30.38
389.399	26.28
389.609	75.43
389.818	87.72
390.028	5.8
390.238	108.2
390.447	136.87
390.657	106.15
390.867	95.91
391.076	128.68
391.286	106.15
391.496	77.48
391.705	102.06
391.915	48.81
392.125	71.34
392.334	50.86
392.544	112.3
392.753	104.11
392.963	38.57
393.172	40.62
393.382	75.43
393.591	71.34
393.801	93.87
394.01	145.06
394.22	118.44
394.429	116.39
394.639	149.16
394.848	59.05
395.058	85.67
395.267	122.54
395.477	124.58
395.686	108.2
395.895	194.22
396.105	140.97
396.314	134.82
396.524	77.48
396.733	145.06
396.942	110.25
397.152	138.92
397.361	167.59
397.57	183.98
397.78	26.28
397.989	46.76
398.198	147.11
398.407	11.95
398.617	186.02
398.826	116.39
399.035	118.44
399.244	153.26
399.453	145.06
399.663	140.97
399.872	147.11
400.081	110.25
400.29	159.4
400.499	95.91
400.708	91.82
400.917	145.06
401.127	134.82
401.336	100.01
401.545	116.39
401.754	198.31
401.963	85.67
402.172	95.91
402.381	206.5
402.59	120.49
402.799	69.29
403.008	171.69
403.217	134.82
403.426	222.89
403.635	186.02
403.844	79.53
404.053	149.16
404.262	134.82
404.471	167.59
404.68	134.82
404.888	196.26
405.097	145.06
405.306	132.78
405.515	190.12
405.724	145.06
405.933	186.02
406.142	269.99
406.35	196.26
406.559	151.21
406.768	226.98
406.977	255.65
407.185	210.6
407.394	237.22
407.603	194.22
407.812	198.31
408.02	198.31
408.229	272.04
408.438	257.7
408.646	171.69
408.855	183.98
409.064	235.18
409.272	278.18
409.481	302.76
409.69	233.13
409.898	237.22
410.107	306.85
410.315	245.41
410.524	319.14
410.733	376.48
410.941	231.08
411.15	327.33
411.358	362.15
411.567	450.21
411.775	259.75
411.984	331.43
412.192	442.02
412.401	362.15
412.609	394.92
412.818	413.35
413.026	528.03
413.234	495.27
413.443	464.55
413.651	444.07
413.86	554.66
414.068	538.27
414.276	587.43
414.485	482.98
414.693	556.71
414.901	589.47
415.11	603.81
415.318	556.71
415.526	657.06
415.734	675.49
415.943	698.02
416.151	745.12
416.359	773.79
416.567	921.24
416.776	806.56
416.984	837.28
417.192	857.76
417.4	861.85
417.608	894.62
417.817	874.14
418.025	949.92
418.233	982.68
418.441	1044.12
418.649	1060.51
418.857	1103.51
419.065	1140.38
419.273	1140.38
419.481	1146.52
419.689	1248.92
419.897	1240.73
420.105	1271.45
420.313	1371.8
420.521	1455.76
420.729	1449.62
420.937	1431.19
421.145	1529.49
421.353	1535.64
421.561	1635.99
421.769	1734.29
421.977	1703.57
422.185	1746.58
422.393	1885.84
422.601	2021
422.809	2008.72
423.017	1957.52
423.224	2078.35
423.432	2201.23
423.64	2121.35
423.848	2358.92
424.056	2389.64
424.263	2449.03
424.471	2514.56
424.679	2498.18
424.887	2784.9
425.094	2672.26
425.302	2776.7
425.51	2909.82
425.718	3018.36
425.925	3012.22
426.133	3083.9
426.341	3180.15
426.548	3360.38
426.756	3456.63
426.964	3462.77
427.171	3745.39
427.379	3870.32
427.586	3815.02
427.794	3874.42
428.001	4107.88
428.209	4314.73
428.417	4175.47
428.624	4607.59
428.832	4621.92
429.039	4378.22
429.247	4525.67
429.454	4916.83
429.662	5238.36
429.869	4882.02
430.076	5293.66
430.284	5154.4
430.491	5584.47
430.699	5680.72
430.906	5609.05
431.114	5705.3
431.321	5768.79
431.528	6043.21
431.736	6415.94
431.943	6813.25
432.15	6327.88
432.358	6721.09
432.565	6749.76
432.772	6854.21
432.979	7317.05
433.187	7343.67
433.394	7224.89
433.601	7956.02
433.808	7982.64
434.016	7802.42
434.223	8283.69
434.43	8726.05
434.637	8642.09
434.844	8943.14
435.052	9137.7
435.259	9336.35
435.466	9446.94
435.673	9332.25
435.88	9797.14
436.087	10376.72
436.294	10423.82
436.501	10108.43
436.708	10315.28
436.915	10776.07
437.122	10948.1
437.329	11343.36
437.537	11331.07
437.743	11668.98
437.95	11572.73
438.157	12129.78
438.364	12738.02
438.571	12522.99
438.778	12686.83
438.985	13850.07
439.192	13286.88
439.399	13684.19
439.606	13319.65
439.813	14185.94
440.02	14763.47
440.227	14587.34
440.433	14620.11
440.64	15115.72
440.847	15076.8
441.054	15433.15
441.261	16459.18
441.467	16324.02
441.674	16491.95
441.881	17104.29
442.088	17094.05
442.294	16903.59
442.501	17634.72
442.708	17659.29
442.914	18501.01
443.121	19070.34
443.328	18564.5
443.534	19903.87
443.741	19533.18
443.948	19180.93
444.154	20432.24
444.361	20477.3
444.568	20591.98
444.774	20792.69
444.981	20618.61
445.187	21546.34
445.394	22312.28
445.6	22195.54
445.807	24345.91
446.013	23168.33
446.22	23563.59
446.426	24552.76
446.633	25066.8
446.839	25302.31
447.046	24452.41
447.252	25816.35
447.459	25976.09
447.665	25709.86
447.871	26821.91
448.078	27817.22
448.284	26582.29
448.491	27421.96
448.697	28638.45
448.903	29052.14
449.11	28888.31
449.316	28290.3
449.522	28826.87
449.728	29977.83
449.935	29977.83
450.141	29744.36
450.347	30524.63
450.553	29598.95
450.76	29803.75
450.966	30788.82
451.172	30616.79
451.378	31235.28
451.584	30674.13
451.791	31325.39
451.997	31093.97
452.203	31421.64
452.409	31802.57
452.615	31315.15
452.821	30364.89
453.027	29809.89
453.233	31384.78
453.44	30227.68
453.646	30702.81
453.852	30866.64
454.058	31145.17
454.264	29859.04
454.47	30696.66
454.676	30168.29
454.882	31048.91
455.088	28142.85
455.294	28579.06
455.5	29086.96
455.705	29375.72
455.911	27688.2
456.117	27368.71
456.323	27278.6
456.529	25611.56
456.735	26547.48
456.941	25894.18
457.147	25707.81
457.352	24818.99
457.558	24581.43
457.764	24603.96
457.97	23967.04
458.176	23508.29
458.381	23553.35
458.587	22541.65
458.793	22345.05
458.999	21257.57
459.204	22644.05
459.41	22386.01
459.616	20700.53
459.821	20839.79
460.027	20643.18
460.233	20209.01
460.438	19088.78
460.644	19578.24
460.85	18783.63
461.055	18050.46
461.261	18181.53
461.466	16985.51
461.672	16068.02
461.878	17534.37
462.083	16170.42
462.289	16039.35
462.494	15924.66
462.7	15201.73
462.905	14796.23
463.111	15244.74
463.316	15412.67
463.522	15074.76
463.727	15019.46
463.932	15019.46
464.138	14839.24
464.343	15173.06
464.549	14478.8
464.754	14960.07
464.959	14992.84
465.165	15087.04
465.37	13831.64
465.575	13716.95
465.781	14038.48
465.986	14253.52
466.191	13854.17
466.397	13340.13
466.602	12813.8
466.807	13411.81
467.012	13499.87
467.218	13329.89
467.423	13139.43
