Data from USB4F104151__234__11-11-15-272.txt Node

Date: Wed Mar 12 11:11:15 EDT 2025
User: louis
Spectrometer: USB4F10415
Trigger mode: 4
Integration Time (sec): 2.000000E-2
Scans to average: 1
Electric dark correction enabled: true
Nonlinearity correction enabled: false
Boxcar width: 0
XAxis mode: Wavelengths
Number of Pixels in Spectrum: 3648
>>>>>Begin Spectral Data<<<<<
178.204	-90.28
178.424	-90.28
178.644	-90.28
178.864	-47.27
179.084	-37.03
179.304	-8.36
179.524	10.07
179.744	-12.46
179.964	28.5
180.184	8.02
180.404	108.37
180.624	-26.79
180.844	18.26
181.064	-47.27
181.283	-0.17
181.503	-47.27
181.723	-30.89
181.943	26.45
182.163	55.12
182.383	-12.46
182.602	3.93
182.822	57.17
183.042	94.04
183.262	5.97
183.482	38.74
183.701	67.41
183.921	67.41
184.141	-26.79
184.361	22.36
184.58	18.26
184.8	-4.27
185.02	32.6
185.239	34.64
185.459	44.88
185.679	114.52
185.898	63.32
186.118	12.12
186.338	12.12
186.557	91.99
186.777	-18.6
186.997	-18.6
187.216	-8.36
187.436	28.5
187.655	-8.36
187.875	16.21
188.095	-2.22
188.314	63.32
188.534	73.56
188.753	-10.41
188.973	-75.95
189.192	-10.41
189.412	69.46
189.631	-63.66
189.851	-10.41
190.07	32.6
190.29	-71.85
190.509	-10.41
190.729	42.84
190.948	48.98
191.168	126.8
191.387	20.31
191.607	44.88
191.826	34.64
192.045	-16.55
192.265	-43.18
192.484	20.31
192.704	3.93
192.923	-51.37
193.142	89.94
193.362	26.45
193.581	32.6
193.8	-4.27
194.02	-34.99
194.239	38.74
194.458	22.36
194.678	137.04
194.897	-20.65
195.116	3.93
195.335	3.93
195.555	53.08
195.774	5.97
195.993	32.6
196.212	22.36
196.432	53.08
196.651	44.88
196.87	16.21
197.089	57.17
197.308	1.88
197.528	16.21
197.747	94.04
197.966	22.36
198.185	32.6
198.404	12.12
198.623	38.74
198.842	53.08
199.062	46.93
199.281	51.03
199.5	-18.6
199.719	12.12
199.938	20.31
200.157	-0.17
200.376	51.03
200.595	42.84
200.814	3.93
201.033	-22.7
201.252	51.03
201.471	89.94
201.69	61.27
201.909	38.74
202.128	38.74
202.347	53.08
202.566	24.4
202.785	28.5
203.004	36.69
203.223	-0.17
203.442	12.12
203.661	10.07
203.879	77.65
204.098	38.74
204.317	38.74
204.536	124.76
204.755	-10.41
204.974	67.41
205.193	61.27
205.411	44.88
205.63	53.08
205.849	42.84
206.068	59.22
206.287	30.55
206.505	51.03
206.724	-32.94
206.943	24.4
207.162	14.17
207.381	-6.31
207.599	63.32
207.818	14.17
208.037	-24.75
208.255	38.74
208.474	67.41
208.693	-61.61
208.911	-10.41
209.13	51.03
209.349	48.98
209.567	-24.75
209.786	-2.22
210.005	118.61
210.223	40.79
210.442	20.31
210.661	106.32
210.879	5.97
211.098	48.98
211.316	40.79
211.535	34.64
211.753	16.21
211.972	124.76
212.191	-26.79
212.409	71.51
212.628	30.55
212.846	8.02
213.065	-67.75
213.283	71.51
213.502	-20.65
213.72	32.6
213.938	132.95
214.157	48.98
214.375	12.12
214.594	18.26
214.812	28.5
215.031	-12.46
215.249	-32.94
215.467	-30.89
215.686	32.6
215.904	20.31
216.122	94.04
216.341	40.79
216.559	20.31
216.778	40.79
216.996	24.4
217.214	83.8
217.432	-77.99
217.651	63.32
217.869	28.5
218.087	46.93
218.306	-32.94
218.524	65.36
218.742	-51.37
218.96	14.17
219.179	-0.17
219.397	81.75
219.615	51.03
219.833	57.17
220.051	30.55
220.27	14.17
220.488	5.97
220.706	42.84
220.924	36.69
221.142	40.79
221.36	40.79
221.578	20.31
221.796	-24.75
222.015	-47.27
222.233	-6.31
222.451	22.36
222.669	-4.27
222.887	-37.03
223.105	-18.6
223.323	18.26
223.541	-63.66
223.759	10.07
223.977	71.51
224.195	63.32
224.413	-6.31
224.631	16.21
224.849	-0.17
225.067	12.12
225.285	5.97
225.503	73.56
225.721	-0.17
225.939	-2.22
226.157	53.08
226.375	71.51
226.592	5.97
226.81	-4.27
227.028	12.12
227.246	91.99
227.464	10.07
227.682	85.84
227.9	57.17
228.117	40.79
228.335	-2.22
228.553	38.74
228.771	87.89
228.989	26.45
229.206	26.45
229.424	26.45
229.642	-16.55
229.86	67.41
230.077	22.36
230.295	-0.17
230.513	-26.79
230.731	51.03
230.948	85.84
231.166	10.07
231.384	-12.46
231.601	10.07
231.819	-14.51
232.037	12.12
232.254	48.98
232.472	87.89
232.689	-45.23
232.907	46.93
233.125	141.14
233.342	-24.75
233.56	-34.99
233.777	8.02
233.995	26.45
234.213	53.08
234.43	53.08
234.648	48.98
234.865	32.6
235.083	30.55
235.3	-16.55
235.518	40.79
235.735	40.79
235.953	51.03
236.17	40.79
236.388	-4.27
236.605	40.79
236.822	20.31
237.04	63.32
237.257	3.93
237.475	42.84
237.692	67.41
237.909	71.51
238.127	-10.41
238.344	61.27
238.562	30.55
238.779	77.65
238.996	38.74
239.214	14.17
239.431	-12.46
239.648	24.4
239.865	114.52
240.083	5.97
240.3	34.64
240.517	40.79
240.735	67.41
240.952	42.84
241.169	63.32
241.386	149.33
241.603	24.4
241.821	-14.51
242.038	106.32
242.255	24.4
242.472	20.31
242.689	46.93
242.907	26.45
243.124	-18.6
243.341	59.22
243.558	32.6
243.775	8.02
243.992	3.93
244.209	36.69
244.426	55.12
244.643	14.17
244.86	79.7
245.078	44.88
245.295	46.93
245.512	18.26
245.729	-28.84
245.946	14.17
246.163	10.07
246.38	51.03
246.597	102.23
246.814	18.26
247.031	20.31
247.248	83.8
247.464	110.42
247.681	8.02
247.898	20.31
248.115	59.22
248.332	1.88
248.549	51.03
248.766	3.93
248.983	135
249.2	73.56
249.417	69.46
249.633	8.02
249.85	51.03
250.067	87.89
250.284	5.97
250.501	-45.23
250.717	-65.71
250.934	57.17
251.151	63.32
251.368	10.07
251.585	100.18
251.801	-0.17
252.018	28.5
252.235	-14.51
252.451	-14.51
252.668	94.04
252.885	-18.6
253.102	135
253.318	-26.79
253.535	46.93
253.752	-63.66
253.968	3.93
254.185	-28.84
254.401	26.45
254.618	24.4
254.835	38.74
255.051	57.17
255.268	12.12
255.484	96.08
255.701	44.88
255.917	32.6
256.134	53.08
256.351	-16.55
256.567	8.02
256.784	38.74
257	28.5
257.217	30.55
257.433	67.41
257.65	32.6
257.866	44.88
258.082	42.84
258.299	-32.94
258.515	32.6
258.732	3.93
258.948	46.93
259.165	71.51
259.381	-26.79
259.597	65.36
259.814	-4.27
260.03	65.36
260.246	24.4
260.463	20.31
260.679	67.41
260.895	75.6
261.112	14.17
261.328	77.65
261.544	-12.46
261.761	112.47
261.977	69.46
262.193	44.88
262.409	14.17
262.626	28.5
262.842	-16.55
263.058	-4.27
263.274	24.4
263.49	98.13
263.707	81.75
263.923	28.5
264.139	5.97
264.355	32.6
264.571	57.17
264.787	32.6
265.004	28.5
265.22	59.22
265.436	24.4
265.652	-43.18
265.868	55.12
266.084	26.45
266.3	53.08
266.516	32.6
266.732	26.45
266.948	-18.6
267.164	48.98
267.38	-0.17
267.596	24.4
267.812	42.84
268.028	46.93
268.244	32.6
268.46	28.5
268.676	-6.31
268.892	53.08
269.108	-10.41
269.324	81.75
269.54	-49.32
269.756	20.31
269.972	38.74
270.188	36.69
270.403	-28.84
270.619	26.45
270.835	151.38
271.051	20.31
271.267	8.02
271.483	30.55
271.698	65.36
271.914	-22.7
272.13	73.56
272.346	-18.6
272.562	14.17
272.777	65.36
272.993	-2.22
273.209	46.93
273.425	38.74
273.64	18.26
273.856	26.45
274.072	-8.36
274.287	-20.65
274.503	18.26
274.719	5.97
274.934	83.8
275.15	-20.65
275.366	10.07
275.581	28.5
275.797	77.65
276.012	-16.55
276.228	26.45
276.444	57.17
276.659	44.88
276.875	-24.75
277.09	69.46
277.306	16.21
277.521	-32.94
277.737	28.5
277.952	24.4
278.168	22.36
278.383	14.17
278.599	-0.17
278.814	124.76
279.03	10.07
279.245	77.65
279.461	38.74
279.676	-67.75
279.892	-30.89
280.107	-30.89
280.322	51.03
280.538	1.88
280.753	-22.7
280.969	40.79
281.184	22.36
281.399	46.93
281.615	-0.17
281.83	-0.17
282.045	12.12
282.26	-6.31
282.476	-4.27
282.691	65.36
282.906	102.23
283.122	34.64
283.337	-80.04
283.552	24.4
283.767	-41.13
283.983	26.45
284.198	48.98
284.413	87.89
284.628	1.88
284.843	71.51
285.058	28.5
285.274	102.23
285.489	-41.13
285.704	3.93
285.919	44.88
286.134	124.76
286.349	79.7
286.564	65.36
286.779	5.97
286.995	89.94
287.21	3.93
287.425	53.08
287.64	-6.31
287.855	126.8
288.07	71.51
288.285	81.75
288.5	89.94
288.715	20.31
288.93	12.12
289.145	36.69
289.36	30.55
289.575	3.93
289.79	81.75
290.004	42.84
290.219	83.8
290.434	48.98
290.649	-24.75
290.864	42.84
291.079	32.6
291.294	20.31
291.509	46.93
291.724	36.69
291.938	-0.17
292.153	63.32
292.368	32.6
292.583	91.99
292.798	3.93
293.012	38.74
293.227	67.41
293.442	1.88
293.657	145.24
293.871	108.37
294.086	73.56
294.301	69.46
294.516	8.02
294.73	26.45
294.945	18.26
295.16	-43.18
295.374	8.02
295.589	28.5
295.804	24.4
296.018	-16.55
296.233	87.89
296.447	67.41
296.662	8.02
296.877	94.04
297.091	8.02
297.306	51.03
297.52	77.65
297.735	42.84
297.949	32.6
298.164	32.6
298.378	8.02
298.593	44.88
298.807	132.95
299.022	28.5
299.236	73.56
299.451	63.32
299.665	81.75
299.88	-16.55
300.094	55.12
300.309	-32.94
300.523	89.94
300.737	61.27
300.952	-20.65
301.166	94.04
301.381	-14.51
301.595	18.26
301.809	20.31
302.024	32.6
302.238	18.26
302.452	42.84
302.667	5.97
302.881	77.65
303.095	157.52
303.309	77.65
303.524	34.64
303.738	42.84
303.952	40.79
304.166	44.88
304.381	8.02
304.595	40.79
304.809	-34.99
305.023	-6.31
305.237	22.36
305.452	-0.17
305.666	65.36
305.88	34.64
306.094	139.09
306.308	48.98
306.522	14.17
306.736	63.32
306.95	100.18
307.164	77.65
307.379	30.55
307.593	-14.51
307.807	42.84
308.021	16.21
308.235	24.4
308.449	48.98
308.663	-14.51
308.877	85.84
309.091	18.26
309.305	24.4
309.519	12.12
309.733	-2.22
309.947	100.18
310.161	-16.55
310.374	77.65
310.588	10.07
310.802	24.4
311.016	-26.79
311.23	18.26
311.444	61.27
311.658	87.89
311.872	89.94
312.085	57.17
312.299	-10.41
312.513	94.04
312.727	22.36
312.941	81.75
313.154	20.31
313.368	-4.27
313.582	-12.46
313.796	51.03
314.009	46.93
314.223	110.42
314.437	-8.36
314.651	89.94
314.864	12.12
315.078	42.84
315.292	-26.79
315.505	57.17
315.719	36.69
315.933	71.51
316.146	40.79
316.36	10.07
316.573	20.31
316.787	38.74
317.001	116.56
317.214	-39.08
317.428	71.51
317.641	59.22
317.855	36.69
318.068	28.5
318.282	30.55
318.495	26.45
318.709	10.07
318.922	-12.46
319.136	44.88
319.349	-51.37
319.563	71.51
319.776	18.26
319.99	22.36
320.203	36.69
320.417	46.93
320.63	38.74
320.843	94.04
321.057	85.84
321.27	30.55
321.483	24.4
321.697	118.61
321.91	22.36
322.124	77.65
322.337	110.42
322.55	51.03
322.763	32.6
322.977	40.79
323.19	-12.46
323.403	26.45
323.617	40.79
323.83	61.27
324.043	-18.6
324.256	36.69
324.469	16.21
324.683	22.36
324.896	83.8
325.109	51.03
325.322	-0.17
325.535	44.88
325.748	26.45
325.962	38.74
326.175	106.32
326.388	112.47
326.601	36.69
326.814	38.74
327.027	38.74
327.24	102.23
327.453	1.88
327.666	81.75
327.879	87.89
328.092	22.36
328.305	-0.17
328.518	24.4
328.731	34.64
328.944	40.79
329.157	-16.55
329.37	32.6
329.583	69.46
329.796	73.56
330.009	-28.84
330.222	28.5
330.435	24.4
330.648	36.69
330.861	44.88
331.073	18.26
331.286	12.12
331.499	44.88
331.712	5.97
331.925	55.12
332.138	14.17
332.35	-28.84
332.563	42.84
332.776	36.69
332.989	87.89
333.202	-18.6
333.414	-10.41
333.627	32.6
333.84	5.97
334.053	61.27
334.265	96.08
334.478	-2.22
334.691	-4.27
334.903	77.65
335.116	69.46
335.329	67.41
335.541	22.36
335.754	83.8
335.966	73.56
336.179	14.17
336.392	18.26
336.604	-41.13
336.817	28.5
337.029	61.27
337.242	34.64
337.454	-55.47
337.667	-14.51
337.88	14.17
338.092	48.98
338.305	48.98
338.517	89.94
338.729	38.74
338.942	-16.55
339.154	20.31
339.367	24.4
339.579	63.32
339.792	8.02
340.004	63.32
340.217	-34.99
340.429	-43.18
340.641	18.26
340.854	34.64
341.066	48.98
341.278	85.84
341.491	48.98
341.703	-12.46
341.915	79.7
342.128	112.47
342.34	-12.46
342.552	40.79
342.764	73.56
342.977	46.93
343.189	18.26
343.401	-28.84
343.613	40.79
343.826	5.97
344.038	53.08
344.25	55.12
344.462	24.4
344.674	96.08
344.886	57.17
345.099	57.17
345.311	65.36
345.523	69.46
345.735	51.03
345.947	-6.31
346.159	100.18
346.371	46.93
346.583	-4.27
346.795	42.84
347.007	-16.55
347.219	59.22
347.431	26.45
347.643	12.12
347.855	-0.17
348.067	85.84
348.279	30.55
348.491	-2.22
348.703	20.31
348.915	65.36
349.127	5.97
349.339	38.74
349.551	36.69
349.763	12.12
349.975	18.26
350.187	69.46
350.399	65.36
350.61	57.17
350.822	36.69
351.034	44.88
351.246	-0.17
351.458	91.99
351.669	79.7
351.881	55.12
352.093	32.6
352.305	69.46
352.517	116.56
352.728	81.75
352.94	106.32
353.152	-14.51
353.363	12.12
353.575	75.6
353.787	16.21
353.999	-4.27
354.21	94.04
354.422	-30.89
354.633	55.12
354.845	14.17
355.057	-2.22
355.268	59.22
355.48	-2.22
355.692	14.17
355.903	38.74
356.115	71.51
356.326	42.84
356.538	57.17
356.749	36.69
356.961	57.17
357.172	55.12
357.384	-10.41
357.595	85.84
357.807	5.97
358.018	26.45
358.23	34.64
358.441	59.22
358.653	67.41
358.864	-8.36
359.075	61.27
359.287	12.12
359.498	42.84
359.709	106.32
359.921	44.88
360.132	-10.41
360.344	51.03
360.555	44.88
360.766	28.5
360.977	-37.03
361.189	-28.84
361.4	65.36
361.611	102.23
361.823	67.41
362.034	3.93
362.245	-37.03
362.456	-6.31
362.667	36.69
362.879	-16.55
363.09	34.64
363.301	81.75
363.512	65.36
363.723	20.31
363.935	-0.17
364.146	71.51
364.357	-6.31
364.568	18.26
364.779	38.74
364.99	77.65
365.201	44.88
365.412	42.84
365.623	5.97
365.834	163.67
366.045	28.5
366.256	102.23
366.467	32.6
366.678	24.4
366.889	42.84
367.1	67.41
367.311	22.36
367.522	122.71
367.733	57.17
367.944	28.5
368.155	75.6
368.366	100.18
368.577	24.4
368.788	79.7
368.999	-26.79
369.209	12.12
369.42	108.37
369.631	61.27
369.842	98.13
370.053	28.5
370.264	-16.55
370.474	16.21
370.685	40.79
370.896	36.69
371.107	22.36
371.317	24.4
371.528	79.7
371.739	75.6
371.95	12.12
372.16	-16.55
372.371	36.69
372.582	102.23
372.792	36.69
373.003	79.7
373.214	-6.31
373.424	63.32
373.635	61.27
373.846	36.69
374.056	163.67
374.267	44.88
374.477	32.6
374.688	79.7
374.898	53.08
375.109	46.93
375.319	104.28
375.53	14.17
375.74	69.46
375.951	40.79
376.161	-12.46
376.372	18.26
376.582	-2.22
376.793	3.93
377.003	10.07
377.214	24.4
377.424	32.6
377.635	100.18
377.845	26.45
378.055	40.79
378.266	73.56
378.476	48.98
378.686	85.84
378.897	81.75
379.107	-6.31
379.317	63.32
379.528	-28.84
379.738	77.65
379.948	114.52
380.158	65.36
380.369	67.41
380.579	59.22
380.789	36.69
380.999	102.23
381.21	75.6
381.42	53.08
381.63	48.98
381.84	110.42
382.05	89.94
382.261	28.5
382.471	73.56
382.681	81.75
382.891	53.08
383.101	122.71
383.311	77.65
383.521	18.26
383.731	83.8
383.941	102.23
384.151	40.79
384.361	57.17
384.571	110.42
384.781	51.03
384.991	61.27
385.201	85.84
385.411	28.5
385.621	77.65
385.831	38.74
386.041	3.93
386.251	16.21
386.461	67.41
386.671	40.79
386.881	98.13
387.091	69.46
387.301	118.61
387.511	38.74
387.72	87.89
387.93	51.03
388.14	-32.94
388.35	3.93
388.56	34.64
388.769	40.79
388.979	30.55
389.189	40.79
389.399	51.03
389.609	51.03
389.818	85.84
390.028	55.12
390.238	55.12
390.447	24.4
390.657	106.32
390.867	20.31
391.076	-4.27
391.286	65.36
391.496	81.75
391.705	96.08
391.915	83.8
392.125	106.32
392.334	24.4
392.544	42.84
392.753	18.26
392.963	61.27
393.172	71.51
393.382	18.26
393.591	118.61
393.801	16.21
394.01	63.32
394.22	145.24
394.429	91.99
394.639	55.12
394.848	67.41
395.058	112.47
395.267	16.21
395.477	81.75
395.686	40.79
395.895	5.97
396.105	153.43
396.314	98.13
396.524	94.04
396.733	30.55
396.942	110.42
397.152	57.17
397.361	94.04
397.57	67.41
397.78	55.12
397.989	91.99
398.198	132.95
398.407	71.51
398.617	126.8
398.826	63.32
399.035	42.84
399.244	16.21
399.453	159.57
399.663	114.52
399.872	110.42
400.081	22.36
400.29	139.09
400.499	57.17
400.708	137.04
400.917	132.95
401.127	20.31
401.336	85.84
401.545	63.32
401.754	112.47
401.963	167.76
402.172	128.85
402.381	118.61
402.59	104.28
402.799	145.24
403.008	169.81
403.217	141.14
403.426	118.61
403.635	118.61
403.844	145.24
404.053	128.85
404.262	120.66
404.471	175.95
404.68	89.94
404.888	143.19
405.097	46.93
405.306	98.13
405.515	190.29
405.724	118.61
405.933	145.24
406.142	118.61
406.35	159.57
406.559	55.12
406.768	108.37
406.977	139.09
407.185	175.95
407.394	141.14
407.603	167.76
407.812	104.28
408.02	245.59
408.229	165.71
408.438	163.67
408.646	206.67
408.855	188.24
409.064	171.86
409.272	204.63
409.481	218.96
409.69	122.71
409.898	245.59
410.107	239.44
410.315	253.78
410.524	202.58
410.733	270.16
410.941	323.41
411.15	304.98
411.358	317.26
411.567	296.78
411.775	272.21
411.984	288.59
412.192	311.12
412.401	423.76
412.609	380.75
412.818	401.23
413.026	393.04
413.234	442.19
413.443	409.42
413.651	466.77
413.86	413.52
414.068	472.91
414.276	466.77
414.485	530.25
414.693	513.87
414.901	563.02
415.11	511.82
415.318	530.25
415.526	532.3
415.734	546.64
415.943	675.66
416.151	712.52
416.359	579.4
416.567	692.04
416.776	669.52
416.984	798.54
417.192	819.02
417.4	724.81
417.608	722.76
417.817	778.06
418.025	827.21
418.233	866.12
418.441	911.18
418.649	886.6
418.857	980.81
419.065	1068.87
419.273	980.81
419.481	1025.86
419.689	1181.51
419.897	1152.84
420.105	1158.98
420.313	1298.24
420.521	1183.56
420.729	1294.15
420.937	1371.97
421.145	1437.5
421.353	1449.79
421.561	1408.83
421.769	1535.81
421.977	1505.09
422.185	1644.35
422.393	1728.31
422.601	1732.41
422.809	1853.24
423.017	1791.8
423.224	1879.86
423.432	2010.93
423.64	1869.62
423.848	2086.71
424.056	2121.52
424.263	2187.06
424.471	2234.16
424.679	2342.71
424.887	2406.19
425.094	2371.38
425.302	2410.29
425.51	2445.1
425.718	2670.38
425.925	2656.04
426.133	2832.17
426.341	3065.64
426.548	3067.69
426.756	3147.56
426.964	3112.74
427.171	3262.24
427.379	3374.88
427.586	3520.29
427.794	3514.14
428.001	3600.16
428.209	3890.97
428.417	3718.94
428.624	4060.95
428.832	3993.37
429.039	4036.38
429.247	3897.11
429.454	4431.63
429.662	4716.3
429.869	4302.61
430.076	4671.25
430.284	4476.69
430.491	4800.27
430.699	4974.35
430.906	5050.12
431.114	5068.55
431.321	5453.57
431.528	5285.64
431.736	5738.24
431.943	6045.43
432.15	5740.29
432.358	5983.99
432.565	6125.3
432.772	6158.07
432.979	6653.68
433.187	6766.32
433.394	6704.88
433.601	7180.01
433.808	7161.58
434.016	7075.56
434.223	7425.76
434.43	7763.68
434.637	7638.75
434.844	8285.91
435.052	8376.02
435.259	8378.07
435.466	8337.11
435.673	8259.29
435.88	8875.73
436.087	9332.42
436.294	9273.03
436.501	9098.95
436.708	8982.22
436.915	9598.66
437.122	10092.22
437.329	9782.98
437.537	10143.42
437.743	10335.93
437.95	10106.56
438.157	10788.53
438.364	11210.41
438.571	10989.23
438.778	11220.65
438.985	12408.47
439.192	11620
439.399	12037.79
439.606	11951.77
439.813	12584.6
440.02	13233.8
440.227	13201.04
440.433	13207.18
440.64	13489.8
440.847	13383.31
441.054	13674.12
441.261	14683.77
441.467	14577.27
441.674	14556.79
441.881	15136.37
442.088	15087.22
442.294	14913.14
442.501	15566.44
442.708	15761
442.914	16215.65
443.121	16930.39
443.328	16565.85
443.534	17823.3
443.741	17172.05
443.948	17223.25
444.154	18300.48
444.361	18087.49
444.568	18060.87
444.774	18431.55
444.981	18345.53
445.187	18949.68
445.394	19854.89
445.6	19435.05
445.807	21440.01
446.013	20319.78
446.22	20667.93
446.426	21587.47
446.633	21763.59
446.839	22623.74
447.046	21632.52
447.252	22920.7
447.459	22806.01
447.665	22797.82
447.871	23829.99
448.078	24370.66
448.284	23324.15
448.491	24137.19
448.697	25048.54
448.903	25701.84
449.11	25544.14
449.316	24964.57
449.522	25146.84
449.728	26258.88
449.935	26203.59
450.141	26316.23
450.347	26738.11
450.553	25914.83
450.76	26361.28
450.966	26691.01
451.172	26705.34
451.378	27561.39
451.584	26820.03
451.791	27438.51
451.997	27669.94
452.203	27862.44
452.409	27915.69
452.615	27588.02
452.821	26770.88
453.027	26314.18
453.233	27831.72
453.44	26527.17
453.646	27076.02
453.852	27176.37
454.058	27225.53
454.264	26631.61
454.47	26789.31
454.676	26793.4
454.882	27209.14
455.088	24962.52
455.294	25146.84
455.5	25263.57
455.705	25912.78
455.911	24948.18
456.117	24311.27
456.323	24174.05
456.529	22828.54
456.735	23408.11
456.941	23109.11
457.147	22578.68
457.352	22103.56
457.558	21841.42
457.764	21521.93
457.97	21536.27
458.176	20909.59
458.381	20813.34
458.587	20080.16
458.793	20074.02
458.999	19090.99
459.204	19961.38
459.41	19598.89
459.616	18280
459.821	18316.86
460.027	18181.7
460.233	17798.73
460.438	17038.93
460.644	17157.71
460.85	16524.89
461.055	16293.47
461.261	15957.6
461.466	14843.51
461.672	14409.34
461.878	15421.03
462.083	14446.2
462.289	14079.61
462.494	14276.22
462.7	13407.88
462.905	13010.57
463.111	13643.4
463.316	13694.6
463.522	13377.16
463.727	13278.86
463.932	13495.94
464.138	13301.39
464.343	13368.97
464.549	12945.04
464.754	13207.18
464.959	13293.19
465.165	13051.53
465.37	12572.31
465.575	12101.28
465.781	12613.27
465.986	12807.83
466.191	12191.39
466.397	12060.32
466.602	11460.26
466.807	11998.88
467.012	11718.31
467.218	11935.39
467.423	11724.45
467.628	11884.19
467.833	12056.22
