Data from USB4F104151__57__11-05-55-087.txt Node

Date: Wed Mar 12 11:05:55 EDT 2025
User: louis
Spectrometer: USB4F10415
Trigger mode: 4
Integration Time (sec): 2.000000E-2
Scans to average: 1
Electric dark correction enabled: true
Nonlinearity correction enabled: false
Boxcar width: 0
XAxis mode: Wavelengths
Number of Pixels in Spectrum: 3648
>>>>>Begin Spectral Data<<<<<
178.204	38.74
178.424	38.74
178.644	38.74
178.864	-106.67
179.084	-137.38
179.304	10.07
179.524	28.5
179.744	-37.03
179.964	36.69
180.184	-6.31
180.404	18.26
180.624	-18.6
180.844	61.27
181.064	8.02
181.283	1.88
181.503	-18.6
181.723	-84.14
181.943	-41.13
182.163	-22.7
182.383	53.08
182.602	-39.08
182.822	38.74
183.042	34.64
183.262	-24.75
183.482	-24.75
183.701	94.04
183.921	30.55
184.141	118.61
184.361	-4.27
184.58	-41.13
184.8	104.28
185.02	8.02
185.239	18.26
185.459	18.26
185.679	-10.41
185.898	-12.46
186.118	94.04
186.338	40.79
186.557	81.75
186.777	8.02
186.997	38.74
187.216	55.12
187.436	149.33
187.655	48.98
187.875	1.88
188.095	1.88
188.314	16.21
188.534	42.84
188.753	59.22
188.973	32.6
189.192	71.51
189.412	87.89
189.631	16.21
189.851	1.88
190.07	24.4
190.29	22.36
190.509	-28.84
190.729	53.08
190.948	-28.84
191.168	59.22
191.387	26.45
191.607	-6.31
191.826	40.79
192.045	24.4
192.265	108.37
192.484	30.55
192.704	61.27
192.923	-24.75
193.142	30.55
193.362	-69.8
193.581	36.69
193.8	16.21
194.02	79.7
194.239	-20.65
194.458	42.84
194.678	-6.31
194.897	-10.41
195.116	1.88
195.335	40.79
195.555	38.74
195.774	-22.7
195.993	94.04
196.212	106.32
196.432	36.69
196.651	57.17
196.87	32.6
197.089	30.55
197.308	-12.46
197.528	-2.22
197.747	14.17
197.966	40.79
198.185	-14.51
198.404	51.03
198.623	32.6
198.842	24.4
199.062	18.26
199.281	77.65
199.5	96.08
199.719	14.17
199.938	81.75
200.157	24.4
200.376	40.79
200.595	28.5
200.814	-28.84
201.033	36.69
201.252	38.74
201.471	12.12
201.69	75.6
201.909	51.03
202.128	-14.51
202.347	26.45
202.566	8.02
202.785	26.45
203.004	5.97
203.223	3.93
203.442	42.84
203.661	22.36
203.879	8.02
204.098	42.84
204.317	59.22
204.536	46.93
204.755	-12.46
204.974	77.65
205.193	87.89
205.411	53.08
205.63	59.22
205.849	57.17
206.068	28.5
206.287	-22.7
206.505	18.26
206.724	-12.46
206.943	91.99
207.162	22.36
207.381	36.69
207.599	34.64
207.818	5.97
208.037	22.36
208.255	65.36
208.474	51.03
208.693	34.64
208.911	5.97
209.13	59.22
209.349	42.84
209.567	34.64
209.786	30.55
210.005	55.12
210.223	-8.36
210.442	-6.31
210.661	8.02
210.879	69.46
211.098	46.93
211.316	-26.79
211.535	38.74
211.753	67.41
211.972	34.64
212.191	-28.84
212.409	26.45
212.628	1.88
212.846	55.12
213.065	-24.75
213.283	22.36
213.502	51.03
213.72	53.08
213.938	12.12
214.157	22.36
214.375	22.36
214.594	67.41
214.812	63.32
215.031	-0.17
215.249	30.55
215.467	-8.36
215.686	1.88
215.904	42.84
216.122	75.6
216.341	81.75
216.559	38.74
216.778	67.41
216.996	44.88
217.214	34.64
217.432	65.36
217.651	71.51
217.869	-49.32
218.087	55.12
218.306	26.45
218.524	53.08
218.742	-6.31
218.96	69.46
219.179	-67.75
219.397	38.74
219.615	167.76
219.833	-24.75
220.051	-0.17
220.27	73.56
220.488	36.69
220.706	67.41
220.924	-34.99
221.142	63.32
221.36	42.84
221.578	22.36
221.796	-10.41
222.015	38.74
222.233	16.21
222.451	67.41
222.669	16.21
222.887	91.99
223.105	55.12
223.323	-2.22
223.541	-8.36
223.759	34.64
223.977	94.04
224.195	57.17
224.413	26.45
224.631	40.79
224.849	18.26
225.067	18.26
225.285	-26.79
225.503	-0.17
225.721	20.31
225.939	94.04
226.157	46.93
226.375	32.6
226.592	46.93
226.81	-34.99
227.028	16.21
227.246	32.6
227.464	65.36
227.682	112.47
227.9	32.6
228.117	87.89
228.335	18.26
228.553	36.69
228.771	75.6
228.989	22.36
229.206	-6.31
229.424	40.79
229.642	63.32
229.86	36.69
230.077	-30.89
230.295	85.84
230.513	1.88
230.731	40.79
230.948	114.52
231.166	44.88
231.384	-14.51
231.601	-16.55
231.819	79.7
232.037	106.32
232.254	46.93
232.472	55.12
232.689	87.89
232.907	48.98
233.125	-10.41
233.342	46.93
233.56	22.36
233.777	44.88
233.995	67.41
234.213	32.6
234.43	44.88
234.648	38.74
234.865	-8.36
235.083	116.56
235.3	-26.79
235.518	12.12
235.735	67.41
235.953	38.74
236.17	26.45
236.388	10.07
236.605	-0.17
236.822	8.02
237.04	-12.46
237.257	67.41
237.475	40.79
237.692	30.55
237.909	40.79
238.127	67.41
238.344	16.21
238.562	91.99
238.779	79.7
238.996	28.5
239.214	85.84
239.431	77.65
239.648	-22.7
239.865	26.45
240.083	30.55
240.3	12.12
240.517	-12.46
240.735	34.64
240.952	71.51
241.169	100.18
241.386	18.26
241.603	42.84
241.821	36.69
242.038	61.27
242.255	91.99
242.472	5.97
242.689	65.36
242.907	96.08
243.124	75.6
243.341	73.56
243.558	51.03
243.775	-0.17
243.992	59.22
244.209	-20.65
244.426	20.31
244.643	48.98
244.86	-0.17
245.078	-8.36
245.295	14.17
245.512	14.17
245.729	-16.55
245.946	36.69
246.163	32.6
246.38	94.04
246.597	55.12
246.814	61.27
247.031	30.55
247.248	59.22
247.464	53.08
247.681	-2.22
247.898	57.17
248.115	59.22
248.332	-4.27
248.549	53.08
248.766	94.04
248.983	-2.22
249.2	75.6
249.417	71.51
249.633	40.79
249.85	112.47
250.067	81.75
250.284	28.5
250.501	59.22
250.717	32.6
250.934	57.17
251.151	34.64
251.368	14.17
251.585	75.6
251.801	-8.36
252.018	1.88
252.235	83.8
252.451	-28.84
252.668	-14.51
252.885	30.55
253.102	98.13
253.318	10.07
253.535	34.64
253.752	20.31
253.968	42.84
254.185	63.32
254.401	69.46
254.618	34.64
254.835	81.75
255.051	53.08
255.268	16.21
255.484	22.36
255.701	65.36
255.917	59.22
256.134	32.6
256.351	53.08
256.567	36.69
256.784	120.66
257	-30.89
257.217	36.69
257.433	73.56
257.65	5.97
257.866	12.12
258.082	-14.51
258.299	32.6
258.515	18.26
258.732	3.93
258.948	46.93
259.165	5.97
259.381	81.75
259.597	-14.51
259.814	55.12
260.03	-14.51
260.246	55.12
260.463	32.6
260.679	28.5
260.895	24.4
261.112	5.97
261.328	-24.75
261.544	1.88
261.761	100.18
261.977	-26.79
262.193	55.12
262.409	104.28
262.626	-2.22
262.842	28.5
263.058	32.6
263.274	42.84
263.49	51.03
263.707	63.32
263.923	75.6
264.139	5.97
264.355	42.84
264.571	100.18
264.787	26.45
265.004	24.4
265.22	77.65
265.436	3.93
265.652	53.08
265.868	-0.17
266.084	22.36
266.3	-10.41
266.516	26.45
266.732	73.56
266.948	81.75
267.164	10.07
267.38	87.89
267.596	69.46
267.812	10.07
268.028	28.5
268.244	55.12
268.46	61.27
268.676	30.55
268.892	91.99
269.108	5.97
269.324	48.98
269.54	46.93
269.756	5.97
269.972	30.55
270.188	120.66
270.403	61.27
270.619	-28.84
270.835	-2.22
271.051	10.07
271.267	73.56
271.483	77.65
271.698	32.6
271.914	44.88
272.13	34.64
272.346	87.89
272.562	40.79
272.777	87.89
272.993	14.17
273.209	-10.41
273.425	79.7
273.64	51.03
273.856	75.6
274.072	30.55
274.287	75.6
274.503	65.36
274.719	-28.84
274.934	61.27
275.15	38.74
275.366	81.75
275.581	65.36
275.797	5.97
276.012	-2.22
276.228	8.02
276.444	65.36
276.659	171.86
276.875	83.8
277.09	12.12
277.306	38.74
277.521	53.08
277.737	38.74
277.952	91.99
278.168	12.12
278.383	59.22
278.599	94.04
278.814	42.84
279.03	22.36
279.245	24.4
279.461	-55.47
279.676	79.7
279.892	-4.27
280.107	-32.94
280.322	98.13
280.538	28.5
280.753	8.02
280.969	65.36
281.184	-37.03
281.399	61.27
281.615	51.03
281.83	44.88
282.045	20.31
282.26	32.6
282.476	-59.56
282.691	5.97
282.906	79.7
283.122	48.98
283.337	22.36
283.552	55.12
283.767	-34.99
283.983	44.88
284.198	57.17
284.413	100.18
284.628	12.12
284.843	42.84
285.058	16.21
285.274	-41.13
285.489	71.51
285.704	48.98
285.919	44.88
286.134	67.41
286.349	-10.41
286.564	122.71
286.779	63.32
286.995	94.04
287.21	59.22
287.425	79.7
287.64	-34.99
287.855	73.56
288.07	-0.17
288.285	20.31
288.5	116.56
288.715	83.8
288.93	30.55
289.145	57.17
289.36	26.45
289.575	38.74
289.79	8.02
290.004	1.88
290.219	30.55
290.434	61.27
290.649	48.98
290.864	30.55
291.079	18.26
291.294	85.84
291.509	1.88
291.724	53.08
291.938	42.84
292.153	69.46
292.368	-32.94
292.583	20.31
292.798	12.12
293.012	87.89
293.227	8.02
293.442	65.36
293.657	59.22
293.871	48.98
294.086	87.89
294.301	94.04
294.516	40.79
294.73	12.12
294.945	67.41
295.16	14.17
295.374	44.88
295.589	34.64
295.804	-51.37
296.018	28.5
296.233	46.93
296.447	20.31
296.662	-2.22
296.877	44.88
297.091	3.93
297.306	46.93
297.52	63.32
297.735	75.6
297.949	-0.17
298.164	26.45
298.378	73.56
298.593	38.74
298.807	67.41
299.022	106.32
299.236	12.12
299.451	87.89
299.665	1.88
299.88	40.79
300.094	51.03
300.309	57.17
300.523	18.26
300.737	24.4
300.952	71.51
301.166	38.74
301.381	67.41
301.595	83.8
301.809	-43.18
302.024	87.89
302.238	30.55
302.452	10.07
302.667	32.6
302.881	98.13
303.095	5.97
303.309	40.79
303.524	81.75
303.738	20.31
303.952	22.36
304.166	71.51
304.381	55.12
304.595	55.12
304.809	87.89
305.023	79.7
305.237	42.84
305.452	63.32
305.666	69.46
305.88	44.88
306.094	51.03
306.308	1.88
306.522	10.07
306.736	10.07
306.95	26.45
307.164	57.17
307.379	85.84
307.593	87.89
307.807	108.37
308.021	44.88
308.235	42.84
308.449	-16.55
308.663	79.7
308.877	67.41
309.091	36.69
309.305	-6.31
309.519	57.17
309.733	44.88
309.947	26.45
310.161	24.4
310.374	81.75
310.588	75.6
310.802	48.98
311.016	36.69
311.23	30.55
311.444	-32.94
311.658	-24.75
311.872	36.69
312.085	26.45
312.299	20.31
312.513	81.75
312.727	61.27
312.941	46.93
313.154	122.71
313.368	100.18
313.582	59.22
313.796	-2.22
314.009	51.03
314.223	30.55
314.437	79.7
314.651	24.4
314.864	89.94
315.078	104.28
315.292	77.65
315.505	-16.55
315.719	20.31
315.933	24.4
316.146	36.69
316.36	71.51
316.573	89.94
316.787	46.93
317.001	34.64
317.214	12.12
317.428	12.12
317.641	42.84
317.855	65.36
318.068	34.64
318.282	3.93
318.495	55.12
318.709	18.26
318.922	48.98
319.136	85.84
319.349	53.08
319.563	83.8
319.776	91.99
319.99	-22.7
320.203	44.88
320.417	57.17
320.63	36.69
320.843	110.42
321.057	48.98
321.27	141.14
321.483	102.23
321.697	40.79
321.91	-2.22
322.124	51.03
322.337	46.93
322.55	65.36
322.763	12.12
322.977	34.64
323.19	38.74
323.403	16.21
323.617	51.03
323.83	55.12
324.043	55.12
324.256	69.46
324.469	40.79
324.683	116.56
324.896	83.8
325.109	59.22
325.322	1.88
325.535	63.32
325.748	46.93
325.962	104.28
326.175	75.6
326.388	75.6
326.601	112.47
326.814	59.22
327.027	-41.13
327.24	69.46
327.453	-12.46
327.666	73.56
327.879	57.17
328.092	87.89
328.305	57.17
328.518	48.98
328.731	18.26
328.944	75.6
329.157	36.69
329.37	55.12
329.583	124.76
329.796	112.47
330.009	-123.05
330.222	161.62
330.435	1.88
330.648	34.64
330.861	14.17
331.073	-6.31
331.286	36.69
331.499	71.51
331.712	61.27
331.925	5.97
332.138	69.46
332.35	22.36
332.563	14.17
332.776	96.08
332.989	34.64
333.202	83.8
333.414	73.56
333.627	112.47
333.84	100.18
334.053	36.69
334.265	94.04
334.478	44.88
334.691	34.64
334.903	34.64
335.116	59.22
335.329	67.41
335.541	100.18
335.754	116.56
335.966	112.47
336.179	83.8
336.392	65.36
336.604	42.84
336.817	28.5
337.029	104.28
337.242	53.08
337.454	73.56
337.667	-18.6
337.88	63.32
338.092	-2.22
338.305	53.08
338.517	73.56
338.729	85.84
338.942	1.88
339.154	85.84
339.367	100.18
339.579	30.55
339.792	-0.17
340.004	28.5
340.217	69.46
340.429	12.12
340.641	20.31
340.854	57.17
341.066	26.45
341.278	65.36
341.491	40.79
341.703	120.66
341.915	59.22
342.128	48.98
342.34	132.95
342.552	34.64
342.764	120.66
342.977	-2.22
343.189	10.07
343.401	141.14
343.613	-10.41
343.826	67.41
344.038	63.32
344.25	83.8
344.462	42.84
344.674	98.13
344.886	75.6
345.099	55.12
345.311	55.12
345.523	-43.18
345.735	14.17
345.947	36.69
346.159	100.18
346.371	55.12
346.583	30.55
346.795	22.36
347.007	30.55
347.219	40.79
347.431	32.6
347.643	67.41
347.855	87.89
348.067	91.99
348.279	67.41
348.491	71.51
348.703	53.08
348.915	61.27
349.127	85.84
349.339	55.12
349.551	48.98
349.763	28.5
349.975	26.45
350.187	32.6
350.399	69.46
350.61	81.75
350.822	32.6
351.034	81.75
351.246	5.97
351.458	87.89
351.669	98.13
351.881	89.94
352.093	143.19
352.305	30.55
352.517	143.19
352.728	124.76
352.94	67.41
353.152	67.41
353.363	32.6
353.575	96.08
353.787	42.84
353.999	42.84
354.21	98.13
354.422	96.08
354.633	30.55
354.845	147.28
355.057	81.75
355.268	89.94
355.48	130.9
355.692	108.37
355.903	53.08
356.115	38.74
356.326	12.12
356.538	69.46
356.749	51.03
356.961	91.99
357.172	59.22
357.384	61.27
357.595	153.43
357.807	85.84
358.018	51.03
358.23	32.6
358.441	83.8
358.653	51.03
358.864	85.84
359.075	71.51
359.287	75.6
359.498	-10.41
359.709	22.36
359.921	18.26
360.132	67.41
360.344	59.22
360.555	91.99
360.766	59.22
360.977	44.88
361.189	44.88
361.4	112.47
361.611	128.85
361.823	89.94
362.034	53.08
362.245	34.64
362.456	-12.46
362.667	46.93
362.879	98.13
363.09	46.93
363.301	89.94
363.512	67.41
363.723	71.51
363.935	-2.22
364.146	34.64
364.357	118.61
364.568	-6.31
364.779	51.03
364.99	16.21
365.201	106.32
365.412	98.13
365.623	65.36
365.834	106.32
366.045	79.7
366.256	114.52
366.467	48.98
366.678	-0.17
366.889	83.8
367.1	87.89
367.311	89.94
367.522	-18.6
367.733	34.64
367.944	14.17
368.155	57.17
368.366	91.99
368.577	128.85
368.788	87.89
368.999	71.51
369.209	48.98
369.42	67.41
369.631	51.03
369.842	81.75
370.053	91.99
370.264	106.32
370.474	100.18
370.685	94.04
370.896	71.51
371.107	71.51
371.317	65.36
371.528	53.08
371.739	46.93
371.95	67.41
372.16	61.27
372.371	3.93
372.582	69.46
372.792	108.37
373.003	32.6
373.214	51.03
373.424	94.04
373.635	77.65
373.846	22.36
374.056	22.36
374.267	122.71
374.477	96.08
374.688	-10.41
374.898	81.75
375.109	71.51
375.319	-0.17
375.53	91.99
375.74	24.4
375.951	36.69
376.161	79.7
376.372	106.32
376.582	100.18
376.793	63.32
377.003	71.51
377.214	81.75
377.424	124.76
377.635	61.27
377.845	67.41
378.055	67.41
378.266	67.41
378.476	32.6
378.686	14.17
378.897	100.18
379.107	112.47
379.317	91.99
379.528	114.52
379.738	96.08
379.948	102.23
380.158	48.98
380.369	114.52
380.579	77.65
380.789	44.88
380.999	110.42
381.21	110.42
381.42	104.28
381.63	51.03
381.84	108.37
382.05	89.94
382.261	87.89
382.471	75.6
382.681	20.31
382.891	87.89
383.101	81.75
383.311	-39.08
383.521	77.65
383.731	55.12
383.941	85.84
384.151	108.37
384.361	81.75
384.571	53.08
384.781	67.41
384.991	12.12
385.201	159.57
385.411	116.56
385.621	75.6
385.831	38.74
386.041	55.12
386.251	65.36
386.461	26.45
386.671	165.71
386.881	55.12
387.091	106.32
387.301	57.17
387.511	73.56
387.72	132.95
387.93	75.6
388.14	34.64
388.35	55.12
388.56	44.88
388.769	110.42
388.979	81.75
389.189	46.93
389.399	94.04
389.609	167.76
389.818	77.65
390.028	137.04
390.238	161.62
390.447	61.27
390.657	153.43
390.867	61.27
391.076	71.51
391.286	108.37
391.496	83.8
391.705	42.84
391.915	135
392.125	59.22
392.334	114.52
392.544	91.99
392.753	124.76
392.963	46.93
393.172	118.61
393.382	91.99
393.591	102.23
393.801	42.84
394.01	124.76
394.22	34.64
394.429	118.61
394.639	104.28
394.848	46.93
395.058	110.42
395.267	110.42
395.477	139.09
395.686	100.18
395.895	139.09
396.105	143.19
396.314	100.18
396.524	132.95
396.733	87.89
396.942	128.85
397.152	48.98
397.361	108.37
397.57	100.18
397.78	87.89
397.989	100.18
398.198	182.1
398.407	139.09
398.617	141.14
398.826	130.9
399.035	163.67
399.244	108.37
399.453	153.43
399.663	210.77
399.872	167.76
400.081	51.03
400.29	153.43
400.499	147.28
400.708	173.91
400.917	132.95
401.127	112.47
401.336	198.48
401.545	218.96
401.754	218.96
401.963	169.81
402.172	151.38
402.381	104.28
402.59	173.91
402.799	126.8
403.008	196.43
403.217	210.77
403.426	173.91
403.635	155.47
403.844	147.28
404.053	130.9
404.262	132.95
404.471	161.62
404.68	188.24
404.888	143.19
405.097	116.56
405.306	188.24
405.515	196.43
405.724	276.31
405.933	200.53
406.142	169.81
406.35	190.29
406.559	214.87
406.768	274.26
406.977	231.25
407.185	178
407.394	321.36
407.603	227.15
407.812	180.05
408.02	255.83
408.229	276.31
408.438	206.67
408.646	264.02
408.855	378.7
409.064	307.02
409.272	276.31
409.481	309.07
409.69	327.5
409.898	382.8
410.107	360.27
410.315	468.81
410.524	280.4
410.733	413.52
410.941	438.09
411.15	403.28
411.358	372.56
411.567	491.34
411.775	450.38
411.984	462.67
412.192	501.58
412.401	477.01
412.609	540.49
412.818	556.88
413.026	593.74
413.234	587.6
413.443	614.22
413.651	603.98
413.86	624.46
414.068	767.82
414.276	626.51
414.485	685.9
414.693	843.59
414.901	831.3
415.11	843.59
415.318	919.37
415.526	862.02
415.734	882.5
415.943	915.27
416.151	898.89
416.359	945.99
416.567	1009.48
416.776	1050.44
416.984	1097.54
417.192	1122.12
417.4	1046.34
417.608	1154.88
417.817	1208.13
418.025	1201.99
418.233	1353.54
418.441	1298.24
418.649	1423.17
418.857	1496.89
419.065	1445.7
419.273	1603.39
419.481	1609.53
419.689	1679.16
419.897	1797.95
420.105	1711.93
420.313	1791.8
420.521	1945.4
420.729	1826.62
420.937	2008.89
421.145	2105.14
421.353	2219.83
421.561	2246.45
421.769	2240.31
421.977	2352.95
422.185	2428.72
422.393	2625.33
422.601	2543.41
422.809	2688.81
423.017	2600.75
423.224	2885.42
423.432	2852.65
423.64	2936.62
423.848	3112.74
424.056	3036.97
424.263	3385.12
424.471	3340.07
424.679	3481.38
424.887	3520.29
425.094	3880.73
425.302	3602.21
425.51	3948.31
425.718	3915.55
425.925	3970.84
426.133	4116.25
426.341	4470.55
426.548	4538.13
426.756	4601.62
426.964	4630.29
427.171	4816.65
427.379	4996.87
427.586	5142.28
427.794	5359.36
428.001	5635.84
428.209	5895.93
428.417	5656.32
428.624	6006.52
428.832	6219.51
429.039	6033.15
429.247	6096.63
429.454	6668.02
429.662	7130.86
429.869	6731.5
430.076	7089.9
430.284	7044.84
430.491	7139.05
430.699	7646.94
430.906	7640.8
431.114	7798.49
431.321	7935.71
431.528	8357.59
431.736	8597.2
431.943	9035.47
432.15	8883.92
432.358	8832.72
432.565	9656
432.772	9260.74
432.979	9780.93
433.187	10172.09
433.394	10170.04
433.601	10819.25
433.808	10892.98
434.016	10735.28
434.223	11349.67
434.43	11853.47
434.637	11663.01
434.844	12342.94
435.052	12680.85
435.259	12568.21
435.466	12676.76
435.673	12476.05
435.88	13366.92
436.087	14182.01
436.294	14198.4
436.501	13708.93
436.708	14315.13
436.915	14528.12
437.122	15535.72
437.329	15122.03
437.537	15316.59
437.743	16055.9
437.95	15853.16
438.157	16578.14
438.364	17233.49
438.571	17360.46
438.778	17319.5
438.985	18751.03
439.192	18112.06
439.399	18945.59
439.606	18275.9
439.813	19299.89
440.02	20278.82
440.227	20319.78
440.433	20078.11
440.64	20717.08
440.847	20659.74
441.054	20987.41
441.261	22498.81
441.467	22216.19
441.674	22361.6
441.881	23401.97
442.088	23471.6
442.294	23496.17
442.501	23827.95
442.708	24493.54
442.914	25361.87
443.121	26224.07
443.328	25654.73
443.534	27413.94
443.741	26469.83
443.948	26441.15
444.154	28292.52
444.361	27921.84
444.568	28241.32
444.774	28233.13
444.981	28542.37
445.187	29805.97
445.394	30705.02
445.6	30336.39
445.807	33281.37
446.013	31722.87
446.22	32437.61
446.426	33506.65
446.633	33920.34
446.839	34991.42
447.046	33676.63
447.252	35423.54
447.459	35577.14
447.665	35290.43
447.871	36736.29
448.078	38325.52
448.284	36676.9
448.491	37526.81
448.697	38919.43
448.903	39505.15
449.11	39558.39
449.316	38790.41
449.522	39636.22
449.728	40748.26
449.935	41002.21
450.141	41002.21
450.347	42001.62
450.553	40713.45
450.76	41209.06
450.966	42284.24
451.172	41659.61
451.378	42835.14
451.584	42050.77
451.791	42933.45
451.997	42855.62
452.203	43527.36
452.409	43474.11
452.615	43404.48
452.821	41581.79
453.027	41299.17
453.233	42984.65
453.44	41331.93
453.646	42294.48
453.852	42218.71
454.058	42773.7
454.264	41190.62
454.47	42276.05
454.676	41549.02
454.882	42360.01
455.088	38753.54
455.294	39562.49
455.5	40176.88
455.705	40254.7
455.911	38833.41
456.117	38292.75
456.323	37735.7
456.529	35499.32
456.735	36846.88
456.941	36177.2
457.147	35597.62
457.352	34266.44
457.558	34004.3
457.764	34108.75
457.97	33342.81
458.176	32382.31
458.381	32589.16
458.587	30819.71
458.793	31403.38
458.999	29396.37
459.204	31659.38
459.41	30741.89
459.616	28685.73
459.821	28638.62
460.027	28327.33
460.233	27946.41
460.438	26512.83
460.644	26856.89
460.85	25904.59
461.055	25558.48
461.261	25322.96
461.466	23526.89
461.672	22345.22
461.878	24473.06
462.083	22562.3
462.289	22187.52
462.494	22253.06
462.7	21128.72
462.905	20526.62
463.111	21483.02
463.316	21485.07
463.522	20977.17
463.727	20827.67
463.932	21095.96
464.138	20844.06
464.343	20917.78
464.549	20377.12
464.754	20835.86
464.959	20776.47
465.165	20678.17
465.37	19998.24
465.575	19422.76
465.781	19906.09
465.986	20219.42
466.191	19338.8
466.397	19232.3
466.602	18091.59
466.807	19074.61
467.012	18867.77
467.218	18568.76
