Data from USB4F104151__16__11-04-49-754.txt Node

Date: Wed Mar 12 11:04:49 EDT 2025
User: louis
Spectrometer: USB4F10415
Trigger mode: 4
Integration Time (sec): 2.000000E-2
Scans to average: 1
Electric dark correction enabled: true
Nonlinearity correction enabled: false
Boxcar width: 0
XAxis mode: Wavelengths
Number of Pixels in Spectrum: 3648
>>>>>Begin Spectral Data<<<<<
178.204	-137.04
178.424	-137.04
178.644	-137.04
178.864	-24.4
179.084	-94.04
179.304	12.46
179.524	-14.17
179.744	4.27
179.964	-22.36
180.184	-55.12
180.404	-10.07
180.624	47.27
180.844	-12.12
181.064	-44.88
181.283	14.51
181.503	12.46
181.723	67.75
181.943	-63.32
182.163	37.03
182.383	-48.98
182.602	-53.08
182.822	4.27
183.042	2.22
183.262	10.41
183.482	6.31
183.701	26.79
183.921	14.51
184.141	34.99
184.361	-18.26
184.58	-3.93
184.8	26.79
185.02	43.18
185.239	39.08
185.459	2.22
185.679	2.22
185.898	-79.7
186.118	-24.4
186.338	47.27
186.557	22.7
186.777	-32.6
186.997	-48.98
187.216	59.56
187.436	43.18
187.655	10.41
187.875	-16.21
188.095	12.46
188.314	37.03
188.534	43.18
188.753	-16.21
188.973	-3.93
189.192	30.89
189.412	14.51
189.631	-20.31
189.851	-24.4
190.07	71.85
190.29	-28.5
190.509	-24.4
190.729	0.17
190.948	-26.45
191.168	86.19
191.387	16.55
191.607	-16.21
191.826	24.75
192.045	20.65
192.265	45.23
192.484	75.95
192.704	-5.97
192.923	-22.36
193.142	6.31
193.362	8.36
193.581	100.52
193.8	10.41
194.02	26.79
194.239	-5.97
194.458	-3.93
194.678	8.36
194.897	57.51
195.116	22.7
195.335	-46.93
195.555	4.27
195.774	-12.12
195.993	-30.55
196.212	-18.26
196.432	-30.55
196.651	8.36
196.87	-5.97
197.089	45.23
197.308	-1.88
197.528	32.94
197.747	-40.79
197.966	16.55
198.185	-1.88
198.404	-1.88
198.623	2.22
198.842	45.23
199.062	-30.55
199.281	71.85
199.5	80.04
199.719	-18.26
199.938	26.79
200.157	6.31
200.376	10.41
200.595	24.75
200.814	14.51
201.033	4.27
201.252	51.37
201.471	-3.93
201.69	28.84
201.909	4.27
202.128	10.41
202.347	6.31
202.566	55.47
202.785	-14.17
203.004	53.42
203.223	37.03
203.442	-22.36
203.661	18.6
203.879	51.37
204.098	20.65
204.317	-26.45
204.536	12.46
204.755	-14.17
204.974	65.71
205.193	-1.88
205.411	61.61
205.63	-30.55
205.849	6.31
206.068	32.94
206.287	32.94
206.505	-3.93
206.724	61.61
206.943	-14.17
207.162	34.99
207.381	-8.02
207.599	-5.97
207.818	16.55
208.037	-16.21
208.255	65.71
208.474	0.17
208.693	18.6
208.911	45.23
209.13	24.75
209.349	-34.64
209.567	20.65
209.786	26.79
210.005	-10.07
210.223	-10.07
210.442	-42.84
210.661	94.38
210.879	26.79
211.098	18.6
211.316	-89.94
211.535	73.9
211.753	10.41
211.972	-5.97
212.191	-34.64
212.409	77.99
212.628	84.14
212.846	-46.93
213.065	28.84
213.283	53.42
213.502	32.94
213.72	-38.74
213.938	26.79
214.157	73.9
214.375	-3.93
214.594	39.08
214.812	61.61
215.031	20.65
215.249	4.27
215.467	16.55
215.686	6.31
215.904	-5.97
216.122	49.32
216.341	30.89
216.559	-34.64
216.778	22.7
216.996	-14.17
217.214	-73.56
217.432	-38.74
217.651	-5.97
217.869	24.75
218.087	43.18
218.306	-67.41
218.524	-1.88
218.742	34.99
218.96	28.84
219.179	-34.64
219.397	41.13
219.615	-32.6
219.833	73.9
220.051	12.46
220.27	-44.88
220.488	51.37
220.706	24.75
220.924	-28.5
221.142	-8.02
221.36	47.27
221.578	6.31
221.796	14.51
222.015	16.55
222.233	-59.22
222.451	20.65
222.669	-36.69
222.887	-1.88
223.105	32.94
223.323	-36.69
223.541	-5.97
223.759	94.38
223.977	20.65
224.195	34.99
224.413	-10.07
224.631	80.04
224.849	26.79
225.067	37.03
225.285	26.79
225.503	10.41
225.721	4.27
225.939	6.31
226.157	39.08
226.375	55.47
226.592	32.94
226.81	10.41
227.028	-5.97
227.246	10.41
227.464	10.41
227.682	59.56
227.9	-38.74
228.117	14.51
228.335	67.75
228.553	-20.31
228.771	53.42
228.989	-22.36
229.206	-8.02
229.424	-42.84
229.642	39.08
229.86	51.37
230.077	-26.45
230.295	34.99
230.513	39.08
230.731	18.6
230.948	6.31
231.166	-96.08
231.384	-22.36
231.601	104.62
231.819	49.32
232.037	75.95
232.254	-5.97
232.472	-3.93
232.689	2.22
232.907	-5.97
233.125	8.36
233.342	43.18
233.56	16.55
233.777	34.99
233.995	59.56
234.213	65.71
234.43	16.55
234.648	-48.98
234.865	43.18
235.083	10.41
235.3	63.66
235.518	6.31
235.735	30.89
235.953	-16.21
236.17	6.31
236.388	26.79
236.605	14.51
236.822	34.99
237.04	45.23
237.257	63.66
237.475	-34.64
237.692	43.18
237.909	24.75
238.127	39.08
238.344	-1.88
238.562	47.27
238.779	-51.03
238.996	18.6
239.214	67.75
239.431	24.75
239.648	-26.45
239.865	39.08
240.083	22.7
240.3	63.66
240.517	65.71
240.735	104.62
240.952	34.99
241.169	67.75
241.386	102.57
241.603	37.03
241.821	-124.76
242.038	-53.08
242.255	12.46
242.472	20.65
242.689	-8.02
242.907	6.31
243.124	8.36
243.341	53.42
243.558	-14.17
243.775	20.65
243.992	-1.88
244.209	6.31
244.426	90.28
244.643	-51.03
244.86	-20.31
245.078	67.75
245.295	65.71
245.512	18.6
245.729	-20.31
245.946	-28.5
246.163	67.75
246.38	63.66
246.597	-18.26
246.814	34.99
247.031	-14.17
247.248	51.37
247.464	10.41
247.681	84.14
247.898	-30.55
248.115	47.27
248.332	75.95
248.549	-3.93
248.766	98.47
248.983	73.9
249.2	-1.88
249.417	47.27
249.633	2.22
249.85	63.66
250.067	10.41
250.284	20.65
250.501	-1.88
250.717	49.32
250.934	-8.02
251.151	37.03
251.368	57.51
251.585	18.6
251.801	34.99
252.018	-42.84
252.235	45.23
252.451	-18.26
252.668	-63.32
252.885	106.67
253.102	-22.36
253.318	-8.02
253.535	-3.93
253.752	41.13
253.968	16.55
254.185	2.22
254.401	104.62
254.618	28.84
254.835	43.18
255.051	-8.02
255.268	51.37
255.484	-42.84
255.701	-3.93
255.917	-1.88
256.134	47.27
256.351	10.41
256.567	-16.21
256.784	-5.97
257	-71.51
257.217	-16.21
257.433	2.22
257.65	24.75
257.866	39.08
258.082	4.27
258.299	10.41
258.515	47.27
258.732	-40.79
258.948	-18.26
259.165	37.03
259.381	4.27
259.597	43.18
259.814	37.03
260.03	26.79
260.246	30.89
260.463	30.89
260.679	51.37
260.895	-14.17
261.112	106.67
261.328	-22.36
261.544	6.31
261.761	65.71
261.977	28.84
262.193	16.55
262.409	26.79
262.626	-67.41
262.842	32.94
263.058	-18.26
263.274	43.18
263.49	18.6
263.707	71.85
263.923	30.89
264.139	10.41
264.355	-46.93
264.571	-14.17
264.787	6.31
265.004	8.36
265.22	-42.84
265.436	43.18
265.652	-30.55
265.868	20.65
266.084	-14.17
266.3	-10.07
266.516	-26.45
266.732	59.56
266.948	108.71
267.164	53.42
267.38	26.79
267.596	10.41
267.812	32.94
268.028	-26.45
268.244	67.75
268.46	20.65
268.676	-42.84
268.892	90.28
269.108	14.51
269.324	108.71
269.54	0.17
269.756	-53.08
269.972	55.47
270.188	24.75
270.403	53.42
270.619	-22.36
270.835	-20.31
271.051	51.37
271.267	18.6
271.483	-28.5
271.698	57.51
271.914	24.75
272.13	-3.93
272.346	-30.55
272.562	-5.97
272.777	-1.88
272.993	-46.93
273.209	10.41
273.425	-38.74
273.64	30.89
273.856	75.95
274.072	32.94
274.287	26.79
274.503	-36.69
274.719	73.9
274.934	47.27
275.15	22.7
275.366	43.18
275.581	-46.93
275.797	4.27
276.012	26.79
276.228	24.75
276.444	65.71
276.659	20.65
276.875	10.41
277.09	116.9
277.306	49.32
277.521	-1.88
277.737	-44.88
277.952	26.79
278.168	-18.26
278.383	-5.97
278.599	-1.88
278.814	18.6
279.03	24.75
279.245	-12.12
279.461	-44.88
279.676	82.09
279.892	63.66
280.107	24.75
280.322	-16.21
280.538	-20.31
280.753	-14.17
280.969	57.51
281.184	22.7
281.399	43.18
281.615	-18.26
281.83	63.66
282.045	-53.08
282.26	6.31
282.476	-51.03
282.691	63.66
282.906	67.75
283.122	-18.26
283.337	-40.79
283.552	14.51
283.767	10.41
283.983	51.37
284.198	71.85
284.413	12.46
284.628	12.46
284.843	22.7
285.058	-16.21
285.274	-26.45
285.489	-36.69
285.704	47.27
285.919	-20.31
286.134	59.56
286.349	14.51
286.564	47.27
286.779	65.71
286.995	12.46
287.21	-26.45
287.425	63.66
287.64	-32.6
287.855	-20.31
288.07	34.99
288.285	6.31
288.5	-40.79
288.715	8.36
288.93	6.31
289.145	39.08
289.36	22.7
289.575	30.89
289.79	-3.93
290.004	-20.31
290.219	71.85
290.434	8.36
290.649	22.7
290.864	0.17
291.079	-20.31
291.294	34.99
291.509	45.23
291.724	82.09
291.938	43.18
292.153	-10.07
292.368	-28.5
292.583	-36.69
292.798	34.99
293.012	53.42
293.227	-12.12
293.442	26.79
293.657	2.22
293.871	82.09
294.086	-1.88
294.301	69.8
294.516	2.22
294.73	59.56
294.945	0.17
295.16	26.79
295.374	24.75
295.589	37.03
295.804	-36.69
296.018	2.22
296.233	69.8
296.447	18.6
296.662	-5.97
296.877	73.9
297.091	-22.36
297.306	47.27
297.52	30.89
297.735	80.04
297.949	-32.6
298.164	10.41
298.378	30.89
298.593	24.75
298.807	61.61
299.022	-3.93
299.236	28.84
299.451	39.08
299.665	28.84
299.88	75.95
300.094	-57.17
300.309	10.41
300.523	30.89
300.737	8.36
300.952	53.42
301.166	-28.5
301.381	-16.21
301.595	92.33
301.809	-5.97
302.024	32.94
302.238	47.27
302.452	-36.69
302.667	84.14
302.881	14.51
303.095	10.41
303.309	80.04
303.524	-42.84
303.738	8.36
303.952	-94.04
304.166	82.09
304.381	-34.64
304.595	34.99
304.809	18.6
305.023	41.13
305.237	37.03
305.452	24.75
305.666	24.75
305.88	61.61
306.094	-18.26
306.308	8.36
306.522	32.94
306.736	-42.84
306.95	57.51
307.164	30.89
307.379	-5.97
307.593	41.13
307.807	30.89
308.021	71.85
308.235	30.89
308.449	-42.84
308.663	39.08
308.877	94.38
309.091	22.7
309.305	49.32
309.519	6.31
309.733	57.51
309.947	-18.26
310.161	4.27
310.374	10.41
310.588	47.27
310.802	-8.02
311.016	-55.12
311.23	71.85
311.444	20.65
311.658	39.08
311.872	10.41
312.085	-14.17
312.299	59.56
312.513	51.37
312.727	65.71
312.941	22.7
313.154	10.41
313.368	-12.12
313.582	96.43
313.796	16.55
314.009	53.42
314.223	57.51
314.437	20.65
314.651	-38.74
314.864	26.79
315.078	26.79
315.292	-5.97
315.505	10.41
315.719	-1.88
315.933	-3.93
316.146	-10.07
316.36	-59.22
316.573	30.89
316.787	61.61
317.001	47.27
317.214	-20.31
317.428	-3.93
317.641	166.06
317.855	-30.55
318.068	8.36
318.282	-59.22
318.495	49.32
318.709	-36.69
318.922	34.99
319.136	71.85
319.349	-55.12
319.563	22.7
319.776	14.51
319.99	82.09
320.203	86.19
320.417	12.46
320.63	34.99
320.843	-44.88
321.057	26.79
321.27	63.66
321.483	-5.97
321.697	32.94
321.91	51.37
322.124	-5.97
322.337	18.6
322.55	39.08
322.763	51.37
322.977	-26.45
323.19	30.89
323.403	67.75
323.617	80.04
323.83	12.46
324.043	-46.93
324.256	16.55
324.469	43.18
324.683	59.56
324.896	47.27
325.109	67.75
325.322	-38.74
325.535	8.36
325.748	-20.31
325.962	53.42
326.175	49.32
326.388	71.85
326.601	0.17
326.814	12.46
327.027	-48.98
327.24	14.51
327.453	-10.07
327.666	133.29
327.879	75.95
328.092	45.23
328.305	-26.45
328.518	22.7
328.731	-18.26
328.944	20.65
329.157	-28.5
329.37	24.75
329.583	2.22
329.796	4.27
330.009	75.95
330.222	10.41
330.435	2.22
330.648	59.56
330.861	-10.07
331.073	37.03
331.286	8.36
331.499	63.66
331.712	-1.88
331.925	-3.93
332.138	67.75
332.35	61.61
332.563	14.51
332.776	45.23
332.989	-26.45
333.202	69.8
333.414	-1.88
333.627	28.84
333.84	84.14
334.053	49.32
334.265	26.79
334.478	98.47
334.691	55.47
334.903	57.51
335.116	24.75
335.329	37.03
335.541	30.89
335.754	22.7
335.966	-10.07
336.179	-40.79
336.392	-30.55
336.604	59.56
336.817	51.37
337.029	55.47
337.242	14.51
337.454	55.47
337.667	-26.45
337.88	100.52
338.092	-42.84
338.305	63.66
338.517	2.22
338.729	57.51
338.942	43.18
339.154	-53.08
339.367	-46.93
339.579	39.08
339.792	10.41
340.004	90.28
340.217	-28.5
340.429	57.51
340.641	2.22
340.854	55.47
341.066	45.23
341.278	53.42
341.491	118.95
341.703	-32.6
341.915	0.17
342.128	18.6
342.34	22.7
342.552	108.71
342.764	-24.4
342.977	0.17
343.189	65.71
343.401	86.19
343.613	32.94
343.826	-3.93
344.038	22.7
344.25	45.23
344.462	43.18
344.674	59.56
344.886	37.03
345.099	53.42
345.311	51.37
345.523	22.7
345.735	71.85
345.947	65.71
346.159	0.17
346.371	77.99
346.583	28.84
346.795	61.61
347.007	10.41
347.219	77.99
347.431	67.75
347.643	41.13
347.855	-3.93
348.067	32.94
348.279	45.23
348.491	10.41
348.703	55.47
348.915	18.6
349.127	0.17
349.339	80.04
349.551	22.7
349.763	106.67
349.975	32.94
350.187	65.71
350.399	4.27
350.61	135.34
350.822	34.99
351.034	24.75
351.246	-20.31
351.458	49.32
351.669	88.23
351.881	61.61
352.093	26.79
352.305	18.6
352.517	8.36
352.728	47.27
352.94	16.55
353.152	82.09
353.363	-22.36
353.575	47.27
353.787	2.22
353.999	77.99
354.21	18.6
354.422	100.52
354.633	-14.17
354.845	4.27
355.057	4.27
355.268	53.42
355.48	34.99
355.692	20.65
355.903	47.27
356.115	26.79
356.326	63.66
356.538	90.28
356.749	51.37
356.961	49.32
357.172	34.99
357.384	-12.12
357.595	-12.12
357.807	61.61
358.018	28.84
358.23	-30.55
358.441	49.32
358.653	16.55
358.864	20.65
359.075	-3.93
359.287	22.7
359.498	26.79
359.709	20.65
359.921	86.19
360.132	71.85
360.344	39.08
360.555	10.41
360.766	34.99
360.977	-46.93
361.189	94.38
361.4	18.6
361.611	37.03
361.823	67.75
362.034	0.17
362.245	47.27
362.456	26.79
362.667	26.79
362.879	47.27
363.09	49.32
363.301	6.31
363.512	6.31
363.723	-30.55
363.935	-38.74
364.146	0.17
364.357	8.36
364.568	2.22
364.779	-1.88
364.99	43.18
365.201	12.46
365.412	86.19
365.623	10.41
365.834	43.18
366.045	10.41
366.256	34.99
366.467	118.95
366.678	174.25
366.889	14.51
367.1	0.17
367.311	-26.45
367.522	18.6
367.733	22.7
367.944	57.51
368.155	49.32
368.366	-30.55
368.577	86.19
368.788	80.04
368.999	49.32
369.209	57.51
369.42	57.51
369.631	37.03
369.842	6.31
370.053	47.27
370.264	71.85
370.474	28.84
370.685	18.6
370.896	26.79
371.107	-22.36
371.317	114.86
371.528	10.41
371.739	30.89
371.95	26.79
372.16	32.94
372.371	30.89
372.582	47.27
372.792	2.22
373.003	4.27
373.214	18.6
373.424	84.14
373.635	32.94
373.846	-8.02
374.056	47.27
374.267	39.08
374.477	92.33
374.688	30.89
374.898	88.23
375.109	47.27
375.319	-3.93
375.53	34.99
375.74	41.13
375.951	8.36
376.161	28.84
376.372	32.94
376.582	53.42
376.793	8.36
377.003	-34.64
377.214	61.61
377.424	26.79
377.635	45.23
377.845	18.6
378.055	65.71
378.266	-8.02
378.476	14.51
378.686	28.84
378.897	57.51
379.107	47.27
379.317	-61.27
379.528	18.6
379.738	98.47
379.948	12.46
380.158	18.6
380.369	71.85
380.579	69.8
380.789	0.17
380.999	-8.02
381.21	28.84
381.42	100.52
381.63	12.46
381.84	55.47
382.05	-30.55
382.261	30.89
382.471	41.13
382.681	-44.88
382.891	123.05
383.101	102.57
383.311	45.23
383.521	26.79
383.731	-65.36
383.941	14.51
384.151	18.6
384.361	94.38
384.571	59.56
384.781	22.7
384.991	141.48
385.201	43.18
385.411	73.9
385.621	28.84
385.831	67.75
386.041	51.37
386.251	8.36
386.461	100.52
386.671	2.22
386.881	100.52
387.091	20.65
387.301	88.23
387.511	-20.31
387.72	51.37
387.93	41.13
388.14	24.75
388.35	4.27
388.56	157.86
388.769	43.18
388.979	82.09
389.189	-5.97
389.399	32.94
389.609	57.51
389.818	57.51
390.028	37.03
390.238	108.71
390.447	43.18
390.657	18.6
390.867	51.37
391.076	-38.74
391.286	69.8
391.496	53.42
391.705	41.13
391.915	133.29
392.125	108.71
392.334	51.37
392.544	73.9
392.753	51.37
392.963	34.99
393.172	125.1
393.382	59.56
393.591	26.79
393.801	63.66
394.01	43.18
394.22	49.32
394.429	104.62
394.639	57.51
394.848	43.18
395.058	88.23
395.267	59.56
395.477	30.89
395.686	14.51
395.895	82.09
396.105	80.04
396.314	43.18
396.524	112.81
396.733	30.89
396.942	96.43
397.152	63.66
397.361	131.24
397.57	37.03
397.78	137.38
397.989	28.84
398.198	90.28
398.407	80.04
398.617	73.9
398.826	-20.31
399.035	149.67
399.244	80.04
399.453	26.79
399.663	55.47
399.872	108.71
400.081	20.65
400.29	110.76
400.499	30.89
400.708	118.95
400.917	84.14
401.127	75.95
401.336	108.71
401.545	112.81
401.754	55.47
401.963	80.04
402.172	51.37
402.381	16.55
402.59	174.25
402.799	41.13
403.008	108.71
403.217	145.58
403.426	112.81
403.635	51.37
403.844	8.36
404.053	170.15
404.262	106.67
404.471	84.14
404.68	84.14
404.888	139.43
405.097	67.75
405.306	135.34
405.515	80.04
405.724	108.71
405.933	106.67
406.142	98.47
406.35	98.47
406.559	137.38
406.768	123.05
406.977	106.67
407.185	108.71
407.394	155.82
407.603	137.38
407.812	112.81
408.02	190.63
408.229	118.95
408.438	164.01
408.646	47.27
408.855	116.9
409.064	161.96
409.272	196.78
409.481	159.91
409.69	161.96
409.898	186.54
410.107	233.64
410.315	164.01
410.524	247.97
410.733	252.07
410.941	176.3
411.15	243.88
411.358	266.41
411.567	266.41
411.775	235.69
411.984	288.93
412.192	272.55
412.401	270.5
412.609	270.5
412.818	307.37
413.026	405.67
413.234	319.65
413.443	362.66
413.651	313.51
413.86	391.33
414.068	374.95
414.276	370.85
414.485	424.1
414.693	471.2
414.901	508.07
415.11	536.74
415.318	477.35
415.526	526.5
415.734	522.4
415.943	524.45
416.151	501.92
416.359	526.5
416.567	587.94
416.776	647.33
416.984	673.95
417.192	743.58
417.4	647.33
417.608	610.47
417.817	686.24
418.025	825.5
418.233	772.25
418.441	798.88
418.649	768.16
418.857	770.21
419.065	792.73
419.273	876.7
419.481	923.8
419.689	927.9
419.897	1011.87
420.105	1069.21
420.313	1116.31
420.521	1079.45
420.729	1108.12
420.937	1095.83
421.145	1163.42
421.353	1226.9
421.561	1335.45
421.769	1349.78
421.977	1392.79
422.185	1364.12
422.393	1441.94
422.601	1513.62
422.809	1532.05
423.017	1462.42
423.224	1566.87
423.432	1693.84
423.64	1661.07
423.848	1794.19
424.056	1767.57
424.263	1810.58
424.471	1904.78
424.679	2039.95
424.887	2007.18
425.094	2111.63
425.302	2181.26
425.51	2214.02
425.718	2218.12
425.925	2316.42
426.133	2465.93
426.341	2506.88
426.548	2490.5
426.756	2652.29
426.964	2732.16
427.171	2801.79
427.379	2777.22
427.586	2982.01
427.794	3029.12
428.001	3149.95
428.209	3315.83
428.417	3270.78
428.624	3573.88
428.832	3491.96
429.039	3582.07
429.247	3399.8
429.454	3833.97
429.662	4126.83
429.869	3784.82
430.076	4155.5
430.284	3889.26
430.491	4202.6
430.699	4337.77
430.906	4327.53
431.114	4354.15
431.321	4724.83
431.528	4655.2
431.736	4847.71
431.943	5296.22
432.15	5128.28
432.358	5288.03
432.565	5199.96
432.772	5429.34
432.979	5808.21
433.187	5800.02
433.394	5781.59
433.601	6295.63
433.808	6162.51
434.016	6113.36
434.223	6400.07
434.43	6844.48
434.637	6651.97
434.844	7075.9
435.052	7229.5
435.259	7198.78
435.466	7213.12
435.673	7223.36
435.88	7559.22
436.087	8216.62
436.294	7903.28
436.501	7665.72
436.708	8050.74
436.915	8210.48
437.122	8622.12
437.329	8603.69
437.537	8855.59
437.743	9050.14
437.95	8882.21
438.157	9652.25
438.364	9834.52
438.571	9562.14
438.778	9811.99
438.985	11020.29
439.192	10344.46
439.399	10821.64
439.606	10344.46
439.813	10997.76
440.02	11585.53
440.227	11569.15
440.433	11296.77
440.64	11773.94
440.847	11982.84
441.054	12027.89
441.261	12736.49
441.467	12722.15
441.674	12750.82
441.881	12939.24
442.088	13283.3
442.294	12949.48
442.501	13563.87
442.708	13762.52
442.914	14299.09
443.121	15007.69
443.328	14491.6
443.534	15544.25
443.741	15118.28
443.948	14743.5
444.154	16287.67
444.361	15953.85
444.568	16113.59
444.774	16248.75
444.981	16373.68
445.187	16857
445.394	17508.26
445.6	17207.2
445.807	18857.87
446.013	18143.13
446.22	18343.83
446.426	19093.38
446.633	19185.54
446.839	20076.41
447.046	19095.43
447.252	20209.53
447.459	20092.79
447.665	20254.58
447.871	20944.75
448.078	21772.13
448.284	20791.15
448.491	21313.38
448.697	22220.63
448.903	22771.54
449.11	22693.71
449.316	22380.37
449.522	22732.62
449.728	23070.54
449.935	23490.37
450.141	23476.04
450.347	24129.34
450.553	23019.34
450.76	23230.28
450.966	24004.41
451.172	23918.4
451.378	24221.5
451.584	23816
451.791	24520.5
451.997	24094.52
452.203	24743.73
452.409	24469.3
452.615	24532.79
452.821	23379.78
453.027	23265.1
453.233	24631.09
453.44	23785.28
453.646	23709.5
453.852	23674.69
454.058	24178.49
454.264	23349.06
454.47	23705.41
454.676	23189.32
454.882	24264.5
455.088	21995.36
455.294	22273.88
455.5	22253.4
455.705	22769.49
455.911	22019.93
456.117	21069.67
456.323	20774.77
456.529	19742.59
456.735	20799.34
456.941	20197.24
457.147	19961.72
457.352	19203.97
457.558	18845.58
457.764	18728.84
457.97	18536.34
458.176	18337.68
458.381	18198.42
458.587	17131.43
458.793	17307.55
458.999	16396.21
459.204	17444.77
459.41	17012.65
459.616	15828.92
459.821	15867.83
460.027	16005.05
460.233	15407.04
460.438	14514.13
460.644	14970.82
460.85	14313.42
461.055	13832.15
461.261	13938.65
461.466	12808.17
461.672	12464.11
461.878	13273.06
462.083	12554.22
462.289	12271.6
462.494	12093.43
462.7	11737.08
462.905	11360.25
463.111	11702.26
463.316	11853.81
463.522	11653.11
463.727	11542.52
463.932	11485.18
464.138	11390.97
464.343	11659.26
464.549	11012.1
464.754	11581.43
464.959	11372.54
465.165	11331.58
465.37	10919.94
465.575	10850.31
465.781	11118.59
465.986	11143.17
466.191	10903.56
466.397	10323.98
466.602	9934.87
466.807	10231.82
467.012	10270.73
467.218	10180.62
467.423	10139.66
467.628	10381.32
