Data from USB4F104151__242__11-11-24-830.txt Node

Date: Wed Mar 12 11:11:24 EDT 2025
User: louis
Spectrometer: USB4F10415
Trigger mode: 4
Integration Time (sec): 2.000000E-2
Scans to average: 1
Electric dark correction enabled: true
Nonlinearity correction enabled: false
Boxcar width: 0
XAxis mode: Wavelengths
Number of Pixels in Spectrum: 3648
>>>>>Begin Spectral Data<<<<<
178.204	-89.43
178.424	-89.43
178.644	-89.43
178.864	-89.43
179.084	-60.76
179.304	0.68
179.524	-73.04
179.744	-27.99
179.964	21.16
180.184	84.65
180.404	-11.61
180.624	8.87
180.844	-30.04
181.064	-75.09
181.283	-1.37
181.503	60.07
181.723	43.69
181.943	12.97
182.163	-32.08
182.383	-30.04
182.602	37.55
182.822	-25.94
183.042	-13.65
183.262	-46.42
183.482	12.97
183.701	33.45
183.921	-38.23
184.141	-17.75
184.361	55.98
184.58	6.83
184.8	-9.56
185.02	53.93
185.239	19.11
185.459	2.73
185.679	6.83
185.898	47.79
186.118	51.88
186.338	39.59
186.557	43.69
186.777	-1.37
186.997	21.16
187.216	-42.32
187.436	25.26
187.655	80.55
187.875	35.5
188.095	39.59
188.314	17.07
188.534	12.97
188.753	47.79
188.973	0.68
189.192	41.64
189.412	53.93
189.631	2.73
189.851	-5.46
190.07	90.79
190.29	-15.7
190.509	-32.08
190.729	2.73
190.948	-15.7
191.168	148.14
191.387	76.46
191.607	6.83
191.826	101.03
192.045	6.83
192.265	53.93
192.484	41.64
192.704	37.55
192.923	-34.13
193.142	43.69
193.362	60.07
193.581	6.83
193.8	35.5
194.02	53.93
194.239	72.36
194.458	8.87
194.678	29.35
194.897	43.69
195.116	31.4
195.335	2.73
195.555	39.59
195.774	-1.37
195.993	27.31
196.212	-3.41
196.432	-11.61
196.651	105.13
196.87	60.07
197.089	72.36
197.308	90.79
197.528	31.4
197.747	-73.04
197.966	33.45
198.185	29.35
198.404	-3.41
198.623	68.27
198.842	29.35
199.062	45.74
199.281	49.83
199.5	10.92
199.719	39.59
199.938	47.79
200.157	98.99
200.376	21.16
200.595	84.65
200.814	-11.61
201.033	64.17
201.252	39.59
201.471	12.97
201.69	64.17
201.909	10.92
202.128	23.21
202.347	92.84
202.566	53.93
202.785	74.41
203.004	-25.94
203.223	113.32
203.442	-34.13
203.661	4.78
203.879	43.69
204.098	39.59
204.317	-13.65
204.536	88.75
204.755	82.6
204.974	17.07
205.193	-5.46
205.411	111.27
205.63	72.36
205.849	45.74
206.068	45.74
206.287	15.02
206.505	98.99
206.724	64.17
206.943	98.99
207.162	4.78
207.381	-9.56
207.599	8.87
207.818	55.98
208.037	27.31
208.255	15.02
208.474	113.32
208.693	-7.51
208.911	70.31
209.13	-11.61
209.349	55.98
209.567	39.59
209.786	8.87
210.005	-38.23
210.223	64.17
210.442	53.93
210.661	51.88
210.879	-11.61
211.098	6.83
211.316	43.69
211.535	39.59
211.753	49.83
211.972	27.31
212.191	23.21
212.409	35.5
212.628	15.02
212.846	78.51
213.065	10.92
213.283	53.93
213.502	39.59
213.72	66.22
213.938	39.59
214.157	39.59
214.375	21.16
214.594	39.59
214.812	21.16
215.031	74.41
215.249	-1.37
215.467	2.73
215.686	-7.51
215.904	2.73
216.122	-25.94
216.341	88.75
216.559	-13.65
216.778	72.36
216.996	72.36
217.214	47.79
217.432	19.11
217.651	10.92
217.869	-27.99
218.087	39.59
218.306	-9.56
218.524	10.92
218.742	29.35
218.96	68.27
219.179	-5.46
219.397	103.08
219.615	60.07
219.833	119.46
220.051	-1.37
220.27	49.83
220.488	-21.85
220.706	45.74
220.924	-66.9
221.142	62.12
221.36	-13.65
221.578	21.16
221.796	-25.94
222.015	92.84
222.233	29.35
222.451	27.31
222.669	8.87
222.887	15.02
223.105	55.98
223.323	125.61
223.541	15.02
223.759	27.31
223.977	43.69
224.195	70.31
224.413	23.21
224.631	74.41
224.849	-1.37
225.067	4.78
225.285	94.89
225.503	47.79
225.721	-1.37
225.939	12.97
226.157	6.83
226.375	88.75
226.592	51.88
226.81	64.17
227.028	43.69
227.246	58.03
227.464	31.4
227.682	62.12
227.9	17.07
228.117	0.68
228.335	41.64
228.553	43.69
228.771	-9.56
228.989	25.26
229.206	70.31
229.424	27.31
229.642	12.97
229.86	6.83
230.077	72.36
230.295	6.83
230.513	29.35
230.731	27.31
230.948	29.35
231.166	72.36
231.384	-19.8
231.601	2.73
231.819	43.69
232.037	64.17
232.254	-19.8
232.472	6.83
232.689	23.21
232.907	70.31
233.125	78.51
233.342	19.11
233.56	37.55
233.777	62.12
233.995	23.21
234.213	17.07
234.43	17.07
234.648	35.5
234.865	2.73
235.083	4.78
235.3	96.94
235.518	10.92
235.735	62.12
235.953	58.03
236.17	2.73
236.388	35.5
236.605	111.27
236.822	123.56
237.04	62.12
237.257	139.94
237.475	-9.56
237.692	15.02
237.909	27.31
238.127	15.02
238.344	25.26
238.562	72.36
238.779	90.79
238.996	0.68
239.214	58.03
239.431	-27.99
239.648	72.36
239.865	6.83
240.083	35.5
240.3	-9.56
240.517	0.68
240.735	53.93
240.952	51.88
241.169	64.17
241.386	51.88
241.603	51.88
241.821	72.36
242.038	39.59
242.255	88.75
242.472	68.27
242.689	12.97
242.907	27.31
243.124	64.17
243.341	92.84
243.558	90.79
243.775	-42.32
243.992	23.21
244.209	31.4
244.426	86.7
244.643	37.55
244.86	2.73
245.078	37.55
245.295	23.21
245.512	2.73
245.729	55.98
245.946	19.11
246.163	68.27
246.38	25.26
246.597	6.83
246.814	21.16
247.031	6.83
247.248	51.88
247.464	55.98
247.681	92.84
247.898	55.98
248.115	15.02
248.332	-15.7
248.549	-9.56
248.766	10.92
248.983	68.27
249.2	47.79
249.417	94.89
249.633	15.02
249.85	-11.61
250.067	47.79
250.284	2.73
250.501	25.26
250.717	17.07
250.934	6.83
251.151	19.11
251.368	8.87
251.585	35.5
251.801	-25.94
252.018	109.22
252.235	33.45
252.451	-13.65
252.668	41.64
252.885	129.7
253.102	-15.7
253.318	-19.8
253.535	-25.94
253.752	51.88
253.968	82.6
254.185	27.31
254.401	19.11
254.618	-15.7
254.835	33.45
255.051	53.93
255.268	84.65
255.484	43.69
255.701	10.92
255.917	19.11
256.134	-38.23
256.351	55.98
256.567	4.78
256.784	86.7
257	-38.23
257.217	58.03
257.433	-34.13
257.65	51.88
257.866	55.98
258.082	-25.94
258.299	45.74
258.515	62.12
258.732	72.36
258.948	105.13
259.165	31.4
259.381	23.21
259.597	51.88
259.814	33.45
260.03	49.83
260.246	-11.61
260.463	135.85
260.679	60.07
260.895	113.32
261.112	19.11
261.328	-36.18
261.544	80.55
261.761	-11.61
261.977	-1.37
262.193	80.55
262.409	23.21
262.626	92.84
262.842	35.5
263.058	35.5
263.274	76.46
263.49	35.5
263.707	53.93
263.923	6.83
264.139	-19.8
264.355	74.41
264.571	33.45
264.787	27.31
265.004	80.55
265.22	58.03
265.436	17.07
265.652	64.17
265.868	51.88
266.084	49.83
266.3	-1.37
266.516	-9.56
266.732	27.31
266.948	2.73
267.164	43.69
267.38	45.74
267.596	45.74
267.812	86.7
268.028	43.69
268.244	-11.61
268.46	31.4
268.676	10.92
268.892	88.75
269.108	72.36
269.324	17.07
269.54	-17.75
269.756	66.22
269.972	29.35
270.188	64.17
270.403	98.99
270.619	41.64
270.835	55.98
271.051	66.22
271.267	68.27
271.483	64.17
271.698	6.83
271.914	41.64
272.13	-9.56
272.346	45.74
272.562	21.16
272.777	62.12
272.993	17.07
273.209	19.11
273.425	80.55
273.64	-23.89
273.856	17.07
274.072	53.93
274.287	55.98
274.503	76.46
274.719	64.17
274.934	-7.51
275.15	8.87
275.366	74.41
275.581	8.87
275.797	62.12
276.012	49.83
276.228	66.22
276.444	17.07
276.659	90.79
276.875	31.4
277.09	49.83
277.306	41.64
277.521	51.88
277.737	37.55
277.952	-17.75
278.168	21.16
278.383	8.87
278.599	-27.99
278.814	60.07
279.03	-5.46
279.245	35.5
279.461	62.12
279.676	55.98
279.892	15.02
280.107	49.83
280.322	47.79
280.538	43.69
280.753	15.02
280.969	82.6
281.184	39.59
281.399	141.99
281.615	-7.51
281.83	43.69
282.045	27.31
282.26	58.03
282.476	41.64
282.691	37.55
282.906	53.93
283.122	55.98
283.337	21.16
283.552	105.13
283.767	33.45
283.983	55.98
284.198	-7.51
284.413	74.41
284.628	25.26
284.843	53.93
285.058	127.66
285.274	19.11
285.489	39.59
285.704	10.92
285.919	41.64
286.134	10.92
286.349	129.7
286.564	25.26
286.779	51.88
286.995	64.17
287.21	35.5
287.425	82.6
287.64	25.26
287.855	84.65
288.07	23.21
288.285	103.08
288.5	-5.46
288.715	33.45
288.93	31.4
289.145	51.88
289.36	49.83
289.575	68.27
289.79	6.83
290.004	43.69
290.219	37.55
290.434	31.4
290.649	39.59
290.864	41.64
291.079	31.4
291.294	47.79
291.509	-5.46
291.724	43.69
291.938	68.27
292.153	-7.51
292.368	2.73
292.583	12.97
292.798	70.31
293.012	45.74
293.227	27.31
293.442	47.79
293.657	-19.8
293.871	113.32
294.086	12.97
294.301	88.75
294.516	98.99
294.73	12.97
294.945	-42.32
295.16	66.22
295.374	8.87
295.589	58.03
295.804	6.83
296.018	43.69
296.233	62.12
296.447	86.7
296.662	23.21
296.877	76.46
297.091	21.16
297.306	27.31
297.52	94.89
297.735	74.41
297.949	60.07
298.164	45.74
298.378	35.5
298.593	94.89
298.807	66.22
299.022	70.31
299.236	-25.94
299.451	-30.04
299.665	37.55
299.88	43.69
300.094	31.4
300.309	58.03
300.523	45.74
300.737	-7.51
300.952	35.5
301.166	49.83
301.381	-7.51
301.595	35.5
301.809	86.7
302.024	-17.75
302.238	45.74
302.452	41.64
302.667	96.94
302.881	105.13
303.095	78.51
303.309	4.78
303.524	21.16
303.738	88.75
303.952	2.73
304.166	33.45
304.381	8.87
304.595	45.74
304.809	27.31
305.023	51.88
305.237	2.73
305.452	51.88
305.666	55.98
305.88	70.31
306.094	60.07
306.308	88.75
306.522	88.75
306.736	4.78
306.95	-7.51
307.164	68.27
307.379	39.59
307.593	64.17
307.807	-27.99
308.021	10.92
308.235	47.79
308.449	39.59
308.663	6.83
308.877	76.46
309.091	27.31
309.305	121.51
309.519	-38.23
309.733	60.07
309.947	-19.8
310.161	117.42
310.374	68.27
310.588	45.74
310.802	55.98
311.016	31.4
311.23	55.98
311.444	60.07
311.658	21.16
311.872	94.89
312.085	8.87
312.299	88.75
312.513	101.03
312.727	88.75
312.941	0.68
313.154	23.21
313.368	15.02
313.582	17.07
313.796	-42.32
314.009	78.51
314.223	10.92
314.437	25.26
314.651	49.83
314.864	51.88
315.078	86.7
315.292	-32.08
315.505	78.51
315.719	117.42
315.933	111.27
316.146	0.68
316.36	-3.41
316.573	60.07
316.787	31.4
317.001	70.31
317.214	4.78
317.428	31.4
317.641	4.78
317.855	55.98
318.068	66.22
318.282	123.56
318.495	41.64
318.709	60.07
318.922	74.41
319.136	27.31
319.349	37.55
319.563	33.45
319.776	66.22
319.99	-17.75
320.203	10.92
320.417	66.22
320.63	185
320.843	82.6
321.057	39.59
321.27	74.41
321.483	21.16
321.697	-5.46
321.91	-34.13
322.124	121.51
322.337	58.03
322.55	119.46
322.763	-3.41
322.977	115.37
323.19	-5.46
323.403	80.55
323.617	60.07
323.83	88.75
324.043	37.55
324.256	-11.61
324.469	51.88
324.683	49.83
324.896	58.03
325.109	49.83
325.322	47.79
325.535	35.5
325.748	53.93
325.962	37.55
326.175	58.03
326.388	10.92
326.601	41.64
326.814	47.79
327.027	127.66
327.24	62.12
327.453	4.78
327.666	96.94
327.879	117.42
328.092	78.51
328.305	60.07
328.518	68.27
328.731	37.55
328.944	10.92
329.157	51.88
329.37	15.02
329.583	51.88
329.796	35.5
330.009	82.6
330.222	92.84
330.435	84.65
330.648	55.98
330.861	17.07
331.073	12.97
331.286	15.02
331.499	25.26
331.712	60.07
331.925	66.22
332.138	76.46
332.35	88.75
332.563	55.98
332.776	2.73
332.989	27.31
333.202	88.75
333.414	107.18
333.627	25.26
333.84	78.51
334.053	21.16
334.265	19.11
334.478	35.5
334.691	62.12
334.903	70.31
335.116	78.51
335.329	60.07
335.541	105.13
335.754	156.33
335.966	-17.75
336.179	-9.56
336.392	43.69
336.604	10.92
336.817	-32.08
337.029	96.94
337.242	78.51
337.454	27.31
337.667	8.87
337.88	39.59
338.092	58.03
338.305	86.7
338.517	45.74
338.729	17.07
338.942	92.84
339.154	80.55
339.367	-5.46
339.579	156.33
339.792	49.83
340.004	68.27
340.217	23.21
340.429	4.78
340.641	55.98
340.854	66.22
341.066	101.03
341.278	123.56
341.491	86.7
341.703	107.18
341.915	64.17
342.128	-19.8
342.34	72.36
342.552	23.21
342.764	8.87
342.977	41.64
343.189	15.02
343.401	35.5
343.613	4.78
343.826	-17.75
344.038	86.7
344.25	103.08
344.462	-9.56
344.674	43.69
344.886	105.13
345.099	23.21
345.311	10.92
345.523	39.59
345.735	0.68
345.947	39.59
346.159	58.03
346.371	109.22
346.583	80.55
346.795	92.84
347.007	86.7
347.219	-25.94
347.431	-19.8
347.643	51.88
347.855	70.31
348.067	78.51
348.279	60.07
348.491	10.92
348.703	15.02
348.915	10.92
349.127	70.31
349.339	68.27
349.551	66.22
349.763	68.27
349.975	96.94
350.187	98.99
350.399	111.27
350.61	19.11
350.822	72.36
351.034	51.88
351.246	55.98
351.458	64.17
351.669	119.46
351.881	74.41
352.093	47.79
352.305	31.4
352.517	78.51
352.728	123.56
352.94	27.31
353.152	49.83
353.363	80.55
353.575	62.12
353.787	101.03
353.999	41.64
354.21	72.36
354.422	19.11
354.633	31.4
354.845	96.94
355.057	15.02
355.268	31.4
355.48	33.45
355.692	43.69
355.903	47.79
356.115	113.32
356.326	72.36
356.538	43.69
356.749	55.98
356.961	135.85
357.172	51.88
357.384	72.36
357.595	25.26
357.807	51.88
358.018	35.5
358.23	47.79
358.441	121.51
358.653	19.11
358.864	78.51
359.075	41.64
359.287	33.45
359.498	76.46
359.709	66.22
359.921	68.27
360.132	17.07
360.344	66.22
360.555	-11.61
360.766	-25.94
360.977	-11.61
361.189	113.32
361.4	12.97
361.611	117.42
361.823	74.41
362.034	51.88
362.245	64.17
362.456	74.41
362.667	88.75
362.879	66.22
363.09	21.16
363.301	45.74
363.512	113.32
363.723	29.35
363.935	123.56
364.146	29.35
364.357	101.03
364.568	60.07
364.779	37.55
364.99	74.41
365.201	43.69
365.412	66.22
365.623	27.31
365.834	117.42
366.045	64.17
366.256	31.4
366.467	47.79
366.678	135.85
366.889	60.07
367.1	-5.46
367.311	25.26
367.522	70.31
367.733	35.5
367.944	72.36
368.155	43.69
368.366	101.03
368.577	45.74
368.788	101.03
368.999	6.83
369.209	76.46
369.42	105.13
369.631	82.6
369.842	-25.94
370.053	80.55
370.264	55.98
370.474	6.83
370.685	68.27
370.896	90.79
371.107	111.27
371.317	-13.65
371.528	43.69
371.739	109.22
371.95	78.51
372.16	45.74
372.371	68.27
372.582	60.07
372.792	115.37
373.003	33.45
373.214	53.93
373.424	25.26
373.635	-9.56
373.846	105.13
374.056	78.51
374.267	64.17
374.477	27.31
374.688	53.93
374.898	78.51
375.109	64.17
375.319	39.59
375.53	129.7
375.74	92.84
375.951	76.46
376.161	35.5
376.372	148.14
376.582	15.02
376.793	39.59
377.003	82.6
377.214	-21.85
377.424	33.45
377.635	51.88
377.845	58.03
378.055	-7.51
378.266	78.51
378.476	72.36
378.686	37.55
378.897	70.31
379.107	31.4
379.317	125.61
379.528	74.41
379.738	37.55
379.948	68.27
380.158	45.74
380.369	29.35
380.579	72.36
380.789	17.07
380.999	60.07
381.21	113.32
381.42	82.6
381.63	37.55
381.84	49.83
382.05	125.61
382.261	139.94
382.471	111.27
382.681	135.85
382.891	94.89
383.101	107.18
383.311	88.75
383.521	107.18
383.731	123.56
383.941	41.64
384.151	51.88
384.361	90.79
384.571	105.13
384.781	146.09
384.991	127.66
385.201	70.31
385.411	72.36
385.621	107.18
385.831	12.97
386.041	-17.75
386.251	27.31
386.461	82.6
386.671	37.55
386.881	19.11
387.091	51.88
387.301	117.42
387.511	51.88
387.72	64.17
387.93	78.51
388.14	53.93
388.35	-54.61
388.56	76.46
388.769	117.42
388.979	72.36
389.189	88.75
389.399	105.13
389.609	31.4
389.818	101.03
390.028	25.26
390.238	103.08
390.447	35.5
390.657	96.94
390.867	64.17
391.076	66.22
391.286	139.94
391.496	88.75
391.705	60.07
391.915	76.46
392.125	8.87
392.334	-1.37
392.544	98.99
392.753	86.7
392.963	64.17
393.172	92.84
393.382	96.94
393.591	98.99
393.801	96.94
394.01	90.79
394.22	64.17
394.429	98.99
394.639	49.83
394.848	27.31
395.058	101.03
395.267	119.46
395.477	195.24
395.686	176.81
395.895	72.36
396.105	211.62
396.314	148.14
396.524	86.7
396.733	101.03
396.942	96.94
397.152	182.95
397.361	197.29
397.57	92.84
397.78	111.27
397.989	123.56
398.198	164.52
398.407	78.51
398.617	174.76
398.826	127.66
399.035	117.42
399.244	88.75
399.453	105.13
399.663	70.31
399.872	146.09
400.081	96.94
400.29	252.58
400.499	84.65
400.708	127.66
400.917	109.22
401.127	141.99
401.336	72.36
401.545	154.28
401.754	141.99
401.963	119.46
402.172	115.37
402.381	232.1
402.59	166.57
402.799	111.27
403.008	199.34
403.217	199.34
403.426	146.09
403.635	193.19
403.844	144.04
404.053	156.33
404.262	113.32
404.471	166.57
404.68	215.72
404.888	148.14
405.097	232.1
405.306	252.58
405.515	141.99
405.724	189.1
405.933	244.39
406.142	221.86
406.35	199.34
406.559	199.34
406.768	275.11
406.977	215.72
407.185	207.53
407.394	354.98
407.603	228.01
407.812	268.97
408.02	283.3
408.229	266.92
408.438	219.82
408.646	252.58
408.855	293.54
409.064	299.69
409.272	314.02
409.481	246.44
409.69	268.97
409.898	256.68
410.107	340.65
410.315	344.74
410.524	434.85
410.733	326.31
410.941	457.38
411.15	475.81
411.358	424.61
411.567	453.28
411.775	412.32
411.984	420.52
412.192	500.39
412.401	516.77
412.609	543.39
412.818	570.02
413.026	588.45
413.234	570.02
413.443	625.31
413.651	567.97
413.86	645.79
414.068	680.61
414.276	684.7
414.485	793.25
414.693	826.01
414.901	799.39
415.11	821.92
415.318	799.39
415.526	844.45
415.734	879.26
415.943	948.89
416.151	985.76
416.359	932.51
416.567	1022.62
416.776	1006.24
416.984	1102.49
417.192	1151.64
417.4	1100.44
417.608	1102.49
417.817	1155.74
418.025	1362.58
418.233	1340.05
418.441	1342.1
418.649	1383.06
418.857	1413.78
419.065	1411.73
419.273	1489.56
419.481	1628.82
419.689	1624.72
419.897	1653.39
420.105	1770.13
420.313	1784.46
420.521	1841.81
420.729	1825.42
420.937	1878.67
421.145	1956.49
421.353	2140.81
421.561	2075.27
421.769	2249.35
421.977	2239.11
422.185	2222.73
422.393	2464.39
422.601	2640.51
422.809	2419.33
423.017	2640.51
423.224	2728.58
423.432	2818.69
423.64	2830.98
423.848	3136.12
424.056	3031.68
424.263	3340.92
424.471	3181.18
424.679	3351.16
424.887	3492.47
425.094	3601.01
425.302	3596.92
425.51	3803.76
425.718	3871.34
425.925	3918.45
426.133	4178.54
426.341	4309.61
426.548	4473.45
426.756	4565.6
426.964	4418.15
427.171	4696.67
427.379	4811.36
427.586	4944.48
427.794	5173.85
428.001	5329.5
428.209	5431.9
428.417	5458.52
428.624	5802.58
428.832	5939.79
429.039	5761.62
429.247	6038.09
429.454	6345.29
429.662	6906.43
429.869	6396.49
430.076	6898.24
430.284	6615.62
430.491	6801.99
430.699	7301.69
430.906	7301.69
431.114	7387.71
431.321	7825.97
431.528	7881.27
431.736	8092.21
431.943	8628.77
432.15	8639.01
432.358	8469.03
432.565	9116.19
432.772	9044.51
432.979	9556.5
433.187	9687.57
433.394	9548.31
433.601	10246.67
433.808	10301.97
434.016	10459.66
434.223	10801.67
434.43	11442.68
434.637	11272.7
434.844	11753.98
435.052	12106.23
435.259	12159.47
435.466	12286.45
435.673	12061.17
435.88	13095.39
436.087	13236.7
436.294	13480.41
436.501	13042.15
436.708	13490.65
436.915	13892.05
437.122	14496.21
437.329	13982.17
437.537	14844.36
437.743	15116.74
437.95	14991.81
438.157	15753.66
438.364	16253.36
438.571	16142.77
438.778	16392.62
438.985	17836.44
439.192	17240.48
439.399	17924.51
439.606	17248.68
439.813	18409.87
440.02	19286.4
440.227	19233.16
440.433	19091.85
440.64	19935.61
440.847	19319.17
441.054	20017.53
441.261	20986.22
441.467	20828.52
441.674	21569.89
441.881	21997.92
442.088	22049.11
442.294	21692.77
442.501	22323.54
442.708	22839.63
442.914	23912.77
443.121	24742.19
443.328	23988.54
443.534	26038.56
443.741	25184.55
443.948	24922.41
444.154	26771.73
444.361	26229.02
444.568	26589.46
444.774	26503.45
444.981	26968.34
445.187	27730.18
445.394	28817.65
445.6	28346.62
445.807	31072.46
446.013	29806.82
446.22	30421.21
446.426	31260.88
446.633	31574.22
446.839	32776.37
447.046	31512.78
447.252	32944.31
447.459	33427.63
447.665	32669.88
447.871	34406.56
448.078	35766.41
448.284	34017.44
448.491	34728.09
448.697	36667.52
448.903	37050.49
449.11	36894.84
449.316	36196.48
449.522	37482.61
449.728	38256.74
449.935	38535.26
450.141	38242.4
450.347	39241.81
450.553	37683.31
450.76	38248.55
450.966	40005.7
451.172	39770.19
451.378	40034.38
451.584	39727.18
451.791	40181.83
451.997	39936.07
452.203	40755.26
452.409	40704.06
452.615	40396.87
452.821	39016.54
453.027	38574.17
453.233	40710.21
453.44	38338.66
453.646	39168.08
453.852	39811.15
454.058	40104.01
454.264	38733.92
454.47	39604.3
454.676	38836.31
454.882	40022.09
455.088	36407.42
455.294	36966.52
455.5	37359.73
455.705	37671.02
455.911	36544.64
456.117	35666.06
456.323	35014.8
456.529	33292.46
456.735	34558.11
456.941	33851.56
457.147	33474.73
457.352	32258.24
457.558	31860.93
457.764	31998.15
457.97	31394
458.176	30544.09
458.381	30658.77
458.587	29090.03
458.793	29075.69
458.999	27576.58
459.204	29911.27
459.41	28860.66
459.616	26765.59
459.821	26888.46
460.027	26837.27
460.233	26622.23
460.438	24889.65
460.644	25033
460.85	24023.36
461.055	23793.98
461.261	23843.13
461.466	21977.44
461.672	21307.75
461.878	22985.04
462.083	21444.96
462.289	20689.26
462.494	20986.22
462.7	19786.11
462.905	19550.59
463.111	19863.93
463.316	20095.35
463.522	19800.44
463.727	19566.98
463.932	19542.4
464.138	19405.19
464.343	19673.47
464.549	18776.46
464.754	19505.54
464.959	19550.59
465.165	19446.15
465.37	18575.76
465.575	18041.24
465.781	18549.14
465.986	18817.42
466.191	18145.69
466.397	17592.73
466.602	17013.16
466.807	17658.27
467.012	17672.6
467.218	17756.57
