Data from USB4F104151__94__11-06-48-641.txt Node

Date: Wed Mar 12 11:06:48 EDT 2025
User: louis
Spectrometer: USB4F10415
Trigger mode: 4
Integration Time (sec): 2.000000E-2
Scans to average: 1
Electric dark correction enabled: true
Nonlinearity correction enabled: false
Boxcar width: 0
XAxis mode: Wavelengths
Number of Pixels in Spectrum: 3648
>>>>>Begin Spectral Data<<<<<
178.204	-122.02
178.424	-122.02
178.644	-122.02
178.864	-83.11
179.084	-46.25
179.304	-9.39
179.524	-31.91
179.744	21.33
179.964	-13.48
180.184	15.19
180.404	-3.24
180.624	19.29
180.844	-46.25
181.064	-29.87
181.283	0.85
181.503	-33.96
181.723	111.44
181.943	7
182.163	62.29
182.383	19.29
182.602	13.14
182.822	19.29
183.042	43.86
183.262	15.19
183.482	-11.43
183.701	-9.39
183.921	31.57
184.141	-11.43
184.361	78.68
184.58	-15.53
184.8	-33.96
185.02	58.2
185.239	2.9
185.459	9.05
185.679	82.77
185.898	-54.44
186.118	25.43
186.338	70.48
186.557	13.14
186.777	-11.43
186.997	2.9
187.216	4.95
187.436	-7.34
187.655	52.05
187.875	50
188.095	-33.96
188.314	-5.29
188.534	13.14
188.753	82.77
188.973	-42.15
189.192	45.91
189.412	17.24
189.631	58.2
189.851	-48.3
190.07	33.62
190.29	-42.15
190.509	31.57
190.729	-29.87
190.948	43.86
191.168	119.64
191.387	54.1
191.607	60.24
191.826	41.81
192.045	7
192.265	37.72
192.484	0.85
192.704	-93.35
192.923	-3.24
193.142	45.91
193.362	88.92
193.581	-21.67
193.8	45.91
194.02	19.29
194.239	-42.15
194.458	45.91
194.678	-25.77
194.897	72.53
195.116	84.82
195.335	-9.39
195.555	-40.11
195.774	-36.01
195.993	90.96
196.212	13.14
196.432	45.91
196.651	52.05
196.87	23.38
197.089	-3.24
197.308	31.57
197.528	9.05
197.747	35.67
197.966	113.49
198.185	64.34
198.404	4.95
198.623	-15.53
198.842	-5.29
199.062	54.1
199.281	64.34
199.5	-36.01
199.719	97.11
199.938	13.14
200.157	50
200.376	-1.19
200.595	35.67
200.814	-13.48
201.033	-52.39
201.252	50
201.471	29.52
201.69	27.48
201.909	-13.48
202.128	64.34
202.347	25.43
202.566	15.19
202.785	7
203.004	23.38
203.223	101.2
203.442	19.29
203.661	23.38
203.879	-40.11
204.098	97.11
204.317	-3.24
204.536	-1.19
204.755	13.14
204.974	-46.25
205.193	23.38
205.411	33.62
205.63	43.86
205.849	27.48
206.068	31.57
206.287	7
206.505	45.91
206.724	31.57
206.943	7
207.162	37.72
207.381	-3.24
207.599	27.48
207.818	58.2
208.037	43.86
208.255	-3.24
208.474	62.29
208.693	13.14
208.911	54.1
209.13	15.19
209.349	21.33
209.567	50
209.786	80.72
210.005	31.57
210.223	23.38
210.442	50
210.661	13.14
210.879	-66.73
211.098	25.43
211.316	15.19
211.535	62.29
211.753	-62.63
211.972	43.86
212.191	-64.68
212.409	39.76
212.628	74.58
212.846	70.48
213.065	25.43
213.283	43.86
213.502	-23.72
213.72	45.91
213.938	19.29
214.157	-25.77
214.375	109.4
214.594	33.62
214.812	52.05
215.031	56.15
215.249	11.09
215.467	-9.39
215.686	-13.48
215.904	56.15
216.122	-25.77
216.341	27.48
216.559	56.15
216.778	7
216.996	45.91
217.214	58.2
217.432	25.43
217.651	-36.01
217.869	-27.82
218.087	37.72
218.306	-29.87
218.524	-9.39
218.742	35.67
218.96	52.05
219.179	25.43
219.397	-17.58
219.615	39.76
219.833	84.82
220.051	-23.72
220.27	35.67
220.488	50
220.706	86.87
220.924	-9.39
221.142	21.33
221.36	-23.72
221.578	-5.29
221.796	39.76
222.015	41.81
222.233	-52.39
222.451	111.44
222.669	0.85
222.887	64.34
223.105	9.05
223.323	25.43
223.541	45.91
223.759	64.34
223.977	25.43
224.195	64.34
224.413	27.48
224.631	33.62
224.849	-1.19
225.067	72.53
225.285	54.1
225.503	17.24
225.721	-44.2
225.939	-1.19
226.157	-17.58
226.375	103.25
226.592	0.85
226.81	2.9
227.028	37.72
227.246	97.11
227.464	47.96
227.682	13.14
227.9	76.63
228.117	0.85
228.335	4.95
228.553	56.15
228.771	7
228.989	56.15
229.206	-52.39
229.424	43.86
229.642	15.19
229.86	-38.06
230.077	15.19
230.295	43.86
230.513	-27.82
230.731	39.76
230.948	99.16
231.166	29.52
231.384	-5.29
231.601	-19.63
231.819	54.1
232.037	52.05
232.254	62.29
232.472	-25.77
232.689	-23.72
232.907	27.48
233.125	-29.87
233.342	35.67
233.56	-48.3
233.777	19.29
233.995	39.76
234.213	21.33
234.43	-23.72
234.648	31.57
234.865	29.52
235.083	29.52
235.3	-33.96
235.518	-23.72
235.735	58.2
235.953	76.63
236.17	9.05
236.388	-5.29
236.605	-5.29
236.822	4.95
237.04	50
237.257	-21.67
237.475	-44.2
237.692	-25.77
237.909	-7.34
238.127	39.76
238.344	39.76
238.562	54.1
238.779	-5.29
238.996	31.57
239.214	9.05
239.431	70.48
239.648	-3.24
239.865	76.63
240.083	11.09
240.3	35.67
240.517	64.34
240.735	11.09
240.952	56.15
241.169	82.77
241.386	-5.29
241.603	103.25
241.821	41.81
242.038	7
242.255	50
242.472	0.85
242.689	76.63
242.907	11.09
243.124	19.29
243.341	-11.43
243.558	2.9
243.775	-5.29
243.992	9.05
244.209	47.96
244.426	-11.43
244.643	70.48
244.86	60.24
245.078	58.2
245.295	76.63
245.512	56.15
245.729	43.86
245.946	103.25
246.163	70.48
246.38	31.57
246.597	-17.58
246.814	74.58
247.031	15.19
247.248	15.19
247.464	47.96
247.681	-7.34
247.898	21.33
248.115	66.39
248.332	-25.77
248.549	56.15
248.766	168.79
248.983	52.05
249.2	-33.96
249.417	56.15
249.633	-15.53
249.85	2.9
250.067	39.76
250.284	-54.44
250.501	27.48
250.717	13.14
250.934	-33.96
251.151	-7.34
251.368	-1.19
251.585	35.67
251.801	64.34
252.018	-21.67
252.235	11.09
252.451	-40.11
252.668	45.91
252.885	-9.39
253.102	17.24
253.318	52.05
253.535	-23.72
253.752	54.1
253.968	-33.96
254.185	-46.25
254.401	19.29
254.618	11.09
254.835	35.67
255.051	29.52
255.268	-5.29
255.484	74.58
255.701	72.53
255.917	13.14
256.134	76.63
256.351	62.29
256.567	-9.39
256.784	-23.72
257	-19.63
257.217	45.91
257.433	54.1
257.65	66.39
257.866	66.39
258.082	-3.24
258.299	-42.15
258.515	27.48
258.732	43.86
258.948	29.52
259.165	93.01
259.381	-11.43
259.597	-3.24
259.814	60.24
260.03	29.52
260.246	7
260.463	9.05
260.679	43.86
260.895	19.29
261.112	90.96
261.328	80.72
261.544	29.52
261.761	2.9
261.977	29.52
262.193	-83.11
262.409	80.72
262.626	27.48
262.842	45.91
263.058	17.24
263.274	43.86
263.49	-27.82
263.707	11.09
263.923	19.29
264.139	-11.43
264.355	-11.43
264.571	60.24
264.787	7
265.004	72.53
265.22	31.57
265.436	27.48
265.652	64.34
265.868	-9.39
266.084	-1.19
266.3	4.95
266.516	41.81
266.732	93.01
266.948	47.96
267.164	52.05
267.38	13.14
267.596	11.09
267.812	4.95
268.028	107.35
268.244	56.15
268.46	-23.72
268.676	-11.43
268.892	29.52
269.108	9.05
269.324	37.72
269.54	37.72
269.756	66.39
269.972	2.9
270.188	2.9
270.403	29.52
270.619	58.2
270.835	56.15
271.051	-7.34
271.267	-29.87
271.483	70.48
271.698	-13.48
271.914	-13.48
272.13	7
272.346	-13.48
272.562	13.14
272.777	-9.39
272.993	13.14
273.209	45.91
273.425	25.43
273.64	-87.21
273.856	60.24
274.072	109.4
274.287	88.92
274.503	82.77
274.719	-23.72
274.934	27.48
275.15	11.09
275.366	11.09
275.581	97.11
275.797	41.81
276.012	27.48
276.228	58.2
276.444	15.19
276.659	0.85
276.875	-52.39
277.09	15.19
277.306	-1.19
277.521	45.91
277.737	-9.39
277.952	47.96
278.168	-44.2
278.383	78.68
278.599	13.14
278.814	19.29
279.03	19.29
279.245	93.01
279.461	76.63
279.676	39.76
279.892	19.29
280.107	-19.63
280.322	-19.63
280.538	62.29
280.753	35.67
280.969	88.92
281.184	7
281.399	107.35
281.615	-15.53
281.83	68.44
282.045	-17.58
282.26	29.52
282.476	2.9
282.691	37.72
282.906	-15.53
283.122	-23.72
283.337	2.9
283.552	70.48
283.767	9.05
283.983	21.33
284.198	17.24
284.413	62.29
284.628	-1.19
284.843	39.76
285.058	-50.35
285.274	60.24
285.489	58.2
285.704	25.43
285.919	-27.82
286.134	56.15
286.349	27.48
286.564	-13.48
286.779	29.52
286.995	7
287.21	-21.67
287.425	7
287.64	0.85
287.855	35.67
288.07	-7.34
288.285	56.15
288.5	52.05
288.715	4.95
288.93	-11.43
289.145	17.24
289.36	25.43
289.575	35.67
289.79	72.53
290.004	54.1
290.219	56.15
290.434	41.81
290.649	-27.82
290.864	-15.53
291.079	-21.67
291.294	47.96
291.509	103.25
291.724	-3.24
291.938	43.86
292.153	15.19
292.368	56.15
292.583	25.43
292.798	101.2
293.012	-42.15
293.227	29.52
293.442	-40.11
293.657	13.14
293.871	35.67
294.086	70.48
294.301	84.82
294.516	25.43
294.73	4.95
294.945	-44.2
295.16	64.34
295.374	21.33
295.589	39.76
295.804	21.33
296.018	23.38
296.233	50
296.447	47.96
296.662	23.38
296.877	82.77
297.091	37.72
297.306	-15.53
297.52	-44.2
297.735	37.72
297.949	37.72
298.164	35.67
298.378	-3.24
298.593	47.96
298.807	35.67
299.022	-1.19
299.236	21.33
299.451	50
299.665	11.09
299.88	25.43
300.094	72.53
300.309	58.2
300.523	39.76
300.737	43.86
300.952	62.29
301.166	109.4
301.381	-27.82
301.595	-40.11
301.809	7
302.024	4.95
302.238	23.38
302.452	21.33
302.667	15.19
302.881	13.14
303.095	101.2
303.309	19.29
303.524	39.76
303.738	15.19
303.952	-46.25
304.166	19.29
304.381	-9.39
304.595	70.48
304.809	-31.91
305.023	2.9
305.237	47.96
305.452	-48.3
305.666	37.72
305.88	13.14
306.094	-29.87
306.308	72.53
306.522	15.19
306.736	58.2
306.95	43.86
307.164	13.14
307.379	-9.39
307.593	74.58
307.807	27.48
308.021	99.16
308.235	27.48
308.449	-3.24
308.663	-38.06
308.877	101.2
309.091	-17.58
309.305	74.58
309.519	-83.11
309.733	29.52
309.947	23.38
310.161	-23.72
310.374	-13.48
310.588	19.29
310.802	93.01
311.016	0.85
311.23	7
311.444	-46.25
311.658	64.34
311.872	39.76
312.085	109.4
312.299	54.1
312.513	11.09
312.727	0.85
312.941	13.14
313.154	78.68
313.368	11.09
313.582	7
313.796	72.53
314.009	0.85
314.223	84.82
314.437	29.52
314.651	-19.63
314.864	-1.19
315.078	84.82
315.292	23.38
315.505	-23.72
315.719	66.39
315.933	-44.2
316.146	39.76
316.36	58.2
316.573	7
316.787	-5.29
317.001	74.58
317.214	-81.07
317.428	56.15
317.641	19.29
317.855	47.96
318.068	-58.54
318.282	-7.34
318.495	72.53
318.709	41.81
318.922	7
319.136	68.44
319.349	27.48
319.563	33.62
319.776	56.15
319.99	-5.29
320.203	-27.82
320.417	2.9
320.63	-44.2
320.843	-1.19
321.057	50
321.27	-46.25
321.483	29.52
321.697	19.29
321.91	9.05
322.124	-1.19
322.337	80.72
322.55	39.76
322.763	13.14
322.977	76.63
323.19	-25.77
323.403	140.12
323.617	60.24
323.83	-3.24
324.043	-5.29
324.256	68.44
324.469	4.95
324.683	11.09
324.896	7
325.109	39.76
325.322	15.19
325.535	60.24
325.748	2.9
325.962	101.2
326.175	-9.39
326.388	21.33
326.601	43.86
326.814	25.43
327.027	19.29
327.24	7
327.453	21.33
327.666	23.38
327.879	133.97
328.092	9.05
328.305	72.53
328.518	23.38
328.731	-19.63
328.944	68.44
329.157	62.29
329.37	-66.73
329.583	0.85
329.796	78.68
330.009	-25.77
330.222	-15.53
330.435	60.24
330.648	23.38
330.861	-1.19
331.073	70.48
331.286	-1.19
331.499	39.76
331.712	15.19
331.925	19.29
332.138	41.81
332.35	11.09
332.563	4.95
332.776	21.33
332.989	-21.67
333.202	33.62
333.414	54.1
333.627	13.14
333.84	-1.19
334.053	64.34
334.265	2.9
334.478	33.62
334.691	11.09
334.903	-25.77
335.116	-58.54
335.329	60.24
335.541	45.91
335.754	62.29
335.966	68.44
336.179	80.72
336.392	29.52
336.604	50
336.817	4.95
337.029	19.29
337.242	45.91
337.454	58.2
337.667	-27.82
337.88	93.01
338.092	11.09
338.305	74.58
338.517	50
338.729	27.48
338.942	35.67
339.154	25.43
339.367	60.24
339.579	64.34
339.792	-42.15
340.004	56.15
340.217	2.9
340.429	78.68
340.641	39.76
340.854	15.19
341.066	-5.29
341.278	21.33
341.491	60.24
341.703	21.33
341.915	50
342.128	80.72
342.34	47.96
342.552	97.11
342.764	2.9
342.977	68.44
343.189	-11.43
343.401	-11.43
343.613	-11.43
343.826	29.52
344.038	2.9
344.25	90.96
344.462	-23.72
344.674	58.2
344.886	45.91
345.099	37.72
345.311	45.91
345.523	-40.11
345.735	-19.63
345.947	11.09
346.159	119.64
346.371	70.48
346.583	-33.96
346.795	93.01
347.007	-9.39
347.219	-60.59
347.431	-17.58
347.643	37.72
347.855	37.72
348.067	19.29
348.279	23.38
348.491	82.77
348.703	25.43
348.915	99.16
349.127	62.29
349.339	43.86
349.551	39.76
349.763	0.85
349.975	35.67
350.187	66.39
350.399	74.58
350.61	60.24
350.822	-25.77
351.034	58.2
351.246	19.29
351.458	-46.25
351.669	82.77
351.881	43.86
352.093	88.92
352.305	78.68
352.517	78.68
352.728	68.44
352.94	93.01
353.152	-13.48
353.363	76.63
353.575	41.81
353.787	45.91
353.999	82.77
354.21	101.2
354.422	13.14
354.633	-5.29
354.845	4.95
355.057	-3.24
355.268	2.9
355.48	-19.63
355.692	25.43
355.903	47.96
356.115	60.24
356.326	-44.2
356.538	-23.72
356.749	37.72
356.961	23.38
357.172	-19.63
357.384	54.1
357.595	62.29
357.807	15.19
358.018	-40.11
358.23	-27.82
358.441	47.96
358.653	-48.3
358.864	103.25
359.075	33.62
359.287	70.48
359.498	27.48
359.709	-25.77
359.921	2.9
360.132	70.48
360.344	41.81
360.555	19.29
360.766	43.86
360.977	45.91
361.189	84.82
361.4	-42.15
361.611	17.24
361.823	7
362.034	-7.34
362.245	54.1
362.456	25.43
362.667	31.57
362.879	19.29
363.09	17.24
363.301	19.29
363.512	-25.77
363.723	45.91
363.935	-29.87
364.146	88.92
364.357	-17.58
364.568	50
364.779	78.68
364.99	13.14
365.201	-11.43
365.412	43.86
365.623	19.29
365.834	72.53
366.045	-3.24
366.256	19.29
366.467	90.96
366.678	62.29
366.889	58.2
367.1	11.09
367.311	64.34
367.522	21.33
367.733	-11.43
367.944	23.38
368.155	-3.24
368.366	-9.39
368.577	4.95
368.788	119.64
368.999	-19.63
369.209	72.53
369.42	52.05
369.631	64.34
369.842	117.59
370.053	-21.67
370.264	-15.53
370.474	33.62
370.685	-17.58
370.896	45.91
371.107	31.57
371.317	68.44
371.528	-62.63
371.739	-19.63
371.95	99.16
372.16	56.15
372.371	4.95
372.582	27.48
372.792	97.11
373.003	76.63
373.214	93.01
373.424	47.96
373.635	39.76
373.846	66.39
374.056	9.05
374.267	84.82
374.477	60.24
374.688	33.62
374.898	99.16
375.109	13.14
375.319	-40.11
375.53	103.25
375.74	43.86
375.951	50
376.161	58.2
376.372	101.2
376.582	-29.87
376.793	43.86
377.003	52.05
377.214	19.29
377.424	17.24
377.635	41.81
377.845	7
378.055	88.92
378.266	-5.29
378.476	15.19
378.686	-38.06
378.897	9.05
379.107	107.35
379.317	23.38
379.528	35.67
379.738	64.34
379.948	56.15
380.158	-23.72
380.369	17.24
380.579	0.85
380.789	33.62
380.999	62.29
381.21	9.05
381.42	70.48
381.63	56.15
381.84	50
382.05	41.81
382.261	15.19
382.471	56.15
382.681	33.62
382.891	56.15
383.101	43.86
383.311	21.33
383.521	33.62
383.731	-15.53
383.941	50
384.151	-1.19
384.361	13.14
384.571	35.67
384.781	0.85
384.991	21.33
385.201	60.24
385.411	7
385.621	64.34
385.831	39.76
386.041	33.62
386.251	45.91
386.461	35.67
386.671	-1.19
386.881	70.48
387.091	37.72
387.301	70.48
387.511	52.05
387.72	19.29
387.93	84.82
388.14	-15.53
388.35	-21.67
388.56	-54.44
388.769	-9.39
388.979	31.57
389.189	19.29
389.399	11.09
389.609	31.57
389.818	64.34
390.028	21.33
390.238	52.05
390.447	33.62
390.657	78.68
390.867	-17.58
391.076	37.72
391.286	64.34
391.496	97.11
391.705	39.76
391.915	39.76
392.125	64.34
392.334	37.72
392.544	64.34
392.753	101.2
392.963	103.25
393.172	-5.29
393.382	111.44
393.591	125.78
393.801	56.15
394.01	47.96
394.22	97.11
394.429	13.14
394.639	39.76
394.848	2.9
395.058	-27.82
395.267	146.26
395.477	60.24
395.686	21.33
395.895	47.96
396.105	74.58
396.314	13.14
396.524	-19.63
396.733	11.09
396.942	60.24
397.152	70.48
397.361	29.52
397.57	95.06
397.78	29.52
397.989	68.44
398.198	41.81
398.407	58.2
398.617	19.29
398.826	2.9
399.035	19.29
399.244	74.58
399.453	60.24
399.663	90.96
399.872	64.34
400.081	19.29
400.29	70.48
400.499	35.67
400.708	60.24
400.917	47.96
401.127	21.33
401.336	11.09
401.545	50
401.754	93.01
401.963	115.54
402.172	41.81
402.381	31.57
402.59	52.05
402.799	97.11
403.008	62.29
403.217	66.39
403.426	64.34
403.635	56.15
403.844	7
404.053	74.58
404.262	-13.48
404.471	84.82
404.68	64.34
404.888	131.92
405.097	101.2
405.306	107.35
405.515	97.11
405.724	35.67
405.933	113.49
406.142	47.96
406.35	43.86
406.559	111.44
406.768	35.67
406.977	101.2
407.185	142.16
407.394	56.15
407.603	70.48
407.812	68.44
408.02	68.44
408.229	27.48
408.438	113.49
408.646	97.11
408.855	97.11
409.064	152.4
409.272	150.36
409.481	193.36
409.69	47.96
409.898	86.87
410.107	232.27
410.315	256.85
410.524	160.59
410.733	203.6
410.941	183.12
411.15	244.56
411.358	187.22
411.567	260.95
411.775	193.36
411.984	213.84
412.192	119.64
412.401	293.71
412.609	248.66
412.818	226.13
413.026	269.14
413.234	242.51
413.443	283.47
413.651	285.52
413.86	314.19
414.068	320.34
414.276	351.06
414.485	293.71
414.693	334.67
414.901	316.24
415.11	346.96
415.318	308.05
415.526	367.44
415.734	387.92
415.943	439.12
416.151	435.02
416.359	445.26
416.567	451.41
416.776	410.45
416.984	445.26
417.192	494.41
417.4	475.98
417.608	453.45
417.817	430.93
418.025	518.99
418.233	508.75
418.441	506.7
418.649	535.37
418.857	594.76
419.065	578.38
419.273	598.86
419.481	654.16
419.689	648.01
419.897	688.97
420.105	688.97
420.313	717.64
420.521	805.71
420.729	787.27
420.937	805.71
421.145	801.61
421.353	953.16
421.561	910.15
421.769	920.39
421.977	963.4
422.185	973.64
422.393	1043.27
422.601	1100.61
422.809	1096.52
423.017	1084.23
423.224	1045.32
423.432	1170.24
423.64	1231.68
423.848	1284.93
424.056	1194.82
424.263	1407.81
424.471	1334.08
424.679	1342.27
424.887	1446.72
425.094	1368.9
425.302	1387.33
425.51	1540.93
425.718	1563.45
425.925	1502.01
426.133	1592.13
426.341	1723.2
426.548	1903.42
426.756	1848.12
426.964	1839.93
427.171	1907.51
427.379	1895.22
427.586	2110.26
427.794	2138.93
428.001	2083.64
428.209	2231.09
428.417	2128.69
428.624	2392.88
428.832	2390.83
429.039	2376.5
429.247	2480.94
429.454	2630.45
429.662	2958.12
429.869	2609.97
430.076	2876.2
430.284	2685.74
430.491	2896.68
430.699	3105.57
430.906	3001.13
431.114	3081
431.321	3117.86
431.528	3167.01
431.736	3349.28
431.943	3597.09
432.15	3541.79
432.358	3599.13
432.565	3644.19
432.772	3756.83
432.979	3877.66
433.187	3906.33
433.394	4076.31
433.601	4262.68
433.808	4172.57
434.016	4209.43
434.223	4422.42
434.43	4688.65
434.637	4637.45
434.844	4766.48
435.052	4887.31
435.259	4965.13
435.466	5008.14
435.673	4977.42
435.88	5260.04
436.087	5489.41
436.294	5583.62
436.501	5288.71
436.708	5526.27
436.915	5786.37
437.122	6011.64
437.329	6019.83
437.537	6247.16
437.743	6324.98
437.95	6281.97
438.157	6503.15
438.364	6724.33
438.571	6681.33
438.778	6888.17
438.985	7416.55
439.192	7080.68
439.399	7363.3
439.606	7258.85
439.813	7656.16
440.02	8067.8
440.227	7809.76
440.433	7772.89
440.64	7998.17
440.847	8104.67
441.054	8252.12
441.261	8798.93
441.467	8645.33
441.674	8940.24
441.881	9282.25
442.088	9198.28
442.294	8968.91
442.501	9224.9
442.708	9523.91
442.914	9595.59
443.121	10316.47
443.328	10003.13
443.534	10660.53
443.741	10500.79
443.948	10345.14
444.154	11010.73
444.361	10865.33
444.568	11072.17
444.774	10928.81
444.981	11096.75
445.187	11561.64
445.394	12042.91
445.6	11696.8
445.807	12767.89
446.013	12282.52
446.22	12540.57
446.426	13073.04
446.633	13308.55
446.839	13736.58
447.046	12958.35
447.252	13916.8
447.459	14060.16
447.665	13695.62
447.871	14293.63
448.078	15094.38
448.284	14140.03
448.491	14666.36
448.697	15290.99
448.903	15475.31
449.11	15364.71
449.316	15049.33
449.522	15512.17
449.728	15876.71
449.935	16085.6
450.141	16147.04
450.347	16302.68
450.553	15772.26
450.76	16056.93
450.966	16583.26
451.172	16376.41
451.378	16931.41
451.584	16642.65
451.791	16616.02
451.997	16798.29
452.203	17099.34
452.409	17224.27
452.615	17068.62
452.821	16345.69
453.027	16026.21
453.233	16788.05
453.44	16142.94
453.646	16499.29
453.852	16626.26
454.058	16792.15
454.264	16298.59
454.47	16570.97
454.676	16345.69
454.882	16777.81
455.088	15432.3
455.294	15766.12
455.5	15747.69
455.705	16089.7
455.911	15243.88
456.117	15075.95
456.323	14725.75
456.529	14082.69
456.735	14789.24
456.941	14170.75
457.147	13924.99
457.352	13511.3
457.558	13392.52
457.764	13484.68
457.97	13423.24
458.176	12841.62
458.381	13187.72
458.587	12419.74
458.793	12329.63
458.999	11786.91
459.204	12509.85
459.41	12212.89
459.616	11496.1
459.821	11293.35
460.027	11463.33
460.233	11211.43
460.438	10562.23
460.644	10746.55
460.85	10339
461.055	10154.68
461.261	10037.95
461.466	9509.57
461.672	9151.18
461.878	9491.14
462.083	8970.96
462.289	8944.33
462.494	8981.2
462.7	8305.37
462.905	8084.19
463.111	8399.57
463.316	8540.88
463.522	8436.44
463.727	8641.23
463.932	8303.32
464.138	8407.77
464.343	8342.23
464.549	8045.27
464.754	8252.12
464.959	8182.49
465.165	8139.48
465.37	7836.38
465.575	7568.1
465.781	7940.83
465.986	7852.77
466.191	7772.89
466.397	7420.64
466.602	7279.33
466.807	7449.32
467.012	7412.45
467.218	7334.63
467.423	7281.38
467.628	7267.05
467.833	7613.15
468.038	7369.44
468.244	7070.44
468.449	7414.5
468.654	7258.85
468.859	7023.34
469.064	6867.69
469.269	6982.38
469.474	6884.08
469.679	6963.95
469.885	6781.68
470.09	6777.58
470.295	6908.65
470.5	6765.29
