Data from USB4F104151__89__11-06-42-949.txt Node

Date: Wed Mar 12 11:06:42 EDT 2025
User: louis
Spectrometer: USB4F10415
Trigger mode: 4
Integration Time (sec): 2.000000E-2
Scans to average: 1
Electric dark correction enabled: true
Nonlinearity correction enabled: false
Boxcar width: 0
XAxis mode: Wavelengths
Number of Pixels in Spectrum: 3648
>>>>>Begin Spectral Data<<<<<
178.204	-88.57
178.424	-88.57
178.644	-88.57
178.864	-92.67
179.084	-72.19
179.304	-37.38
179.524	-29.18
179.744	-51.71
179.964	52.74
180.184	-41.47
180.404	30.21
180.624	30.21
180.844	-6.66
181.064	32.26
181.283	9.73
181.503	-31.23
181.723	42.5
181.943	26.11
182.163	126.46
182.383	-16.9
182.602	7.68
182.822	19.97
183.042	-12.8
183.262	-6.66
183.482	32.26
183.701	17.92
183.921	7.68
184.141	19.97
184.361	19.97
184.58	-27.14
184.8	1.54
185.02	32.26
185.239	69.12
185.459	1.54
185.679	19.97
185.898	3.58
186.118	44.54
186.338	44.54
186.557	69.12
186.777	-14.85
186.997	-0.51
187.216	60.93
187.436	48.64
187.655	17.92
187.875	65.02
188.095	-29.18
188.314	34.3
188.534	83.45
188.753	-2.56
188.973	42.5
189.192	67.07
189.412	3.58
189.631	95.74
189.851	7.68
190.07	83.45
190.29	67.07
190.509	-0.51
190.729	-37.38
190.948	-29.18
191.168	108.03
191.387	77.31
191.607	26.11
191.826	7.68
192.045	58.88
192.265	15.87
192.484	3.58
192.704	15.87
192.923	-39.42
193.142	-4.61
193.362	-4.61
193.581	46.59
193.8	-12.8
194.02	30.21
194.239	28.16
194.458	26.11
194.678	-4.61
194.897	15.87
195.116	30.21
195.335	26.11
195.555	7.68
195.774	50.69
195.993	-16.9
196.212	-6.66
196.432	-16.9
196.651	-16.9
196.87	11.78
197.089	42.5
197.308	91.65
197.528	71.17
197.747	30.21
197.966	40.45
198.185	-8.7
198.404	42.5
198.623	30.21
198.842	-37.38
199.062	13.82
199.281	56.83
199.5	38.4
199.719	7.68
199.938	19.97
200.157	36.35
200.376	-43.52
200.595	-14.85
200.814	-0.51
201.033	-14.85
201.252	-37.38
201.471	-31.23
201.69	-39.42
201.909	7.68
202.128	60.93
202.347	-0.51
202.566	-37.38
202.785	-0.51
203.004	22.02
203.223	85.5
203.442	60.93
203.661	73.21
203.879	-23.04
204.098	13.82
204.317	7.68
204.536	56.83
204.755	-27.14
204.974	58.88
205.193	44.54
205.411	26.11
205.63	22.02
205.849	48.64
206.068	75.26
206.287	22.02
206.505	13.82
206.724	34.3
206.943	56.83
207.162	48.64
207.381	40.45
207.599	75.26
207.818	13.82
208.037	-20.99
208.255	11.78
208.474	-27.14
208.693	-8.7
208.911	-18.94
209.13	-35.33
209.349	-2.56
209.567	-37.38
209.786	9.73
210.005	77.31
210.223	7.68
210.442	1.54
210.661	54.78
210.879	56.83
211.098	26.11
211.316	62.98
211.535	-10.75
211.753	-18.94
211.972	30.21
212.191	46.59
212.409	7.68
212.628	-18.94
212.846	62.98
213.065	89.6
213.283	95.74
213.502	50.69
213.72	-6.66
213.938	73.21
214.157	-14.85
214.375	-25.09
214.594	-2.56
214.812	54.78
215.031	13.82
215.249	-29.18
215.467	5.63
215.686	58.88
215.904	1.54
216.122	9.73
216.341	-20.99
216.559	13.82
216.778	83.45
216.996	52.74
217.214	-10.75
217.432	-47.62
217.651	30.21
217.869	-6.66
218.087	7.68
218.306	7.68
218.524	5.63
218.742	9.73
218.96	26.11
219.179	32.26
219.397	36.35
219.615	54.78
219.833	48.64
220.051	60.93
220.27	42.5
220.488	58.88
220.706	85.5
220.924	9.73
221.142	-70.14
221.36	32.26
221.578	65.02
221.796	-64
222.015	3.58
222.233	38.4
222.451	97.79
222.669	34.3
222.887	-14.85
223.105	-37.38
223.323	30.21
223.541	50.69
223.759	60.93
223.977	50.69
224.195	-43.52
224.413	13.82
224.631	-0.51
224.849	75.26
225.067	60.93
225.285	15.87
225.503	34.3
225.721	69.12
225.939	58.88
226.157	36.35
226.375	81.41
226.592	-10.75
226.81	58.88
227.028	9.73
227.246	50.69
227.464	-37.38
227.682	-18.94
227.9	79.36
228.117	3.58
228.335	60.93
228.553	22.02
228.771	-10.75
228.989	-0.51
229.206	-10.75
229.424	32.26
229.642	-2.56
229.86	-8.7
230.077	73.21
230.295	15.87
230.513	71.17
230.731	9.73
230.948	-18.94
231.166	-27.14
231.384	60.93
231.601	13.82
231.819	-4.61
232.037	-10.75
232.254	-10.75
232.472	26.11
232.689	-39.42
232.907	46.59
233.125	-45.57
233.342	-31.23
233.56	-31.23
233.777	54.78
233.995	-70.14
234.213	-14.85
234.43	-43.52
234.648	-2.56
234.865	22.02
235.083	-4.61
235.3	-4.61
235.518	-59.9
235.735	22.02
235.953	-14.85
236.17	38.4
236.388	1.54
236.605	134.65
236.822	22.02
237.04	34.3
237.257	44.54
237.475	32.26
237.692	52.74
237.909	26.11
238.127	38.4
238.344	46.59
238.562	15.87
238.779	-29.18
238.996	38.4
239.214	-20.99
239.431	3.58
239.648	-33.28
239.865	73.21
240.083	15.87
240.3	40.45
240.517	15.87
240.735	54.78
240.952	50.69
241.169	15.87
241.386	5.63
241.603	-20.99
241.821	54.78
242.038	56.83
242.255	54.78
242.472	11.78
242.689	24.06
242.907	28.16
243.124	22.02
243.341	128.51
243.558	38.4
243.775	13.82
243.992	-66.05
244.209	19.97
244.426	9.73
244.643	40.45
244.86	44.54
245.078	122.37
245.295	-20.99
245.512	22.02
245.729	3.58
245.946	-6.66
246.163	36.35
246.38	71.17
246.597	75.26
246.814	69.12
247.031	24.06
247.248	13.82
247.464	48.64
247.681	36.35
247.898	91.65
248.115	11.78
248.332	11.78
248.549	13.82
248.766	83.45
248.983	44.54
249.2	50.69
249.417	-18.94
249.633	58.88
249.85	38.4
250.067	-4.61
250.284	75.26
250.501	75.26
250.717	32.26
250.934	11.78
251.151	1.54
251.368	22.02
251.585	38.4
251.801	17.92
252.018	-6.66
252.235	-10.75
252.451	9.73
252.668	7.68
252.885	-27.14
253.102	-4.61
253.318	81.41
253.535	-47.62
253.752	67.07
253.968	36.35
254.185	62.98
254.401	9.73
254.618	19.97
254.835	1.54
255.051	28.16
255.268	38.4
255.484	19.97
255.701	-43.52
255.917	3.58
256.134	1.54
256.351	58.88
256.567	-14.85
256.784	-4.61
257	56.83
257.217	7.68
257.433	-6.66
257.65	91.65
257.866	22.02
258.082	22.02
258.299	67.07
258.515	67.07
258.732	65.02
258.948	-33.28
259.165	3.58
259.381	-39.42
259.597	11.78
259.814	71.17
260.03	-43.52
260.246	67.07
260.463	3.58
260.679	122.37
260.895	-10.75
261.112	-8.7
261.328	-8.7
261.544	48.64
261.761	81.41
261.977	-25.09
262.193	52.74
262.409	24.06
262.626	9.73
262.842	44.54
263.058	-4.61
263.274	40.45
263.49	9.73
263.707	58.88
263.923	101.89
264.139	91.65
264.355	62.98
264.571	40.45
264.787	34.3
265.004	79.36
265.22	69.12
265.436	79.36
265.652	28.16
265.868	-2.56
266.084	69.12
266.3	-12.8
266.516	75.26
266.732	5.63
266.948	-45.57
267.164	69.12
267.38	9.73
267.596	46.59
267.812	73.21
268.028	87.55
268.244	-37.38
268.46	50.69
268.676	-4.61
268.892	48.64
269.108	11.78
269.324	9.73
269.54	15.87
269.756	7.68
269.972	42.5
270.188	50.69
270.403	-8.7
270.619	1.54
270.835	22.02
271.051	-0.51
271.267	-2.56
271.483	54.78
271.698	-2.56
271.914	58.88
272.13	-35.33
272.346	19.97
272.562	83.45
272.777	-0.51
272.993	-29.18
273.209	54.78
273.425	60.93
273.64	-25.09
273.856	32.26
274.072	50.69
274.287	9.73
274.503	13.82
274.719	-53.76
274.934	56.83
275.15	5.63
275.366	-10.75
275.581	-10.75
275.797	58.88
276.012	-10.75
276.228	-33.28
276.444	38.4
276.659	-25.09
276.875	60.93
277.09	77.31
277.306	13.82
277.521	3.58
277.737	-25.09
277.952	52.74
278.168	9.73
278.383	42.5
278.599	15.87
278.814	38.4
279.03	-8.7
279.245	65.02
279.461	28.16
279.676	38.4
279.892	69.12
280.107	52.74
280.322	34.3
280.538	-8.7
280.753	22.02
280.969	30.21
281.184	-2.56
281.399	38.4
281.615	69.12
281.83	128.51
282.045	-82.43
282.26	-23.04
282.476	-59.9
282.691	-2.56
282.906	19.97
283.122	26.11
283.337	-18.94
283.552	56.83
283.767	19.97
283.983	15.87
284.198	26.11
284.413	44.54
284.628	38.4
284.843	71.17
285.058	17.92
285.274	13.82
285.489	34.3
285.704	-0.51
285.919	-6.66
286.134	-14.85
286.349	42.5
286.564	-57.86
286.779	42.5
286.995	26.11
287.21	-10.75
287.425	-10.75
287.64	67.07
287.855	48.64
288.07	-92.67
288.285	-35.33
288.5	46.59
288.715	69.12
288.93	19.97
289.145	52.74
289.36	83.45
289.575	62.98
289.79	73.21
290.004	3.58
290.219	13.82
290.434	46.59
290.649	3.58
290.864	38.4
291.079	-29.18
291.294	24.06
291.509	46.59
291.724	38.4
291.938	-12.8
292.153	32.26
292.368	19.97
292.583	42.5
292.798	34.3
293.012	83.45
293.227	3.58
293.442	-2.56
293.657	56.83
293.871	54.78
294.086	-29.18
294.301	114.17
294.516	22.02
294.73	50.69
294.945	-29.18
295.16	-43.52
295.374	7.68
295.589	40.45
295.804	-23.04
296.018	36.35
296.233	101.89
296.447	24.06
296.662	32.26
296.877	5.63
297.091	56.83
297.306	-31.23
297.52	50.69
297.735	62.98
297.949	62.98
298.164	19.97
298.378	58.88
298.593	3.58
298.807	-49.66
299.022	65.02
299.236	50.69
299.451	-2.56
299.665	-43.52
299.88	17.92
300.094	30.21
300.309	65.02
300.523	44.54
300.737	28.16
300.952	-18.94
301.166	67.07
301.381	62.98
301.595	13.82
301.809	5.63
302.024	-6.66
302.238	-8.7
302.452	-6.66
302.667	-20.99
302.881	44.54
303.095	34.3
303.309	-41.47
303.524	-33.28
303.738	87.55
303.952	30.21
304.166	-27.14
304.381	-18.94
304.595	60.93
304.809	7.68
305.023	9.73
305.237	38.4
305.452	13.82
305.666	32.26
305.88	81.41
306.094	19.97
306.308	52.74
306.522	26.11
306.736	-4.61
306.95	36.35
307.164	-29.18
307.379	79.36
307.593	26.11
307.807	38.4
308.021	65.02
308.235	30.21
308.449	36.35
308.663	46.59
308.877	24.06
309.091	-4.61
309.305	54.78
309.519	11.78
309.733	62.98
309.947	52.74
310.161	67.07
310.374	52.74
310.588	11.78
310.802	-33.28
311.016	28.16
311.23	-0.51
311.444	56.83
311.658	22.02
311.872	-4.61
312.085	3.58
312.299	40.45
312.513	-25.09
312.727	103.93
312.941	-20.99
313.154	22.02
313.368	7.68
313.582	50.69
313.796	-29.18
314.009	44.54
314.223	28.16
314.437	11.78
314.651	26.11
314.864	54.78
315.078	101.89
315.292	62.98
315.505	-55.81
315.719	-20.99
315.933	71.17
316.146	7.68
316.36	-49.66
316.573	11.78
316.787	-10.75
317.001	99.84
317.214	13.82
317.428	38.4
317.641	28.16
317.855	26.11
318.068	-8.7
318.282	7.68
318.495	24.06
318.709	42.5
318.922	65.02
319.136	52.74
319.349	36.35
319.563	15.87
319.776	62.98
319.99	44.54
320.203	30.21
320.417	48.64
320.63	-12.8
320.843	19.97
321.057	15.87
321.27	36.35
321.483	-23.04
321.697	17.92
321.91	30.21
322.124	73.21
322.337	1.54
322.55	95.74
322.763	52.74
322.977	26.11
323.19	13.82
323.403	60.93
323.617	50.69
323.83	32.26
324.043	5.63
324.256	71.17
324.469	-35.33
324.683	71.17
324.896	15.87
325.109	22.02
325.322	-31.23
325.535	38.4
325.748	67.07
325.962	-20.99
326.175	5.63
326.388	75.26
326.601	75.26
326.814	65.02
327.027	77.31
327.24	134.65
327.453	46.59
327.666	77.31
327.879	32.26
328.092	36.35
328.305	93.69
328.518	71.17
328.731	48.64
328.944	28.16
329.157	-74.24
329.37	79.36
329.583	34.3
329.796	22.02
330.009	34.3
330.222	36.35
330.435	32.26
330.648	71.17
330.861	3.58
331.073	13.82
331.286	34.3
331.499	101.89
331.712	-33.28
331.925	32.26
332.138	-51.71
332.35	81.41
332.563	73.21
332.776	89.6
332.989	54.78
333.202	32.26
333.414	24.06
333.627	11.78
333.84	36.35
334.053	56.83
334.265	-12.8
334.478	17.92
334.691	-10.75
334.903	-14.85
335.116	42.5
335.329	34.3
335.541	48.64
335.754	30.21
335.966	19.97
336.179	54.78
336.392	75.26
336.604	26.11
336.817	79.36
337.029	3.58
337.242	73.21
337.454	-25.09
337.667	75.26
337.88	65.02
338.092	77.31
338.305	5.63
338.517	-2.56
338.729	50.69
338.942	93.69
339.154	-43.52
339.367	60.93
339.579	46.59
339.792	-14.85
340.004	69.12
340.217	-6.66
340.429	48.64
340.641	3.58
340.854	112.13
341.066	71.17
341.278	114.17
341.491	56.83
341.703	36.35
341.915	42.5
342.128	-6.66
342.34	30.21
342.552	69.12
342.764	22.02
342.977	40.45
343.189	46.59
343.401	89.6
343.613	87.55
343.826	79.36
344.038	79.36
344.25	73.21
344.462	-23.04
344.674	5.63
344.886	48.64
345.099	17.92
345.311	48.64
345.523	13.82
345.735	13.82
345.947	79.36
346.159	13.82
346.371	-2.56
346.583	26.11
346.795	46.59
347.007	114.17
347.219	108.03
347.431	-45.57
347.643	148.99
347.855	34.3
348.067	36.35
348.279	9.73
348.491	-14.85
348.703	101.89
348.915	42.5
349.127	67.07
349.339	79.36
349.551	44.54
349.763	42.5
349.975	-6.66
350.187	48.64
350.399	60.93
350.61	28.16
350.822	-27.14
351.034	38.4
351.246	46.59
351.458	5.63
351.669	50.69
351.881	54.78
352.093	9.73
352.305	44.54
352.517	50.69
352.728	34.3
352.94	36.35
353.152	65.02
353.363	34.3
353.575	44.54
353.787	77.31
353.999	44.54
354.21	91.65
354.422	54.78
354.633	17.92
354.845	67.07
355.057	65.02
355.268	46.59
355.48	69.12
355.692	15.87
355.903	28.16
356.115	19.97
356.326	30.21
356.538	67.07
356.749	-8.7
356.961	60.93
357.172	-18.94
357.384	-0.51
357.595	46.59
357.807	26.11
358.018	17.92
358.23	54.78
358.441	32.26
358.653	13.82
358.864	58.88
359.075	34.3
359.287	54.78
359.498	46.59
359.709	-2.56
359.921	54.78
360.132	99.84
360.344	17.92
360.555	28.16
360.766	48.64
360.977	1.54
361.189	67.07
361.4	32.26
361.611	44.54
361.823	83.45
362.034	50.69
362.245	-14.85
362.456	81.41
362.667	50.69
362.879	110.08
363.09	36.35
363.301	32.26
363.512	19.97
363.723	22.02
363.935	15.87
364.146	103.93
364.357	52.74
364.568	73.21
364.779	69.12
364.99	-10.75
365.201	7.68
365.412	40.45
365.623	62.98
365.834	1.54
366.045	11.78
366.256	42.5
366.467	32.26
366.678	77.31
366.889	77.31
367.1	75.26
367.311	44.54
367.522	58.88
367.733	46.59
367.944	52.74
368.155	-12.8
368.366	52.74
368.577	36.35
368.788	17.92
368.999	19.97
369.209	22.02
369.42	42.5
369.631	75.26
369.842	38.4
370.053	67.07
370.264	-18.94
370.474	1.54
370.685	44.54
370.896	62.98
371.107	15.87
371.317	77.31
371.528	42.5
371.739	42.5
371.95	77.31
372.16	1.54
372.371	5.63
372.582	32.26
372.792	34.3
373.003	65.02
373.214	83.45
373.424	40.45
373.635	7.68
373.846	-10.75
374.056	71.17
374.267	-23.04
374.477	65.02
374.688	73.21
374.898	77.31
375.109	81.41
375.319	-45.57
375.53	56.83
375.74	93.69
375.951	44.54
376.161	38.4
376.372	38.4
376.582	114.17
376.793	13.82
377.003	69.12
377.214	30.21
377.424	69.12
377.635	58.88
377.845	56.83
378.055	17.92
378.266	28.16
378.476	34.3
378.686	1.54
378.897	114.17
379.107	62.98
379.317	108.03
379.528	30.21
379.738	34.3
379.948	50.69
380.158	42.5
380.369	46.59
380.579	71.17
380.789	17.92
380.999	67.07
381.21	22.02
381.42	108.03
381.63	67.07
381.84	42.5
382.05	73.21
382.261	73.21
382.471	169.47
382.681	60.93
382.891	77.31
383.101	122.37
383.311	95.74
383.521	56.83
383.731	11.78
383.941	99.84
384.151	3.58
384.361	19.97
384.571	118.27
384.781	101.89
384.991	163.33
385.201	99.84
385.411	9.73
385.621	58.88
385.831	-33.28
386.041	-0.51
386.251	-20.99
386.461	85.5
386.671	38.4
386.881	118.27
387.091	54.78
387.301	112.13
387.511	-39.42
387.72	28.16
387.93	83.45
388.14	24.06
388.35	52.74
388.56	134.65
388.769	34.3
388.979	19.97
389.189	38.4
389.399	65.02
389.609	54.78
389.818	75.26
390.028	118.27
390.238	116.22
390.447	99.84
390.657	7.68
390.867	83.45
391.076	52.74
391.286	-2.56
391.496	26.11
391.705	81.41
391.915	32.26
392.125	58.88
392.334	46.59
392.544	97.79
392.753	103.93
392.963	54.78
393.172	42.5
393.382	79.36
393.591	48.64
393.801	26.11
394.01	54.78
394.22	122.37
394.429	105.98
394.639	69.12
394.848	69.12
395.058	95.74
395.267	110.08
395.477	87.55
395.686	34.3
395.895	87.55
396.105	93.69
396.314	42.5
396.524	69.12
396.733	89.6
396.942	38.4
397.152	132.61
397.361	62.98
397.57	120.32
397.78	87.55
397.989	50.69
398.198	169.47
398.407	120.32
398.617	54.78
398.826	19.97
399.035	112.13
399.244	99.84
399.453	95.74
399.663	79.36
399.872	153.09
400.081	132.61
400.29	138.75
400.499	101.89
400.708	73.21
400.917	122.37
401.127	50.69
401.336	26.11
401.545	204.28
401.754	230.91
401.963	87.55
402.172	120.32
402.381	134.65
402.59	153.09
402.799	138.75
403.008	194.05
403.217	93.69
403.426	69.12
403.635	91.65
403.844	112.13
404.053	112.13
404.262	56.83
404.471	206.33
404.68	163.33
404.888	114.17
405.097	122.37
405.306	171.52
405.515	116.22
405.724	116.22
405.933	144.89
406.142	173.57
406.35	173.57
406.559	257.53
406.768	181.76
406.977	132.61
407.185	112.13
407.394	169.47
407.603	181.76
407.812	212.48
408.02	220.67
408.229	222.72
408.438	228.86
408.646	280.06
408.855	194.05
409.064	255.48
409.272	267.77
409.481	306.68
409.69	253.44
409.898	308.73
410.107	271.87
410.315	423.42
410.524	304.64
410.733	402.94
410.941	382.46
411.15	335.35
411.358	445.95
411.567	415.23
411.775	382.46
411.984	409.08
412.192	445.95
412.401	411.13
412.609	513.53
412.818	447.99
413.026	564.73
413.234	566.78
413.443	456.19
413.651	458.23
413.86	529.91
414.068	577.02
414.276	595.45
414.485	595.45
414.693	685.56
414.901	691.7
415.11	703.99
415.318	673.27
415.526	726.52
415.734	720.37
415.943	841.2
416.151	796.15
416.359	931.31
416.567	839.16
416.776	876.02
416.984	945.65
417.192	927.22
417.4	957.94
417.608	929.27
417.817	1046
418.025	1068.53
418.233	1132.01
418.441	1142.25
418.649	1146.35
418.857	1252.84
419.065	1367.53
419.273	1218.03
419.481	1271.28
419.689	1377.77
419.897	1484.27
420.105	1488.36
420.313	1529.32
420.521	1596.9
420.729	1715.69
420.937	1656.29
421.145	1830.37
421.353	1801.7
421.561	1959.39
421.769	1940.96
421.977	1955.3
422.185	1955.3
422.393	2137.57
422.601	2280.93
422.809	2285.02
423.017	2307.55
423.224	2301.4
423.432	2512.35
423.64	2483.67
423.848	2807.25
424.056	2635.22
424.263	2807.25
424.471	2954.71
424.679	2983.38
424.887	3063.25
425.094	3163.6
425.302	3118.54
425.51	3270.09
425.718	3384.78
425.925	3380.68
426.133	3472.84
426.341	3671.5
426.548	3927.49
426.756	3876.29
426.964	3943.88
427.171	4130.24
427.379	4257.22
427.586	4451.77
427.794	4490.68
428.001	4734.39
428.209	4918.71
428.417	4912.57
428.624	5191.09
428.832	5109.17
429.039	5148.08
429.247	5191.09
429.454	5588.39
429.662	6047.14
429.869	5610.92
430.076	5993.89
430.284	5848.49
430.491	6104.48
430.699	6612.38
430.906	6352.29
431.114	6469.02
431.321	6645.15
431.528	6909.33
431.736	7386.51
431.943	7687.56
432.15	7450
432.358	7445.9
432.565	8029.57
432.772	7964.04
432.979	8357.25
433.187	8473.98
433.394	8631.68
433.601	9006.45
433.808	9049.46
434.016	9192.82
434.223	9522.54
434.43	10069.35
434.637	9991.53
434.844	10337.63
435.052	10667.36
435.259	10663.26
435.466	10835.29
435.673	10610.01
435.88	11312.47
436.087	11861.32
436.294	11844.94
436.501	11564.37
436.708	11717.97
436.915	12277.06
437.122	12571.97
437.329	12830.01
437.537	13217.08
437.743	13337.91
437.95	13153.59
438.157	14089.51
438.364	14497.06
438.571	14175.53
438.778	14316.84
438.985	15922.45
439.192	15310.1
439.399	15641.87
439.606	15263
439.813	16198.92
440.02	17390.84
440.227	17046.78
440.433	16850.17
440.64	17364.22
440.847	17192.19
441.054	17630.45
441.261	18808.03
441.467	18576.61
441.674	18963.68
441.881	19903.7
442.088	19672.28
442.294	19426.52
442.501	19950.8
442.708	20483.27
442.914	21339.32
443.121	22164.65
443.328	21544.12
443.534	22789.28
443.741	22203.57
443.948	22246.57
444.154	23635.1
444.361	23487.64
444.568	23764.12
444.774	23549.08
444.981	23895.19
445.187	24661.13
445.394	25617.53
445.6	25453.69
445.807	27868.25
446.013	26557.55
446.22	27026.53
446.426	28204.11
446.633	28177.49
446.839	29340.74
447.046	28093.52
447.252	29471.81
447.459	29621.31
447.665	29310.02
447.871	30987.3
448.078	31863.83
448.284	30049.33
448.491	31505.44
448.697	32754.7
448.903	32881.67
449.11	33297.41
449.316	32291.86
449.522	33346.56
449.728	34049.02
449.935	34018.3
450.141	34085.88
450.347	34929.64
450.553	33680.38
450.76	34008.06
450.966	35159.02
451.172	34776.05
451.378	35820.51
451.584	35437.54
451.791	36070.36
451.997	35642.34
452.203	36053.98
452.409	36283.35
452.615	35982.3
452.821	34862.06
453.027	34429.94
453.233	36193.24
453.44	34487.28
453.646	35118.06
453.852	35093.48
454.058	35892.19
454.264	34548.72
454.47	35034.09
454.676	34110.46
454.882	35728.35
455.088	32091.16
455.294	32861.19
455.5	33612.8
455.705	33668.09
455.911	32607.25
456.117	31652.89
456.323	30942.25
456.529	29645.88
456.735	30577.71
456.941	29940.79
457.147	29563.96
457.352	28677.19
457.558	28552.27
457.764	28195.92
457.97	27573.34
458.176	26866.79
458.381	27049.06
458.587	25437.31
458.793	25711.74
458.999	24296.59
459.204	26055.79
459.41	25394.3
459.616	23811.22
459.821	23872.66
460.027	23899.28
460.233	23053.47
460.438	22011.06
460.644	22625.45
460.85	21562.55
461.055	21007.55
461.261	21025.98
461.466	19277.02
461.672	18607.33
461.878	20149.45
462.083	19057.89
462.289	18334.95
462.494	18152.68
462.7	17337.59
462.905	16821.5
463.111	17816.82
463.316	17384.69
463.522	17306.87
463.727	17620.21
463.932	17302.78
464.138	17306.87
464.343	17679.6
464.549	16909.57
464.754	17370.36
464.959	17468.66
465.165	17284.34
465.37	16448.77
465.575	16098.57
465.781	16596.23
465.986	16590.08
466.191	16155.91
466.397	15832.33
466.602	14996.76
466.807	15492.37
467.012	15406.36
467.218	15389.97
467.423	15088.92
467.628	15400.21
467.833	15916.3
