Data from USB4F104151__265__11-11-59-926.txt Node

Date: Wed Mar 12 11:11:59 EDT 2025
User: louis
Spectrometer: USB4F10415
Trigger mode: 4
Integration Time (sec): 2.000000E-2
Scans to average: 1
Electric dark correction enabled: true
Nonlinearity correction enabled: false
Boxcar width: 0
XAxis mode: Wavelengths
Number of Pixels in Spectrum: 3648
>>>>>Begin Spectral Data<<<<<
178.204	-148.82
178.424	-148.82
178.644	-148.82
178.864	-144.72
179.084	-175.44
179.304	-11.61
179.524	-17.75
179.744	-48.47
179.964	33.45
180.184	25.26
180.404	-3.41
180.624	41.64
180.844	19.11
181.064	-77.14
181.283	60.07
181.503	-13.65
181.723	-7.51
181.943	-48.47
182.163	39.59
182.383	15.02
182.602	6.83
182.822	-25.94
183.042	-109.91
183.262	-36.18
183.482	-21.85
183.701	-9.56
183.921	10.92
184.141	-38.23
184.361	-5.46
184.58	-9.56
184.8	-11.61
185.02	-42.32
185.239	33.45
185.459	-30.04
185.679	55.98
185.898	-25.94
186.118	68.27
186.338	-27.99
186.557	0.68
186.777	-93.52
186.997	-21.85
187.216	12.97
187.436	-23.89
187.655	10.92
187.875	15.02
188.095	-25.94
188.314	27.31
188.534	-9.56
188.753	12.97
188.973	-3.41
189.192	37.55
189.412	49.83
189.631	21.16
189.851	4.78
190.07	15.02
190.29	-50.52
190.509	37.55
190.729	55.98
190.948	2.73
191.168	37.55
191.387	101.03
191.607	-38.23
191.826	6.83
192.045	29.35
192.265	4.78
192.484	27.31
192.704	-25.94
192.923	-40.28
193.142	70.31
193.362	37.55
193.581	105.13
193.8	-54.61
194.02	98.99
194.239	-15.7
194.458	6.83
194.678	17.07
194.897	49.83
195.116	-9.56
195.335	-42.32
195.555	-27.99
195.774	-1.37
195.993	35.5
196.212	23.21
196.432	-23.89
196.651	-27.99
196.87	6.83
197.089	35.5
197.308	78.51
197.528	-42.32
197.747	-23.89
197.966	39.59
198.185	-23.89
198.404	15.02
198.623	-13.65
198.842	-46.42
199.062	111.27
199.281	-3.41
199.5	-11.61
199.719	27.31
199.938	31.4
200.157	117.42
200.376	55.98
200.595	15.02
200.814	-15.7
201.033	41.64
201.252	-44.37
201.471	23.21
201.69	-11.61
201.909	6.83
202.128	-30.04
202.347	-40.28
202.566	35.5
202.785	-77.14
203.004	-38.23
203.223	-5.46
203.442	-15.7
203.661	43.69
203.879	-13.65
204.098	33.45
204.317	-27.99
204.536	35.5
204.755	-36.18
204.974	-9.56
205.193	-9.56
205.411	17.07
205.63	8.87
205.849	8.87
206.068	49.83
206.287	-25.94
206.505	10.92
206.724	12.97
206.943	-75.09
207.162	-21.85
207.381	-54.61
207.599	72.36
207.818	43.69
208.037	2.73
208.255	53.93
208.474	-25.94
208.693	10.92
208.911	17.07
209.13	-3.41
209.349	-48.47
209.567	6.83
209.786	41.64
210.005	15.02
210.223	29.35
210.442	70.31
210.661	41.64
210.879	35.5
211.098	6.83
211.316	-62.8
211.535	-7.51
211.753	-21.85
211.972	2.73
212.191	70.31
212.409	-19.8
212.628	6.83
212.846	-1.37
213.065	-11.61
213.283	-38.23
213.502	37.55
213.72	-1.37
213.938	31.4
214.157	-19.8
214.375	6.83
214.594	4.78
214.812	25.26
215.031	-54.61
215.249	25.26
215.467	-34.13
215.686	-25.94
215.904	12.97
216.122	-32.08
216.341	-34.13
216.559	10.92
216.778	29.35
216.996	10.92
217.214	-30.04
217.432	-46.42
217.651	-50.52
217.869	-5.46
218.087	-66.9
218.306	-17.75
218.524	49.83
218.742	8.87
218.96	80.55
219.179	-5.46
219.397	-1.37
219.615	-7.51
219.833	15.02
220.051	70.31
220.27	4.78
220.488	-19.8
220.706	-7.51
220.924	8.87
221.142	31.4
221.36	4.78
221.578	58.03
221.796	0.68
222.015	53.93
222.233	-52.56
222.451	-3.41
222.669	-40.28
222.887	-11.61
223.105	-48.47
223.323	53.93
223.541	-11.61
223.759	10.92
223.977	-25.94
224.195	-52.56
224.413	55.98
224.631	6.83
224.849	-75.09
225.067	-9.56
225.285	-19.8
225.503	37.55
225.721	-50.52
225.939	-3.41
226.157	-25.94
226.375	74.41
226.592	-75.09
226.81	-27.99
227.028	23.21
227.246	2.73
227.464	-15.7
227.682	105.13
227.9	-34.13
228.117	-30.04
228.335	41.64
228.553	17.07
228.771	27.31
228.989	-1.37
229.206	23.21
229.424	-46.42
229.642	-11.61
229.86	31.4
230.077	-3.41
230.295	15.02
230.513	6.83
230.731	2.73
230.948	4.78
231.166	45.74
231.384	-73.04
231.601	-25.94
231.819	12.97
232.037	-11.61
232.254	-5.46
232.472	-64.85
232.689	41.64
232.907	-1.37
233.125	25.26
233.342	-11.61
233.56	6.83
233.777	12.97
233.995	-27.99
234.213	-21.85
234.43	-50.52
234.648	-15.7
234.865	-36.18
235.083	43.69
235.3	-11.61
235.518	31.4
235.735	-44.37
235.953	25.26
236.17	31.4
236.388	4.78
236.605	45.74
236.822	-9.56
237.04	21.16
237.257	-17.75
237.475	-25.94
237.692	37.55
237.909	31.4
238.127	-5.46
238.344	25.26
238.562	43.69
238.779	-46.42
238.996	-11.61
239.214	-27.99
239.431	-1.37
239.648	-46.42
239.865	33.45
240.083	-1.37
240.3	47.79
240.517	-30.04
240.735	51.88
240.952	23.21
241.169	-9.56
241.386	47.79
241.603	33.45
241.821	-68.95
242.038	21.16
242.255	55.98
242.472	-66.9
242.689	17.07
242.907	49.83
243.124	-36.18
243.341	27.31
243.558	12.97
243.775	43.69
243.992	-9.56
244.209	39.59
244.426	-30.04
244.643	-15.7
244.86	-46.42
245.078	25.26
245.295	-9.56
245.512	-30.04
245.729	-25.94
245.946	12.97
246.163	-34.13
246.38	-21.85
246.597	25.26
246.814	-23.89
247.031	-81.24
247.248	15.02
247.464	-58.71
247.681	23.21
247.898	43.69
248.115	-32.08
248.332	-25.94
248.549	33.45
248.766	6.83
248.983	25.26
249.2	-36.18
249.417	12.97
249.633	-19.8
249.85	-5.46
250.067	21.16
250.284	-21.85
250.501	-21.85
250.717	78.51
250.934	-36.18
251.151	27.31
251.368	-1.37
251.585	-25.94
251.801	-9.56
252.018	-34.13
252.235	60.07
252.451	-30.04
252.668	-1.37
252.885	-17.75
253.102	19.11
253.318	-54.61
253.535	-36.18
253.752	31.4
253.968	-40.28
254.185	0.68
254.401	-19.8
254.618	51.88
254.835	29.35
255.051	37.55
255.268	33.45
255.484	0.68
255.701	17.07
255.917	55.98
256.134	-42.32
256.351	70.31
256.567	-5.46
256.784	-81.24
257	-17.75
257.217	-52.56
257.433	-19.8
257.65	39.59
257.866	55.98
258.082	10.92
258.299	-23.89
258.515	-40.28
258.732	-60.76
258.948	33.45
259.165	-1.37
259.381	12.97
259.597	-19.8
259.814	-48.47
260.03	-13.65
260.246	-3.41
260.463	15.02
260.679	64.17
260.895	4.78
261.112	-1.37
261.328	-58.71
261.544	-11.61
261.761	21.16
261.977	37.55
262.193	-7.51
262.409	39.59
262.626	33.45
262.842	27.31
263.058	-71
263.274	2.73
263.49	10.92
263.707	12.97
263.923	33.45
264.139	-42.32
264.355	35.5
264.571	-32.08
264.787	-5.46
265.004	84.65
265.22	-30.04
265.436	2.73
265.652	-30.04
265.868	47.79
266.084	27.31
266.3	2.73
266.516	-44.37
266.732	12.97
266.948	-1.37
267.164	0.68
267.38	27.31
267.596	-50.52
267.812	144.04
268.028	37.55
268.244	-64.85
268.46	29.35
268.676	21.16
268.892	72.36
269.108	-66.9
269.324	62.12
269.54	51.88
269.756	-11.61
269.972	35.5
270.188	-46.42
270.403	0.68
270.619	2.73
270.835	-21.85
271.051	-13.65
271.267	-3.41
271.483	-27.99
271.698	64.17
271.914	31.4
272.13	-9.56
272.346	-27.99
272.562	12.97
272.777	0.68
272.993	8.87
273.209	23.21
273.425	-68.95
273.64	-1.37
273.856	74.41
274.072	-7.51
274.287	-56.66
274.503	-25.94
274.719	-7.51
274.934	-79.19
275.15	-30.04
275.366	29.35
275.581	-7.51
275.797	-30.04
276.012	49.83
276.228	19.11
276.444	33.45
276.659	74.41
276.875	-1.37
277.09	-34.13
277.306	-19.8
277.521	58.03
277.737	-19.8
277.952	-38.23
278.168	8.87
278.383	29.35
278.599	-5.46
278.814	37.55
279.03	39.59
279.245	33.45
279.461	35.5
279.676	-25.94
279.892	-42.32
280.107	-9.56
280.322	-79.19
280.538	-48.47
280.753	-19.8
280.969	17.07
281.184	-21.85
281.399	-34.13
281.615	27.31
281.83	-64.85
282.045	-91.48
282.26	0.68
282.476	27.31
282.691	86.7
282.906	-34.13
283.122	-62.8
283.337	-11.61
283.552	10.92
283.767	-17.75
283.983	55.98
284.198	-9.56
284.413	25.26
284.628	6.83
284.843	-5.46
285.058	-3.41
285.274	43.69
285.489	23.21
285.704	31.4
285.919	-11.61
286.134	-30.04
286.349	-27.99
286.564	-77.14
286.779	37.55
286.995	-38.23
287.21	10.92
287.425	17.07
287.64	-11.61
287.855	10.92
288.07	23.21
288.285	-17.75
288.5	-34.13
288.715	25.26
288.93	31.4
289.145	68.27
289.36	23.21
289.575	-13.65
289.79	-50.52
290.004	8.87
290.219	12.97
290.434	-27.99
290.649	-7.51
290.864	-11.61
291.079	-34.13
291.294	-77.14
291.509	10.92
291.724	-11.61
291.938	-9.56
292.153	31.4
292.368	64.17
292.583	-27.99
292.798	4.78
293.012	33.45
293.227	-75.09
293.442	-32.08
293.657	31.4
293.871	-1.37
294.086	8.87
294.301	39.59
294.516	-13.65
294.73	33.45
294.945	-7.51
295.16	-46.42
295.374	31.4
295.589	12.97
295.804	-5.46
296.018	0.68
296.233	88.75
296.447	8.87
296.662	-13.65
296.877	-3.41
297.091	0.68
297.306	23.21
297.52	-50.52
297.735	15.02
297.949	-9.56
298.164	-9.56
298.378	-9.56
298.593	49.83
298.807	60.07
299.022	41.64
299.236	27.31
299.451	-38.23
299.665	41.64
299.88	51.88
300.094	10.92
300.309	19.11
300.523	-75.09
300.737	6.83
300.952	-27.99
301.166	-77.14
301.381	-36.18
301.595	-5.46
301.809	12.97
302.024	-7.51
302.238	-21.85
302.452	27.31
302.667	-27.99
302.881	31.4
303.095	-73.04
303.309	12.97
303.524	-17.75
303.738	-50.52
303.952	21.16
304.166	10.92
304.381	-21.85
304.595	-13.65
304.809	4.78
305.023	-5.46
305.237	-11.61
305.452	6.83
305.666	23.21
305.88	19.11
306.094	29.35
306.308	17.07
306.522	49.83
306.736	15.02
306.95	6.83
307.164	-3.41
307.379	10.92
307.593	-7.51
307.807	-9.56
308.021	-7.51
308.235	10.92
308.449	-11.61
308.663	-36.18
308.877	19.11
309.091	15.02
309.305	58.03
309.519	-64.85
309.733	35.5
309.947	-3.41
310.161	8.87
310.374	43.69
310.588	-11.61
310.802	-71
311.016	-27.99
311.23	-9.56
311.444	4.78
311.658	2.73
311.872	70.31
312.085	-1.37
312.299	25.26
312.513	51.88
312.727	2.73
312.941	21.16
313.154	-13.65
313.368	-7.51
313.582	58.03
313.796	-15.7
314.009	-42.32
314.223	72.36
314.437	-34.13
314.651	-42.32
314.864	21.16
315.078	-40.28
315.292	70.31
315.505	-34.13
315.719	17.07
315.933	-30.04
316.146	41.64
316.36	-15.7
316.573	-13.65
316.787	35.5
317.001	41.64
317.214	-3.41
317.428	-95.57
317.641	-21.85
317.855	51.88
318.068	39.59
318.282	-32.08
318.495	4.78
318.709	55.98
318.922	27.31
319.136	84.65
319.349	-17.75
319.563	10.92
319.776	90.79
319.99	-3.41
320.203	17.07
320.417	31.4
320.63	-11.61
320.843	70.31
321.057	-58.71
321.27	-23.89
321.483	55.98
321.697	66.22
321.91	-48.47
322.124	15.02
322.337	19.11
322.55	0.68
322.763	-3.41
322.977	6.83
323.19	17.07
323.403	0.68
323.617	23.21
323.83	49.83
324.043	-30.04
324.256	10.92
324.469	6.83
324.683	4.78
324.896	6.83
325.109	-17.75
325.322	6.83
325.535	-9.56
325.748	17.07
325.962	-42.32
326.175	12.97
326.388	21.16
326.601	37.55
326.814	27.31
327.027	-25.94
327.24	49.83
327.453	-44.37
327.666	10.92
327.879	21.16
328.092	37.55
328.305	0.68
328.518	-25.94
328.731	-42.32
328.944	62.12
329.157	-17.75
329.37	-1.37
329.583	45.74
329.796	53.93
330.009	-13.65
330.222	-23.89
330.435	-34.13
330.648	6.83
330.861	12.97
331.073	37.55
331.286	-7.51
331.499	8.87
331.712	-19.8
331.925	-71
332.138	-25.94
332.35	17.07
332.563	-11.61
332.776	37.55
332.989	2.73
333.202	-5.46
333.414	-42.32
333.627	-50.52
333.84	10.92
334.053	-23.89
334.265	-1.37
334.478	-5.46
334.691	-40.28
334.903	-1.37
335.116	-27.99
335.329	-48.47
335.541	8.87
335.754	51.88
335.966	-38.23
336.179	15.02
336.392	-87.38
336.604	-46.42
336.817	-17.75
337.029	53.93
337.242	-48.47
337.454	41.64
337.667	15.02
337.88	80.55
338.092	-9.56
338.305	4.78
338.517	33.45
338.729	76.46
338.942	94.89
339.154	-7.51
339.367	31.4
339.579	6.83
339.792	-103.76
340.004	35.5
340.217	15.02
340.429	-9.56
340.641	8.87
340.854	-9.56
341.066	-5.46
341.278	-95.57
341.491	6.83
341.703	21.16
341.915	-1.37
342.128	-50.52
342.34	2.73
342.552	15.02
342.764	-9.56
342.977	27.31
343.189	-54.61
343.401	-25.94
343.613	-19.8
343.826	-13.65
344.038	-25.94
344.25	-87.38
344.462	4.78
344.674	62.12
344.886	31.4
345.099	-21.85
345.311	-3.41
345.523	4.78
345.735	-73.04
345.947	55.98
346.159	-27.99
346.371	25.26
346.583	51.88
346.795	68.27
347.007	-32.08
347.219	29.35
347.431	-3.41
347.643	64.17
347.855	-30.04
348.067	47.79
348.279	-71
348.491	17.07
348.703	-62.8
348.915	8.87
349.127	6.83
349.339	84.65
349.551	-60.76
349.763	25.26
349.975	-68.95
350.187	27.31
350.399	49.83
350.61	4.78
350.822	4.78
351.034	27.31
351.246	-7.51
351.458	37.55
351.669	-15.7
351.881	0.68
352.093	47.79
352.305	10.92
352.517	31.4
352.728	-11.61
352.94	29.35
353.152	31.4
353.363	0.68
353.575	35.5
353.787	8.87
353.999	-25.94
354.21	-11.61
354.422	-34.13
354.633	-75.09
354.845	6.83
355.057	-30.04
355.268	23.21
355.48	39.59
355.692	-1.37
355.903	-48.47
356.115	-17.75
356.326	0.68
356.538	-27.99
356.749	-21.85
356.961	47.79
357.172	53.93
357.384	-64.85
357.595	-5.46
357.807	43.69
358.018	8.87
358.23	-11.61
358.441	-17.75
358.653	31.4
358.864	23.21
359.075	-1.37
359.287	17.07
359.498	51.88
359.709	19.11
359.921	-15.7
360.132	31.4
360.344	-19.8
360.555	-66.9
360.766	-1.37
360.977	72.36
361.189	43.69
361.4	15.02
361.611	49.83
361.823	19.11
362.034	98.99
362.245	-58.71
362.456	12.97
362.667	8.87
362.879	37.55
363.09	35.5
363.301	37.55
363.512	64.17
363.723	-52.56
363.935	39.59
364.146	-54.61
364.357	-27.99
364.568	-1.37
364.779	-73.04
364.99	-1.37
365.201	-17.75
365.412	-32.08
365.623	-32.08
365.834	53.93
366.045	-9.56
366.256	17.07
366.467	-1.37
366.678	19.11
366.889	45.74
367.1	-54.61
367.311	-73.04
367.522	74.41
367.733	-9.56
367.944	-1.37
368.155	55.98
368.366	31.4
368.577	29.35
368.788	12.97
368.999	-40.28
369.209	31.4
369.42	4.78
369.631	31.4
369.842	-9.56
370.053	-3.41
370.264	-7.51
370.474	58.03
370.685	41.64
370.896	-7.51
371.107	47.79
371.317	19.11
371.528	10.92
371.739	64.17
371.95	-13.65
372.16	12.97
372.371	-15.7
372.582	-34.13
372.792	-25.94
373.003	17.07
373.214	-3.41
373.424	31.4
373.635	19.11
373.846	31.4
374.056	8.87
374.267	-38.23
374.477	-11.61
374.688	55.98
374.898	-15.7
375.109	-95.57
375.319	-7.51
375.53	-23.89
375.74	0.68
375.951	10.92
376.161	2.73
376.372	76.46
376.582	2.73
376.793	4.78
377.003	12.97
377.214	-60.76
377.424	25.26
377.635	35.5
377.845	-52.56
378.055	31.4
378.266	-30.04
378.476	-32.08
378.686	64.17
378.897	39.59
379.107	-75.09
379.317	17.07
379.528	-9.56
379.738	-36.18
379.948	29.35
380.158	17.07
380.369	-5.46
380.579	0.68
380.789	-21.85
380.999	76.46
381.21	-7.51
381.42	72.36
381.63	70.31
381.84	-38.23
382.05	12.97
382.261	-58.71
382.471	0.68
382.681	-19.8
382.891	10.92
383.101	-30.04
383.311	49.83
383.521	68.27
383.731	-5.46
383.941	27.31
384.151	-1.37
384.361	33.45
384.571	49.83
384.781	12.97
384.991	47.79
385.201	-25.94
385.411	19.11
385.621	15.02
385.831	-30.04
386.041	39.59
386.251	-15.7
386.461	31.4
386.671	66.22
386.881	-9.56
387.091	-11.61
387.301	-1.37
387.511	-36.18
387.72	6.83
387.93	-5.46
388.14	-38.23
388.35	10.92
388.56	31.4
388.769	27.31
388.979	-9.56
389.189	0.68
389.399	47.79
389.609	8.87
389.818	17.07
390.028	37.55
390.238	-1.37
390.447	15.02
390.657	29.35
390.867	-15.7
391.076	-46.42
391.286	35.5
391.496	49.83
391.705	-3.41
391.915	58.03
392.125	37.55
392.334	2.73
392.544	45.74
392.753	43.69
392.963	-21.85
393.172	-11.61
393.382	0.68
393.591	53.93
393.801	45.74
394.01	109.22
394.22	64.17
394.429	74.41
394.639	-42.32
394.848	19.11
395.058	-87.38
395.267	-7.51
395.477	-48.47
395.686	27.31
395.895	66.22
396.105	51.88
396.314	35.5
396.524	68.27
396.733	10.92
396.942	41.64
397.152	10.92
397.361	49.83
397.57	35.5
397.78	23.21
397.989	-5.46
398.198	119.46
398.407	51.88
398.617	6.83
398.826	23.21
399.035	29.35
399.244	66.22
399.453	10.92
399.663	72.36
399.872	39.59
400.081	35.5
400.29	21.16
400.499	-7.51
400.708	80.55
400.917	-13.65
401.127	17.07
401.336	66.22
401.545	105.13
401.754	123.56
401.963	-9.56
402.172	31.4
402.381	-5.46
402.59	-32.08
402.799	31.4
403.008	31.4
403.217	51.88
403.426	23.21
403.635	82.6
403.844	53.93
404.053	-7.51
404.262	84.65
404.471	119.46
404.68	60.07
404.888	117.42
405.097	33.45
405.306	64.17
405.515	58.03
405.724	23.21
405.933	27.31
406.142	58.03
406.35	90.79
406.559	23.21
406.768	-1.37
406.977	101.03
407.185	98.99
407.394	103.08
407.603	105.13
407.812	55.98
408.02	98.99
408.229	101.03
408.438	70.31
408.646	43.69
408.855	70.31
409.064	133.8
409.272	55.98
409.481	113.32
409.69	78.51
409.898	137.9
410.107	113.32
410.315	123.56
410.524	51.88
410.733	96.94
410.941	96.94
411.15	180.9
411.358	96.94
411.567	135.85
411.775	101.03
411.984	152.23
412.192	158.38
412.401	82.6
412.609	146.09
412.818	168.62
413.026	166.57
413.234	207.53
413.443	127.66
413.651	111.27
413.86	180.9
414.068	223.91
414.276	209.58
414.485	201.38
414.693	158.38
414.901	176.81
415.11	119.46
415.318	182.95
415.526	221.86
415.734	219.82
415.943	174.76
416.151	295.59
416.359	217.77
416.567	219.82
416.776	303.78
416.984	180.9
417.192	322.21
417.4	232.1
417.608	273.06
417.817	273.06
418.025	193.19
418.233	365.22
418.441	318.12
418.649	301.73
418.857	340.65
419.065	379.56
419.273	291.49
419.481	381.6
419.689	354.98
419.897	361.13
420.105	400.04
420.313	453.28
420.521	369.32
420.729	451.24
420.937	365.22
421.145	404.13
421.353	457.38
421.561	404.13
421.769	490.15
421.977	606.88
422.185	512.67
422.393	582.31
422.601	514.72
422.809	578.21
423.017	572.07
423.224	592.55
423.432	617.12
423.64	596.64
423.848	719.52
424.056	672.42
424.263	737.95
424.471	641.7
424.679	750.24
424.887	789.15
425.094	725.66
425.302	768.67
425.51	705.18
425.718	858.78
425.925	727.71
426.133	881.31
426.341	940.7
426.548	928.41
426.756	826.01
426.964	961.18
427.171	909.98
427.379	1032.86
427.586	1012.38
427.794	1075.87
428.001	996
428.209	1168.02
428.417	1135.26
428.624	1182.36
428.832	1211.03
429.039	1215.13
429.247	1282.71
429.454	1303.19
429.662	1428.12
429.869	1356.44
430.076	1364.63
430.284	1315.48
430.491	1286.81
430.699	1440.4
430.906	1440.4
431.114	1520.28
431.321	1477.27
431.528	1579.67
431.736	1671.83
431.943	1817.23
432.15	1696.4
432.358	1798.8
432.565	1759.89
432.772	1677.97
432.979	1815.18
433.187	1864.33
433.394	1931.92
433.601	1985.16
433.808	2054.8
434.016	2069.13
434.223	2130.57
434.43	2241.16
434.637	2300.55
434.844	2214.54
435.052	2460.29
435.259	2368.13
435.466	2396.81
435.673	2318.98
435.88	2448.01
436.087	2744.96
436.294	2622.08
436.501	2644.61
436.708	2652.8
436.915	2734.72
437.122	2820.74
437.329	2929.28
437.537	3033.72
437.743	2916.99
437.95	2974.33
438.157	3152.51
438.364	3060.35
438.571	3193.47
438.778	3144.31
438.985	3586.68
439.192	3191.42
439.399	3447.41
439.606	3437.17
439.813	3586.68
440.02	3779.19
440.227	3736.18
440.433	3594.87
440.64	3684.98
440.847	3832.43
441.054	3883.63
441.261	4135.53
441.467	4074.09
441.674	4168.3
441.881	4178.54
442.088	4295.27
442.294	4235.88
442.501	4493.93
442.708	4332.14
442.914	4590.18
443.121	4733.54
443.328	4684.39
443.534	5108.32
443.741	4815.46
443.948	4751.97
444.154	5184.09
444.361	5005.92
444.568	5081.69
444.774	5141.08
444.981	5274.2
445.187	5341.79
445.394	5519.96
445.6	5597.78
445.807	5933.65
446.013	5780.05
446.22	5866.07
446.426	6298.19
446.633	6187.6
446.839	6355.53
447.046	6171.21
447.252	6302.28
447.459	6378.06
447.665	6513.22
447.871	6656.58
448.078	7078.46
448.284	6718.02
448.491	6847.04
448.697	7135.81
448.903	7207.48
449.11	7375.42
449.316	7182.91
449.522	7164.48
449.728	7381.56
449.935	7524.92
450.141	7434.81
450.347	7785.01
450.553	7473.72
450.76	7516.73
450.966	7678.52
451.172	7574.07
451.378	7803.44
451.584	7699
451.791	7920.18
451.997	7799.35
452.203	7834.16
452.409	8016.43
452.615	8088.11
452.821	7713.33
453.027	7674.42
453.233	8045.1
453.44	7537.21
453.646	7842.36
453.852	7764.53
454.058	7926.32
454.264	7658.04
454.47	7776.82
454.676	7658.04
454.882	7787.06
455.088	7172.67
455.294	7455.29
455.5	7338.55
455.705	7535.16
455.911	7158.33
456.117	7045.7
456.323	6890.05
456.529	6537.8
456.735	6890.05
456.941	6615.62
457.147	6572.61
457.352	6369.87
457.558	6474.31
457.764	6244.94
457.97	6034
458.176	6015.57
458.381	6052.43
458.587	5767.76
458.793	5804.63
458.999	5417.56
459.204	5900.88
459.41	5571.16
459.616	5270.11
459.821	5229.15
460.027	5276.25
460.233	5177.95
460.438	4924
460.644	4926.05
460.85	4817.51
461.055	4676.2
461.261	4676.2
461.466	4330.09
461.672	4371.05
461.878	4399.72
462.083	4348.52
462.289	4205.16
462.494	4080.24
462.7	3973.74
462.905	3680.88
463.111	3979.89
463.316	3926.64
463.522	3920.49
463.727	3936.88
463.932	3783.28
464.138	3910.26
464.343	3781.23
464.549	3758.71
464.754	3807.86
464.959	3807.86
465.165	3846.77
465.37	3613.3
465.575	3515
465.781	3707.51
465.986	3695.22
466.191	3623.54
466.397	3607.16
466.602	3330.68
466.807	3467.89
467.012	3424.89
467.218	3500.66
467.423	3410.55
467.628	3367.54
467.833	3613.3
468.038	3433.08
468.244	3236.47
468.449	3455.61
468.654	3238.52
468.859	3218.04
469.064	3361.4
