Data from USB4F104151__230__11-11-00-213.txt Node

Date: Wed Mar 12 11:11:00 EDT 2025
User: louis
Spectrometer: USB4F10415
Trigger mode: 4
Integration Time (sec): 2.000000E-2
Scans to average: 1
Electric dark correction enabled: true
Nonlinearity correction enabled: false
Boxcar width: 0
XAxis mode: Wavelengths
Number of Pixels in Spectrum: 3648
>>>>>Begin Spectral Data<<<<<
178.204	-112.64
178.424	-112.64
178.644	-112.64
178.864	-114.69
179.084	-57.34
179.304	-47.1
179.524	-22.53
179.744	34.82
179.964	55.3
180.184	-8.19
180.404	30.72
180.624	6.14
180.844	-12.29
181.064	-6.14
181.283	-4.1
181.503	-30.72
181.723	4.1
181.943	-36.86
182.163	28.67
182.383	-40.96
182.602	36.86
182.822	77.82
183.042	-2.05
183.262	36.86
183.482	-22.53
183.701	-2.05
183.921	12.29
184.141	16.38
184.361	34.82
184.58	8.19
184.8	20.48
185.02	-8.19
185.239	10.24
185.459	14.34
185.679	22.53
185.898	40.96
186.118	73.73
186.338	-18.43
186.557	22.53
186.777	22.53
186.997	83.97
187.216	-2.05
187.436	71.68
187.655	-2.05
187.875	98.3
188.095	-43.01
188.314	59.39
188.534	0
188.753	34.82
188.973	-10.24
189.192	32.77
189.412	34.82
189.631	38.91
189.851	69.63
190.07	139.26
190.29	-12.29
190.509	-4.1
190.729	-16.38
190.948	59.39
191.168	88.06
191.387	55.3
191.607	47.1
191.826	-22.53
192.045	22.53
192.265	-14.34
192.484	12.29
192.704	-4.1
192.923	8.19
193.142	34.82
193.362	-51.2
193.581	16.38
193.8	51.2
194.02	16.38
194.239	-34.82
194.458	-18.43
194.678	30.72
194.897	-28.67
195.116	53.25
195.335	57.34
195.555	-30.72
195.774	-8.19
195.993	61.44
196.212	2.05
196.432	10.24
196.651	-34.82
196.87	45.06
197.089	59.39
197.308	-51.2
197.528	53.25
197.747	45.06
197.966	-2.05
198.185	8.19
198.404	-26.62
198.623	-2.05
198.842	69.63
199.062	10.24
199.281	32.77
199.5	43.01
199.719	69.63
199.938	69.63
200.157	0
200.376	-6.14
200.595	-8.19
200.814	51.2
201.033	-24.58
201.252	61.44
201.471	45.06
201.69	-4.1
201.909	-28.67
202.128	81.92
202.347	-26.62
202.566	38.91
202.785	-36.86
203.004	4.1
203.223	47.1
203.442	90.11
203.661	26.62
203.879	6.14
204.098	20.48
204.317	-16.38
204.536	22.53
204.755	24.58
204.974	12.29
205.193	-20.48
205.411	30.72
205.63	14.34
205.849	-4.1
206.068	75.77
206.287	16.38
206.505	10.24
206.724	20.48
206.943	-75.77
207.162	0
207.381	30.72
207.599	6.14
207.818	28.67
208.037	32.77
208.255	18.43
208.474	12.29
208.693	53.25
208.911	24.58
209.13	77.82
209.349	14.34
209.567	92.16
209.786	16.38
210.005	40.96
210.223	57.34
210.442	20.48
210.661	73.73
210.879	-20.48
211.098	16.38
211.316	22.53
211.535	-36.86
211.753	75.77
211.972	-12.29
212.191	-20.48
212.409	8.19
212.628	14.34
212.846	34.82
213.065	28.67
213.283	47.1
213.502	-4.1
213.72	-20.48
213.938	40.96
214.157	36.86
214.375	32.77
214.594	-4.1
214.812	69.63
215.031	34.82
215.249	30.72
215.467	65.54
215.686	59.39
215.904	83.97
216.122	14.34
216.341	32.77
216.559	16.38
216.778	-8.19
216.996	16.38
217.214	-16.38
217.432	61.44
217.651	16.38
217.869	10.24
218.087	-12.29
218.306	77.82
218.524	36.86
218.742	20.48
218.96	47.1
219.179	22.53
219.397	-51.2
219.615	55.3
219.833	12.29
220.051	-22.53
220.27	47.1
220.488	83.97
220.706	53.25
220.924	40.96
221.142	-43.01
221.36	-16.38
221.578	20.48
221.796	-49.15
222.015	45.06
222.233	-73.73
222.451	0
222.669	-57.34
222.887	53.25
223.105	-40.96
223.323	18.43
223.541	-43.01
223.759	57.34
223.977	-16.38
224.195	38.91
224.413	-20.48
224.631	16.38
224.849	-6.14
225.067	20.48
225.285	32.77
225.503	4.1
225.721	45.06
225.939	53.25
226.157	20.48
226.375	104.45
226.592	-53.25
226.81	28.67
227.028	-22.53
227.246	90.11
227.464	79.87
227.682	69.63
227.9	77.82
228.117	32.77
228.335	-14.34
228.553	-6.14
228.771	49.15
228.989	14.34
229.206	40.96
229.424	83.97
229.642	0
229.86	-10.24
230.077	69.63
230.295	-8.19
230.513	-24.58
230.731	51.2
230.948	-4.1
231.166	18.43
231.384	-22.53
231.601	-65.53
231.819	53.25
232.037	-22.53
232.254	-32.77
232.472	-24.58
232.689	-43.01
232.907	90.11
233.125	-38.91
233.342	49.15
233.56	-57.34
233.777	30.72
233.995	12.29
234.213	14.34
234.43	12.29
234.648	-14.34
234.865	6.14
235.083	47.1
235.3	8.19
235.518	110.59
235.735	143.36
235.953	88.06
236.17	-18.43
236.388	-24.58
236.605	-32.77
236.822	14.34
237.04	28.67
237.257	65.54
237.475	-55.3
237.692	4.1
237.909	20.48
238.127	-38.91
238.344	4.1
238.562	-40.96
238.779	12.29
238.996	-18.43
239.214	-88.06
239.431	77.82
239.648	-26.62
239.865	20.48
240.083	-45.06
240.3	22.53
240.517	-20.48
240.735	86.01
240.952	-49.15
241.169	53.25
241.386	18.43
241.603	-24.58
241.821	20.48
242.038	-36.86
242.255	28.67
242.472	45.06
242.689	34.82
242.907	10.24
243.124	53.25
243.341	36.86
243.558	36.86
243.775	38.91
243.992	36.86
244.209	30.72
244.426	55.3
244.643	36.86
244.86	14.34
245.078	2.05
245.295	32.77
245.512	26.62
245.729	-16.38
245.946	-8.19
246.163	-81.92
246.38	20.48
246.597	63.49
246.814	-4.1
247.031	-4.1
247.248	34.82
247.464	-8.19
247.681	-14.34
247.898	-22.53
248.115	38.91
248.332	28.67
248.549	49.15
248.766	-4.1
248.983	4.1
249.2	2.05
249.417	14.34
249.633	36.86
249.85	-38.91
250.067	34.82
250.284	4.1
250.501	67.58
250.717	-10.24
250.934	-4.1
251.151	-12.29
251.368	20.48
251.585	73.73
251.801	12.29
252.018	12.29
252.235	-18.43
252.451	45.06
252.668	-6.14
252.885	18.43
253.102	32.77
253.318	47.1
253.535	18.43
253.752	34.82
253.968	-24.58
254.185	-30.72
254.401	-65.53
254.618	51.2
254.835	-12.29
255.051	65.54
255.268	-16.38
255.484	-47.1
255.701	-4.1
255.917	20.48
256.134	-2.05
256.351	22.53
256.567	6.14
256.784	96.25
257	45.06
257.217	-6.14
257.433	98.3
257.65	20.48
257.866	14.34
258.082	45.06
258.299	45.06
258.515	47.1
258.732	51.2
258.948	28.67
259.165	-40.96
259.381	2.05
259.597	-28.67
259.814	2.05
260.03	75.77
260.246	-20.48
260.463	-8.19
260.679	-32.77
260.895	53.25
261.112	59.39
261.328	81.92
261.544	34.82
261.761	65.54
261.977	40.96
262.193	28.67
262.409	-4.1
262.626	-2.05
262.842	-12.29
263.058	57.34
263.274	12.29
263.49	36.86
263.707	-10.24
263.923	18.43
264.139	69.63
264.355	28.67
264.571	75.77
264.787	32.77
265.004	12.29
265.22	30.72
265.436	12.29
265.652	-6.14
265.868	90.11
266.084	4.1
266.3	81.92
266.516	-32.77
266.732	100.35
266.948	69.63
267.164	0
267.38	-8.19
267.596	22.53
267.812	69.63
268.028	4.1
268.244	-20.48
268.46	6.14
268.676	32.77
268.892	57.34
269.108	36.86
269.324	12.29
269.54	30.72
269.756	59.39
269.972	-47.1
270.188	53.25
270.403	86.01
270.619	24.58
270.835	49.15
271.051	4.1
271.267	51.2
271.483	51.2
271.698	-16.38
271.914	69.63
272.13	36.86
272.346	59.39
272.562	14.34
272.777	122.88
272.993	-20.48
273.209	4.1
273.425	10.24
273.64	55.3
273.856	12.29
274.072	-24.58
274.287	-36.86
274.503	73.73
274.719	49.15
274.934	-10.24
275.15	18.43
275.366	-12.29
275.581	4.1
275.797	-12.29
276.012	67.58
276.228	20.48
276.444	14.34
276.659	-10.24
276.875	-79.87
277.09	34.82
277.306	-20.48
277.521	14.34
277.737	34.82
277.952	36.86
278.168	20.48
278.383	34.82
278.599	26.62
278.814	18.43
279.03	-6.14
279.245	120.83
279.461	-65.53
279.676	24.58
279.892	38.91
280.107	26.62
280.322	-4.1
280.538	92.16
280.753	-45.06
280.969	32.77
281.184	79.87
281.399	55.3
281.615	2.05
281.83	61.44
282.045	18.43
282.26	20.48
282.476	75.77
282.691	32.77
282.906	-6.14
283.122	-22.53
283.337	43.01
283.552	12.29
283.767	-14.34
283.983	83.97
284.198	43.01
284.413	55.3
284.628	20.48
284.843	10.24
285.058	73.73
285.274	-18.43
285.489	-40.96
285.704	51.2
285.919	14.34
286.134	-26.62
286.349	36.86
286.564	-34.82
286.779	88.06
286.995	2.05
287.21	-43.01
287.425	38.91
287.64	0
287.855	116.73
288.07	79.87
288.285	59.39
288.5	45.06
288.715	-24.58
288.93	86.01
289.145	2.05
289.36	28.67
289.575	-20.48
289.79	26.62
290.004	-32.77
290.219	51.2
290.434	45.06
290.649	10.24
290.864	-18.43
291.079	-22.53
291.294	53.25
291.509	-20.48
291.724	-57.34
291.938	71.68
292.153	83.97
292.368	-32.77
292.583	40.96
292.798	2.05
293.012	20.48
293.227	6.14
293.442	22.53
293.657	10.24
293.871	34.82
294.086	63.49
294.301	10.24
294.516	43.01
294.73	71.68
294.945	83.97
295.16	-4.1
295.374	43.01
295.589	92.16
295.804	-45.06
296.018	57.34
296.233	57.34
296.447	8.19
296.662	63.49
296.877	61.44
297.091	79.87
297.306	-20.48
297.52	-18.43
297.735	8.19
297.949	8.19
298.164	-18.43
298.378	51.2
298.593	-16.38
298.807	34.82
299.022	12.29
299.236	24.58
299.451	49.15
299.665	47.1
299.88	-12.29
300.094	26.62
300.309	45.06
300.523	-12.29
300.737	8.19
300.952	2.05
301.166	65.54
301.381	-18.43
301.595	18.43
301.809	8.19
302.024	2.05
302.238	-102.4
302.452	22.53
302.667	12.29
302.881	65.54
303.095	28.67
303.309	55.3
303.524	0
303.738	47.1
303.952	43.01
304.166	59.39
304.381	53.25
304.595	28.67
304.809	30.72
305.023	32.77
305.237	100.35
305.452	22.53
305.666	-32.77
305.88	45.06
306.094	-32.77
306.308	26.62
306.522	92.16
306.736	55.3
306.95	-26.62
307.164	36.86
307.379	12.29
307.593	-14.34
307.807	6.14
308.021	18.43
308.235	-4.1
308.449	16.38
308.663	-10.24
308.877	36.86
309.091	26.62
309.305	32.77
309.519	4.1
309.733	86.01
309.947	-18.43
310.161	18.43
310.374	45.06
310.588	43.01
310.802	6.14
311.016	110.59
311.23	22.53
311.444	-2.05
311.658	-4.1
311.872	32.77
312.085	4.1
312.299	45.06
312.513	96.25
312.727	4.1
312.941	-12.29
313.154	12.29
313.368	36.86
313.582	34.82
313.796	45.06
314.009	43.01
314.223	59.39
314.437	65.54
314.651	22.53
314.864	8.19
315.078	14.34
315.292	-24.58
315.505	-18.43
315.719	-49.15
315.933	53.25
316.146	-38.91
316.36	24.58
316.573	43.01
316.787	-61.44
317.001	116.73
317.214	-2.05
317.428	-20.48
317.641	2.05
317.855	-12.29
318.068	4.1
318.282	-24.58
318.495	30.72
318.709	71.68
318.922	28.67
319.136	43.01
319.349	104.45
319.563	-43.01
319.776	-6.14
319.99	20.48
320.203	24.58
320.417	0
320.63	55.3
320.843	2.05
321.057	24.58
321.27	92.16
321.483	14.34
321.697	32.77
321.91	-4.1
322.124	22.53
322.337	49.15
322.55	36.86
322.763	-16.38
322.977	-14.34
323.19	16.38
323.403	69.63
323.617	73.73
323.83	83.97
324.043	30.72
324.256	51.2
324.469	51.2
324.683	102.4
324.896	77.82
325.109	108.54
325.322	12.29
325.535	28.67
325.748	0
325.962	26.62
326.175	-2.05
326.388	57.34
326.601	14.34
326.814	40.96
327.027	-2.05
327.24	77.82
327.453	-10.24
327.666	2.05
327.879	40.96
328.092	30.72
328.305	10.24
328.518	22.53
328.731	47.1
328.944	49.15
329.157	102.4
329.37	24.58
329.583	-4.1
329.796	-6.14
330.009	49.15
330.222	18.43
330.435	114.69
330.648	6.14
330.861	28.67
331.073	-12.29
331.286	49.15
331.499	49.15
331.712	2.05
331.925	77.82
332.138	-36.86
332.35	40.96
332.563	51.2
332.776	16.38
332.989	-8.19
333.202	-133.12
333.414	-10.24
333.627	61.44
333.84	90.11
334.053	61.44
334.265	2.05
334.478	32.77
334.691	47.1
334.903	49.15
335.116	-55.3
335.329	53.25
335.541	67.58
335.754	-10.24
335.966	49.15
336.179	8.19
336.392	36.86
336.604	14.34
336.817	57.34
337.029	98.3
337.242	53.25
337.454	69.63
337.667	-22.53
337.88	57.34
338.092	34.82
338.305	22.53
338.517	-14.34
338.729	-4.1
338.942	61.44
339.154	36.86
339.367	0
339.579	10.24
339.792	34.82
340.004	8.19
340.217	14.34
340.429	4.1
340.641	30.72
340.854	-36.86
341.066	77.82
341.278	43.01
341.491	75.77
341.703	73.73
341.915	49.15
342.128	67.58
342.34	75.77
342.552	86.01
342.764	110.59
342.977	6.14
343.189	6.14
343.401	4.1
343.613	55.3
343.826	24.58
344.038	30.72
344.25	63.49
344.462	79.87
344.674	59.39
344.886	63.49
345.099	53.25
345.311	-6.14
345.523	65.54
345.735	-16.38
345.947	90.11
346.159	18.43
346.371	32.77
346.583	59.39
346.795	79.87
347.007	8.19
347.219	10.24
347.431	67.58
347.643	20.48
347.855	-53.25
348.067	90.11
348.279	-12.29
348.491	-10.24
348.703	34.82
348.915	34.82
349.127	-40.96
349.339	81.92
349.551	-4.1
349.763	-30.72
349.975	28.67
350.187	26.62
350.399	-6.14
350.61	18.43
350.822	114.69
351.034	38.91
351.246	75.77
351.458	61.44
351.669	40.96
351.881	51.2
352.093	45.06
352.305	57.34
352.517	24.58
352.728	67.58
352.94	63.49
353.152	36.86
353.363	-24.58
353.575	61.44
353.787	38.91
353.999	20.48
354.21	71.68
354.422	14.34
354.633	73.73
354.845	57.34
355.057	83.97
355.268	43.01
355.48	49.15
355.692	88.06
355.903	24.58
356.115	92.16
356.326	-10.24
356.538	110.59
356.749	49.15
356.961	12.29
357.172	79.87
357.384	-6.14
357.595	38.91
357.807	59.39
358.018	-45.06
358.23	-18.43
358.441	90.11
358.653	75.77
358.864	18.43
359.075	34.82
359.287	102.4
359.498	20.48
359.709	24.58
359.921	-18.43
360.132	57.34
360.344	-12.29
360.555	49.15
360.766	0
360.977	36.86
361.189	73.73
361.4	40.96
361.611	63.49
361.823	-20.48
362.034	53.25
362.245	12.29
362.456	10.24
362.667	18.43
362.879	-38.91
363.09	0
363.301	40.96
363.512	12.29
363.723	-4.1
363.935	-18.43
364.146	63.49
364.357	47.1
364.568	77.82
364.779	-10.24
364.99	65.54
365.201	77.82
365.412	26.62
365.623	67.58
365.834	34.82
366.045	40.96
366.256	-18.43
366.467	-24.58
366.678	94.21
366.889	40.96
367.1	55.3
367.311	45.06
367.522	14.34
367.733	81.92
367.944	47.1
368.155	57.34
368.366	61.44
368.577	53.25
368.788	16.38
368.999	51.2
369.209	43.01
369.42	98.3
369.631	67.58
369.842	30.72
370.053	20.48
370.264	14.34
370.474	83.97
370.685	2.05
370.896	90.11
371.107	124.93
371.317	47.1
371.528	53.25
371.739	57.34
371.95	59.39
372.16	4.1
372.371	8.19
372.582	16.38
372.792	-12.29
373.003	18.43
373.214	100.35
373.424	36.86
373.635	38.91
373.846	61.44
374.056	16.38
374.267	40.96
374.477	32.77
374.688	-2.05
374.898	38.91
375.109	2.05
375.319	-2.05
375.53	90.11
375.74	38.91
375.951	59.39
376.161	34.82
376.372	22.53
376.582	61.44
376.793	-8.19
377.003	116.73
377.214	61.44
377.424	20.48
377.635	59.39
377.845	75.77
378.055	43.01
378.266	32.77
378.476	34.82
378.686	0
378.897	24.58
379.107	12.29
379.317	26.62
379.528	4.1
379.738	102.4
379.948	-53.25
380.158	96.25
380.369	14.34
380.579	65.54
380.789	-10.24
380.999	77.82
381.21	8.19
381.42	110.59
381.63	69.63
381.84	12.29
382.05	65.54
382.261	83.97
382.471	106.49
382.681	53.25
382.891	116.73
383.101	43.01
383.311	36.86
383.521	102.4
383.731	86.01
383.941	106.49
384.151	0
384.361	53.25
384.571	59.39
384.781	-47.1
384.991	118.78
385.201	49.15
385.411	16.38
385.621	24.58
385.831	53.25
386.041	96.25
386.251	16.38
386.461	114.69
386.671	34.82
386.881	32.77
387.091	0
387.301	32.77
387.511	12.29
387.72	51.2
387.93	34.82
388.14	14.34
388.35	98.3
388.56	71.68
388.769	12.29
388.979	-8.19
389.189	24.58
389.399	88.06
389.609	32.77
389.818	65.54
390.028	22.53
390.238	20.48
390.447	34.82
390.657	116.73
390.867	18.43
391.076	57.34
391.286	69.63
391.496	47.1
391.705	36.86
391.915	88.06
392.125	61.44
392.334	108.54
392.544	57.34
392.753	18.43
392.963	20.48
393.172	51.2
393.382	67.58
393.591	59.39
393.801	83.97
394.01	108.54
394.22	40.96
394.429	155.65
394.639	26.62
394.848	83.97
395.058	108.54
395.267	34.82
395.477	149.5
395.686	36.86
395.895	120.83
396.105	122.88
396.314	65.54
396.524	36.86
396.733	106.49
396.942	118.78
397.152	32.77
397.361	112.64
397.57	45.06
397.78	86.01
397.989	86.01
398.198	71.68
398.407	102.4
398.617	81.92
398.826	143.36
399.035	116.73
399.244	94.21
399.453	71.68
399.663	79.87
399.872	83.97
400.081	2.05
400.29	129.02
400.499	90.11
400.708	135.17
400.917	131.07
401.127	73.73
401.336	110.59
401.545	94.21
401.754	126.97
401.963	122.88
402.172	79.87
402.381	122.88
402.59	133.12
402.799	122.88
403.008	77.82
403.217	151.55
403.426	161.79
403.635	133.12
403.844	122.88
404.053	120.83
404.262	122.88
404.471	149.5
404.68	100.35
404.888	92.16
405.097	206.84
405.306	120.83
405.515	149.5
405.724	98.3
405.933	184.32
406.142	135.17
406.35	153.6
406.559	77.82
406.768	83.97
406.977	174.08
407.185	122.88
407.394	194.56
407.603	124.93
407.812	243.71
408.02	167.93
408.229	151.55
408.438	188.41
408.646	233.47
408.855	208.89
409.064	256
409.272	155.65
409.481	233.47
409.69	221.18
409.898	243.71
410.107	303.1
410.315	253.95
410.524	251.9
410.733	288.76
410.941	329.72
411.15	272.38
411.358	382.97
411.567	397.31
411.775	323.58
411.984	393.21
412.192	352.25
412.401	399.35
412.609	440.31
412.818	483.32
413.026	393.21
413.234	473.08
413.443	450.55
413.651	503.8
413.86	520.18
414.068	567.29
414.276	559.1
414.485	516.09
414.693	632.82
414.901	677.88
415.11	620.53
415.318	638.97
415.526	690.17
415.734	780.28
415.943	712.69
416.151	727.03
416.359	767.99
416.567	843.76
416.776	837.62
416.984	884.72
417.192	931.83
417.4	843.76
417.608	892.91
417.817	917.49
418.025	940.02
418.233	1085.42
418.441	1023.98
418.649	1023.98
418.857	1257.45
419.065	1236.97
419.273	1183.73
419.481	1232.88
419.689	1337.32
419.897	1363.95
420.105	1396.71
420.313	1499.11
420.521	1478.63
420.729	1509.35
420.937	1546.22
421.145	1675.24
421.353	1695.72
421.561	1777.64
421.769	1822.69
421.977	1800.16
422.185	1869.8
422.393	1974.24
422.601	2060.26
422.809	2078.69
423.017	2025.44
423.224	2220
423.432	2162.65
423.64	2213.85
423.848	2447.32
424.056	2443.23
424.263	2656.22
424.471	2613.21
424.679	2850.77
424.887	2740.18
425.094	2830.29
425.302	3022.8
425.51	2947.03
425.718	3129.3
425.925	3309.52
426.133	3286.99
426.341	3354.57
426.548	3639.24
426.756	3637.19
426.964	3694.54
427.171	3915.72
427.379	3993.54
427.586	3971.01
427.794	4087.75
428.001	4140.99
428.209	4374.46
428.417	4419.52
428.624	4759.48
428.832	4843.45
429.039	4685.75
429.247	4874.17
429.454	5144.5
429.662	5564.33
429.869	5038
430.076	5695.4
430.284	5380.01
430.491	5586.86
430.699	5998.5
430.906	5912.49
431.114	5883.81
431.321	6377.37
431.528	6340.51
431.736	6703
431.943	6954.9
432.15	6809.5
432.358	6999.96
432.565	7110.55
432.772	7249.81
432.979	7702.41
433.187	7808.9
433.394	7747.47
433.601	8359.81
433.808	8480.64
434.016	8200.07
434.223	8755.07
434.43	9295.73
434.637	8912.76
434.844	9684.84
435.052	9650.03
435.259	9693.04
435.466	9863.02
435.673	9779.05
435.88	10264.42
436.087	10829.66
436.294	10854.23
436.501	10647.39
436.708	10907.48
436.915	11267.92
437.122	11638.61
437.329	11611.98
437.537	11927.37
437.743	12121.93
437.95	12048.2
438.157	12656.45
438.364	13356.85
438.571	13078.33
438.778	13178.68
438.985	14331.69
439.192	13840.17
439.399	14245.67
439.606	13823.79
439.813	14702.37
440.02	15693.58
440.227	15361.81
440.433	15122.2
440.64	15701.78
440.847	15742.74
441.054	15816.46
441.261	17174.27
441.467	16920.32
441.674	17348.34
441.881	17975.02
442.088	17665.78
442.294	17415.93
442.501	18124.52
442.708	18489.06
442.914	19228.38
443.121	20037.33
443.328	19511
443.534	20932.29
443.741	20094.67
443.948	20084.43
444.154	21157.57
444.361	21438.14
444.568	21405.37
444.774	21210.81
444.981	21466.81
445.187	22099.63
445.394	23142.05
445.6	22822.56
445.807	25345.66
446.013	23901.84
446.22	24118.93
446.426	25534.07
446.633	25460.35
446.839	26371.69
447.046	25017.99
447.252	26594.92
447.459	26695.27
447.665	26351.21
447.871	27692.63
448.078	28620.36
448.284	27340.38
448.491	27795.03
448.697	29560.38
448.903	30103.09
449.11	30029.37
449.316	29136.45
449.522	30060.09
449.728	30633.52
449.935	31039.01
450.141	30533.17
450.347	31225.38
450.553	30717.48
450.76	31245.86
450.966	31915.55
451.172	31659.55
451.378	32030.23
451.584	31446.56
451.791	32345.62
451.997	32177.69
452.203	33074.7
452.409	32673.29
452.615	32429.59
452.821	31405.6
453.027	31118.89
453.233	32974.34
453.44	31178.28
453.646	31835.67
453.852	31858.2
454.058	32333.33
454.264	31163.94
454.47	31839.77
454.676	31311.39
454.882	32028.18
455.088	29105.73
455.294	29851.19
455.5	29918.78
455.705	30352.94
455.911	29212.23
456.117	28210.77
456.323	28067.41
456.529	26484.33
456.735	27741.78
456.941	27016.8
457.147	26906.21
457.352	25745.02
457.558	25425.53
457.764	25493.11
457.97	25212.54
458.176	24491.66
458.381	24301.2
458.587	23266.97
458.793	23271.07
458.999	21995.18
459.204	23629.46
459.41	22982.31
459.616	21452.47
459.821	21415.61
460.027	21548.73
460.233	20909.76
460.438	19912.4
460.644	20334.28
460.85	19338.97
461.055	18988.77
461.261	19080.92
461.466	17653.49
461.672	16912.13
461.878	18052.84
462.083	17059.58
462.289	16520.96
462.494	16791.3
462.7	15703.82
462.905	15609.62
463.111	15957.77
463.316	16105.23
463.522	15636.24
463.727	15464.21
463.932	15591.19
464.138	15367.96
464.343	15456.02
464.549	15036.19
464.754	15552.27
464.959	15394.58
465.165	15394.58
465.37	14792.48
465.575	14260.01
465.781	14892.83
465.986	15017.75
466.191	14485.28
466.397	14276.39
466.602	13324.08
466.807	14020.39
467.012	14333.73
467.218	13764.4
467.423	13696.81
467.628	13821.74
467.833	14448.42
468.038	13907.76
468.244	13457.2
