Data from USB4F104151__243__11-11-32-000.txt Node

Date: Wed Mar 12 11:11:32 EDT 2025
User: louis
Spectrometer: USB4F10415
Trigger mode: 4
Integration Time (sec): 2.000000E-2
Scans to average: 1
Electric dark correction enabled: true
Nonlinearity correction enabled: false
Boxcar width: 0
XAxis mode: Wavelengths
Number of Pixels in Spectrum: 3648
>>>>>Begin Spectral Data<<<<<
178.204	-129.19
178.424	-129.19
178.644	-129.19
178.864	-127.14
179.084	-59.56
179.304	20.31
179.524	38.74
179.744	-88.23
179.964	57.17
180.184	-30.89
180.404	-2.22
180.624	59.22
180.844	-10.41
181.064	22.36
181.283	-20.65
181.503	1.88
181.723	-47.27
181.943	-47.27
182.163	1.88
182.383	-47.27
182.602	55.12
182.822	44.88
183.042	-2.22
183.262	-16.55
183.482	46.93
183.701	-16.55
183.921	30.55
184.141	-88.23
184.361	-8.36
184.58	8.02
184.8	36.69
185.02	10.07
185.239	51.03
185.459	-8.36
185.679	79.7
185.898	-88.23
186.118	12.12
186.338	-59.56
186.557	67.41
186.777	-43.18
186.997	85.84
187.216	14.17
187.436	38.74
187.655	28.5
187.875	48.98
188.095	-6.31
188.314	-0.17
188.534	-6.31
188.753	-4.27
188.973	-0.17
189.192	14.17
189.412	42.84
189.631	30.55
189.851	79.7
190.07	5.97
190.29	-10.41
190.509	-2.22
190.729	12.12
190.948	30.55
191.168	79.7
191.387	75.6
191.607	38.74
191.826	-2.22
192.045	8.02
192.265	73.56
192.484	36.69
192.704	16.21
192.923	36.69
193.142	48.98
193.362	51.03
193.581	3.93
193.8	-16.55
194.02	-2.22
194.239	10.07
194.458	5.97
194.678	-0.17
194.897	32.6
195.116	-41.13
195.335	1.88
195.555	-24.75
195.774	16.21
195.993	22.36
196.212	36.69
196.432	26.45
196.651	-10.41
196.87	69.46
197.089	46.93
197.308	-30.89
197.528	61.27
197.747	40.79
197.966	5.97
198.185	34.64
198.404	44.88
198.623	48.98
198.842	-0.17
199.062	51.03
199.281	85.84
199.5	18.26
199.719	57.17
199.938	51.03
200.157	-6.31
200.376	-34.99
200.595	38.74
200.814	-10.41
201.033	20.31
201.252	5.97
201.471	30.55
201.69	38.74
201.909	20.31
202.128	36.69
202.347	-32.94
202.566	-10.41
202.785	34.64
203.004	-14.51
203.223	26.45
203.442	-0.17
203.661	28.5
203.879	8.02
204.098	24.4
204.317	10.07
204.536	40.79
204.755	42.84
204.974	42.84
205.193	-4.27
205.411	96.08
205.63	48.98
205.849	-55.47
206.068	28.5
206.287	-6.31
206.505	67.41
206.724	22.36
206.943	53.08
207.162	-2.22
207.381	-4.27
207.599	108.37
207.818	59.22
208.037	16.21
208.255	-24.75
208.474	18.26
208.693	40.79
208.911	5.97
209.13	26.45
209.349	59.22
209.567	24.4
209.786	34.64
210.005	59.22
210.223	10.07
210.442	-75.95
210.661	51.03
210.879	16.21
211.098	34.64
211.316	22.36
211.535	-30.89
211.753	40.79
211.972	63.32
212.191	-0.17
212.409	-84.14
212.628	40.79
212.846	40.79
213.065	42.84
213.283	48.98
213.502	16.21
213.72	22.36
213.938	24.4
214.157	-20.65
214.375	67.41
214.594	96.08
214.812	96.08
215.031	-14.51
215.249	-0.17
215.467	-24.75
215.686	38.74
215.904	-6.31
216.122	3.93
216.341	67.41
216.559	-4.27
216.778	-0.17
216.996	63.32
217.214	18.26
217.432	-12.46
217.651	53.08
217.869	42.84
218.087	-30.89
218.306	24.4
218.524	61.27
218.742	32.6
218.96	59.22
219.179	32.6
219.397	57.17
219.615	91.99
219.833	10.07
220.051	12.12
220.27	34.64
220.488	-12.46
220.706	34.64
220.924	22.36
221.142	69.46
221.36	63.32
221.578	-16.55
221.796	-20.65
222.015	-20.65
222.233	-12.46
222.451	91.99
222.669	28.5
222.887	-28.84
223.105	26.45
223.323	81.75
223.541	18.26
223.759	81.75
223.977	-22.7
224.195	32.6
224.413	46.93
224.631	20.31
224.849	83.8
225.067	-6.31
225.285	10.07
225.503	-18.6
225.721	-18.6
225.939	32.6
226.157	71.51
226.375	79.7
226.592	-10.41
226.81	-0.17
227.028	-24.75
227.246	28.5
227.464	-20.65
227.682	32.6
227.9	14.17
228.117	42.84
228.335	22.36
228.553	24.4
228.771	36.69
228.989	-43.18
229.206	-37.03
229.424	-2.22
229.642	96.08
229.86	40.79
230.077	98.13
230.295	59.22
230.513	-28.84
230.731	-10.41
230.948	10.07
231.166	18.26
231.384	10.07
231.601	30.55
231.819	12.12
232.037	51.03
232.254	32.6
232.472	-2.22
232.689	-30.89
232.907	-41.13
233.125	77.65
233.342	-41.13
233.56	65.36
233.777	8.02
233.995	22.36
234.213	5.97
234.43	71.51
234.648	-8.36
234.865	-28.84
235.083	36.69
235.3	112.47
235.518	22.36
235.735	55.12
235.953	-6.31
236.17	-4.27
236.388	18.26
236.605	-30.89
236.822	44.88
237.04	34.64
237.257	24.4
237.475	44.88
237.692	28.5
237.909	18.26
238.127	26.45
238.344	32.6
238.562	67.41
238.779	-37.03
238.996	-12.46
239.214	51.03
239.431	5.97
239.648	16.21
239.865	94.04
240.083	48.98
240.3	8.02
240.517	-43.18
240.735	98.13
240.952	38.74
241.169	12.12
241.386	-28.84
241.603	-2.22
241.821	67.41
242.038	63.32
242.255	-6.31
242.472	26.45
242.689	3.93
242.907	1.88
243.124	-12.46
243.341	63.32
243.558	32.6
243.775	1.88
243.992	-30.89
244.209	30.55
244.426	5.97
244.643	83.8
244.86	20.31
245.078	75.6
245.295	40.79
245.512	104.28
245.729	51.03
245.946	55.12
246.163	-53.42
246.38	81.75
246.597	-30.89
246.814	38.74
247.031	81.75
247.248	67.41
247.464	63.32
247.681	-49.32
247.898	57.17
248.115	87.89
248.332	28.5
248.549	130.9
248.766	75.6
248.983	69.46
249.2	55.12
249.417	42.84
249.633	16.21
249.85	75.6
250.067	22.36
250.284	34.64
250.501	89.94
250.717	63.32
250.934	-53.42
251.151	-37.03
251.368	8.02
251.585	8.02
251.801	18.26
252.018	57.17
252.235	26.45
252.451	1.88
252.668	-39.08
252.885	61.27
253.102	1.88
253.318	-39.08
253.535	-118.95
253.752	-30.89
253.968	61.27
254.185	-2.22
254.401	-0.17
254.618	-8.36
254.835	16.21
255.051	48.98
255.268	75.6
255.484	53.08
255.701	-30.89
255.917	69.46
256.134	-26.79
256.351	69.46
256.567	-41.13
256.784	69.46
257	-10.41
257.217	-24.75
257.433	5.97
257.65	73.56
257.866	22.36
258.082	-2.22
258.299	-16.55
258.515	26.45
258.732	-34.99
258.948	61.27
259.165	63.32
259.381	71.51
259.597	-0.17
259.814	38.74
260.03	71.51
260.246	69.46
260.463	83.8
260.679	59.22
260.895	5.97
261.112	71.51
261.328	30.55
261.544	3.93
261.761	120.66
261.977	55.12
262.193	1.88
262.409	61.27
262.626	44.88
262.842	26.45
263.058	51.03
263.274	116.56
263.49	18.26
263.707	77.65
263.923	67.41
264.139	34.64
264.355	-22.7
264.571	51.03
264.787	5.97
265.004	132.95
265.22	32.6
265.436	44.88
265.652	28.5
265.868	61.27
266.084	-6.31
266.3	5.97
266.516	1.88
266.732	34.64
266.948	55.12
267.164	22.36
267.38	14.17
267.596	38.74
267.812	24.4
268.028	55.12
268.244	18.26
268.46	1.88
268.676	38.74
268.892	57.17
269.108	26.45
269.324	10.07
269.54	-0.17
269.756	83.8
269.972	44.88
270.188	20.31
270.403	26.45
270.619	5.97
270.835	55.12
271.051	5.97
271.267	8.02
271.483	26.45
271.698	87.89
271.914	20.31
272.13	-6.31
272.346	36.69
272.562	46.93
272.777	102.23
272.993	-65.71
273.209	38.74
273.425	65.36
273.64	20.31
273.856	28.5
274.072	-2.22
274.287	87.89
274.503	-28.84
274.719	5.97
274.934	-16.55
275.15	-26.79
275.366	10.07
275.581	-12.46
275.797	3.93
276.012	46.93
276.228	46.93
276.444	77.65
276.659	-34.99
276.875	24.4
277.09	-16.55
277.306	-16.55
277.521	63.32
277.737	-8.36
277.952	67.41
278.168	53.08
278.383	34.64
278.599	-51.37
278.814	18.26
279.03	51.03
279.245	118.61
279.461	100.18
279.676	34.64
279.892	28.5
280.107	-28.84
280.322	28.5
280.538	16.21
280.753	22.36
280.969	46.93
281.184	-39.08
281.399	8.02
281.615	55.12
281.83	20.31
282.045	26.45
282.26	48.98
282.476	83.8
282.691	-2.22
282.906	22.36
283.122	10.07
283.337	-30.89
283.552	34.64
283.767	1.88
283.983	55.12
284.198	-0.17
284.413	55.12
284.628	-26.79
284.843	-6.31
285.058	22.36
285.274	36.69
285.489	22.36
285.704	30.55
285.919	-4.27
286.134	-22.7
286.349	5.97
286.564	42.84
286.779	63.32
286.995	79.7
287.21	1.88
287.425	42.84
287.64	77.65
287.855	73.56
288.07	20.31
288.285	-2.22
288.5	10.07
288.715	-4.27
288.93	-8.36
289.145	46.93
289.36	32.6
289.575	-6.31
289.79	69.46
290.004	40.79
290.219	51.03
290.434	1.88
290.649	46.93
290.864	-6.31
291.079	-20.65
291.294	77.65
291.509	44.88
291.724	-14.51
291.938	-34.99
292.153	-28.84
292.368	81.75
292.583	42.84
292.798	8.02
293.012	36.69
293.227	28.5
293.442	77.65
293.657	75.6
293.871	22.36
294.086	-6.31
294.301	98.13
294.516	-12.46
294.73	40.79
294.945	32.6
295.16	42.84
295.374	28.5
295.589	32.6
295.804	-10.41
296.018	65.36
296.233	42.84
296.447	-16.55
296.662	34.64
296.877	48.98
297.091	149.33
297.306	-34.99
297.52	-12.46
297.735	73.56
297.949	-47.27
298.164	-18.6
298.378	110.42
298.593	51.03
298.807	-6.31
299.022	24.4
299.236	-32.94
299.451	8.02
299.665	-4.27
299.88	65.36
300.094	83.8
300.309	55.12
300.523	79.7
300.737	36.69
300.952	-18.6
301.166	-8.36
301.381	-0.17
301.595	14.17
301.809	85.84
302.024	30.55
302.238	18.26
302.452	98.13
302.667	57.17
302.881	75.6
303.095	83.8
303.309	75.6
303.524	-12.46
303.738	-22.7
303.952	12.12
304.166	38.74
304.381	-30.89
304.595	61.27
304.809	55.12
305.023	3.93
305.237	57.17
305.452	-51.37
305.666	112.47
305.88	24.4
306.094	30.55
306.308	102.23
306.522	40.79
306.736	-16.55
306.95	-0.17
307.164	-14.51
307.379	22.36
307.593	89.94
307.807	46.93
308.021	100.18
308.235	10.07
308.449	32.6
308.663	38.74
308.877	102.23
309.091	81.75
309.305	67.41
309.519	-16.55
309.733	38.74
309.947	14.17
310.161	116.56
310.374	24.4
310.588	34.64
310.802	20.31
311.016	87.89
311.23	5.97
311.444	61.27
311.658	8.02
311.872	102.23
312.085	51.03
312.299	130.9
312.513	55.12
312.727	-10.41
312.941	18.26
313.154	85.84
313.368	55.12
313.582	69.46
313.796	48.98
314.009	34.64
314.223	46.93
314.437	12.12
314.651	51.03
314.864	28.5
315.078	65.36
315.292	1.88
315.505	18.26
315.719	38.74
315.933	75.6
316.146	59.22
316.36	28.5
316.573	110.42
316.787	3.93
317.001	114.52
317.214	46.93
317.428	34.64
317.641	83.8
317.855	73.56
318.068	-18.6
318.282	57.17
318.495	71.51
318.709	79.7
318.922	71.51
319.136	67.41
319.349	28.5
319.563	18.26
319.776	46.93
319.99	38.74
320.203	57.17
320.417	71.51
320.63	10.07
320.843	71.51
321.057	12.12
321.27	10.07
321.483	-32.94
321.697	120.66
321.91	1.88
322.124	48.98
322.337	30.55
322.55	26.45
322.763	44.88
322.977	16.21
323.19	44.88
323.403	-18.6
323.617	40.79
323.83	-18.6
324.043	14.17
324.256	28.5
324.469	67.41
324.683	-2.22
324.896	10.07
325.109	55.12
325.322	-18.6
325.535	94.04
325.748	34.64
325.962	30.55
326.175	44.88
326.388	24.4
326.601	96.08
326.814	42.84
327.027	8.02
327.24	83.8
327.453	10.07
327.666	-49.32
327.879	38.74
328.092	89.94
328.305	79.7
328.518	-14.51
328.731	-47.27
328.944	32.6
329.157	79.7
329.37	10.07
329.583	124.76
329.796	28.5
330.009	38.74
330.222	36.69
330.435	1.88
330.648	73.56
330.861	65.36
331.073	59.22
331.286	53.08
331.499	59.22
331.712	26.45
331.925	-6.31
332.138	46.93
332.35	20.31
332.563	38.74
332.776	59.22
332.989	40.79
333.202	85.84
333.414	-18.6
333.627	46.93
333.84	-26.79
334.053	81.75
334.265	38.74
334.478	-28.84
334.691	69.46
334.903	85.84
335.116	34.64
335.329	-6.31
335.541	26.45
335.754	73.56
335.966	51.03
336.179	28.5
336.392	26.45
336.604	-73.9
336.817	14.17
337.029	30.55
337.242	42.84
337.454	18.26
337.667	-2.22
337.88	-2.22
338.092	63.32
338.305	135
338.517	59.22
338.729	79.7
338.942	63.32
339.154	1.88
339.367	30.55
339.579	73.56
339.792	-65.71
340.004	-32.94
340.217	20.31
340.429	61.27
340.641	14.17
340.854	-4.27
341.066	40.79
341.278	40.79
341.491	-16.55
341.703	91.99
341.915	42.84
342.128	28.5
342.34	34.64
342.552	1.88
342.764	65.36
342.977	1.88
343.189	75.6
343.401	24.4
343.613	-30.89
343.826	22.36
344.038	1.88
344.25	75.6
344.462	18.26
344.674	22.36
344.886	10.07
345.099	61.27
345.311	26.45
345.523	40.79
345.735	-32.94
345.947	104.28
346.159	106.32
346.371	18.26
346.583	-61.61
346.795	55.12
347.007	3.93
347.219	57.17
347.431	40.79
347.643	40.79
347.855	89.94
348.067	83.8
348.279	32.6
348.491	-12.46
348.703	67.41
348.915	28.5
349.127	5.97
349.339	85.84
349.551	3.93
349.763	55.12
349.975	-2.22
350.187	40.79
350.399	-12.46
350.61	77.65
350.822	61.27
351.034	63.32
351.246	-0.17
351.458	67.41
351.669	-12.46
351.881	155.47
352.093	61.27
352.305	-10.41
352.517	8.02
352.728	-14.51
352.94	59.22
353.152	32.6
353.363	26.45
353.575	67.41
353.787	57.17
353.999	61.27
354.21	81.75
354.422	-20.65
354.633	18.26
354.845	61.27
355.057	30.55
355.268	1.88
355.48	34.64
355.692	96.08
355.903	55.12
356.115	-30.89
356.326	-22.7
356.538	1.88
356.749	51.03
356.961	24.4
357.172	38.74
357.384	-53.42
357.595	61.27
357.807	65.36
358.018	-0.17
358.23	98.13
358.441	96.08
358.653	71.51
358.864	51.03
359.075	59.22
359.287	91.99
359.498	-0.17
359.709	57.17
359.921	40.79
360.132	55.12
360.344	22.36
360.555	-4.27
360.766	85.84
360.977	48.98
361.189	69.46
361.4	104.28
361.611	73.56
361.823	1.88
362.034	116.56
362.245	-14.51
362.456	75.6
362.667	38.74
362.879	24.4
363.09	67.41
363.301	51.03
363.512	22.36
363.723	12.12
363.935	53.08
364.146	51.03
364.357	18.26
364.568	98.13
364.779	40.79
364.99	69.46
365.201	-22.7
365.412	-16.55
365.623	-14.51
365.834	44.88
366.045	77.65
366.256	108.37
366.467	57.17
366.678	75.6
366.889	-12.46
367.1	16.21
367.311	10.07
367.522	59.22
367.733	38.74
367.944	69.46
368.155	18.26
368.366	26.45
368.577	-0.17
368.788	51.03
368.999	53.08
369.209	26.45
369.42	182.1
369.631	71.51
369.842	55.12
370.053	102.23
370.264	12.12
370.474	-14.51
370.685	16.21
370.896	83.8
371.107	32.6
371.317	96.08
371.528	57.17
371.739	14.17
371.95	57.17
372.16	59.22
372.371	94.04
372.582	44.88
372.792	48.98
373.003	12.12
373.214	42.84
373.424	22.36
373.635	38.74
373.846	32.6
374.056	-28.84
374.267	100.18
374.477	100.18
374.688	51.03
374.898	100.18
375.109	-4.27
375.319	51.03
375.53	38.74
375.74	-2.22
375.951	20.31
376.161	110.42
376.372	48.98
376.582	46.93
376.793	42.84
377.003	-22.7
377.214	44.88
377.424	-0.17
377.635	12.12
377.845	24.4
378.055	87.89
378.266	-2.22
378.476	116.56
378.686	55.12
378.897	3.93
379.107	44.88
379.317	67.41
379.528	34.64
379.738	-20.65
379.948	-4.27
380.158	34.64
380.369	53.08
380.579	36.69
380.789	59.22
380.999	63.32
381.21	12.12
381.42	89.94
381.63	-18.6
381.84	81.75
382.05	81.75
382.261	40.79
382.471	22.36
382.681	-82.09
382.891	59.22
383.101	137.04
383.311	-22.7
383.521	44.88
383.731	59.22
383.941	65.36
384.151	22.36
384.361	53.08
384.571	42.84
384.781	30.55
384.991	114.52
385.201	122.71
385.411	8.02
385.621	153.43
385.831	3.93
386.041	91.99
386.251	20.31
386.461	85.84
386.671	48.98
386.881	104.28
387.091	3.93
387.301	79.7
387.511	55.12
387.72	132.95
387.93	91.99
388.14	36.69
388.35	-0.17
388.56	22.36
388.769	65.36
388.979	36.69
389.189	79.7
389.399	18.26
389.609	36.69
389.818	122.71
390.028	67.41
390.238	36.69
390.447	85.84
390.657	67.41
390.867	53.08
391.076	-8.36
391.286	55.12
391.496	51.03
391.705	104.28
391.915	38.74
392.125	73.56
392.334	57.17
392.544	65.36
392.753	112.47
392.963	69.46
393.172	71.51
393.382	53.08
393.591	124.76
393.801	-4.27
394.01	53.08
394.22	98.13
394.429	81.75
394.639	32.6
394.848	63.32
395.058	79.7
395.267	51.03
395.477	124.76
395.686	69.46
395.895	57.17
396.105	42.84
396.314	102.23
396.524	57.17
396.733	36.69
396.942	128.85
397.152	83.8
397.361	57.17
397.57	46.93
397.78	-14.51
397.989	67.41
398.198	167.76
398.407	116.56
398.617	114.52
398.826	65.36
399.035	85.84
399.244	94.04
399.453	77.65
399.663	81.75
399.872	126.8
400.081	53.08
400.29	106.32
400.499	104.28
400.708	48.98
400.917	71.51
401.127	96.08
401.336	85.84
401.545	161.62
401.754	79.7
401.963	96.08
402.172	106.32
402.381	71.51
402.59	65.36
402.799	67.41
403.008	98.13
403.217	143.19
403.426	46.93
403.635	87.89
403.844	151.38
404.053	110.42
404.262	89.94
404.471	145.24
404.68	96.08
404.888	75.6
405.097	122.71
405.306	120.66
405.515	147.28
405.724	167.76
405.933	124.76
406.142	255.83
406.35	149.33
406.559	173.91
406.768	114.52
406.977	130.9
407.185	100.18
407.394	100.18
407.603	132.95
407.812	149.33
408.02	147.28
408.229	155.47
408.438	118.61
408.646	120.66
408.855	139.09
409.064	182.1
409.272	167.76
409.481	208.72
409.69	196.43
409.898	175.95
410.107	196.43
410.315	247.63
410.524	245.59
410.733	151.38
410.941	245.59
411.15	241.49
411.358	200.53
411.567	309.07
411.775	212.82
411.984	196.43
412.192	315.22
412.401	284.5
412.609	223.06
412.818	358.22
413.026	319.31
413.234	266.07
413.443	225.11
413.651	233.3
413.86	329.55
414.068	354.13
414.276	397.14
414.485	333.65
414.693	384.85
414.901	436.05
415.11	304.98
415.318	417.61
415.526	395.09
415.734	390.99
415.943	388.94
416.151	427.85
416.359	450.38
416.567	444.24
416.776	409.42
416.984	458.57
417.192	509.77
417.4	477.01
417.608	517.97
417.817	546.64
418.025	517.97
418.233	603.98
418.441	583.5
418.649	503.63
418.857	622.41
419.065	618.32
419.273	628.56
419.481	677.71
419.689	687.95
419.897	714.57
420.105	749.39
420.313	765.77
420.521	780.11
420.729	814.92
420.937	798.54
421.145	776.01
421.353	767.82
421.561	997.19
421.769	778.06
421.977	931.66
422.185	900.94
422.393	917.32
422.601	1099.59
422.809	1081.16
423.017	997.19
423.224	1060.68
423.432	1083.2
423.64	1134.4
423.848	1095.49
424.056	1109.83
424.263	1316.67
424.471	1183.56
424.679	1228.61
424.887	1359.68
425.094	1345.34
425.302	1376.06
425.51	1470.27
425.718	1414.98
425.925	1537.85
426.133	1435.46
426.341	1670.97
426.548	1668.92
426.756	1810.23
426.964	1691.45
427.171	1707.84
427.379	1742.65
427.586	1767.23
427.794	1820.47
428.001	1972.02
428.209	1955.64
428.417	2043.7
428.624	2105.14
428.832	2219.83
429.039	2109.24
429.247	2174.77
429.454	2273.07
429.662	2475.82
429.869	2348.85
430.076	2539.31
430.284	2387.76
430.491	2617.13
430.699	2635.57
430.906	2598.7
431.114	2654
431.321	2758.44
431.528	2787.11
431.736	3057.45
431.943	3092.26
432.15	3016.49
432.358	3198.76
432.565	3376.93
432.772	3376.93
432.979	3430.18
433.187	3469.09
433.394	3548.96
433.601	3598.11
433.808	3858.2
434.016	3680.03
434.223	3860.25
434.43	3964.7
434.637	4034.33
434.844	4323.09
435.052	4456.21
435.259	4245.27
435.466	4374.29
435.673	4314.9
435.88	4585.23
436.087	4839.18
436.294	4806.41
436.501	4656.91
436.708	4792.08
436.915	4894.47
437.122	5275.4
437.329	5095.18
437.537	5302.02
437.743	5549.82
437.95	5404.42
438.157	5754.62
438.364	5904.12
438.571	5920.51
438.778	5897.98
438.985	6479.6
439.192	6051.58
439.399	6334.2
439.606	6205.17
439.813	6594.29
440.02	6899.44
440.227	6799.09
440.433	6702.83
440.64	7016.17
440.847	6858.48
441.054	7091.95
441.261	7593.7
441.467	7534.31
441.674	7614.18
441.881	8007.39
442.088	7831.26
442.294	7720.67
442.501	7919.32
442.708	8214.23
442.914	8394.45
443.121	8812.24
443.328	8666.83
443.534	9279.18
443.741	8998.6
443.948	8969.93
444.154	9686.72
444.361	9324.23
444.568	9512.64
444.774	9582.28
444.981	9512.64
445.187	9938.62
445.394	10106.56
445.6	10211
445.807	11198.12
446.013	10622.64
446.22	10694.32
446.426	11105.96
446.633	11337.38
446.839	11517.61
447.046	11122.35
447.252	11675.3
447.459	11718.31
447.665	11765.41
447.871	12043.93
448.078	12813.97
448.284	12144.28
448.491	12629.65
448.697	12926.61
448.903	13211.28
449.11	13043.34
449.316	13172.36
449.522	13325.96
449.728	13547.14
449.935	13745.8
450.141	13708.93
450.347	14024.32
450.553	13618.82
450.76	13723.27
450.966	14333.56
451.172	14184.06
451.378	14403.19
451.584	13962.88
451.791	14329.47
451.997	14169.73
452.203	14655.09
452.409	14612.09
452.615	14306.94
452.821	13823.62
453.027	13661.83
453.233	14614.13
453.44	13741.7
453.646	13969.02
453.852	14091.9
454.058	14356.09
454.264	14059.13
454.47	14206.59
454.676	13942.4
454.882	14413.43
455.088	13205.13
455.294	13260.43
455.5	13618.82
455.705	13637.25
455.911	12951.18
456.117	12859.03
456.323	12703.38
456.529	11800.23
456.735	12512.92
456.941	12000.93
457.147	11939.49
457.352	11472.55
457.558	11593.38
457.764	11122.35
457.97	11241.13
458.176	10923.69
458.381	11126.44
458.587	10512.05
458.793	10452.66
458.999	9977.53
459.204	10497.72
459.41	10131.13
459.616	9653.95
459.821	9512.64
460.027	9656
460.233	9371.33
460.438	8826.57
460.644	9033.42
460.85	8541.91
461.055	8455.89
461.261	8296.15
461.466	7812.83
461.672	7612.13
461.878	8066.78
462.083	7610.08
462.289	7515.87
462.494	7354.09
462.7	7024.36
462.905	6934.25
463.111	7182.06
463.316	7112.42
463.522	7089.9
463.727	6997.74
463.932	6893.29
464.138	7034.6
464.343	6883.05
464.549	6706.93
464.754	7018.22
464.959	6956.78
465.165	6940.4
465.37	6659.82
465.575	6291.19
465.781	6745.84
465.986	6637.3
466.191	6498.03
466.397	6401.78
466.602	6172.41
466.807	6190.84
467.012	6610.67
467.218	6336.24
467.423	6346.48
467.628	6270.71
467.833	6469.36
468.038	6227.7
468.244	6047.48
468.449	6178.55
468.654	6246.13
468.859	6047.48
469.064	6051.58
469.269	5758.72
469.474	5773.05
