Data from USB4F104151__198__11-10-06-779.txt Node

Date: Wed Mar 12 11:10:06 EDT 2025
User: louis
Spectrometer: USB4F10415
Trigger mode: 4
Integration Time (sec): 2.000000E-2
Scans to average: 1
Electric dark correction enabled: true
Nonlinearity correction enabled: false
Boxcar width: 0
XAxis mode: Wavelengths
Number of Pixels in Spectrum: 3648
>>>>>Begin Spectral Data<<<<<
178.204	-49.66
178.424	-49.66
178.644	-49.66
178.864	-64
179.084	-86.53
179.304	22.02
179.524	5.63
179.744	-20.99
179.964	91.65
180.184	-47.62
180.404	-33.28
180.624	28.16
180.844	-12.8
181.064	-23.04
181.283	-14.85
181.503	-2.56
181.723	7.68
181.943	5.63
182.163	75.26
182.383	-12.8
182.602	87.55
182.822	15.87
183.042	65.02
183.262	124.41
183.482	7.68
183.701	5.63
183.921	42.5
184.141	97.79
184.361	30.21
184.58	34.3
184.8	5.63
185.02	-10.75
185.239	44.54
185.459	67.07
185.679	65.02
185.898	26.11
186.118	34.3
186.338	7.68
186.557	81.41
186.777	-51.71
186.997	48.64
187.216	-18.94
187.436	44.54
187.655	65.02
187.875	34.3
188.095	15.87
188.314	17.92
188.534	19.97
188.753	91.65
188.973	-51.71
189.192	99.84
189.412	15.87
189.631	34.3
189.851	58.88
190.07	48.64
190.29	5.63
190.509	32.26
190.729	118.27
190.948	62.98
191.168	83.45
191.387	38.4
191.607	-2.56
191.826	36.35
192.045	-49.66
192.265	17.92
192.484	-29.18
192.704	81.41
192.923	-49.66
193.142	-0.51
193.362	-23.04
193.581	67.07
193.8	97.79
194.02	34.3
194.239	50.69
194.458	75.26
194.678	-29.18
194.897	7.68
195.116	75.26
195.335	-31.23
195.555	38.4
195.774	81.41
195.993	5.63
196.212	56.83
196.432	38.4
196.651	75.26
196.87	26.11
197.089	46.59
197.308	30.21
197.528	28.16
197.747	5.63
197.966	56.83
198.185	62.98
198.404	9.73
198.623	-2.56
198.842	36.35
199.062	1.54
199.281	103.93
199.5	-10.75
199.719	69.12
199.938	32.26
200.157	-2.56
200.376	44.54
200.595	87.55
200.814	7.68
201.033	46.59
201.252	-6.66
201.471	-6.66
201.69	-18.94
201.909	60.93
202.128	67.07
202.347	44.54
202.566	-84.48
202.785	9.73
203.004	26.11
203.223	52.74
203.442	87.55
203.661	36.35
203.879	69.12
204.098	73.21
204.317	1.54
204.536	46.59
204.755	65.02
204.974	30.21
205.193	48.64
205.411	67.07
205.63	56.83
205.849	28.16
206.068	-43.52
206.287	-25.09
206.505	77.31
206.724	28.16
206.943	-64
207.162	15.87
207.381	5.63
207.599	42.5
207.818	3.58
208.037	34.3
208.255	34.3
208.474	42.5
208.693	28.16
208.911	36.35
209.13	32.26
209.349	79.36
209.567	-47.62
209.786	87.55
210.005	56.83
210.223	44.54
210.442	28.16
210.661	9.73
210.879	-27.14
211.098	-25.09
211.316	58.88
211.535	56.83
211.753	83.45
211.972	99.84
212.191	-14.85
212.409	46.59
212.628	138.75
212.846	77.31
213.065	28.16
213.283	83.45
213.502	22.02
213.72	99.84
213.938	101.89
214.157	42.5
214.375	22.02
214.594	-4.61
214.812	24.06
215.031	26.11
215.249	-25.09
215.467	32.26
215.686	30.21
215.904	-16.9
216.122	22.02
216.341	30.21
216.559	50.69
216.778	32.26
216.996	81.41
217.214	71.17
217.432	-6.66
217.651	13.82
217.869	56.83
218.087	9.73
218.306	73.21
218.524	17.92
218.742	1.54
218.96	42.5
219.179	65.02
219.397	50.69
219.615	9.73
219.833	5.63
220.051	69.12
220.27	67.07
220.488	24.06
220.706	-0.51
220.924	32.26
221.142	5.63
221.36	50.69
221.578	83.45
221.796	3.58
222.015	36.35
222.233	26.11
222.451	30.21
222.669	1.54
222.887	73.21
223.105	-31.23
223.323	-0.51
223.541	24.06
223.759	73.21
223.977	1.54
224.195	89.6
224.413	-2.56
224.631	40.45
224.849	95.74
225.067	24.06
225.285	-2.56
225.503	93.69
225.721	-6.66
225.939	54.78
226.157	52.74
226.375	13.82
226.592	-43.52
226.81	44.54
227.028	13.82
227.246	15.87
227.464	-70.14
227.682	24.06
227.9	79.36
228.117	114.17
228.335	-12.8
228.553	-14.85
228.771	3.58
228.989	34.3
229.206	44.54
229.424	79.36
229.642	5.63
229.86	42.5
230.077	30.21
230.295	11.78
230.513	42.5
230.731	26.11
230.948	44.54
231.166	56.83
231.384	-18.94
231.601	38.4
231.819	65.02
232.037	-25.09
232.254	148.99
232.472	52.74
232.689	42.5
232.907	15.87
233.125	-4.61
233.342	24.06
233.56	24.06
233.777	32.26
233.995	42.5
234.213	58.88
234.43	42.5
234.648	95.74
234.865	5.63
235.083	42.5
235.3	36.35
235.518	-80.38
235.735	75.26
235.953	89.6
236.17	-72.19
236.388	26.11
236.605	28.16
236.822	73.21
237.04	36.35
237.257	-4.61
237.475	-25.09
237.692	-4.61
237.909	-27.14
238.127	15.87
238.344	13.82
238.562	50.69
238.779	44.54
238.996	30.21
239.214	-14.85
239.431	46.59
239.648	-0.51
239.865	50.69
240.083	79.36
240.3	-14.85
240.517	83.45
240.735	103.93
240.952	30.21
241.169	103.93
241.386	13.82
241.603	26.11
241.821	-53.76
242.038	42.5
242.255	50.69
242.472	-57.86
242.689	65.02
242.907	69.12
243.124	38.4
243.341	17.92
243.558	95.74
243.775	44.54
243.992	-16.9
244.209	44.54
244.426	75.26
244.643	48.64
244.86	28.16
245.078	91.65
245.295	-2.56
245.512	22.02
245.729	-10.75
245.946	-2.56
246.163	32.26
246.38	54.78
246.597	28.16
246.814	5.63
247.031	17.92
247.248	110.08
247.464	75.26
247.681	9.73
247.898	58.88
248.115	75.26
248.332	-18.94
248.549	93.69
248.766	105.98
248.983	50.69
249.2	-14.85
249.417	58.88
249.633	-4.61
249.85	56.83
250.067	19.97
250.284	79.36
250.501	44.54
250.717	52.74
250.934	-12.8
251.151	48.64
251.368	46.59
251.585	112.13
251.801	79.36
252.018	17.92
252.235	108.03
252.451	-2.56
252.668	54.78
252.885	19.97
253.102	24.06
253.318	42.5
253.535	-2.56
253.752	-6.66
253.968	46.59
254.185	34.3
254.401	42.5
254.618	71.17
254.835	-8.7
255.051	32.26
255.268	28.16
255.484	85.5
255.701	24.06
255.917	120.32
256.134	24.06
256.351	30.21
256.567	91.65
256.784	28.16
257	26.11
257.217	15.87
257.433	67.07
257.65	46.59
257.866	36.35
258.082	-20.99
258.299	26.11
258.515	67.07
258.732	-6.66
258.948	65.02
259.165	50.69
259.381	83.45
259.597	38.4
259.814	118.27
260.03	-47.62
260.246	50.69
260.463	32.26
260.679	28.16
260.895	44.54
261.112	5.63
261.328	-2.56
261.544	52.74
261.761	46.59
261.977	11.78
262.193	17.92
262.409	1.54
262.626	40.45
262.842	-8.7
263.058	34.3
263.274	-39.42
263.49	-31.23
263.707	19.97
263.923	103.93
264.139	-8.7
264.355	67.07
264.571	36.35
264.787	65.02
265.004	87.55
265.22	99.84
265.436	134.65
265.652	44.54
265.868	71.17
266.084	-6.66
266.3	50.69
266.516	-33.28
266.732	126.46
266.948	77.31
267.164	-29.18
267.38	1.54
267.596	46.59
267.812	67.07
268.028	-12.8
268.244	22.02
268.46	-8.7
268.676	120.32
268.892	32.26
269.108	-10.75
269.324	71.17
269.54	28.16
269.756	62.98
269.972	-39.42
270.188	58.88
270.403	32.26
270.619	-2.56
270.835	5.63
271.051	13.82
271.267	83.45
271.483	99.84
271.698	17.92
271.914	52.74
272.13	-2.56
272.346	11.78
272.562	32.26
272.777	99.84
272.993	-20.99
273.209	65.02
273.425	15.87
273.64	81.41
273.856	42.5
274.072	46.59
274.287	67.07
274.503	19.97
274.719	99.84
274.934	9.73
275.15	22.02
275.366	58.88
275.581	-49.66
275.797	50.69
276.012	-64
276.228	17.92
276.444	9.73
276.659	24.06
276.875	67.07
277.09	19.97
277.306	-2.56
277.521	60.93
277.737	71.17
277.952	22.02
278.168	-12.8
278.383	34.3
278.599	-18.94
278.814	-14.85
279.03	46.59
279.245	134.65
279.461	50.69
279.676	54.78
279.892	-72.19
280.107	50.69
280.322	32.26
280.538	28.16
280.753	17.92
280.969	30.21
281.184	17.92
281.399	17.92
281.615	34.3
281.83	65.02
282.045	44.54
282.26	95.74
282.476	24.06
282.691	38.4
282.906	52.74
283.122	69.12
283.337	62.98
283.552	24.06
283.767	3.58
283.983	56.83
284.198	71.17
284.413	73.21
284.628	-29.18
284.843	28.16
285.058	-4.61
285.274	97.79
285.489	11.78
285.704	34.3
285.919	-27.14
286.134	-23.04
286.349	9.73
286.564	60.93
286.779	54.78
286.995	22.02
287.21	60.93
287.425	9.73
287.64	34.3
287.855	50.69
288.07	75.26
288.285	-6.66
288.5	32.26
288.715	62.98
288.93	48.64
289.145	26.11
289.36	5.63
289.575	54.78
289.79	65.02
290.004	-0.51
290.219	26.11
290.434	11.78
290.649	38.4
290.864	-16.9
291.079	48.64
291.294	-8.7
291.509	3.58
291.724	34.3
291.938	7.68
292.153	-4.61
292.368	65.02
292.583	50.69
292.798	46.59
293.012	9.73
293.227	17.92
293.442	54.78
293.657	89.6
293.871	32.26
294.086	15.87
294.301	7.68
294.516	5.63
294.73	-12.8
294.945	-6.66
295.16	48.64
295.374	44.54
295.589	110.08
295.804	7.68
296.018	54.78
296.233	54.78
296.447	5.63
296.662	36.35
296.877	75.26
297.091	58.88
297.306	58.88
297.52	30.21
297.735	36.35
297.949	60.93
298.164	5.63
298.378	83.45
298.593	1.54
298.807	28.16
299.022	-31.23
299.236	56.83
299.451	36.35
299.665	42.5
299.88	62.98
300.094	30.21
300.309	28.16
300.523	54.78
300.737	52.74
300.952	22.02
301.166	44.54
301.381	-0.51
301.595	32.26
301.809	15.87
302.024	22.02
302.238	50.69
302.452	73.21
302.667	13.82
302.881	103.93
303.095	46.59
303.309	83.45
303.524	65.02
303.738	9.73
303.952	30.21
304.166	58.88
304.381	-10.75
304.595	50.69
304.809	48.64
305.023	108.03
305.237	54.78
305.452	58.88
305.666	40.45
305.88	38.4
306.094	40.45
306.308	42.5
306.522	-29.18
306.736	46.59
306.95	1.54
307.164	17.92
307.379	40.45
307.593	155.13
307.807	-6.66
308.021	-8.7
308.235	60.93
308.449	-6.66
308.663	99.84
308.877	30.21
309.091	9.73
309.305	34.3
309.519	3.58
309.733	42.5
309.947	13.82
310.161	13.82
310.374	58.88
310.588	9.73
310.802	-4.61
311.016	103.93
311.23	26.11
311.444	95.74
311.658	24.06
311.872	38.4
312.085	17.92
312.299	13.82
312.513	58.88
312.727	69.12
312.941	54.78
313.154	52.74
313.368	5.63
313.582	13.82
313.796	13.82
314.009	65.02
314.223	87.55
314.437	85.5
314.651	75.26
314.864	50.69
315.078	30.21
315.292	-4.61
315.505	42.5
315.719	-10.75
315.933	30.21
316.146	24.06
316.36	5.63
316.573	85.5
316.787	93.69
317.001	42.5
317.214	-45.57
317.428	60.93
317.641	-4.61
317.855	22.02
318.068	-2.56
318.282	87.55
318.495	5.63
318.709	24.06
318.922	52.74
319.136	9.73
319.349	65.02
319.563	103.93
319.776	-14.85
319.99	13.82
320.203	58.88
320.417	60.93
320.63	-27.14
320.843	85.5
321.057	75.26
321.27	110.08
321.483	17.92
321.697	116.22
321.91	67.07
322.124	75.26
322.337	22.02
322.55	-39.42
322.763	60.93
322.977	24.06
323.19	-49.66
323.403	56.83
323.617	5.63
323.83	91.65
324.043	69.12
324.256	69.12
324.469	-41.47
324.683	114.17
324.896	-2.56
325.109	60.93
325.322	48.64
325.535	132.61
325.748	173.57
325.962	52.74
326.175	42.5
326.388	1.54
326.601	-0.51
326.814	75.26
327.027	34.3
327.24	114.17
327.453	-14.85
327.666	40.45
327.879	44.54
328.092	58.88
328.305	5.63
328.518	79.36
328.731	-16.9
328.944	83.45
329.157	28.16
329.37	62.98
329.583	38.4
329.796	126.46
330.009	15.87
330.222	-59.9
330.435	26.11
330.648	5.63
330.861	42.5
331.073	91.65
331.286	40.45
331.499	11.78
331.712	26.11
331.925	46.59
332.138	69.12
332.35	-70.14
332.563	1.54
332.776	19.97
332.989	13.82
333.202	-2.56
333.414	75.26
333.627	75.26
333.84	3.58
334.053	71.17
334.265	13.82
334.478	58.88
334.691	36.35
334.903	36.35
335.116	36.35
335.329	-0.51
335.541	30.21
335.754	26.11
335.966	-16.9
336.179	83.45
336.392	30.21
336.604	-45.57
336.817	112.13
337.029	77.31
337.242	32.26
337.454	-18.94
337.667	36.35
337.88	26.11
338.092	52.74
338.305	65.02
338.517	30.21
338.729	140.8
338.942	65.02
339.154	24.06
339.367	-4.61
339.579	28.16
339.792	60.93
340.004	-14.85
340.217	38.4
340.429	38.4
340.641	105.98
340.854	26.11
341.066	-10.75
341.278	99.84
341.491	24.06
341.703	122.37
341.915	-10.75
342.128	85.5
342.34	95.74
342.552	-0.51
342.764	38.4
342.977	56.83
343.189	-57.86
343.401	105.98
343.613	-8.7
343.826	19.97
344.038	97.79
344.25	81.41
344.462	58.88
344.674	69.12
344.886	-12.8
345.099	110.08
345.311	1.54
345.523	67.07
345.735	-10.75
345.947	71.17
346.159	40.45
346.371	46.59
346.583	-31.23
346.795	69.12
347.007	65.02
347.219	30.21
347.431	-0.51
347.643	132.61
347.855	15.87
348.067	89.6
348.279	34.3
348.491	105.98
348.703	17.92
348.915	-43.52
349.127	30.21
349.339	9.73
349.551	42.5
349.763	101.89
349.975	48.64
350.187	120.32
350.399	81.41
350.61	103.93
350.822	-10.75
351.034	24.06
351.246	108.03
351.458	42.5
351.669	17.92
351.881	40.45
352.093	65.02
352.305	165.37
352.517	108.03
352.728	105.98
352.94	32.26
353.152	42.5
353.363	34.3
353.575	28.16
353.787	101.89
353.999	46.59
354.21	46.59
354.422	3.58
354.633	42.5
354.845	9.73
355.057	81.41
355.268	22.02
355.48	3.58
355.692	42.5
355.903	38.4
356.115	5.63
356.326	-23.04
356.538	73.21
356.749	65.02
356.961	3.58
357.172	26.11
357.384	-49.66
357.595	167.42
357.807	13.82
358.018	46.59
358.23	44.54
358.441	85.5
358.653	108.03
358.864	91.65
359.075	52.74
359.287	52.74
359.498	83.45
359.709	99.84
359.921	81.41
360.132	67.07
360.344	101.89
360.555	7.68
360.766	32.26
360.977	79.36
361.189	99.84
361.4	108.03
361.611	46.59
361.823	11.78
362.034	110.08
362.245	24.06
362.456	13.82
362.667	-4.61
362.879	9.73
363.09	93.69
363.301	34.3
363.512	50.69
363.723	83.45
363.935	15.87
364.146	71.17
364.357	48.64
364.568	65.02
364.779	11.78
364.99	30.21
365.201	-0.51
365.412	89.6
365.623	26.11
365.834	108.03
366.045	-8.7
366.256	103.93
366.467	54.78
366.678	54.78
366.889	67.07
367.1	50.69
367.311	67.07
367.522	81.41
367.733	48.64
367.944	1.54
368.155	85.5
368.366	65.02
368.577	36.35
368.788	65.02
368.999	-20.99
369.209	44.54
369.42	40.45
369.631	157.18
369.842	36.35
370.053	42.5
370.264	124.41
370.474	-16.9
370.685	28.16
370.896	108.03
371.107	30.21
371.317	40.45
371.528	89.6
371.739	112.13
371.95	69.12
372.16	85.5
372.371	44.54
372.582	11.78
372.792	-8.7
373.003	83.45
373.214	52.74
373.424	42.5
373.635	62.98
373.846	54.78
374.056	30.21
374.267	15.87
374.477	73.21
374.688	75.26
374.898	-18.94
375.109	108.03
375.319	42.5
375.53	44.54
375.74	65.02
375.951	1.54
376.161	30.21
376.372	58.88
376.582	40.45
376.793	67.07
377.003	42.5
377.214	71.17
377.424	62.98
377.635	-43.52
377.845	28.16
378.055	126.46
378.266	50.69
378.476	60.93
378.686	15.87
378.897	22.02
379.107	97.79
379.317	153.09
379.528	65.02
379.738	52.74
379.948	50.69
380.158	116.22
380.369	38.4
380.579	116.22
380.789	36.35
380.999	42.5
381.21	30.21
381.42	91.65
381.63	19.97
381.84	44.54
382.05	103.93
382.261	79.36
382.471	62.98
382.681	79.36
382.891	65.02
383.101	38.4
383.311	40.45
383.521	24.06
383.731	52.74
383.941	91.65
384.151	22.02
384.361	75.26
384.571	50.69
384.781	89.6
384.991	52.74
385.201	97.79
385.411	-8.7
385.621	36.35
385.831	71.17
386.041	71.17
386.251	54.78
386.461	99.84
386.671	11.78
386.881	89.6
387.091	-6.66
387.301	85.5
387.511	-2.56
387.72	85.5
387.93	112.13
388.14	30.21
388.35	-2.56
388.56	32.26
388.769	79.36
388.979	140.8
389.189	38.4
389.399	85.5
389.609	95.74
389.818	75.26
390.028	85.5
390.238	50.69
390.447	24.06
390.657	83.45
390.867	48.64
391.076	36.35
391.286	73.21
391.496	67.07
391.705	103.93
391.915	46.59
392.125	65.02
392.334	62.98
392.544	91.65
392.753	118.27
392.963	11.78
393.172	75.26
393.382	38.4
393.591	60.93
393.801	75.26
394.01	91.65
394.22	-29.18
394.429	48.64
394.639	87.55
394.848	34.3
395.058	56.83
395.267	30.21
395.477	79.36
395.686	81.41
395.895	9.73
396.105	144.89
396.314	122.37
396.524	138.75
396.733	-57.86
396.942	128.51
397.152	83.45
397.361	50.69
397.57	38.4
397.78	11.78
397.989	69.12
398.198	114.17
398.407	128.51
398.617	79.36
398.826	134.65
399.035	103.93
399.244	54.78
399.453	79.36
399.663	171.52
399.872	142.85
400.081	95.74
400.29	116.22
400.499	69.12
400.708	112.13
400.917	60.93
401.127	124.41
401.336	120.32
401.545	134.65
401.754	62.98
401.963	136.7
402.172	108.03
402.381	132.61
402.59	110.08
402.799	42.5
403.008	148.99
403.217	85.5
403.426	67.07
403.635	128.51
403.844	69.12
404.053	75.26
404.262	81.41
404.471	148.99
404.68	165.37
404.888	42.5
405.097	73.21
405.306	38.4
405.515	112.13
405.724	122.37
405.933	54.78
406.142	163.33
406.35	132.61
406.559	202.24
406.768	124.41
406.977	196.09
407.185	142.85
407.394	153.09
407.603	130.56
407.812	165.37
408.02	235
408.229	138.75
408.438	206.33
408.646	165.37
408.855	189.95
409.064	138.75
409.272	159.23
409.481	173.57
409.69	249.34
409.898	230.91
410.107	235
410.315	267.77
410.524	261.63
410.733	239.1
410.941	235
411.15	321.02
411.358	243.2
411.567	327.16
411.775	245.24
411.984	339.45
412.192	355.83
412.401	294.4
412.609	439.8
412.818	417.27
413.026	349.69
413.234	370.17
413.443	464.38
413.651	427.51
413.86	423.42
414.068	386.55
414.276	511.48
414.485	501.24
414.693	540.15
414.901	493.05
415.11	534.01
415.318	503.29
415.526	564.73
415.734	529.91
415.943	603.64
416.151	589.3
416.359	660.98
416.567	605.69
416.776	648.69
416.984	761.33
417.192	761.33
417.4	773.62
417.608	769.52
417.817	798.2
418.025	890.35
418.233	904.69
418.441	894.45
418.649	951.79
418.857	974.32
419.065	1025.52
419.273	996.85
419.481	1095.15
419.689	1113.58
419.897	1101.3
420.105	1129.97
420.313	1117.68
420.521	1287.66
420.729	1148.4
420.937	1308.14
421.145	1363.44
421.353	1371.63
421.561	1510.89
421.769	1535.46
421.977	1584.62
422.185	1580.52
422.393	1689.06
422.601	1644.01
422.809	1750.5
423.017	1768.93
423.224	1795.56
423.432	1969.63
423.64	1857
423.848	2098.66
424.056	2129.38
424.263	2168.29
424.471	2145.76
424.679	2250.21
424.887	2336.22
425.094	2528.73
425.302	2465.24
425.51	2541.02
425.718	2682.33
425.925	2608.6
426.133	2749.91
426.341	2745.81
426.548	2911.7
426.756	2977.23
426.964	3122.64
427.171	3278.29
427.379	3292.62
427.586	3417.55
427.794	3435.98
428.001	3550.67
428.209	3696.07
428.417	3685.83
428.624	3866.05
428.832	4052.42
429.039	3911.11
429.247	3925.44
429.454	4404.67
429.662	4808.12
429.869	4234.69
430.076	4697.53
430.284	4582.84
430.491	4652.47
430.699	4939.19
430.906	4750.78
431.114	4906.42
431.321	5178.8
431.528	5238.19
431.736	5692.84
431.943	5963.17
432.15	5719.46
432.358	5799.34
432.565	6100.39
432.772	6104.48
432.979	6456.73
433.187	6614.43
433.394	6671.77
433.601	6981.01
433.808	6870.42
434.016	6727.07
434.223	7210.39
434.43	7720.33
434.637	7447.95
434.844	7918.98
435.052	8123.78
435.259	8101.25
435.466	8054.15
435.673	7984.52
435.88	8564.09
436.087	9119.09
436.294	9090.42
436.501	8793.47
436.708	9004.41
436.915	9164.15
437.122	9807.21
437.329	9608.56
437.537	10001.77
437.743	10089.83
437.95	10095.97
438.157	10638.69
438.364	10900.83
438.571	10898.78
438.778	10855.77
438.985	11906.38
439.192	11451.73
439.399	11806.03
439.606	11550.03
439.813	11973.96
440.02	13204.79
440.227	12909.88
440.433	12686.65
440.64	13112.63
440.847	12858.68
441.054	13333.81
441.261	14282.02
441.467	14239.01
441.674	14351.65
441.881	14929.18
442.088	14624.03
442.294	14460.2
442.501	15076.63
442.708	15285.53
442.914	15883.53
443.121	16434.44
443.328	16157.96
443.534	17253.62
443.741	16643.33
443.948	16614.66
444.154	17743.09
444.361	17661.17
444.568	17732.85
444.774	17626.36
444.981	17712.37
445.187	18384.1
445.394	19451.1
445.6	18984.16
445.807	20925.63
446.013	19965.14
446.22	20286.67
446.426	20980.93
446.633	21243.07
446.839	22119.6
447.046	20802.75
447.252	22305.96
447.459	22103.21
447.665	22271.15
447.871	23082.14
448.078	23940.24
448.284	22803.62
448.491	23493.79
448.697	24444.04
448.903	24745.09
449.11	25103.49
449.316	24425.61
449.522	24884.36
449.728	25638.01
449.935	25642.1
450.141	25574.52
450.347	26172.53
450.553	25242.75
450.76	25515.13
450.966	26076.27
451.172	26449
451.378	26946.66
451.584	26123.38
451.791	26965.09
451.997	26729.58
452.203	27182.18
452.409	27055.2
452.615	27255.9
452.821	26047.6
453.027	25431.16
453.233	26932.33
453.44	25945.2
453.646	26141.81
453.852	26575.98
454.058	26604.65
454.264	25644.15
454.47	26342.51
454.676	25615.48
454.882	26532.97
455.088	24120.46
455.294	24691.85
455.5	24683.66
455.705	24788.1
455.911	24165.52
456.117	23436.44
456.323	23319.71
456.529	22150.32
456.735	22815.91
456.941	22414.51
457.147	21689.53
457.352	21429.43
457.558	21075.13
457.764	20524.23
457.97	20640.97
458.176	20245.71
458.381	20004.05
458.587	19307.74
458.793	19096.8
458.999	18038
459.204	19369.18
459.41	18969.82
459.616	17579.25
459.821	17861.87
460.027	17425.65
460.233	17110.27
460.438	16411.91
460.644	16698.63
460.85	15707.41
461.055	15539.47
461.261	15529.24
461.466	14322.98
461.672	13966.63
461.878	15101.21
462.083	13753.65
462.289	13831.47
462.494	13616.43
462.7	13081.91
462.905	12737.85
463.111	13247.8
463.316	13110.58
463.522	12748.09
463.727	13129.02
463.932	12655.93
464.138	12700.99
464.343	12662.08
464.549	12381.51
464.754	12756.29
464.959	12838.2
465.165	12528.96
465.37	12047.69
465.575	11758.92
465.781	12373.32
465.986	12295.49
466.191	11976.01
466.397	11648.33
466.602	11158.87
466.807	11560.27
467.012	11519.31
467.218	11605.33
467.423	11248.98
467.628	11543.89
467.833	11930.95
468.038	11433.3
468.244	11179.35
468.449	11748.68
468.654	11091.29
468.859	10909.02
