Data from USB4F104151__298__11-13-09-559.txt Node

Date: Wed Mar 12 11:13:09 EDT 2025
User: louis
Spectrometer: USB4F10415
Trigger mode: 4
Integration Time (sec): 2.000000E-2
Scans to average: 1
Electric dark correction enabled: true
Nonlinearity correction enabled: false
Boxcar width: 0
XAxis mode: Wavelengths
Number of Pixels in Spectrum: 3648
>>>>>Begin Spectral Data<<<<<
178.204	-74.58
178.424	-74.58
178.644	-74.58
178.864	-45.91
179.084	-125.78
179.304	-13.14
179.524	-45.91
179.744	-88.92
179.964	-11.09
180.184	9.39
180.404	5.29
180.624	15.53
180.844	15.53
181.064	36.01
181.283	23.72
181.503	-56.15
181.723	109.74
181.943	-13.14
182.163	56.49
182.383	-9.05
182.602	95.4
182.822	85.16
183.042	-25.43
183.262	113.83
183.482	62.63
183.701	64.68
183.921	23.72
184.141	101.55
184.361	1.19
184.58	97.45
184.8	42.15
185.02	7.34
185.239	-4.95
185.459	50.35
185.679	46.25
185.898	5.29
186.118	13.48
186.338	1.19
186.557	54.44
186.777	-35.67
186.997	23.72
187.216	62.63
187.436	-7
187.655	31.91
187.875	-31.57
188.095	-37.72
188.314	23.72
188.534	40.11
188.753	-7
188.973	50.35
189.192	48.3
189.412	38.06
189.631	31.91
189.851	-0.85
190.07	52.39
190.29	9.39
190.509	-41.81
190.729	29.87
190.948	83.11
191.168	85.16
191.387	74.92
191.607	50.35
191.826	7.34
192.045	48.3
192.265	-7
192.484	44.2
192.704	70.83
192.923	11.43
193.142	91.31
193.362	-31.57
193.581	-21.33
193.8	76.97
194.02	54.44
194.239	-13.14
194.458	44.2
194.678	-21.33
194.897	-4.95
195.116	-39.76
195.335	23.72
195.555	42.15
195.774	64.68
195.993	19.63
196.212	-2.9
196.432	21.67
196.651	58.54
196.87	-15.19
197.089	68.78
197.308	48.3
197.528	29.87
197.747	62.63
197.966	29.87
198.185	64.68
198.404	13.48
198.623	66.73
198.842	5.29
199.062	25.77
199.281	52.39
199.5	27.82
199.719	72.87
199.938	72.87
200.157	3.24
200.376	48.3
200.595	70.83
200.814	1.19
201.033	15.53
201.252	87.21
201.471	-13.14
201.69	-15.19
201.909	62.63
202.128	122.02
202.347	64.68
202.566	25.77
202.785	3.24
203.004	-35.67
203.223	40.11
203.442	-19.29
203.661	29.87
203.879	-62.29
204.098	-2.9
204.317	42.15
204.536	115.88
204.755	42.15
204.974	-4.95
205.193	-0.85
205.411	128.17
205.63	85.16
205.849	74.92
206.068	-31.57
206.287	36.01
206.505	40.11
206.724	58.54
206.943	-33.62
207.162	-19.29
207.381	-21.33
207.599	15.53
207.818	40.11
208.037	46.25
208.255	44.2
208.474	11.43
208.693	-13.14
208.911	17.58
209.13	95.4
209.349	38.06
209.567	54.44
209.786	93.35
210.005	52.39
210.223	17.58
210.442	-17.24
210.661	-68.44
210.879	74.92
211.098	3.24
211.316	-25.43
211.535	107.69
211.753	42.15
211.972	29.87
212.191	27.82
212.409	93.35
212.628	-19.29
212.846	29.87
213.065	27.82
213.283	29.87
213.502	15.53
213.72	25.77
213.938	105.64
214.157	50.35
214.375	-37.72
214.594	13.48
214.812	81.07
215.031	72.87
215.249	42.15
215.467	33.96
215.686	29.87
215.904	60.59
216.122	101.55
216.341	-9.05
216.559	33.96
216.778	60.59
216.996	9.39
217.214	23.72
217.432	15.53
217.651	5.29
217.869	-11.09
218.087	3.24
218.306	52.39
218.524	70.83
218.742	-7
218.96	36.01
219.179	60.59
219.397	68.78
219.615	83.11
219.833	42.15
220.051	87.21
220.27	52.39
220.488	91.31
220.706	58.54
220.924	76.97
221.142	50.35
221.36	52.39
221.578	44.2
221.796	17.58
222.015	5.29
222.233	115.88
222.451	103.59
222.669	52.39
222.887	25.77
223.105	-33.62
223.323	-17.24
223.541	74.92
223.759	23.72
223.977	3.24
224.195	25.77
224.413	-15.19
224.631	31.91
224.849	-11.09
225.067	113.83
225.285	-19.29
225.503	-9.05
225.721	40.11
225.939	36.01
226.157	21.67
226.375	21.67
226.592	76.97
226.81	-13.14
227.028	138.41
227.246	25.77
227.464	-66.39
227.682	76.97
227.9	33.96
228.117	3.24
228.335	50.35
228.553	46.25
228.771	60.59
228.989	-25.43
229.206	23.72
229.424	44.2
229.642	1.19
229.86	-21.33
230.077	101.55
230.295	21.67
230.513	87.21
230.731	93.35
230.948	68.78
231.166	27.82
231.384	15.53
231.601	-0.85
231.819	-4.95
232.037	74.92
232.254	72.87
232.472	9.39
232.689	36.01
232.907	-4.95
233.125	27.82
233.342	-45.91
233.56	44.2
233.777	-13.14
233.995	19.63
234.213	-23.38
234.43	64.68
234.648	-9.05
234.865	42.15
235.083	52.39
235.3	-15.19
235.518	103.59
235.735	68.78
235.953	33.96
236.17	3.24
236.388	29.87
236.605	48.3
236.822	48.3
237.04	52.39
237.257	76.97
237.475	66.73
237.692	13.48
237.909	76.97
238.127	-45.91
238.344	74.92
238.562	117.93
238.779	60.59
238.996	58.54
239.214	38.06
239.431	44.2
239.648	36.01
239.865	52.39
240.083	5.29
240.3	42.15
240.517	81.07
240.735	68.78
240.952	-23.38
241.169	-60.24
241.386	36.01
241.603	-9.05
241.821	1.19
242.038	56.49
242.255	68.78
242.472	42.15
242.689	9.39
242.907	44.2
243.124	-33.62
243.341	-17.24
243.558	11.43
243.775	42.15
243.992	-52.05
244.209	48.3
244.426	38.06
244.643	54.44
244.86	64.68
245.078	85.16
245.295	5.29
245.512	11.43
245.729	19.63
245.946	-13.14
246.163	93.35
246.38	44.2
246.597	19.63
246.814	74.92
247.031	46.25
247.248	54.44
247.464	-15.19
247.681	23.72
247.898	-62.29
248.115	99.5
248.332	-56.15
248.549	89.26
248.766	44.2
248.983	56.49
249.2	-15.19
249.417	66.73
249.633	52.39
249.85	33.96
250.067	19.63
250.284	54.44
250.501	33.96
250.717	21.67
250.934	36.01
251.151	46.25
251.368	36.01
251.585	83.11
251.801	74.92
252.018	19.63
252.235	62.63
252.451	27.82
252.668	-4.95
252.885	5.29
253.102	-0.85
253.318	23.72
253.535	38.06
253.752	52.39
253.968	36.01
254.185	5.29
254.401	15.53
254.618	27.82
254.835	29.87
255.051	46.25
255.268	23.72
255.484	25.77
255.701	-31.57
255.917	46.25
256.134	-7
256.351	-4.95
256.567	54.44
256.784	-0.85
257	46.25
257.217	113.83
257.433	23.72
257.65	81.07
257.866	44.2
258.082	56.49
258.299	5.29
258.515	-58.2
258.732	3.24
258.948	11.43
259.165	-58.2
259.381	56.49
259.597	93.35
259.814	36.01
260.03	-62.29
260.246	17.58
260.463	31.91
260.679	70.83
260.895	79.02
261.112	60.59
261.328	-33.62
261.544	42.15
261.761	56.49
261.977	36.01
262.193	11.43
262.409	42.15
262.626	13.48
262.842	-45.91
263.058	64.68
263.274	107.69
263.49	36.01
263.707	64.68
263.923	48.3
264.139	-23.38
264.355	68.78
264.571	105.64
264.787	-7
265.004	40.11
265.22	9.39
265.436	-2.9
265.652	81.07
265.868	5.29
266.084	-58.2
266.3	38.06
266.516	-23.38
266.732	19.63
266.948	11.43
267.164	50.35
267.38	52.39
267.596	15.53
267.812	93.35
268.028	44.2
268.244	17.58
268.46	58.54
268.676	93.35
268.892	74.92
269.108	44.2
269.324	-23.38
269.54	1.19
269.756	70.83
269.972	13.48
270.188	15.53
270.403	13.48
270.619	117.93
270.835	44.2
271.051	15.53
271.267	52.39
271.483	54.44
271.698	19.63
271.914	-0.85
272.13	38.06
272.346	29.87
272.562	-25.43
272.777	109.74
272.993	27.82
273.209	101.55
273.425	-47.96
273.64	7.34
273.856	52.39
274.072	-15.19
274.287	76.97
274.503	72.87
274.719	-21.33
274.934	19.63
275.15	17.58
275.366	-4.95
275.581	29.87
275.797	17.58
276.012	52.39
276.228	85.16
276.444	-23.38
276.659	27.82
276.875	1.19
277.09	70.83
277.306	-31.57
277.521	-62.29
277.737	74.92
277.952	68.78
278.168	36.01
278.383	21.67
278.599	38.06
278.814	44.2
279.03	42.15
279.245	74.92
279.461	52.39
279.676	-4.95
279.892	25.77
280.107	36.01
280.322	-0.85
280.538	74.92
280.753	-7
280.969	60.59
281.184	-25.43
281.399	33.96
281.615	9.39
281.83	101.55
282.045	29.87
282.26	33.96
282.476	48.3
282.691	56.49
282.906	44.2
283.122	21.67
283.337	64.68
283.552	36.01
283.767	46.25
283.983	-0.85
284.198	85.16
284.413	58.54
284.628	25.77
284.843	31.91
285.058	7.34
285.274	-47.96
285.489	72.87
285.704	48.3
285.919	74.92
286.134	23.72
286.349	25.77
286.564	66.73
286.779	48.3
286.995	105.64
287.21	-21.33
287.425	23.72
287.64	3.24
287.855	97.45
288.07	3.24
288.285	23.72
288.5	122.02
288.715	44.2
288.93	48.3
289.145	11.43
289.36	85.16
289.575	11.43
289.79	70.83
290.004	-45.91
290.219	46.25
290.434	-19.29
290.649	54.44
290.864	40.11
291.079	-23.38
291.294	85.16
291.509	23.72
291.724	25.77
291.938	23.72
292.153	50.35
292.368	33.96
292.583	40.11
292.798	27.82
293.012	19.63
293.227	54.44
293.442	64.68
293.657	-21.33
293.871	31.91
294.086	56.49
294.301	68.78
294.516	91.31
294.73	36.01
294.945	64.68
295.16	38.06
295.374	31.91
295.589	128.17
295.804	40.11
296.018	5.29
296.233	60.59
296.447	23.72
296.662	-11.09
296.877	66.73
297.091	113.83
297.306	64.68
297.52	11.43
297.735	19.63
297.949	11.43
298.164	64.68
298.378	44.2
298.593	1.19
298.807	3.24
299.022	29.87
299.236	64.68
299.451	29.87
299.665	15.53
299.88	23.72
300.094	64.68
300.309	42.15
300.523	48.3
300.737	9.39
300.952	36.01
301.166	-9.05
301.381	-0.85
301.595	25.77
301.809	19.63
302.024	13.48
302.238	25.77
302.452	-23.38
302.667	60.59
302.881	44.2
303.095	81.07
303.309	19.63
303.524	62.63
303.738	44.2
303.952	27.82
304.166	25.77
304.381	1.19
304.595	15.53
304.809	60.59
305.023	38.06
305.237	-9.05
305.452	50.35
305.666	-2.9
305.88	105.64
306.094	91.31
306.308	48.3
306.522	54.44
306.736	76.97
306.95	-58.2
307.164	-0.85
307.379	74.92
307.593	46.25
307.807	42.15
308.021	36.01
308.235	11.43
308.449	3.24
308.663	56.49
308.877	76.97
309.091	42.15
309.305	-25.43
309.519	-29.52
309.733	130.22
309.947	11.43
310.161	95.4
310.374	40.11
310.588	-0.85
310.802	-7
311.016	-50
311.23	105.64
311.444	21.67
311.658	29.87
311.872	50.35
312.085	19.63
312.299	42.15
312.513	50.35
312.727	15.53
312.941	29.87
313.154	31.91
313.368	48.3
313.582	19.63
313.796	44.2
314.009	33.96
314.223	76.97
314.437	44.2
314.651	-7
314.864	27.82
315.078	50.35
315.292	-27.48
315.505	-19.29
315.719	76.97
315.933	25.77
316.146	11.43
316.36	-19.29
316.573	70.83
316.787	33.96
317.001	-27.48
317.214	23.72
317.428	132.26
317.641	19.63
317.855	62.63
318.068	-7
318.282	17.58
318.495	95.4
318.709	-23.38
318.922	-0.85
319.136	56.49
319.349	81.07
319.563	33.96
319.776	64.68
319.99	64.68
320.203	-27.48
320.417	52.39
320.63	25.77
320.843	93.35
321.057	9.39
321.27	1.19
321.483	56.49
321.697	50.35
321.91	66.73
322.124	17.58
322.337	29.87
322.55	70.83
322.763	50.35
322.977	38.06
323.19	38.06
323.403	74.92
323.617	66.73
323.83	31.91
324.043	66.73
324.256	48.3
324.469	36.01
324.683	-17.24
324.896	48.3
325.109	74.92
325.322	5.29
325.535	40.11
325.748	36.01
325.962	50.35
326.175	17.58
326.388	42.15
326.601	36.01
326.814	64.68
327.027	21.67
327.24	40.11
327.453	11.43
327.666	56.49
327.879	44.2
328.092	56.49
328.305	7.34
328.518	74.92
328.731	79.02
328.944	-39.76
329.157	68.78
329.37	66.73
329.583	85.16
329.796	31.91
330.009	-0.85
330.222	21.67
330.435	-9.05
330.648	56.49
330.861	-0.85
331.073	105.64
331.286	89.26
331.499	103.59
331.712	-68.44
331.925	56.49
332.138	52.39
332.35	-15.19
332.563	72.87
332.776	15.53
332.989	7.34
333.202	27.82
333.414	62.63
333.627	-11.09
333.84	54.44
334.053	81.07
334.265	31.91
334.478	54.44
334.691	38.06
334.903	31.91
335.116	-7
335.329	-27.48
335.541	15.53
335.754	33.96
335.966	48.3
336.179	-2.9
336.392	-7
336.604	29.87
336.817	19.63
337.029	107.69
337.242	15.53
337.454	93.35
337.667	-25.43
337.88	101.55
338.092	27.82
338.305	29.87
338.517	7.34
338.729	122.02
338.942	64.68
339.154	21.67
339.367	42.15
339.579	91.31
339.792	85.16
340.004	54.44
340.217	50.35
340.429	60.59
340.641	23.72
340.854	76.97
341.066	50.35
341.278	-2.9
341.491	81.07
341.703	68.78
341.915	17.58
342.128	9.39
342.34	50.35
342.552	50.35
342.764	42.15
342.977	36.01
343.189	76.97
343.401	-19.29
343.613	27.82
343.826	40.11
344.038	17.58
344.25	95.4
344.462	42.15
344.674	17.58
344.886	9.39
345.099	81.07
345.311	23.72
345.523	15.53
345.735	56.49
345.947	101.55
346.159	103.59
346.371	15.53
346.583	101.55
346.795	64.68
347.007	15.53
347.219	-21.33
347.431	44.2
347.643	66.73
347.855	-31.57
348.067	42.15
348.279	44.2
348.491	103.59
348.703	13.48
348.915	-4.95
349.127	21.67
349.339	27.82
349.551	-9.05
349.763	-2.9
349.975	33.96
350.187	132.26
350.399	105.64
350.61	44.2
350.822	13.48
351.034	66.73
351.246	36.01
351.458	91.31
351.669	126.12
351.881	42.15
352.093	21.67
352.305	66.73
352.517	-37.72
352.728	93.35
352.94	3.24
353.152	15.53
353.363	-33.62
353.575	44.2
353.787	68.78
353.999	76.97
354.21	107.69
354.422	25.77
354.633	13.48
354.845	-37.72
355.057	3.24
355.268	58.54
355.48	60.59
355.692	29.87
355.903	9.39
356.115	11.43
356.326	-23.38
356.538	60.59
356.749	5.29
356.961	19.63
357.172	91.31
357.384	40.11
357.595	76.97
357.807	146.6
358.018	46.25
358.23	148.65
358.441	25.77
358.653	23.72
358.864	68.78
359.075	81.07
359.287	54.44
359.498	66.73
359.709	107.69
359.921	21.67
360.132	15.53
360.344	44.2
360.555	23.72
360.766	87.21
360.977	42.15
361.189	13.48
361.4	48.3
361.611	85.16
361.823	99.5
362.034	48.3
362.245	38.06
362.456	83.11
362.667	27.82
362.879	23.72
363.09	56.49
363.301	17.58
363.512	66.73
363.723	-0.85
363.935	11.43
364.146	40.11
364.357	-13.14
364.568	126.12
364.779	29.87
364.99	199.85
365.201	42.15
365.412	87.21
365.623	81.07
365.834	31.91
366.045	46.25
366.256	44.2
366.467	31.91
366.678	83.11
366.889	36.01
367.1	52.39
367.311	33.96
367.522	50.35
367.733	87.21
367.944	29.87
368.155	50.35
368.366	62.63
368.577	27.82
368.788	79.02
368.999	-41.81
369.209	68.78
369.42	76.97
369.631	31.91
369.842	48.3
370.053	52.39
370.264	15.53
370.474	11.43
370.685	40.11
370.896	54.44
371.107	-13.14
371.317	56.49
371.528	29.87
371.739	140.46
371.95	-4.95
372.16	95.4
372.371	23.72
372.582	58.54
372.792	38.06
373.003	38.06
373.214	48.3
373.424	46.25
373.635	97.45
373.846	83.11
374.056	52.39
374.267	91.31
374.477	72.87
374.688	58.54
374.898	54.44
375.109	-13.14
375.319	81.07
375.53	42.15
375.74	19.63
375.951	79.02
376.161	23.72
376.372	81.07
376.582	74.92
376.793	81.07
377.003	54.44
377.214	113.83
377.424	50.35
377.635	72.87
377.845	29.87
378.055	68.78
378.266	97.45
378.476	105.64
378.686	13.48
378.897	54.44
379.107	105.64
379.317	93.35
379.528	-2.9
379.738	101.55
379.948	3.24
380.158	40.11
380.369	25.77
380.579	15.53
380.789	60.59
380.999	83.11
381.21	25.77
381.42	105.64
381.63	33.96
381.84	31.91
382.05	44.2
382.261	62.63
382.471	81.07
382.681	40.11
382.891	48.3
383.101	40.11
383.311	15.53
383.521	36.01
383.731	105.64
383.941	138.41
384.151	38.06
384.361	-0.85
384.571	68.78
384.781	38.06
384.991	40.11
385.201	99.5
385.411	23.72
385.621	27.82
385.831	31.91
386.041	21.67
386.251	74.92
386.461	56.49
386.671	40.11
386.881	48.3
387.091	81.07
387.301	23.72
387.511	40.11
387.72	93.35
387.93	36.01
388.14	38.06
388.35	83.11
388.56	70.83
388.769	93.35
388.979	40.11
389.189	68.78
389.399	111.78
389.609	25.77
389.818	54.44
390.028	15.53
390.238	103.59
390.447	17.58
390.657	111.78
390.867	56.49
391.076	21.67
391.286	9.39
391.496	40.11
391.705	64.68
391.915	-7
392.125	62.63
392.334	154.79
392.544	79.02
392.753	48.3
392.963	27.82
393.172	93.35
393.382	81.07
393.591	154.79
393.801	72.87
394.01	107.69
394.22	79.02
394.429	124.07
394.639	101.55
394.848	89.26
395.058	42.15
395.267	44.2
395.477	85.16
395.686	72.87
395.895	72.87
396.105	109.74
396.314	107.69
396.524	105.64
396.733	76.97
396.942	115.88
397.152	74.92
397.361	101.55
397.57	134.31
397.78	158.89
397.989	72.87
398.198	68.78
398.407	162.98
398.617	119.98
398.826	83.11
399.035	138.41
399.244	64.68
399.453	119.98
399.663	-31.57
399.872	158.89
400.081	72.87
400.29	130.22
400.499	25.77
400.708	115.88
400.917	93.35
401.127	171.18
401.336	162.98
401.545	93.35
401.754	158.89
401.963	107.69
402.172	162.98
402.381	93.35
402.59	81.07
402.799	113.83
403.008	105.64
403.217	111.78
403.426	152.74
403.635	140.46
403.844	109.74
404.053	109.74
404.262	101.55
404.471	130.22
404.68	146.6
404.888	150.7
405.097	175.27
405.306	132.26
405.515	52.39
405.724	122.02
405.933	130.22
406.142	138.41
406.35	173.22
406.559	142.5
406.768	136.36
406.977	212.14
407.185	242.85
407.394	148.65
407.603	246.95
407.812	246.95
408.02	177.32
408.229	177.32
408.438	246.95
408.646	177.32
408.855	203.94
409.064	228.52
409.272	244.9
409.481	244.9
409.69	220.33
409.898	261.29
410.107	267.43
410.315	347.3
410.524	222.38
410.733	302.25
410.941	369.83
411.15	312.49
411.358	292.01
411.567	418.98
411.775	392.36
411.984	373.92
412.192	351.4
412.401	398.5
412.609	451.75
412.818	449.7
413.026	521.38
413.234	412.84
413.443	507.04
413.651	425.12
413.86	494.76
414.068	636.06
414.276	582.82
414.485	488.61
414.693	560.29
414.901	605.35
415.11	586.91
415.318	578.72
415.526	740.51
415.734	703.65
415.943	658.59
416.151	732.32
416.359	681.12
416.567	781.47
416.776	758.94
416.984	947.36
417.192	900.25
417.4	935.07
417.608	969.88
417.817	904.35
418.025	986.27
418.233	1019.04
418.441	1019.04
418.649	1059.99
418.857	1139.87
419.065	1217.69
419.273	1211.54
419.481	1225.88
419.689	1248.41
419.897	1395.86
420.105	1352.85
420.313	1455.25
420.521	1451.16
420.729	1498.26
420.937	1445.01
421.145	1653.91
421.353	1664.15
421.561	1694.86
421.769	1817.74
421.977	1840.27
422.185	1752.21
422.393	1983.63
422.601	1991.82
422.809	2043.02
423.017	2079.88
423.224	2155.66
423.432	2217.1
423.64	2331.78
423.848	2477.19
424.056	2471.04
424.263	2499.72
424.471	2612.35
424.679	2720.9
424.887	2923.65
425.094	2790.53
425.302	2847.87
425.51	3042.43
425.718	3075.2
425.925	3165.31
426.133	3243.13
426.341	3466.36
426.548	3560.56
426.756	3503.22
426.964	3650.67
427.171	3845.23
427.379	3884.14
427.586	4004.97
427.794	4080.75
428.001	4383.85
428.209	4416.62
428.417	4478.05
428.624	4707.43
428.832	4586.6
429.039	4740.19
429.247	4559.97
429.454	5121.12
429.662	5510.23
429.869	5166.17
430.076	5477.46
430.284	5176.41
430.491	5528.66
430.699	5708.88
430.906	5930.06
431.114	5930.06
431.321	6149.2
431.528	6315.08
431.736	6706.24
431.943	7001.15
432.15	6763.59
432.358	7011.39
432.565	7052.35
432.772	7273.53
432.979	7494.71
433.187	7828.53
433.394	7773.24
433.601	8283.18
433.808	8274.99
434.016	8272.94
434.223	8520.74
434.43	8897.57
434.637	8975.39
434.844	9489.43
435.052	9845.78
435.259	9708.57
435.466	9649.18
435.673	9456.67
435.88	10368.01
436.087	10548.23
436.294	10966.02
436.501	10740.74
436.708	10683.4
436.915	11113.47
437.122	11813.88
437.329	11527.16
437.537	12153.84
437.743	12067.83
437.95	12073.97
438.157	12678.12
438.364	13073.38
438.571	13075.43
438.778	12927.97
438.985	14453.71
439.192	13708.25
439.399	14285.78
439.606	13857.75
439.813	14717.9
440.02	15647.68
440.227	15375.3
440.433	15252.42
440.64	15432.64
440.847	15473.6
441.054	16139.19
441.261	17134.5
441.467	16675.76
441.674	17200.04
441.881	17767.32
442.088	17752.99
442.294	17765.28
442.501	18164.63
442.708	18166.68
442.914	19301.25
443.121	20020.09
443.328	19411.84
443.534	20790.13
443.741	20097.91
443.948	19938.17
444.154	21486.43
444.361	21295.97
444.568	21355.36
444.774	21461.86
444.981	21717.86
445.187	22252.38
445.394	23092.04
445.6	22616.91
445.807	25133.87
446.013	24003.39
446.22	24691.51
446.426	25160.49
446.633	25735.97
446.839	26583.83
447.046	25602.85
447.252	26907.41
447.459	26893.07
447.665	26673.94
447.871	27835.14
448.078	29104.88
448.284	27757.32
448.491	28455.67
448.697	29459.18
448.903	29948.64
449.11	30116.58
449.316	29438.7
449.522	30448.35
449.728	30948.05
449.935	31236.81
450.141	31101.65
450.347	31849.16
450.553	30597.85
450.76	30980.82
450.966	32006.85
451.172	31722.18
451.378	32750.26
451.584	31914.69
451.791	32707.26
451.997	32465.6
452.203	33133.23
452.409	32993.97
452.615	32729.78
452.821	31548.11
453.027	31503.05
453.233	33094.32
453.44	31273.68
453.646	32058.05
453.852	32187.07
454.058	32455.36
454.264	31359.69
454.47	32178.88
454.676	31359.69
454.882	32557.75
455.088	29592.3
455.294	30333.66
455.5	30503.64
455.705	30804.69
455.911	29559.53
456.117	28754.68
456.323	28656.37
456.529	27513.61
456.735	28105.47
456.941	27773.7
457.147	27349.77
457.352	26417.94
457.558	25959.2
457.764	26112.8
457.97	25543.46
458.176	24822.58
458.381	25185.07
458.587	23870.27
458.793	23790.4
458.999	22184.79
459.204	24165.18
459.41	23479.11
459.616	21664.61
459.821	21748.57
460.027	21836.64
460.233	21551.97
460.438	20231.03
460.644	20579.18
460.85	19377.03
461.055	19327.88
461.261	19211.14
461.466	17894.3
461.672	17392.55
461.878	18783.12
462.083	17417.12
462.289	17109.93
462.494	16898.98
462.7	16188.34
462.905	15621.05
463.111	16415.66
463.316	16266.16
463.522	15768.51
463.727	16184.24
463.932	15875
464.138	15727.55
464.343	15713.21
464.549	15352.77
464.754	16112.56
464.959	15930.3
465.165	15627.2
465.37	14961.61
465.575	14721.99
465.781	15041.48
465.986	15586.24
466.191	15055.81
466.397	14404.56
466.602	13849.56
466.807	14306.26
467.012	14400.46
467.218	14134.23
467.423	14175.19
467.628	14134.23
467.833	14613.45
