Data from USB4F104151__23__11-05-04-333.txt Node

Date: Wed Mar 12 11:05:04 EDT 2025
User: louis
Spectrometer: USB4F10415
Trigger mode: 4
Integration Time (sec): 2.000000E-2
Scans to average: 1
Electric dark correction enabled: true
Nonlinearity correction enabled: false
Boxcar width: 0
XAxis mode: Wavelengths
Number of Pixels in Spectrum: 3648
>>>>>Begin Spectral Data<<<<<
178.204	-41.81
178.424	-41.81
178.644	-41.81
178.864	-76.63
179.084	-195.41
179.304	-43.86
179.524	-4.95
179.744	-35.67
179.964	74.92
180.184	50.35
180.404	25.77
180.624	-35.67
180.844	7.34
181.064	-25.43
181.283	-17.24
181.503	-17.24
181.723	21.67
181.943	-70.48
182.163	58.54
182.383	-27.48
182.602	38.06
182.822	85.16
183.042	5.29
183.262	50.35
183.482	-74.58
183.701	1.19
183.921	-2.9
184.141	17.58
184.361	5.29
184.58	25.77
184.8	9.39
185.02	-25.43
185.239	62.63
185.459	29.87
185.679	85.16
185.898	-19.29
186.118	93.35
186.338	17.58
186.557	-7
186.777	-84.82
186.997	-21.33
187.216	-29.52
187.436	72.87
187.655	44.2
187.875	-29.52
188.095	-0.85
188.314	25.77
188.534	54.44
188.753	-27.48
188.973	99.5
189.192	56.49
189.412	62.63
189.631	46.25
189.851	-33.62
190.07	17.58
190.29	36.01
190.509	-4.95
190.729	13.48
190.948	1.19
191.168	76.97
191.387	91.31
191.607	-4.95
191.826	54.44
192.045	46.25
192.265	3.24
192.484	42.15
192.704	50.35
192.923	44.2
193.142	103.59
193.362	-33.62
193.581	9.39
193.8	42.15
194.02	58.54
194.239	-27.48
194.458	44.2
194.678	1.19
194.897	7.34
195.116	21.67
195.335	46.25
195.555	-2.9
195.774	-2.9
195.993	-2.9
196.212	-21.33
196.432	-41.81
196.651	-2.9
196.87	-45.91
197.089	56.49
197.308	-29.52
197.528	60.59
197.747	-23.38
197.966	44.2
198.185	58.54
198.404	9.39
198.623	-80.72
198.842	13.48
199.062	70.83
199.281	-31.57
199.5	25.77
199.719	66.73
199.938	48.3
200.157	-35.67
200.376	50.35
200.595	-11.09
200.814	68.78
201.033	19.63
201.252	-4.95
201.471	17.58
201.69	-13.14
201.909	117.93
202.128	-11.09
202.347	-47.96
202.566	54.44
202.785	3.24
203.004	-68.44
203.223	21.67
203.442	-62.29
203.661	-17.24
203.879	31.91
204.098	40.11
204.317	11.43
204.536	44.2
204.755	9.39
204.974	56.49
205.193	64.68
205.411	58.54
205.63	103.59
205.849	25.77
206.068	44.2
206.287	54.44
206.505	-29.52
206.724	44.2
206.943	29.87
207.162	40.11
207.381	-4.95
207.599	17.58
207.818	9.39
208.037	-43.86
208.255	13.48
208.474	38.06
208.693	40.11
208.911	64.68
209.13	-37.72
209.349	-2.9
209.567	46.25
209.786	117.93
210.005	19.63
210.223	27.82
210.442	13.48
210.661	68.78
210.879	-13.14
211.098	70.83
211.316	-21.33
211.535	-37.72
211.753	1.19
211.972	-27.48
212.191	-27.48
212.409	11.43
212.628	76.97
212.846	60.59
213.065	-13.14
213.283	13.48
213.502	21.67
213.72	44.2
213.938	42.15
214.157	-21.33
214.375	25.77
214.594	9.39
214.812	68.78
215.031	79.02
215.249	54.44
215.467	54.44
215.686	38.06
215.904	-37.72
216.122	-35.67
216.341	21.67
216.559	46.25
216.778	107.69
216.996	-21.33
217.214	83.11
217.432	33.96
217.651	64.68
217.869	29.87
218.087	29.87
218.306	-2.9
218.524	85.16
218.742	-13.14
218.96	-11.09
219.179	-4.95
219.397	15.53
219.615	122.02
219.833	17.58
220.051	44.2
220.27	58.54
220.488	83.11
220.706	-19.29
220.924	58.54
221.142	5.29
221.36	70.83
221.578	1.19
221.796	-2.9
222.015	31.91
222.233	111.78
222.451	-2.9
222.669	-25.43
222.887	46.25
223.105	38.06
223.323	15.53
223.541	-2.9
223.759	-23.38
223.977	-41.81
224.195	60.59
224.413	25.77
224.631	68.78
224.849	44.2
225.067	95.4
225.285	60.59
225.503	74.92
225.721	-60.24
225.939	25.77
226.157	-13.14
226.375	115.88
226.592	-31.57
226.81	54.44
227.028	1.19
227.246	64.68
227.464	50.35
227.682	62.63
227.9	68.78
228.117	-78.68
228.335	38.06
228.553	-64.34
228.771	36.01
228.989	103.59
229.206	-37.72
229.424	-17.24
229.642	1.19
229.86	76.97
230.077	46.25
230.295	-11.09
230.513	50.35
230.731	60.59
230.948	5.29
231.166	115.88
231.384	70.83
231.601	68.78
231.819	79.02
232.037	33.96
232.254	-25.43
232.472	19.63
232.689	50.35
232.907	50.35
233.125	81.07
233.342	-19.29
233.56	-13.14
233.777	60.59
233.995	-11.09
234.213	33.96
234.43	-9.05
234.648	25.77
234.865	-0.85
235.083	31.91
235.3	-29.52
235.518	-0.85
235.735	-7
235.953	48.3
236.17	9.39
236.388	33.96
236.605	-7
236.822	9.39
237.04	25.77
237.257	-2.9
237.475	-9.05
237.692	74.92
237.909	56.49
238.127	-4.95
238.344	7.34
238.562	23.72
238.779	-52.05
238.996	21.67
239.214	9.39
239.431	-4.95
239.648	-9.05
239.865	70.83
240.083	21.67
240.3	58.54
240.517	62.63
240.735	11.43
240.952	-29.52
241.169	48.3
241.386	9.39
241.603	-2.9
241.821	31.91
242.038	56.49
242.255	25.77
242.472	76.97
242.689	72.87
242.907	48.3
243.124	-17.24
243.341	-13.14
243.558	38.06
243.775	-27.48
243.992	-43.86
244.209	-25.43
244.426	36.01
244.643	76.97
244.86	93.35
245.078	17.58
245.295	31.91
245.512	-2.9
245.729	21.67
245.946	-37.72
246.163	29.87
246.38	62.63
246.597	27.82
246.814	13.48
247.031	17.58
247.248	21.67
247.464	44.2
247.681	13.48
247.898	50.35
248.115	79.02
248.332	-2.9
248.549	44.2
248.766	99.5
248.983	27.82
249.2	76.97
249.417	1.19
249.633	29.87
249.85	23.72
250.067	-11.09
250.284	-2.9
250.501	-13.14
250.717	40.11
250.934	-80.72
251.151	72.87
251.368	-41.81
251.585	105.64
251.801	66.73
252.018	-4.95
252.235	83.11
252.451	25.77
252.668	25.77
252.885	64.68
253.102	11.43
253.318	87.21
253.535	50.35
253.752	13.48
253.968	38.06
254.185	31.91
254.401	85.16
254.618	42.15
254.835	9.39
255.051	83.11
255.268	38.06
255.484	66.73
255.701	-2.9
255.917	72.87
256.134	-7
256.351	83.11
256.567	25.77
256.784	7.34
257	-7
257.217	29.87
257.433	-84.82
257.65	42.15
257.866	48.3
258.082	-47.96
258.299	40.11
258.515	42.15
258.732	-19.29
258.948	66.73
259.165	58.54
259.381	9.39
259.597	27.82
259.814	60.59
260.03	44.2
260.246	17.58
260.463	9.39
260.679	50.35
260.895	-9.05
261.112	66.73
261.328	-19.29
261.544	-4.95
261.761	42.15
261.977	3.24
262.193	-4.95
262.409	38.06
262.626	40.11
262.842	-105.3
263.058	33.96
263.274	48.3
263.49	9.39
263.707	-2.9
263.923	36.01
264.139	-13.14
264.355	1.19
264.571	25.77
264.787	-35.67
265.004	21.67
265.22	-21.33
265.436	33.96
265.652	-0.85
265.868	-2.9
266.084	29.87
266.3	27.82
266.516	-7
266.732	105.64
266.948	19.63
267.164	-15.19
267.38	-33.62
267.596	3.24
267.812	40.11
268.028	15.53
268.244	13.48
268.46	48.3
268.676	40.11
268.892	19.63
269.108	-21.33
269.324	11.43
269.54	1.19
269.756	111.78
269.972	21.67
270.188	-15.19
270.403	48.3
270.619	19.63
270.835	-17.24
271.051	3.24
271.267	38.06
271.483	25.77
271.698	-4.95
271.914	11.43
272.13	-11.09
272.346	-4.95
272.562	23.72
272.777	21.67
272.993	76.97
273.209	83.11
273.425	85.16
273.64	60.59
273.856	87.21
274.072	42.15
274.287	48.3
274.503	58.54
274.719	31.91
274.934	-9.05
275.15	13.48
275.366	70.83
275.581	38.06
275.797	-13.14
276.012	-11.09
276.228	-21.33
276.444	21.67
276.659	111.78
276.875	-7
277.09	-13.14
277.306	21.67
277.521	91.31
277.737	-13.14
277.952	21.67
278.168	74.92
278.383	19.63
278.599	-19.29
278.814	27.82
279.03	5.29
279.245	72.87
279.461	40.11
279.676	87.21
279.892	-21.33
280.107	83.11
280.322	54.44
280.538	9.39
280.753	-2.9
280.969	38.06
281.184	31.91
281.399	3.24
281.615	21.67
281.83	50.35
282.045	-27.48
282.26	-45.91
282.476	13.48
282.691	23.72
282.906	-13.14
283.122	33.96
283.337	27.82
283.552	13.48
283.767	44.2
283.983	-19.29
284.198	-17.24
284.413	89.26
284.628	-13.14
284.843	-25.43
285.058	54.44
285.274	27.82
285.489	13.48
285.704	79.02
285.919	3.24
286.134	29.87
286.349	31.91
286.564	85.16
286.779	66.73
286.995	9.39
287.21	-13.14
287.425	48.3
287.64	15.53
287.855	29.87
288.07	-27.48
288.285	68.78
288.5	5.29
288.715	62.63
288.93	-2.9
289.145	48.3
289.36	40.11
289.575	46.25
289.79	17.58
290.004	52.39
290.219	13.48
290.434	115.88
290.649	-47.96
290.864	-27.48
291.079	56.49
291.294	1.19
291.509	23.72
291.724	21.67
291.938	-29.52
292.153	107.69
292.368	58.54
292.583	15.53
292.798	109.74
293.012	50.35
293.227	27.82
293.442	21.67
293.657	5.29
293.871	3.24
294.086	27.82
294.301	74.92
294.516	42.15
294.73	87.21
294.945	-39.76
295.16	19.63
295.374	87.21
295.589	42.15
295.804	-2.9
296.018	50.35
296.233	11.43
296.447	7.34
296.662	23.72
296.877	29.87
297.091	-29.52
297.306	48.3
297.52	-21.33
297.735	-35.67
297.949	60.59
298.164	33.96
298.378	25.77
298.593	27.82
298.807	-29.52
299.022	17.58
299.236	23.72
299.451	38.06
299.665	64.68
299.88	17.58
300.094	-41.81
300.309	1.19
300.523	-33.62
300.737	72.87
300.952	17.58
301.166	29.87
301.381	40.11
301.595	44.2
301.809	50.35
302.024	29.87
302.238	62.63
302.452	9.39
302.667	48.3
302.881	11.43
303.095	48.3
303.309	-31.57
303.524	25.77
303.738	46.25
303.952	48.3
304.166	7.34
304.381	15.53
304.595	44.2
304.809	-33.62
305.023	-0.85
305.237	-13.14
305.452	58.54
305.666	-0.85
305.88	60.59
306.094	-2.9
306.308	-21.33
306.522	-23.38
306.736	-17.24
306.95	40.11
307.164	27.82
307.379	3.24
307.593	33.96
307.807	5.29
308.021	42.15
308.235	-7
308.449	-13.14
308.663	7.34
308.877	38.06
309.091	42.15
309.305	25.77
309.519	33.96
309.733	60.59
309.947	-13.14
310.161	36.01
310.374	42.15
310.588	25.77
310.802	109.74
311.016	87.21
311.23	50.35
311.444	62.63
311.658	-19.29
311.872	-13.14
312.085	9.39
312.299	60.59
312.513	97.45
312.727	50.35
312.941	23.72
313.154	17.58
313.368	99.5
313.582	48.3
313.796	13.48
314.009	15.53
314.223	66.73
314.437	-2.9
314.651	11.43
314.864	33.96
315.078	11.43
315.292	13.48
315.505	17.58
315.719	-15.19
315.933	29.87
316.146	50.35
316.36	23.72
316.573	79.02
316.787	54.44
317.001	33.96
317.214	50.35
317.428	56.49
317.641	25.77
317.855	21.67
318.068	70.83
318.282	-25.43
318.495	-11.09
318.709	54.44
318.922	-9.05
319.136	40.11
319.349	13.48
319.563	21.67
319.776	25.77
319.99	56.49
320.203	74.92
320.417	38.06
320.63	93.35
320.843	15.53
321.057	-2.9
321.27	21.67
321.483	56.49
321.697	50.35
321.91	42.15
322.124	38.06
322.337	31.91
322.55	38.06
322.763	29.87
322.977	15.53
323.19	1.19
323.403	33.96
323.617	21.67
323.83	76.97
324.043	-11.09
324.256	21.67
324.469	21.67
324.683	38.06
324.896	-25.43
325.109	1.19
325.322	23.72
325.535	42.15
325.748	40.11
325.962	62.63
326.175	33.96
326.388	-11.09
326.601	25.77
326.814	70.83
327.027	17.58
327.24	62.63
327.453	36.01
327.666	50.35
327.879	56.49
328.092	85.16
328.305	91.31
328.518	-25.43
328.731	74.92
328.944	19.63
329.157	31.91
329.37	54.44
329.583	15.53
329.796	60.59
330.009	-47.96
330.222	17.58
330.435	44.2
330.648	58.54
330.861	19.63
331.073	31.91
331.286	-19.29
331.499	-21.33
331.712	38.06
331.925	-9.05
332.138	1.19
332.35	62.63
332.563	36.01
332.776	138.41
332.989	11.43
333.202	58.54
333.414	42.15
333.627	58.54
333.84	21.67
334.053	21.67
334.265	72.87
334.478	-13.14
334.691	62.63
334.903	9.39
335.116	-35.67
335.329	13.48
335.541	50.35
335.754	85.16
335.966	70.83
336.179	56.49
336.392	136.36
336.604	54.44
336.817	52.39
337.029	29.87
337.242	27.82
337.454	19.63
337.667	9.39
337.88	33.96
338.092	-21.33
338.305	46.25
338.517	-47.96
338.729	44.2
338.942	42.15
339.154	-9.05
339.367	9.39
339.579	74.92
339.792	62.63
340.004	7.34
340.217	38.06
340.429	33.96
340.641	64.68
340.854	21.67
341.066	-41.81
341.278	23.72
341.491	5.29
341.703	33.96
341.915	33.96
342.128	13.48
342.34	38.06
342.552	-15.19
342.764	5.29
342.977	36.01
343.189	85.16
343.401	17.58
343.613	-39.76
343.826	3.24
344.038	29.87
344.25	46.25
344.462	79.02
344.674	74.92
344.886	19.63
345.099	31.91
345.311	111.78
345.523	54.44
345.735	-31.57
345.947	-19.29
346.159	33.96
346.371	33.96
346.583	7.34
346.795	76.97
347.007	50.35
347.219	58.54
347.431	40.11
347.643	64.68
347.855	11.43
348.067	83.11
348.279	7.34
348.491	9.39
348.703	46.25
348.915	13.48
349.127	52.39
349.339	19.63
349.551	5.29
349.763	93.35
349.975	29.87
350.187	15.53
350.399	62.63
350.61	107.69
350.822	-9.05
351.034	42.15
351.246	29.87
351.458	89.26
351.669	29.87
351.881	44.2
352.093	119.98
352.305	44.2
352.517	33.96
352.728	128.17
352.94	-27.48
353.152	52.39
353.363	-7
353.575	48.3
353.787	70.83
353.999	72.87
354.21	144.55
354.422	3.24
354.633	-31.57
354.845	52.39
355.057	23.72
355.268	-4.95
355.48	21.67
355.692	122.02
355.903	-35.67
356.115	25.77
356.326	-52.05
356.538	66.73
356.749	109.74
356.961	85.16
357.172	19.63
357.384	91.31
357.595	-2.9
357.807	-0.85
358.018	89.26
358.23	70.83
358.441	23.72
358.653	144.55
358.864	76.97
359.075	-4.95
359.287	-7
359.498	117.93
359.709	31.91
359.921	17.58
360.132	97.45
360.344	-35.67
360.555	-2.9
360.766	25.77
360.977	19.63
361.189	19.63
361.4	-7
361.611	19.63
361.823	-2.9
362.034	-2.9
362.245	5.29
362.456	29.87
362.667	76.97
362.879	-0.85
363.09	42.15
363.301	52.39
363.512	42.15
363.723	-7
363.935	-35.67
364.146	70.83
364.357	21.67
364.568	46.25
364.779	-15.19
364.99	62.63
365.201	17.58
365.412	31.91
365.623	-4.95
365.834	36.01
366.045	-47.96
366.256	21.67
366.467	74.92
366.678	36.01
366.889	70.83
367.1	-19.29
367.311	95.4
367.522	36.01
367.733	68.78
367.944	119.98
368.155	25.77
368.366	11.43
368.577	91.31
368.788	72.87
368.999	83.11
369.209	46.25
369.42	83.11
369.631	130.22
369.842	-0.85
370.053	46.25
370.264	50.35
370.474	17.58
370.685	38.06
370.896	25.77
371.107	74.92
371.317	42.15
371.528	91.31
371.739	103.59
371.95	13.48
372.16	58.54
372.371	-4.95
372.582	50.35
372.792	76.97
373.003	31.91
373.214	1.19
373.424	117.93
373.635	11.43
373.846	33.96
374.056	62.63
374.267	29.87
374.477	36.01
374.688	64.68
374.898	68.78
375.109	46.25
375.319	68.78
375.53	74.92
375.74	42.15
375.951	60.59
376.161	97.45
376.372	58.54
376.582	50.35
376.793	70.83
377.003	64.68
377.214	33.96
377.424	52.39
377.635	60.59
377.845	31.91
378.055	27.82
378.266	25.77
378.476	-4.95
378.686	-9.05
378.897	58.54
379.107	33.96
379.317	5.29
379.528	-19.29
379.738	76.97
379.948	60.59
380.158	93.35
380.369	29.87
380.579	81.07
380.789	27.82
380.999	101.55
381.21	-4.95
381.42	79.02
381.63	13.48
381.84	89.26
382.05	56.49
382.261	72.87
382.471	44.2
382.681	9.39
382.891	21.67
383.101	38.06
383.311	68.78
383.521	21.67
383.731	48.3
383.941	89.26
384.151	-21.33
384.361	5.29
384.571	27.82
384.781	83.11
384.991	21.67
385.201	62.63
385.411	103.59
385.621	62.63
385.831	95.4
386.041	33.96
386.251	52.39
386.461	117.93
386.671	3.24
386.881	103.59
387.091	85.16
387.301	54.44
387.511	27.82
387.72	95.4
387.93	93.35
388.14	-7
388.35	74.92
388.56	66.73
388.769	68.78
388.979	17.58
389.189	31.91
389.399	-0.85
389.609	68.78
389.818	99.5
390.028	48.3
390.238	50.35
390.447	142.5
390.657	111.78
390.867	68.78
391.076	7.34
391.286	1.19
391.496	138.41
391.705	42.15
391.915	56.49
392.125	83.11
392.334	27.82
392.544	83.11
392.753	97.45
392.963	48.3
393.172	5.29
393.382	64.68
393.591	107.69
393.801	62.63
394.01	40.11
394.22	115.88
394.429	83.11
394.639	56.49
394.848	101.55
395.058	95.4
395.267	119.98
395.477	95.4
395.686	60.59
395.895	87.21
396.105	52.39
396.314	64.68
396.524	50.35
396.733	72.87
396.942	60.59
397.152	58.54
397.361	150.7
397.57	-19.29
397.78	109.74
397.989	119.98
398.198	193.7
398.407	50.35
398.617	58.54
398.826	68.78
399.035	140.46
399.244	95.4
399.453	79.02
399.663	128.17
399.872	42.15
400.081	54.44
400.29	85.16
400.499	74.92
400.708	107.69
400.917	85.16
401.127	70.83
401.336	171.18
401.545	154.79
401.754	175.27
401.963	81.07
402.172	177.32
402.381	97.45
402.59	119.98
402.799	146.6
403.008	72.87
403.217	109.74
403.426	115.88
403.635	60.59
403.844	101.55
404.053	115.88
404.262	148.65
404.471	183.46
404.68	74.92
404.888	130.22
405.097	152.74
405.306	91.31
405.515	185.51
405.724	138.41
405.933	95.4
406.142	148.65
406.35	152.74
406.559	183.46
406.768	203.94
406.977	195.75
407.185	197.8
407.394	171.18
407.603	130.22
407.812	242.85
408.02	193.7
408.229	134.31
408.438	222.38
408.646	218.28
408.855	277.67
409.064	246.95
409.272	228.52
409.481	232.62
409.69	265.38
409.898	162.98
410.107	259.24
410.315	330.92
410.524	167.08
410.733	357.54
410.941	253.09
411.15	253.09
411.358	287.91
411.567	335.01
411.775	326.82
411.984	359.59
412.192	320.68
412.401	396.45
412.609	414.88
412.818	369.83
413.026	527.52
413.234	441.51
413.443	451.75
413.651	500.9
413.86	461.99
414.068	531.62
414.276	578.72
414.485	527.52
414.693	519.33
414.901	597.15
415.11	613.54
415.318	576.67
415.526	619.68
415.734	642.21
415.943	584.87
416.151	795.81
416.359	713.89
416.567	660.64
416.776	732.32
416.984	750.75
417.192	896.16
417.4	877.73
417.608	840.86
417.817	890.01
418.025	879.77
418.233	926.88
418.441	973.98
418.649	992.41
418.857	1088.67
419.065	1160.34
419.273	1107.1
419.481	1184.92
419.689	1207.45
419.897	1180.82
420.105	1420.44
420.313	1361.05
420.521	1305.75
420.729	1289.37
420.937	1475.73
421.145	1510.55
421.353	1627.28
421.561	1660.05
421.769	1668.24
421.977	1744.02
422.185	1678.48
422.393	1934.48
422.601	1840.27
422.809	1866.89
423.017	2034.83
423.224	2073.74
423.432	2153.61
423.64	2221.19
423.848	2417.8
424.056	2352.26
424.263	2393.22
424.471	2415.75
424.679	2618.5
424.887	2669.7
425.094	2722.95
425.302	2788.48
425.51	2892.93
425.718	2925.69
425.925	2987.13
426.133	2892.93
426.341	3316.86
426.548	3329.14
426.756	3433.59
426.964	3525.75
427.171	3603.57
427.379	3781.74
427.586	3882.1
427.794	3789.94
428.001	4090.99
428.209	4277.35
428.417	4181.1
428.624	4535.4
428.832	4441.19
429.039	4447.33
429.247	4609.12
429.454	4858.98
429.662	5252.19
429.869	4901.98
430.076	5344.35
430.284	5112.92
430.491	5336.15
430.699	5758.03
430.906	5608.53
431.114	5719.12
431.321	6091.85
431.528	6038.61
431.736	6460.49
431.943	6802.5
432.15	6468.68
432.358	6536.26
432.565	6945.86
432.772	7029.82
432.979	7238.72
433.187	7273.53
433.394	7531.58
433.601	7842.87
433.808	7928.88
434.016	7867.44
434.223	8375.34
434.43	8784.93
434.637	8485.93
434.844	9188.38
435.052	9241.63
435.259	9303.07
435.466	9423.9
435.673	9405.47
435.88	9679.89
436.087	10482.7
436.294	10316.81
436.501	10159.12
436.708	10404.88
436.915	10697.74
437.122	11133.95
437.329	11252.73
437.537	11469.82
437.743	11684.86
437.95	11283.45
438.157	12159.99
438.364	12903.4
438.571	12545
438.778	12661.74
438.985	13728.73
439.192	13218.78
439.399	13648.86
439.606	13503.45
439.813	13919.19
440.02	15096.77
440.227	14799.82
440.433	14670.79
440.64	15244.23
440.847	15268.8
441.054	15465.41
441.261	16280.5
441.467	16229.3
441.674	16518.06
441.881	16997.29
442.088	16939.94
442.294	16974.76
442.501	17378.21
442.708	17804.19
442.914	18525.07
443.121	19172.23
443.328	18850.7
443.534	20095.86
443.741	19444.61
443.948	19331.97
444.154	20908.91
444.361	20542.32
444.568	20896.62
444.774	20730.73
444.981	20810.61
445.187	21416.8
445.394	22573.91
445.6	22139.74
445.807	24183.61
446.013	23147.34
446.22	23876.41
446.426	24861.49
446.633	24754.99
446.839	25525.03
447.046	24564.53
447.252	25985.82
447.459	25846.56
447.665	25662.24
447.871	26508.05
448.078	27937.54
448.284	26673.94
448.491	27288.33
448.697	28195.58
448.903	28699.38
449.11	28926.71
449.316	28269.31
449.522	29188.85
449.728	29692.65
449.935	29874.91
450.141	29948.64
450.347	30395.1
450.553	29358.83
450.76	30214.88
450.966	30644.95
451.172	30362.33
451.378	31505.1
451.584	30573.27
451.791	31441.61
451.997	31126.22
452.203	31783.62
452.409	31632.07
452.615	31099.6
452.821	30462.68
453.027	29793
453.233	31202
453.44	29979.36
453.646	30421.72
453.852	30304.99
454.058	30991.06
454.264	29719.27
454.47	30223.07
454.676	29780.71
454.882	30882.52
455.088	27734.79
455.294	28320.51
455.5	28480.25
455.705	28947.18
455.911	27689.73
456.117	27235.08
456.323	26927.89
456.529	25457.45
456.735	26405.66
456.941	25565.99
457.147	25301.8
457.352	24599.35
457.558	24179.51
457.764	24222.52
457.97	23964.48
458.176	23223.11
458.381	23237.45
458.587	22104.92
458.793	21844.83
458.999	20910.96
459.204	22395.73
459.41	21865.31
459.616	20405.11
459.821	20218.74
460.027	20587.38
460.233	19559.3
460.438	18619.28
460.644	19143.56
460.85	18289.56
461.055	17812.38
461.261	17712.03
461.466	16622.51
461.672	16036.79
461.878	17189.8
462.083	16128.95
462.289	15840.18
462.494	15600.57
462.7	14883.78
462.905	14359.5
463.111	14934.98
463.316	15102.92
463.522	14652.36
463.727	14830.54
463.932	14865.35
464.138	14601.16
464.343	14724.04
464.549	13994.97
464.754	14779.34
464.959	14545.87
465.165	14408.65
465.37	13904.85
465.575	13525.98
465.781	13976.53
465.986	14418.89
466.191	13816.79
466.397	13368.29
466.602	12962.79
466.807	13210.59
467.012	13239.26
467.218	13241.31
467.423	13220.83
467.628	13116.39
467.833	13749.21
468.038	13038.56
