Data from USB4F104151__156__11-08-32-070.txt Node

Date: Wed Mar 12 11:08:32 EDT 2025
User: louis
Spectrometer: USB4F10415
Trigger mode: 4
Integration Time (sec): 2.000000E-2
Scans to average: 1
Electric dark correction enabled: true
Nonlinearity correction enabled: false
Boxcar width: 0
XAxis mode: Wavelengths
Number of Pixels in Spectrum: 3648
>>>>>Begin Spectral Data<<<<<
178.204	-46.08
178.424	-46.08
178.644	-46.08
178.864	-44.03
179.084	-109.57
179.304	52.22
179.524	-17.41
179.744	7.17
179.964	33.79
180.184	-3.07
180.404	70.65
180.624	-62.46
180.844	-1.02
181.064	-76.8
181.283	-21.5
181.503	-33.79
181.723	52.22
181.943	5.12
182.163	89.09
182.383	64.51
182.602	50.18
182.822	64.51
183.042	5.12
183.262	-7.17
183.482	39.94
183.701	15.36
183.921	31.74
184.141	-3.07
184.361	138.24
184.58	-1.02
184.8	7.17
185.02	39.94
185.239	48.13
185.459	25.6
185.679	72.7
185.898	-37.89
186.118	25.6
186.338	-5.12
186.557	93.18
186.777	29.7
186.997	74.75
187.216	15.36
187.436	25.6
187.655	29.7
187.875	21.5
188.095	9.22
188.314	39.94
188.534	109.57
188.753	3.07
188.973	68.61
189.192	15.36
189.412	17.41
189.631	21.5
189.851	82.94
190.07	64.51
190.29	-11.26
190.509	37.89
190.729	-31.74
190.948	44.03
191.168	82.94
191.387	99.33
191.607	33.79
191.826	44.03
192.045	27.65
192.265	23.55
192.484	3.07
192.704	-60.42
192.923	-9.22
193.142	44.03
193.362	44.03
193.581	62.46
193.8	-11.26
194.02	-5.12
194.239	11.26
194.458	89.09
194.678	-37.89
194.897	1.02
195.116	66.56
195.335	-15.36
195.555	29.7
195.774	44.03
195.993	33.79
196.212	44.03
196.432	-21.5
196.651	9.22
196.87	-27.65
197.089	78.85
197.308	97.28
197.528	72.7
197.747	3.07
197.966	11.26
198.185	138.24
198.404	1.02
198.623	80.89
198.842	31.74
199.062	44.03
199.281	115.71
199.5	15.36
199.719	54.27
199.938	48.13
200.157	29.7
200.376	101.37
200.595	-11.26
200.814	115.71
201.033	27.65
201.252	95.23
201.471	84.99
201.69	76.8
201.909	54.27
202.128	58.37
202.347	-23.55
202.566	17.41
202.785	-9.22
203.004	39.94
203.223	93.18
203.442	13.31
203.661	-11.26
203.879	93.18
204.098	35.84
204.317	23.55
204.536	39.94
204.755	39.94
204.974	103.42
205.193	-23.55
205.411	35.84
205.63	1.02
205.849	13.31
206.068	39.94
206.287	5.12
206.505	54.27
206.724	15.36
206.943	50.18
207.162	82.94
207.381	62.46
207.599	46.08
207.818	-19.46
208.037	66.56
208.255	9.22
208.474	70.65
208.693	89.09
208.911	54.27
209.13	35.84
209.349	39.94
209.567	136.19
209.786	101.37
210.005	82.94
210.223	103.42
210.442	3.07
210.661	41.98
210.879	27.65
211.098	-5.12
211.316	46.08
211.535	-31.74
211.753	-17.41
211.972	-84.99
212.191	11.26
212.409	33.79
212.628	66.56
212.846	-25.6
213.065	132.09
213.283	62.46
213.502	82.94
213.72	58.37
213.938	19.46
214.157	101.37
214.375	33.79
214.594	27.65
214.812	23.55
215.031	-70.65
215.249	-21.5
215.467	-5.12
215.686	50.18
215.904	66.56
216.122	97.28
216.341	74.75
216.559	1.02
216.778	39.94
216.996	58.37
217.214	60.42
217.432	-9.22
217.651	80.89
217.869	-11.26
218.087	103.42
218.306	111.61
218.524	54.27
218.742	50.18
218.96	44.03
219.179	60.42
219.397	87.04
219.615	17.41
219.833	107.52
220.051	60.42
220.27	76.8
220.488	39.94
220.706	-31.74
220.924	68.61
221.142	87.04
221.36	21.5
221.578	52.22
221.796	84.99
222.015	5.12
222.233	-1.02
222.451	125.95
222.669	1.02
222.887	5.12
223.105	-39.94
223.323	25.6
223.541	-95.23
223.759	48.13
223.977	97.28
224.195	17.41
224.413	-29.7
224.631	-1.02
224.849	97.28
225.067	25.6
225.285	9.22
225.503	13.31
225.721	-17.41
225.939	-1.02
226.157	58.37
226.375	50.18
226.592	29.7
226.81	21.5
227.028	54.27
227.246	56.32
227.464	-9.22
227.682	105.47
227.9	35.84
228.117	-25.6
228.335	50.18
228.553	29.7
228.771	70.65
228.989	-3.07
229.206	91.13
229.424	15.36
229.642	-7.17
229.86	37.89
230.077	64.51
230.295	17.41
230.513	25.6
230.731	58.37
230.948	-9.22
231.166	25.6
231.384	31.74
231.601	-7.17
231.819	27.65
232.037	11.26
232.254	66.56
232.472	72.7
232.689	17.41
232.907	99.33
233.125	35.84
233.342	35.84
233.56	54.27
233.777	-7.17
233.995	39.94
234.213	64.51
234.43	15.36
234.648	62.46
234.865	44.03
235.083	70.65
235.3	11.26
235.518	-44.03
235.735	17.41
235.953	-5.12
236.17	29.7
236.388	15.36
236.605	37.89
236.822	52.22
237.04	15.36
237.257	66.56
237.475	-19.46
237.692	-29.7
237.909	82.94
238.127	44.03
238.344	80.89
238.562	44.03
238.779	48.13
238.996	44.03
239.214	58.37
239.431	68.61
239.648	9.22
239.865	103.42
240.083	25.6
240.3	-1.02
240.517	35.84
240.735	52.22
240.952	-11.26
241.169	35.84
241.386	62.46
241.603	9.22
241.821	50.18
242.038	84.99
242.255	48.13
242.472	29.7
242.689	-56.32
242.907	99.33
243.124	23.55
243.341	72.7
243.558	13.31
243.775	89.09
243.992	-41.98
244.209	39.94
244.426	33.79
244.643	52.22
244.86	37.89
245.078	103.42
245.295	138.24
245.512	54.27
245.729	9.22
245.946	11.26
246.163	60.42
246.38	62.46
246.597	27.65
246.814	25.6
247.031	41.98
247.248	101.37
247.464	31.74
247.681	46.08
247.898	48.13
248.115	17.41
248.332	31.74
248.549	101.37
248.766	78.85
248.983	119.81
249.2	19.46
249.417	62.46
249.633	-15.36
249.85	72.7
250.067	21.5
250.284	-25.6
250.501	123.9
250.717	31.74
250.934	-41.98
251.151	68.61
251.368	52.22
251.585	-9.22
251.801	33.79
252.018	33.79
252.235	-23.55
252.451	-33.79
252.668	-7.17
252.885	33.79
253.102	64.51
253.318	80.89
253.535	50.18
253.752	68.61
253.968	3.07
254.185	-44.03
254.401	119.81
254.618	15.36
254.835	21.5
255.051	93.18
255.268	74.75
255.484	50.18
255.701	29.7
255.917	58.37
256.134	3.07
256.351	46.08
256.567	17.41
256.784	105.47
257	-9.22
257.217	23.55
257.433	-31.74
257.65	78.85
257.866	21.5
258.082	-7.17
258.299	7.17
258.515	31.74
258.732	62.46
258.948	15.36
259.165	33.79
259.381	50.18
259.597	44.03
259.814	15.36
260.03	46.08
260.246	80.89
260.463	39.94
260.679	56.32
260.895	46.08
261.112	33.79
261.328	-7.17
261.544	62.46
261.761	37.89
261.977	-5.12
262.193	1.02
262.409	154.62
262.626	1.02
262.842	-11.26
263.058	27.65
263.274	27.65
263.49	33.79
263.707	115.71
263.923	89.09
264.139	-15.36
264.355	-39.94
264.571	44.03
264.787	37.89
265.004	46.08
265.22	48.13
265.436	17.41
265.652	44.03
265.868	60.42
266.084	-1.02
266.3	33.79
266.516	-1.02
266.732	76.8
266.948	19.46
267.164	39.94
267.38	72.7
267.596	21.5
267.812	-1.02
268.028	37.89
268.244	39.94
268.46	-3.07
268.676	27.65
268.892	39.94
269.108	17.41
269.324	-29.7
269.54	-15.36
269.756	19.46
269.972	23.55
270.188	50.18
270.403	39.94
270.619	54.27
270.835	-5.12
271.051	-7.17
271.267	25.6
271.483	1.02
271.698	-9.22
271.914	72.7
272.13	9.22
272.346	46.08
272.562	58.37
272.777	78.85
272.993	21.5
273.209	54.27
273.425	23.55
273.64	66.56
273.856	84.99
274.072	136.19
274.287	15.36
274.503	66.56
274.719	115.71
274.934	5.12
275.15	-46.08
275.366	74.75
275.581	56.32
275.797	-11.26
276.012	50.18
276.228	103.42
276.444	23.55
276.659	46.08
276.875	87.04
277.09	29.7
277.306	-23.55
277.521	41.98
277.737	-3.07
277.952	33.79
278.168	27.65
278.383	76.8
278.599	17.41
278.814	46.08
279.03	154.62
279.245	-27.65
279.461	-17.41
279.676	50.18
279.892	7.17
280.107	68.61
280.322	29.7
280.538	89.09
280.753	68.61
280.969	3.07
281.184	117.76
281.399	103.42
281.615	70.65
281.83	119.81
282.045	70.65
282.26	35.84
282.476	3.07
282.691	56.32
282.906	9.22
283.122	-82.94
283.337	78.85
283.552	50.18
283.767	37.89
283.983	97.28
284.198	9.22
284.413	60.42
284.628	31.74
284.843	97.28
285.058	46.08
285.274	39.94
285.489	-68.61
285.704	68.61
285.919	-15.36
286.134	99.33
286.349	-11.26
286.564	33.79
286.779	46.08
286.995	-37.89
287.21	11.26
287.425	21.5
287.64	-9.22
287.855	123.9
288.07	60.42
288.285	21.5
288.5	93.18
288.715	-21.5
288.93	35.84
289.145	74.75
289.36	128
289.575	15.36
289.79	78.85
290.004	78.85
290.219	56.32
290.434	-23.55
290.649	17.41
290.864	41.98
291.079	72.7
291.294	19.46
291.509	25.6
291.724	93.18
291.938	111.61
292.153	33.79
292.368	29.7
292.583	99.33
292.798	72.7
293.012	-7.17
293.227	21.5
293.442	37.89
293.657	99.33
293.871	93.18
294.086	23.55
294.301	54.27
294.516	-1.02
294.73	29.7
294.945	62.46
295.16	72.7
295.374	87.04
295.589	62.46
295.804	19.46
296.018	93.18
296.233	66.56
296.447	58.37
296.662	19.46
296.877	35.84
297.091	97.28
297.306	52.22
297.52	66.56
297.735	29.7
297.949	7.17
298.164	91.13
298.378	109.57
298.593	-15.36
298.807	23.55
299.022	37.89
299.236	41.98
299.451	41.98
299.665	60.42
299.88	56.32
300.094	39.94
300.309	25.6
300.523	31.74
300.737	7.17
300.952	41.98
301.166	66.56
301.381	54.27
301.595	37.89
301.809	1.02
302.024	99.33
302.238	-7.17
302.452	-5.12
302.667	17.41
302.881	70.65
303.095	103.42
303.309	46.08
303.524	78.85
303.738	50.18
303.952	3.07
304.166	68.61
304.381	15.36
304.595	91.13
304.809	25.6
305.023	58.37
305.237	3.07
305.452	46.08
305.666	31.74
305.88	56.32
306.094	39.94
306.308	82.94
306.522	115.71
306.736	54.27
306.95	-1.02
307.164	41.98
307.379	52.22
307.593	72.7
307.807	-21.5
308.021	74.75
308.235	3.07
308.449	-25.6
308.663	70.65
308.877	50.18
309.091	50.18
309.305	31.74
309.519	-19.46
309.733	87.04
309.947	-37.89
310.161	70.65
310.374	50.18
310.588	64.51
310.802	76.8
311.016	-7.17
311.23	21.5
311.444	25.6
311.658	62.46
311.872	64.51
312.085	62.46
312.299	37.89
312.513	17.41
312.727	-33.79
312.941	82.94
313.154	-35.84
313.368	70.65
313.582	25.6
313.796	56.32
314.009	54.27
314.223	68.61
314.437	17.41
314.651	66.56
314.864	54.27
315.078	25.6
315.292	-25.6
315.505	33.79
315.719	70.65
315.933	144.38
316.146	66.56
316.36	60.42
316.573	117.76
316.787	44.03
317.001	-23.55
317.214	64.51
317.428	9.22
317.641	21.5
317.855	39.94
318.068	148.48
318.282	-1.02
318.495	15.36
318.709	17.41
318.922	35.84
319.136	117.76
319.349	41.98
319.563	121.85
319.776	54.27
319.99	-11.26
320.203	91.13
320.417	78.85
320.63	60.42
320.843	117.76
321.057	3.07
321.27	50.18
321.483	7.17
321.697	48.13
321.91	95.23
322.124	64.51
322.337	91.13
322.55	80.89
322.763	72.7
322.977	50.18
323.19	80.89
323.403	54.27
323.617	-9.22
323.83	-1.02
324.043	15.36
324.256	1.02
324.469	54.27
324.683	37.89
324.896	82.94
325.109	7.17
325.322	-33.79
325.535	101.37
325.748	29.7
325.962	15.36
326.175	35.84
326.388	128
326.601	-23.55
326.814	35.84
327.027	66.56
327.24	54.27
327.453	35.84
327.666	7.17
327.879	68.61
328.092	13.31
328.305	-25.6
328.518	37.89
328.731	87.04
328.944	5.12
329.157	76.8
329.37	-7.17
329.583	115.71
329.796	33.79
330.009	25.6
330.222	50.18
330.435	93.18
330.648	93.18
330.861	11.26
331.073	5.12
331.286	64.51
331.499	41.98
331.712	84.99
331.925	-19.46
332.138	13.31
332.35	80.89
332.563	21.5
332.776	119.81
332.989	48.13
333.202	128
333.414	82.94
333.627	91.13
333.84	11.26
334.053	37.89
334.265	64.51
334.478	-41.98
334.691	84.99
334.903	99.33
335.116	72.7
335.329	44.03
335.541	130.05
335.754	76.8
335.966	11.26
336.179	48.13
336.392	60.42
336.604	-15.36
336.817	84.99
337.029	50.18
337.242	-44.03
337.454	3.07
337.667	37.89
337.88	84.99
338.092	54.27
338.305	25.6
338.517	21.5
338.729	48.13
338.942	-7.17
339.154	60.42
339.367	99.33
339.579	60.42
339.792	56.32
340.004	-5.12
340.217	-23.55
340.429	25.6
340.641	33.79
340.854	82.94
341.066	-11.26
341.278	107.52
341.491	31.74
341.703	15.36
341.915	37.89
342.128	136.19
342.34	35.84
342.552	-41.98
342.764	46.08
342.977	48.13
343.189	46.08
343.401	29.7
343.613	41.98
343.826	46.08
344.038	46.08
344.25	46.08
344.462	41.98
344.674	23.55
344.886	76.8
345.099	27.65
345.311	9.22
345.523	70.65
345.735	80.89
345.947	138.24
346.159	74.75
346.371	142.33
346.583	66.56
346.795	95.23
347.007	76.8
347.219	84.99
347.431	84.99
347.643	54.27
347.855	44.03
348.067	29.7
348.279	62.46
348.491	39.94
348.703	21.5
348.915	25.6
349.127	17.41
349.339	39.94
349.551	52.22
349.763	152.57
349.975	39.94
350.187	82.94
350.399	46.08
350.61	46.08
350.822	48.13
351.034	31.74
351.246	76.8
351.458	82.94
351.669	74.75
351.881	23.55
352.093	1.02
352.305	9.22
352.517	168.96
352.728	48.13
352.94	56.32
353.152	72.7
353.363	19.46
353.575	-35.84
353.787	103.42
353.999	107.52
354.21	130.05
354.422	93.18
354.633	70.65
354.845	93.18
355.057	87.04
355.268	76.8
355.48	39.94
355.692	37.89
355.903	68.61
356.115	70.65
356.326	-7.17
356.538	142.33
356.749	80.89
356.961	87.04
357.172	-13.31
357.384	41.98
357.595	121.85
357.807	15.36
358.018	66.56
358.23	50.18
358.441	119.81
358.653	41.98
358.864	39.94
359.075	52.22
359.287	54.27
359.498	121.85
359.709	78.85
359.921	58.37
360.132	-17.41
360.344	87.04
360.555	50.18
360.766	74.75
360.977	64.51
361.189	41.98
361.4	82.94
361.611	166.91
361.823	64.51
362.034	99.33
362.245	1.02
362.456	-7.17
362.667	-15.36
362.879	72.7
363.09	-9.22
363.301	78.85
363.512	99.33
363.723	123.9
363.935	23.55
364.146	119.81
364.357	21.5
364.568	31.74
364.779	60.42
364.99	132.09
365.201	35.84
365.412	60.42
365.623	-13.31
365.834	91.13
366.045	-27.65
366.256	87.04
366.467	13.31
366.678	78.85
366.889	-41.98
367.1	56.32
367.311	105.47
367.522	76.8
367.733	7.17
367.944	119.81
368.155	58.37
368.366	60.42
368.577	23.55
368.788	70.65
368.999	3.07
369.209	76.8
369.42	154.62
369.631	144.38
369.842	76.8
370.053	64.51
370.264	25.6
370.474	25.6
370.685	15.36
370.896	60.42
371.107	95.23
371.317	74.75
371.528	84.99
371.739	107.52
371.95	56.32
372.16	136.19
372.371	52.22
372.582	37.89
372.792	56.32
373.003	87.04
373.214	21.5
373.424	125.95
373.635	48.13
373.846	105.47
374.056	123.9
374.267	44.03
374.477	140.29
374.688	46.08
374.898	-27.65
375.109	13.31
375.319	66.56
375.53	105.47
375.74	58.37
375.951	7.17
376.161	82.94
376.372	89.09
376.582	39.94
376.793	70.65
377.003	62.46
377.214	87.04
377.424	60.42
377.635	29.7
377.845	107.52
378.055	48.13
378.266	46.08
378.476	113.66
378.686	74.75
378.897	84.99
379.107	3.07
379.317	160.77
379.528	50.18
379.738	115.71
379.948	-1.02
380.158	5.12
380.369	-25.6
380.579	84.99
380.789	80.89
380.999	74.75
381.21	31.74
381.42	138.24
381.63	-33.79
381.84	119.81
382.05	56.32
382.261	80.89
382.471	41.98
382.681	7.17
382.891	80.89
383.101	109.57
383.311	87.04
383.521	54.27
383.731	115.71
383.941	95.23
384.151	27.65
384.361	123.9
384.571	132.09
384.781	25.6
384.991	64.51
385.201	84.99
385.411	146.43
385.621	70.65
385.831	93.18
386.041	7.17
386.251	80.89
386.461	115.71
386.671	89.09
386.881	148.48
387.091	148.48
387.301	99.33
387.511	31.74
387.72	72.7
387.93	111.61
388.14	21.5
388.35	44.03
388.56	125.95
388.769	115.71
388.979	48.13
389.189	9.22
389.399	117.76
389.609	66.56
389.818	93.18
390.028	121.85
390.238	70.65
390.447	84.99
390.657	-1.02
390.867	84.99
391.076	62.46
391.286	66.56
391.496	64.51
391.705	91.13
391.915	103.42
392.125	105.47
392.334	21.5
392.544	41.98
392.753	111.61
392.963	74.75
393.172	89.09
393.382	103.42
393.591	136.19
393.801	123.9
394.01	144.38
394.22	76.8
394.429	130.05
394.639	87.04
394.848	142.33
395.058	99.33
395.267	93.18
395.477	138.24
395.686	68.61
395.895	146.43
396.105	132.09
396.314	181.25
396.524	109.57
396.733	115.71
396.942	132.09
397.152	105.47
397.361	60.42
397.57	115.71
397.78	183.29
397.989	48.13
398.198	144.38
398.407	146.43
398.617	119.81
398.826	105.47
399.035	125.95
399.244	189.44
399.453	136.19
399.663	74.75
399.872	70.65
400.081	87.04
400.29	148.48
400.499	179.2
400.708	171.01
400.917	115.71
401.127	140.29
401.336	142.33
401.545	175.1
401.754	177.15
401.963	146.43
402.172	148.48
402.381	214.01
402.59	93.18
402.799	158.72
403.008	134.14
403.217	142.33
403.426	179.2
403.635	148.48
403.844	171.01
404.053	130.05
404.262	140.29
404.471	173.05
404.68	138.24
404.888	154.62
405.097	148.48
405.306	187.39
405.515	181.25
405.724	224.25
405.933	203.77
406.142	216.06
406.35	236.54
406.559	218.11
406.768	224.25
406.977	285.69
407.185	199.68
407.394	259.07
407.603	234.49
407.812	254.97
408.02	371.71
408.229	222.2
408.438	238.59
408.646	320.51
408.855	248.83
409.064	300.03
409.272	287.74
409.481	396.28
409.69	404.47
409.898	314.36
410.107	320.51
410.315	392.19
410.524	453.63
410.733	383.99
410.941	343.03
411.15	406.52
411.358	461.82
411.567	508.92
411.775	525.3
411.984	492.54
412.192	519.16
412.401	545.78
412.609	531.45
412.818	599.03
413.026	568.31
413.234	707.57
413.443	664.57
413.651	674.81
413.86	668.66
414.068	699.38
414.276	756.72
414.485	687.09
414.693	791.54
414.901	840.69
415.11	787.44
415.318	885.75
415.526	873.46
415.734	953.33
415.943	984.05
416.151	1078.26
416.359	1029.1
416.567	1076.21
416.776	1106.93
416.984	1184.75
417.192	1108.98
417.4	1188.85
417.608	1127.41
417.817	1270.76
418.025	1295.34
418.233	1303.53
418.441	1418.22
418.649	1340.4
418.857	1510.38
419.065	1571.82
419.273	1547.24
419.481	1479.66
419.689	1770.47
419.897	1817.57
420.105	1844.2
420.313	1950.69
420.521	1909.73
420.729	1924.07
420.937	2024.42
421.145	2085.86
421.353	2147.3
421.561	2208.73
421.769	2380.76
421.977	2339.8
422.185	2401.24
422.393	2563.03
422.601	2663.38
422.809	2679.77
423.017	2853.84
423.224	2794.45
423.432	3093.46
423.64	3036.11
423.848	3210.19
424.056	3331.02
424.263	3417.04
424.471	3378.12
424.679	3468.24
424.887	3664.84
425.094	3840.97
425.302	3771.33
425.51	4119.49
425.718	4058.05
425.925	4019.14
426.133	4301.76
426.341	4363.2
426.548	4811.7
426.756	4643.77
426.964	4729.78
427.171	5036.98
427.379	5098.42
427.586	5258.16
427.794	5389.23
428.001	5671.85
428.209	5843.88
428.417	5819.3
428.624	6247.33
428.832	6394.78
429.039	6060.96
429.247	6159.27
429.454	6575
429.662	7068.56
429.869	6699.93
430.076	7277.46
430.284	7025.56
430.491	7316.37
430.699	7816.07
430.906	7697.29
431.114	7697.29
431.321	7984.01
431.528	8194.95
431.736	8985.46
431.943	9335.67
432.15	8940.41
432.358	9020.28
432.565	9581.42
432.772	9388.91
432.979	9995.11
433.187	10189.67
433.394	10273.64
433.601	10836.83
433.808	10908.51
434.016	10881.88
434.223	11416.4
434.43	11916.11
434.637	11877.19
434.844	12317.51
435.052	12809.02
435.259	12745.53
435.466	12716.86
435.673	12454.72
435.88	13665.07
436.087	14289.7
436.294	14238.5
436.501	13996.84
436.708	14072.62
436.915	14474.02
437.122	15276.82
437.329	15242.01
437.537	15792.91
437.743	15887.12
437.95	15831.82
438.157	16530.18
438.364	16831.23
438.571	16960.25
438.778	17052.41
438.985	18836.19
439.192	18205.42
439.399	18719.46
439.606	18213.61
439.813	19049.18
440.02	20675.27
440.227	20089.55
440.433	19794.64
440.64	20662.98
440.847	20269.77
441.054	20933.31
441.261	22268.59
441.467	21803.7
441.674	22280.88
441.881	23214.75
442.088	23145.12
442.294	22932.13
442.501	23943.83
442.708	24281.74
442.914	24998.53
443.121	25891.44
443.328	25432.7
443.534	26876.52
443.741	26387.05
443.948	26260.08
444.154	28111.44
444.361	27730.52
444.568	28056.15
444.774	28199.51
444.981	28527.18
445.187	28947.01
445.394	30300.72
445.6	29925.94
445.807	32958.99
446.013	30931.5
446.22	32053.78
446.426	33147.4
446.633	33296.9
446.839	34433.52
447.046	32899.59
447.252	34963.95
447.459	34953.71
447.665	34501.11
447.871	36147.67
448.078	37732.8
448.284	35617.25
448.491	37022.16
448.697	38402.49
448.903	38576.56
449.11	38857.14
449.316	38095.29
449.522	39041.45
449.728	40024.48
449.935	40382.87
450.141	40415.64
450.347	41154.96
450.553	39725.47
450.76	40561.05
450.966	41240.97
451.172	41343.37
451.378	41879.94
451.584	41486.73
451.791	42031.49
451.997	41898.37
452.203	42600.82
452.409	42332.54
452.615	42469.75
452.821	41275.79
453.027	40442.26
453.233	42514.81
453.44	40528.28
453.646	40845.71
453.852	41494.92
454.058	41908.61
454.264	40513.94
454.47	41122.19
454.676	40192.41
454.882	41587.08
455.088	37974.46
455.294	38279.61
455.5	38781.36
455.705	39522.72
455.911	37917.12
456.117	37317.06
456.323	36477.4
456.529	34605.55
456.735	35881.44
456.941	35412.45
457.147	34621.94
457.352	33516.03
457.558	32897.55
457.764	32887.31
457.97	32725.52
458.176	31599.13
458.381	31719.96
458.587	30304.82
458.793	30073.4
458.999	28525.13
459.204	30663.21
459.41	29872.7
459.616	27662.94
459.821	27609.69
460.027	27621.98
460.233	27318.88
460.438	25614.97
460.644	26165.87
460.85	25258.62
461.055	24959.62
461.261	24613.51
461.466	22631.08
461.672	21895.86
461.878	23579.29
462.083	22164.14
462.289	21680.82
462.494	21648.05
462.7	20581.06
462.905	19915.47
463.111	20888.26
463.316	20693.7
463.522	20323.02
463.727	20470.47
463.932	20505.29
464.138	20024.01
464.343	20253.39
464.549	19731.15
464.754	20261.58
464.959	20366.03
465.165	19956.43
465.37	19342.04
465.575	18977.5
465.781	19356.38
465.986	19604.18
466.191	18838.24
466.397	18471.65
466.602	17541.88
466.807	18281.19
467.012	18197.23
467.218	17949.42
