Data from USB4F104151__75__11-06-20-524.txt Node

Date: Wed Mar 12 11:06:20 EDT 2025
User: louis
Spectrometer: USB4F10415
Trigger mode: 4
Integration Time (sec): 2.000000E-2
Scans to average: 1
Electric dark correction enabled: true
Nonlinearity correction enabled: false
Boxcar width: 0
XAxis mode: Wavelengths
Number of Pixels in Spectrum: 3648
>>>>>Begin Spectral Data<<<<<
178.204	-73.04
178.424	-73.04
178.644	-73.04
178.864	-132.44
179.084	-62.8
179.304	-36.18
179.524	-1.37
179.744	-32.08
179.964	-40.28
180.184	60.07
180.404	45.74
180.624	0.68
180.844	6.83
181.064	-44.37
181.283	29.35
181.503	-5.46
181.723	17.07
181.943	-46.42
182.163	55.98
182.383	0.68
182.602	-19.8
182.822	27.31
183.042	21.16
183.262	39.59
183.482	0.68
183.701	-48.47
183.921	23.21
184.141	58.03
184.361	15.02
184.58	33.45
184.8	27.31
185.02	-15.7
185.239	60.07
185.459	74.41
185.679	39.59
185.898	-21.85
186.118	25.26
186.338	58.03
186.557	-46.42
186.777	-42.32
186.997	82.6
187.216	37.55
187.436	21.16
187.655	35.5
187.875	64.17
188.095	19.11
188.314	-3.41
188.534	72.36
188.753	-21.85
188.973	-3.41
189.192	39.59
189.412	-13.65
189.631	127.66
189.851	-21.85
190.07	84.65
190.29	-3.41
190.509	43.69
190.729	55.98
190.948	49.83
191.168	66.22
191.387	76.46
191.607	41.64
191.826	19.11
192.045	68.27
192.265	-7.51
192.484	10.92
192.704	-38.23
192.923	-21.85
193.142	55.98
193.362	-13.65
193.581	74.41
193.8	-9.56
194.02	72.36
194.239	51.88
194.458	-34.13
194.678	17.07
194.897	86.7
195.116	2.73
195.335	115.37
195.555	8.87
195.774	-13.65
195.993	2.73
196.212	-3.41
196.432	2.73
196.651	-15.7
196.87	-13.65
197.089	84.65
197.308	-3.41
197.528	39.59
197.747	8.87
197.966	55.98
198.185	49.83
198.404	-5.46
198.623	4.78
198.842	-5.46
199.062	82.6
199.281	53.93
199.5	23.21
199.719	21.16
199.938	-54.61
200.157	92.84
200.376	72.36
200.595	68.27
200.814	-46.42
201.033	19.11
201.252	60.07
201.471	2.73
201.69	55.98
201.909	86.7
202.128	-54.61
202.347	31.4
202.566	-25.94
202.785	33.45
203.004	-11.61
203.223	39.59
203.442	0.68
203.661	-1.37
203.879	37.55
204.098	49.83
204.317	-25.94
204.536	31.4
204.755	-9.56
204.974	31.4
205.193	47.79
205.411	115.37
205.63	10.92
205.849	-27.99
206.068	84.65
206.287	19.11
206.505	-21.85
206.724	47.79
206.943	47.79
207.162	23.21
207.381	-34.13
207.599	29.35
207.818	29.35
208.037	27.31
208.255	78.51
208.474	21.16
208.693	-21.85
208.911	-17.75
209.13	115.37
209.349	35.5
209.567	-1.37
209.786	19.11
210.005	64.17
210.223	66.22
210.442	-38.23
210.661	-7.51
210.879	62.12
211.098	-1.37
211.316	-32.08
211.535	66.22
211.753	17.07
211.972	31.4
212.191	0.68
212.409	45.74
212.628	-9.56
212.846	12.97
213.065	68.27
213.283	41.64
213.502	41.64
213.72	47.79
213.938	6.83
214.157	-7.51
214.375	23.21
214.594	-13.65
214.812	-36.18
215.031	-30.04
215.249	29.35
215.467	43.69
215.686	84.65
215.904	10.92
216.122	29.35
216.341	78.51
216.559	-13.65
216.778	60.07
216.996	68.27
217.214	39.59
217.432	29.35
217.651	17.07
217.869	25.26
218.087	51.88
218.306	-1.37
218.524	12.97
218.742	-17.75
218.96	4.78
219.179	-15.7
219.397	-3.41
219.615	2.73
219.833	35.5
220.051	-40.28
220.27	33.45
220.488	10.92
220.706	19.11
220.924	2.73
221.142	-23.89
221.36	47.79
221.578	43.69
221.796	-13.65
222.015	62.12
222.233	27.31
222.451	33.45
222.669	74.41
222.887	88.75
223.105	-48.47
223.323	25.26
223.541	35.5
223.759	41.64
223.977	37.55
224.195	2.73
224.413	-32.08
224.631	47.79
224.849	49.83
225.067	31.4
225.285	-58.71
225.503	45.74
225.721	-1.37
225.939	2.73
226.157	-3.41
226.375	84.65
226.592	19.11
226.81	4.78
227.028	-17.75
227.246	35.5
227.464	15.02
227.682	82.6
227.9	29.35
228.117	35.5
228.335	15.02
228.553	53.93
228.771	88.75
228.989	49.83
229.206	-23.89
229.424	2.73
229.642	0.68
229.86	-58.71
230.077	58.03
230.295	88.75
230.513	-30.04
230.731	55.98
230.948	-9.56
231.166	80.55
231.384	-32.08
231.601	31.4
231.819	15.02
232.037	19.11
232.254	72.36
232.472	53.93
232.689	25.26
232.907	96.94
233.125	-48.47
233.342	-44.37
233.56	58.03
233.777	72.36
233.995	19.11
234.213	35.5
234.43	25.26
234.648	31.4
234.865	51.88
235.083	10.92
235.3	-32.08
235.518	17.07
235.735	25.26
235.953	49.83
236.17	-19.8
236.388	-73.04
236.605	-17.75
236.822	-30.04
237.04	92.84
237.257	15.02
237.475	-5.46
237.692	62.12
237.909	-27.99
238.127	64.17
238.344	31.4
238.562	37.55
238.779	-21.85
238.996	-48.47
239.214	6.83
239.431	25.26
239.648	0.68
239.865	21.16
240.083	19.11
240.3	-15.7
240.517	74.41
240.735	-1.37
240.952	78.51
241.169	45.74
241.386	51.88
241.603	15.02
241.821	-23.89
242.038	4.78
242.255	92.84
242.472	33.45
242.689	45.74
242.907	33.45
243.124	6.83
243.341	-50.52
243.558	8.87
243.775	35.5
243.992	41.64
244.209	-9.56
244.426	53.93
244.643	64.17
244.86	8.87
245.078	17.07
245.295	43.69
245.512	45.74
245.729	4.78
245.946	-66.9
246.163	33.45
246.38	31.4
246.597	70.31
246.814	41.64
247.031	84.65
247.248	78.51
247.464	-17.75
247.681	-15.7
247.898	-15.7
248.115	45.74
248.332	37.55
248.549	43.69
248.766	105.13
248.983	8.87
249.2	8.87
249.417	117.42
249.633	21.16
249.85	27.31
250.067	45.74
250.284	27.31
250.501	74.41
250.717	31.4
250.934	96.94
251.151	-15.7
251.368	-1.37
251.585	4.78
251.801	-3.41
252.018	37.55
252.235	141.99
252.451	-9.56
252.668	31.4
252.885	47.79
253.102	-1.37
253.318	-15.7
253.535	82.6
253.752	29.35
253.968	-42.32
254.185	6.83
254.401	53.93
254.618	23.21
254.835	-9.56
255.051	86.7
255.268	-62.8
255.484	90.79
255.701	19.11
255.917	55.98
256.134	19.11
256.351	133.8
256.567	-21.85
256.784	86.7
257	49.83
257.217	115.37
257.433	-23.89
257.65	33.45
257.866	-23.89
258.082	12.97
258.299	45.74
258.515	27.31
258.732	-66.9
258.948	19.11
259.165	72.36
259.381	-25.94
259.597	19.11
259.814	64.17
260.03	0.68
260.246	10.92
260.463	45.74
260.679	4.78
260.895	27.31
261.112	-17.75
261.328	-13.65
261.544	53.93
261.761	2.73
261.977	21.16
262.193	49.83
262.409	39.59
262.626	15.02
262.842	27.31
263.058	29.35
263.274	72.36
263.49	15.02
263.707	-9.56
263.923	37.55
264.139	-60.76
264.355	45.74
264.571	43.69
264.787	2.73
265.004	-3.41
265.22	19.11
265.436	70.31
265.652	23.21
265.868	15.02
266.084	-68.95
266.3	-27.99
266.516	4.78
266.732	51.88
266.948	2.73
267.164	17.07
267.38	60.07
267.596	103.08
267.812	-25.94
268.028	12.97
268.244	-46.42
268.46	-25.94
268.676	41.64
268.892	47.79
269.108	-17.75
269.324	-7.51
269.54	-3.41
269.756	39.59
269.972	-32.08
270.188	-17.75
270.403	66.22
270.619	47.79
270.835	82.6
271.051	6.83
271.267	-1.37
271.483	-5.46
271.698	84.65
271.914	66.22
272.13	12.97
272.346	10.92
272.562	4.78
272.777	6.83
272.993	47.79
273.209	-62.8
273.425	-11.61
273.64	21.16
273.856	-44.37
274.072	2.73
274.287	-9.56
274.503	68.27
274.719	33.45
274.934	62.12
275.15	107.18
275.366	60.07
275.581	-5.46
275.797	35.5
276.012	51.88
276.228	45.74
276.444	51.88
276.659	62.12
276.875	80.55
277.09	-9.56
277.306	10.92
277.521	49.83
277.737	-25.94
277.952	58.03
278.168	33.45
278.383	-64.85
278.599	80.55
278.814	-3.41
279.03	62.12
279.245	60.07
279.461	125.61
279.676	78.51
279.892	-27.99
280.107	21.16
280.322	-1.37
280.538	47.79
280.753	8.87
280.969	55.98
281.184	29.35
281.399	15.02
281.615	2.73
281.83	-13.65
282.045	33.45
282.26	-15.7
282.476	55.98
282.691	39.59
282.906	-23.89
283.122	41.64
283.337	-9.56
283.552	39.59
283.767	88.75
283.983	64.17
284.198	76.46
284.413	-17.75
284.628	-15.7
284.843	-13.65
285.058	76.46
285.274	60.07
285.489	10.92
285.704	76.46
285.919	-21.85
286.134	-17.75
286.349	6.83
286.564	58.03
286.779	2.73
286.995	62.12
287.21	-48.47
287.425	8.87
287.64	2.73
287.855	47.79
288.07	21.16
288.285	47.79
288.5	31.4
288.715	39.59
288.93	35.5
289.145	47.79
289.36	92.84
289.575	68.27
289.79	-1.37
290.004	-68.95
290.219	19.11
290.434	21.16
290.649	6.83
290.864	45.74
291.079	6.83
291.294	39.59
291.509	25.26
291.724	27.31
291.938	21.16
292.153	84.65
292.368	62.12
292.583	10.92
292.798	31.4
293.012	-36.18
293.227	23.21
293.442	12.97
293.657	49.83
293.871	78.51
294.086	109.22
294.301	66.22
294.516	31.4
294.73	55.98
294.945	12.97
295.16	27.31
295.374	68.27
295.589	103.08
295.804	-25.94
296.018	-11.61
296.233	27.31
296.447	-17.75
296.662	-11.61
296.877	-23.89
297.091	29.35
297.306	105.13
297.52	53.93
297.735	60.07
297.949	51.88
298.164	25.26
298.378	41.64
298.593	-38.23
298.807	-17.75
299.022	103.08
299.236	84.65
299.451	70.31
299.665	6.83
299.88	4.78
300.094	27.31
300.309	88.75
300.523	55.98
300.737	29.35
300.952	27.31
301.166	19.11
301.381	47.79
301.595	27.31
301.809	49.83
302.024	21.16
302.238	-3.41
302.452	86.7
302.667	31.4
302.881	31.4
303.095	39.59
303.309	70.31
303.524	-13.65
303.738	-23.89
303.952	27.31
304.166	62.12
304.381	23.21
304.595	76.46
304.809	15.02
305.023	15.02
305.237	47.79
305.452	41.64
305.666	43.69
305.88	51.88
306.094	19.11
306.308	60.07
306.522	70.31
306.736	12.97
306.95	64.17
307.164	105.13
307.379	8.87
307.593	39.59
307.807	0.68
308.021	60.07
308.235	10.92
308.449	-15.7
308.663	31.4
308.877	0.68
309.091	19.11
309.305	37.55
309.519	-5.46
309.733	62.12
309.947	-27.99
310.161	-34.13
310.374	-21.85
310.588	53.93
310.802	29.35
311.016	41.64
311.23	33.45
311.444	84.65
311.658	47.79
311.872	41.64
312.085	105.13
312.299	31.4
312.513	17.07
312.727	115.37
312.941	-27.99
313.154	31.4
313.368	39.59
313.582	53.93
313.796	60.07
314.009	125.61
314.223	129.7
314.437	33.45
314.651	27.31
314.864	6.83
315.078	60.07
315.292	53.93
315.505	-1.37
315.719	29.35
315.933	49.83
316.146	66.22
316.36	-30.04
316.573	60.07
316.787	129.7
317.001	19.11
317.214	31.4
317.428	19.11
317.641	10.92
317.855	41.64
318.068	39.59
318.282	-13.65
318.495	84.65
318.709	62.12
318.922	51.88
319.136	19.11
319.349	35.5
319.563	23.21
319.776	19.11
319.99	47.79
320.203	51.88
320.417	55.98
320.63	105.13
320.843	47.79
321.057	23.21
321.27	-17.75
321.483	39.59
321.697	68.27
321.91	-9.56
322.124	45.74
322.337	-3.41
322.55	80.55
322.763	23.21
322.977	60.07
323.19	51.88
323.403	47.79
323.617	15.02
323.83	53.93
324.043	21.16
324.256	62.12
324.469	0.68
324.683	-17.75
324.896	25.26
325.109	39.59
325.322	45.74
325.535	-3.41
325.748	39.59
325.962	-19.8
326.175	12.97
326.388	58.03
326.601	82.6
326.814	55.98
327.027	2.73
327.24	113.32
327.453	68.27
327.666	103.08
327.879	23.21
328.092	66.22
328.305	-1.37
328.518	-27.99
328.731	6.83
328.944	-5.46
329.157	27.31
329.37	33.45
329.583	82.6
329.796	2.73
330.009	-19.8
330.222	21.16
330.435	76.46
330.648	43.69
330.861	141.99
331.073	23.21
331.286	45.74
331.499	-11.61
331.712	-30.04
331.925	39.59
332.138	-11.61
332.35	76.46
332.563	80.55
332.776	51.88
332.989	31.4
333.202	70.31
333.414	23.21
333.627	39.59
333.84	62.12
334.053	66.22
334.265	29.35
334.478	72.36
334.691	47.79
334.903	15.02
335.116	29.35
335.329	15.02
335.541	82.6
335.754	74.41
335.966	31.4
336.179	113.32
336.392	-21.85
336.604	25.26
336.817	64.17
337.029	17.07
337.242	49.83
337.454	82.6
337.667	70.31
337.88	25.26
338.092	47.79
338.305	47.79
338.517	53.93
338.729	64.17
338.942	8.87
339.154	80.55
339.367	43.69
339.579	94.89
339.792	0.68
340.004	76.46
340.217	17.07
340.429	60.07
340.641	15.02
340.854	17.07
341.066	27.31
341.278	-30.04
341.491	123.56
341.703	33.45
341.915	-36.18
342.128	60.07
342.34	80.55
342.552	-21.85
342.764	19.11
342.977	72.36
343.189	33.45
343.401	66.22
343.613	-44.37
343.826	80.55
344.038	2.73
344.25	62.12
344.462	12.97
344.674	27.31
344.886	10.92
345.099	23.21
345.311	49.83
345.523	35.5
345.735	62.12
345.947	58.03
346.159	51.88
346.371	41.64
346.583	74.41
346.795	55.98
347.007	25.26
347.219	-1.37
347.431	70.31
347.643	64.17
347.855	29.35
348.067	45.74
348.279	35.5
348.491	94.89
348.703	72.36
348.915	45.74
349.127	27.31
349.339	8.87
349.551	47.79
349.763	119.46
349.975	-32.08
350.187	84.65
350.399	45.74
350.61	49.83
350.822	-30.04
351.034	70.31
351.246	-34.13
351.458	103.08
351.669	107.18
351.881	92.84
352.093	33.45
352.305	74.41
352.517	-9.56
352.728	60.07
352.94	-34.13
353.152	51.88
353.363	49.83
353.575	19.11
353.787	64.17
353.999	37.55
354.21	49.83
354.422	84.65
354.633	25.26
354.845	47.79
355.057	-9.56
355.268	92.84
355.48	23.21
355.692	27.31
355.903	27.31
356.115	-25.94
356.326	31.4
356.538	66.22
356.749	-11.61
356.961	82.6
357.172	84.65
357.384	45.74
357.595	84.65
357.807	6.83
358.018	74.41
358.23	53.93
358.441	96.94
358.653	60.07
358.864	72.36
359.075	-13.65
359.287	41.64
359.498	70.31
359.709	76.46
359.921	47.79
360.132	37.55
360.344	137.9
360.555	10.92
360.766	47.79
360.977	68.27
361.189	127.66
361.4	51.88
361.611	121.51
361.823	62.12
362.034	-11.61
362.245	29.35
362.456	58.03
362.667	45.74
362.879	-32.08
363.09	62.12
363.301	94.89
363.512	-25.94
363.723	-1.37
363.935	86.7
364.146	-21.85
364.357	78.51
364.568	70.31
364.779	62.12
364.99	62.12
365.201	2.73
365.412	31.4
365.623	-48.47
365.834	31.4
366.045	43.69
366.256	37.55
366.467	72.36
366.678	76.46
366.889	43.69
367.1	58.03
367.311	68.27
367.522	66.22
367.733	47.79
367.944	68.27
368.155	-3.41
368.366	84.65
368.577	96.94
368.788	68.27
368.999	12.97
369.209	39.59
369.42	129.7
369.631	80.55
369.842	78.51
370.053	2.73
370.264	94.89
370.474	58.03
370.685	8.87
370.896	119.46
371.107	0.68
371.317	31.4
371.528	43.69
371.739	45.74
371.95	84.65
372.16	51.88
372.371	39.59
372.582	58.03
372.792	4.78
373.003	62.12
373.214	15.02
373.424	47.79
373.635	66.22
373.846	39.59
374.056	39.59
374.267	121.51
374.477	119.46
374.688	-9.56
374.898	98.99
375.109	70.31
375.319	96.94
375.53	94.89
375.74	131.75
375.951	-9.56
376.161	94.89
376.372	129.7
376.582	60.07
376.793	12.97
377.003	53.93
377.214	60.07
377.424	96.94
377.635	68.27
377.845	29.35
378.055	33.45
378.266	-13.65
378.476	88.75
378.686	82.6
378.897	72.36
379.107	62.12
379.317	70.31
379.528	-7.51
379.738	60.07
379.948	29.35
380.158	53.93
380.369	53.93
380.579	76.46
380.789	88.75
380.999	78.51
381.21	-34.13
381.42	88.75
381.63	90.79
381.84	86.7
382.05	111.27
382.261	51.88
382.471	80.55
382.681	58.03
382.891	70.31
383.101	55.98
383.311	4.78
383.521	45.74
383.731	6.83
383.941	154.28
384.151	51.88
384.361	29.35
384.571	55.98
384.781	74.41
384.991	121.51
385.201	94.89
385.411	86.7
385.621	19.11
385.831	47.79
386.041	68.27
386.251	74.41
386.461	43.69
386.671	27.31
386.881	35.5
387.091	53.93
387.301	27.31
387.511	47.79
387.72	103.08
387.93	58.03
388.14	62.12
388.35	21.16
388.56	60.07
388.769	86.7
388.979	64.17
389.189	27.31
389.399	62.12
389.609	60.07
389.818	76.46
390.028	60.07
390.238	76.46
390.447	45.74
390.657	144.04
390.867	84.65
391.076	164.52
391.286	82.6
391.496	45.74
391.705	131.75
391.915	6.83
392.125	15.02
392.334	96.94
392.544	55.98
392.753	101.03
392.963	-1.37
393.172	55.98
393.382	29.35
393.591	129.7
393.801	55.98
394.01	146.09
394.22	86.7
394.429	4.78
394.639	51.88
394.848	158.38
395.058	60.07
395.267	115.37
395.477	207.53
395.686	74.41
395.895	127.66
396.105	205.48
396.314	53.93
396.524	148.14
396.733	90.79
396.942	172.71
397.152	137.9
397.361	92.84
397.57	119.46
397.78	158.38
397.989	92.84
398.198	180.9
398.407	84.65
398.617	135.85
398.826	113.32
399.035	135.85
399.244	131.75
399.453	86.7
399.663	121.51
399.872	203.43
400.081	141.99
400.29	166.57
400.499	6.83
400.708	176.81
400.917	152.23
401.127	152.23
401.336	96.94
401.545	195.24
401.754	185
401.963	158.38
402.172	158.38
402.381	152.23
402.59	176.81
402.799	178.86
403.008	166.57
403.217	135.85
403.426	156.33
403.635	264.87
403.844	115.37
404.053	209.58
404.262	164.52
404.471	217.77
404.68	219.82
404.888	209.58
405.097	129.7
405.306	174.76
405.515	240.3
405.724	244.39
405.933	266.92
406.142	180.9
406.35	197.29
406.559	279.21
406.768	223.91
406.977	228.01
407.185	273.06
407.394	232.1
407.603	256.68
407.812	279.21
408.02	316.07
408.229	348.84
408.438	334.5
408.646	367.27
408.855	238.25
409.064	346.79
409.272	322.21
409.481	365.22
409.69	324.26
409.898	340.65
410.107	344.74
410.315	412.32
410.524	367.27
410.733	436.9
410.941	402.08
411.15	426.66
411.358	565.92
411.567	514.72
411.775	467.62
411.984	510.63
412.192	567.97
412.401	598.69
412.609	656.03
412.818	662.18
413.026	617.12
413.234	713.38
413.443	668.32
413.651	666.27
413.86	733.86
414.068	795.29
414.276	838.3
414.485	832.16
414.693	885.41
414.901	922.27
415.11	932.51
415.318	955.04
415.526	918.17
415.734	969.37
415.943	1047.19
416.151	969.37
416.359	1200.79
416.567	1258.14
416.776	1180.31
416.984	1313.43
417.192	1311.38
417.4	1335.96
417.608	1264.28
417.817	1381.01
418.025	1438.36
418.233	1608.34
418.441	1630.87
418.649	1614.48
418.857	1591.95
419.065	1606.29
419.273	1731.22
419.481	1929.87
419.689	1933.97
419.897	1981.07
420.105	2079.37
420.313	2232.97
420.521	2118.28
420.729	2075.27
420.937	2370.18
421.145	2427.53
421.353	2501.25
421.561	2466.44
421.769	2634.37
421.977	2755.2
422.185	2669.19
422.393	2820.74
422.601	3084.92
422.809	3117.69
423.017	3062.4
423.224	3193.47
423.432	3347.06
423.64	3398.26
423.848	3658.35
424.056	3521.14
424.263	3801.71
424.471	3840.62
424.679	4016.75
424.887	4090.48
425.094	4383.34
425.302	4289.13
425.51	4452.97
425.718	4518.5
425.925	4590.18
426.133	4833.89
426.341	5055.07
426.548	5311.07
426.756	5173.85
426.964	5429.85
427.171	5821.01
427.379	5802.58
427.586	5831.25
427.794	6238.8
428.001	6484.55
428.209	6556.23
428.417	6646.34
428.624	7096.89
428.832	7084.61
429.039	7094.85
429.247	7025.22
429.454	7635.51
429.662	8274.48
429.869	7572.02
430.076	8221.23
430.284	8041.01
430.491	8432.17
430.699	8946.21
430.906	8794.66
431.114	9042.46
431.321	9357.85
431.528	9468.44
431.736	9978.39
431.943	10654.22
432.15	10183.18
432.358	10387.98
432.565	10971.65
432.772	10969.6
432.979	11645.43
433.187	11745.78
433.394	11719.16
433.601	12835.3
433.808	12638.7
434.016	12550.64
434.223	12909.03
434.43	13672.92
434.637	13513.18
434.844	14416.33
435.052	14567.88
435.259	14457.29
435.466	14635.47
435.673	14383.57
435.88	15624.64
436.087	16449.97
436.294	16535.98
436.501	16079.29
436.708	16390.58
436.915	16785.83
437.122	17365.41
437.329	17365.41
437.537	17930.65
437.743	18624.91
437.95	18360.72
438.157	19106.18
438.364	19937.66
438.571	19933.56
438.778	20003.19
438.985	21694.82
439.192	21086.57
439.399	21711.2
439.606	21098.86
439.813	22010.2
440.02	23984.44
440.227	23138.63
440.433	23036.24
440.64	23814.46
440.847	23537.99
441.054	24193.34
441.261	25735.46
441.467	25432.36
441.674	26202.39
441.881	26605.84
442.088	26872.08
442.294	26489.11
442.501	27240.72
442.708	27855.11
442.914	29104.37
443.121	30257.37
443.328	29855.97
443.534	31465.67
443.741	30453.98
443.948	30208.22
444.154	32616.63
444.361	32045.25
444.568	32078.02
444.774	32387.26
444.981	32745.65
445.187	33708.2
445.394	35192.98
445.6	34769.05
445.807	37922.92
446.013	36274.31
446.22	36964.47
446.426	38680.67
446.633	38821.98
446.839	40233.03
447.046	38547.55
447.252	40665.15
447.459	40314.95
447.665	40194.12
447.871	42250.28
448.078	43974.67
448.284	41672.75
448.491	42469.41
448.697	44453.89
448.903	45260.79
449.11	45230.07
449.316	44261.38
449.522	45500.4
449.728	46680.03
449.935	47050.72
450.141	46669.79
450.347	47837.14
450.553	46331.88
450.76	46942.17
450.966	48029.65
451.172	47497.17
451.378	48607.17
451.584	47896.53
451.791	48842.69
451.997	48402.38
452.203	49229.76
452.409	49067.97
452.615	49301.43
452.821	47421.4
453.027	47005.66
453.233	49084.35
453.44	47454.17
453.646	47947.73
453.852	47802.32
454.058	48605.12
454.264	46915.55
454.47	48181.2
454.676	47007.71
454.882	48170.96
455.088	44130.31
455.294	44648.45
455.5	45416.44
455.705	45946.86
455.911	43984.91
456.117	43032.6
456.323	42254.37
456.529	40327.24
456.735	41685.04
456.941	40783.93
457.147	40497.22
457.352	38752.35
457.558	38273.12
457.764	38309.99
457.97	37929.06
458.176	37173.36
458.381	37154.93
458.587	35383.44
458.793	35426.45
458.999	33468.59
459.204	35981.45
459.41	34597.02
459.616	32721.08
459.821	32323.77
460.027	32235.71
460.233	31781.06
460.438	30109.92
460.644	30759.13
460.85	29286.64
461.055	28866.8
461.261	28885.23
461.466	26456.34
461.672	25831.71
461.878	27775.23
462.083	25887.01
462.289	25669.92
462.494	25057.58
462.7	23896.38
462.905	23327.05
463.111	24154.43
463.316	24103.23
463.522	23935.29
463.727	23841.09
463.932	23660.87
464.138	23542.08
464.343	23798.08
464.549	23359.81
464.754	23996.73
464.959	23554.37
465.165	23306.57
465.37	22552.91
465.575	22133.08
465.781	22876.49
465.986	23015.76
466.191	22067.55
466.397	21922.14
466.602	20816.24
466.807	21707.1
467.012	21535.07
