Data from USB4F104151__17__11-04-50-454.txt Node

Date: Wed Mar 12 11:04:50 EDT 2025
User: louis
Spectrometer: USB4F10415
Trigger mode: 4
Integration Time (sec): 2.000000E-2
Scans to average: 1
Electric dark correction enabled: true
Nonlinearity correction enabled: false
Boxcar width: 0
XAxis mode: Wavelengths
Number of Pixels in Spectrum: 3648
>>>>>Begin Spectral Data<<<<<
178.204	-67.75
178.424	-67.75
178.644	-67.75
178.864	-108.71
179.084	-61.61
179.304	-22.7
179.524	-57.51
179.744	57.17
179.964	-0.17
180.184	40.79
180.404	-32.94
180.624	-24.75
180.844	24.4
181.064	-12.46
181.283	20.31
181.503	69.46
181.723	-61.61
181.943	16.21
182.163	-4.27
182.383	-12.46
182.602	14.17
182.822	18.26
183.042	67.41
183.262	-2.22
183.482	55.12
183.701	38.74
183.921	-8.36
184.141	-20.65
184.361	20.31
184.58	-24.75
184.8	3.93
185.02	-18.6
185.239	30.55
185.459	-2.22
185.679	20.31
185.898	-37.03
186.118	83.8
186.338	67.41
186.557	51.03
186.777	-49.32
186.997	122.71
187.216	48.98
187.436	28.5
187.655	57.17
187.875	18.26
188.095	20.31
188.314	20.31
188.534	94.04
188.753	5.97
188.973	42.84
189.192	-14.51
189.412	-12.46
189.631	-22.7
189.851	48.98
190.07	-41.13
190.29	30.55
190.509	36.69
190.729	-4.27
190.948	57.17
191.168	71.51
191.387	14.17
191.607	-8.36
191.826	44.88
192.045	22.36
192.265	-12.46
192.484	57.17
192.704	-20.65
192.923	-65.71
193.142	48.98
193.362	24.4
193.581	96.08
193.8	81.75
194.02	1.88
194.239	24.4
194.458	-26.79
194.678	30.55
194.897	-28.84
195.116	20.31
195.335	30.55
195.555	30.55
195.774	69.46
195.993	26.45
196.212	-20.65
196.432	-26.79
196.651	-8.36
196.87	22.36
197.089	77.65
197.308	-37.03
197.528	53.08
197.747	1.88
197.966	-32.94
198.185	-2.22
198.404	53.08
198.623	-45.23
198.842	-2.22
199.062	40.79
199.281	40.79
199.5	5.97
199.719	71.51
199.938	12.12
200.157	8.02
200.376	-39.08
200.595	10.07
200.814	-8.36
201.033	38.74
201.252	89.94
201.471	-12.46
201.69	-0.17
201.909	53.08
202.128	-14.51
202.347	-6.31
202.566	32.6
202.785	3.93
203.004	-24.75
203.223	69.46
203.442	8.02
203.661	30.55
203.879	5.97
204.098	34.64
204.317	53.08
204.536	-0.17
204.755	-0.17
204.974	8.02
205.193	30.55
205.411	8.02
205.63	36.69
205.849	73.56
206.068	20.31
206.287	20.31
206.505	42.84
206.724	20.31
206.943	53.08
207.162	-43.18
207.381	14.17
207.599	20.31
207.818	38.74
208.037	-24.75
208.255	30.55
208.474	-12.46
208.693	44.88
208.911	46.93
209.13	16.21
209.349	32.6
209.567	5.97
209.786	61.27
210.005	73.56
210.223	-18.6
210.442	-30.89
210.661	26.45
210.879	3.93
211.098	85.84
211.316	53.08
211.535	81.75
211.753	55.12
211.972	32.6
212.191	26.45
212.409	40.79
212.628	20.31
212.846	-8.36
213.065	-0.17
213.283	24.4
213.502	51.03
213.72	14.17
213.938	73.56
214.157	32.6
214.375	20.31
214.594	-61.61
214.812	73.56
215.031	65.36
215.249	-32.94
215.467	46.93
215.686	51.03
215.904	65.36
216.122	65.36
216.341	-14.51
216.559	59.22
216.778	28.5
216.996	-4.27
217.214	106.32
217.432	-4.27
217.651	-8.36
217.869	26.45
218.087	-55.47
218.306	63.32
218.524	34.64
218.742	10.07
218.96	-2.22
219.179	-34.99
219.397	5.97
219.615	51.03
219.833	65.36
220.051	-71.85
220.27	14.17
220.488	38.74
220.706	42.84
220.924	-12.46
221.142	40.79
221.36	28.5
221.578	57.17
221.796	32.6
222.015	-0.17
222.233	-24.75
222.451	-10.41
222.669	20.31
222.887	55.12
223.105	57.17
223.323	20.31
223.541	96.08
223.759	124.76
223.977	36.69
224.195	40.79
224.413	61.27
224.631	53.08
224.849	87.89
225.067	67.41
225.285	-34.99
225.503	36.69
225.721	48.98
225.939	14.17
226.157	8.02
226.375	75.6
226.592	20.31
226.81	12.12
227.028	-16.55
227.246	96.08
227.464	26.45
227.682	18.26
227.9	-16.55
228.117	-6.31
228.335	3.93
228.553	3.93
228.771	79.7
228.989	69.46
229.206	38.74
229.424	-57.51
229.642	28.5
229.86	5.97
230.077	67.41
230.295	-4.27
230.513	8.02
230.731	106.32
230.948	-10.41
231.166	55.12
231.384	65.36
231.601	16.21
231.819	67.41
232.037	77.65
232.254	-0.17
232.472	18.26
232.689	69.46
232.907	28.5
233.125	12.12
233.342	128.85
233.56	5.97
233.777	69.46
233.995	59.22
234.213	44.88
234.43	104.28
234.648	67.41
234.865	-37.03
235.083	106.32
235.3	-30.89
235.518	69.46
235.735	40.79
235.953	61.27
236.17	-26.79
236.388	124.76
236.605	42.84
236.822	83.8
237.04	55.12
237.257	20.31
237.475	26.45
237.692	36.69
237.909	77.65
238.127	10.07
238.344	51.03
238.562	44.88
238.779	-30.89
238.996	26.45
239.214	36.69
239.431	36.69
239.648	26.45
239.865	28.5
240.083	69.46
240.3	73.56
240.517	1.88
240.735	-8.36
240.952	71.51
241.169	81.75
241.386	83.8
241.603	87.89
241.821	61.27
242.038	106.32
242.255	8.02
242.472	-28.84
242.689	-2.22
242.907	28.5
243.124	63.32
243.341	8.02
243.558	-18.6
243.775	110.42
243.992	65.36
244.209	30.55
244.426	46.93
244.643	26.45
244.86	-4.27
245.078	96.08
245.295	61.27
245.512	28.5
245.729	61.27
245.946	91.99
246.163	79.7
246.38	30.55
246.597	3.93
246.814	69.46
247.031	53.08
247.248	10.07
247.464	46.93
247.681	40.79
247.898	-12.46
248.115	40.79
248.332	8.02
248.549	118.61
248.766	55.12
248.983	-2.22
249.2	3.93
249.417	102.23
249.633	26.45
249.85	61.27
250.067	-10.41
250.284	8.02
250.501	30.55
250.717	81.75
250.934	-16.55
251.151	53.08
251.368	-55.47
251.585	8.02
251.801	40.79
252.018	-0.17
252.235	42.84
252.451	28.5
252.668	8.02
252.885	40.79
253.102	30.55
253.318	-57.51
253.535	46.93
253.752	57.17
253.968	20.31
254.185	44.88
254.401	-14.51
254.618	48.98
254.835	8.02
255.051	147.28
255.268	-22.7
255.484	85.84
255.701	61.27
255.917	44.88
256.134	16.21
256.351	46.93
256.567	16.21
256.784	38.74
257	77.65
257.217	69.46
257.433	42.84
257.65	51.03
257.866	8.02
258.082	-14.51
258.299	24.4
258.515	46.93
258.732	30.55
258.948	10.07
259.165	110.42
259.381	24.4
259.597	-16.55
259.814	-0.17
260.03	-8.36
260.246	34.64
260.463	18.26
260.679	20.31
260.895	-20.65
261.112	26.45
261.328	-28.84
261.544	79.7
261.761	83.8
261.977	-34.99
262.193	18.26
262.409	30.55
262.626	-37.03
262.842	-41.13
263.058	-6.31
263.274	85.84
263.49	42.84
263.707	75.6
263.923	55.12
264.139	-6.31
264.355	61.27
264.571	63.32
264.787	-14.51
265.004	91.99
265.22	51.03
265.436	16.21
265.652	36.69
265.868	55.12
266.084	38.74
266.3	30.55
266.516	51.03
266.732	69.46
266.948	26.45
267.164	1.88
267.38	40.79
267.596	57.17
267.812	26.45
268.028	-24.75
268.244	75.6
268.46	-4.27
268.676	12.12
268.892	3.93
269.108	-8.36
269.324	20.31
269.54	44.88
269.756	24.4
269.972	-14.51
270.188	-6.31
270.403	69.46
270.619	77.65
270.835	48.98
271.051	14.17
271.267	-4.27
271.483	-30.89
271.698	73.56
271.914	48.98
272.13	-30.89
272.346	46.93
272.562	59.22
272.777	34.64
272.993	12.12
273.209	12.12
273.425	28.5
273.64	-2.22
273.856	3.93
274.072	20.31
274.287	5.97
274.503	5.97
274.719	40.79
274.934	59.22
275.15	32.6
275.366	-16.55
275.581	-16.55
275.797	59.22
276.012	53.08
276.228	48.98
276.444	3.93
276.659	46.93
276.875	12.12
277.09	122.71
277.306	-49.32
277.521	59.22
277.737	40.79
277.952	59.22
278.168	-6.31
278.383	-8.36
278.599	44.88
278.814	28.5
279.03	12.12
279.245	3.93
279.461	55.12
279.676	46.93
279.892	-28.84
280.107	-12.46
280.322	1.88
280.538	-0.17
280.753	102.23
280.969	73.56
281.184	-86.19
281.399	-12.46
281.615	28.5
281.83	81.75
282.045	36.69
282.26	53.08
282.476	-20.65
282.691	-4.27
282.906	48.98
283.122	77.65
283.337	51.03
283.552	-14.51
283.767	18.26
283.983	30.55
284.198	32.6
284.413	10.07
284.628	-30.89
284.843	-20.65
285.058	69.46
285.274	55.12
285.489	77.65
285.704	18.26
285.919	53.08
286.134	26.45
286.349	-12.46
286.564	-0.17
286.779	122.71
286.995	-4.27
287.21	57.17
287.425	-26.79
287.64	55.12
287.855	44.88
288.07	-26.79
288.285	87.89
288.5	81.75
288.715	69.46
288.93	-34.99
289.145	-20.65
289.36	44.88
289.575	61.27
289.79	-32.94
290.004	-28.84
290.219	89.94
290.434	81.75
290.649	32.6
290.864	-18.6
291.079	46.93
291.294	46.93
291.509	-0.17
291.724	-18.6
291.938	8.02
292.153	-4.27
292.368	85.84
292.583	-12.46
292.798	30.55
293.012	5.97
293.227	16.21
293.442	14.17
293.657	57.17
293.871	57.17
294.086	91.99
294.301	102.23
294.516	8.02
294.73	67.41
294.945	36.69
295.16	46.93
295.374	12.12
295.589	106.32
295.804	24.4
296.018	81.75
296.233	53.08
296.447	44.88
296.662	57.17
296.877	38.74
297.091	-0.17
297.306	73.56
297.52	44.88
297.735	75.6
297.949	38.74
298.164	79.7
298.378	126.8
298.593	18.26
298.807	-26.79
299.022	16.21
299.236	22.36
299.451	20.31
299.665	46.93
299.88	57.17
300.094	71.51
300.309	36.69
300.523	20.31
300.737	44.88
300.952	40.79
301.166	-10.41
301.381	12.12
301.595	40.79
301.809	42.84
302.024	14.17
302.238	26.45
302.452	69.46
302.667	55.12
302.881	36.69
303.095	59.22
303.309	75.6
303.524	51.03
303.738	57.17
303.952	75.6
304.166	20.31
304.381	-14.51
304.595	108.37
304.809	-4.27
305.023	73.56
305.237	3.93
305.452	40.79
305.666	28.5
305.88	10.07
306.094	75.6
306.308	79.7
306.522	83.8
306.736	48.98
306.95	116.56
307.164	16.21
307.379	24.4
307.593	51.03
307.807	63.32
308.021	30.55
308.235	69.46
308.449	-43.18
308.663	18.26
308.877	46.93
309.091	73.56
309.305	61.27
309.519	40.79
309.733	77.65
309.947	-32.94
310.161	48.98
310.374	77.65
310.588	40.79
310.802	8.02
311.016	30.55
311.23	-28.84
311.444	28.5
311.658	83.8
311.872	18.26
312.085	38.74
312.299	57.17
312.513	51.03
312.727	71.51
312.941	-22.7
313.154	38.74
313.368	42.84
313.582	26.45
313.796	67.41
314.009	12.12
314.223	61.27
314.437	46.93
314.651	16.21
314.864	14.17
315.078	28.5
315.292	-10.41
315.505	32.6
315.719	12.12
315.933	18.26
316.146	3.93
316.36	32.6
316.573	61.27
316.787	69.46
317.001	-41.13
317.214	18.26
317.428	22.36
317.641	-8.36
317.855	30.55
318.068	48.98
318.282	65.36
318.495	36.69
318.709	22.36
318.922	79.7
319.136	91.99
319.349	91.99
319.563	22.36
319.776	-20.65
319.99	20.31
320.203	108.37
320.417	-28.84
320.63	59.22
320.843	75.6
321.057	36.69
321.27	-75.95
321.483	51.03
321.697	83.8
321.91	-28.84
322.124	75.6
322.337	26.45
322.55	-22.7
322.763	73.56
322.977	48.98
323.19	36.69
323.403	-2.22
323.617	46.93
323.83	106.32
324.043	36.69
324.256	34.64
324.469	91.99
324.683	44.88
324.896	-45.23
325.109	-43.18
325.322	-34.99
325.535	14.17
325.748	-10.41
325.962	14.17
326.175	-26.79
326.388	57.17
326.601	61.27
326.814	-18.6
327.027	1.88
327.24	65.36
327.453	22.36
327.666	-39.08
327.879	10.07
328.092	24.4
328.305	8.02
328.518	67.41
328.731	12.12
328.944	65.36
329.157	22.36
329.37	98.13
329.583	89.94
329.796	32.6
330.009	-47.27
330.222	61.27
330.435	-51.37
330.648	55.12
330.861	-0.17
331.073	65.36
331.286	83.8
331.499	57.17
331.712	46.93
331.925	77.65
332.138	-14.51
332.35	94.04
332.563	48.98
332.776	85.84
332.989	-28.84
333.202	132.95
333.414	20.31
333.627	48.98
333.84	26.45
334.053	55.12
334.265	14.17
334.478	55.12
334.691	98.13
334.903	5.97
335.116	53.08
335.329	-51.37
335.541	83.8
335.754	104.28
335.966	16.21
336.179	12.12
336.392	1.88
336.604	44.88
336.817	36.69
337.029	-4.27
337.242	28.5
337.454	16.21
337.667	40.79
337.88	-2.22
338.092	1.88
338.305	53.08
338.517	-12.46
338.729	83.8
338.942	32.6
339.154	-24.75
339.367	-32.94
339.579	75.6
339.792	-10.41
340.004	83.8
340.217	53.08
340.429	110.42
340.641	24.4
340.854	26.45
341.066	14.17
341.278	-8.36
341.491	77.65
341.703	26.45
341.915	30.55
342.128	57.17
342.34	89.94
342.552	40.79
342.764	24.4
342.977	-10.41
343.189	24.4
343.401	67.41
343.613	46.93
343.826	-32.94
344.038	44.88
344.25	3.93
344.462	8.02
344.674	20.31
344.886	-22.7
345.099	-30.89
345.311	48.98
345.523	24.4
345.735	36.69
345.947	100.18
346.159	12.12
346.371	20.31
346.583	106.32
346.795	44.88
347.007	75.6
347.219	24.4
347.431	8.02
347.643	32.6
347.855	-4.27
348.067	16.21
348.279	-12.46
348.491	32.6
348.703	3.93
348.915	34.64
349.127	-43.18
349.339	1.88
349.551	36.69
349.763	20.31
349.975	94.04
350.187	48.98
350.399	61.27
350.61	-45.23
350.822	-24.75
351.034	40.79
351.246	55.12
351.458	69.46
351.669	48.98
351.881	32.6
352.093	-10.41
352.305	89.94
352.517	46.93
352.728	112.47
352.94	5.97
353.152	-12.46
353.363	18.26
353.575	30.55
353.787	139.09
353.999	63.32
354.21	122.71
354.422	42.84
354.633	59.22
354.845	63.32
355.057	57.17
355.268	-32.94
355.48	30.55
355.692	-8.36
355.903	87.89
356.115	28.5
356.326	61.27
356.538	42.84
356.749	8.02
356.961	91.99
357.172	-6.31
357.384	40.79
357.595	85.84
357.807	10.07
358.018	73.56
358.23	12.12
358.441	-2.22
358.653	61.27
358.864	16.21
359.075	24.4
359.287	-28.84
359.498	124.76
359.709	63.32
359.921	20.31
360.132	-2.22
360.344	69.46
360.555	65.36
360.766	71.51
360.977	67.41
361.189	89.94
361.4	38.74
361.611	69.46
361.823	53.08
362.034	-12.46
362.245	36.69
362.456	75.6
362.667	73.56
362.879	46.93
363.09	26.45
363.301	42.84
363.512	67.41
363.723	65.36
363.935	-12.46
364.146	46.93
364.357	106.32
364.568	65.36
364.779	36.69
364.99	69.46
365.201	-4.27
365.412	112.47
365.623	36.69
365.834	10.07
366.045	57.17
366.256	81.75
366.467	75.6
366.678	-0.17
366.889	-4.27
367.1	34.64
367.311	91.99
367.522	5.97
367.733	26.45
367.944	89.94
368.155	-6.31
368.366	55.12
368.577	75.6
368.788	22.36
368.999	-34.99
369.209	67.41
369.42	44.88
369.631	65.36
369.842	40.79
370.053	71.51
370.264	-12.46
370.474	20.31
370.685	46.93
370.896	3.93
371.107	85.84
371.317	46.93
371.528	-6.31
371.739	100.18
371.95	1.88
372.16	63.32
372.371	40.79
372.582	30.55
372.792	18.26
373.003	116.56
373.214	65.36
373.424	85.84
373.635	-20.65
373.846	51.03
374.056	81.75
374.267	16.21
374.477	87.89
374.688	48.98
374.898	-22.7
375.109	106.32
375.319	42.84
375.53	69.46
375.74	61.27
375.951	-26.79
376.161	30.55
376.372	30.55
376.582	53.08
376.793	46.93
377.003	55.12
377.214	-8.36
377.424	44.88
377.635	79.7
377.845	28.5
378.055	65.36
378.266	1.88
378.476	110.42
378.686	59.22
378.897	73.56
379.107	67.41
379.317	44.88
379.528	44.88
379.738	48.98
379.948	8.02
380.158	48.98
380.369	-22.7
380.579	26.45
380.789	28.5
380.999	28.5
381.21	36.69
381.42	36.69
381.63	71.51
381.84	63.32
382.05	79.7
382.261	28.5
382.471	20.31
382.681	110.42
382.891	10.07
383.101	85.84
383.311	73.56
383.521	36.69
383.731	79.7
383.941	65.36
384.151	57.17
384.361	44.88
384.571	36.69
384.781	14.17
384.991	65.36
385.201	69.46
385.411	18.26
385.621	32.6
385.831	102.23
386.041	69.46
386.251	24.4
386.461	61.27
386.671	40.79
386.881	94.04
387.091	75.6
387.301	22.36
387.511	-12.46
387.72	59.22
387.93	77.65
388.14	63.32
388.35	28.5
388.56	59.22
388.769	108.37
388.979	32.6
389.189	-14.51
389.399	71.51
389.609	32.6
389.818	63.32
390.028	59.22
390.238	51.03
390.447	-41.13
390.657	46.93
390.867	28.5
391.076	38.74
391.286	28.5
391.496	-37.03
391.705	20.31
391.915	71.51
392.125	18.26
392.334	73.56
392.544	69.46
392.753	124.76
392.963	-24.75
393.172	75.6
393.382	-24.75
393.591	53.08
393.801	63.32
394.01	59.22
394.22	48.98
394.429	24.4
394.639	20.31
394.848	73.56
395.058	53.08
395.267	89.94
395.477	1.88
395.686	75.6
395.895	-14.51
396.105	85.84
396.314	102.23
396.524	32.6
396.733	40.79
396.942	87.89
397.152	8.02
397.361	53.08
397.57	81.75
397.78	87.89
397.989	12.12
398.198	94.04
398.407	63.32
398.617	61.27
398.826	114.52
399.035	61.27
399.244	75.6
399.453	120.66
399.663	91.99
399.872	89.94
400.081	85.84
400.29	114.52
400.499	75.6
400.708	135
400.917	186.19
401.127	87.89
401.336	83.8
401.545	147.28
401.754	167.76
401.963	30.55
402.172	141.14
402.381	61.27
402.59	75.6
402.799	81.75
403.008	73.56
403.217	139.09
403.426	120.66
403.635	73.56
403.844	65.36
404.053	128.85
404.262	108.37
404.471	208.72
404.68	108.37
404.888	48.98
405.097	159.57
405.306	120.66
405.515	132.95
405.724	65.36
405.933	67.41
406.142	77.65
406.35	180.05
406.559	145.24
406.768	91.99
406.977	147.28
407.185	61.27
407.394	81.75
407.603	143.19
407.812	77.65
408.02	208.72
408.229	153.43
408.438	135
408.646	202.58
408.855	159.57
409.064	112.47
409.272	180.05
409.481	163.67
409.69	218.96
409.898	151.38
410.107	184.15
410.315	227.15
410.524	186.19
410.733	206.67
410.941	204.63
411.15	255.83
411.358	309.07
411.567	272.21
411.775	313.17
411.984	288.59
412.192	331.6
412.401	278.35
412.609	245.59
412.818	313.17
413.026	370.51
413.234	302.93
413.443	329.55
413.651	386.9
413.86	405.33
414.068	429.9
414.276	431.95
414.485	366.42
414.693	491.34
414.901	436.05
415.11	456.53
415.318	429.9
415.526	454.48
415.734	503.63
415.943	575.31
416.151	646.99
416.359	544.59
416.567	558.92
416.776	649.04
416.984	638.8
417.192	640.84
417.4	581.45
417.608	626.51
417.817	704.33
418.025	683.85
418.233	771.91
418.441	708.43
418.649	751.43
418.857	829.26
419.065	900.94
419.273	888.65
419.481	878.41
419.689	884.55
419.897	991.05
420.105	997.19
420.313	1044.29
420.521	1050.44
420.729	1038.15
420.937	1130.31
421.145	1197.89
421.353	1259.33
421.561	1322.82
421.769	1304.39
421.977	1351.49
422.185	1386.3
422.393	1363.78
422.601	1408.83
422.809	1468.22
423.017	1619.77
423.224	1591.1
423.432	1650.49
423.64	1703.74
423.848	1808.19
424.056	1748.79
424.263	1916.73
424.471	1949.5
424.679	1875.77
424.887	2144.05
425.094	2062.13
425.302	2080.57
425.51	2090.81
425.718	2240.31
425.925	2391.86
426.133	2398
426.341	2551.6
426.548	2580.27
426.756	2547.5
426.964	2625.33
427.171	2737.96
427.379	2805.55
427.586	2963.24
427.794	3071.78
428.001	3194.66
428.209	3239.72
428.417	3268.39
428.624	3442.46
428.832	3546.91
429.039	3426.08
429.247	3450.66
429.454	3809.05
429.662	4011.8
429.869	3655.45
430.076	3833.63
430.284	3761.95
430.491	3997.46
430.699	4419.35
430.906	4298.52
431.114	4362
431.321	4591.38
431.528	4570.9
431.736	4978.44
431.943	5246.73
432.15	4968.2
432.358	5289.73
432.565	5271.3
432.772	5277.44
432.979	5555.97
433.187	5717.76
433.394	5746.43
433.601	6020.86
433.808	6053.62
434.016	6049.53
434.223	6311.67
434.43	6592.24
434.637	6760.17
434.844	6801.13
435.052	7341.8
435.259	7139.05
435.466	7255.78
435.673	7089.9
435.88	7567.07
436.087	8160.98
436.294	8036.06
436.501	7927.52
436.708	8048.35
436.915	8324.82
437.122	8720.08
437.329	8621.78
437.537	8791.76
437.743	9049.8
437.95	8812.24
438.157	9197.26
438.364	9627.33
438.571	9481.92
438.778	9727.68
438.985	10864.3
439.192	10260.15
439.399	10675.89
439.606	10249.91
439.813	10909.36
440.02	11685.54
440.227	11214.51
440.433	11241.13
440.64	11548.33
440.847	11550.37
441.054	11982.49
441.261	12689.04
441.467	12656.28
441.674	12863.12
441.881	13416.07
442.088	13119.12
442.294	12940.94
442.501	13569.67
442.708	13751.94
442.914	14034.56
443.121	14835.31
443.328	14409.34
443.534	15459.95
443.741	15081.07
443.948	14841.46
444.154	16127.58
444.361	16021.09
444.568	16076.38
444.774	15883.87
444.981	16107.1
445.187	16475.74
445.394	17059.41
445.6	16979.54
445.807	18753.08
446.013	18161.22
446.22	18501.18
446.426	18898.48
446.633	19346.99
446.839	19744.3
447.046	19023.41
447.252	20051.49
447.459	20078.11
447.665	19871.27
447.871	20827.67
448.078	21648.91
448.284	20588.06
448.491	21476.88
448.697	21822.98
448.903	22294.02
449.11	22427.14
449.316	21995.01
449.522	22320.64
449.728	22990.33
449.935	23121.4
450.141	23084.53
450.347	23522.8
450.553	22920.7
450.76	23021.05
450.966	23688.68
451.172	23596.53
451.378	24063.46
451.584	23430.64
451.791	24126.95
451.997	24010.21
452.203	24505.82
452.409	24399.33
452.615	24444.38
452.821	23571.95
453.027	22978.04
453.233	24323.55
453.44	23047.67
453.646	23389.68
453.852	23617
454.058	24143.33
454.264	22975.99
454.47	23367.15
454.676	22676.99
454.882	23723.5
455.088	21667.34
455.294	21851.66
455.5	22210.05
455.705	22783.48
455.911	21663.24
456.117	21071.38
456.323	20813.34
456.529	19832.36
456.735	20393.5
456.941	19742.25
457.147	19822.12
457.352	18832.95
457.558	18542.14
457.764	18781.75
457.97	18327.1
458.176	18003.52
458.381	17806.92
458.587	17147.47
458.793	16979.54
458.999	16229.98
459.204	17460.81
459.41	16590.42
459.616	15664.74
459.821	15756.9
460.027	15898.21
460.233	15171.18
460.438	14321.27
460.644	14550.65
460.85	13913.73
461.055	13778.56
461.261	13958.78
461.466	12723.86
461.672	12455.58
461.878	13092.49
462.083	12678.8
462.289	12091.04
462.494	12224.15
462.7	11388.58
462.905	11404.97
463.111	11613.86
463.316	11718.31
463.522	11103.92
463.727	11437.73
463.932	11398.82
464.138	11429.54
464.343	11239.08
464.549	11105.96
464.754	11441.83
464.959	11284.14
465.165	11167.4
465.37	10913.45
465.575	10583.73
465.781	10903.21
465.986	11040.43
466.191	10522.29
466.397	10495.67
466.602	9909.95
466.807	10327.74
467.012	10323.64
467.218	10174.14
467.423	10032.83
467.628	10278.58
467.833	10804.91
468.038	10192.57
468.244	9903.81
468.449	10190.52
