Data from USB4F104151__197__11-10-06-199.txt Node

Date: Wed Mar 12 11:10:06 EDT 2025
User: louis
Spectrometer: USB4F10415
Trigger mode: 4
Integration Time (sec): 2.000000E-2
Scans to average: 1
Electric dark correction enabled: true
Nonlinearity correction enabled: false
Boxcar width: 0
XAxis mode: Wavelengths
Number of Pixels in Spectrum: 3648
>>>>>Begin Spectral Data<<<<<
178.204	-67.75
178.424	-67.75
178.644	-67.75
178.864	-49.32
179.084	-67.75
179.304	34.64
179.524	1.88
179.744	42.84
179.964	32.6
180.184	16.21
180.404	-92.33
180.624	-30.89
180.844	61.27
181.064	-65.71
181.283	-65.71
181.503	28.5
181.723	36.69
181.943	65.36
182.163	59.22
182.383	44.88
182.602	48.98
182.822	12.12
183.042	10.07
183.262	-22.7
183.482	-16.55
183.701	5.97
183.921	8.02
184.141	18.26
184.361	26.45
184.58	34.64
184.8	-22.7
185.02	18.26
185.239	22.36
185.459	-14.51
185.679	34.64
185.898	40.79
186.118	63.32
186.338	40.79
186.557	79.7
186.777	-16.55
186.997	42.84
187.216	-12.46
187.436	16.21
187.655	77.65
187.875	73.56
188.095	8.02
188.314	65.36
188.534	48.98
188.753	40.79
188.973	34.64
189.192	130.9
189.412	16.21
189.631	-8.36
189.851	-45.23
190.07	22.36
190.29	57.17
190.509	63.32
190.729	36.69
190.948	-32.94
191.168	81.75
191.387	77.65
191.607	83.8
191.826	34.64
192.045	44.88
192.265	18.26
192.484	128.85
192.704	14.17
192.923	-4.27
193.142	32.6
193.362	65.36
193.581	5.97
193.8	34.64
194.02	22.36
194.239	91.99
194.458	26.45
194.678	16.21
194.897	44.88
195.116	-24.75
195.335	30.55
195.555	59.22
195.774	26.45
195.993	59.22
196.212	40.79
196.432	24.4
196.651	44.88
196.87	57.17
197.089	36.69
197.308	-24.75
197.528	-22.7
197.747	-26.79
197.966	-8.36
198.185	1.88
198.404	24.4
198.623	34.64
198.842	67.41
199.062	65.36
199.281	71.51
199.5	44.88
199.719	18.26
199.938	65.36
200.157	48.98
200.376	55.12
200.595	28.5
200.814	-12.46
201.033	-43.18
201.252	42.84
201.471	71.51
201.69	36.69
201.909	69.46
202.128	30.55
202.347	1.88
202.566	-26.79
202.785	-18.6
203.004	-88.23
203.223	-14.51
203.442	57.17
203.661	46.93
203.879	48.98
204.098	51.03
204.317	-4.27
204.536	85.84
204.755	91.99
204.974	46.93
205.193	8.02
205.411	63.32
205.63	34.64
205.849	5.97
206.068	20.31
206.287	59.22
206.505	44.88
206.724	79.7
206.943	63.32
207.162	20.31
207.381	1.88
207.599	-28.84
207.818	48.98
208.037	48.98
208.255	59.22
208.474	26.45
208.693	46.93
208.911	-2.22
209.13	-43.18
209.349	61.27
209.567	5.97
209.786	106.32
210.005	-10.41
210.223	8.02
210.442	122.71
210.661	71.51
210.879	-82.09
211.098	-4.27
211.316	-30.89
211.535	100.18
211.753	-8.36
211.972	22.36
212.191	8.02
212.409	83.8
212.628	51.03
212.846	-32.94
213.065	20.31
213.283	61.27
213.502	73.56
213.72	55.12
213.938	83.8
214.157	-2.22
214.375	44.88
214.594	59.22
214.812	-0.17
215.031	22.36
215.249	10.07
215.467	38.74
215.686	75.6
215.904	114.52
216.122	26.45
216.341	55.12
216.559	5.97
216.778	79.7
216.996	63.32
217.214	-37.03
217.432	-26.79
217.651	71.51
217.869	75.6
218.087	83.8
218.306	26.45
218.524	96.08
218.742	-16.55
218.96	-8.36
219.179	-20.65
219.397	14.17
219.615	44.88
219.833	38.74
220.051	63.32
220.27	71.51
220.488	59.22
220.706	-39.08
220.924	-41.13
221.142	-32.94
221.36	-2.22
221.578	18.26
221.796	38.74
222.015	5.97
222.233	-59.56
222.451	-18.6
222.669	14.17
222.887	104.28
223.105	-43.18
223.323	55.12
223.541	14.17
223.759	67.41
223.977	-12.46
224.195	12.12
224.413	40.79
224.631	59.22
224.849	-30.89
225.067	28.5
225.285	20.31
225.503	57.17
225.721	-6.31
225.939	89.94
226.157	96.08
226.375	61.27
226.592	10.07
226.81	-0.17
227.028	100.18
227.246	75.6
227.464	10.07
227.682	12.12
227.9	-34.99
228.117	24.4
228.335	-4.27
228.553	-14.51
228.771	30.55
228.989	51.03
229.206	79.7
229.424	65.36
229.642	-0.17
229.86	-26.79
230.077	10.07
230.295	38.74
230.513	51.03
230.731	51.03
230.948	22.36
231.166	81.75
231.384	30.55
231.601	71.51
231.819	36.69
232.037	55.12
232.254	18.26
232.472	67.41
232.689	10.07
232.907	51.03
233.125	36.69
233.342	-16.55
233.56	-41.13
233.777	36.69
233.995	14.17
234.213	1.88
234.43	55.12
234.648	32.6
234.865	157.52
235.083	-71.85
235.3	55.12
235.518	18.26
235.735	85.84
235.953	18.26
236.17	28.5
236.388	8.02
236.605	38.74
236.822	-10.41
237.04	40.79
237.257	65.36
237.475	28.5
237.692	61.27
237.909	59.22
238.127	20.31
238.344	65.36
238.562	28.5
238.779	12.12
238.996	36.69
239.214	-59.56
239.431	67.41
239.648	18.26
239.865	-34.99
240.083	28.5
240.3	1.88
240.517	34.64
240.735	59.22
240.952	81.75
241.169	12.12
241.386	67.41
241.603	-6.31
241.821	5.97
242.038	34.64
242.255	26.45
242.472	-0.17
242.689	38.74
242.907	67.41
243.124	42.84
243.341	55.12
243.558	75.6
243.775	83.8
243.992	-10.41
244.209	44.88
244.426	89.94
244.643	46.93
244.86	-10.41
245.078	53.08
245.295	61.27
245.512	57.17
245.729	-4.27
245.946	100.18
246.163	36.69
246.38	34.64
246.597	-18.6
246.814	87.89
247.031	38.74
247.248	104.28
247.464	22.36
247.681	110.42
247.898	-2.22
248.115	87.89
248.332	59.22
248.549	5.97
248.766	28.5
248.983	40.79
249.2	87.89
249.417	77.65
249.633	55.12
249.85	42.84
250.067	59.22
250.284	5.97
250.501	104.28
250.717	10.07
250.934	-39.08
251.151	-14.51
251.368	-63.66
251.585	-10.41
251.801	48.98
252.018	5.97
252.235	71.51
252.451	63.32
252.668	44.88
252.885	57.17
253.102	67.41
253.318	30.55
253.535	44.88
253.752	5.97
253.968	57.17
254.185	18.26
254.401	75.6
254.618	20.31
254.835	24.4
255.051	87.89
255.268	-18.6
255.484	36.69
255.701	3.93
255.917	100.18
256.134	79.7
256.351	48.98
256.567	-32.94
256.784	32.6
257	-10.41
257.217	36.69
257.433	79.7
257.65	1.88
257.866	16.21
258.082	1.88
258.299	18.26
258.515	-26.79
258.732	100.18
258.948	14.17
259.165	20.31
259.381	22.36
259.597	1.88
259.814	71.51
260.03	67.41
260.246	-2.22
260.463	40.79
260.679	108.37
260.895	-10.41
261.112	32.6
261.328	28.5
261.544	3.93
261.761	77.65
261.977	28.5
262.193	-6.31
262.409	-43.18
262.626	-14.51
262.842	63.32
263.058	55.12
263.274	3.93
263.49	10.07
263.707	20.31
263.923	8.02
264.139	63.32
264.355	42.84
264.571	71.51
264.787	-24.75
265.004	30.55
265.22	87.89
265.436	55.12
265.652	8.02
265.868	14.17
266.084	20.31
266.3	16.21
266.516	-6.31
266.732	-24.75
266.948	44.88
267.164	44.88
267.38	67.41
267.596	14.17
267.812	55.12
268.028	38.74
268.244	3.93
268.46	-8.36
268.676	32.6
268.892	79.7
269.108	24.4
269.324	28.5
269.54	-43.18
269.756	65.36
269.972	40.79
270.188	96.08
270.403	-10.41
270.619	65.36
270.835	57.17
271.051	42.84
271.267	38.74
271.483	77.65
271.698	14.17
271.914	40.79
272.13	-14.51
272.346	42.84
272.562	32.6
272.777	67.41
272.993	67.41
273.209	8.02
273.425	22.36
273.64	-41.13
273.856	81.75
274.072	63.32
274.287	36.69
274.503	81.75
274.719	122.71
274.934	46.93
275.15	91.99
275.366	116.56
275.581	34.64
275.797	-0.17
276.012	55.12
276.228	34.64
276.444	-61.61
276.659	85.84
276.875	20.31
277.09	46.93
277.306	-10.41
277.521	53.08
277.737	-0.17
277.952	20.31
278.168	1.88
278.383	14.17
278.599	40.79
278.814	26.45
279.03	36.69
279.245	61.27
279.461	36.69
279.676	8.02
279.892	-0.17
280.107	36.69
280.322	30.55
280.538	32.6
280.753	40.79
280.969	75.6
281.184	51.03
281.399	149.33
281.615	18.26
281.83	67.41
282.045	26.45
282.26	34.64
282.476	38.74
282.691	61.27
282.906	59.22
283.122	48.98
283.337	8.02
283.552	34.64
283.767	20.31
283.983	55.12
284.198	16.21
284.413	14.17
284.628	-12.46
284.843	77.65
285.058	-16.55
285.274	34.64
285.489	-37.03
285.704	55.12
285.919	10.07
286.134	53.08
286.349	48.98
286.564	40.79
286.779	14.17
286.995	67.41
287.21	-45.23
287.425	40.79
287.64	-28.84
287.855	75.6
288.07	-6.31
288.285	-20.65
288.5	20.31
288.715	42.84
288.93	85.84
289.145	14.17
289.36	114.52
289.575	65.36
289.79	75.6
290.004	1.88
290.219	40.79
290.434	22.36
290.649	-16.55
290.864	-18.6
291.079	-24.75
291.294	57.17
291.509	44.88
291.724	55.12
291.938	94.04
292.153	12.12
292.368	38.74
292.583	48.98
292.798	65.36
293.012	81.75
293.227	30.55
293.442	77.65
293.657	8.02
293.871	108.37
294.086	3.93
294.301	48.98
294.516	36.69
294.73	38.74
294.945	-39.08
295.16	57.17
295.374	20.31
295.589	-26.79
295.804	38.74
296.018	3.93
296.233	61.27
296.447	-39.08
296.662	51.03
296.877	85.84
297.091	32.6
297.306	14.17
297.52	-43.18
297.735	48.98
297.949	44.88
298.164	96.08
298.378	-18.6
298.593	8.02
298.807	-8.36
299.022	59.22
299.236	26.45
299.451	40.79
299.665	18.26
299.88	8.02
300.094	42.84
300.309	18.26
300.523	-2.22
300.737	-10.41
300.952	77.65
301.166	18.26
301.381	51.03
301.595	8.02
301.809	30.55
302.024	87.89
302.238	59.22
302.452	44.88
302.667	75.6
302.881	59.22
303.095	28.5
303.309	8.02
303.524	53.08
303.738	-8.36
303.952	18.26
304.166	83.8
304.381	-41.13
304.595	-30.89
304.809	46.93
305.023	38.74
305.237	71.51
305.452	34.64
305.666	14.17
305.88	30.55
306.094	38.74
306.308	63.32
306.522	1.88
306.736	83.8
306.95	63.32
307.164	67.41
307.379	75.6
307.593	10.07
307.807	57.17
308.021	38.74
308.235	-20.65
308.449	63.32
308.663	40.79
308.877	46.93
309.091	112.47
309.305	20.31
309.519	42.84
309.733	14.17
309.947	-6.31
310.161	22.36
310.374	104.28
310.588	85.84
310.802	14.17
311.016	48.98
311.23	36.69
311.444	8.02
311.658	-14.51
311.872	26.45
312.085	-10.41
312.299	14.17
312.513	108.37
312.727	110.42
312.941	-22.7
313.154	53.08
313.368	-0.17
313.582	83.8
313.796	79.7
314.009	14.17
314.223	73.56
314.437	10.07
314.651	48.98
314.864	94.04
315.078	-28.84
315.292	-39.08
315.505	-26.79
315.719	32.6
315.933	-10.41
316.146	51.03
316.36	-6.31
316.573	48.98
316.787	-24.75
317.001	87.89
317.214	12.12
317.428	104.28
317.641	18.26
317.855	26.45
318.068	38.74
318.282	102.23
318.495	44.88
318.709	57.17
318.922	-8.36
319.136	79.7
319.349	24.4
319.563	73.56
319.776	63.32
319.99	-0.17
320.203	55.12
320.417	51.03
320.63	-6.31
320.843	139.09
321.057	16.21
321.27	71.51
321.483	38.74
321.697	59.22
321.91	94.04
322.124	-63.66
322.337	22.36
322.55	22.36
322.763	-12.46
322.977	20.31
323.19	59.22
323.403	42.84
323.617	16.21
323.83	-10.41
324.043	51.03
324.256	46.93
324.469	16.21
324.683	-41.13
324.896	-53.42
325.109	100.18
325.322	-12.46
325.535	22.36
325.748	36.69
325.962	40.79
326.175	130.9
326.388	53.08
326.601	51.03
326.814	61.27
327.027	81.75
327.24	91.99
327.453	18.26
327.666	12.12
327.879	89.94
328.092	57.17
328.305	-2.22
328.518	1.88
328.731	8.02
328.944	94.04
329.157	75.6
329.37	-18.6
329.583	42.84
329.796	8.02
330.009	18.26
330.222	83.8
330.435	87.89
330.648	71.51
330.861	171.86
331.073	75.6
331.286	18.26
331.499	3.93
331.712	-37.03
331.925	87.89
332.138	1.88
332.35	79.7
332.563	-49.32
332.776	14.17
332.989	67.41
333.202	53.08
333.414	61.27
333.627	69.46
333.84	104.28
334.053	55.12
334.265	-22.7
334.478	26.45
334.691	14.17
334.903	42.84
335.116	79.7
335.329	24.4
335.541	18.26
335.754	126.8
335.966	12.12
336.179	116.56
336.392	20.31
336.604	-49.32
336.817	94.04
337.029	53.08
337.242	-2.22
337.454	38.74
337.667	18.26
337.88	34.64
338.092	118.61
338.305	87.89
338.517	112.47
338.729	83.8
338.942	120.66
339.154	28.5
339.367	-51.37
339.579	163.67
339.792	67.41
340.004	30.55
340.217	51.03
340.429	51.03
340.641	16.21
340.854	100.18
341.066	-32.94
341.278	59.22
341.491	61.27
341.703	20.31
341.915	98.13
342.128	24.4
342.34	114.52
342.552	69.46
342.764	61.27
342.977	-2.22
343.189	34.64
343.401	14.17
343.613	18.26
343.826	-22.7
344.038	-6.31
344.25	75.6
344.462	44.88
344.674	71.51
344.886	96.08
345.099	-20.65
345.311	67.41
345.523	59.22
345.735	-4.27
345.947	-2.22
346.159	22.36
346.371	36.69
346.583	-26.79
346.795	57.17
347.007	46.93
347.219	53.08
347.431	38.74
347.643	48.98
347.855	-28.84
348.067	51.03
348.279	-6.31
348.491	18.26
348.703	-4.27
348.915	-6.31
349.127	24.4
349.339	65.36
349.551	5.97
349.763	24.4
349.975	24.4
350.187	75.6
350.399	106.32
350.61	71.51
350.822	10.07
351.034	44.88
351.246	38.74
351.458	114.52
351.669	-4.27
351.881	83.8
352.093	1.88
352.305	26.45
352.517	51.03
352.728	110.42
352.94	112.47
353.152	24.4
353.363	-16.55
353.575	75.6
353.787	83.8
353.999	26.45
354.21	42.84
354.422	12.12
354.633	91.99
354.845	51.03
355.057	38.74
355.268	83.8
355.48	-39.08
355.692	67.41
355.903	48.98
356.115	75.6
356.326	16.21
356.538	20.31
356.749	10.07
356.961	87.89
357.172	24.4
357.384	26.45
357.595	104.28
357.807	51.03
358.018	-30.89
358.23	32.6
358.441	96.08
358.653	67.41
358.864	48.98
359.075	-16.55
359.287	22.36
359.498	55.12
359.709	24.4
359.921	51.03
360.132	38.74
360.344	34.64
360.555	36.69
360.766	69.46
360.977	94.04
361.189	40.79
361.4	75.6
361.611	135
361.823	96.08
362.034	10.07
362.245	42.84
362.456	-4.27
362.667	65.36
362.879	16.21
363.09	48.98
363.301	34.64
363.512	-34.99
363.723	51.03
363.935	55.12
364.146	26.45
364.357	91.99
364.568	98.13
364.779	53.08
364.99	75.6
365.201	16.21
365.412	65.36
365.623	53.08
365.834	98.13
366.045	46.93
366.256	-28.84
366.467	102.23
366.678	67.41
366.889	22.36
367.1	51.03
367.311	114.52
367.522	63.32
367.733	28.5
367.944	89.94
368.155	65.36
368.366	-2.22
368.577	116.56
368.788	122.71
368.999	24.4
369.209	132.95
369.42	67.41
369.631	112.47
369.842	126.8
370.053	48.98
370.264	36.69
370.474	44.88
370.685	163.67
370.896	38.74
371.107	34.64
371.317	61.27
371.528	30.55
371.739	94.04
371.95	61.27
372.16	22.36
372.371	118.61
372.582	30.55
372.792	24.4
373.003	40.79
373.214	44.88
373.424	-12.46
373.635	81.75
373.846	32.6
374.056	26.45
374.267	130.9
374.477	8.02
374.688	69.46
374.898	-22.7
375.109	12.12
375.319	36.69
375.53	73.56
375.74	40.79
375.951	1.88
376.161	14.17
376.372	87.89
376.582	26.45
376.793	1.88
377.003	14.17
377.214	57.17
377.424	40.79
377.635	106.32
377.845	-28.84
378.055	22.36
378.266	98.13
378.476	8.02
378.686	67.41
378.897	77.65
379.107	75.6
379.317	94.04
379.528	24.4
379.738	48.98
379.948	14.17
380.158	55.12
380.369	1.88
380.579	73.56
380.789	28.5
380.999	44.88
381.21	104.28
381.42	67.41
381.63	18.26
381.84	71.51
382.05	28.5
382.261	40.79
382.471	32.6
382.681	65.36
382.891	30.55
383.101	67.41
383.311	16.21
383.521	20.31
383.731	89.94
383.941	48.98
384.151	75.6
384.361	44.88
384.571	98.13
384.781	110.42
384.991	20.31
385.201	59.22
385.411	79.7
385.621	36.69
385.831	22.36
386.041	65.36
386.251	44.88
386.461	61.27
386.671	38.74
386.881	53.08
387.091	44.88
387.301	34.64
387.511	-26.79
387.72	42.84
387.93	81.75
388.14	89.94
388.35	46.93
388.56	59.22
388.769	67.41
388.979	46.93
389.189	71.51
389.399	81.75
389.609	57.17
389.818	73.56
390.028	20.31
390.238	34.64
390.447	98.13
390.657	87.89
390.867	14.17
391.076	94.04
391.286	22.36
391.496	79.7
391.705	42.84
391.915	91.99
392.125	65.36
392.334	61.27
392.544	81.75
392.753	57.17
392.963	46.93
393.172	83.8
393.382	137.04
393.591	128.85
393.801	83.8
394.01	85.84
394.22	132.95
394.429	85.84
394.639	-6.31
394.848	55.12
395.058	67.41
395.267	83.8
395.477	71.51
395.686	118.61
395.895	71.51
396.105	85.84
396.314	100.18
396.524	53.08
396.733	48.98
396.942	104.28
397.152	130.9
397.361	85.84
397.57	38.74
397.78	42.84
397.989	151.38
398.198	59.22
398.407	98.13
398.617	124.76
398.826	110.42
399.035	3.93
399.244	85.84
399.453	147.28
399.663	18.26
399.872	137.04
400.081	75.6
400.29	46.93
400.499	42.84
400.708	120.66
400.917	69.46
401.127	141.14
401.336	126.8
401.545	59.22
401.754	167.76
401.963	112.47
402.172	108.37
402.381	135
402.59	81.75
402.799	167.76
403.008	114.52
403.217	71.51
403.426	161.62
403.635	57.17
403.844	55.12
404.053	153.43
404.262	89.94
404.471	141.14
404.68	94.04
404.888	153.43
405.097	100.18
405.306	159.57
405.515	147.28
405.724	132.95
405.933	130.9
406.142	159.57
406.35	147.28
406.559	151.38
406.768	145.24
406.977	122.71
407.185	198.48
407.394	159.57
407.603	155.47
407.812	182.1
408.02	212.82
408.229	192.34
408.438	243.54
408.646	143.19
408.855	216.91
409.064	171.86
409.272	268.11
409.481	257.87
409.69	245.59
409.898	253.78
410.107	300.88
410.315	313.17
410.524	296.78
410.733	290.64
410.941	202.58
411.15	313.17
411.358	296.78
411.567	431.95
411.775	278.35
411.984	327.5
412.192	405.33
412.401	366.42
412.609	382.8
412.818	452.43
413.026	421.71
413.234	393.04
413.443	431.95
413.651	421.71
413.86	413.52
414.068	434
414.276	497.49
414.485	513.87
414.693	540.49
414.901	536.4
415.11	542.54
415.318	581.45
415.526	583.5
415.734	679.75
415.943	616.27
416.151	698.19
416.359	673.61
416.567	685.9
416.776	573.26
416.984	751.43
417.192	714.57
417.4	769.87
417.608	702.28
417.817	753.48
418.025	835.4
418.233	950.09
418.441	915.27
418.649	941.89
418.857	909.13
419.065	1027.91
419.273	1009.48
419.481	1048.39
419.689	1142.6
419.897	1103.68
420.105	1197.89
420.313	1296.19
420.521	1267.52
420.729	1269.57
420.937	1384.26
421.145	1349.44
421.353	1457.98
421.561	1402.69
421.769	1441.6
421.977	1644.35
422.185	1523.52
422.393	1560.38
422.601	1623.87
422.809	1787.71
423.017	1730.36
423.224	1873.72
423.432	1886.01
423.64	1863.48
423.848	2219.83
424.056	2070.33
424.263	2178.87
424.471	2172.72
424.679	2246.45
424.887	2289.46
425.094	2576.17
425.302	2432.82
425.51	2508.59
425.718	2670.38
425.925	2639.66
426.133	2707.24
426.341	2879.27
426.548	3073.83
426.756	3016.49
426.964	3008.3
427.171	3284.77
427.379	3235.62
427.586	3399.46
427.794	3436.32
428.001	3575.58
428.209	3761.95
428.417	3700.51
428.624	3966.74
428.832	3823.39
429.039	3843.87
429.247	4009.75
429.454	4312.85
429.662	4568.85
429.869	4202.26
430.076	4587.28
430.284	4435.73
430.491	4585.23
430.699	5009.16
430.906	4912.91
431.114	4865.8
431.321	5181.19
431.528	5277.44
431.736	5682.94
431.943	5842.68
432.15	5641.98
432.358	5822.2
432.565	6022.91
432.772	6061.82
432.979	6143.74
433.187	6481.65
433.394	6620.91
433.601	6878.96
433.808	7038.7
434.016	6821.61
434.223	7362.28
434.43	7546.59
434.637	7433.96
434.844	7995.1
435.052	8109.79
435.259	8199.9
435.466	8109.79
435.673	7878.37
435.88	8658.64
436.087	8949.45
436.294	9023.18
436.501	8945.36
436.708	8939.21
436.915	9344.71
437.122	9813.7
437.329	9586.37
437.537	10051.26
437.743	10045.12
437.95	10034.88
438.157	10663.6
438.364	11105.96
438.571	10895.02
438.778	11015.85
438.985	12138.14
439.192	11263.66
439.399	11857.57
439.606	11505.32
439.813	12404.38
440.02	13049.49
440.227	12781.2
440.433	12691.09
440.64	13219.47
440.847	13170.32
441.054	13217.42
441.261	14100.09
441.467	14276.22
441.674	14237.31
441.881	14788.21
442.088	14440.06
442.294	14489.21
442.501	14919.28
442.708	15371.88
442.914	15937.12
443.121	16694.87
443.328	15908.45
443.534	17423.95
443.741	16666.2
443.948	16434.78
444.154	17675.85
444.361	17745.48
444.568	17751.62
444.774	17589.83
444.981	17901.12
445.187	18396.73
445.394	19164.72
445.6	18740.79
445.807	20858.39
446.013	19764.78
446.22	20379.17
446.426	21190.16
446.633	21286.42
446.839	22015.49
447.046	20942.36
447.252	22078.98
447.459	21968.39
447.665	22033.93
447.871	23014.9
448.078	24169.96
448.284	23096.82
448.491	23723.5
448.697	24346.08
448.903	24860.12
449.11	24788.44
449.316	24403.42
449.522	24374.75
449.728	25239
449.935	25601.49
450.141	25431.51
450.347	26201.54
450.553	25310.68
450.76	25503.18
450.966	25980.36
451.172	26080.71
451.378	26475.97
451.584	26049.99
451.791	26926.52
451.997	26725.82
452.203	27458.99
452.409	27194.81
452.615	26990.01
452.821	25972.17
453.027	25333.2
453.233	27078.07
453.44	25865.67
453.646	25945.55
453.852	26541.5
454.058	26971.58
454.264	25710.03
454.47	26183.11
454.676	25662.93
454.882	26684.86
455.088	24049.13
455.294	24462.82
455.5	24839.64
455.705	25013.72
455.911	24010.21
456.117	23729.64
456.323	23389.68
456.529	21765.64
456.735	22738.43
456.941	22224.39
457.147	21872.14
457.352	21116.44
457.558	21005.84
457.764	21042.71
457.97	20704.79
458.176	20157.99
458.381	20381.21
458.587	19217.97
458.793	18908.72
458.999	18177.6
459.204	19682.86
459.41	18875.96
459.616	17690.18
459.821	17602.12
460.027	17555.02
460.233	17149.52
460.438	16461.4
460.644	16715.35
460.85	15595.11
461.055	15660.65
461.261	15466.09
461.466	14351.99
461.672	14028.42
461.878	15048.3
462.083	13852.29
462.289	13762.18
462.494	13506.18
462.7	13182.6
462.905	12519.06
463.111	13094.54
463.316	13131.4
463.522	12912.27
463.727	12996.24
463.932	12813.97
464.138	12541.59
464.343	12562.07
464.549	12449.43
464.754	12797.59
464.959	12746.39
465.165	12435.1
465.37	12125.85
465.575	11630.24
465.781	12441.24
465.986	12281.5
466.191	11916.96
466.397	11785.89
466.602	10913.45
466.807	11685.54
467.012	11550.37
467.218	11443.88
467.423	11392.68
467.628	11335.34
467.833	11740.83
468.038	11460.26
468.244	10862.26
