Data from USB4F104151__146__11-08-18-111.txt Node

Date: Wed Mar 12 11:08:18 EDT 2025
User: louis
Spectrometer: USB4F10415
Trigger mode: 4
Integration Time (sec): 2.000000E-2
Scans to average: 1
Electric dark correction enabled: true
Nonlinearity correction enabled: false
Boxcar width: 0
XAxis mode: Wavelengths
Number of Pixels in Spectrum: 3648
>>>>>Begin Spectral Data<<<<<
178.204	-76.63
178.424	-76.63
178.644	-76.63
178.864	-84.82
179.084	-45.91
179.304	-41.81
179.524	-31.57
179.744	-45.91
179.964	5.29
180.184	13.48
180.404	126.12
180.624	-58.2
180.844	46.25
181.064	-58.2
181.283	38.06
181.503	-0.85
181.723	7.34
181.943	-19.29
182.163	97.45
182.383	81.07
182.602	62.63
182.822	64.68
183.042	54.44
183.262	-58.2
183.482	-17.24
183.701	3.24
183.921	66.73
184.141	31.91
184.361	11.43
184.58	66.73
184.8	44.2
185.02	-25.43
185.239	68.78
185.459	-11.09
185.679	9.39
185.898	-101.2
186.118	-21.33
186.338	25.77
186.557	3.24
186.777	68.78
186.997	54.44
187.216	52.39
187.436	81.07
187.655	83.11
187.875	-2.9
188.095	31.91
188.314	70.83
188.534	58.54
188.753	50.35
188.973	103.59
189.192	81.07
189.412	25.77
189.631	38.06
189.851	5.29
190.07	62.63
190.29	50.35
190.509	-7
190.729	25.77
190.948	64.68
191.168	95.4
191.387	105.64
191.607	-2.9
191.826	31.91
192.045	13.48
192.265	99.5
192.484	56.49
192.704	5.29
192.923	117.93
193.142	29.87
193.362	46.25
193.581	27.82
193.8	33.96
194.02	74.92
194.239	72.87
194.458	87.21
194.678	-15.19
194.897	-4.95
195.116	29.87
195.335	-15.19
195.555	-2.9
195.774	58.54
195.993	103.59
196.212	-15.19
196.432	-7
196.651	9.39
196.87	66.73
197.089	105.64
197.308	58.54
197.528	48.3
197.747	-29.52
197.966	40.11
198.185	50.35
198.404	66.73
198.623	46.25
198.842	17.58
199.062	11.43
199.281	58.54
199.5	-39.76
199.719	-0.85
199.938	29.87
200.157	-33.62
200.376	52.39
200.595	50.35
200.814	23.72
201.033	62.63
201.252	62.63
201.471	29.87
201.69	31.91
201.909	-39.76
202.128	56.49
202.347	89.26
202.566	70.83
202.785	72.87
203.004	25.77
203.223	119.98
203.442	-23.38
203.661	74.92
203.879	29.87
204.098	11.43
204.317	15.53
204.536	111.78
204.755	-4.95
204.974	29.87
205.193	42.15
205.411	66.73
205.63	23.72
205.849	42.15
206.068	42.15
206.287	-11.09
206.505	70.83
206.724	-62.29
206.943	-45.91
207.162	74.92
207.381	11.43
207.599	15.53
207.818	36.01
208.037	68.78
208.255	7.34
208.474	36.01
208.693	42.15
208.911	101.55
209.13	21.67
209.349	23.72
209.567	-15.19
209.786	48.3
210.005	44.2
210.223	60.59
210.442	38.06
210.661	-7
210.879	21.67
211.098	44.2
211.316	72.87
211.535	33.96
211.753	91.31
211.972	52.39
212.191	5.29
212.409	-7
212.628	54.44
212.846	91.31
213.065	81.07
213.283	52.39
213.502	29.87
213.72	62.63
213.938	76.97
214.157	9.39
214.375	31.91
214.594	19.63
214.812	46.25
215.031	31.91
215.249	42.15
215.467	54.44
215.686	5.29
215.904	42.15
216.122	48.3
216.341	29.87
216.559	-19.29
216.778	52.39
216.996	29.87
217.214	27.82
217.432	-27.48
217.651	-13.14
217.869	48.3
218.087	13.48
218.306	-45.91
218.524	36.01
218.742	-4.95
218.96	25.77
219.179	29.87
219.397	52.39
219.615	109.74
219.833	109.74
220.051	13.48
220.27	52.39
220.488	17.58
220.706	-17.24
220.924	19.63
221.142	-19.29
221.36	25.77
221.578	33.96
221.796	-11.09
222.015	31.91
222.233	-19.29
222.451	25.77
222.669	3.24
222.887	5.29
223.105	5.29
223.323	38.06
223.541	46.25
223.759	56.49
223.977	44.2
224.195	83.11
224.413	-19.29
224.631	9.39
224.849	68.78
225.067	79.02
225.285	19.63
225.503	-23.38
225.721	-41.81
225.939	29.87
226.157	-2.9
226.375	115.88
226.592	103.59
226.81	15.53
227.028	83.11
227.246	66.73
227.464	64.68
227.682	29.87
227.9	56.49
228.117	83.11
228.335	-11.09
228.553	111.78
228.771	58.54
228.989	54.44
229.206	-11.09
229.424	64.68
229.642	27.82
229.86	-9.05
230.077	9.39
230.295	-7
230.513	-2.9
230.731	46.25
230.948	79.02
231.166	19.63
231.384	33.96
231.601	29.87
231.819	38.06
232.037	54.44
232.254	36.01
232.472	-21.33
232.689	23.72
232.907	15.53
233.125	-11.09
233.342	1.19
233.56	-2.9
233.777	21.67
233.995	1.19
234.213	29.87
234.43	29.87
234.648	1.19
234.865	52.39
235.083	19.63
235.3	42.15
235.518	40.11
235.735	48.3
235.953	83.11
236.17	-7
236.388	17.58
236.605	68.78
236.822	124.07
237.04	31.91
237.257	11.43
237.475	58.54
237.692	58.54
237.909	40.11
238.127	44.2
238.344	58.54
238.562	76.97
238.779	-27.48
238.996	17.58
239.214	-43.86
239.431	58.54
239.648	81.07
239.865	64.68
240.083	44.2
240.3	62.63
240.517	15.53
240.735	66.73
240.952	56.49
241.169	54.44
241.386	79.02
241.603	79.02
241.821	-21.33
242.038	64.68
242.255	97.45
242.472	19.63
242.689	62.63
242.907	130.22
243.124	74.92
243.341	-13.14
243.558	91.31
243.775	-66.39
243.992	-9.05
244.209	3.24
244.426	68.78
244.643	42.15
244.86	3.24
245.078	62.63
245.295	107.69
245.512	79.02
245.729	56.49
245.946	74.92
246.163	33.96
246.38	50.35
246.597	36.01
246.814	58.54
247.031	-19.29
247.248	70.83
247.464	27.82
247.681	74.92
247.898	38.06
248.115	31.91
248.332	54.44
248.549	103.59
248.766	56.49
248.983	19.63
249.2	9.39
249.417	15.53
249.633	-13.14
249.85	-31.57
250.067	52.39
250.284	23.72
250.501	40.11
250.717	42.15
250.934	36.01
251.151	21.67
251.368	5.29
251.585	11.43
251.801	17.58
252.018	38.06
252.235	33.96
252.451	40.11
252.668	-21.33
252.885	15.53
253.102	95.4
253.318	7.34
253.535	31.91
253.752	36.01
253.968	70.83
254.185	62.63
254.401	5.29
254.618	70.83
254.835	40.11
255.051	44.2
255.268	33.96
255.484	48.3
255.701	44.2
255.917	25.77
256.134	87.21
256.351	-33.62
256.567	38.06
256.784	56.49
257	5.29
257.217	74.92
257.433	3.24
257.65	46.25
257.866	66.73
258.082	58.54
258.299	3.24
258.515	101.55
258.732	128.17
258.948	-25.43
259.165	66.73
259.381	64.68
259.597	70.83
259.814	-9.05
260.03	44.2
260.246	-15.19
260.463	38.06
260.679	48.3
260.895	58.54
261.112	33.96
261.328	79.02
261.544	9.39
261.761	66.73
261.977	29.87
262.193	3.24
262.409	81.07
262.626	109.74
262.842	-13.14
263.058	7.34
263.274	7.34
263.49	130.22
263.707	74.92
263.923	91.31
264.139	27.82
264.355	50.35
264.571	105.64
264.787	-4.95
265.004	33.96
265.22	3.24
265.436	23.72
265.652	58.54
265.868	-35.67
266.084	21.67
266.3	33.96
266.516	1.19
266.732	95.4
266.948	113.83
267.164	11.43
267.38	27.82
267.596	111.78
267.812	5.29
268.028	3.24
268.244	72.87
268.46	70.83
268.676	113.83
268.892	-11.09
269.108	42.15
269.324	1.19
269.54	7.34
269.756	19.63
269.972	-74.58
270.188	64.68
270.403	5.29
270.619	31.91
270.835	50.35
271.051	-4.95
271.267	62.63
271.483	-23.38
271.698	-7
271.914	44.2
272.13	76.97
272.346	87.21
272.562	-43.86
272.777	5.29
272.993	3.24
273.209	95.4
273.425	62.63
273.64	-19.29
273.856	31.91
274.072	46.25
274.287	54.44
274.503	29.87
274.719	36.01
274.934	87.21
275.15	44.2
275.366	-4.95
275.581	5.29
275.797	60.59
276.012	66.73
276.228	17.58
276.444	58.54
276.659	23.72
276.875	-9.05
277.09	58.54
277.306	103.59
277.521	60.59
277.737	27.82
277.952	54.44
278.168	19.63
278.383	50.35
278.599	74.92
278.814	62.63
279.03	21.67
279.245	5.29
279.461	103.59
279.676	-11.09
279.892	-4.95
280.107	21.67
280.322	50.35
280.538	103.59
280.753	54.44
280.969	3.24
281.184	95.4
281.399	93.35
281.615	-33.62
281.83	42.15
282.045	72.87
282.26	-39.76
282.476	38.06
282.691	13.48
282.906	79.02
283.122	50.35
283.337	-11.09
283.552	66.73
283.767	19.63
283.983	48.3
284.198	21.67
284.413	56.49
284.628	-35.67
284.843	54.44
285.058	103.59
285.274	52.39
285.489	-21.33
285.704	99.5
285.919	36.01
286.134	52.39
286.349	7.34
286.564	29.87
286.779	62.63
286.995	48.3
287.21	60.59
287.425	-7
287.64	54.44
287.855	40.11
288.07	68.78
288.285	19.63
288.5	103.59
288.715	89.26
288.93	-41.81
289.145	-33.62
289.36	42.15
289.575	42.15
289.79	66.73
290.004	87.21
290.219	56.49
290.434	-7
290.649	11.43
290.864	91.31
291.079	-17.24
291.294	60.59
291.509	52.39
291.724	21.67
291.938	38.06
292.153	79.02
292.368	38.06
292.583	93.35
292.798	48.3
293.012	9.39
293.227	52.39
293.442	60.59
293.657	5.29
293.871	25.77
294.086	19.63
294.301	138.41
294.516	74.92
294.73	38.06
294.945	-4.95
295.16	79.02
295.374	50.35
295.589	-13.14
295.804	27.82
296.018	7.34
296.233	91.31
296.447	126.12
296.662	17.58
296.877	74.92
297.091	25.77
297.306	11.43
297.52	-7
297.735	56.49
297.949	74.92
298.164	3.24
298.378	5.29
298.593	97.45
298.807	13.48
299.022	60.59
299.236	38.06
299.451	9.39
299.665	38.06
299.88	101.55
300.094	62.63
300.309	103.59
300.523	68.78
300.737	101.55
300.952	70.83
301.166	74.92
301.381	19.63
301.595	11.43
301.809	13.48
302.024	9.39
302.238	-35.67
302.452	17.58
302.667	-68.44
302.881	79.02
303.095	13.48
303.309	9.39
303.524	11.43
303.738	-45.91
303.952	50.35
304.166	9.39
304.381	-4.95
304.595	25.77
304.809	-25.43
305.023	79.02
305.237	70.83
305.452	134.31
305.666	81.07
305.88	50.35
306.094	64.68
306.308	36.01
306.522	62.63
306.736	5.29
306.95	13.48
307.164	17.58
307.379	95.4
307.593	38.06
307.807	17.58
308.021	50.35
308.235	56.49
308.449	19.63
308.663	-9.05
308.877	119.98
309.091	29.87
309.305	76.97
309.519	-31.57
309.733	72.87
309.947	-2.9
310.161	29.87
310.374	44.2
310.588	50.35
310.802	62.63
311.016	15.53
311.23	83.11
311.444	38.06
311.658	54.44
311.872	72.87
312.085	93.35
312.299	93.35
312.513	95.4
312.727	33.96
312.941	-23.38
313.154	13.48
313.368	93.35
313.582	1.19
313.796	74.92
314.009	-7
314.223	140.46
314.437	21.67
314.651	70.83
314.864	9.39
315.078	27.82
315.292	60.59
315.505	-33.62
315.719	7.34
315.933	48.3
316.146	-54.1
316.36	-35.67
316.573	-27.48
316.787	27.82
317.001	-15.19
317.214	40.11
317.428	36.01
317.641	1.19
317.855	5.29
318.068	-11.09
318.282	85.16
318.495	56.49
318.709	74.92
318.922	83.11
319.136	76.97
319.349	38.06
319.563	23.72
319.776	27.82
319.99	103.59
320.203	79.02
320.417	50.35
320.63	91.31
320.843	38.06
321.057	107.69
321.27	33.96
321.483	21.67
321.697	85.16
321.91	-19.29
322.124	68.78
322.337	85.16
322.55	42.15
322.763	33.96
322.977	15.53
323.19	29.87
323.403	83.11
323.617	81.07
323.83	48.3
324.043	-37.72
324.256	-35.67
324.469	50.35
324.683	52.39
324.896	46.25
325.109	85.16
325.322	66.73
325.535	132.26
325.748	25.77
325.962	56.49
326.175	54.44
326.388	130.22
326.601	111.78
326.814	19.63
327.027	76.97
327.24	60.59
327.453	76.97
327.666	36.01
327.879	119.98
328.092	68.78
328.305	23.72
328.518	23.72
328.731	44.2
328.944	13.48
329.157	13.48
329.37	11.43
329.583	70.83
329.796	68.78
330.009	72.87
330.222	128.17
330.435	44.2
330.648	68.78
330.861	46.25
331.073	50.35
331.286	-21.33
331.499	87.21
331.712	27.82
331.925	31.91
332.138	62.63
332.35	27.82
332.563	33.96
332.776	48.3
332.989	38.06
333.202	-4.95
333.414	91.31
333.627	7.34
333.84	27.82
334.053	19.63
334.265	33.96
334.478	60.59
334.691	79.02
334.903	-29.52
335.116	9.39
335.329	62.63
335.541	99.5
335.754	103.59
335.966	50.35
336.179	60.59
336.392	38.06
336.604	66.73
336.817	-4.95
337.029	54.44
337.242	5.29
337.454	126.12
337.667	36.01
337.88	-2.9
338.092	15.53
338.305	87.21
338.517	15.53
338.729	81.07
338.942	68.78
339.154	124.07
339.367	79.02
339.579	38.06
339.792	38.06
340.004	60.59
340.217	79.02
340.429	46.25
340.641	33.96
340.854	29.87
341.066	11.43
341.278	117.93
341.491	33.96
341.703	50.35
341.915	33.96
342.128	-25.43
342.34	9.39
342.552	58.54
342.764	5.29
342.977	85.16
343.189	89.26
343.401	140.46
343.613	-31.57
343.826	70.83
344.038	46.25
344.25	-13.14
344.462	36.01
344.674	76.97
344.886	13.48
345.099	-2.9
345.311	70.83
345.523	13.48
345.735	-2.9
345.947	101.55
346.159	68.78
346.371	68.78
346.583	79.02
346.795	38.06
347.007	23.72
347.219	72.87
347.431	33.96
347.643	5.29
347.855	-31.57
348.067	85.16
348.279	27.82
348.491	46.25
348.703	44.2
348.915	38.06
349.127	29.87
349.339	40.11
349.551	13.48
349.763	87.21
349.975	70.83
350.187	72.87
350.399	91.31
350.61	60.59
350.822	29.87
351.034	107.69
351.246	76.97
351.458	70.83
351.669	9.39
351.881	66.73
352.093	38.06
352.305	72.87
352.517	44.2
352.728	-15.19
352.94	1.19
353.152	103.59
353.363	-74.58
353.575	107.69
353.787	21.67
353.999	-9.05
354.21	56.49
354.422	40.11
354.633	-64.34
354.845	79.02
355.057	9.39
355.268	11.43
355.48	58.54
355.692	81.07
355.903	27.82
356.115	9.39
356.326	-19.29
356.538	119.98
356.749	9.39
356.961	62.63
357.172	48.3
357.384	58.54
357.595	81.07
357.807	-11.09
358.018	66.73
358.23	46.25
358.441	9.39
358.653	13.48
358.864	21.67
359.075	103.59
359.287	72.87
359.498	64.68
359.709	21.67
359.921	52.39
360.132	54.44
360.344	85.16
360.555	93.35
360.766	60.59
360.977	44.2
361.189	46.25
361.4	64.68
361.611	-0.85
361.823	42.15
362.034	66.73
362.245	44.2
362.456	81.07
362.667	140.46
362.879	36.01
363.09	11.43
363.301	52.39
363.512	29.87
363.723	11.43
363.935	85.16
364.146	81.07
364.357	48.3
364.568	58.54
364.779	-31.57
364.99	33.96
365.201	23.72
365.412	46.25
365.623	89.26
365.834	58.54
366.045	-11.09
366.256	44.2
366.467	15.53
366.678	93.35
366.889	52.39
367.1	46.25
367.311	19.63
367.522	126.12
367.733	33.96
367.944	70.83
368.155	-19.29
368.366	101.55
368.577	70.83
368.788	9.39
368.999	76.97
369.209	58.54
369.42	99.5
369.631	40.11
369.842	95.4
370.053	58.54
370.264	38.06
370.474	27.82
370.685	60.59
370.896	48.3
371.107	146.6
371.317	117.93
371.528	23.72
371.739	50.35
371.95	128.17
372.16	15.53
372.371	60.59
372.582	19.63
372.792	21.67
373.003	36.01
373.214	103.59
373.424	105.64
373.635	29.87
373.846	74.92
374.056	31.91
374.267	-35.67
374.477	36.01
374.688	58.54
374.898	70.83
375.109	87.21
375.319	74.92
375.53	109.74
375.74	99.5
375.951	40.11
376.161	56.49
376.372	138.41
376.582	97.45
376.793	115.88
377.003	44.2
377.214	52.39
377.424	72.87
377.635	15.53
377.845	-11.09
378.055	85.16
378.266	60.59
378.476	60.59
378.686	21.67
378.897	83.11
379.107	9.39
379.317	56.49
379.528	52.39
379.738	52.39
379.948	62.63
380.158	42.15
380.369	74.92
380.579	70.83
380.789	70.83
380.999	87.21
381.21	103.59
381.42	40.11
381.63	70.83
381.84	76.97
382.05	105.64
382.261	140.46
382.471	107.69
382.681	27.82
382.891	105.64
383.101	40.11
383.311	-4.95
383.521	60.59
383.731	95.4
383.941	27.82
384.151	48.3
384.361	58.54
384.571	36.01
384.781	122.02
384.991	107.69
385.201	91.31
385.411	113.83
385.621	38.06
385.831	13.48
386.041	111.78
386.251	87.21
386.461	40.11
386.671	101.55
386.881	70.83
387.091	113.83
387.301	109.74
387.511	68.78
387.72	124.07
387.93	52.39
388.14	62.63
388.35	68.78
388.56	44.2
388.769	68.78
388.979	42.15
389.189	76.97
389.399	132.26
389.609	99.5
389.818	85.16
390.028	-17.24
390.238	83.11
390.447	74.92
390.657	68.78
390.867	48.3
391.076	64.68
391.286	103.59
391.496	15.53
391.705	62.63
391.915	148.65
392.125	87.21
392.334	64.68
392.544	103.59
392.753	91.31
392.963	107.69
393.172	87.21
393.382	79.02
393.591	81.07
393.801	70.83
394.01	64.68
394.22	95.4
394.429	72.87
394.639	66.73
394.848	87.21
395.058	81.07
395.267	93.35
395.477	70.83
395.686	165.03
395.895	79.02
396.105	111.78
396.314	117.93
396.524	48.3
396.733	124.07
396.942	62.63
397.152	142.5
397.361	117.93
397.57	93.35
397.78	97.45
397.989	38.06
398.198	189.61
398.407	109.74
398.617	134.31
398.826	111.78
399.035	99.5
399.244	64.68
399.453	150.7
399.663	138.41
399.872	148.65
400.081	103.59
400.29	128.17
400.499	142.5
400.708	128.17
400.917	165.03
401.127	140.46
401.336	103.59
401.545	93.35
401.754	93.35
401.963	132.26
402.172	87.21
402.381	101.55
402.59	72.87
402.799	128.17
403.008	85.16
403.217	126.12
403.426	64.68
403.635	105.64
403.844	101.55
404.053	87.21
404.262	115.88
404.471	117.93
404.68	173.22
404.888	124.07
405.097	85.16
405.306	140.46
405.515	76.97
405.724	156.84
405.933	191.66
406.142	160.94
406.35	208.04
406.559	244.9
406.768	156.84
406.977	150.7
407.185	220.33
407.394	197.8
407.603	201.9
407.812	189.61
408.02	240.81
408.229	238.76
408.438	179.37
408.646	111.78
408.855	220.33
409.064	205.99
409.272	292.01
409.481	314.53
409.69	316.58
409.898	222.38
410.107	246.95
410.315	351.4
410.524	351.4
410.733	275.62
410.941	263.33
411.15	330.92
411.358	369.83
411.567	339.11
411.775	359.59
411.984	367.78
412.192	394.4
412.401	421.03
412.609	398.5
412.818	449.7
413.026	500.9
413.234	496.8
413.443	439.46
413.651	502.95
413.86	490.66
414.068	621.73
414.276	625.83
414.485	533.67
414.693	615.59
414.901	644.26
415.11	593.06
415.318	640.16
415.526	664.74
415.734	699.55
415.943	738.46
416.151	767.13
416.359	783.52
416.567	763.04
416.776	779.42
416.984	801.95
417.192	912.54
417.4	949.4
417.608	851.1
417.817	980.12
418.025	990.36
418.233	1037.47
418.441	1041.56
418.649	1035.42
418.857	1137.82
419.065	1234.07
419.273	1191.06
419.481	1180.82
419.689	1346.71
419.897	1385.62
420.105	1395.86
420.313	1492.12
420.521	1418.39
420.729	1547.41
420.937	1604.75
421.145	1582.23
421.353	1754.26
421.561	1746.06
421.769	1889.42
421.977	1868.94
422.185	1883.28
422.393	1893.52
422.601	2069.64
422.809	2051.21
423.017	2112.65
423.224	2245.77
423.432	2256.01
423.64	2303.11
423.848	2485.38
424.056	2391.17
424.263	2577.54
424.471	2434.18
424.679	2612.35
424.887	2911.36
425.094	2901.12
425.302	2819.2
425.51	3032.19
425.718	3114.11
425.925	3189.88
426.133	3193.98
426.341	3331.19
426.548	3466.36
426.756	3535.99
426.964	3650.67
427.171	3867.76
427.379	3841.14
427.586	3900.53
427.794	4021.36
428.001	4246.63
428.209	4414.57
428.417	4516.97
428.624	4715.62
428.832	4791.39
429.039	4695.14
429.247	4752.48
429.454	5078.11
429.662	5442.65
429.869	5235.8
430.076	5483.61
430.284	5307.48
430.491	5659.73
430.699	5854.29
430.906	5764.18
431.114	5973.07
431.321	6157.39
431.528	6386.76
431.736	6775.88
431.943	7003.2
432.15	6851.65
432.358	6976.58
432.565	7068.73
432.772	7343.16
432.979	7566.39
433.187	7617.59
433.394	7662.65
433.601	8029.23
433.808	8311.85
434.016	8365.1
434.223	8576.04
434.43	9149.47
434.637	9020.45
434.844	9511.96
435.052	9591.83
435.259	9618.46
435.466	9714.71
435.673	9673.75
435.88	10177.55
436.087	10757.13
436.294	10568.71
436.501	10320.91
436.708	10726.41
436.915	11197.44
437.122	11549.69
437.329	11531.26
437.537	11998.2
437.743	12127.22
437.95	12065.78
438.157	12665.83
438.364	13118.43
438.571	12764.14
438.778	13046.76
438.985	14300.11
439.192	13786.07
439.399	14271.44
439.606	13683.67
439.813	14838.73
440.02	15535.04
440.227	15193.03
440.433	15211.46
440.64	15457.21
440.847	15492.03
441.054	15766.46
441.261	16761.77
441.467	16645.04
441.674	17071.01
441.881	17623.97
442.088	17863.58
442.294	17402.79
442.501	17806.23
442.708	18398.1
442.914	19161.99
443.121	19798.91
443.328	19344.26
443.534	20573.04
443.741	20177.78
443.948	19968.89
444.154	21371.75
444.361	21093.22
444.568	21095.27
444.774	21255.01
444.981	21543.78
445.187	22162.26
445.394	22885.2
445.6	22563.67
445.807	24970.03
446.013	23749.44
446.22	23935.81
446.426	25035.56
446.633	25316.14
446.839	26161.95
447.046	24937.26
447.252	26575.64
447.459	26350.36
447.665	26585.88
447.871	27435.78
448.078	28400.38
448.284	27624.2
448.491	28156.67
448.697	29283.05
448.903	29457.13
449.11	29670.12
449.316	29039.34
449.522	29858.53
449.728	30554.84
449.935	30503.64
450.141	30554.84
450.347	31378.12
450.553	30597.85
450.76	30763.73
450.966	31562.44
451.172	31398.6
451.378	32250.56
451.584	31283.92
451.791	32035.52
451.997	31951.56
452.203	32492.22
452.409	32574.14
452.615	32234.17
452.821	31105.74
453.027	30980.82
453.233	32463.55
453.44	31009.49
453.646	31541.96
453.852	31308.49
454.058	31980.23
454.264	31333.07
454.47	31527.63
454.676	31046.35
454.882	31834.82
455.088	29123.31
455.294	29684.45
455.5	29678.31
455.705	30143.2
455.911	28758.77
456.117	28128
456.323	27978.5
456.529	26309.4
456.735	27706.12
456.941	27040.53
457.147	26491.67
457.352	25606.95
457.558	25336.62
457.764	25369.38
457.97	24734.51
458.176	24392.5
458.381	24486.71
458.587	23159.63
458.793	23296.84
458.999	22195.03
459.204	23647.04
459.41	22977.36
459.616	21214.05
459.821	21451.62
460.027	21445.48
460.233	20876.14
460.438	19788.67
460.644	20015.99
460.85	18951.05
461.055	18879.37
461.261	18748.3
461.466	17347.49
461.672	16827.31
461.878	18355.09
462.083	16812.97
462.289	16614.32
462.494	16532.4
462.7	15655.87
462.905	15039.43
463.111	16012.21
463.316	16180.15
463.522	15545.28
463.727	15485.89
463.932	15487.93
464.138	15160.26
464.343	15315.9
464.549	14908.36
464.754	15678.4
464.959	15539.13
465.165	14998.47
465.37	14758.86
465.575	14306.26
465.781	14906.31
465.986	14732.23
466.191	14343.12
466.397	14052.31
466.602	13399.01
466.807	13683.67
467.012	14095.32
467.218	13788.12
467.423	13661.15
467.628	13917.14
467.833	14298.06
