Data from USB4F104151__30__11-05-13-712.txt Node

Date: Wed Mar 12 11:05:13 EDT 2025
User: louis
Spectrometer: USB4F10415
Trigger mode: 4
Integration Time (sec): 2.000000E-2
Scans to average: 1
Electric dark correction enabled: true
Nonlinearity correction enabled: false
Boxcar width: 0
XAxis mode: Wavelengths
Number of Pixels in Spectrum: 3648
>>>>>Begin Spectral Data<<<<<
178.204	-83.28
178.424	-83.28
178.644	-83.28
178.864	-99.67
179.084	-56.66
179.304	0.68
179.524	12.97
179.744	-23.89
179.964	45.74
180.184	-42.32
180.404	-17.75
180.624	-25.94
180.844	10.92
181.064	0.68
181.283	-5.46
181.503	12.97
181.723	31.4
181.943	-52.56
182.163	23.21
182.383	47.79
182.602	68.27
182.822	55.98
183.042	49.83
183.262	23.21
183.482	12.97
183.701	21.16
183.921	-7.51
184.141	-1.37
184.361	72.36
184.58	12.97
184.8	76.46
185.02	12.97
185.239	33.45
185.459	-25.94
185.679	125.61
185.898	6.83
186.118	55.98
186.338	62.12
186.557	27.31
186.777	-30.04
186.997	8.87
187.216	35.5
187.436	19.11
187.655	12.97
187.875	70.31
188.095	-54.61
188.314	103.08
188.534	-1.37
188.753	33.45
188.973	12.97
189.192	2.73
189.412	84.65
189.631	-3.41
189.851	43.69
190.07	62.12
190.29	-60.76
190.509	-3.41
190.729	0.68
190.948	45.74
191.168	12.97
191.387	45.74
191.607	15.02
191.826	74.41
192.045	2.73
192.265	-21.85
192.484	-25.94
192.704	84.65
192.923	6.83
193.142	-3.41
193.362	21.16
193.581	41.64
193.8	25.26
194.02	66.22
194.239	35.5
194.458	21.16
194.678	39.59
194.897	68.27
195.116	-71
195.335	60.07
195.555	-11.61
195.774	82.6
195.993	82.6
196.212	162.47
196.432	49.83
196.651	37.55
196.87	-13.65
197.089	0.68
197.308	10.92
197.528	43.69
197.747	-11.61
197.966	35.5
198.185	12.97
198.404	37.55
198.623	31.4
198.842	-1.37
199.062	12.97
199.281	45.74
199.5	64.17
199.719	31.4
199.938	45.74
200.157	49.83
200.376	21.16
200.595	25.26
200.814	-1.37
201.033	-7.51
201.252	94.89
201.471	-23.89
201.69	92.84
201.909	49.83
202.128	84.65
202.347	125.61
202.566	-27.99
202.785	74.41
203.004	-17.75
203.223	101.03
203.442	-11.61
203.661	-52.56
203.879	31.4
204.098	0.68
204.317	47.79
204.536	29.35
204.755	37.55
204.974	-1.37
205.193	19.11
205.411	92.84
205.63	64.17
205.849	-5.46
206.068	-23.89
206.287	33.45
206.505	68.27
206.724	53.93
206.943	31.4
207.162	41.64
207.381	15.02
207.599	-13.65
207.818	-34.13
208.037	-62.8
208.255	-48.47
208.474	43.69
208.693	21.16
208.911	82.6
209.13	60.07
209.349	53.93
209.567	58.03
209.786	17.07
210.005	-13.65
210.223	12.97
210.442	-9.56
210.661	35.5
210.879	-15.7
211.098	-25.94
211.316	-11.61
211.535	-9.56
211.753	31.4
211.972	33.45
212.191	-17.75
212.409	60.07
212.628	17.07
212.846	25.26
213.065	41.64
213.283	33.45
213.502	17.07
213.72	-38.23
213.938	-1.37
214.157	4.78
214.375	-9.56
214.594	-7.51
214.812	33.45
215.031	25.26
215.249	-19.8
215.467	41.64
215.686	53.93
215.904	154.28
216.122	64.17
216.341	51.88
216.559	8.87
216.778	90.79
216.996	33.45
217.214	4.78
217.432	17.07
217.651	37.55
217.869	21.16
218.087	12.97
218.306	96.94
218.524	53.93
218.742	19.11
218.96	0.68
219.179	-7.51
219.397	-19.8
219.615	47.79
219.833	-32.08
220.051	82.6
220.27	25.26
220.488	37.55
220.706	31.4
220.924	19.11
221.142	29.35
221.36	-7.51
221.578	-40.28
221.796	70.31
222.015	10.92
222.233	21.16
222.451	12.97
222.669	-75.09
222.887	-23.89
223.105	17.07
223.323	-11.61
223.541	-17.75
223.759	15.02
223.977	17.07
224.195	12.97
224.413	49.83
224.631	62.12
224.849	51.88
225.067	66.22
225.285	55.98
225.503	23.21
225.721	-3.41
225.939	-15.7
226.157	58.03
226.375	121.51
226.592	-7.51
226.81	51.88
227.028	-7.51
227.246	66.22
227.464	17.07
227.682	103.08
227.9	58.03
228.117	66.22
228.335	-17.75
228.553	51.88
228.771	78.51
228.989	17.07
229.206	-3.41
229.424	27.31
229.642	27.31
229.86	-44.37
230.077	60.07
230.295	49.83
230.513	21.16
230.731	39.59
230.948	105.13
231.166	35.5
231.384	35.5
231.601	47.79
231.819	-15.7
232.037	0.68
232.254	78.51
232.472	-15.7
232.689	-44.37
232.907	64.17
233.125	29.35
233.342	0.68
233.56	119.46
233.777	-21.85
233.995	-44.37
234.213	53.93
234.43	58.03
234.648	12.97
234.865	25.26
235.083	58.03
235.3	-42.32
235.518	58.03
235.735	47.79
235.953	68.27
236.17	43.69
236.388	17.07
236.605	-25.94
236.822	82.6
237.04	72.36
237.257	84.65
237.475	29.35
237.692	55.98
237.909	-34.13
238.127	47.79
238.344	37.55
238.562	109.22
238.779	12.97
238.996	37.55
239.214	49.83
239.431	45.74
239.648	17.07
239.865	33.45
240.083	25.26
240.3	88.75
240.517	109.22
240.735	27.31
240.952	12.97
241.169	35.5
241.386	72.36
241.603	4.78
241.821	37.55
242.038	51.88
242.255	2.73
242.472	84.65
242.689	-15.7
242.907	8.87
243.124	-3.41
243.341	66.22
243.558	-1.37
243.775	109.22
243.992	-58.71
244.209	-34.13
244.426	12.97
244.643	-21.85
244.86	17.07
245.078	8.87
245.295	31.4
245.512	70.31
245.729	-50.52
245.946	55.98
246.163	41.64
246.38	45.74
246.597	0.68
246.814	47.79
247.031	-46.42
247.248	45.74
247.464	43.69
247.681	47.79
247.898	53.93
248.115	55.98
248.332	51.88
248.549	74.41
248.766	-3.41
248.983	53.93
249.2	58.03
249.417	10.92
249.633	86.7
249.85	-27.99
250.067	-9.56
250.284	33.45
250.501	41.64
250.717	111.27
250.934	58.03
251.151	62.12
251.368	-11.61
251.585	19.11
251.801	92.84
252.018	33.45
252.235	-42.32
252.451	-25.94
252.668	49.83
252.885	-54.61
253.102	68.27
253.318	27.31
253.535	58.03
253.752	41.64
253.968	31.4
254.185	23.21
254.401	55.98
254.618	-27.99
254.835	37.55
255.051	76.46
255.268	33.45
255.484	45.74
255.701	37.55
255.917	113.32
256.134	17.07
256.351	27.31
256.567	-21.85
256.784	72.36
257	-30.04
257.217	41.64
257.433	98.99
257.65	41.64
257.866	74.41
258.082	47.79
258.299	6.83
258.515	47.79
258.732	-23.89
258.948	43.69
259.165	66.22
259.381	-15.7
259.597	-11.61
259.814	27.31
260.03	-25.94
260.246	4.78
260.463	-3.41
260.679	21.16
260.895	98.99
261.112	37.55
261.328	17.07
261.544	31.4
261.761	35.5
261.977	17.07
262.193	0.68
262.409	45.74
262.626	58.03
262.842	-15.7
263.058	23.21
263.274	86.7
263.49	64.17
263.707	60.07
263.923	60.07
264.139	10.92
264.355	8.87
264.571	35.5
264.787	21.16
265.004	21.16
265.22	-25.94
265.436	6.83
265.652	-3.41
265.868	139.94
266.084	49.83
266.3	88.75
266.516	-17.75
266.732	12.97
266.948	117.42
267.164	82.6
267.38	6.83
267.596	-30.04
267.812	0.68
268.028	41.64
268.244	2.73
268.46	-60.76
268.676	25.26
268.892	78.51
269.108	33.45
269.324	-19.8
269.54	62.12
269.756	64.17
269.972	58.03
270.188	4.78
270.403	0.68
270.619	27.31
270.835	94.89
271.051	86.7
271.267	-50.52
271.483	19.11
271.698	43.69
271.914	47.79
272.13	76.46
272.346	72.36
272.562	43.69
272.777	12.97
272.993	90.79
273.209	10.92
273.425	66.22
273.64	27.31
273.856	0.68
274.072	29.35
274.287	-17.75
274.503	29.35
274.719	12.97
274.934	-15.7
275.15	-19.8
275.366	19.11
275.581	39.59
275.797	12.97
276.012	39.59
276.228	-17.75
276.444	12.97
276.659	25.26
276.875	64.17
277.09	31.4
277.306	0.68
277.521	82.6
277.737	39.59
277.952	-1.37
278.168	21.16
278.383	80.55
278.599	70.31
278.814	35.5
279.03	92.84
279.245	41.64
279.461	86.7
279.676	35.5
279.892	-5.46
280.107	33.45
280.322	23.21
280.538	-19.8
280.753	68.27
280.969	58.03
281.184	8.87
281.399	68.27
281.615	39.59
281.83	23.21
282.045	2.73
282.26	-15.7
282.476	-9.56
282.691	8.87
282.906	-25.94
283.122	47.79
283.337	-19.8
283.552	37.55
283.767	66.22
283.983	66.22
284.198	25.26
284.413	49.83
284.628	15.02
284.843	49.83
285.058	55.98
285.274	45.74
285.489	33.45
285.704	33.45
285.919	37.55
286.134	-56.66
286.349	27.31
286.564	10.92
286.779	-9.56
286.995	66.22
287.21	-5.46
287.425	6.83
287.64	-13.65
287.855	17.07
288.07	-7.51
288.285	15.02
288.5	-15.7
288.715	45.74
288.93	27.31
289.145	15.02
289.36	-1.37
289.575	8.87
289.79	74.41
290.004	58.03
290.219	70.31
290.434	2.73
290.649	39.59
290.864	12.97
291.079	74.41
291.294	25.26
291.509	-23.89
291.724	27.31
291.938	8.87
292.153	29.35
292.368	-40.28
292.583	78.51
292.798	23.21
293.012	62.12
293.227	-5.46
293.442	33.45
293.657	74.41
293.871	92.84
294.086	0.68
294.301	80.55
294.516	72.36
294.73	49.83
294.945	6.83
295.16	72.36
295.374	105.13
295.589	86.7
295.804	-32.08
296.018	37.55
296.233	66.22
296.447	53.93
296.662	68.27
296.877	45.74
297.091	35.5
297.306	47.79
297.52	55.98
297.735	33.45
297.949	86.7
298.164	80.55
298.378	8.87
298.593	-27.99
298.807	68.27
299.022	92.84
299.236	64.17
299.451	-9.56
299.665	31.4
299.88	-11.61
300.094	8.87
300.309	53.93
300.523	33.45
300.737	-1.37
300.952	43.69
301.166	-5.46
301.381	68.27
301.595	-38.23
301.809	17.07
302.024	29.35
302.238	47.79
302.452	-11.61
302.667	17.07
302.881	-1.37
303.095	49.83
303.309	66.22
303.524	-68.95
303.738	-7.51
303.952	29.35
304.166	60.07
304.381	4.78
304.595	96.94
304.809	0.68
305.023	45.74
305.237	117.42
305.452	21.16
305.666	-60.76
305.88	41.64
306.094	64.17
306.308	-17.75
306.522	47.79
306.736	-17.75
306.95	49.83
307.164	-32.08
307.379	39.59
307.593	94.89
307.807	39.59
308.021	103.08
308.235	41.64
308.449	-1.37
308.663	-7.51
308.877	58.03
309.091	82.6
309.305	150.18
309.519	-3.41
309.733	55.98
309.947	33.45
310.161	0.68
310.374	-44.37
310.588	115.37
310.802	-32.08
311.016	94.89
311.23	90.79
311.444	25.26
311.658	72.36
311.872	84.65
312.085	80.55
312.299	10.92
312.513	-3.41
312.727	21.16
312.941	33.45
313.154	53.93
313.368	25.26
313.582	37.55
313.796	21.16
314.009	-15.7
314.223	86.7
314.437	23.21
314.651	39.59
314.864	12.97
315.078	-23.89
315.292	39.59
315.505	37.55
315.719	-1.37
315.933	39.59
316.146	70.31
316.36	-85.33
316.573	53.93
316.787	86.7
317.001	12.97
317.214	-23.89
317.428	64.17
317.641	92.84
317.855	-34.13
318.068	105.13
318.282	55.98
318.495	37.55
318.709	23.21
318.922	70.31
319.136	68.27
319.349	33.45
319.563	-11.61
319.776	90.79
319.99	25.26
320.203	8.87
320.417	-23.89
320.63	17.07
320.843	27.31
321.057	4.78
321.27	29.35
321.483	68.27
321.697	125.61
321.91	12.97
322.124	35.5
322.337	-9.56
322.55	-15.7
322.763	80.55
322.977	47.79
323.19	27.31
323.403	55.98
323.617	51.88
323.83	6.83
324.043	47.79
324.256	-5.46
324.469	-3.41
324.683	96.94
324.896	33.45
325.109	-44.37
325.322	-50.52
325.535	25.26
325.748	72.36
325.962	-3.41
326.175	41.64
326.388	49.83
326.601	4.78
326.814	82.6
327.027	37.55
327.24	39.59
327.453	33.45
327.666	-40.28
327.879	39.59
328.092	92.84
328.305	51.88
328.518	66.22
328.731	58.03
328.944	51.88
329.157	62.12
329.37	115.37
329.583	-23.89
329.796	137.9
330.009	-19.8
330.222	21.16
330.435	-1.37
330.648	47.79
330.861	49.83
331.073	84.65
331.286	8.87
331.499	0.68
331.712	-15.7
331.925	29.35
332.138	4.78
332.35	35.5
332.563	-21.85
332.776	21.16
332.989	15.02
333.202	49.83
333.414	55.98
333.627	68.27
333.84	-3.41
334.053	10.92
334.265	-15.7
334.478	-7.51
334.691	41.64
334.903	35.5
335.116	43.69
335.329	60.07
335.541	23.21
335.754	88.75
335.966	-9.56
336.179	88.75
336.392	33.45
336.604	12.97
336.817	2.73
337.029	80.55
337.242	0.68
337.454	15.02
337.667	47.79
337.88	4.78
338.092	6.83
338.305	37.55
338.517	29.35
338.729	53.93
338.942	86.7
339.154	0.68
339.367	15.02
339.579	45.74
339.792	51.88
340.004	68.27
340.217	105.13
340.429	68.27
340.641	4.78
340.854	6.83
341.066	-3.41
341.278	78.51
341.491	92.84
341.703	66.22
341.915	6.83
342.128	107.18
342.34	21.16
342.552	72.36
342.764	-7.51
342.977	53.93
343.189	-23.89
343.401	31.4
343.613	-54.61
343.826	76.46
344.038	21.16
344.25	17.07
344.462	41.64
344.674	60.07
344.886	-58.71
345.099	88.75
345.311	2.73
345.523	33.45
345.735	17.07
345.947	43.69
346.159	37.55
346.371	39.59
346.583	45.74
346.795	49.83
347.007	2.73
347.219	0.68
347.431	58.03
347.643	41.64
347.855	25.26
348.067	6.83
348.279	21.16
348.491	82.6
348.703	17.07
348.915	53.93
349.127	62.12
349.339	39.59
349.551	43.69
349.763	0.68
349.975	-52.56
350.187	49.83
350.399	55.98
350.61	-1.37
350.822	45.74
351.034	4.78
351.246	31.4
351.458	39.59
351.669	119.46
351.881	17.07
352.093	64.17
352.305	43.69
352.517	17.07
352.728	96.94
352.94	53.93
353.152	39.59
353.363	12.97
353.575	66.22
353.787	66.22
353.999	98.99
354.21	74.41
354.422	80.55
354.633	21.16
354.845	66.22
355.057	66.22
355.268	60.07
355.48	86.7
355.692	-36.18
355.903	58.03
356.115	6.83
356.326	-50.52
356.538	109.22
356.749	51.88
356.961	47.79
357.172	-9.56
357.384	51.88
357.595	62.12
357.807	-62.8
358.018	78.51
358.23	62.12
358.441	17.07
358.653	31.4
358.864	58.03
359.075	19.11
359.287	51.88
359.498	70.31
359.709	-40.28
359.921	72.36
360.132	37.55
360.344	60.07
360.555	17.07
360.766	94.89
360.977	-27.99
361.189	41.64
361.4	35.5
361.611	53.93
361.823	58.03
362.034	80.55
362.245	66.22
362.456	10.92
362.667	39.59
362.879	10.92
363.09	27.31
363.301	33.45
363.512	33.45
363.723	41.64
363.935	8.87
364.146	0.68
364.357	-25.94
364.568	66.22
364.779	21.16
364.99	49.83
365.201	-9.56
365.412	23.21
365.623	53.93
365.834	66.22
366.045	82.6
366.256	33.45
366.467	60.07
366.678	-3.41
366.889	15.02
367.1	-38.23
367.311	82.6
367.522	6.83
367.733	39.59
367.944	49.83
368.155	76.46
368.366	74.41
368.577	51.88
368.788	70.31
368.999	-52.56
369.209	-60.76
369.42	29.35
369.631	60.07
369.842	58.03
370.053	0.68
370.264	74.41
370.474	43.69
370.685	72.36
370.896	103.08
371.107	19.11
371.317	84.65
371.528	43.69
371.739	115.37
371.95	76.46
372.16	43.69
372.371	-9.56
372.582	51.88
372.792	12.97
373.003	88.75
373.214	41.64
373.424	129.7
373.635	-17.75
373.846	107.18
374.056	39.59
374.267	-3.41
374.477	80.55
374.688	62.12
374.898	21.16
375.109	19.11
375.319	45.74
375.53	47.79
375.74	58.03
375.951	19.11
376.161	-23.89
376.372	68.27
376.582	41.64
376.793	45.74
377.003	10.92
377.214	-27.99
377.424	15.02
377.635	113.32
377.845	4.78
378.055	72.36
378.266	64.17
378.476	90.79
378.686	-3.41
378.897	70.31
379.107	23.21
379.317	94.89
379.528	19.11
379.738	35.5
379.948	31.4
380.158	58.03
380.369	29.35
380.579	107.18
380.789	0.68
380.999	0.68
381.21	70.31
381.42	47.79
381.63	58.03
381.84	78.51
382.05	25.26
382.261	133.8
382.471	2.73
382.681	29.35
382.891	55.98
383.101	23.21
383.311	-36.18
383.521	-30.04
383.731	64.17
383.941	80.55
384.151	4.78
384.361	90.79
384.571	41.64
384.781	78.51
384.991	33.45
385.201	90.79
385.411	111.27
385.621	47.79
385.831	98.99
386.041	68.27
386.251	-5.46
386.461	127.66
386.671	10.92
386.881	64.17
387.091	51.88
387.301	43.69
387.511	64.17
387.72	39.59
387.93	51.88
388.14	66.22
388.35	39.59
388.56	43.69
388.769	76.46
388.979	51.88
389.189	43.69
389.399	25.26
389.609	45.74
389.818	119.46
390.028	55.98
390.238	96.94
390.447	-19.8
390.657	92.84
390.867	25.26
391.076	96.94
391.286	31.4
391.496	29.35
391.705	10.92
391.915	31.4
392.125	-1.37
392.334	84.65
392.544	80.55
392.753	82.6
392.963	72.36
393.172	80.55
393.382	123.56
393.591	113.32
393.801	53.93
394.01	90.79
394.22	-25.94
394.429	0.68
394.639	53.93
394.848	41.64
395.058	12.97
395.267	74.41
395.477	103.08
395.686	111.27
395.895	129.7
396.105	172.71
396.314	47.79
396.524	35.5
396.733	33.45
396.942	60.07
397.152	29.35
397.361	144.04
397.57	101.03
397.78	86.7
397.989	160.42
398.198	158.38
398.407	49.83
398.617	80.55
398.826	129.7
399.035	17.07
399.244	12.97
399.453	78.51
399.663	80.55
399.872	105.13
400.081	58.03
400.29	185
400.499	88.75
400.708	90.79
400.917	58.03
401.127	68.27
401.336	74.41
401.545	133.8
401.754	148.14
401.963	139.94
402.172	144.04
402.381	94.89
402.59	49.83
402.799	158.38
403.008	82.6
403.217	117.42
403.426	127.66
403.635	109.22
403.844	94.89
404.053	35.5
404.262	98.99
404.471	101.03
404.68	55.98
404.888	49.83
405.097	117.42
405.306	103.08
405.515	148.14
405.724	131.75
405.933	158.38
406.142	137.9
406.35	166.57
406.559	146.09
406.768	123.56
406.977	105.13
407.185	156.33
407.394	176.81
407.603	170.66
407.812	193.19
408.02	152.23
408.229	148.14
408.438	180.9
408.646	152.23
408.855	172.71
409.064	232.1
409.272	170.66
409.481	211.62
409.69	197.29
409.898	219.82
410.107	215.72
410.315	320.17
410.524	318.12
410.733	211.62
410.941	168.62
411.15	281.25
411.358	324.26
411.567	344.74
411.775	285.35
411.984	295.59
412.192	363.17
412.401	428.71
412.609	430.76
412.818	381.6
413.026	426.66
413.234	414.37
413.443	414.37
413.651	414.37
413.86	516.77
414.068	479.91
414.276	541.35
414.485	408.23
414.693	443.04
414.901	492.2
415.11	432.8
415.318	486.05
415.526	535.2
415.734	658.08
415.943	584.35
416.151	684.7
416.359	625.31
416.567	723.62
416.776	651.94
416.984	690.85
417.192	731.81
417.4	701.09
417.608	723.62
417.817	830.11
418.025	819.87
418.233	979.61
418.441	815.77
418.649	879.26
418.857	973.47
419.065	1075.87
419.273	1010.33
419.481	1106.59
419.689	1159.83
419.897	1133.21
420.105	1208.98
420.313	1247.9
420.521	1133.21
420.729	1268.38
420.937	1247.9
421.145	1368.73
421.353	1370.77
421.561	1522.32
421.769	1587.86
421.977	1604.24
422.185	1518.23
422.393	1700.5
422.601	1890.96
422.809	1774.22
423.017	1696.4
423.224	1815.18
423.432	1880.72
423.64	1958.54
423.848	2065.04
424.056	2099.85
424.263	2265.74
424.471	2280.07
424.679	2280.07
424.887	2310.79
425.094	2484.87
425.302	2589.32
425.51	2677.38
425.718	2742.91
425.925	2677.38
426.133	2783.87
426.341	2855.55
426.548	3033.72
426.756	3019.39
426.964	3099.26
427.171	3334.78
427.379	3277.43
427.586	3416.69
427.794	3494.52
428.001	3687.03
428.209	3863.15
428.417	3805.81
428.624	4092.52
428.832	3947.12
429.039	4127.34
429.247	4092.52
429.454	4434.53
429.662	4598.37
429.869	4436.58
430.076	4731.49
430.284	4555.37
430.491	4749.92
430.699	5044.83
430.906	4905.57
431.114	4950.62
431.321	5190.24
431.528	5292.63
431.736	5704.28
431.943	6105.68
432.15	5702.23
432.358	6001.23
432.565	6138.44
432.772	6109.77
432.979	6318.67
433.187	6634.05
433.394	6617.67
433.601	6969.92
433.808	7133.76
434.016	7045.7
434.223	7418.43
434.43	7744.05
434.637	7684.66
434.844	7973.42
435.052	8231.47
435.259	8309.29
435.466	8176.17
435.673	8116.78
435.88	8708.65
436.087	9263.65
436.294	8993.31
436.501	8997.41
436.708	9191.97
436.915	9626.14
437.122	10119.7
437.329	9769.49
437.537	10099.22
437.743	10562.06
437.95	10342.92
438.157	11112.96
438.364	11237.89
438.571	11284.99
438.778	11084.29
438.985	12501.48
439.192	11897.33
439.399	12386.8
439.606	12042.74
439.813	12722.66
440.02	13378.01
440.227	13093.35
440.433	13062.63
440.64	13468.13
440.847	13339.1
441.054	13920.73
441.261	14637.52
441.467	14473.68
441.674	14668.23
441.881	15106.5
442.088	15180.23
442.294	15096.26
442.501	15483.33
442.708	15577.53
442.914	16507.31
443.121	17066.41
443.328	16439.73
443.534	17752.48
443.741	17258.92
443.948	17289.63
444.154	18391.44
444.361	18364.82
444.568	18510.22
444.774	18303.38
444.981	18704.78
445.187	18837.9
445.394	20185.46
445.6	19755.39
445.807	21565.79
446.013	20633.97
446.22	20953.45
446.426	21965.15
446.633	22190.42
446.839	22770
447.046	21764.45
447.252	23058.76
447.459	23079.24
447.665	22966.6
447.871	24379.7
448.078	24805.68
448.284	23644.48
448.491	24277.3
448.697	25336.1
448.903	25887.01
449.11	25510.18
449.316	25094.44
449.522	26093.85
449.728	26607.89
449.935	26796.31
450.141	26528.02
450.347	27388.17
450.553	26347.8
450.76	26775.83
450.966	27482.38
451.172	27126.03
451.378	27695.36
451.584	27181.32
451.791	27803.91
451.997	27615.49
452.203	28489.98
452.409	28055.81
452.615	28059.9
452.821	27072.78
453.027	26769.68
453.233	28109.05
453.44	26978.57
453.646	27128.08
453.852	27347.21
454.058	27437.32
454.264	26718.48
454.47	27222.28
454.676	26667.28
454.882	27449.61
455.088	25104.68
455.294	25250.09
455.5	25815.33
455.705	26145.05
455.911	24770.86
456.117	24490.29
456.323	24103.23
456.529	22665.55
456.735	23720.26
456.941	23157.07
457.147	22620.5
457.352	21911.9
457.558	21483.87
457.764	21829.98
457.97	21422.44
458.176	20781.42
458.381	20892.01
458.587	19843.45
458.793	19515.78
458.999	18899.34
459.204	19974.52
459.41	19452.29
459.616	18446.74
459.821	18065.82
460.027	17977.75
460.233	17854.87
460.438	17084.84
460.644	17117.61
460.85	16366
461.055	16136.63
461.261	16198.07
461.466	14793.16
461.672	14627.28
461.878	15512
462.083	14488.01
462.289	14297.55
462.494	14109.14
462.7	13468.13
462.905	12915.17
463.111	13611.48
463.316	13617.63
463.522	13167.07
463.727	13437.41
463.932	13439.45
464.138	13130.21
464.343	12927.46
464.549	12902.89
464.754	13081.06
464.959	12978.66
465.165	12958.18
465.37	12630.51
465.575	12169.71
465.781	12542.44
465.986	12816.87
466.191	12284.4
466.397	12067.31
466.602	11198.98
466.807	11866.61
467.012	11715.06
467.218	11620.86
467.423	11629.05
467.628	11639.29
467.833	12300.78
468.038	11799.03
468.244	11274.75
