Data from USB4F104151__97__11-07-00-100.txt Node

Date: Wed Mar 12 11:07:00 EDT 2025
User: louis
Spectrometer: USB4F10415
Trigger mode: 4
Integration Time (sec): 2.000000E-2
Scans to average: 1
Electric dark correction enabled: true
Nonlinearity correction enabled: false
Boxcar width: 0
XAxis mode: Wavelengths
Number of Pixels in Spectrum: 3648
>>>>>Begin Spectral Data<<<<<
178.204	-46.93
178.424	-46.93
178.644	-46.93
178.864	-61.27
179.084	-159.57
179.304	-79.7
179.524	53.42
179.744	-12.12
179.964	28.84
180.184	30.89
180.404	16.55
180.624	0.17
180.844	-12.12
181.064	-5.97
181.283	-26.45
181.503	-22.36
181.723	28.84
181.943	-32.6
182.163	47.27
182.383	22.7
182.602	-51.03
182.822	28.84
183.042	37.03
183.262	-26.45
183.482	43.18
183.701	-20.31
183.921	-3.93
184.141	51.37
184.361	41.13
184.58	28.84
184.8	61.61
185.02	30.89
185.239	45.23
185.459	53.42
185.679	51.37
185.898	-20.31
186.118	75.95
186.338	-77.65
186.557	127.14
186.777	-48.98
186.997	75.95
187.216	-3.93
187.436	26.79
187.655	41.13
187.875	-26.45
188.095	53.42
188.314	125.1
188.534	-57.17
188.753	53.42
188.973	-8.02
189.192	65.71
189.412	41.13
189.631	16.55
189.851	32.94
190.07	-40.79
190.29	-34.64
190.509	116.9
190.729	43.18
190.948	47.27
191.168	161.96
191.387	-8.02
191.607	12.46
191.826	18.6
192.045	20.65
192.265	65.71
192.484	28.84
192.704	30.89
192.923	32.94
193.142	37.03
193.362	80.04
193.581	47.27
193.8	-44.88
194.02	28.84
194.239	10.41
194.458	61.61
194.678	2.22
194.897	39.08
195.116	-57.17
195.335	26.79
195.555	-32.6
195.774	10.41
195.993	12.46
196.212	32.94
196.432	-63.32
196.651	45.23
196.87	18.6
197.089	82.09
197.308	4.27
197.528	-46.93
197.747	-14.17
197.966	12.46
198.185	2.22
198.404	14.51
198.623	67.75
198.842	-14.17
199.062	32.94
199.281	94.38
199.5	-8.02
199.719	84.14
199.938	-20.31
200.157	-46.93
200.376	-14.17
200.595	-10.07
200.814	24.75
201.033	71.85
201.252	32.94
201.471	14.51
201.69	-3.93
201.909	14.51
202.128	32.94
202.347	34.99
202.566	-5.97
202.785	-22.36
203.004	-18.26
203.223	14.51
203.442	37.03
203.661	26.79
203.879	6.31
204.098	24.75
204.317	4.27
204.536	10.41
204.755	-16.21
204.974	-1.88
205.193	6.31
205.411	34.99
205.63	43.18
205.849	77.99
206.068	-81.75
206.287	12.46
206.505	0.17
206.724	-16.21
206.943	-30.55
207.162	-3.93
207.381	18.6
207.599	-40.79
207.818	34.99
208.037	8.36
208.255	16.55
208.474	0.17
208.693	-26.45
208.911	41.13
209.13	22.7
209.349	8.36
209.567	34.99
209.786	24.75
210.005	20.65
210.223	43.18
210.442	-16.21
210.661	16.55
210.879	-12.12
211.098	-12.12
211.316	63.66
211.535	114.86
211.753	41.13
211.972	-73.56
212.191	-26.45
212.409	51.37
212.628	49.32
212.846	-53.08
213.065	59.56
213.283	28.84
213.502	-5.97
213.72	16.55
213.938	49.32
214.157	80.04
214.375	-16.21
214.594	16.55
214.812	-55.12
215.031	24.75
215.249	22.7
215.467	37.03
215.686	82.09
215.904	32.94
216.122	121
216.341	18.6
216.559	39.08
216.778	30.89
216.996	26.79
217.214	-3.93
217.432	-14.17
217.651	-18.26
217.869	-28.5
218.087	-24.4
218.306	16.55
218.524	16.55
218.742	-24.4
218.96	-18.26
219.179	-34.64
219.397	22.7
219.615	88.23
219.833	59.56
220.051	16.55
220.27	22.7
220.488	-18.26
220.706	18.6
220.924	-12.12
221.142	-20.31
221.36	28.84
221.578	49.32
221.796	57.51
222.015	102.57
222.233	37.03
222.451	-112.47
222.669	24.75
222.887	-44.88
223.105	-135
223.323	45.23
223.541	-1.88
223.759	73.9
223.977	-32.6
224.195	57.51
224.413	24.75
224.631	-12.12
224.849	26.79
225.067	86.19
225.285	24.75
225.503	43.18
225.721	-51.03
225.939	-32.6
226.157	32.94
226.375	106.67
226.592	51.37
226.81	-14.17
227.028	-8.02
227.246	77.99
227.464	-10.07
227.682	51.37
227.9	26.79
228.117	18.6
228.335	-42.84
228.553	20.65
228.771	30.89
228.989	69.8
229.206	69.8
229.424	-14.17
229.642	71.85
229.86	61.61
230.077	86.19
230.295	32.94
230.513	41.13
230.731	-5.97
230.948	-28.5
231.166	47.27
231.384	6.31
231.601	51.37
231.819	94.38
232.037	-10.07
232.254	10.41
232.472	12.46
232.689	-5.97
232.907	20.65
233.125	20.65
233.342	65.71
233.56	26.79
233.777	61.61
233.995	49.32
234.213	86.19
234.43	39.08
234.648	-3.93
234.865	2.22
235.083	47.27
235.3	63.66
235.518	14.51
235.735	-10.07
235.953	39.08
236.17	20.65
236.388	32.94
236.605	57.51
236.822	-12.12
237.04	55.47
237.257	-22.36
237.475	0.17
237.692	28.84
237.909	34.99
238.127	65.71
238.344	-91.99
238.562	32.94
238.779	-34.64
238.996	-36.69
239.214	22.7
239.431	-30.55
239.648	-24.4
239.865	-12.12
240.083	4.27
240.3	20.65
240.517	65.71
240.735	-51.03
240.952	106.67
241.169	24.75
241.386	-44.88
241.603	45.23
241.821	53.42
242.038	53.42
242.255	2.22
242.472	14.51
242.689	-20.31
242.907	37.03
243.124	47.27
243.341	26.79
243.558	8.36
243.775	14.51
243.992	-1.88
244.209	37.03
244.426	6.31
244.643	77.99
244.86	43.18
245.078	8.36
245.295	-12.12
245.512	-28.5
245.729	-5.97
245.946	12.46
246.163	20.65
246.38	28.84
246.597	20.65
246.814	0.17
247.031	-34.64
247.248	88.23
247.464	43.18
247.681	59.56
247.898	-22.36
248.115	-1.88
248.332	-20.31
248.549	-32.6
248.766	30.89
248.983	12.46
249.2	133.29
249.417	67.75
249.633	10.41
249.85	63.66
250.067	69.8
250.284	77.99
250.501	18.6
250.717	-24.4
250.934	-48.98
251.151	16.55
251.368	-40.79
251.585	34.99
251.801	57.51
252.018	-28.5
252.235	0.17
252.451	-28.5
252.668	32.94
252.885	65.71
253.102	-34.64
253.318	49.32
253.535	102.57
253.752	39.08
253.968	16.55
254.185	-5.97
254.401	10.41
254.618	55.47
254.835	10.41
255.051	51.37
255.268	20.65
255.484	53.42
255.701	-3.93
255.917	32.94
256.134	-65.36
256.351	-32.6
256.567	-42.84
256.784	-28.5
257	12.46
257.217	61.61
257.433	98.47
257.65	12.46
257.866	14.51
258.082	16.55
258.299	24.75
258.515	65.71
258.732	-16.21
258.948	45.23
259.165	0.17
259.381	-51.03
259.597	-1.88
259.814	-40.79
260.03	49.32
260.246	6.31
260.463	24.75
260.679	92.33
260.895	80.04
261.112	65.71
261.328	-16.21
261.544	-10.07
261.761	-32.6
261.977	63.66
262.193	-18.26
262.409	75.95
262.626	12.46
262.842	82.09
263.058	8.36
263.274	-22.36
263.49	-24.4
263.707	43.18
263.923	18.6
264.139	-14.17
264.355	34.99
264.571	16.55
264.787	4.27
265.004	57.51
265.22	34.99
265.436	-10.07
265.652	-8.02
265.868	20.65
266.084	32.94
266.3	-28.5
266.516	12.46
266.732	-59.22
266.948	88.23
267.164	-36.69
267.38	-46.93
267.596	-3.93
267.812	67.75
268.028	22.7
268.244	-8.02
268.46	59.56
268.676	53.42
268.892	-24.4
269.108	-38.74
269.324	43.18
269.54	-20.31
269.756	32.94
269.972	10.41
270.188	53.42
270.403	-32.6
270.619	37.03
270.835	-48.98
271.051	69.8
271.267	-69.46
271.483	94.38
271.698	86.19
271.914	69.8
272.13	32.94
272.346	47.27
272.562	8.36
272.777	24.75
272.993	2.22
273.209	18.6
273.425	106.67
273.64	-18.26
273.856	51.37
274.072	28.84
274.287	10.41
274.503	16.55
274.719	104.62
274.934	-5.97
275.15	-28.5
275.366	16.55
275.581	65.71
275.797	2.22
276.012	16.55
276.228	14.51
276.444	-5.97
276.659	45.23
276.875	-16.21
277.09	41.13
277.306	8.36
277.521	98.47
277.737	-55.12
277.952	34.99
278.168	12.46
278.383	8.36
278.599	-8.02
278.814	32.94
279.03	49.32
279.245	-8.02
279.461	-22.36
279.676	102.57
279.892	-1.88
280.107	39.08
280.322	-61.27
280.538	-22.36
280.753	8.36
280.969	96.43
281.184	47.27
281.399	24.75
281.615	102.57
281.83	4.27
282.045	-10.07
282.26	4.27
282.476	-30.55
282.691	75.95
282.906	-12.12
283.122	32.94
283.337	-1.88
283.552	96.43
283.767	-1.88
283.983	100.52
284.198	14.51
284.413	4.27
284.628	8.36
284.843	69.8
285.058	16.55
285.274	45.23
285.489	-1.88
285.704	61.61
285.919	65.71
286.134	32.94
286.349	28.84
286.564	98.47
286.779	57.51
286.995	10.41
287.21	41.13
287.425	16.55
287.64	41.13
287.855	47.27
288.07	53.42
288.285	-14.17
288.5	69.8
288.715	51.37
288.93	51.37
289.145	2.22
289.36	39.08
289.575	-5.97
289.79	-36.69
290.004	-30.55
290.219	125.1
290.434	6.31
290.649	41.13
290.864	-53.08
291.079	24.75
291.294	51.37
291.509	-5.97
291.724	94.38
291.938	0.17
292.153	20.65
292.368	-32.6
292.583	-1.88
292.798	12.46
293.012	-65.36
293.227	32.94
293.442	-8.02
293.657	69.8
293.871	65.71
294.086	-12.12
294.301	92.33
294.516	51.37
294.73	10.41
294.945	18.6
295.16	-3.93
295.374	129.19
295.589	30.89
295.804	-8.02
296.018	32.94
296.233	67.75
296.447	51.37
296.662	20.65
296.877	37.03
297.091	20.65
297.306	14.51
297.52	34.99
297.735	2.22
297.949	28.84
298.164	8.36
298.378	39.08
298.593	20.65
298.807	-28.5
299.022	16.55
299.236	37.03
299.451	20.65
299.665	-48.98
299.88	-18.26
300.094	67.75
300.309	14.51
300.523	43.18
300.737	12.46
300.952	-28.5
301.166	47.27
301.381	-73.56
301.595	8.36
301.809	20.65
302.024	43.18
302.238	-1.88
302.452	26.79
302.667	-1.88
302.881	28.84
303.095	-12.12
303.309	-12.12
303.524	-42.84
303.738	-14.17
303.952	-10.07
304.166	32.94
304.381	-32.6
304.595	80.04
304.809	14.51
305.023	-55.12
305.237	-12.12
305.452	63.66
305.666	45.23
305.88	37.03
306.094	0.17
306.308	32.94
306.522	34.99
306.736	75.95
306.95	-18.26
307.164	82.09
307.379	30.89
307.593	61.61
307.807	69.8
308.021	59.56
308.235	-53.08
308.449	43.18
308.663	8.36
308.877	69.8
309.091	8.36
309.305	34.99
309.519	45.23
309.733	4.27
309.947	-14.17
310.161	49.32
310.374	8.36
310.588	61.61
310.802	41.13
311.016	-5.97
311.23	-14.17
311.444	59.56
311.658	0.17
311.872	39.08
312.085	67.75
312.299	135.34
312.513	51.37
312.727	28.84
312.941	28.84
313.154	80.04
313.368	16.55
313.582	10.41
313.796	55.47
314.009	94.38
314.223	41.13
314.437	49.32
314.651	-5.97
314.864	51.37
315.078	-18.26
315.292	65.71
315.505	-65.36
315.719	55.47
315.933	-8.02
316.146	28.84
316.36	-14.17
316.573	53.42
316.787	49.32
317.001	-20.31
317.214	-14.17
317.428	-30.55
317.641	22.7
317.855	110.76
318.068	37.03
318.282	49.32
318.495	14.51
318.709	96.43
318.922	26.79
319.136	63.66
319.349	43.18
319.563	24.75
319.776	30.89
319.99	-12.12
320.203	26.79
320.417	45.23
320.63	32.94
320.843	37.03
321.057	69.8
321.27	6.31
321.483	0.17
321.697	32.94
321.91	69.8
322.124	-1.88
322.337	2.22
322.55	28.84
322.763	69.8
322.977	20.65
323.19	69.8
323.403	88.23
323.617	53.42
323.83	63.66
324.043	-14.17
324.256	32.94
324.469	88.23
324.683	32.94
324.896	32.94
325.109	34.99
325.322	-5.97
325.535	-40.79
325.748	-3.93
325.962	28.84
326.175	16.55
326.388	67.75
326.601	18.6
326.814	16.55
327.027	84.14
327.24	45.23
327.453	0.17
327.666	61.61
327.879	57.51
328.092	57.51
328.305	20.65
328.518	-32.6
328.731	20.65
328.944	37.03
329.157	49.32
329.37	-34.64
329.583	12.46
329.796	100.52
330.009	-65.36
330.222	-5.97
330.435	34.99
330.648	73.9
330.861	30.89
331.073	82.09
331.286	28.84
331.499	18.6
331.712	16.55
331.925	110.76
332.138	39.08
332.35	30.89
332.563	-59.22
332.776	28.84
332.989	-26.45
333.202	-8.02
333.414	24.75
333.627	51.37
333.84	24.75
334.053	2.22
334.265	43.18
334.478	-20.31
334.691	32.94
334.903	47.27
335.116	4.27
335.329	55.47
335.541	-22.36
335.754	30.89
335.966	-32.6
336.179	32.94
336.392	-38.74
336.604	-42.84
336.817	41.13
337.029	73.9
337.242	57.51
337.454	4.27
337.667	32.94
337.88	94.38
338.092	41.13
338.305	-3.93
338.517	-53.08
338.729	34.99
338.942	4.27
339.154	30.89
339.367	12.46
339.579	-3.93
339.792	20.65
340.004	51.37
340.217	39.08
340.429	14.51
340.641	24.75
340.854	47.27
341.066	53.42
341.278	43.18
341.491	30.89
341.703	26.79
341.915	45.23
342.128	14.51
342.34	-42.84
342.552	71.85
342.764	-61.27
342.977	114.86
343.189	32.94
343.401	-8.02
343.613	61.61
343.826	4.27
344.038	-32.6
344.25	20.65
344.462	-34.64
344.674	71.85
344.886	22.7
345.099	137.38
345.311	59.56
345.523	8.36
345.735	47.27
345.947	65.71
346.159	-26.45
346.371	10.41
346.583	51.37
346.795	100.52
347.007	65.71
347.219	92.33
347.431	-18.26
347.643	45.23
347.855	26.79
348.067	96.43
348.279	96.43
348.491	34.99
348.703	82.09
348.915	34.99
349.127	49.32
349.339	65.71
349.551	-1.88
349.763	20.65
349.975	86.19
350.187	92.33
350.399	8.36
350.61	57.51
350.822	41.13
351.034	30.89
351.246	-32.6
351.458	18.6
351.669	8.36
351.881	102.57
352.093	51.37
352.305	47.27
352.517	10.41
352.728	34.99
352.94	65.71
353.152	45.23
353.363	47.27
353.575	-1.88
353.787	6.31
353.999	77.99
354.21	73.9
354.422	49.32
354.633	8.36
354.845	86.19
355.057	-48.98
355.268	26.79
355.48	22.7
355.692	-10.07
355.903	30.89
356.115	26.79
356.326	-20.31
356.538	8.36
356.749	75.95
356.961	82.09
357.172	6.31
357.384	73.9
357.595	63.66
357.807	-22.36
358.018	12.46
358.23	-22.36
358.441	84.14
358.653	-40.79
358.864	16.55
359.075	0.17
359.287	34.99
359.498	51.37
359.709	4.27
359.921	18.6
360.132	6.31
360.344	34.99
360.555	16.55
360.766	47.27
360.977	-20.31
361.189	55.47
361.4	-22.36
361.611	75.95
361.823	63.66
362.034	47.27
362.245	-67.41
362.456	24.75
362.667	123.05
362.879	8.36
363.09	73.9
363.301	8.36
363.512	-8.02
363.723	6.31
363.935	-24.4
364.146	80.04
364.357	133.29
364.568	108.71
364.779	-48.98
364.99	24.75
365.201	69.8
365.412	-20.31
365.623	-8.02
365.834	47.27
366.045	37.03
366.256	94.38
366.467	41.13
366.678	2.22
366.889	30.89
367.1	6.31
367.311	63.66
367.522	10.41
367.733	67.75
367.944	77.99
368.155	94.38
368.366	26.79
368.577	69.8
368.788	96.43
368.999	0.17
369.209	112.81
369.42	75.95
369.631	135.34
369.842	30.89
370.053	-12.12
370.264	94.38
370.474	37.03
370.685	8.36
370.896	69.8
371.107	84.14
371.317	45.23
371.528	51.37
371.739	18.6
371.95	30.89
372.16	49.32
372.371	0.17
372.582	2.22
372.792	71.85
373.003	143.53
373.214	69.8
373.424	-5.97
373.635	41.13
373.846	43.18
374.056	53.42
374.267	75.95
374.477	92.33
374.688	-12.12
374.898	20.65
375.109	30.89
375.319	4.27
375.53	4.27
375.74	-1.88
375.951	65.71
376.161	6.31
376.372	63.66
376.582	-14.17
376.793	14.51
377.003	75.95
377.214	55.47
377.424	57.51
377.635	61.61
377.845	65.71
378.055	86.19
378.266	24.75
378.476	22.7
378.686	8.36
378.897	0.17
379.107	-8.02
379.317	2.22
379.528	37.03
379.738	53.42
379.948	77.99
380.158	55.47
380.369	63.66
380.579	22.7
380.789	-1.88
380.999	16.55
381.21	55.47
381.42	104.62
381.63	-24.4
381.84	106.67
382.05	22.7
382.261	84.14
382.471	65.71
382.681	-36.69
382.891	116.9
383.101	84.14
383.311	20.65
383.521	-10.07
383.731	77.99
383.941	123.05
384.151	53.42
384.361	12.46
384.571	-14.17
384.781	10.41
384.991	69.8
385.201	49.32
385.411	32.94
385.621	73.9
385.831	90.28
386.041	41.13
386.251	34.99
386.461	45.23
386.671	49.32
386.881	20.65
387.091	28.84
387.301	59.56
387.511	90.28
387.72	4.27
387.93	59.56
388.14	47.27
388.35	121
388.56	73.9
388.769	65.71
388.979	-10.07
389.189	59.56
389.399	90.28
389.609	59.56
389.818	102.57
390.028	-10.07
390.238	125.1
390.447	8.36
390.657	75.95
390.867	65.71
391.076	8.36
391.286	102.57
391.496	47.27
391.705	106.67
391.915	65.71
392.125	59.56
392.334	104.62
392.544	0.17
392.753	37.03
392.963	-14.17
393.172	131.24
393.382	57.51
393.591	80.04
393.801	67.75
394.01	49.32
394.22	102.57
394.429	-18.26
394.639	34.99
394.848	92.33
395.058	34.99
395.267	49.32
395.477	112.81
395.686	75.95
395.895	121
396.105	80.04
396.314	41.13
396.524	123.05
396.733	6.31
396.942	116.9
397.152	69.8
397.361	41.13
397.57	69.8
397.78	102.57
397.989	98.47
398.198	211.11
398.407	22.7
398.617	100.52
398.826	71.85
399.035	96.43
399.244	61.61
399.453	172.2
399.663	88.23
399.872	116.9
400.081	121
400.29	155.82
400.499	32.94
400.708	135.34
400.917	127.14
401.127	108.71
401.336	166.06
401.545	53.42
401.754	125.1
401.963	114.86
402.172	118.95
402.381	63.66
402.59	135.34
402.799	98.47
403.008	141.48
403.217	155.82
403.426	200.87
403.635	98.47
403.844	102.57
404.053	153.77
404.262	73.9
404.471	100.52
404.68	164.01
404.888	80.04
405.097	147.62
405.306	139.43
405.515	96.43
405.724	153.77
405.933	202.92
406.142	182.44
406.35	155.82
406.559	184.49
406.768	157.86
406.977	194.73
407.185	161.96
407.394	161.96
407.603	186.54
407.812	262.31
408.02	239.78
408.229	274.6
408.438	204.97
408.646	217.26
408.855	196.78
409.064	202.92
409.272	241.83
409.481	321.7
409.69	284.84
409.898	209.06
410.107	262.31
410.315	299.17
410.524	333.99
410.733	268.45
410.941	260.26
411.15	297.13
411.358	336.04
411.567	391.33
411.775	364.71
411.984	362.66
412.192	399.52
412.401	362.66
412.609	417.96
412.818	467.11
413.026	422.05
413.234	440.48
413.443	393.38
413.651	579.75
413.86	448.68
414.068	589.99
414.276	553.12
414.485	628.9
414.693	610.47
414.901	665.76
415.11	686.24
415.318	600.23
415.526	702.62
415.734	729.25
415.943	831.65
416.151	721.06
416.359	704.67
416.567	798.88
416.776	819.36
416.984	858.27
417.192	923.8
417.4	946.33
417.608	960.67
417.817	1073.31
418.025	1001.63
418.233	1032.35
418.441	1120.41
418.649	1142.94
418.857	1235.1
419.065	1204.38
419.273	1255.58
419.481	1265.82
419.689	1423.51
419.897	1411.22
420.105	1384.6
420.313	1544.34
420.521	1507.48
420.729	1548.44
420.937	1622.16
421.145	1765.52
421.353	1806.48
421.561	1798.29
421.769	1880.21
421.977	1876.11
422.185	1958.03
422.393	2138.25
422.601	2173.07
422.809	2160.78
423.017	2136.2
423.224	2234.5
423.432	2513.03
423.64	2396.29
423.848	2498.69
424.056	2500.74
424.263	2562.18
424.471	2713.73
424.679	2830.46
424.887	2973.82
425.094	2961.53
425.302	3127.42
425.51	3158.14
425.718	3225.72
425.925	3297.4
426.133	3448.95
426.341	3563.64
426.548	3657.84
426.756	3760.24
426.964	3780.72
427.171	3922.03
427.379	4010.09
427.586	4192.36
427.794	4157.55
428.001	4616.29
428.209	4683.88
428.417	4446.31
428.624	4995.17
428.832	5044.32
429.039	4892.77
429.247	4962.4
429.454	5427.29
429.662	5804.11
429.869	5476.44
430.076	5509.21
430.284	5523.54
430.491	5791.83
430.699	6029.39
430.906	6252.62
431.114	6164.56
431.321	6508.62
431.528	6719.56
431.736	7080
431.943	7374.91
432.15	7231.55
432.358	7362.62
432.565	7602.23
432.772	7557.18
432.979	7923.76
433.187	8212.53
433.394	8149.04
433.601	8751.14
433.808	8667.17
434.016	8507.43
434.223	9068.58
434.43	9519.13
434.637	9201.69
434.844	10121.23
435.052	10295.31
435.259	10164.24
435.466	10151.95
435.673	10242.06
435.88	10936.32
436.087	11292.67
436.294	11350.01
436.501	11194.37
436.708	11227.14
436.915	11687.93
437.122	12251.12
437.329	12249.07
437.537	12439.53
437.743	12787.69
437.95	12533.74
438.157	13305.82
438.364	13653.98
438.571	13715.42
438.778	13807.58
438.985	15136.71
439.192	14659.53
439.399	15142.85
439.606	14714.83
439.813	15536.06
440.02	16658.35
440.227	16160.69
440.433	16089.01
440.64	16582.57
440.847	16363.44
441.054	17055.65
441.261	18110.36
441.467	17764.25
441.674	18204.56
441.881	18818.96
442.088	18831.24
442.294	18272.15
442.501	18870.15
442.708	19130.25
442.914	20246.39
443.121	21200.74
443.328	20297.59
443.534	21995.36
443.741	21102.44
443.948	20963.18
444.154	22603.6
444.361	22710.1
444.568	22421.33
444.774	22456.15
444.981	22714.19
445.187	23615.3
445.394	24315.7
445.6	24268.6
445.807	26713.88
446.013	25478.95
446.22	25947.93
446.426	26816.27
446.633	26910.48
446.839	28061.44
447.046	26949.39
447.252	28372.73
447.459	28303.1
447.665	28196.6
447.871	29667.05
448.078	30828.24
448.284	29099.76
448.491	29896.42
448.697	31092.43
448.903	31770.31
449.11	31641.29
449.316	31217.36
449.522	31979.2
449.728	32589.5
449.935	33023.67
450.141	32943.8
450.347	33490.6
450.553	32870.07
450.76	32870.07
450.966	34268.83
451.172	33642.15
451.378	34039.46
451.584	33586.86
451.791	34358.94
451.997	34311.84
452.203	35014.29
452.409	34877.08
452.615	34635.42
452.821	32941.75
453.027	33205.94
453.233	34641.56
453.44	33521.32
453.646	33474.22
453.852	34031.27
454.058	34490.01
454.264	33289.9
454.47	33920.68
454.676	33179.31
454.882	34313.89
455.088	31358.67
455.294	31913.67
455.5	32341.69
455.705	32816.82
455.911	31518.41
456.117	30531.29
456.323	30453.47
456.529	28653.3
456.735	30105.31
456.941	29286.12
457.147	28772.08
457.352	27879.17
457.558	27160.33
457.764	27600.65
457.97	27000.59
458.176	26408.73
458.381	26328.86
458.587	25083.69
458.793	25349.93
458.999	23936.83
459.204	25538.34
459.41	24885.04
459.616	23140.17
459.821	23002.96
460.027	23080.78
460.233	22597.46
460.438	21454.69
460.644	21856.09
460.85	20811.63
461.055	20301.68
461.261	20273.01
461.466	19081.1
461.672	18401.17
461.878	19890.04
462.083	18653.07
462.289	18139.03
462.494	17952.66
462.7	17323.94
462.905	16568.24
463.111	17295.27
463.316	17235.88
463.522	16779.18
463.727	16965.54
463.932	16963.5
464.138	16535.47
464.343	16904.1
464.549	16367.54
464.754	16695.21
464.959	16580.53
465.165	16435.12
465.37	15716.28
465.575	15441.86
465.781	16271.28
465.986	16117.68
466.191	15478.72
466.397	15355.84
466.602	14516.17
466.807	15144.9
467.012	15126.47
467.218	15136.71
467.423	14960.58
