Data from USB4F104151__299__11-13-10-098.txt Node

Date: Wed Mar 12 11:13:10 EDT 2025
User: louis
Spectrometer: USB4F10415
Trigger mode: 4
Integration Time (sec): 2.000000E-2
Scans to average: 1
Electric dark correction enabled: true
Nonlinearity correction enabled: false
Boxcar width: 0
XAxis mode: Wavelengths
Number of Pixels in Spectrum: 3648
>>>>>Begin Spectral Data<<<<<
178.204	-59.9
178.424	-59.9
178.644	-59.9
178.864	-37.38
179.084	-66.05
179.304	-12.8
179.524	-59.9
179.744	22.02
179.964	38.4
180.184	-4.61
180.404	22.02
180.624	13.82
180.844	15.87
181.064	22.02
181.283	-8.7
181.503	-45.57
181.723	-2.56
181.943	-37.38
182.163	-16.9
182.383	19.97
182.602	85.5
182.822	28.16
183.042	32.26
183.262	24.06
183.482	28.16
183.701	-12.8
183.921	-12.8
184.141	-29.18
184.361	7.68
184.58	-25.09
184.8	3.58
185.02	-55.81
185.239	5.63
185.459	60.93
185.679	-14.85
185.898	-12.8
186.118	-2.56
186.338	24.06
186.557	62.98
186.777	3.58
186.997	-0.51
187.216	-23.04
187.436	65.02
187.655	52.74
187.875	36.35
188.095	-31.23
188.314	42.5
188.534	73.21
188.753	11.78
188.973	22.02
189.192	30.21
189.412	65.02
189.631	-25.09
189.851	11.78
190.07	122.37
190.29	17.92
190.509	-29.18
190.729	17.92
190.948	11.78
191.168	77.31
191.387	56.83
191.607	40.45
191.826	-4.61
192.045	1.54
192.265	-8.7
192.484	58.88
192.704	71.17
192.923	-88.57
193.142	105.98
193.362	-35.33
193.581	-10.75
193.8	77.31
194.02	50.69
194.239	116.22
194.458	-51.71
194.678	-25.09
194.897	30.21
195.116	-0.51
195.335	-31.23
195.555	44.54
195.774	15.87
195.993	40.45
196.212	101.89
196.432	28.16
196.651	7.68
196.87	48.64
197.089	-6.66
197.308	48.64
197.528	58.88
197.747	5.63
197.966	32.26
198.185	32.26
198.404	11.78
198.623	28.16
198.842	28.16
199.062	54.78
199.281	36.35
199.5	7.68
199.719	44.54
199.938	28.16
200.157	50.69
200.376	52.74
200.595	58.88
200.814	40.45
201.033	19.97
201.252	73.21
201.471	-33.28
201.69	67.07
201.909	-51.71
202.128	26.11
202.347	9.73
202.566	67.07
202.785	-14.85
203.004	-33.28
203.223	89.6
203.442	-33.28
203.661	120.32
203.879	-12.8
204.098	81.41
204.317	11.78
204.536	79.36
204.755	-20.99
204.974	69.12
205.193	19.97
205.411	5.63
205.63	52.74
205.849	108.03
206.068	67.07
206.287	-45.57
206.505	30.21
206.724	30.21
206.943	13.82
207.162	11.78
207.381	3.58
207.599	56.83
207.818	11.78
208.037	34.3
208.255	85.5
208.474	28.16
208.693	19.97
208.911	54.78
209.13	67.07
209.349	-25.09
209.567	22.02
209.786	93.69
210.005	105.98
210.223	-8.7
210.442	-6.66
210.661	91.65
210.879	-2.56
211.098	36.35
211.316	15.87
211.535	34.3
211.753	91.65
211.972	22.02
212.191	-16.9
212.409	46.59
212.628	19.97
212.846	56.83
213.065	1.54
213.283	58.88
213.502	15.87
213.72	42.5
213.938	28.16
214.157	7.68
214.375	1.54
214.594	52.74
214.812	32.26
215.031	3.58
215.249	13.82
215.467	30.21
215.686	56.83
215.904	19.97
216.122	38.4
216.341	62.98
216.559	17.92
216.778	9.73
216.996	138.75
217.214	-0.51
217.432	7.68
217.651	-49.66
217.869	22.02
218.087	40.45
218.306	34.3
218.524	73.21
218.742	30.21
218.96	79.36
219.179	-33.28
219.397	34.3
219.615	105.98
219.833	-12.8
220.051	-6.66
220.27	11.78
220.488	38.4
220.706	75.26
220.924	-0.51
221.142	67.07
221.36	77.31
221.578	48.64
221.796	24.06
222.015	-0.51
222.233	30.21
222.451	83.45
222.669	-8.7
222.887	93.69
223.105	11.78
223.323	11.78
223.541	11.78
223.759	36.35
223.977	32.26
224.195	13.82
224.413	40.45
224.631	71.17
224.849	22.02
225.067	-4.61
225.285	1.54
225.503	-2.56
225.721	-29.18
225.939	-10.75
226.157	62.98
226.375	26.11
226.592	-66.05
226.81	28.16
227.028	1.54
227.246	132.61
227.464	46.59
227.682	62.98
227.9	60.93
228.117	22.02
228.335	54.78
228.553	19.97
228.771	7.68
228.989	77.31
229.206	-49.66
229.424	-57.86
229.642	-123.39
229.86	-43.52
230.077	81.41
230.295	58.88
230.513	36.35
230.731	15.87
230.948	-43.52
231.166	77.31
231.384	-4.61
231.601	19.97
231.819	89.6
232.037	83.45
232.254	60.93
232.472	40.45
232.689	97.79
232.907	62.98
233.125	77.31
233.342	30.21
233.56	46.59
233.777	5.63
233.995	40.45
234.213	75.26
234.43	24.06
234.648	11.78
234.865	60.93
235.083	36.35
235.3	24.06
235.518	58.88
235.735	46.59
235.953	65.02
236.17	-20.99
236.388	9.73
236.605	48.64
236.822	60.93
237.04	46.59
237.257	40.45
237.475	1.54
237.692	52.74
237.909	28.16
238.127	32.26
238.344	56.83
238.562	67.07
238.779	-14.85
238.996	34.3
239.214	36.35
239.431	69.12
239.648	48.64
239.865	19.97
240.083	99.84
240.3	36.35
240.517	9.73
240.735	36.35
240.952	15.87
241.169	-41.47
241.386	110.08
241.603	-14.85
241.821	-20.99
242.038	83.45
242.255	-2.56
242.472	5.63
242.689	69.12
242.907	5.63
243.124	3.58
243.341	13.82
243.558	-8.7
243.775	-66.05
243.992	15.87
244.209	97.79
244.426	91.65
244.643	34.3
244.86	-16.9
245.078	32.26
245.295	99.84
245.512	42.5
245.729	32.26
245.946	-8.7
246.163	79.36
246.38	112.13
246.597	-18.94
246.814	-29.18
247.031	11.78
247.248	75.26
247.464	65.02
247.681	46.59
247.898	40.45
248.115	116.22
248.332	34.3
248.549	101.89
248.766	65.02
248.983	60.93
249.2	-31.23
249.417	97.79
249.633	9.73
249.85	46.59
250.067	40.45
250.284	30.21
250.501	-2.56
250.717	75.26
250.934	5.63
251.151	-53.76
251.368	52.74
251.585	44.54
251.801	36.35
252.018	-14.85
252.235	36.35
252.451	60.93
252.668	85.5
252.885	60.93
253.102	24.06
253.318	15.87
253.535	46.59
253.752	36.35
253.968	85.5
254.185	58.88
254.401	-12.8
254.618	-2.56
254.835	48.64
255.051	30.21
255.268	-20.99
255.484	7.68
255.701	65.02
255.917	7.68
256.134	1.54
256.351	46.59
256.567	24.06
256.784	60.93
257	-33.28
257.217	87.55
257.433	26.11
257.65	40.45
257.866	58.88
258.082	69.12
258.299	44.54
258.515	7.68
258.732	46.59
258.948	-25.09
259.165	-6.66
259.381	69.12
259.597	7.68
259.814	36.35
260.03	50.69
260.246	50.69
260.463	17.92
260.679	81.41
260.895	28.16
261.112	89.6
261.328	-4.61
261.544	48.64
261.761	81.41
261.977	-0.51
262.193	7.68
262.409	89.6
262.626	48.64
262.842	38.4
263.058	54.78
263.274	110.08
263.49	83.45
263.707	60.93
263.923	44.54
264.139	38.4
264.355	46.59
264.571	58.88
264.787	24.06
265.004	-0.51
265.22	44.54
265.436	19.97
265.652	81.41
265.868	32.26
266.084	44.54
266.3	38.4
266.516	9.73
266.732	3.58
266.948	3.58
267.164	9.73
267.38	52.74
267.596	46.59
267.812	89.6
268.028	-45.57
268.244	30.21
268.46	15.87
268.676	19.97
268.892	-20.99
269.108	-6.66
269.324	32.26
269.54	15.87
269.756	-10.75
269.972	-29.18
270.188	9.73
270.403	11.78
270.619	32.26
270.835	-37.38
271.051	97.79
271.267	-37.38
271.483	28.16
271.698	52.74
271.914	32.26
272.13	95.74
272.346	11.78
272.562	71.17
272.777	30.21
272.993	7.68
273.209	81.41
273.425	46.59
273.64	122.37
273.856	52.74
274.072	65.02
274.287	17.92
274.503	-2.56
274.719	44.54
274.934	-18.94
275.15	32.26
275.366	65.02
275.581	5.63
275.797	9.73
276.012	36.35
276.228	32.26
276.444	34.3
276.659	34.3
276.875	-20.99
277.09	-20.99
277.306	19.97
277.521	110.08
277.737	3.58
277.952	99.84
278.168	-47.62
278.383	42.5
278.599	95.74
278.814	7.68
279.03	48.64
279.245	81.41
279.461	26.11
279.676	42.5
279.892	17.92
280.107	114.17
280.322	15.87
280.538	132.61
280.753	73.21
280.969	97.79
281.184	87.55
281.399	22.02
281.615	95.74
281.83	50.69
282.045	-10.75
282.26	24.06
282.476	42.5
282.691	5.63
282.906	44.54
283.122	46.59
283.337	38.4
283.552	69.12
283.767	75.26
283.983	42.5
284.198	-16.9
284.413	30.21
284.628	-18.94
284.843	87.55
285.058	30.21
285.274	134.65
285.489	50.69
285.704	-39.42
285.919	52.74
286.134	85.5
286.349	13.82
286.564	38.4
286.779	42.5
286.995	46.59
287.21	-6.66
287.425	105.98
287.64	-6.66
287.855	46.59
288.07	15.87
288.285	75.26
288.5	34.3
288.715	17.92
288.93	13.82
289.145	-27.14
289.36	108.03
289.575	-33.28
289.79	153.09
290.004	77.31
290.219	-43.52
290.434	77.31
290.649	85.5
290.864	75.26
291.079	-6.66
291.294	87.55
291.509	-4.61
291.724	42.5
291.938	5.63
292.153	65.02
292.368	40.45
292.583	19.97
292.798	-53.76
293.012	19.97
293.227	108.03
293.442	75.26
293.657	65.02
293.871	-6.66
294.086	48.64
294.301	38.4
294.516	65.02
294.73	77.31
294.945	81.41
295.16	36.35
295.374	42.5
295.589	83.45
295.804	-39.42
296.018	38.4
296.233	81.41
296.447	58.88
296.662	13.82
296.877	69.12
297.091	30.21
297.306	75.26
297.52	-8.7
297.735	19.97
297.949	36.35
298.164	67.07
298.378	58.88
298.593	-27.14
298.807	46.59
299.022	112.13
299.236	95.74
299.451	85.5
299.665	26.11
299.88	71.17
300.094	85.5
300.309	3.58
300.523	-8.7
300.737	13.82
300.952	77.31
301.166	46.59
301.381	46.59
301.595	30.21
301.809	56.83
302.024	26.11
302.238	38.4
302.452	28.16
302.667	-0.51
302.881	32.26
303.095	110.08
303.309	7.68
303.524	36.35
303.738	28.16
303.952	-51.71
304.166	83.45
304.381	7.68
304.595	83.45
304.809	15.87
305.023	38.4
305.237	19.97
305.452	36.35
305.666	58.88
305.88	52.74
306.094	75.26
306.308	40.45
306.522	65.02
306.736	60.93
306.95	36.35
307.164	-55.81
307.379	9.73
307.593	17.92
307.807	97.79
308.021	42.5
308.235	44.54
308.449	85.5
308.663	60.93
308.877	62.98
309.091	34.3
309.305	62.98
309.519	15.87
309.733	91.65
309.947	-18.94
310.161	54.78
310.374	11.78
310.588	52.74
310.802	40.45
311.016	24.06
311.23	42.5
311.444	17.92
311.658	32.26
311.872	157.18
312.085	44.54
312.299	48.64
312.513	42.5
312.727	26.11
312.941	42.5
313.154	124.41
313.368	9.73
313.582	38.4
313.796	-14.85
314.009	60.93
314.223	-0.51
314.437	69.12
314.651	28.16
314.864	60.93
315.078	-45.57
315.292	46.59
315.505	-10.75
315.719	75.26
315.933	58.88
316.146	28.16
316.36	42.5
316.573	36.35
316.787	71.17
317.001	60.93
317.214	26.11
317.428	48.64
317.641	19.97
317.855	81.41
318.068	-61.95
318.282	46.59
318.495	67.07
318.709	3.58
318.922	-20.99
319.136	46.59
319.349	138.75
319.563	-41.47
319.776	7.68
319.99	28.16
320.203	-4.61
320.417	71.17
320.63	46.59
320.843	69.12
321.057	34.3
321.27	-72.19
321.483	26.11
321.697	87.55
321.91	28.16
322.124	97.79
322.337	65.02
322.55	62.98
322.763	32.26
322.977	71.17
323.19	-12.8
323.403	36.35
323.617	83.45
323.83	87.55
324.043	93.69
324.256	-20.99
324.469	28.16
324.683	85.5
324.896	36.35
325.109	13.82
325.322	97.79
325.535	11.78
325.748	89.6
325.962	69.12
326.175	44.54
326.388	56.83
326.601	91.65
326.814	-4.61
327.027	58.88
327.24	50.69
327.453	-94.72
327.666	1.54
327.879	-0.51
328.092	56.83
328.305	13.82
328.518	58.88
328.731	56.83
328.944	-16.9
329.157	32.26
329.37	65.02
329.583	81.41
329.796	52.74
330.009	-31.23
330.222	83.45
330.435	24.06
330.648	32.26
330.861	9.73
331.073	30.21
331.286	11.78
331.499	75.26
331.712	15.87
331.925	79.36
332.138	81.41
332.35	73.21
332.563	48.64
332.776	87.55
332.989	44.54
333.202	32.26
333.414	11.78
333.627	34.3
333.84	-16.9
334.053	46.59
334.265	81.41
334.478	50.69
334.691	30.21
334.903	42.5
335.116	32.26
335.329	3.58
335.541	138.75
335.754	130.56
335.966	60.93
336.179	26.11
336.392	75.26
336.604	-47.62
336.817	17.92
337.029	73.21
337.242	32.26
337.454	97.79
337.667	-0.51
337.88	89.6
338.092	17.92
338.305	56.83
338.517	-8.7
338.729	46.59
338.942	34.3
339.154	-37.38
339.367	9.73
339.579	36.35
339.792	34.3
340.004	91.65
340.217	-14.85
340.429	101.89
340.641	69.12
340.854	28.16
341.066	50.69
341.278	-6.66
341.491	40.45
341.703	19.97
341.915	-18.94
342.128	54.78
342.34	62.98
342.552	58.88
342.764	38.4
342.977	36.35
343.189	5.63
343.401	9.73
343.613	-12.8
343.826	9.73
344.038	11.78
344.25	46.59
344.462	-33.28
344.674	-6.66
344.886	40.45
345.099	22.02
345.311	71.17
345.523	17.92
345.735	42.5
345.947	30.21
346.159	19.97
346.371	11.78
346.583	11.78
346.795	95.74
347.007	93.69
347.219	116.22
347.431	1.54
347.643	-14.85
347.855	30.21
348.067	56.83
348.279	42.5
348.491	34.3
348.703	24.06
348.915	75.26
349.127	34.3
349.339	38.4
349.551	32.26
349.763	50.69
349.975	44.54
350.187	36.35
350.399	-47.62
350.61	15.87
350.822	116.22
351.034	13.82
351.246	34.3
351.458	62.98
351.669	52.74
351.881	75.26
352.093	77.31
352.305	75.26
352.517	46.59
352.728	163.33
352.94	24.06
353.152	26.11
353.363	26.11
353.575	40.45
353.787	83.45
353.999	58.88
354.21	11.78
354.422	26.11
354.633	122.37
354.845	-0.51
355.057	34.3
355.268	17.92
355.48	44.54
355.692	52.74
355.903	44.54
356.115	28.16
356.326	1.54
356.538	110.08
356.749	32.26
356.961	42.5
357.172	50.69
357.384	36.35
357.595	7.68
357.807	93.69
358.018	26.11
358.23	77.31
358.441	22.02
358.653	73.21
358.864	32.26
359.075	26.11
359.287	69.12
359.498	52.74
359.709	52.74
359.921	-0.51
360.132	56.83
360.344	99.84
360.555	19.97
360.766	132.61
360.977	-41.47
361.189	140.8
361.4	19.97
361.611	-6.66
361.823	65.02
362.034	62.98
362.245	89.6
362.456	65.02
362.667	65.02
362.879	40.45
363.09	77.31
363.301	1.54
363.512	48.64
363.723	-29.18
363.935	50.69
364.146	116.22
364.357	28.16
364.568	93.69
364.779	-47.62
364.99	11.78
365.201	28.16
365.412	48.64
365.623	48.64
365.834	32.26
366.045	118.27
366.256	108.03
366.467	32.26
366.678	32.26
366.889	44.54
367.1	65.02
367.311	73.21
367.522	75.26
367.733	24.06
367.944	56.83
368.155	105.98
368.366	7.68
368.577	67.07
368.788	52.74
368.999	5.63
369.209	50.69
369.42	83.45
369.631	87.55
369.842	1.54
370.053	60.93
370.264	89.6
370.474	85.5
370.685	28.16
370.896	44.54
371.107	60.93
371.317	50.69
371.528	71.17
371.739	58.88
371.95	3.58
372.16	34.3
372.371	32.26
372.582	103.93
372.792	128.51
373.003	3.58
373.214	32.26
373.424	-25.09
373.635	54.78
373.846	140.8
374.056	19.97
374.267	26.11
374.477	77.31
374.688	-51.71
374.898	32.26
375.109	73.21
375.319	9.73
375.53	91.65
375.74	75.26
375.951	120.32
376.161	114.17
376.372	65.02
376.582	73.21
376.793	62.98
377.003	110.08
377.214	26.11
377.424	58.88
377.635	34.3
377.845	40.45
378.055	24.06
378.266	-0.51
378.476	44.54
378.686	3.58
378.897	9.73
379.107	38.4
379.317	54.78
379.528	67.07
379.738	50.69
379.948	65.02
380.158	-70.14
380.369	5.63
380.579	58.88
380.789	85.5
380.999	52.74
381.21	9.73
381.42	93.69
381.63	48.64
381.84	134.65
382.05	3.58
382.261	9.73
382.471	24.06
382.681	32.26
382.891	69.12
383.101	99.84
383.311	48.64
383.521	60.93
383.731	17.92
383.941	32.26
384.151	40.45
384.361	17.92
384.571	7.68
384.781	85.5
384.991	103.93
385.201	99.84
385.411	26.11
385.621	69.12
385.831	42.5
386.041	73.21
386.251	38.4
386.461	-4.61
386.671	81.41
386.881	50.69
387.091	-31.23
387.301	67.07
387.511	40.45
387.72	22.02
387.93	52.74
388.14	97.79
388.35	24.06
388.56	77.31
388.769	28.16
388.979	62.98
389.189	34.3
389.399	52.74
389.609	44.54
389.818	28.16
390.028	95.74
390.238	15.87
390.447	89.6
390.657	38.4
390.867	13.82
391.076	19.97
391.286	44.54
391.496	83.45
391.705	-31.23
391.915	101.89
392.125	44.54
392.334	81.41
392.544	67.07
392.753	7.68
392.963	75.26
393.172	46.59
393.382	65.02
393.591	118.27
393.801	32.26
394.01	77.31
394.22	75.26
394.429	89.6
394.639	52.74
394.848	91.65
395.058	110.08
395.267	93.69
395.477	83.45
395.686	69.12
395.895	136.7
396.105	110.08
396.314	75.26
396.524	-8.7
396.733	155.13
396.942	136.7
397.152	89.6
397.361	105.98
397.57	118.27
397.78	93.69
397.989	101.89
398.198	93.69
398.407	13.82
398.617	99.84
398.826	34.3
399.035	83.45
399.244	114.17
399.453	167.42
399.663	81.41
399.872	69.12
400.081	151.04
400.29	93.69
400.499	73.21
400.708	146.94
400.917	128.51
401.127	142.85
401.336	73.21
401.545	128.51
401.754	140.8
401.963	114.17
402.172	87.55
402.381	77.31
402.59	108.03
402.799	114.17
403.008	220.67
403.217	105.98
403.426	134.65
403.635	169.47
403.844	136.7
404.053	157.18
404.262	126.46
404.471	175.61
404.68	142.85
404.888	192
405.097	210.43
405.306	192
405.515	151.04
405.724	136.7
405.933	192
406.142	87.55
406.35	179.71
406.559	116.22
406.768	87.55
406.977	179.71
407.185	189.95
407.394	177.66
407.603	161.28
407.812	232.96
408.02	187.9
408.229	151.04
408.438	251.39
408.646	185.85
408.855	298.49
409.064	220.67
409.272	202.24
409.481	241.15
409.69	204.28
409.898	206.33
410.107	329.21
410.315	306.68
410.524	364.03
410.733	464.38
410.941	310.78
411.15	321.02
411.358	386.55
411.567	353.79
411.775	396.79
411.984	374.27
412.192	415.23
412.401	423.42
412.609	402.94
412.818	450.04
413.026	421.37
413.234	429.56
413.443	404.99
413.651	488.95
413.86	544.25
414.068	562.68
414.276	640.5
414.485	534.01
414.693	523.77
414.901	634.36
415.11	699.89
415.318	660.98
415.526	650.74
415.734	753.14
415.943	675.32
416.151	740.85
416.359	785.91
416.567	816.63
416.776	837.11
416.984	861.68
417.192	859.63
417.4	904.69
417.608	876.02
417.817	953.84
418.025	1025.52
418.233	1046
418.441	957.94
418.649	947.7
418.857	1132.01
419.065	1220.08
419.273	1164.78
419.481	1232.37
419.689	1302
419.897	1332.72
420.105	1330.67
420.313	1367.53
420.521	1506.79
420.729	1426.92
420.937	1517.03
421.145	1656.29
421.353	1713.64
421.561	1699.3
421.769	1740.26
421.977	2008.55
422.185	1904.1
422.393	1924.58
422.601	2088.42
422.809	2059.74
423.017	2055.65
423.224	2201.05
423.432	2289.12
423.64	2239.97
423.848	2399.71
424.056	2293.21
424.263	2592.22
424.471	2557.4
424.679	2493.91
424.887	2686.42
425.094	2819.54
425.302	2960.85
425.51	2915.8
425.718	3112.4
425.925	3098.06
426.133	3309.01
426.341	3429.84
426.548	3468.75
426.756	3378.64
426.964	3513.8
427.171	3888.58
427.379	3966.4
427.586	4056.51
427.794	4056.51
428.001	4218.3
428.209	4525.5
428.417	4476.35
428.624	4697.53
428.832	4709.82
429.039	4597.18
429.247	4662.71
429.454	5283.25
429.662	5510.57
429.869	4996.53
430.076	5516.72
430.284	5334.45
430.491	5596.59
430.699	5819.82
430.906	5918.12
431.114	5967.27
431.321	6133.15
431.528	6237.6
431.736	6415.77
431.943	7019.92
432.15	6851.99
432.358	7075.22
432.565	7204.24
432.772	7218.58
432.979	7552.4
433.187	7675.27
433.394	7824.78
433.601	8318.34
433.808	8275.33
434.016	8320.39
434.223	8586.62
434.43	9196.92
434.637	8869.24
434.844	9637.23
435.052	9710.96
435.259	9745.77
435.466	9602.41
435.673	9741.68
435.88	10425.7
436.087	10628.45
436.294	10872.15
436.501	10413.41
436.708	10607.97
436.915	11240.79
437.122	11572.56
437.329	11658.57
437.537	11695.44
437.743	12152.13
437.95	12143.94
438.157	12827.96
438.364	13090.1
438.571	13108.54
438.778	13051.19
438.985	14316.84
439.192	13487.41
439.399	14210.34
439.606	14052.65
439.813	14589.22
440.02	15488.28
440.227	15244.57
440.433	15187.22
440.64	15871.25
440.847	15529.24
441.054	15877.39
441.261	16968.96
441.467	16635.14
441.674	17046.78
441.881	17640.69
442.088	17763.57
442.294	17587.44
442.501	18152.68
442.708	18447.59
442.914	19119.32
443.121	19692.76
443.328	19156.19
443.534	20653.25
443.741	20227.28
443.948	19881.17
444.154	21537.98
444.361	20933.82
444.568	21392.57
444.774	21396.67
444.981	21566.65
445.187	22377.64
445.394	23268.51
445.6	22772.9
445.807	24943.75
446.013	23899.28
446.22	24407.18
446.426	25760.89
446.633	25502.84
446.839	26295.41
447.046	25058.43
447.252	26877.03
447.459	27118.69
447.665	26459.24
447.871	27931.73
448.078	28709.96
448.284	27579.48
448.491	28537.93
448.697	29576.25
448.903	30104.63
449.11	30170.16
449.316	29627.45
449.522	29922.36
449.728	30944.3
449.935	30712.88
450.141	30903.34
450.347	31718.43
450.553	30639.15
450.76	31360.03
450.966	32224.28
451.172	31591.45
451.378	32373.78
451.584	32054.29
451.791	32597.01
451.997	32093.21
452.203	33065.99
452.409	33139.72
452.615	32977.93
452.821	31704.09
453.027	31052.84
453.233	32994.31
453.44	31437.86
453.646	32166.93
453.852	32115.73
454.058	32498.7
454.264	31353.89
454.47	32279.57
454.676	31450.14
454.882	32521.23
455.088	29709.37
455.294	30032.95
455.5	30395.44
455.705	30587.95
455.911	29158.47
456.117	29217.86
456.323	28906.57
456.529	27067.49
456.735	28314.7
456.941	27438.17
457.147	26938.47
457.352	26301.55
457.558	25681.02
457.764	26115.19
457.97	25412.73
458.176	24970.37
458.381	24863.88
458.587	23798.93
458.793	23610.52
458.999	22539.43
459.204	24224.91
459.41	23342.24
459.616	21742.77
459.821	21802.16
460.027	21746.87
460.233	21537.98
460.438	20350.15
460.644	20434.12
460.85	19772.63
461.055	19344.6
461.261	19289.31
461.466	17806.58
461.672	17292.54
461.878	18506.98
462.083	17562.87
462.289	16952.57
462.494	16661.76
462.7	16102.67
462.905	15783.18
463.111	15820.05
463.316	16268.55
463.522	15752.46
463.727	15985.93
463.932	16030.99
464.138	15748.37
464.343	15699.22
464.549	15648.02
464.754	16225.54
464.959	15676.69
465.165	15725.84
465.37	14992.67
465.575	14531.87
465.781	15156.5
465.986	15353.11
466.191	14863.65
466.397	14347.56
466.602	14030.12
466.807	14333.22
467.012	14427.43
467.218	14109.99
467.423	14146.86
467.628	14216.49
467.833	14744.86
468.038	14009.64
468.244	13712.69
468.449	14427.43
