Data from USB4F104151__129__11-07-38-655.txt Node

Date: Wed Mar 12 11:07:38 EDT 2025
User: louis
Spectrometer: USB4F10415
Trigger mode: 4
Integration Time (sec): 2.000000E-2
Scans to average: 1
Electric dark correction enabled: true
Nonlinearity correction enabled: false
Boxcar width: 0
XAxis mode: Wavelengths
Number of Pixels in Spectrum: 3648
>>>>>Begin Spectral Data<<<<<
178.204	-159.23
178.424	-159.23
178.644	-159.23
178.864	-126.46
179.084	-75.26
179.304	23.04
179.524	-13.82
179.744	29.18
179.964	-24.06
180.184	29.18
180.404	16.9
180.624	-44.54
180.844	16.9
181.064	-15.87
181.283	-9.73
181.503	-15.87
181.723	8.7
181.943	12.8
182.163	61.95
182.383	-26.11
182.602	64
182.822	-15.87
183.042	8.7
183.262	-58.88
183.482	4.61
183.701	29.18
183.921	29.18
184.141	20.99
184.361	18.94
184.58	51.71
184.8	-34.3
185.02	-36.35
185.239	47.62
185.459	37.38
185.679	2.56
185.898	43.52
186.118	135.68
186.338	0.51
186.557	-65.02
186.777	-11.78
186.997	25.09
187.216	-52.74
187.436	117.25
187.655	47.62
187.875	-7.68
188.095	74.24
188.314	57.86
188.534	41.47
188.753	-3.58
188.973	43.52
189.192	-24.06
189.412	37.38
189.631	6.66
189.851	-7.68
190.07	35.33
190.29	-11.78
190.509	43.52
190.729	8.7
190.948	-5.63
191.168	133.63
191.387	27.14
191.607	10.75
191.826	37.38
192.045	25.09
192.265	88.57
192.484	86.53
192.704	14.85
192.923	23.04
193.142	66.05
193.362	29.18
193.581	115.2
193.8	20.99
194.02	18.94
194.239	-11.78
194.458	18.94
194.678	37.38
194.897	20.99
195.116	59.9
195.335	29.18
195.555	8.7
195.774	-34.3
195.993	20.99
196.212	-26.11
196.432	-3.58
196.651	23.04
196.87	-19.97
197.089	49.66
197.308	70.14
197.528	20.99
197.747	37.38
197.966	-28.16
198.185	14.85
198.404	-5.63
198.623	27.14
198.842	12.8
199.062	88.57
199.281	61.95
199.5	31.23
199.719	18.94
199.938	-5.63
200.157	68.09
200.376	-44.54
200.595	43.52
200.814	35.33
201.033	49.66
201.252	25.09
201.471	-19.97
201.69	18.94
201.909	-7.68
202.128	29.18
202.347	29.18
202.566	-22.02
202.785	53.76
203.004	-54.78
203.223	-38.4
203.442	-71.17
203.661	8.7
203.879	8.7
204.098	-5.63
204.317	70.14
204.536	59.9
204.755	0.51
204.974	-13.82
205.193	90.62
205.411	45.57
205.63	41.47
205.849	-15.87
206.068	-34.3
206.287	53.76
206.505	41.47
206.724	-11.78
206.943	-5.63
207.162	-44.54
207.381	2.56
207.599	76.29
207.818	47.62
208.037	72.19
208.255	-1.54
208.474	-3.58
208.693	45.57
208.911	47.62
209.13	64
209.349	4.61
209.567	70.14
209.786	23.04
210.005	35.33
210.223	12.8
210.442	33.28
210.661	39.42
210.879	-9.73
211.098	18.94
211.316	2.56
211.535	57.86
211.753	6.66
211.972	39.42
212.191	-1.54
212.409	10.75
212.628	-52.74
212.846	12.8
213.065	45.57
213.283	47.62
213.502	43.52
213.72	16.9
213.938	14.85
214.157	51.71
214.375	94.72
214.594	29.18
214.812	16.9
215.031	82.43
215.249	-3.58
215.467	18.94
215.686	8.7
215.904	78.33
216.122	-17.92
216.341	27.14
216.559	16.9
216.778	47.62
216.996	53.76
217.214	18.94
217.432	43.52
217.651	47.62
217.869	66.05
218.087	-36.35
218.306	23.04
218.524	47.62
218.742	0.51
218.96	45.57
219.179	27.14
219.397	55.81
219.615	64
219.833	33.28
220.051	-40.45
220.27	68.09
220.488	37.38
220.706	59.9
220.924	47.62
221.142	4.61
221.36	-60.93
221.578	20.99
221.796	0.51
222.015	76.29
222.233	74.24
222.451	90.62
222.669	88.57
222.887	-15.87
223.105	4.61
223.323	12.8
223.541	64
223.759	4.61
223.977	16.9
224.195	76.29
224.413	16.9
224.631	0.51
224.849	-52.74
225.067	0.51
225.285	43.52
225.503	10.75
225.721	33.28
225.939	23.04
226.157	16.9
226.375	107.01
226.592	2.56
226.81	-22.02
227.028	33.28
227.246	25.09
227.464	31.23
227.682	-13.82
227.9	18.94
228.117	20.99
228.335	66.05
228.553	92.67
228.771	43.52
228.989	-36.35
229.206	29.18
229.424	-7.68
229.642	66.05
229.86	25.09
230.077	-34.3
230.295	41.47
230.513	-34.3
230.731	76.29
230.948	72.19
231.166	27.14
231.384	-3.58
231.601	6.66
231.819	-19.97
232.037	64
232.254	20.99
232.472	64
232.689	35.33
232.907	80.38
233.125	-19.97
233.342	20.99
233.56	25.09
233.777	31.23
233.995	53.76
234.213	59.9
234.43	-5.63
234.648	55.81
234.865	-17.92
235.083	41.47
235.3	-15.87
235.518	31.23
235.735	12.8
235.953	-50.69
236.17	59.9
236.388	0.51
236.605	107.01
236.822	10.75
237.04	43.52
237.257	57.86
237.475	4.61
237.692	-32.26
237.909	-11.78
238.127	-38.4
238.344	90.62
238.562	-36.35
238.779	-28.16
238.996	12.8
239.214	37.38
239.431	43.52
239.648	27.14
239.865	-28.16
240.083	-1.54
240.3	16.9
240.517	-13.82
240.735	29.18
240.952	10.75
241.169	-5.63
241.386	-32.26
241.603	41.47
241.821	-26.11
242.038	68.09
242.255	51.71
242.472	94.72
242.689	-3.58
242.907	37.38
243.124	12.8
243.341	57.86
243.558	53.76
243.775	51.71
243.992	23.04
244.209	47.62
244.426	4.61
244.643	47.62
244.86	57.86
245.078	37.38
245.295	-9.73
245.512	29.18
245.729	-22.02
245.946	100.86
246.163	80.38
246.38	23.04
246.597	10.75
246.814	23.04
247.031	41.47
247.248	78.33
247.464	-3.58
247.681	64
247.898	-9.73
248.115	-17.92
248.332	8.7
248.549	117.25
248.766	141.82
248.983	88.57
249.2	-19.97
249.417	20.99
249.633	-15.87
249.85	59.9
250.067	-22.02
250.284	-13.82
250.501	57.86
250.717	68.09
250.934	-1.54
251.151	-15.87
251.368	90.62
251.585	-28.16
251.801	-9.73
252.018	23.04
252.235	-11.78
252.451	4.61
252.668	2.56
252.885	64
253.102	78.33
253.318	39.42
253.535	-19.97
253.752	-19.97
253.968	6.66
254.185	51.71
254.401	29.18
254.618	-3.58
254.835	-24.06
255.051	-32.26
255.268	47.62
255.484	-3.58
255.701	31.23
255.917	29.18
256.134	33.28
256.351	49.66
256.567	-26.11
256.784	12.8
257	41.47
257.217	68.09
257.433	51.71
257.65	23.04
257.866	37.38
258.082	-28.16
258.299	-38.4
258.515	0.51
258.732	74.24
258.948	2.56
259.165	-22.02
259.381	37.38
259.597	-17.92
259.814	94.72
260.03	23.04
260.246	4.61
260.463	37.38
260.679	47.62
260.895	41.47
261.112	33.28
261.328	-17.92
261.544	25.09
261.761	59.9
261.977	-36.35
262.193	2.56
262.409	0.51
262.626	-22.02
262.842	64
263.058	29.18
263.274	64
263.49	31.23
263.707	66.05
263.923	68.09
264.139	-17.92
264.355	72.19
264.571	72.19
264.787	-11.78
265.004	70.14
265.22	6.66
265.436	-46.59
265.652	55.81
265.868	49.66
266.084	14.85
266.3	6.66
266.516	23.04
266.732	39.42
266.948	-36.35
267.164	45.57
267.38	53.76
267.596	49.66
267.812	20.99
268.028	61.95
268.244	68.09
268.46	8.7
268.676	0.51
268.892	-19.97
269.108	-15.87
269.324	49.66
269.54	-7.68
269.756	10.75
269.972	-3.58
270.188	102.91
270.403	-15.87
270.619	29.18
270.835	4.61
271.051	14.85
271.267	-73.21
271.483	-67.07
271.698	6.66
271.914	68.09
272.13	29.18
272.346	-65.02
272.562	39.42
272.777	37.38
272.993	-30.21
273.209	41.47
273.425	14.85
273.64	68.09
273.856	84.48
274.072	82.43
274.287	41.47
274.503	53.76
274.719	47.62
274.934	12.8
275.15	-42.5
275.366	6.66
275.581	4.61
275.797	90.62
276.012	8.7
276.228	43.52
276.444	-30.21
276.659	-19.97
276.875	31.23
277.09	51.71
277.306	-40.45
277.521	98.81
277.737	-38.4
277.952	102.91
278.168	74.24
278.383	107.01
278.599	47.62
278.814	-50.69
279.03	23.04
279.245	45.57
279.461	53.76
279.676	49.66
279.892	94.72
280.107	-5.63
280.322	31.23
280.538	68.09
280.753	20.99
280.969	86.53
281.184	72.19
281.399	14.85
281.615	12.8
281.83	51.71
282.045	49.66
282.26	86.53
282.476	6.66
282.691	72.19
282.906	20.99
283.122	64
283.337	-7.68
283.552	57.86
283.767	-11.78
283.983	55.81
284.198	-22.02
284.413	39.42
284.628	33.28
284.843	53.76
285.058	74.24
285.274	12.8
285.489	39.42
285.704	43.52
285.919	18.94
286.134	39.42
286.349	47.62
286.564	10.75
286.779	82.43
286.995	25.09
287.21	-26.11
287.425	10.75
287.64	47.62
287.855	37.38
288.07	61.95
288.285	123.39
288.5	-65.02
288.715	8.7
288.93	80.38
289.145	45.57
289.36	6.66
289.575	88.57
289.79	4.61
290.004	20.99
290.219	55.81
290.434	59.9
290.649	29.18
290.864	-30.21
291.079	68.09
291.294	55.81
291.509	33.28
291.724	23.04
291.938	68.09
292.153	2.56
292.368	74.24
292.583	39.42
292.798	53.76
293.012	51.71
293.227	37.38
293.442	6.66
293.657	39.42
293.871	41.47
294.086	29.18
294.301	88.57
294.516	98.81
294.73	45.57
294.945	4.61
295.16	51.71
295.374	33.28
295.589	51.71
295.804	-52.74
296.018	78.33
296.233	51.71
296.447	6.66
296.662	6.66
296.877	143.87
297.091	98.81
297.306	33.28
297.52	49.66
297.735	25.09
297.949	-13.82
298.164	51.71
298.378	-44.54
298.593	37.38
298.807	33.28
299.022	84.48
299.236	25.09
299.451	59.9
299.665	8.7
299.88	59.9
300.094	41.47
300.309	33.28
300.523	53.76
300.737	-11.78
300.952	2.56
301.166	61.95
301.381	82.43
301.595	2.56
301.809	-7.68
302.024	4.61
302.238	39.42
302.452	-77.31
302.667	-3.58
302.881	51.71
303.095	41.47
303.309	100.86
303.524	39.42
303.738	6.66
303.952	109.05
304.166	90.62
304.381	0.51
304.595	35.33
304.809	25.09
305.023	98.81
305.237	16.9
305.452	-15.87
305.666	-19.97
305.88	74.24
306.094	2.56
306.308	47.62
306.522	25.09
306.736	45.57
306.95	-17.92
307.164	84.48
307.379	16.9
307.593	27.14
307.807	51.71
308.021	94.72
308.235	29.18
308.449	33.28
308.663	4.61
308.877	41.47
309.091	-5.63
309.305	51.71
309.519	-13.82
309.733	23.04
309.947	-1.54
310.161	78.33
310.374	31.23
310.588	31.23
310.802	-17.92
311.016	51.71
311.23	14.85
311.444	23.04
311.658	20.99
311.872	41.47
312.085	70.14
312.299	12.8
312.513	45.57
312.727	-22.02
312.941	-69.12
313.154	33.28
313.368	8.7
313.582	10.75
313.796	23.04
314.009	20.99
314.223	37.38
314.437	107.01
314.651	12.8
314.864	-7.68
315.078	-32.26
315.292	-15.87
315.505	4.61
315.719	117.25
315.933	43.52
316.146	-77.31
316.36	-22.02
316.573	25.09
316.787	70.14
317.001	35.33
317.214	16.9
317.428	66.05
317.641	27.14
317.855	82.43
318.068	45.57
318.282	23.04
318.495	49.66
318.709	33.28
318.922	92.67
319.136	-13.82
319.349	55.81
319.563	-3.58
319.776	41.47
319.99	0.51
320.203	111.1
320.417	59.9
320.63	20.99
320.843	12.8
321.057	35.33
321.27	88.57
321.483	16.9
321.697	72.19
321.91	45.57
322.124	33.28
322.337	-15.87
322.55	20.99
322.763	33.28
322.977	31.23
323.19	8.7
323.403	45.57
323.617	90.62
323.83	47.62
324.043	-50.69
324.256	18.94
324.469	-40.45
324.683	66.05
324.896	66.05
325.109	23.04
325.322	-65.02
325.535	82.43
325.748	45.57
325.962	2.56
326.175	57.86
326.388	12.8
326.601	-7.68
326.814	25.09
327.027	-62.98
327.24	90.62
327.453	-54.78
327.666	10.75
327.879	82.43
328.092	25.09
328.305	16.9
328.518	10.75
328.731	37.38
328.944	51.71
329.157	-24.06
329.37	-62.98
329.583	53.76
329.796	-22.02
330.009	-11.78
330.222	78.33
330.435	39.42
330.648	6.66
330.861	-5.63
331.073	-13.82
331.286	10.75
331.499	78.33
331.712	-44.54
331.925	78.33
332.138	57.86
332.35	51.71
332.563	-3.58
332.776	104.96
332.989	4.61
333.202	37.38
333.414	68.09
333.627	45.57
333.84	6.66
334.053	12.8
334.265	2.56
334.478	47.62
334.691	12.8
334.903	94.72
335.116	59.9
335.329	78.33
335.541	78.33
335.754	53.76
335.966	0.51
336.179	41.47
336.392	59.9
336.604	-52.74
336.817	80.38
337.029	82.43
337.242	68.09
337.454	49.66
337.667	41.47
337.88	43.52
338.092	90.62
338.305	90.62
338.517	-67.07
338.729	86.53
338.942	59.9
339.154	-7.68
339.367	-5.63
339.579	23.04
339.792	-3.58
340.004	76.29
340.217	29.18
340.429	82.43
340.641	-11.78
340.854	8.7
341.066	100.86
341.278	84.48
341.491	90.62
341.703	57.86
341.915	64
342.128	78.33
342.34	43.52
342.552	4.61
342.764	-38.4
342.977	16.9
343.189	-38.4
343.401	35.33
343.613	-44.54
343.826	84.48
344.038	16.9
344.25	-22.02
344.462	-5.63
344.674	80.38
344.886	35.33
345.099	8.7
345.311	74.24
345.523	92.67
345.735	23.04
345.947	78.33
346.159	100.86
346.371	0.51
346.583	64
346.795	111.1
347.007	31.23
347.219	53.76
347.431	82.43
347.643	64
347.855	-24.06
348.067	-22.02
348.279	-15.87
348.491	70.14
348.703	2.56
348.915	53.76
349.127	29.18
349.339	61.95
349.551	74.24
349.763	139.77
349.975	47.62
350.187	14.85
350.399	47.62
350.61	104.96
350.822	104.96
351.034	82.43
351.246	6.66
351.458	82.43
351.669	113.15
351.881	104.96
352.093	107.01
352.305	-26.11
352.517	74.24
352.728	53.76
352.94	45.57
353.152	92.67
353.363	29.18
353.575	53.76
353.787	-3.58
353.999	152.06
354.21	41.47
354.422	27.14
354.633	59.9
354.845	33.28
355.057	-73.21
355.268	18.94
355.48	66.05
355.692	74.24
355.903	18.94
356.115	41.47
356.326	25.09
356.538	49.66
356.749	33.28
356.961	41.47
357.172	-15.87
357.384	10.75
357.595	76.29
357.807	-28.16
358.018	18.94
358.23	18.94
358.441	16.9
358.653	29.18
358.864	37.38
359.075	-19.97
359.287	57.86
359.498	104.96
359.709	10.75
359.921	29.18
360.132	49.66
360.344	61.95
360.555	35.33
360.766	57.86
360.977	64
361.189	37.38
361.4	39.42
361.611	92.67
361.823	25.09
362.034	20.99
362.245	47.62
362.456	-5.63
362.667	35.33
362.879	66.05
363.09	45.57
363.301	53.76
363.512	35.33
363.723	2.56
363.935	12.8
364.146	41.47
364.357	-3.58
364.568	-9.73
364.779	18.94
364.99	96.77
365.201	33.28
365.412	51.71
365.623	18.94
365.834	117.25
366.045	53.76
366.256	45.57
366.467	0.51
366.678	6.66
366.889	43.52
367.1	-56.83
367.311	2.56
367.522	39.42
367.733	51.71
367.944	64
368.155	68.09
368.366	109.05
368.577	43.52
368.788	74.24
368.999	43.52
369.209	18.94
369.42	35.33
369.631	125.44
369.842	92.67
370.053	47.62
370.264	-34.3
370.474	29.18
370.685	-3.58
370.896	45.57
371.107	57.86
371.317	51.71
371.528	88.57
371.739	100.86
371.95	23.04
372.16	53.76
372.371	-5.63
372.582	23.04
372.792	37.38
373.003	78.33
373.214	104.96
373.424	-24.06
373.635	37.38
373.846	39.42
374.056	74.24
374.267	61.95
374.477	-3.58
374.688	18.94
374.898	66.05
375.109	59.9
375.319	16.9
375.53	59.9
375.74	33.28
375.951	-28.16
376.161	43.52
376.372	37.38
376.582	16.9
376.793	31.23
377.003	94.72
377.214	59.9
377.424	8.7
377.635	31.23
377.845	43.52
378.055	12.8
378.266	18.94
378.476	37.38
378.686	53.76
378.897	86.53
379.107	49.66
379.317	111.1
379.528	35.33
379.738	133.63
379.948	37.38
380.158	49.66
380.369	10.75
380.579	41.47
380.789	25.09
380.999	70.14
381.21	115.2
381.42	31.23
381.63	-32.26
381.84	84.48
382.05	82.43
382.261	39.42
382.471	45.57
382.681	-13.82
382.891	20.99
383.101	57.86
383.311	51.71
383.521	-11.78
383.731	147.97
383.941	51.71
384.151	55.81
384.361	10.75
384.571	-17.92
384.781	57.86
384.991	53.76
385.201	31.23
385.411	45.57
385.621	55.81
385.831	61.95
386.041	10.75
386.251	27.14
386.461	102.91
386.671	39.42
386.881	33.28
387.091	61.95
387.301	27.14
387.511	64
387.72	123.39
387.93	25.09
388.14	-1.54
388.35	76.29
388.56	86.53
388.769	84.48
388.979	64
389.189	-32.26
389.399	39.42
389.609	57.86
389.818	133.63
390.028	53.76
390.238	104.96
390.447	-5.63
390.657	49.66
390.867	35.33
391.076	90.62
391.286	64
391.496	49.66
391.705	47.62
391.915	123.39
392.125	51.71
392.334	78.33
392.544	57.86
392.753	47.62
392.963	66.05
393.172	78.33
393.382	76.29
393.591	111.1
393.801	47.62
394.01	98.81
394.22	90.62
394.429	4.61
394.639	92.67
394.848	78.33
395.058	98.81
395.267	74.24
395.477	72.19
395.686	107.01
395.895	68.09
396.105	72.19
396.314	100.86
396.524	57.86
396.733	111.1
396.942	107.01
397.152	121.34
397.361	152.06
397.57	61.95
397.78	66.05
397.989	43.52
398.198	59.9
398.407	20.99
398.617	88.57
398.826	33.28
399.035	90.62
399.244	90.62
399.453	152.06
399.663	160.25
399.872	57.86
400.081	33.28
400.29	88.57
400.499	41.47
400.708	86.53
400.917	68.09
401.127	80.38
401.336	86.53
401.545	111.1
401.754	94.72
401.963	76.29
402.172	123.39
402.381	123.39
402.59	57.86
402.799	84.48
403.008	121.34
403.217	125.44
403.426	92.67
403.635	57.86
403.844	203.26
404.053	135.68
404.262	115.2
404.471	170.49
404.68	68.09
404.888	182.78
405.097	129.53
405.306	64
405.515	188.93
405.724	176.64
405.933	197.12
406.142	166.4
406.35	162.3
406.559	115.2
406.768	199.16
406.977	133.63
407.185	125.44
407.394	287.23
407.603	119.29
407.812	272.89
408.02	178.69
408.229	195.07
408.438	188.93
408.646	221.69
408.855	262.65
409.064	227.84
409.272	248.32
409.481	188.93
409.69	193.02
409.898	168.45
410.107	287.23
410.315	225.79
410.524	209.4
410.733	238.08
410.941	295.42
411.15	365.05
411.358	311.8
411.567	393.72
411.775	344.57
411.984	342.52
412.192	393.72
412.401	406.01
412.609	399.87
412.818	446.97
413.026	481.78
413.234	446.97
413.443	487.93
413.651	492.02
413.86	446.97
414.068	479.74
414.276	446.97
414.485	467.45
414.693	569.85
414.901	596.47
415.11	575.99
415.318	582.14
415.526	582.14
415.734	676.34
415.943	674.29
416.151	676.34
416.359	705.01
416.567	715.25
416.776	676.34
416.984	827.89
417.192	811.51
417.4	807.41
417.608	881.14
417.817	864.75
418.025	965.11
418.233	1073.65
418.441	1055.22
418.649	993.78
418.857	1192.43
419.065	1104.37
419.273	1096.18
419.481	1204.72
419.689	1247.72
419.897	1319.4
420.105	1262.06
420.313	1321.45
420.521	1417.71
420.729	1300.97
420.937	1386.99
421.145	1599.98
421.353	1556.97
421.561	1649.13
421.769	1726.95
421.977	1819.11
422.185	1634.79
422.393	1835.49
422.601	1901.03
422.809	1919.46
423.017	1919.46
423.224	2030.05
423.432	2048.48
423.64	2154.98
423.848	2445.79
424.056	2294.24
424.263	2404.83
424.471	2507.23
424.679	2431.45
424.887	2621.91
425.094	2646.49
425.302	2666.97
425.51	2728.41
425.718	2968.02
425.925	2937.3
426.133	2990.55
426.341	3197.39
426.548	3287.5
426.756	3406.28
426.964	3424.72
427.171	3559.88
427.379	3586.51
427.586	3668.42
427.794	3742.15
428.001	4008.39
428.209	4125.12
428.417	4153.79
428.624	4536.76
428.832	4485.56
429.039	4587.96
429.247	4409.79
429.454	4843.96
429.662	5110.19
429.869	4831.67
430.076	5171.63
430.284	5192.11
430.491	5263.79
430.699	5564.84
430.906	5517.74
431.114	5687.72
431.321	5800.36
431.528	5917.09
431.736	6320.54
431.943	6568.35
432.15	6435.23
432.358	6537.63
432.565	6881.69
432.772	6756.76
432.979	7111.06
433.187	7346.58
433.394	7393.68
433.601	7723.4
433.808	7793.03
434.016	7782.79
434.223	8108.42
434.43	8698.24
434.637	8450.43
434.844	8917.37
435.052	9202.04
435.259	9271.67
435.466	9279.86
435.673	9015.67
435.88	9556.33
436.087	10213.73
436.294	10340.71
436.501	9967.98
436.708	10006.89
436.915	10506.59
437.122	11024.73
437.329	10846.55
437.537	11237.72
437.743	11391.31
437.95	11237.72
438.157	11868.49
438.364	12347.72
438.571	12587.33
438.778	12540.22
438.985	13427
439.192	13103.42
439.399	13545.78
439.606	13242.68
439.813	14203.18
440.02	14821.66
440.227	14545.19
440.433	14530.85
440.64	14776.61
440.847	14588.19
441.054	15151.38
441.261	16222.47
441.467	15864.08
441.674	16017.68
441.881	16867.58
442.088	16609.54
442.294	16425.22
442.501	16926.97
442.708	17455.35
442.914	17989.87
443.121	18964.7
443.328	18284.78
443.534	19693.78
443.741	19134.68
443.948	18874.59
444.154	20211.92
444.361	20035.79
444.568	20187.34
444.774	20095.18
444.981	20445.38
445.187	21065.92
445.394	21987.5
445.6	21577.91
445.807	23935.12
446.013	22775.97
446.22	22993.06
446.426	24004.75
446.633	24291.47
446.839	25049.22
447.046	23892.12
447.252	25385.08
447.459	25378.94
447.665	25262.21
447.871	26402.93
448.078	27449.44
448.284	26028.15
448.491	26669.16
448.697	27959.38
448.903	28307.54
449.11	28565.58
449.316	27824.22
449.522	28160.08
449.728	29173.83
449.935	29780.03
450.141	29540.41
450.347	30093.36
450.553	29149.25
450.76	29763.64
450.966	30631.98
451.172	29835.32
451.378	30838.83
451.584	30222.39
451.791	30646.32
451.997	30541.87
452.203	31393.82
452.409	31080.49
452.615	31135.78
452.821	29943.86
453.027	29734.97
453.233	31150.12
453.44	29884.47
453.646	30330.93
453.852	30552.11
454.058	31010.85
454.264	29562.94
454.47	30783.53
454.676	29718.59
454.882	30761
455.088	28172.37
455.294	28330.06
455.5	29173.83
455.705	29040.71
455.911	28053.59
456.117	27480.16
456.323	27035.75
456.529	25659.51
456.735	26632.3
456.941	25960.56
457.147	25684.09
457.352	24832.13
457.558	24277.13
457.764	24670.34
457.97	24170.64
458.176	23367.84
458.381	23638.17
458.587	22716.58
458.793	22642.85
458.999	21285.05
459.204	22864.04
459.41	22241.45
459.616	20762.82
459.821	20973.76
460.027	20459.72
460.233	20361.42
460.438	19292.38
460.644	19390.68
460.85	18460.9
461.055	18186.47
461.261	18321.64
461.466	16869.63
461.672	16273.67
461.878	17697.01
462.083	16462.08
462.289	16142.6
462.494	15802.64
462.7	15245.59
462.905	15014.17
463.111	15388.95
463.316	15327.51
463.522	15313.17
463.727	15247.64
463.932	15251.74
464.138	15118.62
464.343	15003.93
464.549	14541.09
464.754	14864.67
464.959	15210.78
465.165	14723.36
465.37	14309.67
465.575	13881.64
465.781	14399.78
465.986	14586.15
466.191	14133.54
466.397	13586.74
466.602	12994.87
466.807	13719.85
467.012	13678.9
467.218	13414.71
467.423	13609.26
467.628	13539.63
467.833	14029.1
468.038	13500.72
468.244	13013.31
468.449	13637.94
