Data from USB4F104151__150__11-08-20-431.txt Node

Date: Wed Mar 12 11:08:20 EDT 2025
User: louis
Spectrometer: USB4F10415
Trigger mode: 4
Integration Time (sec): 2.000000E-2
Scans to average: 1
Electric dark correction enabled: true
Nonlinearity correction enabled: false
Boxcar width: 0
XAxis mode: Wavelengths
Number of Pixels in Spectrum: 3648
>>>>>Begin Spectral Data<<<<<
178.204	-132.61
178.424	-132.61
178.644	-132.61
178.864	-99.84
179.084	-87.55
179.304	-58.88
179.524	-11.78
179.744	23.04
179.964	61.95
180.184	-17.92
180.404	-15.87
180.624	6.66
180.844	12.8
181.064	-50.69
181.283	-34.3
181.503	61.95
181.723	23.04
181.943	66.05
182.163	53.76
182.383	16.9
182.602	68.09
182.822	41.47
183.042	35.33
183.262	10.75
183.482	27.14
183.701	84.48
183.921	0.51
184.141	14.85
184.361	29.18
184.58	74.24
184.8	-30.21
185.02	-9.73
185.239	-3.58
185.459	0.51
185.679	29.18
185.898	-32.26
186.118	31.23
186.338	59.9
186.557	51.71
186.777	-32.26
186.997	0.51
187.216	-5.63
187.436	61.95
187.655	-1.54
187.875	31.23
188.095	-13.82
188.314	57.86
188.534	61.95
188.753	47.62
188.973	68.09
189.192	70.14
189.412	41.47
189.631	-15.87
189.851	-15.87
190.07	-24.06
190.29	-5.63
190.509	74.24
190.729	53.76
190.948	14.85
191.168	70.14
191.387	82.43
191.607	2.56
191.826	49.66
192.045	-36.35
192.265	57.86
192.484	61.95
192.704	-22.02
192.923	-1.54
193.142	86.53
193.362	20.99
193.581	18.94
193.8	45.57
194.02	0.51
194.239	-54.78
194.458	43.52
194.678	55.81
194.897	27.14
195.116	25.09
195.335	64
195.555	57.86
195.774	16.9
195.993	72.19
196.212	8.7
196.432	-22.02
196.651	-54.78
196.87	59.9
197.089	-24.06
197.308	37.38
197.528	37.38
197.747	37.38
197.966	-9.73
198.185	70.14
198.404	10.75
198.623	49.66
198.842	-28.16
199.062	14.85
199.281	51.71
199.5	35.33
199.719	-26.11
199.938	115.2
200.157	74.24
200.376	-1.54
200.595	61.95
200.814	-7.68
201.033	59.9
201.252	-42.5
201.471	-3.58
201.69	-28.16
201.909	29.18
202.128	-7.68
202.347	-26.11
202.566	-28.16
202.785	-24.06
203.004	37.38
203.223	68.09
203.442	-3.58
203.661	-9.73
203.879	-13.82
204.098	57.86
204.317	6.66
204.536	102.91
204.755	43.52
204.974	14.85
205.193	51.71
205.411	61.95
205.63	-3.58
205.849	76.29
206.068	14.85
206.287	12.8
206.505	29.18
206.724	6.66
206.943	0.51
207.162	2.56
207.381	-32.26
207.599	8.7
207.818	35.33
208.037	35.33
208.255	0.51
208.474	-11.78
208.693	49.66
208.911	82.43
209.13	-26.11
209.349	41.47
209.567	-15.87
209.786	25.09
210.005	49.66
210.223	37.38
210.442	12.8
210.661	23.04
210.879	-13.82
211.098	100.86
211.316	-52.74
211.535	33.28
211.753	66.05
211.972	55.81
212.191	-44.54
212.409	90.62
212.628	8.7
212.846	12.8
213.065	33.28
213.283	8.7
213.502	51.71
213.72	70.14
213.938	64
214.157	4.61
214.375	57.86
214.594	98.81
214.812	33.28
215.031	33.28
215.249	-38.4
215.467	55.81
215.686	20.99
215.904	-9.73
216.122	8.7
216.341	53.76
216.559	-62.98
216.778	80.38
216.996	43.52
217.214	18.94
217.432	-44.54
217.651	16.9
217.869	-65.02
218.087	12.8
218.306	53.76
218.524	-28.16
218.742	-9.73
218.96	80.38
219.179	4.61
219.397	61.95
219.615	20.99
219.833	-9.73
220.051	-15.87
220.27	70.14
220.488	14.85
220.706	45.57
220.924	-9.73
221.142	25.09
221.36	-54.78
221.578	27.14
221.796	6.66
222.015	12.8
222.233	25.09
222.451	123.39
222.669	47.62
222.887	57.86
223.105	-13.82
223.323	-46.59
223.541	-87.55
223.759	27.14
223.977	31.23
224.195	51.71
224.413	76.29
224.631	68.09
224.849	-15.87
225.067	41.47
225.285	18.94
225.503	-1.54
225.721	-60.93
225.939	12.8
226.157	14.85
226.375	143.87
226.592	-15.87
226.81	4.61
227.028	37.38
227.246	-56.83
227.464	61.95
227.682	-67.07
227.9	31.23
228.117	16.9
228.335	43.52
228.553	12.8
228.771	-17.92
228.989	16.9
229.206	-22.02
229.424	20.99
229.642	-7.68
229.86	-52.74
230.077	25.09
230.295	84.48
230.513	53.76
230.731	4.61
230.948	-11.78
231.166	12.8
231.384	-40.45
231.601	-34.3
231.819	-26.11
232.037	43.52
232.254	35.33
232.472	-7.68
232.689	18.94
232.907	-13.82
233.125	49.66
233.342	66.05
233.56	-58.88
233.777	0.51
233.995	-44.54
234.213	20.99
234.43	57.86
234.648	16.9
234.865	43.52
235.083	4.61
235.3	25.09
235.518	10.75
235.735	117.25
235.953	82.43
236.17	0.51
236.388	43.52
236.605	76.29
236.822	78.33
237.04	84.48
237.257	-3.58
237.475	-9.73
237.692	10.75
237.909	35.33
238.127	14.85
238.344	141.82
238.562	78.33
238.779	-26.11
238.996	72.19
239.214	-60.93
239.431	66.05
239.648	-15.87
239.865	39.42
240.083	57.86
240.3	31.23
240.517	-3.58
240.735	51.71
240.952	59.9
241.169	59.9
241.386	86.53
241.603	20.99
241.821	-44.54
242.038	94.72
242.255	4.61
242.472	-13.82
242.689	90.62
242.907	82.43
243.124	4.61
243.341	20.99
243.558	8.7
243.775	6.66
243.992	29.18
244.209	43.52
244.426	-22.02
244.643	41.47
244.86	-30.21
245.078	-9.73
245.295	61.95
245.512	47.62
245.729	-34.3
245.946	88.57
246.163	66.05
246.38	39.42
246.597	-13.82
246.814	-30.21
247.031	-9.73
247.248	35.33
247.464	29.18
247.681	12.8
247.898	31.23
248.115	57.86
248.332	10.75
248.549	37.38
248.766	104.96
248.983	98.81
249.2	27.14
249.417	55.81
249.633	25.09
249.85	27.14
250.067	-15.87
250.284	-32.26
250.501	59.9
250.717	33.28
250.934	-11.78
251.151	64
251.368	119.29
251.585	4.61
251.801	55.81
252.018	66.05
252.235	53.76
252.451	25.09
252.668	20.99
252.885	55.81
253.102	25.09
253.318	10.75
253.535	23.04
253.752	47.62
253.968	-28.16
254.185	53.76
254.401	37.38
254.618	-54.78
254.835	20.99
255.051	33.28
255.268	39.42
255.484	0.51
255.701	18.94
255.917	0.51
256.134	16.9
256.351	55.81
256.567	78.33
256.784	-69.12
257	-34.3
257.217	10.75
257.433	23.04
257.65	45.57
257.866	8.7
258.082	23.04
258.299	49.66
258.515	10.75
258.732	4.61
258.948	23.04
259.165	43.52
259.381	51.71
259.597	74.24
259.814	37.38
260.03	4.61
260.246	-17.92
260.463	33.28
260.679	25.09
260.895	27.14
261.112	27.14
261.328	61.95
261.544	18.94
261.761	78.33
261.977	39.42
262.193	-1.54
262.409	164.35
262.626	84.48
262.842	4.61
263.058	-19.97
263.274	-5.63
263.49	66.05
263.707	88.57
263.923	14.85
264.139	-48.64
264.355	37.38
264.571	137.73
264.787	18.94
265.004	55.81
265.22	-3.58
265.436	-1.54
265.652	35.33
265.868	27.14
266.084	59.9
266.3	37.38
266.516	-15.87
266.732	-22.02
266.948	-11.78
267.164	0.51
267.38	78.33
267.596	43.52
267.812	55.81
268.028	57.86
268.244	37.38
268.46	-9.73
268.676	37.38
268.892	-26.11
269.108	-15.87
269.324	66.05
269.54	-13.82
269.756	14.85
269.972	16.9
270.188	61.95
270.403	39.42
270.619	23.04
270.835	37.38
271.051	4.61
271.267	-7.68
271.483	12.8
271.698	92.67
271.914	29.18
272.13	8.7
272.346	-3.58
272.562	8.7
272.777	39.42
272.993	29.18
273.209	-1.54
273.425	43.52
273.64	16.9
273.856	39.42
274.072	0.51
274.287	43.52
274.503	2.56
274.719	59.9
274.934	57.86
275.15	16.9
275.366	16.9
275.581	-5.63
275.797	8.7
276.012	109.05
276.228	-26.11
276.444	-1.54
276.659	51.71
276.875	12.8
277.09	27.14
277.306	27.14
277.521	84.48
277.737	74.24
277.952	29.18
278.168	39.42
278.383	4.61
278.599	-11.78
278.814	18.94
279.03	76.29
279.245	119.29
279.461	-7.68
279.676	59.9
279.892	-15.87
280.107	64
280.322	86.53
280.538	39.42
280.753	0.51
280.969	4.61
281.184	4.61
281.399	16.9
281.615	20.99
281.83	35.33
282.045	-22.02
282.26	41.47
282.476	53.76
282.691	20.99
282.906	10.75
283.122	16.9
283.337	12.8
283.552	70.14
283.767	45.57
283.983	31.23
284.198	39.42
284.413	43.52
284.628	117.25
284.843	-1.54
285.058	74.24
285.274	53.76
285.489	45.57
285.704	59.9
285.919	8.7
286.134	109.05
286.349	20.99
286.564	76.29
286.779	109.05
286.995	4.61
287.21	-30.21
287.425	33.28
287.64	16.9
287.855	72.19
288.07	33.28
288.285	78.33
288.5	16.9
288.715	43.52
288.93	-11.78
289.145	0.51
289.36	25.09
289.575	23.04
289.79	59.9
290.004	57.86
290.219	-5.63
290.434	-22.02
290.649	8.7
290.864	29.18
291.079	16.9
291.294	20.99
291.509	27.14
291.724	49.66
291.938	86.53
292.153	2.56
292.368	-17.92
292.583	49.66
292.798	64
293.012	-24.06
293.227	8.7
293.442	29.18
293.657	12.8
293.871	92.67
294.086	-19.97
294.301	64
294.516	47.62
294.73	10.75
294.945	2.56
295.16	0.51
295.374	20.99
295.589	59.9
295.804	23.04
296.018	43.52
296.233	39.42
296.447	-15.87
296.662	14.85
296.877	104.96
297.091	20.99
297.306	61.95
297.52	16.9
297.735	55.81
297.949	-5.63
298.164	127.49
298.378	82.43
298.593	10.75
298.807	27.14
299.022	-11.78
299.236	61.95
299.451	33.28
299.665	-15.87
299.88	86.53
300.094	25.09
300.309	-7.68
300.523	4.61
300.737	29.18
300.952	-38.4
301.166	-5.63
301.381	4.61
301.595	47.62
301.809	10.75
302.024	-19.97
302.238	47.62
302.452	29.18
302.667	20.99
302.881	49.66
303.095	-1.54
303.309	-1.54
303.524	-17.92
303.738	16.9
303.952	16.9
304.166	33.28
304.381	-30.21
304.595	33.28
304.809	16.9
305.023	0.51
305.237	16.9
305.452	10.75
305.666	4.61
305.88	14.85
306.094	47.62
306.308	72.19
306.522	45.57
306.736	0.51
306.95	72.19
307.164	35.33
307.379	57.86
307.593	84.48
307.807	139.77
308.021	41.47
308.235	33.28
308.449	0.51
308.663	6.66
308.877	57.86
309.091	74.24
309.305	45.57
309.519	-34.3
309.733	66.05
309.947	-44.54
310.161	12.8
310.374	23.04
310.588	86.53
310.802	-5.63
311.016	39.42
311.23	47.62
311.444	25.09
311.658	33.28
311.872	-1.54
312.085	55.81
312.299	47.62
312.513	29.18
312.727	82.43
312.941	-3.58
313.154	59.9
313.368	8.7
313.582	4.61
313.796	45.57
314.009	31.23
314.223	59.9
314.437	74.24
314.651	-15.87
314.864	35.33
315.078	-11.78
315.292	35.33
315.505	45.57
315.719	-17.92
315.933	0.51
316.146	29.18
316.36	20.99
316.573	49.66
316.787	70.14
317.001	96.77
317.214	-11.78
317.428	72.19
317.641	4.61
317.855	29.18
318.068	53.76
318.282	43.52
318.495	90.62
318.709	27.14
318.922	6.66
319.136	41.47
319.349	78.33
319.563	-24.06
319.776	41.47
319.99	51.71
320.203	90.62
320.417	31.23
320.63	-11.78
320.843	121.34
321.057	37.38
321.27	49.66
321.483	80.38
321.697	-7.68
321.91	64
322.124	4.61
322.337	51.71
322.55	64
322.763	29.18
322.977	113.15
323.19	57.86
323.403	31.23
323.617	66.05
323.83	98.81
324.043	57.86
324.256	64
324.469	6.66
324.683	88.57
324.896	6.66
325.109	29.18
325.322	55.81
325.535	53.76
325.748	80.38
325.962	-11.78
326.175	82.43
326.388	37.38
326.601	84.48
326.814	57.86
327.027	18.94
327.24	92.67
327.453	-15.87
327.666	115.2
327.879	27.14
328.092	45.57
328.305	-44.54
328.518	20.99
328.731	4.61
328.944	33.28
329.157	10.75
329.37	23.04
329.583	76.29
329.796	-13.82
330.009	-15.87
330.222	90.62
330.435	31.23
330.648	10.75
330.861	25.09
331.073	16.9
331.286	31.23
331.499	-7.68
331.712	-58.88
331.925	49.66
332.138	29.18
332.35	109.05
332.563	-15.87
332.776	33.28
332.989	107.01
333.202	-11.78
333.414	45.57
333.627	2.56
333.84	33.28
334.053	4.61
334.265	6.66
334.478	10.75
334.691	14.85
334.903	-30.21
335.116	74.24
335.329	39.42
335.541	-1.54
335.754	57.86
335.966	78.33
336.179	-28.16
336.392	20.99
336.604	35.33
336.817	12.8
337.029	68.09
337.242	31.23
337.454	33.28
337.667	-1.54
337.88	57.86
338.092	98.81
338.305	59.9
338.517	4.61
338.729	6.66
338.942	-24.06
339.154	4.61
339.367	92.67
339.579	59.9
339.792	4.61
340.004	43.52
340.217	8.7
340.429	55.81
340.641	23.04
340.854	2.56
341.066	86.53
341.278	57.86
341.491	37.38
341.703	72.19
341.915	41.47
342.128	74.24
342.34	33.28
342.552	72.19
342.764	51.71
342.977	6.66
343.189	6.66
343.401	59.9
343.613	37.38
343.826	31.23
344.038	10.75
344.25	-42.5
344.462	78.33
344.674	27.14
344.886	125.44
345.099	98.81
345.311	74.24
345.523	18.94
345.735	-7.68
345.947	102.91
346.159	31.23
346.371	12.8
346.583	39.42
346.795	102.91
347.007	23.04
347.219	88.57
347.431	2.56
347.643	68.09
347.855	-26.11
348.067	-17.92
348.279	-13.82
348.491	113.15
348.703	43.52
348.915	80.38
349.127	16.9
349.339	107.01
349.551	-13.82
349.763	57.86
349.975	-5.63
350.187	41.47
350.399	111.1
350.61	59.9
350.822	66.05
351.034	98.81
351.246	16.9
351.458	53.76
351.669	45.57
351.881	39.42
352.093	16.9
352.305	98.81
352.517	76.29
352.728	10.75
352.94	35.33
353.152	88.57
353.363	-1.54
353.575	68.09
353.787	12.8
353.999	-5.63
354.21	84.48
354.422	14.85
354.633	33.28
354.845	57.86
355.057	37.38
355.268	33.28
355.48	57.86
355.692	43.52
355.903	8.7
356.115	61.95
356.326	66.05
356.538	37.38
356.749	113.15
356.961	98.81
357.172	23.04
357.384	121.34
357.595	86.53
357.807	41.47
358.018	8.7
358.23	-28.16
358.441	18.94
358.653	0.51
358.864	-15.87
359.075	-67.07
359.287	51.71
359.498	92.67
359.709	43.52
359.921	37.38
360.132	31.23
360.344	82.43
360.555	43.52
360.766	47.62
360.977	37.38
361.189	59.9
361.4	29.18
361.611	47.62
361.823	0.51
362.034	8.7
362.245	-11.78
362.456	68.09
362.667	66.05
362.879	16.9
363.09	47.62
363.301	31.23
363.512	107.01
363.723	74.24
363.935	12.8
364.146	53.76
364.357	20.99
364.568	33.28
364.779	-7.68
364.99	49.66
365.201	-13.82
365.412	70.14
365.623	27.14
365.834	33.28
366.045	70.14
366.256	61.95
366.467	33.28
366.678	61.95
366.889	23.04
367.1	39.42
367.311	72.19
367.522	80.38
367.733	76.29
367.944	43.52
368.155	45.57
368.366	39.42
368.577	20.99
368.788	100.86
368.999	20.99
369.209	27.14
369.42	35.33
369.631	78.33
369.842	20.99
370.053	4.61
370.264	37.38
370.474	-3.58
370.685	72.19
370.896	20.99
371.107	86.53
371.317	125.44
371.528	53.76
371.739	104.96
371.95	12.8
372.16	72.19
372.371	12.8
372.582	51.71
372.792	23.04
373.003	47.62
373.214	16.9
373.424	39.42
373.635	29.18
373.846	104.96
374.056	125.44
374.267	45.57
374.477	39.42
374.688	78.33
374.898	29.18
375.109	-42.5
375.319	49.66
375.53	115.2
375.74	51.71
375.951	43.52
376.161	51.71
376.372	123.39
376.582	94.72
376.793	23.04
377.003	4.61
377.214	49.66
377.424	35.33
377.635	0.51
377.845	20.99
378.055	107.01
378.266	-38.4
378.476	43.52
378.686	-17.92
378.897	78.33
379.107	102.91
379.317	55.81
379.528	39.42
379.738	16.9
379.948	51.71
380.158	18.94
380.369	61.95
380.579	76.29
380.789	66.05
380.999	53.76
381.21	25.09
381.42	45.57
381.63	8.7
381.84	74.24
382.05	61.95
382.261	-40.45
382.471	8.7
382.681	41.47
382.891	68.09
383.101	51.71
383.311	61.95
383.521	41.47
383.731	66.05
383.941	76.29
384.151	66.05
384.361	61.95
384.571	12.8
384.781	61.95
384.991	20.99
385.201	70.14
385.411	2.56
385.621	61.95
385.831	59.9
386.041	150.01
386.251	86.53
386.461	111.1
386.671	45.57
386.881	80.38
387.091	-19.97
387.301	33.28
387.511	25.09
387.72	68.09
387.93	102.91
388.14	6.66
388.35	-1.54
388.56	27.14
388.769	57.86
388.979	29.18
389.189	107.01
389.399	45.57
389.609	29.18
389.818	53.76
390.028	4.61
390.238	84.48
390.447	61.95
390.657	82.43
390.867	64
391.076	64
391.286	76.29
391.496	82.43
391.705	49.66
391.915	131.58
392.125	115.2
392.334	55.81
392.544	115.2
392.753	29.18
392.963	70.14
393.172	70.14
393.382	61.95
393.591	100.86
393.801	-3.58
394.01	92.67
394.22	80.38
394.429	115.2
394.639	90.62
394.848	137.73
395.058	117.25
395.267	70.14
395.477	117.25
395.686	80.38
395.895	94.72
396.105	66.05
396.314	90.62
396.524	125.44
396.733	39.42
396.942	127.49
397.152	86.53
397.361	133.63
397.57	123.39
397.78	41.47
397.989	37.38
398.198	53.76
398.407	117.25
398.617	117.25
398.826	61.95
399.035	78.33
399.244	57.86
399.453	156.16
399.663	115.2
399.872	125.44
400.081	119.29
400.29	166.4
400.499	76.29
400.708	64
400.917	53.76
401.127	51.71
401.336	111.1
401.545	188.93
401.754	96.77
401.963	117.25
402.172	137.73
402.381	107.01
402.59	94.72
402.799	61.95
403.008	117.25
403.217	184.83
403.426	68.09
403.635	104.96
403.844	117.25
404.053	129.53
404.262	70.14
404.471	213.5
404.68	137.73
404.888	123.39
405.097	147.97
405.306	113.15
405.515	123.39
405.724	209.4
405.933	190.97
406.142	184.83
406.35	199.16
406.559	115.2
406.768	168.45
406.977	166.4
407.185	209.4
407.394	168.45
407.603	186.88
407.812	195.07
408.02	244.22
408.229	182.78
408.438	211.45
408.646	207.36
408.855	209.4
409.064	221.69
409.272	207.36
409.481	270.84
409.69	283.13
409.898	276.99
410.107	307.71
410.315	260.6
410.524	340.47
410.733	289.28
410.941	352.76
411.15	348.67
411.358	340.47
411.567	469.5
411.775	367.1
411.984	412.15
412.192	403.96
412.401	461.3
412.609	479.74
412.818	506.36
413.026	471.54
413.234	492.02
413.443	481.78
413.651	449.02
413.86	526.84
414.068	541.18
414.276	545.27
414.485	547.32
414.693	672.25
414.901	668.15
415.11	672.25
415.318	631.29
415.526	711.16
415.734	795.12
415.943	737.78
416.151	772.6
416.359	797.17
416.567	750.07
416.776	748.02
416.984	905.71
417.192	881.14
417.4	930.29
417.608	922.1
417.817	956.91
418.025	946.67
418.233	1110.51
418.441	1020.4
418.649	1026.54
418.857	1223.15
419.065	1245.68
419.273	1145.33
419.481	1251.82
419.689	1210.86
419.897	1378.79
420.105	1282.54
420.313	1501.67
420.521	1288.68
420.729	1569.26
420.937	1565.16
421.145	1559.02
421.353	1712.61
421.561	1800.68
421.769	1911.27
421.977	1806.82
422.185	1841.64
422.393	2025.95
422.601	2136.54
422.809	2128.35
423.017	2150.88
423.224	2181.6
423.432	2298.33
423.64	2288.09
423.848	2490.84
424.056	2413.02
424.263	2734.55
424.471	2517.47
424.679	2603.48
424.887	2822.61
425.094	2795.99
425.302	2955.73
425.51	3021.27
425.718	2968.02
425.925	3066.32
426.133	3391.95
426.341	3441.1
426.548	3574.22
426.756	3676.62
426.964	3686.86
427.171	3850.69
427.379	3996.1
427.586	4002.24
427.794	4147.65
428.001	4262.33
428.209	4553.15
428.417	4471.23
428.624	4764.09
428.832	4721.08
429.039	4809.14
429.247	4749.75
429.454	5337.52
429.662	5441.96
429.869	5046.71
430.076	5499.31
430.284	5534.12
430.491	5599.66
430.699	5986.72
430.906	5966.24
431.114	5966.24
431.321	6107.55
431.528	6242.72
431.736	6721.95
431.943	7090.58
432.15	6920.6
432.358	6986.13
432.565	7408.01
432.772	7377.3
432.979	7764.36
433.187	7739.79
433.394	7813.51
433.601	8331.65
433.808	8345.98
434.016	8257.92
434.223	8819.07
434.43	9218.42
434.637	9083.25
434.844	9666.92
435.052	9658.73
435.259	9884.01
435.466	10015.08
435.673	9826.67
435.88	10303.84
436.087	11004.25
436.294	10854.75
436.501	10776.92
436.708	10783.07
436.915	11446.61
437.122	11817.29
437.329	11745.61
437.537	12210.5
437.743	12392.77
437.95	12259.65
438.157	12820.8
438.364	13148.47
438.571	13113.66
438.778	13470
438.985	14524.71
439.192	13990.19
439.399	14420.26
439.606	14235.94
439.813	14844.19
440.02	15622.42
440.227	15751.44
440.433	15321.37
440.64	15804.69
440.847	15638.8
441.054	15952.14
441.261	17242.36
441.467	17027.32
441.674	17230.07
441.881	17987.82
442.088	18071.79
442.294	17791.22
442.501	18127.08
442.708	18594.02
442.914	19284.19
443.121	20078.8
443.328	19372.25
443.534	21178.56
443.741	20256.97
443.948	20013.26
444.154	21739.7
444.361	21315.77
444.568	21602.49
444.774	21233.85
444.981	22048.94
445.187	22296.75
445.394	23400.6
445.6	23013.54
445.807	25254.01
446.013	24270.99
446.22	24752.26
446.426	25548.92
446.633	25800.82
446.839	26589.29
447.046	25610.36
447.252	26908.77
447.459	26978.4
447.665	26908.77
447.871	28301.39
448.078	29122.63
448.284	27459.68
448.491	28717.13
448.697	29499.45
448.903	30318.64
449.11	29990.97
449.316	29417.54
449.522	30275.63
449.728	30994.47
449.935	31080.49
450.141	31090.73
450.347	31860.76
450.553	30603.31
450.76	31066.15
450.966	31971.35
451.172	31950.87
451.378	32544.78
451.584	31823.9
451.791	32743.44
451.997	32565.26
452.203	33171.46
452.409	33193.99
452.615	33257.48
452.821	31508.51
453.027	31316
453.233	32774.16
453.44	31545.37
453.646	32401.43
453.852	32116.76
454.058	32690.19
454.264	31445.02
454.47	32391.19
454.676	31211.56
454.882	32223.25
455.088	29546.56
455.294	29984.82
455.5	30277.68
455.705	30705.71
455.911	29343.81
456.117	28809.29
456.323	28518.48
456.529	26822.76
456.735	28112.98
456.941	27418.72
457.147	26617.96
457.352	26390.64
457.558	25919.6
457.764	25966.71
457.97	25376.89
458.176	25045.12
458.381	24690.82
458.587	23632.02
458.793	23511.19
458.999	22302.89
459.204	23971.99
459.41	23316.64
459.616	21561.53
459.821	21696.69
460.027	21518.52
460.233	21313.72
460.438	20170.96
460.644	20306.12
460.85	19454.17
461.055	18983.13
461.261	19091.68
461.466	17654
461.672	17309.94
461.878	18137.32
462.083	17234.17
462.289	16859.39
462.494	16642.31
462.7	16011.53
462.905	15196.44
463.111	16171.27
463.316	16486.66
463.522	15716.62
463.727	15984.91
463.932	15591.7
464.138	15704.34
464.343	15821.07
464.549	15309.08
464.754	15675.66
464.959	15462.68
465.165	15413.52
465.37	14930.2
465.575	14401.83
465.781	15061.27
465.986	15112.47
466.191	14596.39
466.397	14321.96
466.602	13646.13
466.807	14133.54
467.012	14096.68
467.218	14061.87
467.423	13820.21
467.628	13867.31
467.833	14434.6
468.038	14242.09
468.244	13551.92
468.449	14016.81
468.654	13877.55
