Data from USB4F104151__43__11-05-29-058.txt Node

Date: Wed Mar 12 11:05:29 EDT 2025
User: louis
Spectrometer: USB4F10415
Trigger mode: 4
Integration Time (sec): 2.000000E-2
Scans to average: 1
Electric dark correction enabled: true
Nonlinearity correction enabled: false
Boxcar width: 0
XAxis mode: Wavelengths
Number of Pixels in Spectrum: 3648
>>>>>Begin Spectral Data<<<<<
178.204	-16.38
178.424	-16.38
178.644	-16.38
178.864	-49.15
179.084	-104.45
179.304	26.62
179.524	-45.06
179.744	-55.3
179.964	69.63
180.184	-24.58
180.404	-12.29
180.624	-24.58
180.844	30.72
181.064	-2.05
181.283	20.48
181.503	18.43
181.723	-2.05
181.943	-88.06
182.163	34.82
182.383	43.01
182.602	-45.06
182.822	24.58
183.042	38.91
183.262	-26.62
183.482	24.58
183.701	43.01
183.921	16.38
184.141	-16.38
184.361	24.58
184.58	18.43
184.8	-45.06
185.02	6.14
185.239	16.38
185.459	77.82
185.679	12.29
185.898	34.82
186.118	83.97
186.338	2.05
186.557	14.34
186.777	-75.77
186.997	34.82
187.216	-26.62
187.436	43.01
187.655	-32.77
187.875	49.15
188.095	43.01
188.314	32.77
188.534	40.96
188.753	40.96
188.973	20.48
189.192	112.64
189.412	53.25
189.631	14.34
189.851	59.39
190.07	38.91
190.29	14.34
190.509	38.91
190.729	-2.05
190.948	14.34
191.168	86.01
191.387	22.53
191.607	-24.58
191.826	8.19
192.045	30.72
192.265	6.14
192.484	16.38
192.704	-4.1
192.923	-53.25
193.142	57.34
193.362	8.19
193.581	77.82
193.8	-26.62
194.02	-71.68
194.239	63.49
194.458	32.77
194.678	-36.86
194.897	-10.24
195.116	40.96
195.335	8.19
195.555	49.15
195.774	0
195.993	6.14
196.212	-4.1
196.432	26.62
196.651	-40.96
196.87	-40.96
197.089	-4.1
197.308	36.86
197.528	36.86
197.747	32.77
197.966	-16.38
198.185	104.45
198.404	63.49
198.623	-28.67
198.842	30.72
199.062	-24.58
199.281	55.3
199.5	-30.72
199.719	-4.1
199.938	-12.29
200.157	34.82
200.376	38.91
200.595	8.19
200.814	16.38
201.033	102.4
201.252	75.77
201.471	-57.34
201.69	32.77
201.909	53.25
202.128	6.14
202.347	22.53
202.566	49.15
202.785	24.58
203.004	38.91
203.223	63.49
203.442	51.2
203.661	10.24
203.879	-8.19
204.098	12.29
204.317	-55.3
204.536	61.44
204.755	-67.58
204.974	4.1
205.193	61.44
205.411	86.01
205.63	49.15
205.849	81.92
206.068	32.77
206.287	16.38
206.505	26.62
206.724	61.44
206.943	-47.1
207.162	92.16
207.381	-4.1
207.599	53.25
207.818	-16.38
208.037	-12.29
208.255	-43.01
208.474	38.91
208.693	63.49
208.911	-10.24
209.13	2.05
209.349	-47.1
209.567	2.05
209.786	61.44
210.005	77.82
210.223	20.48
210.442	-14.34
210.661	75.77
210.879	34.82
211.098	26.62
211.316	16.38
211.535	16.38
211.753	94.21
211.972	16.38
212.191	-43.01
212.409	57.34
212.628	12.29
212.846	0
213.065	26.62
213.283	36.86
213.502	30.72
213.72	49.15
213.938	0
214.157	77.82
214.375	-20.48
214.594	-47.1
214.812	69.63
215.031	6.14
215.249	34.82
215.467	34.82
215.686	4.1
215.904	69.63
216.122	12.29
216.341	77.82
216.559	-4.1
216.778	38.91
216.996	18.43
217.214	-26.62
217.432	73.73
217.651	57.34
217.869	36.86
218.087	-53.25
218.306	8.19
218.524	8.19
218.742	-22.53
218.96	12.29
219.179	14.34
219.397	14.34
219.615	43.01
219.833	90.11
220.051	-12.29
220.27	12.29
220.488	49.15
220.706	16.38
220.924	38.91
221.142	32.77
221.36	47.1
221.578	-43.01
221.796	90.11
222.015	16.38
222.233	-30.72
222.451	53.25
222.669	-2.05
222.887	20.48
223.105	53.25
223.323	57.34
223.541	-24.58
223.759	-12.29
223.977	10.24
224.195	77.82
224.413	22.53
224.631	-2.05
224.849	-6.14
225.067	69.63
225.285	6.14
225.503	20.48
225.721	40.96
225.939	57.34
226.157	73.73
226.375	32.77
226.592	-10.24
226.81	-36.86
227.028	47.1
227.246	51.2
227.464	32.77
227.682	57.34
227.9	-69.63
228.117	86.01
228.335	-4.1
228.553	-12.29
228.771	53.25
228.989	-2.05
229.206	24.58
229.424	26.62
229.642	67.58
229.86	116.73
230.077	92.16
230.295	51.2
230.513	43.01
230.731	45.06
230.948	71.68
231.166	94.21
231.384	28.67
231.601	-34.82
231.819	63.49
232.037	-40.96
232.254	-49.15
232.472	4.1
232.689	-43.01
232.907	28.67
233.125	12.29
233.342	108.54
233.56	0
233.777	20.48
233.995	43.01
234.213	57.34
234.43	-28.67
234.648	47.1
234.865	-14.34
235.083	-32.77
235.3	-16.38
235.518	51.2
235.735	90.11
235.953	40.96
236.17	73.73
236.388	34.82
236.605	12.29
236.822	124.93
237.04	47.1
237.257	0
237.475	32.77
237.692	24.58
237.909	2.05
238.127	20.48
238.344	-40.96
238.562	18.43
238.779	14.34
238.996	-18.43
239.214	30.72
239.431	36.86
239.648	18.43
239.865	-34.82
240.083	81.92
240.3	36.86
240.517	14.34
240.735	59.39
240.952	24.58
241.169	61.44
241.386	40.96
241.603	32.77
241.821	-26.62
242.038	51.2
242.255	-38.91
242.472	-12.29
242.689	53.25
242.907	53.25
243.124	12.29
243.341	-57.34
243.558	38.91
243.775	0
243.992	38.91
244.209	43.01
244.426	43.01
244.643	-36.86
244.86	8.19
245.078	-8.19
245.295	81.92
245.512	55.3
245.729	4.1
245.946	18.43
246.163	43.01
246.38	8.19
246.597	-22.53
246.814	16.38
247.031	36.86
247.248	2.05
247.464	-18.43
247.681	-30.72
247.898	36.86
248.115	77.82
248.332	38.91
248.549	55.3
248.766	77.82
248.983	94.21
249.2	-12.29
249.417	88.06
249.633	-24.58
249.85	14.34
250.067	-24.58
250.284	81.92
250.501	49.15
250.717	18.43
250.934	-61.44
251.151	-4.1
251.368	14.34
251.585	28.67
251.801	-49.15
252.018	16.38
252.235	0
252.451	-14.34
252.668	28.67
252.885	94.21
253.102	65.54
253.318	79.87
253.535	4.1
253.752	40.96
253.968	-40.96
254.185	12.29
254.401	6.14
254.618	26.62
254.835	36.86
255.051	67.58
255.268	61.44
255.484	63.49
255.701	45.06
255.917	49.15
256.134	-24.58
256.351	96.25
256.567	4.1
256.784	6.14
257	-18.43
257.217	88.06
257.433	-4.1
257.65	22.53
257.866	0
258.082	10.24
258.299	40.96
258.515	18.43
258.732	67.58
258.948	-26.62
259.165	34.82
259.381	94.21
259.597	20.48
259.814	-4.1
260.03	-14.34
260.246	-6.14
260.463	57.34
260.679	40.96
260.895	28.67
261.112	28.67
261.328	-4.1
261.544	-18.43
261.761	-26.62
261.977	4.1
262.193	-8.19
262.409	45.06
262.626	65.54
262.842	34.82
263.058	-6.14
263.274	32.77
263.49	-28.67
263.707	98.3
263.923	53.25
264.139	79.87
264.355	24.58
264.571	77.82
264.787	6.14
265.004	94.21
265.22	12.29
265.436	-12.29
265.652	-18.43
265.868	10.24
266.084	40.96
266.3	-12.29
266.516	40.96
266.732	16.38
266.948	90.11
267.164	83.97
267.38	71.68
267.596	86.01
267.812	79.87
268.028	0
268.244	-22.53
268.46	57.34
268.676	32.77
268.892	22.53
269.108	30.72
269.324	-2.05
269.54	28.67
269.756	49.15
269.972	47.1
270.188	14.34
270.403	51.2
270.619	24.58
270.835	53.25
271.051	118.78
271.267	24.58
271.483	86.01
271.698	12.29
271.914	28.67
272.13	34.82
272.346	-4.1
272.562	65.54
272.777	36.86
272.993	10.24
273.209	28.67
273.425	45.06
273.64	-49.15
273.856	49.15
274.072	77.82
274.287	79.87
274.503	-16.38
274.719	55.3
274.934	55.3
275.15	-32.77
275.366	108.54
275.581	-8.19
275.797	69.63
276.012	0
276.228	10.24
276.444	8.19
276.659	81.92
276.875	-10.24
277.09	24.58
277.306	88.06
277.521	116.73
277.737	6.14
277.952	59.39
278.168	57.34
278.383	12.29
278.599	22.53
278.814	38.91
279.03	108.54
279.245	24.58
279.461	63.49
279.676	45.06
279.892	71.68
280.107	96.25
280.322	-16.38
280.538	26.62
280.753	8.19
280.969	36.86
281.184	16.38
281.399	30.72
281.615	12.29
281.83	4.1
282.045	14.34
282.26	18.43
282.476	63.49
282.691	96.25
282.906	26.62
283.122	10.24
283.337	18.43
283.552	10.24
283.767	-28.67
283.983	14.34
284.198	-18.43
284.413	69.63
284.628	-12.29
284.843	2.05
285.058	59.39
285.274	73.73
285.489	43.01
285.704	34.82
285.919	8.19
286.134	75.77
286.349	32.77
286.564	69.63
286.779	47.1
286.995	88.06
287.21	8.19
287.425	67.58
287.64	22.53
287.855	45.06
288.07	-32.77
288.285	83.97
288.5	114.69
288.715	-12.29
288.93	24.58
289.145	69.63
289.36	67.58
289.575	12.29
289.79	49.15
290.004	55.3
290.219	4.1
290.434	28.67
290.649	40.96
290.864	14.34
291.079	10.24
291.294	-45.06
291.509	77.82
291.724	12.29
291.938	20.48
292.153	2.05
292.368	-26.62
292.583	63.49
292.798	16.38
293.012	98.3
293.227	-4.1
293.442	4.1
293.657	131.07
293.871	47.1
294.086	22.53
294.301	114.69
294.516	34.82
294.73	-16.38
294.945	79.87
295.16	-16.38
295.374	79.87
295.589	90.11
295.804	-16.38
296.018	16.38
296.233	55.3
296.447	-30.72
296.662	14.34
296.877	61.44
297.091	63.49
297.306	53.25
297.52	28.67
297.735	34.82
297.949	90.11
298.164	73.73
298.378	-32.77
298.593	32.77
298.807	-30.72
299.022	96.25
299.236	-24.58
299.451	83.97
299.665	-14.34
299.88	79.87
300.094	16.38
300.309	81.92
300.523	-12.29
300.737	53.25
300.952	-22.53
301.166	12.29
301.381	-20.48
301.595	16.38
301.809	6.14
302.024	143.36
302.238	63.49
302.452	14.34
302.667	-30.72
302.881	90.11
303.095	22.53
303.309	47.1
303.524	-12.29
303.738	102.4
303.952	-40.96
304.166	47.1
304.381	-32.77
304.595	102.4
304.809	12.29
305.023	45.06
305.237	32.77
305.452	110.59
305.666	45.06
305.88	73.73
306.094	-40.96
306.308	38.91
306.522	83.97
306.736	-26.62
306.95	28.67
307.164	-12.29
307.379	12.29
307.593	22.53
307.807	49.15
308.021	-6.14
308.235	8.19
308.449	88.06
308.663	36.86
308.877	94.21
309.091	24.58
309.305	53.25
309.519	-28.67
309.733	-4.1
309.947	-2.05
310.161	49.15
310.374	24.58
310.588	65.54
310.802	2.05
311.016	-40.96
311.23	8.19
311.444	14.34
311.658	53.25
311.872	-2.05
312.085	51.2
312.299	108.54
312.513	94.21
312.727	51.2
312.941	-20.48
313.154	20.48
313.368	65.54
313.582	32.77
313.796	47.1
314.009	49.15
314.223	32.77
314.437	26.62
314.651	-32.77
314.864	-53.25
315.078	36.86
315.292	34.82
315.505	24.58
315.719	79.87
315.933	53.25
316.146	8.19
316.36	-36.86
316.573	100.35
316.787	-53.25
317.001	36.86
317.214	-22.53
317.428	10.24
317.641	22.53
317.855	124.93
318.068	10.24
318.282	12.29
318.495	6.14
318.709	16.38
318.922	4.1
319.136	90.11
319.349	30.72
319.563	8.19
319.776	-24.58
319.99	-8.19
320.203	32.77
320.417	-2.05
320.63	-6.14
320.843	114.69
321.057	55.3
321.27	26.62
321.483	53.25
321.697	30.72
321.91	-8.19
322.124	4.1
322.337	-2.05
322.55	-6.14
322.763	57.34
322.977	10.24
323.19	36.86
323.403	-32.77
323.617	-16.38
323.83	51.2
324.043	67.58
324.256	55.3
324.469	57.34
324.683	65.54
324.896	16.38
325.109	79.87
325.322	57.34
325.535	73.73
325.748	-6.14
325.962	86.01
326.175	-22.53
326.388	36.86
326.601	94.21
326.814	38.91
327.027	51.2
327.24	157.69
327.453	-30.72
327.666	73.73
327.879	-12.29
328.092	81.92
328.305	-14.34
328.518	98.3
328.731	28.67
328.944	57.34
329.157	43.01
329.37	-2.05
329.583	53.25
329.796	2.05
330.009	86.01
330.222	-26.62
330.435	47.1
330.648	81.92
330.861	28.67
331.073	55.3
331.286	59.39
331.499	67.58
331.712	45.06
331.925	40.96
332.138	-8.19
332.35	-2.05
332.563	-57.34
332.776	63.49
332.989	-2.05
333.202	98.3
333.414	77.82
333.627	34.82
333.84	67.58
334.053	63.49
334.265	-32.77
334.478	47.1
334.691	24.58
334.903	34.82
335.116	20.48
335.329	43.01
335.541	102.4
335.754	112.64
335.966	8.19
336.179	96.25
336.392	20.48
336.604	10.24
336.817	65.54
337.029	108.54
337.242	10.24
337.454	65.54
337.667	36.86
337.88	55.3
338.092	16.38
338.305	22.53
338.517	75.77
338.729	57.34
338.942	47.1
339.154	38.91
339.367	61.44
339.579	86.01
339.792	-16.38
340.004	0
340.217	88.06
340.429	79.87
340.641	43.01
340.854	28.67
341.066	55.3
341.278	57.34
341.491	57.34
341.703	28.67
341.915	26.62
342.128	8.19
342.34	47.1
342.552	-36.86
342.764	4.1
342.977	65.54
343.189	63.49
343.401	26.62
343.613	-2.05
343.826	88.06
344.038	49.15
344.25	0
344.462	49.15
344.674	-22.53
344.886	88.06
345.099	106.49
345.311	90.11
345.523	-12.29
345.735	-26.62
345.947	63.49
346.159	-24.58
346.371	34.82
346.583	-22.53
346.795	22.53
347.007	36.86
347.219	65.54
347.431	-26.62
347.643	61.44
347.855	10.24
348.067	4.1
348.279	26.62
348.491	2.05
348.703	-14.34
348.915	0
349.127	0
349.339	24.58
349.551	-32.77
349.763	34.82
349.975	6.14
350.187	69.63
350.399	49.15
350.61	4.1
350.822	47.1
351.034	73.73
351.246	57.34
351.458	-20.48
351.669	22.53
351.881	92.16
352.093	24.58
352.305	32.77
352.517	45.06
352.728	81.92
352.94	43.01
353.152	67.58
353.363	79.87
353.575	88.06
353.787	141.31
353.999	36.86
354.21	8.19
354.422	-14.34
354.633	-8.19
354.845	34.82
355.057	59.39
355.268	-12.29
355.48	-57.34
355.692	38.91
355.903	18.43
356.115	-16.38
356.326	2.05
356.538	61.44
356.749	59.39
356.961	86.01
357.172	90.11
357.384	6.14
357.595	61.44
357.807	45.06
358.018	12.29
358.23	4.1
358.441	120.83
358.653	71.68
358.864	20.48
359.075	-22.53
359.287	63.49
359.498	53.25
359.709	14.34
359.921	65.54
360.132	36.86
360.344	114.69
360.555	47.1
360.766	73.73
360.977	47.1
361.189	45.06
361.4	-4.1
361.611	77.82
361.823	10.24
362.034	90.11
362.245	-18.43
362.456	86.01
362.667	79.87
362.879	-24.58
363.09	55.3
363.301	-22.53
363.512	32.77
363.723	14.34
363.935	24.58
364.146	20.48
364.357	63.49
364.568	20.48
364.779	55.3
364.99	106.49
365.201	34.82
365.412	30.72
365.623	-32.77
365.834	36.86
366.045	53.25
366.256	65.54
366.467	47.1
366.678	86.01
366.889	24.58
367.1	100.35
367.311	63.49
367.522	73.73
367.733	8.19
367.944	92.16
368.155	-22.53
368.366	86.01
368.577	73.73
368.788	104.45
368.999	20.48
369.209	59.39
369.42	22.53
369.631	100.35
369.842	98.3
370.053	40.96
370.264	18.43
370.474	92.16
370.685	8.19
370.896	24.58
371.107	43.01
371.317	106.49
371.528	16.38
371.739	112.64
371.95	24.58
372.16	79.87
372.371	83.97
372.582	65.54
372.792	14.34
373.003	4.1
373.214	100.35
373.424	86.01
373.635	114.69
373.846	129.02
374.056	6.14
374.267	77.82
374.477	65.54
374.688	16.38
374.898	71.68
375.109	86.01
375.319	73.73
375.53	110.59
375.74	22.53
375.951	36.86
376.161	36.86
376.372	14.34
376.582	55.3
376.793	86.01
377.003	-10.24
377.214	40.96
377.424	38.91
377.635	24.58
377.845	69.63
378.055	16.38
378.266	57.34
378.476	90.11
378.686	-40.96
378.897	-32.77
379.107	79.87
379.317	38.91
379.528	102.4
379.738	112.64
379.948	102.4
380.158	0
380.369	-16.38
380.579	32.77
380.789	-4.1
380.999	-22.53
381.21	100.35
381.42	118.78
381.63	34.82
381.84	110.59
382.05	55.3
382.261	79.87
382.471	61.44
382.681	16.38
382.891	57.34
383.101	-16.38
383.311	63.49
383.521	45.06
383.731	67.58
383.941	69.63
384.151	77.82
384.361	-26.62
384.571	36.86
384.781	77.82
384.991	69.63
385.201	86.01
385.411	98.3
385.621	51.2
385.831	-16.38
386.041	77.82
386.251	61.44
386.461	49.15
386.671	20.48
386.881	112.64
387.091	57.34
387.301	24.58
387.511	34.82
387.72	-18.43
387.93	120.83
388.14	43.01
388.35	73.73
388.56	59.39
388.769	55.3
388.979	49.15
389.189	12.29
389.399	55.3
389.609	8.19
389.818	81.92
390.028	47.1
390.238	79.87
390.447	20.48
390.657	43.01
390.867	40.96
391.076	49.15
391.286	30.72
391.496	71.68
391.705	16.38
391.915	73.73
392.125	22.53
392.334	38.91
392.544	51.2
392.753	16.38
392.963	129.02
393.172	79.87
393.382	51.2
393.591	77.82
393.801	47.1
394.01	104.45
394.22	71.68
394.429	149.5
394.639	98.3
394.848	63.49
395.058	-12.29
395.267	59.39
395.477	83.97
395.686	92.16
395.895	110.59
396.105	83.97
396.314	90.11
396.524	122.88
396.733	67.58
396.942	133.12
397.152	102.4
397.361	151.55
397.57	98.3
397.78	86.01
397.989	90.11
398.198	73.73
398.407	34.82
398.617	47.1
398.826	108.54
399.035	36.86
399.244	67.58
399.453	75.77
399.663	86.01
399.872	110.59
400.081	102.4
400.29	141.31
400.499	69.63
400.708	83.97
400.917	57.34
401.127	77.82
401.336	40.96
401.545	208.89
401.754	75.77
401.963	106.49
402.172	49.15
402.381	59.39
402.59	108.54
402.799	100.35
403.008	186.37
403.217	200.7
403.426	67.58
403.635	106.49
403.844	161.79
404.053	86.01
404.262	38.91
404.471	167.93
404.68	110.59
404.888	133.12
405.097	163.84
405.306	131.07
405.515	155.65
405.724	102.4
405.933	204.8
406.142	217.08
406.35	163.84
406.559	110.59
406.768	180.22
406.977	204.8
407.185	200.7
407.394	167.93
407.603	190.46
407.812	245.76
408.02	145.41
408.229	221.18
408.438	200.7
408.646	198.65
408.855	249.85
409.064	225.28
409.272	208.89
409.481	286.72
409.69	198.65
409.898	231.42
410.107	284.67
410.315	303.1
410.524	249.85
410.733	362.49
410.941	286.72
411.15	290.81
411.358	299
411.567	327.67
411.775	450.55
411.984	276.48
412.192	364.54
412.401	344.06
412.609	458.75
412.818	391.16
413.026	430.07
413.234	452.6
413.443	419.83
413.651	518.14
413.86	385.02
414.068	550.9
414.276	555
414.485	542.71
414.693	595.96
414.901	571.38
415.11	595.96
415.318	514.04
415.526	645.11
415.734	645.11
415.943	673.78
416.151	776.18
416.359	755.7
416.567	765.94
416.776	763.89
416.984	841.72
417.192	815.09
417.4	792.56
417.608	862.19
417.817	911.35
418.025	968.69
418.233	1009.65
418.441	925.68
418.649	1116.14
418.857	1075.18
419.065	1107.95
419.273	1116.14
419.481	1138.67
419.689	1241.07
419.897	1390.57
420.105	1304.56
420.313	1452.01
420.521	1368.04
420.729	1435.63
420.937	1562.6
421.145	1595.37
421.353	1558.5
421.561	1761.25
421.769	1687.53
421.977	1865.7
422.185	1687.53
422.393	1935.33
422.601	1957.86
422.809	1943.52
423.017	1957.86
423.224	2058.21
423.432	2160.61
423.64	2095.07
423.848	2310.11
424.056	2310.11
424.263	2414.56
424.471	2465.75
424.679	2500.57
424.887	2723.8
425.094	2668.5
425.302	2711.51
425.51	2904.02
425.718	3043.28
425.925	2967.51
426.133	3151.82
426.341	3284.94
426.548	3368.91
426.756	3534.79
426.964	3356.62
427.171	3606.47
427.379	3895.24
427.586	3862.47
427.794	3864.52
428.001	4147.14
428.209	4425.66
428.417	4276.16
428.624	4577.21
428.832	4509.63
429.039	4313.02
429.247	4642.75
429.454	4904.89
429.662	5357.49
429.869	4958.13
430.076	5261.23
430.284	5183.41
430.491	5470.12
430.699	5603.24
430.906	5767.08
431.114	5515.18
431.321	6066.08
431.528	6360.99
431.736	6481.82
431.943	6760.34
432.15	6688.67
432.358	6449.05
432.565	6760.34
432.772	7022.48
432.979	7208.85
433.187	7466.89
433.394	7624.59
433.601	8052.61
433.808	8073.09
434.016	7905.16
434.223	8394.62
434.43	8771.45
434.637	8576.89
434.844	9365.36
435.052	9377.65
435.259	9265.01
435.466	9330.55
435.673	9246.58
435.88	10086.25
436.087	10573.66
436.294	10467.17
436.501	10231.65
436.708	10522.46
436.915	10891.1
437.122	11265.88
437.329	11276.12
437.537	11485.01
437.743	11788.11
437.95	11796.3
438.157	12156.74
438.364	12654.4
438.571	12320.58
438.778	12769.09
438.985	13856.56
439.192	13438.77
439.399	13842.22
439.606	13453.11
439.813	14372.64
440.02	15175.45
440.227	14892.83
440.433	14976.8
440.64	15410.96
440.847	15197.98
441.054	15527.7
441.261	16762.62
441.467	16318.21
441.674	16924.41
441.881	17016.57
442.088	17182.46
442.294	17141.5
442.501	17458.93
442.708	17649.39
442.914	18544.36
443.121	19410.65
443.328	18747.11
443.534	20135.63
443.741	19527.38
443.948	19496.66
444.154	20997.82
444.361	20842.18
444.568	20866.75
444.774	20944.58
444.981	21386.94
445.187	21503.67
445.394	22808.23
445.6	22281.9
445.807	24522.38
446.013	23172.77
446.22	23742.1
446.426	24712.84
446.633	24845.96
446.839	25757.3
447.046	24782.47
447.252	26193.52
447.459	26095.22
447.665	26007.16
447.871	27047.52
448.078	28239.44
448.284	27002.47
448.491	27952.73
448.697	28558.92
448.903	29161.03
449.11	29034.05
449.316	28665.42
449.522	29365.82
449.728	29886.01
449.935	30398
450.141	30301.75
450.347	30512.69
450.553	29972.02
450.76	29916.73
450.966	31018.53
451.172	30664.24
451.378	31571.49
451.584	31120.93
451.791	31684.12
451.997	31297.06
452.203	32149.01
452.409	31952.41
452.615	31622.69
452.821	30334.51
453.027	30238.26
453.233	31694.36
453.44	30445.1
453.646	30920.23
453.852	30754.35
454.058	31434.27
454.264	30395.95
454.47	31057.45
454.676	30457.39
454.882	30826.03
455.088	28749.39
455.294	28804.68
455.5	29081.16
455.705	29421.12
455.911	28370.51
456.117	27653.72
456.323	27453.02
456.529	25876.09
456.735	27031.14
456.941	26408.56
457.147	25618.04
457.352	24960.64
457.558	24573.58
457.764	24780.42
457.97	24391.31
458.176	23676.57
458.381	23762.58
458.587	22488.74
458.793	22412.97
458.999	21417.66
459.204	22822.56
459.41	22322.86
459.616	20637.38
459.821	20735.68
460.027	20750.02
460.233	20164.3
460.438	19044.06
460.644	19451.61
460.85	18646.76
461.055	18419.43
461.261	18216.68
461.466	16969.47
461.672	16477.96
461.878	17530.61
462.083	16252.68
462.289	16049.93
462.494	16092.94
462.7	15185.69
462.905	14810.91
463.111	15349.53
463.316	15482.64
463.522	15011.61
463.727	15136.54
463.932	15322.9
464.138	14812.96
464.343	15044.38
464.549	14608.16
464.754	15177.5
464.959	14997.28
465.165	14790.43
465.37	14325.54
465.575	13864.75
465.781	14200.62
465.986	14599.97
466.191	14120.74
466.397	13934.38
466.602	13250.36
466.807	13498.16
467.012	13543.22
467.218	13645.62
467.423	13139.77
467.628	13373.24
467.833	13778.73
468.038	13248.31
468.244	13066.04
