Data from USB4F104151__29__11-05-10-232.txt Node

Date: Wed Mar 12 11:05:10 EDT 2025
User: louis
Spectrometer: USB4F10415
Trigger mode: 4
Integration Time (sec): 2.000000E-2
Scans to average: 1
Electric dark correction enabled: true
Nonlinearity correction enabled: false
Boxcar width: 0
XAxis mode: Wavelengths
Number of Pixels in Spectrum: 3648
>>>>>Begin Spectral Data<<<<<
178.204	-17.24
178.424	-17.24
178.644	-17.24
178.864	-82.77
179.084	-37.72
179.304	-19.29
179.524	-47.96
179.744	-68.44
179.964	81.07
180.184	-41.81
180.404	93.35
180.624	-2.9
180.844	-13.14
181.064	40.11
181.283	-66.39
181.503	1.19
181.723	44.2
181.943	-33.62
182.163	13.48
182.383	42.15
182.602	-7
182.822	-2.9
183.042	-15.19
183.262	62.63
183.482	76.97
183.701	1.19
183.921	66.73
184.141	-17.24
184.361	27.82
184.58	5.29
184.8	-2.9
185.02	33.96
185.239	42.15
185.459	25.77
185.679	-23.38
185.898	9.39
186.118	66.73
186.338	48.3
186.557	25.77
186.777	-33.62
186.997	33.96
187.216	15.53
187.436	17.58
187.655	23.72
187.875	54.44
188.095	3.24
188.314	70.83
188.534	89.26
188.753	13.48
188.973	70.83
189.192	19.63
189.412	29.87
189.631	19.63
189.851	-2.9
190.07	91.31
190.29	-47.96
190.509	50.35
190.729	19.63
190.948	13.48
191.168	66.73
191.387	97.45
191.607	56.49
191.826	50.35
192.045	-11.09
192.265	23.72
192.484	17.58
192.704	17.58
192.923	-62.29
193.142	33.96
193.362	-4.95
193.581	27.82
193.8	54.44
194.02	60.59
194.239	25.77
194.458	44.2
194.678	-15.19
194.897	29.87
195.116	27.82
195.335	36.01
195.555	25.77
195.774	64.68
195.993	21.67
196.212	50.35
196.432	-7
196.651	-9.05
196.87	66.73
197.089	66.73
197.308	40.11
197.528	25.77
197.747	5.29
197.966	76.97
198.185	7.34
198.404	-11.09
198.623	33.96
198.842	64.68
199.062	25.77
199.281	70.83
199.5	-33.62
199.719	-11.09
199.938	85.16
200.157	-7
200.376	46.25
200.595	56.49
200.814	-2.9
201.033	11.43
201.252	-0.85
201.471	5.29
201.69	-0.85
201.909	7.34
202.128	27.82
202.347	11.43
202.566	-4.95
202.785	-2.9
203.004	38.06
203.223	81.07
203.442	15.53
203.661	38.06
203.879	40.11
204.098	-2.9
204.317	36.01
204.536	87.21
204.755	68.78
204.974	-19.29
205.193	5.29
205.411	15.53
205.63	-35.67
205.849	23.72
206.068	81.07
206.287	9.39
206.505	3.24
206.724	31.91
206.943	-15.19
207.162	13.48
207.381	15.53
207.599	70.83
207.818	79.02
208.037	5.29
208.255	-13.14
208.474	46.25
208.693	46.25
208.911	1.19
209.13	-2.9
209.349	-68.44
209.567	-4.95
209.786	46.25
210.005	21.67
210.223	-37.72
210.442	-56.15
210.661	70.83
210.879	1.19
211.098	81.07
211.316	-27.48
211.535	19.63
211.753	19.63
211.972	42.15
212.191	64.68
212.409	-25.43
212.628	95.4
212.846	81.07
213.065	11.43
213.283	27.82
213.502	-4.95
213.72	-72.53
213.938	29.87
214.157	-13.14
214.375	25.77
214.594	-7
214.812	68.78
215.031	-52.05
215.249	9.39
215.467	25.77
215.686	1.19
215.904	27.82
216.122	40.11
216.341	66.73
216.559	-41.81
216.778	87.21
216.996	50.35
217.214	-60.24
217.432	29.87
217.651	83.11
217.869	-13.14
218.087	79.02
218.306	-50
218.524	33.96
218.742	33.96
218.96	29.87
219.179	36.01
219.397	15.53
219.615	27.82
219.833	11.43
220.051	-4.95
220.27	46.25
220.488	-11.09
220.706	23.72
220.924	11.43
221.142	-23.38
221.36	31.91
221.578	38.06
221.796	83.11
222.015	36.01
222.233	-4.95
222.451	40.11
222.669	109.74
222.887	-2.9
223.105	23.72
223.323	-9.05
223.541	-15.19
223.759	62.63
223.977	46.25
224.195	-21.33
224.413	83.11
224.631	107.69
224.849	50.35
225.067	44.2
225.285	-35.67
225.503	27.82
225.721	48.3
225.939	107.69
226.157	31.91
226.375	68.78
226.592	-17.24
226.81	-9.05
227.028	44.2
227.246	13.48
227.464	-31.57
227.682	46.25
227.9	56.49
228.117	60.59
228.335	17.58
228.553	-7
228.771	109.74
228.989	23.72
229.206	7.34
229.424	-29.52
229.642	38.06
229.86	33.96
230.077	11.43
230.295	79.02
230.513	25.77
230.731	91.31
230.948	50.35
231.166	42.15
231.384	-13.14
231.601	17.58
231.819	13.48
232.037	-23.38
232.254	-2.9
232.472	44.2
232.689	62.63
232.907	60.59
233.125	21.67
233.342	87.21
233.56	29.87
233.777	70.83
233.995	56.49
234.213	-43.86
234.43	62.63
234.648	56.49
234.865	-15.19
235.083	72.87
235.3	21.67
235.518	72.87
235.735	40.11
235.953	72.87
236.17	42.15
236.388	40.11
236.605	-13.14
236.822	7.34
237.04	42.15
237.257	56.49
237.475	21.67
237.692	23.72
237.909	-27.48
238.127	-9.05
238.344	-43.86
238.562	83.11
238.779	15.53
238.996	-21.33
239.214	74.92
239.431	46.25
239.648	-17.24
239.865	95.4
240.083	38.06
240.3	46.25
240.517	-23.38
240.735	27.82
240.952	17.58
241.169	7.34
241.386	87.21
241.603	42.15
241.821	-78.68
242.038	27.82
242.255	-33.62
242.472	-15.19
242.689	1.19
242.907	42.15
243.124	23.72
243.341	64.68
243.558	-43.86
243.775	23.72
243.992	38.06
244.209	-13.14
244.426	79.02
244.643	50.35
244.86	25.77
245.078	-17.24
245.295	95.4
245.512	46.25
245.729	-74.58
245.946	58.54
246.163	9.39
246.38	48.3
246.597	1.19
246.814	38.06
247.031	-31.57
247.248	19.63
247.464	-13.14
247.681	46.25
247.898	48.3
248.115	79.02
248.332	-35.67
248.549	60.59
248.766	42.15
248.983	50.35
249.2	87.21
249.417	66.73
249.633	25.77
249.85	40.11
250.067	122.02
250.284	46.25
250.501	29.87
250.717	-19.29
250.934	-2.9
251.151	-4.95
251.368	56.49
251.585	52.39
251.801	97.45
252.018	-90.96
252.235	38.06
252.451	-54.1
252.668	19.63
252.885	27.82
253.102	-4.95
253.318	19.63
253.535	46.25
253.752	66.73
253.968	38.06
254.185	33.96
254.401	17.58
254.618	74.92
254.835	17.58
255.051	119.98
255.268	-29.52
255.484	-9.05
255.701	105.64
255.917	81.07
256.134	-9.05
256.351	40.11
256.567	-101.2
256.784	48.3
257	-15.19
257.217	-27.48
257.433	44.2
257.65	25.77
257.866	1.19
258.082	-9.05
258.299	66.73
258.515	11.43
258.732	31.91
258.948	40.11
259.165	11.43
259.381	-33.62
259.597	23.72
259.814	-19.29
260.03	5.29
260.246	56.49
260.463	-11.09
260.679	42.15
260.895	15.53
261.112	44.2
261.328	-4.95
261.544	40.11
261.761	81.07
261.977	-9.05
262.193	44.2
262.409	46.25
262.626	1.19
262.842	36.01
263.058	-2.9
263.274	81.07
263.49	-7
263.707	95.4
263.923	38.06
264.139	-15.19
264.355	-11.09
264.571	25.77
264.787	29.87
265.004	44.2
265.22	21.67
265.436	1.19
265.652	-23.38
265.868	64.68
266.084	29.87
266.3	89.26
266.516	60.59
266.732	-11.09
266.948	-19.29
267.164	13.48
267.38	1.19
267.596	58.54
267.812	44.2
268.028	27.82
268.244	13.48
268.46	62.63
268.676	-19.29
268.892	72.87
269.108	11.43
269.324	46.25
269.54	29.87
269.756	50.35
269.972	17.58
270.188	25.77
270.403	23.72
270.619	48.3
270.835	58.54
271.051	103.59
271.267	56.49
271.483	66.73
271.698	44.2
271.914	27.82
272.13	72.87
272.346	-31.57
272.562	46.25
272.777	50.35
272.993	17.58
273.209	9.39
273.425	44.2
273.64	-56.15
273.856	72.87
274.072	56.49
274.287	11.43
274.503	119.98
274.719	-4.95
274.934	58.54
275.15	-4.95
275.366	81.07
275.581	44.2
275.797	23.72
276.012	5.29
276.228	44.2
276.444	60.59
276.659	-4.95
276.875	-25.43
277.09	29.87
277.306	3.24
277.521	33.96
277.737	48.3
277.952	105.64
278.168	17.58
278.383	17.58
278.599	83.11
278.814	50.35
279.03	5.29
279.245	56.49
279.461	64.68
279.676	48.3
279.892	-21.33
280.107	-7
280.322	17.58
280.538	103.59
280.753	9.39
280.969	60.59
281.184	74.92
281.399	42.15
281.615	-31.57
281.83	38.06
282.045	87.21
282.26	27.82
282.476	15.53
282.691	52.39
282.906	109.74
283.122	-25.43
283.337	3.24
283.552	-2.9
283.767	46.25
283.983	64.68
284.198	91.31
284.413	42.15
284.628	-27.48
284.843	109.74
285.058	66.73
285.274	87.21
285.489	29.87
285.704	19.63
285.919	72.87
286.134	72.87
286.349	-27.48
286.564	-68.44
286.779	70.83
286.995	-29.52
287.21	101.55
287.425	54.44
287.64	-11.09
287.855	-0.85
288.07	70.83
288.285	70.83
288.5	36.01
288.715	87.21
288.93	9.39
289.145	23.72
289.36	60.59
289.575	42.15
289.79	54.44
290.004	-56.15
290.219	62.63
290.434	50.35
290.649	29.87
290.864	23.72
291.079	52.39
291.294	33.96
291.509	87.21
291.724	23.72
291.938	23.72
292.153	42.15
292.368	19.63
292.583	42.15
292.798	40.11
293.012	27.82
293.227	29.87
293.442	13.48
293.657	36.01
293.871	36.01
294.086	52.39
294.301	56.49
294.516	-2.9
294.73	42.15
294.945	-58.2
295.16	62.63
295.374	60.59
295.589	74.92
295.804	-27.48
296.018	46.25
296.233	1.19
296.447	33.96
296.662	9.39
296.877	52.39
297.091	19.63
297.306	36.01
297.52	-23.38
297.735	-43.86
297.949	97.45
298.164	101.55
298.378	11.43
298.593	76.97
298.807	-0.85
299.022	60.59
299.236	3.24
299.451	17.58
299.665	60.59
299.88	38.06
300.094	-15.19
300.309	-13.14
300.523	79.02
300.737	15.53
300.952	48.3
301.166	95.4
301.381	-41.81
301.595	21.67
301.809	-19.29
302.024	60.59
302.238	-43.86
302.452	74.92
302.667	11.43
302.881	40.11
303.095	-2.9
303.309	70.83
303.524	-19.29
303.738	11.43
303.952	44.2
304.166	50.35
304.381	33.96
304.595	109.74
304.809	-50
305.023	105.64
305.237	42.15
305.452	70.83
305.666	54.44
305.88	70.83
306.094	21.67
306.308	62.63
306.522	29.87
306.736	72.87
306.95	46.25
307.164	76.97
307.379	38.06
307.593	117.93
307.807	25.77
308.021	1.19
308.235	19.63
308.449	13.48
308.663	-62.29
308.877	126.12
309.091	44.2
309.305	-21.33
309.519	-19.29
309.733	-15.19
309.947	-54.1
310.161	3.24
310.374	81.07
310.588	56.49
310.802	-21.33
311.016	42.15
311.23	-7
311.444	5.29
311.658	33.96
311.872	17.58
312.085	-0.85
312.299	95.4
312.513	91.31
312.727	-11.09
312.941	-4.95
313.154	126.12
313.368	40.11
313.582	54.44
313.796	62.63
314.009	44.2
314.223	17.58
314.437	79.02
314.651	113.83
314.864	31.91
315.078	-7
315.292	17.58
315.505	50.35
315.719	97.45
315.933	3.24
316.146	-19.29
316.36	107.69
316.573	76.97
316.787	46.25
317.001	23.72
317.214	9.39
317.428	87.21
317.641	36.01
317.855	50.35
318.068	50.35
318.282	85.16
318.495	-29.52
318.709	29.87
318.922	-23.38
319.136	52.39
319.349	46.25
319.563	-52.05
319.776	-27.48
319.99	-13.14
320.203	62.63
320.417	1.19
320.63	23.72
320.843	38.06
321.057	68.78
321.27	85.16
321.483	62.63
321.697	72.87
321.91	19.63
322.124	33.96
322.337	23.72
322.55	44.2
322.763	11.43
322.977	27.82
323.19	52.39
323.403	21.67
323.617	-11.09
323.83	-0.85
324.043	62.63
324.256	11.43
324.469	-7
324.683	-4.95
324.896	-11.09
325.109	25.77
325.322	-0.85
325.535	17.58
325.748	87.21
325.962	74.92
326.175	33.96
326.388	107.69
326.601	115.88
326.814	-13.14
327.027	-43.86
327.24	44.2
327.453	13.48
327.666	115.88
327.879	54.44
328.092	9.39
328.305	87.21
328.518	33.96
328.731	19.63
328.944	89.26
329.157	38.06
329.37	31.91
329.583	19.63
329.796	64.68
330.009	42.15
330.222	-4.95
330.435	58.54
330.648	19.63
330.861	-23.38
331.073	58.54
331.286	25.77
331.499	42.15
331.712	-2.9
331.925	93.35
332.138	-7
332.35	91.31
332.563	42.15
332.776	74.92
332.989	3.24
333.202	5.29
333.414	1.19
333.627	40.11
333.84	79.02
334.053	15.53
334.265	-23.38
334.478	38.06
334.691	62.63
334.903	52.39
335.116	-0.85
335.329	91.31
335.541	56.49
335.754	21.67
335.966	-35.67
336.179	62.63
336.392	36.01
336.604	85.16
336.817	56.49
337.029	29.87
337.242	-45.91
337.454	40.11
337.667	101.55
337.88	66.73
338.092	21.67
338.305	42.15
338.517	68.78
338.729	46.25
338.942	134.31
339.154	13.48
339.367	-7
339.579	36.01
339.792	72.87
340.004	83.11
340.217	66.73
340.429	42.15
340.641	33.96
340.854	68.78
341.066	27.82
341.278	36.01
341.491	76.97
341.703	46.25
341.915	13.48
342.128	87.21
342.34	40.11
342.552	36.01
342.764	70.83
342.977	107.69
343.189	79.02
343.401	38.06
343.613	36.01
343.826	50.35
344.038	-2.9
344.25	85.16
344.462	42.15
344.674	115.88
344.886	60.59
345.099	81.07
345.311	17.58
345.523	85.16
345.735	7.34
345.947	11.43
346.159	66.73
346.371	95.4
346.583	-35.67
346.795	23.72
347.007	-7
347.219	50.35
347.431	-33.62
347.643	-11.09
347.855	42.15
348.067	50.35
348.279	-11.09
348.491	74.92
348.703	42.15
348.915	-2.9
349.127	70.83
349.339	13.48
349.551	-60.24
349.763	17.58
349.975	5.29
350.187	9.39
350.399	-7
350.61	93.35
350.822	23.72
351.034	36.01
351.246	64.68
351.458	17.58
351.669	-0.85
351.881	66.73
352.093	79.02
352.305	3.24
352.517	81.07
352.728	44.2
352.94	54.44
353.152	-7
353.363	29.87
353.575	60.59
353.787	44.2
353.999	-13.14
354.21	79.02
354.422	17.58
354.633	58.54
354.845	21.67
355.057	25.77
355.268	31.91
355.48	-2.9
355.692	-21.33
355.903	76.97
356.115	87.21
356.326	-11.09
356.538	1.19
356.749	111.78
356.961	29.87
357.172	42.15
357.384	62.63
357.595	-19.29
357.807	48.3
358.018	46.25
358.23	87.21
358.441	103.59
358.653	36.01
358.864	62.63
359.075	33.96
359.287	87.21
359.498	113.83
359.709	97.45
359.921	23.72
360.132	-15.19
360.344	11.43
360.555	52.39
360.766	50.35
360.977	68.78
361.189	-25.43
361.4	-19.29
361.611	50.35
361.823	29.87
362.034	60.59
362.245	42.15
362.456	21.67
362.667	79.02
362.879	58.54
363.09	23.72
363.301	44.2
363.512	58.54
363.723	76.97
363.935	11.43
364.146	115.88
364.357	87.21
364.568	72.87
364.779	119.98
364.99	27.82
365.201	-56.15
365.412	99.5
365.623	-31.57
365.834	58.54
366.045	3.24
366.256	-17.24
366.467	21.67
366.678	46.25
366.889	52.39
367.1	54.44
367.311	87.21
367.522	42.15
367.733	50.35
367.944	54.44
368.155	91.31
368.366	31.91
368.577	27.82
368.788	46.25
368.999	44.2
369.209	11.43
369.42	101.55
369.631	105.64
369.842	56.49
370.053	38.06
370.264	50.35
370.474	109.74
370.685	103.59
370.896	27.82
371.107	40.11
371.317	68.78
371.528	54.44
371.739	33.96
371.95	-2.9
372.16	87.21
372.371	36.01
372.582	56.49
372.792	25.77
373.003	81.07
373.214	83.11
373.424	46.25
373.635	31.91
373.846	74.92
374.056	7.34
374.267	31.91
374.477	83.11
374.688	93.35
374.898	29.87
375.109	74.92
375.319	62.63
375.53	107.69
375.74	38.06
375.951	62.63
376.161	21.67
376.372	29.87
376.582	27.82
376.793	89.26
377.003	13.48
377.214	76.97
377.424	-19.29
377.635	17.58
377.845	-2.9
378.055	60.59
378.266	36.01
378.476	-2.9
378.686	52.39
378.897	17.58
379.107	54.44
379.317	54.44
379.528	85.16
379.738	52.39
379.948	-27.48
380.158	60.59
380.369	44.2
380.579	70.83
380.789	19.63
380.999	54.44
381.21	64.68
381.42	124.07
381.63	-11.09
381.84	72.87
382.05	58.54
382.261	103.59
382.471	38.06
382.681	89.26
382.891	54.44
383.101	68.78
383.311	-25.43
383.521	44.2
383.731	21.67
383.941	93.35
384.151	19.63
384.361	-29.52
384.571	-29.52
384.781	117.93
384.991	81.07
385.201	97.45
385.411	58.54
385.621	107.69
385.831	13.48
386.041	25.77
386.251	74.92
386.461	91.31
386.671	13.48
386.881	95.4
387.091	40.11
387.301	79.02
387.511	66.73
387.72	38.06
387.93	62.63
388.14	52.39
388.35	99.5
388.56	87.21
388.769	79.02
388.979	44.2
389.189	64.68
389.399	54.44
389.609	111.78
389.818	85.16
390.028	56.49
390.238	81.07
390.447	9.39
390.657	109.74
390.867	38.06
391.076	33.96
391.286	109.74
391.496	91.31
391.705	48.3
391.915	64.68
392.125	17.58
392.334	97.45
392.544	54.44
392.753	83.11
392.963	89.26
393.172	74.92
393.382	46.25
393.591	33.96
393.801	97.45
394.01	134.31
394.22	74.92
394.429	19.63
394.639	89.26
394.848	117.93
395.058	74.92
395.267	52.39
395.477	95.4
395.686	9.39
395.895	62.63
396.105	130.22
396.314	15.53
396.524	70.83
396.733	99.5
396.942	146.6
397.152	130.22
397.361	191.66
397.57	128.17
397.78	89.26
397.989	117.93
398.198	72.87
398.407	36.01
398.617	117.93
398.826	91.31
399.035	66.73
399.244	130.22
399.453	173.22
399.663	74.92
399.872	66.73
400.081	87.21
400.29	148.65
400.499	109.74
400.708	83.11
400.917	93.35
401.127	95.4
401.336	91.31
401.545	165.03
401.754	109.74
401.963	93.35
402.172	185.51
402.381	122.02
402.59	70.83
402.799	99.5
403.008	91.31
403.217	95.4
403.426	56.49
403.635	81.07
403.844	99.5
404.053	130.22
404.262	105.64
404.471	134.31
404.68	208.04
404.888	117.93
405.097	150.7
405.306	185.51
405.515	187.56
405.724	175.27
405.933	103.59
406.142	146.6
406.35	187.56
406.559	169.13
406.768	162.98
406.977	212.14
407.185	212.14
407.394	201.9
407.603	158.89
407.812	253.09
408.02	218.28
408.229	205.99
408.438	199.85
408.646	242.85
408.855	191.66
409.064	242.85
409.272	185.51
409.481	330.92
409.69	236.71
409.898	238.76
410.107	222.38
410.315	283.81
410.524	267.43
410.733	332.97
410.941	312.49
411.15	394.4
411.358	361.64
411.567	341.16
411.775	279.72
411.984	398.5
412.192	398.5
412.401	423.08
412.609	461.99
412.818	488.61
413.026	421.03
413.234	431.27
413.443	439.46
413.651	480.42
413.86	472.23
414.068	556.19
414.276	562.34
414.485	623.78
414.693	591.01
414.901	631.97
415.11	644.26
415.318	617.63
415.526	634.02
415.734	744.61
415.943	654.5
416.151	789.66
416.359	664.74
416.567	797.85
416.776	715.94
416.984	840.86
417.192	1027.23
417.4	908.44
417.608	816.29
417.817	861.34
418.025	994.46
418.233	982.17
418.441	1033.37
418.649	1100.95
418.857	1207.45
419.065	1307.8
419.273	1201.3
419.481	1191.06
419.689	1283.22
419.897	1408.15
420.105	1332.37
420.313	1467.54
420.521	1445.01
420.729	1571.99
420.937	1559.7
421.145	1574.03
421.353	1727.63
421.561	1803.41
421.769	1698.96
421.977	1852.56
422.185	1817.74
422.393	2145.42
422.601	2059.4
422.809	2004.11
423.017	2110.6
423.224	2129.03
423.432	2215.05
423.64	2256.01
423.848	2413.7
424.056	2436.23
424.263	2602.11
424.471	2645.12
424.679	2593.92
424.887	2802.82
425.094	2862.21
425.302	2892.93
425.51	3040.38
425.718	3028.09
425.925	3230.84
426.133	3224.7
426.341	3595.38
426.548	3591.28
426.756	3529.84
426.964	3617.91
427.171	3751.03
427.379	3978.35
427.586	3933.29
427.794	4170.86
428.001	4385.9
428.209	4500.58
428.417	4359.27
428.624	4660.32
428.832	4777.06
429.039	4727.91
429.247	4607.08
429.454	5067.87
429.662	5518.42
429.869	5172.32
430.076	5586.01
430.284	5348.44
430.491	5434.46
430.699	5989.46
430.906	5698.64
431.114	5829.71
431.321	6245.45
431.528	6362.19
431.736	6761.54
431.943	7164.99
432.15	6945.86
432.358	7035.97
432.565	7439.42
432.772	7386.17
432.979	7701.56
433.187	7863.35
433.394	7851.06
433.601	8387.63
433.808	8498.22
434.016	8373.29
434.223	8664.1
434.43	9235.49
434.637	8956.96
434.844	9442.33
435.052	9649.18
435.259	9780.25
435.466	9772.05
435.673	9702.42
435.88	10331.15
436.087	10916.87
436.294	11142.14
436.501	10699.78
436.708	10929.16
436.915	11179.01
437.122	11799.54
437.329	11785.21
437.537	12082.16
437.743	12178.42
437.95	12248.05
438.157	12790.76
438.364	13347.81
438.571	13229.02
438.778	13560.8
438.985	14631.88
439.192	14064.6
439.399	14470.09
439.606	14250.96
439.813	14863.3
440.02	15811.51
440.227	15717.31
440.433	15453.12
440.64	15942.58
440.847	16006.07
441.054	16192.44
441.261	17396.64
441.467	17208.23
441.674	17451.94
441.881	18078.61
442.088	17892.25
442.294	17902.49
442.501	18205.59
442.708	18809.74
442.914	19616.64
443.121	20269.94
443.328	19837.82
443.534	21039.98
443.741	20384.63
443.948	20114.3
444.154	21887.84
444.361	21662.56
444.568	21617.5
444.774	21932.89
444.981	22039.39
445.187	22752.08
445.394	23464.77
445.6	23249.74
445.807	25631.52
446.013	24591.16
446.22	25111.34
446.426	25723.68
446.633	25934.62
446.839	27089.68
447.046	25721.63
447.252	27257.61
447.459	27435.78
447.665	27163.4
447.871	28302.07
448.078	29373.16
448.284	28111.61
448.491	28820.21
448.697	30278.36
448.903	30794.45
449.11	30669.53
449.316	30096.1
449.522	30542.55
449.728	31347.4
449.935	31212.24
450.141	31138.51
450.347	32205.5
450.553	30962.39
450.76	31619.78
450.966	32645.82
451.172	32303.81
451.378	32629.43
451.584	32228.03
451.791	32823.99
451.997	33178.29
452.203	33465
452.409	33348.27
452.615	32838.33
452.821	32023.23
453.027	31658.7
453.233	33235.63
453.44	31476.43
453.646	32107.2
453.852	32279.23
454.058	32541.37
454.264	31593.16
454.47	32166.59
454.676	31857.35
454.882	32094.91
455.088	29588.2
455.294	29924.07
455.5	30384.86
455.705	30915.28
455.911	29485.8
456.117	28764.92
456.323	28515.06
456.529	27085.58
456.735	28076.8
456.941	27441.93
457.147	26837.78
457.352	25912.1
457.558	25635.62
457.764	25793.31
457.97	25484.07
458.176	24953.65
458.381	24754.99
458.587	23669.57
458.793	23536.45
458.999	22119.26
459.204	23896.89
459.41	23487.3
459.616	21506.91
459.821	21564.26
460.027	21551.97
460.233	21220.2
460.438	19972.99
460.644	20411.25
460.85	19327.88
461.055	19096.46
461.261	19061.64
461.466	17849.24
461.672	17195.94
461.878	18504.59
462.083	17195.94
462.289	16741.29
462.494	16647.08
462.7	15887.29
462.905	15510.46
463.111	15985.59
463.316	16202.68
463.522	15967.16
463.727	15870.9
463.932	15745.98
464.138	15401.92
464.343	15518.65
464.549	14998.47
464.754	15711.16
464.959	15592.38
465.165	15465.41
465.37	14769.1
465.575	14369.74
465.781	14932.93
465.986	15190.98
466.191	14439.37
466.397	14085.08
466.602	13650.91
466.807	14121.94
467.012	13923.29
467.218	14009.3
467.423	13908.95
467.628	13917.14
467.833	14386.13
468.038	13867.99
