Data from USB4F104151__280__11-12-52-981.txt Node

Date: Wed Mar 12 11:12:52 EDT 2025
User: louis
Spectrometer: USB4F10415
Trigger mode: 4
Integration Time (sec): 2.000000E-2
Scans to average: 1
Electric dark correction enabled: true
Nonlinearity correction enabled: false
Boxcar width: 0
XAxis mode: Wavelengths
Number of Pixels in Spectrum: 3648
>>>>>Begin Spectral Data<<<<<
178.204	-29.01
178.424	-29.01
178.644	-29.01
178.864	-43.35
179.084	-94.55
179.304	-2.39
179.524	59.05
179.744	-0.34
179.964	-14.68
180.184	-6.49
180.404	-65.88
180.624	22.19
180.844	22.19
181.064	-106.84
181.283	18.09
181.503	57
181.723	18.09
181.943	50.86
182.163	100.01
182.383	67.24
182.602	50.86
182.822	100.01
183.042	9.9
183.262	-4.44
183.482	77.48
183.701	-26.96
183.921	42.67
184.141	-18.77
184.361	16.04
184.58	52.91
184.8	40.62
185.02	-8.53
185.239	50.86
185.459	22.19
185.679	59.05
185.898	20.14
186.118	22.19
186.338	32.43
186.557	46.76
186.777	-22.87
186.997	-49.49
187.216	71.34
187.436	75.43
187.655	50.86
187.875	79.53
188.095	52.91
188.314	46.76
188.534	34.47
188.753	48.81
188.973	-31.06
189.192	63.15
189.412	22.19
189.631	46.76
189.851	-14.68
190.07	-14.68
190.29	83.63
190.509	20.14
190.729	-12.63
190.948	32.43
191.168	161.45
191.387	34.47
191.607	-6.49
191.826	44.71
192.045	-47.44
192.265	71.34
192.484	32.43
192.704	63.15
192.923	34.47
193.142	36.52
193.362	26.28
193.581	69.29
193.8	93.87
194.02	16.04
194.239	95.91
194.458	36.52
194.678	5.8
194.897	91.82
195.116	13.99
195.335	52.91
195.555	63.15
195.774	52.91
195.993	-2.39
196.212	18.09
196.432	-18.77
196.651	-24.92
196.87	44.71
197.089	63.15
197.308	44.71
197.528	52.91
197.747	26.28
197.966	42.67
198.185	100.01
198.404	20.14
198.623	42.67
198.842	114.34
199.062	5.8
199.281	145.06
199.5	-45.4
199.719	34.47
199.938	100.01
200.157	116.39
200.376	112.3
200.595	59.05
200.814	26.28
201.033	36.52
201.252	50.86
201.471	-16.73
201.69	102.06
201.909	1.71
202.128	73.39
202.347	93.87
202.566	1.71
202.785	93.87
203.004	83.63
203.223	95.91
203.442	7.85
203.661	73.39
203.879	36.52
204.098	63.15
204.317	-18.77
204.536	85.67
204.755	128.68
204.974	3.75
205.193	18.09
205.411	114.34
205.63	97.96
205.849	61.1
206.068	108.2
206.287	57
206.505	67.24
206.724	38.57
206.943	59.05
207.162	59.05
207.381	18.09
207.599	-2.39
207.818	71.34
208.037	73.39
208.255	83.63
208.474	77.48
208.693	71.34
208.911	42.67
209.13	57
209.349	36.52
209.567	40.62
209.786	3.75
210.005	108.2
210.223	71.34
210.442	38.57
210.661	91.82
210.879	65.19
211.098	52.91
211.316	-4.44
211.535	83.63
211.753	38.57
211.972	108.2
212.191	-6.49
212.409	112.3
212.628	65.19
212.846	65.19
213.065	5.8
213.283	93.87
213.502	7.85
213.72	28.33
213.938	16.04
214.157	34.47
214.375	95.91
214.594	65.19
214.812	67.24
215.031	7.85
215.249	46.76
215.467	5.8
215.686	81.58
215.904	48.81
216.122	11.95
216.341	83.63
216.559	24.23
216.778	108.2
216.996	48.81
217.214	73.39
217.432	57
217.651	57
217.869	22.19
218.087	-6.49
218.306	42.67
218.524	126.63
218.742	44.71
218.96	9.9
219.179	34.47
219.397	3.75
219.615	83.63
219.833	-20.82
220.051	-8.53
220.27	59.05
220.488	52.91
220.706	93.87
220.924	46.76
221.142	91.82
221.36	79.53
221.578	75.43
221.796	69.29
222.015	5.8
222.233	59.05
222.451	108.2
222.669	40.62
222.887	52.91
223.105	-35.16
223.323	3.75
223.541	34.47
223.759	85.67
223.977	50.86
224.195	48.81
224.413	89.77
224.631	114.34
224.849	95.91
225.067	110.25
225.285	50.86
225.503	57
225.721	40.62
225.939	-0.34
226.157	138.92
226.375	126.63
226.592	18.09
226.81	48.81
227.028	40.62
227.246	24.23
227.464	38.57
227.682	26.28
227.9	71.34
228.117	61.1
228.335	-16.73
228.553	63.15
228.771	34.47
228.989	28.33
229.206	9.9
229.424	30.38
229.642	13.99
229.86	5.8
230.077	-10.58
230.295	22.19
230.513	7.85
230.731	57
230.948	54.95
231.166	95.91
231.384	97.96
231.601	40.62
231.819	81.58
232.037	81.58
232.254	-10.58
232.472	75.43
232.689	42.67
232.907	67.24
233.125	32.43
233.342	44.71
233.56	63.15
233.777	32.43
233.995	30.38
234.213	102.06
234.43	40.62
234.648	40.62
234.865	16.04
235.083	85.67
235.3	34.47
235.518	42.67
235.735	46.76
235.953	20.14
236.17	75.43
236.388	36.52
236.605	-92.5
236.822	89.77
237.04	26.28
237.257	40.62
237.475	50.86
237.692	100.01
237.909	67.24
238.127	22.19
238.344	57
238.562	89.77
238.779	57
238.996	18.09
239.214	22.19
239.431	63.15
239.648	13.99
239.865	87.72
240.083	26.28
240.3	42.67
240.517	59.05
240.735	38.57
240.952	9.9
241.169	9.9
241.386	16.04
241.603	44.71
241.821	-6.49
242.038	46.76
242.255	-39.25
242.472	100.01
242.689	-2.39
242.907	54.95
243.124	34.47
243.341	85.67
243.558	38.57
243.775	22.19
243.992	46.76
244.209	9.9
244.426	7.85
244.643	63.15
244.86	59.05
245.078	93.87
245.295	42.67
245.512	83.63
245.729	42.67
245.946	59.05
246.163	77.48
246.38	73.39
246.597	79.53
246.814	18.09
247.031	65.19
247.248	59.05
247.464	52.91
247.681	75.43
247.898	42.67
248.115	97.96
248.332	11.95
248.549	54.95
248.766	46.76
248.983	106.15
249.2	52.91
249.417	114.34
249.633	42.67
249.85	77.48
250.067	46.76
250.284	42.67
250.501	83.63
250.717	52.91
250.934	-6.49
251.151	28.33
251.368	67.24
251.585	95.91
251.801	32.43
252.018	48.81
252.235	110.25
252.451	24.23
252.668	59.05
252.885	126.63
253.102	108.2
253.318	79.53
253.535	67.24
253.752	120.49
253.968	9.9
254.185	28.33
254.401	83.63
254.618	59.05
254.835	61.1
255.051	61.1
255.268	85.67
255.484	108.2
255.701	59.05
255.917	52.91
256.134	28.33
256.351	38.57
256.567	59.05
256.784	40.62
257	42.67
257.217	83.63
257.433	16.04
257.65	22.19
257.866	104.11
258.082	50.86
258.299	28.33
258.515	106.15
258.732	91.82
258.948	34.47
259.165	-29.01
259.381	97.96
259.597	42.67
259.814	30.38
260.03	73.39
260.246	63.15
260.463	5.8
260.679	20.14
260.895	38.57
261.112	-20.82
261.328	75.43
261.544	100.01
261.761	42.67
261.977	44.71
262.193	65.19
262.409	22.19
262.626	151.21
262.842	22.19
263.058	36.52
263.274	110.25
263.49	63.15
263.707	40.62
263.923	83.63
264.139	-6.49
264.355	32.43
264.571	106.15
264.787	22.19
265.004	126.63
265.22	26.28
265.436	28.33
265.652	63.15
265.868	34.47
266.084	-0.34
266.3	69.29
266.516	81.58
266.732	75.43
266.948	28.33
267.164	7.85
267.38	48.81
267.596	95.91
267.812	30.38
268.028	34.47
268.244	54.95
268.46	18.09
268.676	140.97
268.892	73.39
269.108	46.76
269.324	59.05
269.54	89.77
269.756	81.58
269.972	13.99
270.188	-2.39
270.403	26.28
270.619	26.28
270.835	1.71
271.051	63.15
271.267	11.95
271.483	50.86
271.698	34.47
271.914	54.95
272.13	75.43
272.346	34.47
272.562	-39.25
272.777	85.67
272.993	26.28
273.209	54.95
273.425	50.86
273.64	91.82
273.856	30.38
274.072	63.15
274.287	-22.87
274.503	79.53
274.719	63.15
274.934	-2.39
275.15	50.86
275.366	93.87
275.581	50.86
275.797	104.11
276.012	-2.39
276.228	38.57
276.444	81.58
276.659	87.72
276.875	67.24
277.09	20.14
277.306	-4.44
277.521	46.76
277.737	46.76
277.952	100.01
278.168	-16.73
278.383	116.39
278.599	-39.25
278.814	36.52
279.03	13.99
279.245	67.24
279.461	54.95
279.676	77.48
279.892	22.19
280.107	-22.87
280.322	18.09
280.538	83.63
280.753	63.15
280.969	95.91
281.184	50.86
281.399	95.91
281.615	73.39
281.83	18.09
282.045	5.8
282.26	89.77
282.476	75.43
282.691	122.54
282.906	5.8
283.122	5.8
283.337	54.95
283.552	16.04
283.767	22.19
283.983	63.15
284.198	-39.25
284.413	124.58
284.628	44.71
284.843	52.91
285.058	124.58
285.274	48.81
285.489	57
285.704	52.91
285.919	-22.87
286.134	83.63
286.349	69.29
286.564	-8.53
286.779	147.11
286.995	-14.68
287.21	18.09
287.425	134.82
287.64	26.28
287.855	110.25
288.07	5.8
288.285	71.34
288.5	87.72
288.715	65.19
288.93	1.71
289.145	120.49
289.36	54.95
289.575	30.38
289.79	59.05
290.004	7.85
290.219	75.43
290.434	48.81
290.649	30.38
290.864	36.52
291.079	50.86
291.294	50.86
291.509	52.91
291.724	46.76
291.938	89.77
292.153	57
292.368	69.29
292.583	95.91
292.798	24.23
293.012	38.57
293.227	85.67
293.442	30.38
293.657	85.67
293.871	81.58
294.086	44.71
294.301	71.34
294.516	61.1
294.73	-8.53
294.945	63.15
295.16	32.43
295.374	93.87
295.589	71.34
295.804	36.52
296.018	50.86
296.233	52.91
296.447	52.91
296.662	50.86
296.877	122.54
297.091	54.95
297.306	44.71
297.52	-37.2
297.735	106.15
297.949	18.09
298.164	79.53
298.378	34.47
298.593	73.39
298.807	52.91
299.022	48.81
299.236	46.76
299.451	143.02
299.665	46.76
299.88	69.29
300.094	9.9
300.309	46.76
300.523	95.91
300.737	7.85
300.952	32.43
301.166	163.5
301.381	42.67
301.595	46.76
301.809	11.95
302.024	59.05
302.238	65.19
302.452	108.2
302.667	3.75
302.881	52.91
303.095	67.24
303.309	38.57
303.524	97.96
303.738	24.23
303.952	54.95
304.166	79.53
304.381	69.29
304.595	112.3
304.809	-8.53
305.023	-55.64
305.237	71.34
305.452	26.28
305.666	69.29
305.88	97.96
306.094	128.68
306.308	40.62
306.522	75.43
306.736	73.39
306.95	81.58
307.164	89.77
307.379	30.38
307.593	24.23
307.807	75.43
308.021	83.63
308.235	75.43
308.449	20.14
308.663	1.71
308.877	77.48
309.091	42.67
309.305	46.76
309.519	44.71
309.733	87.72
309.947	11.95
310.161	85.67
310.374	69.29
310.588	32.43
310.802	24.23
311.016	26.28
311.23	63.15
311.444	91.82
311.658	63.15
311.872	57
312.085	30.38
312.299	57
312.513	140.97
312.727	30.38
312.941	50.86
313.154	50.86
313.368	69.29
313.582	54.95
313.796	22.19
314.009	26.28
314.223	97.96
314.437	-10.58
314.651	28.33
314.864	-14.68
315.078	65.19
315.292	24.23
315.505	71.34
315.719	89.77
315.933	73.39
316.146	-6.49
316.36	13.99
316.573	71.34
316.787	69.29
317.001	38.57
317.214	9.9
317.428	67.24
317.641	50.86
317.855	67.24
318.068	13.99
318.282	85.67
318.495	75.43
318.709	104.11
318.922	71.34
319.136	102.06
319.349	69.29
319.563	42.67
319.776	54.95
319.99	52.91
320.203	89.77
320.417	132.78
320.63	34.47
320.843	34.47
321.057	16.04
321.27	87.72
321.483	130.73
321.697	93.87
321.91	9.9
322.124	50.86
322.337	100.01
322.55	104.11
322.763	40.62
322.977	126.63
323.19	-18.77
323.403	83.63
323.617	100.01
323.83	73.39
324.043	34.47
324.256	128.68
324.469	-2.39
324.683	132.78
324.896	42.67
325.109	20.14
325.322	44.71
325.535	118.44
325.748	52.91
325.962	145.06
326.175	128.68
326.388	128.68
326.601	9.9
326.814	57
327.027	54.95
327.24	63.15
327.453	30.38
327.666	93.87
327.879	42.67
328.092	52.91
328.305	59.05
328.518	122.54
328.731	65.19
328.944	5.8
329.157	13.99
329.37	-41.3
329.583	114.34
329.796	102.06
330.009	69.29
330.222	85.67
330.435	38.57
330.648	24.23
330.861	69.29
331.073	40.62
331.286	46.76
331.499	24.23
331.712	13.99
331.925	48.81
332.138	50.86
332.35	52.91
332.563	18.09
332.776	36.52
332.989	9.9
333.202	24.23
333.414	50.86
333.627	54.95
333.84	24.23
334.053	34.47
334.265	24.23
334.478	7.85
334.691	28.33
334.903	61.1
335.116	97.96
335.329	34.47
335.541	50.86
335.754	65.19
335.966	32.43
336.179	85.67
336.392	50.86
336.604	-26.96
336.817	79.53
337.029	118.44
337.242	5.8
337.454	95.91
337.667	59.05
337.88	93.87
338.092	63.15
338.305	87.72
338.517	-0.34
338.729	91.82
338.942	81.58
339.154	9.9
339.367	18.09
339.579	11.95
339.792	73.39
340.004	85.67
340.217	32.43
340.429	122.54
340.641	83.63
340.854	140.97
341.066	48.81
341.278	30.38
341.491	116.39
341.703	54.95
341.915	71.34
342.128	22.19
342.34	63.15
342.552	18.09
342.764	22.19
342.977	40.62
343.189	140.97
343.401	40.62
343.613	-55.64
343.826	44.71
344.038	42.67
344.25	87.72
344.462	-0.34
344.674	57
344.886	75.43
345.099	77.48
345.311	57
345.523	63.15
345.735	38.57
345.947	26.28
346.159	63.15
346.371	34.47
346.583	-20.82
346.795	59.05
347.007	108.2
347.219	75.43
347.431	42.67
347.643	89.77
347.855	26.28
348.067	46.76
348.279	32.43
348.491	46.76
348.703	79.53
348.915	46.76
349.127	24.23
349.339	52.91
349.551	20.14
349.763	77.48
349.975	52.91
350.187	26.28
350.399	32.43
350.61	83.63
350.822	16.04
351.034	91.82
351.246	16.04
351.458	106.15
351.669	79.53
351.881	85.67
352.093	-12.63
352.305	75.43
352.517	73.39
352.728	140.97
352.94	108.2
353.152	67.24
353.363	50.86
353.575	75.43
353.787	112.3
353.999	81.58
354.21	73.39
354.422	-61.78
354.633	67.24
354.845	97.96
355.057	50.86
355.268	32.43
355.48	163.5
355.692	50.86
355.903	71.34
356.115	46.76
356.326	42.67
356.538	44.71
356.749	73.39
356.961	122.54
357.172	32.43
357.384	65.19
357.595	79.53
357.807	87.72
358.018	-6.49
358.23	65.19
358.441	85.67
358.653	16.04
358.864	87.72
359.075	-20.82
359.287	126.63
359.498	85.67
359.709	48.81
359.921	97.96
360.132	91.82
360.344	44.71
360.555	18.09
360.766	-0.34
360.977	-8.53
361.189	130.73
361.4	104.11
361.611	145.06
361.823	63.15
362.034	87.72
362.245	26.28
362.456	46.76
362.667	79.53
362.879	149.16
363.09	95.91
363.301	18.09
363.512	48.81
363.723	34.47
363.935	16.04
364.146	147.11
364.357	112.3
364.568	118.44
364.779	-18.77
364.99	104.11
365.201	140.97
365.412	46.76
365.623	-12.63
365.834	120.49
366.045	59.05
366.256	100.01
366.467	87.72
366.678	-14.68
366.889	116.39
367.1	59.05
367.311	89.77
367.522	97.96
367.733	16.04
367.944	140.97
368.155	91.82
368.366	136.87
368.577	97.96
368.788	145.06
368.999	54.95
369.209	140.97
369.42	116.39
369.631	122.54
369.842	46.76
370.053	50.86
370.264	110.25
370.474	59.05
370.685	13.99
370.896	67.24
371.107	130.73
371.317	112.3
371.528	61.1
371.739	38.57
371.95	83.63
372.16	120.49
372.371	28.33
372.582	75.43
372.792	24.23
373.003	44.71
373.214	40.62
373.424	75.43
373.635	65.19
373.846	116.39
374.056	104.11
374.267	108.2
374.477	161.45
374.688	73.39
374.898	67.24
375.109	97.96
375.319	61.1
375.53	93.87
375.74	140.97
375.951	50.86
376.161	91.82
376.372	97.96
376.582	36.52
376.793	122.54
377.003	112.3
377.214	79.53
377.424	118.44
377.635	46.76
377.845	87.72
378.055	63.15
378.266	59.05
378.476	85.67
378.686	140.97
378.897	85.67
379.107	79.53
379.317	171.69
379.528	44.71
379.738	63.15
379.948	59.05
380.158	87.72
380.369	26.28
380.579	34.47
380.789	67.24
380.999	24.23
381.21	7.85
381.42	134.82
381.63	44.71
381.84	3.75
382.05	75.43
382.261	116.39
382.471	67.24
382.681	116.39
382.891	89.77
383.101	65.19
383.311	38.57
383.521	-2.39
383.731	32.43
383.941	122.54
384.151	42.67
384.361	91.82
384.571	77.48
384.781	75.43
384.991	93.87
385.201	97.96
385.411	155.3
385.621	59.05
385.831	69.29
386.041	52.91
386.251	79.53
386.461	42.67
386.671	38.57
386.881	67.24
387.091	46.76
387.301	136.87
387.511	54.95
387.72	36.52
387.93	22.19
388.14	1.71
388.35	71.34
388.56	36.52
388.769	13.99
388.979	42.67
389.189	93.87
389.399	147.11
389.609	155.3
389.818	54.95
390.028	54.95
390.238	77.48
390.447	108.2
390.657	116.39
390.867	26.28
391.076	95.91
391.286	95.91
391.496	165.54
391.705	85.67
391.915	149.16
392.125	110.25
392.334	89.77
392.544	100.01
392.753	104.11
392.963	110.25
393.172	73.39
393.382	52.91
393.591	73.39
393.801	57
394.01	102.06
394.22	130.73
394.429	26.28
394.639	108.2
394.848	65.19
395.058	128.68
395.267	52.91
395.477	116.39
395.686	91.82
395.895	112.3
396.105	149.16
396.314	97.96
396.524	81.58
396.733	77.48
396.942	181.93
397.152	79.53
397.361	214.7
397.57	186.02
397.78	155.3
397.989	143.02
398.198	224.94
398.407	112.3
398.617	69.29
398.826	75.43
399.035	108.2
399.244	151.21
399.453	106.15
399.663	208.55
399.872	124.58
400.081	91.82
400.29	132.78
400.499	85.67
400.708	79.53
400.917	186.02
401.127	124.58
401.336	106.15
401.545	130.73
401.754	163.5
401.963	149.16
402.172	153.26
402.381	114.34
402.59	143.02
402.799	206.5
403.008	57
403.217	157.35
403.426	73.39
403.635	118.44
403.844	202.41
404.053	118.44
404.262	147.11
404.471	173.74
404.68	220.84
404.888	237.22
405.097	102.06
405.306	190.12
405.515	212.65
405.724	198.31
405.933	208.55
406.142	226.98
406.35	224.94
406.559	216.74
406.768	157.35
406.977	206.5
407.185	241.32
407.394	249.51
407.603	216.74
407.812	274.09
408.02	317.09
408.229	300.71
408.438	306.85
408.646	265.89
408.855	235.18
409.064	247.46
409.272	220.84
409.481	284.33
409.69	292.52
409.898	313
410.107	345.77
410.315	323.24
410.524	341.67
410.733	403.11
410.941	329.38
411.15	380.58
411.358	427.68
411.567	556.71
411.775	362.15
411.984	427.68
412.192	472.74
412.401	452.26
412.609	507.55
412.818	564.9
413.026	515.75
413.234	583.33
413.443	548.51
413.651	618.15
413.86	687.78
414.068	638.62
414.276	659.1
414.485	636.58
414.693	702.11
414.901	728.74
415.11	771.74
415.318	790.17
415.526	824.99
415.734	833.18
415.943	804.51
416.151	865.95
416.359	937.63
416.567	1001.12
416.776	970.4
416.984	935.58
417.192	1060.51
417.4	1019.55
417.608	1046.17
417.817	1093.27
418.025	1222.3
418.233	1226.39
418.441	1189.53
418.649	1212.06
418.857	1375.89
419.065	1375.89
419.273	1334.93
419.481	1361.56
419.689	1537.68
419.897	1599.12
420.105	1552.02
420.313	1619.6
420.521	1640.08
420.729	1744.53
420.937	1662.61
421.145	1863.31
421.353	1900.17
421.561	2021
421.769	1963.66
421.977	2223.75
422.185	2078.35
422.393	2346.63
422.601	2350.73
422.809	2391.69
423.017	2385.54
423.224	2465.41
423.432	2645.63
423.64	2467.46
423.848	2774.66
424.056	2707.07
424.263	3030.65
424.471	2858.62
424.679	3022.46
424.887	3176.06
425.094	3264.12
425.302	3434.1
425.51	3503.73
425.718	3643
425.925	3509.88
426.133	3620.47
426.341	3858.03
426.548	4101.74
426.756	4050.54
426.964	4136.56
427.171	4376.17
427.379	4490.85
427.586	4568.68
427.794	4722.27
428.001	4816.48
428.209	5064.29
428.417	4908.64
428.624	5357.14
428.832	5379.67
429.039	5379.67
429.247	5543.51
429.454	5996.11
429.662	6153.8
429.869	5906
430.076	6112.85
430.284	6137.42
430.491	6256.2
430.699	6809.15
430.906	6749.76
431.114	6719.04
431.321	6956.61
431.528	7171.65
431.736	7564.86
431.943	8037.94
432.15	7833.14
432.358	7935.54
432.565	8425
432.772	8308.27
432.979	8738.34
433.187	8908.32
433.394	8826.4
433.601	9629.21
433.808	9405.98
434.016	9424.41
434.223	10003.99
434.43	10817.03
434.637	10313.23
434.844	10769.93
435.052	11101.7
435.259	10860.04
435.466	11118.08
435.673	10831.37
435.88	11621.88
436.087	12428.78
436.294	12332.53
436.501	12017.14
436.708	12203.5
436.915	12785.13
437.122	13231.58
437.329	13213.15
437.537	13723.1
437.743	13936.09
437.95	13800.92
438.157	14495.18
438.364	14874.06
438.571	14847.43
438.778	14964.17
438.985	16346.55
439.192	15672.76
439.399	16309.68
439.606	15836.6
439.813	16706.99
440.02	17946.01
440.227	17462.69
440.433	17313.19
440.64	18001.3
440.847	17679.77
441.054	18316.69
441.261	19338.63
441.467	18996.62
441.674	19674.49
441.881	20268.41
442.088	20329.84
442.294	19703.17
442.501	20415.86
442.708	20823.4
442.914	21955.93
443.121	22349.14
443.328	22357.33
443.534	23573.83
443.741	22846.8
443.948	22486.36
444.154	24706.35
444.361	24261.94
444.568	24251.7
444.774	24573.24
444.981	24583.48
445.187	25054.51
445.394	26518.81
445.6	26090.78
445.807	28720.37
446.013	27421.96
446.22	27874.56
446.426	29234.41
446.633	29469.93
446.839	29953.25
447.046	28767.48
447.252	30399.71
447.459	30237.92
447.665	30401.75
447.871	31855.81
448.078	33078.45
448.284	31196.37
448.491	32226.49
448.697	33920.17
448.903	33893.54
449.11	34075.81
449.316	33926.31
449.522	34376.86
449.728	35069.08
449.935	35269.78
450.141	35396.75
450.347	36017.29
450.553	34870.42
450.76	35374.22
450.966	36502.65
451.172	36306.05
451.378	36772.99
451.584	36037.76
451.791	37229.68
451.997	37407.86
452.203	37573.74
452.409	37545.07
452.615	37678.19
452.821	36074.63
453.027	35642.51
453.233	37526.64
453.44	35918.98
453.646	36623.48
453.852	36596.86
454.058	37477.49
454.264	36013.19
454.47	36666.49
454.676	36129.92
454.882	37110.9
455.088	33541.29
455.294	34569.37
455.5	34765.98
455.705	34899.09
455.911	33500.33
456.117	33125.55
456.323	32877.75
456.529	31024.34
456.735	32359.61
456.941	31268.05
457.147	31026.39
457.352	30225.63
457.558	29715.69
457.764	29596.9
457.97	29338.86
458.176	28458.23
458.381	28634.36
458.587	27297.03
458.793	27200.78
458.999	25830.69
459.204	27460.87
459.41	26922.26
459.616	25070.89
459.821	24929.58
460.027	24943.92
460.233	24194.36
460.438	23317.83
460.644	23600.45
460.85	22539.6
461.055	22275.41
461.261	22060.38
461.466	20311.41
461.672	19934.59
461.878	21013.87
462.083	20028.79
462.289	19735.93
462.494	19512.7
462.7	18517.39
462.905	18144.66
463.111	18501.01
463.316	18746.76
463.522	18337.17
463.727	18267.54
463.932	18128.28
464.138	18279.83
464.343	18038.17
464.549	17393.06
464.754	18388.37
464.959	18214.29
465.165	17718.68
465.37	17092.01
465.575	16514.48
465.781	17366.43
465.986	17532.32
466.191	16815.53
466.397	16653.74
466.602	15932.86
466.807	16371.12
467.012	16588.21
467.218	16231.86
467.423	16014.77
