Data from USB4F104151__297__11-13-09-079.txt Node

Date: Wed Mar 12 11:13:09 EDT 2025
User: louis
Spectrometer: USB4F10415
Trigger mode: 4
Integration Time (sec): 2.000000E-2
Scans to average: 1
Electric dark correction enabled: true
Nonlinearity correction enabled: false
Boxcar width: 0
XAxis mode: Wavelengths
Number of Pixels in Spectrum: 3648
>>>>>Begin Spectral Data<<<<<
178.204	-100.35
178.424	-100.35
178.644	-100.35
178.864	-59.39
179.084	-94.21
179.304	-20.48
179.524	0
179.744	-75.77
179.964	26.62
180.184	67.58
180.404	16.38
180.624	20.48
180.844	-71.68
181.064	-4.1
181.283	26.62
181.503	-47.1
181.723	61.44
181.943	4.1
182.163	32.77
182.383	-81.92
182.602	20.48
182.822	28.67
183.042	47.1
183.262	-18.43
183.482	-26.62
183.701	38.91
183.921	28.67
184.141	-18.43
184.361	59.39
184.58	45.06
184.8	55.3
185.02	14.34
185.239	45.06
185.459	51.2
185.679	-6.14
185.898	30.72
186.118	86.01
186.338	73.73
186.557	20.48
186.777	-26.62
186.997	45.06
187.216	4.1
187.436	61.44
187.655	47.1
187.875	18.43
188.095	-36.86
188.314	34.82
188.534	-34.82
188.753	24.58
188.973	-75.77
189.192	8.19
189.412	28.67
189.631	47.1
189.851	6.14
190.07	22.53
190.29	100.35
190.509	-30.72
190.729	-8.19
190.948	61.44
191.168	22.53
191.387	32.77
191.607	-24.58
191.826	94.21
192.045	63.49
192.265	71.68
192.484	16.38
192.704	59.39
192.923	18.43
193.142	79.87
193.362	8.19
193.581	34.82
193.8	24.58
194.02	75.77
194.239	-20.48
194.458	45.06
194.678	-28.67
194.897	-22.53
195.116	0
195.335	28.67
195.555	45.06
195.774	79.87
195.993	34.82
196.212	14.34
196.432	28.67
196.651	53.25
196.87	-2.05
197.089	-36.86
197.308	36.86
197.528	51.2
197.747	36.86
197.966	-22.53
198.185	53.25
198.404	2.05
198.623	14.34
198.842	-20.48
199.062	90.11
199.281	-2.05
199.5	12.29
199.719	38.91
199.938	43.01
200.157	73.73
200.376	20.48
200.595	16.38
200.814	73.73
201.033	96.25
201.252	53.25
201.471	-86.01
201.69	24.58
201.909	-2.05
202.128	-12.29
202.347	16.38
202.566	20.48
202.785	88.06
203.004	16.38
203.223	53.25
203.442	-16.38
203.661	43.01
203.879	47.1
204.098	24.58
204.317	-30.72
204.536	71.68
204.755	73.73
204.974	-51.2
205.193	47.1
205.411	14.34
205.63	38.91
205.849	59.39
206.068	4.1
206.287	-26.62
206.505	73.73
206.724	24.58
206.943	-30.72
207.162	18.43
207.381	-71.68
207.599	36.86
207.818	81.92
208.037	-20.48
208.255	49.15
208.474	6.14
208.693	14.34
208.911	22.53
209.13	-16.38
209.349	34.82
209.567	18.43
209.786	45.06
210.005	-40.96
210.223	-10.24
210.442	14.34
210.661	22.53
210.879	-4.1
211.098	-77.82
211.316	49.15
211.535	73.73
211.753	12.29
211.972	30.72
212.191	4.1
212.409	-26.62
212.628	16.38
212.846	8.19
213.065	-49.15
213.283	55.3
213.502	45.06
213.72	69.63
213.938	26.62
214.157	-4.1
214.375	59.39
214.594	38.91
214.812	30.72
215.031	28.67
215.249	12.29
215.467	20.48
215.686	-63.49
215.904	79.87
216.122	2.05
216.341	12.29
216.559	-20.48
216.778	55.3
216.996	77.82
217.214	22.53
217.432	32.77
217.651	24.58
217.869	-43.01
218.087	20.48
218.306	12.29
218.524	65.54
218.742	22.53
218.96	77.82
219.179	38.91
219.397	-28.67
219.615	106.49
219.833	0
220.051	-24.58
220.27	114.69
220.488	49.15
220.706	67.58
220.924	-8.19
221.142	100.35
221.36	45.06
221.578	53.25
221.796	-53.25
222.015	-38.91
222.233	14.34
222.451	92.16
222.669	10.24
222.887	-53.25
223.105	14.34
223.323	71.68
223.541	20.48
223.759	16.38
223.977	51.2
224.195	79.87
224.413	6.14
224.631	67.58
224.849	51.2
225.067	-24.58
225.285	-8.19
225.503	32.77
225.721	-61.44
225.939	26.62
226.157	-4.1
226.375	22.53
226.592	34.82
226.81	36.86
227.028	16.38
227.246	92.16
227.464	40.96
227.682	18.43
227.9	-10.24
228.117	-10.24
228.335	28.67
228.553	10.24
228.771	12.29
228.989	51.2
229.206	14.34
229.424	77.82
229.642	59.39
229.86	32.77
230.077	102.4
230.295	-20.48
230.513	26.62
230.731	-22.53
230.948	57.34
231.166	10.24
231.384	14.34
231.601	71.68
231.819	98.3
232.037	-26.62
232.254	-30.72
232.472	38.91
232.689	30.72
232.907	18.43
233.125	36.86
233.342	6.14
233.56	83.97
233.777	53.25
233.995	-30.72
234.213	36.86
234.43	43.01
234.648	-4.1
234.865	-16.38
235.083	86.01
235.3	4.1
235.518	43.01
235.735	55.3
235.953	57.34
236.17	79.87
236.388	124.93
236.605	63.49
236.822	81.92
237.04	-26.62
237.257	110.59
237.475	-16.38
237.692	36.86
237.909	-22.53
238.127	4.1
238.344	83.97
238.562	47.1
238.779	-16.38
238.996	24.58
239.214	8.19
239.431	32.77
239.648	73.73
239.865	34.82
240.083	-6.14
240.3	24.58
240.517	-10.24
240.735	6.14
240.952	59.39
241.169	-24.58
241.386	28.67
241.603	36.86
241.821	-16.38
242.038	55.3
242.255	79.87
242.472	40.96
242.689	63.49
242.907	26.62
243.124	22.53
243.341	30.72
243.558	8.19
243.775	81.92
243.992	-51.2
244.209	36.86
244.426	114.69
244.643	55.3
244.86	71.68
245.078	4.1
245.295	18.43
245.512	59.39
245.729	43.01
245.946	38.91
246.163	-43.01
246.38	40.96
246.597	-16.38
246.814	51.2
247.031	26.62
247.248	28.67
247.464	24.58
247.681	26.62
247.898	-4.1
248.115	65.54
248.332	24.58
248.549	24.58
248.766	28.67
248.983	12.29
249.2	32.77
249.417	6.14
249.633	40.96
249.85	22.53
250.067	40.96
250.284	94.21
250.501	86.01
250.717	20.48
250.934	16.38
251.151	28.67
251.368	12.29
251.585	40.96
251.801	18.43
252.018	36.86
252.235	133.12
252.451	4.1
252.668	59.39
252.885	69.63
253.102	6.14
253.318	49.15
253.535	36.86
253.752	47.1
253.968	131.07
254.185	8.19
254.401	38.91
254.618	86.01
254.835	57.34
255.051	75.77
255.268	53.25
255.484	34.82
255.701	61.44
255.917	61.44
256.134	77.82
256.351	55.3
256.567	67.58
256.784	55.3
257	-20.48
257.217	32.77
257.433	-20.48
257.65	55.3
257.866	88.06
258.082	6.14
258.299	-6.14
258.515	59.39
258.732	-24.58
258.948	106.49
259.165	12.29
259.381	12.29
259.597	77.82
259.814	2.05
260.03	24.58
260.246	30.72
260.463	38.91
260.679	143.36
260.895	49.15
261.112	143.36
261.328	2.05
261.544	49.15
261.761	77.82
261.977	12.29
262.193	-8.19
262.409	34.82
262.626	-6.14
262.842	26.62
263.058	90.11
263.274	-28.67
263.49	-10.24
263.707	16.38
263.923	32.77
264.139	-14.34
264.355	94.21
264.571	8.19
264.787	-4.1
265.004	10.24
265.22	16.38
265.436	-22.53
265.652	-36.86
265.868	75.77
266.084	32.77
266.3	75.77
266.516	6.14
266.732	-10.24
266.948	0
267.164	83.97
267.38	59.39
267.596	-2.05
267.812	12.29
268.028	47.1
268.244	-24.58
268.46	18.43
268.676	6.14
268.892	-51.2
269.108	-63.49
269.324	-30.72
269.54	43.01
269.756	36.86
269.972	49.15
270.188	20.48
270.403	-28.67
270.619	-4.1
270.835	51.2
271.051	12.29
271.267	57.34
271.483	0
271.698	8.19
271.914	86.01
272.13	90.11
272.346	45.06
272.562	30.72
272.777	49.15
272.993	6.14
273.209	32.77
273.425	73.73
273.64	-10.24
273.856	24.58
274.072	22.53
274.287	20.48
274.503	10.24
274.719	-4.1
274.934	36.86
275.15	-8.19
275.366	61.44
275.581	22.53
275.797	112.64
276.012	63.49
276.228	-34.82
276.444	-8.19
276.659	75.77
276.875	75.77
277.09	-28.67
277.306	26.62
277.521	20.48
277.737	28.67
277.952	45.06
278.168	12.29
278.383	32.77
278.599	-20.48
278.814	47.1
279.03	-16.38
279.245	59.39
279.461	55.3
279.676	49.15
279.892	40.96
280.107	-10.24
280.322	28.67
280.538	4.1
280.753	4.1
280.969	-40.96
281.184	65.54
281.399	32.77
281.615	106.49
281.83	90.11
282.045	-28.67
282.26	20.48
282.476	49.15
282.691	67.58
282.906	36.86
283.122	28.67
283.337	86.01
283.552	0
283.767	55.3
283.983	43.01
284.198	32.77
284.413	-12.29
284.628	-30.72
284.843	49.15
285.058	24.58
285.274	-8.19
285.489	-8.19
285.704	59.39
285.919	45.06
286.134	73.73
286.349	32.77
286.564	32.77
286.779	12.29
286.995	16.38
287.21	14.34
287.425	-2.05
287.64	-8.19
287.855	53.25
288.07	-40.96
288.285	53.25
288.5	96.25
288.715	16.38
288.93	28.67
289.145	-4.1
289.36	40.96
289.575	16.38
289.79	34.82
290.004	32.77
290.219	26.62
290.434	2.05
290.649	2.05
290.864	12.29
291.079	6.14
291.294	30.72
291.509	-26.62
291.724	32.77
291.938	51.2
292.153	43.01
292.368	4.1
292.583	-2.05
292.798	131.07
293.012	45.06
293.227	-24.58
293.442	65.54
293.657	45.06
293.871	40.96
294.086	47.1
294.301	65.54
294.516	92.16
294.73	-2.05
294.945	-26.62
295.16	65.54
295.374	14.34
295.589	53.25
295.804	8.19
296.018	10.24
296.233	129.02
296.447	73.73
296.662	32.77
296.877	65.54
297.091	38.91
297.306	36.86
297.52	28.67
297.735	81.92
297.949	34.82
298.164	20.48
298.378	75.77
298.593	4.1
298.807	20.48
299.022	67.58
299.236	26.62
299.451	86.01
299.665	63.49
299.88	-12.29
300.094	40.96
300.309	-4.1
300.523	-10.24
300.737	18.43
300.952	61.44
301.166	71.68
301.381	6.14
301.595	-38.91
301.809	-12.29
302.024	61.44
302.238	-45.06
302.452	81.92
302.667	81.92
302.881	38.91
303.095	49.15
303.309	51.2
303.524	-14.34
303.738	-51.2
303.952	-36.86
304.166	69.63
304.381	-38.91
304.595	32.77
304.809	124.93
305.023	45.06
305.237	-20.48
305.452	-22.53
305.666	12.29
305.88	18.43
306.094	16.38
306.308	45.06
306.522	8.19
306.736	157.69
306.95	20.48
307.164	73.73
307.379	14.34
307.593	34.82
307.807	108.54
308.021	-30.72
308.235	0
308.449	14.34
308.663	22.53
308.877	10.24
309.091	53.25
309.305	73.73
309.519	-32.77
309.733	55.3
309.947	-6.14
310.161	-14.34
310.374	90.11
310.588	86.01
310.802	49.15
311.016	30.72
311.23	16.38
311.444	108.54
311.658	47.1
311.872	30.72
312.085	10.24
312.299	53.25
312.513	51.2
312.727	2.05
312.941	-6.14
313.154	49.15
313.368	0
313.582	59.39
313.796	77.82
314.009	59.39
314.223	67.58
314.437	112.64
314.651	-4.1
314.864	-2.05
315.078	30.72
315.292	-12.29
315.505	92.16
315.719	43.01
315.933	-6.14
316.146	59.39
316.36	12.29
316.573	12.29
316.787	16.38
317.001	83.97
317.214	49.15
317.428	55.3
317.641	-32.77
317.855	69.63
318.068	83.97
318.282	22.53
318.495	55.3
318.709	6.14
318.922	40.96
319.136	55.3
319.349	96.25
319.563	63.49
319.776	24.58
319.99	12.29
320.203	69.63
320.417	18.43
320.63	100.35
320.843	57.34
321.057	26.62
321.27	16.38
321.483	4.1
321.697	12.29
321.91	28.67
322.124	12.29
322.337	-43.01
322.55	34.82
322.763	8.19
322.977	69.63
323.19	96.25
323.403	71.68
323.617	40.96
323.83	67.58
324.043	4.1
324.256	63.49
324.469	67.58
324.683	90.11
324.896	10.24
325.109	28.67
325.322	16.38
325.535	22.53
325.748	18.43
325.962	73.73
326.175	2.05
326.388	65.54
326.601	45.06
326.814	-16.38
327.027	59.39
327.24	24.58
327.453	14.34
327.666	69.63
327.879	8.19
328.092	88.06
328.305	20.48
328.518	77.82
328.731	53.25
328.944	32.77
329.157	0
329.37	49.15
329.583	98.3
329.796	4.1
330.009	0
330.222	4.1
330.435	34.82
330.648	120.83
330.861	63.49
331.073	24.58
331.286	2.05
331.499	22.53
331.712	131.07
331.925	26.62
332.138	-4.1
332.35	26.62
332.563	12.29
332.776	10.24
332.989	16.38
333.202	34.82
333.414	73.73
333.627	26.62
333.84	77.82
334.053	81.92
334.265	30.72
334.478	51.2
334.691	106.49
334.903	102.4
335.116	28.67
335.329	102.4
335.541	12.29
335.754	116.73
335.966	2.05
336.179	8.19
336.392	-2.05
336.604	30.72
336.817	-34.82
337.029	57.34
337.242	16.38
337.454	67.58
337.667	22.53
337.88	32.77
338.092	4.1
338.305	43.01
338.517	38.91
338.729	65.54
338.942	14.34
339.154	59.39
339.367	-34.82
339.579	-10.24
339.792	43.01
340.004	55.3
340.217	43.01
340.429	20.48
340.641	-32.77
340.854	100.35
341.066	53.25
341.278	24.58
341.491	81.92
341.703	0
341.915	32.77
342.128	6.14
342.34	63.49
342.552	24.58
342.764	22.53
342.977	-8.19
343.189	49.15
343.401	0
343.613	57.34
343.826	57.34
344.038	-24.58
344.25	55.3
344.462	77.82
344.674	8.19
344.886	73.73
345.099	6.14
345.311	4.1
345.523	38.91
345.735	22.53
345.947	6.14
346.159	-26.62
346.371	77.82
346.583	69.63
346.795	18.43
347.007	28.67
347.219	67.58
347.431	-61.44
347.643	20.48
347.855	63.49
348.067	14.34
348.279	24.58
348.491	55.3
348.703	8.19
348.915	12.29
349.127	45.06
349.339	34.82
349.551	49.15
349.763	77.82
349.975	-43.01
350.187	57.34
350.399	16.38
350.61	94.21
350.822	96.25
351.034	34.82
351.246	59.39
351.458	47.1
351.669	92.16
351.881	45.06
352.093	36.86
352.305	12.29
352.517	16.38
352.728	2.05
352.94	102.4
353.152	49.15
353.363	32.77
353.575	32.77
353.787	73.73
353.999	34.82
354.21	40.96
354.422	40.96
354.633	0
354.845	43.01
355.057	-61.44
355.268	-45.06
355.48	53.25
355.692	75.77
355.903	55.3
356.115	51.2
356.326	2.05
356.538	100.35
356.749	45.06
356.961	100.35
357.172	-20.48
357.384	-6.14
357.595	106.49
357.807	55.3
358.018	40.96
358.23	63.49
358.441	61.44
358.653	45.06
358.864	-4.1
359.075	49.15
359.287	26.62
359.498	114.69
359.709	57.34
359.921	6.14
360.132	49.15
360.344	100.35
360.555	20.48
360.766	96.25
360.977	67.58
361.189	112.64
361.4	36.86
361.611	28.67
361.823	61.44
362.034	-26.62
362.245	22.53
362.456	122.88
362.667	79.87
362.879	-16.38
363.09	55.3
363.301	94.21
363.512	83.97
363.723	43.01
363.935	57.34
364.146	106.49
364.357	81.92
364.568	40.96
364.779	24.58
364.99	55.3
365.201	63.49
365.412	51.2
365.623	43.01
365.834	63.49
366.045	16.38
366.256	90.11
366.467	49.15
366.678	43.01
366.889	-26.62
367.1	75.77
367.311	-30.72
367.522	49.15
367.733	6.14
367.944	57.34
368.155	90.11
368.366	12.29
368.577	2.05
368.788	53.25
368.999	-16.38
369.209	96.25
369.42	94.21
369.631	77.82
369.842	92.16
370.053	28.67
370.264	12.29
370.474	22.53
370.685	32.77
370.896	75.77
371.107	114.69
371.317	32.77
371.528	-32.77
371.739	77.82
371.95	73.73
372.16	51.2
372.371	24.58
372.582	22.53
372.792	57.34
373.003	34.82
373.214	32.77
373.424	122.88
373.635	-18.43
373.846	43.01
374.056	65.54
374.267	12.29
374.477	0
374.688	65.54
374.898	24.58
375.109	126.97
375.319	79.87
375.53	108.54
375.74	59.39
375.951	77.82
376.161	98.3
376.372	65.54
376.582	12.29
376.793	79.87
377.003	22.53
377.214	32.77
377.424	88.06
377.635	53.25
377.845	-12.29
378.055	53.25
378.266	34.82
378.476	71.68
378.686	75.77
378.897	28.67
379.107	20.48
379.317	53.25
379.528	49.15
379.738	22.53
379.948	-2.05
380.158	55.3
380.369	6.14
380.579	83.97
380.789	63.49
380.999	65.54
381.21	43.01
381.42	120.83
381.63	47.1
381.84	-10.24
382.05	90.11
382.261	53.25
382.471	77.82
382.681	47.1
382.891	129.02
383.101	4.1
383.311	57.34
383.521	49.15
383.731	81.92
383.941	57.34
384.151	67.58
384.361	137.21
384.571	34.82
384.781	73.73
384.991	77.82
385.201	129.02
385.411	86.01
385.621	4.1
385.831	51.2
386.041	38.91
386.251	94.21
386.461	71.68
386.671	94.21
386.881	16.38
387.091	38.91
387.301	40.96
387.511	-6.14
387.72	157.69
387.93	22.53
388.14	55.3
388.35	61.44
388.56	57.34
388.769	73.73
388.979	51.2
389.189	22.53
389.399	10.24
389.609	98.3
389.818	14.34
390.028	8.19
390.238	108.54
390.447	83.97
390.657	108.54
390.867	81.92
391.076	98.3
391.286	24.58
391.496	96.25
391.705	36.86
391.915	96.25
392.125	122.88
392.334	67.58
392.544	104.45
392.753	4.1
392.963	43.01
393.172	69.63
393.382	77.82
393.591	120.83
393.801	40.96
394.01	96.25
394.22	106.49
394.429	36.86
394.639	63.49
394.848	110.59
395.058	120.83
395.267	73.73
395.477	34.82
395.686	126.97
395.895	118.78
396.105	116.73
396.314	73.73
396.524	69.63
396.733	12.29
396.942	153.6
397.152	96.25
397.361	86.01
397.57	122.88
397.78	67.58
397.989	61.44
398.198	116.73
398.407	118.78
398.617	8.19
398.826	94.21
399.035	139.26
399.244	90.11
399.453	122.88
399.663	137.21
399.872	26.62
400.081	8.19
400.29	151.55
400.499	53.25
400.708	102.4
400.917	145.41
401.127	135.17
401.336	53.25
401.545	186.37
401.754	104.45
401.963	161.79
402.172	59.39
402.381	53.25
402.59	63.49
402.799	104.45
403.008	86.01
403.217	102.4
403.426	133.12
403.635	159.74
403.844	163.84
404.053	141.31
404.262	92.16
404.471	182.27
404.68	196.61
404.888	139.26
405.097	108.54
405.306	106.49
405.515	198.65
405.724	141.31
405.933	165.89
406.142	169.98
406.35	178.17
406.559	143.36
406.768	104.45
406.977	245.76
407.185	210.94
407.394	206.84
407.603	143.36
407.812	212.99
408.02	276.48
408.229	174.08
408.438	225.28
408.646	229.37
408.855	178.17
409.064	233.47
409.272	227.32
409.481	301.05
409.69	272.38
409.898	321.53
410.107	339.96
410.315	360.44
410.524	239.61
410.733	323.58
410.941	272.38
411.15	331.77
411.358	256
411.567	356.35
411.775	268.28
411.984	397.31
412.192	460.79
412.401	409.59
412.609	403.45
412.818	389.11
413.026	380.92
413.234	542.71
413.443	432.12
413.651	454.65
413.86	507.9
414.068	569.34
414.276	563.19
414.485	567.29
414.693	638.97
414.901	585.72
415.11	686.07
415.318	632.82
415.526	618.49
415.734	694.26
415.943	722.93
416.151	745.46
416.359	712.69
416.567	692.21
416.776	821.24
416.984	856.05
417.192	870.39
417.4	741.36
417.608	937.97
417.817	952.31
418.025	1023.98
418.233	1046.51
418.441	952.31
418.649	1030.13
418.857	1132.53
419.065	1130.48
419.273	1204.21
419.481	1286.12
419.689	1230.83
419.897	1359.85
420.105	1423.34
420.313	1384.43
420.521	1431.53
420.729	1523.69
420.937	1480.68
421.145	1650.66
421.353	1544.17
421.561	1683.43
421.769	1865.7
421.977	1912.8
422.185	1984.48
422.393	1918.95
422.601	2021.35
422.809	2168.8
423.017	2181.09
423.224	2021.35
423.432	2205.66
423.64	2285.53
423.848	2508.76
424.056	2265.05
424.263	2600.92
424.471	2650.07
424.679	2576.34
424.887	2740.18
425.094	2717.65
425.302	2768.85
425.51	3020.75
425.718	3018.71
425.925	3137.49
426.133	3229.65
426.341	3420.11
426.548	3555.27
426.756	3573.71
426.964	3755.97
427.171	3807.17
427.379	3864.52
427.586	4085.7
427.794	4026.31
428.001	4186.05
428.209	4448.19
428.417	4466.62
428.624	4636.6
428.832	4636.6
429.039	4677.56
429.247	4657.08
429.454	5093.3
429.662	5384.11
429.869	5109.68
430.076	5451.69
430.284	5253.04
430.491	5566.38
430.699	5887.91
430.906	5791.66
431.114	5885.86
431.321	6240.16
431.528	6193.06
431.736	6584.22
431.943	6840.22
432.15	6563.74
432.358	6872.98
432.565	7169.94
432.772	7083.92
432.979	7649.16
433.187	7602.06
433.394	7731.08
433.601	8306.56
433.808	8255.36
434.016	8318.85
434.223	8785.79
434.43	8947.58
434.637	8953.72
434.844	9471.86
435.052	9639.79
435.259	9652.08
435.466	9789.29
435.673	9559.92
435.88	10260.32
436.087	10766.17
436.294	10794.84
436.501	10446.69
436.708	10854.23
436.915	11063.13
437.122	11528.02
437.329	11466.58
437.537	11687.76
437.743	12109.64
437.95	11874.12
438.157	12732.22
438.364	13080.38
438.571	13203.25
438.778	13127.48
438.985	14432.04
439.192	13956.91
439.399	14214.95
439.606	14049.07
439.813	14823.2
440.02	15660.82
440.227	15363.86
440.433	15138.59
440.64	15654.67
440.847	15453.97
441.054	15869.71
441.261	17245.94
441.467	16905.98
441.674	17159.93
441.881	17780.46
442.088	17688.31
442.294	17532.66
442.501	17778.42
442.708	18380.52
442.914	19134.17
443.121	19795.67
443.328	19093.21
443.534	20666.05
443.741	19971.79
443.948	19879.63
444.154	21544.63
444.361	21132.99
444.568	21364.41
444.774	21266.11
444.981	21466.81
445.187	22263.47
445.394	23404.19
445.6	22777.51
445.807	25165.44
446.013	23889.56
446.22	24874.63
446.426	25368.19
446.633	25321.09
446.839	26363.5
447.046	25173.63
447.252	26836.58
447.459	26859.11
447.665	26646.12
447.871	27625.05
448.078	28972.61
448.284	27561.56
448.491	28628.56
448.697	29632.06
448.903	29517.37
449.11	29830.71
449.316	29587
449.522	30238.26
449.728	30840.36
449.935	30930.47
450.141	30930.47
450.347	31665.69
450.553	30527.02
450.76	31315.49
450.966	32120.34
451.172	31688.22
451.378	32196.12
451.584	31817.24
451.791	32970.25
451.997	32122.39
452.203	33240.58
452.409	33060.36
452.615	32732.68
452.821	31557.15
453.027	31102.5
453.233	32744.97
453.44	31630.88
453.646	31673.88
453.852	31876.63
454.058	32519.7
454.264	31376.93
454.47	32171.54
454.676	31073.83
454.882	32470.54
455.088	29582.91
455.294	30041.65
455.5	30574.13
455.705	30746.15
455.911	29587
456.117	28753.48
456.323	28444.24
456.529	27070.05
456.735	28444.24
456.941	27297.38
457.147	26898.02
457.352	26103.41
457.558	25751.16
457.764	25896.56
457.97	25226.88
458.176	24981.12
458.381	24632.97
458.587	23674.52
458.793	23619.22
458.999	22423.21
459.204	24098.45
459.41	23238.3
459.616	22003.38
459.821	21896.88
460.027	21774
460.233	21458.62
460.438	20092.62
460.644	20694.72
460.85	19562.2
461.055	19156.7
461.261	19228.38
461.466	17737.46
461.672	17204.99
461.878	18456.29
462.083	17401.59
462.289	17114.87
462.494	16846.59
462.7	16305.93
462.905	15691.54
463.111	16250.63
463.316	16432.9
463.522	15740.69
463.727	15914.77
463.932	15834.89
464.138	15679.25
464.343	16051.98
464.549	15277.85
464.754	15949.58
464.959	16088.84
465.165	15466.26
465.37	15175.45
465.575	14675.74
465.781	15208.22
465.986	15316.76
466.191	14976.8
466.397	14518.05
466.602	13584.18
466.807	14247.72
467.012	14085.93
467.218	14212.9
467.423	14188.33
467.628	14337.83
467.833	14759.71
468.038	14233.38
468.244	13616.94
468.449	14229.29
