Data from USB4F104151__147__11-08-18-691.txt Node

Date: Wed Mar 12 11:08:18 EDT 2025
User: louis
Spectrometer: USB4F10415
Trigger mode: 4
Integration Time (sec): 2.000000E-2
Scans to average: 1
Electric dark correction enabled: true
Nonlinearity correction enabled: false
Boxcar width: 0
XAxis mode: Wavelengths
Number of Pixels in Spectrum: 3648
>>>>>Begin Spectral Data<<<<<
178.204	-26.62
178.424	-26.62
178.644	-26.62
178.864	-75.77
179.084	-36.86
179.304	-22.53
179.524	24.58
179.744	-40.96
179.964	55.3
180.184	34.82
180.404	75.77
180.624	-12.29
180.844	-28.67
181.064	-26.62
181.283	-32.77
181.503	-14.34
181.723	-12.29
181.943	-45.06
182.163	86.01
182.383	-26.62
182.602	59.39
182.822	90.11
183.042	-18.43
183.262	28.67
183.482	16.38
183.701	45.06
183.921	-77.82
184.141	2.05
184.361	53.25
184.58	47.1
184.8	20.48
185.02	-16.38
185.239	36.86
185.459	81.92
185.679	22.53
185.898	-55.3
186.118	116.73
186.338	-40.96
186.557	6.14
186.777	30.72
186.997	67.58
187.216	43.01
187.436	98.3
187.655	49.15
187.875	75.77
188.095	110.59
188.314	71.68
188.534	14.34
188.753	-6.14
188.973	16.38
189.192	-6.14
189.412	43.01
189.631	32.77
189.851	2.05
190.07	20.48
190.29	24.58
190.509	81.92
190.729	61.44
190.948	69.63
191.168	81.92
191.387	-32.77
191.607	26.62
191.826	61.44
192.045	6.14
192.265	88.06
192.484	26.62
192.704	65.54
192.923	88.06
193.142	159.74
193.362	36.86
193.581	43.01
193.8	16.38
194.02	34.82
194.239	-75.77
194.458	71.68
194.678	0
194.897	77.82
195.116	77.82
195.335	61.44
195.555	90.11
195.774	30.72
195.993	-8.19
196.212	-8.19
196.432	22.53
196.651	65.54
196.87	-24.58
197.089	34.82
197.308	8.19
197.528	30.72
197.747	-26.62
197.966	-12.29
198.185	22.53
198.404	47.1
198.623	18.43
198.842	49.15
199.062	79.87
199.281	49.15
199.5	40.96
199.719	71.68
199.938	73.73
200.157	32.77
200.376	69.63
200.595	104.45
200.814	73.73
201.033	4.1
201.252	40.96
201.471	49.15
201.69	86.01
201.909	30.72
202.128	-6.14
202.347	63.49
202.566	-4.1
202.785	-14.34
203.004	4.1
203.223	90.11
203.442	53.25
203.661	4.1
203.879	104.45
204.098	69.63
204.317	26.62
204.536	34.82
204.755	6.14
204.974	14.34
205.193	-18.43
205.411	157.69
205.63	77.82
205.849	4.1
206.068	81.92
206.287	59.39
206.505	75.77
206.724	81.92
206.943	-18.43
207.162	75.77
207.381	-26.62
207.599	8.19
207.818	-45.06
208.037	43.01
208.255	30.72
208.474	49.15
208.693	67.58
208.911	61.44
209.13	122.88
209.349	92.16
209.567	92.16
209.786	32.77
210.005	47.1
210.223	8.19
210.442	-16.38
210.661	-10.24
210.879	32.77
211.098	-2.05
211.316	26.62
211.535	28.67
211.753	16.38
211.972	24.58
212.191	-12.29
212.409	77.82
212.628	38.91
212.846	40.96
213.065	83.97
213.283	57.34
213.502	-20.48
213.72	53.25
213.938	-6.14
214.157	22.53
214.375	75.77
214.594	20.48
214.812	24.58
215.031	-61.44
215.249	-32.77
215.467	81.92
215.686	10.24
215.904	-6.14
216.122	86.01
216.341	65.54
216.559	49.15
216.778	4.1
216.996	14.34
217.214	6.14
217.432	-34.82
217.651	-16.38
217.869	-20.48
218.087	102.4
218.306	49.15
218.524	22.53
218.742	-34.82
218.96	67.58
219.179	32.77
219.397	104.45
219.615	34.82
219.833	32.77
220.051	-24.58
220.27	0
220.488	-8.19
220.706	14.34
220.924	16.38
221.142	-28.67
221.36	20.48
221.578	-6.14
221.796	24.58
222.015	98.3
222.233	34.82
222.451	40.96
222.669	-51.2
222.887	75.77
223.105	34.82
223.323	28.67
223.541	-34.82
223.759	-4.1
223.977	16.38
224.195	65.54
224.413	36.86
224.631	14.34
224.849	-6.14
225.067	71.68
225.285	-10.24
225.503	61.44
225.721	65.54
225.939	38.91
226.157	59.39
226.375	90.11
226.592	-71.68
226.81	61.44
227.028	30.72
227.246	86.01
227.464	6.14
227.682	67.58
227.9	36.86
228.117	83.97
228.335	69.63
228.553	-20.48
228.771	12.29
228.989	63.49
229.206	16.38
229.424	-14.34
229.642	-40.96
229.86	-16.38
230.077	94.21
230.295	-45.06
230.513	65.54
230.731	0
230.948	63.49
231.166	65.54
231.384	18.43
231.601	-16.38
231.819	26.62
232.037	32.77
232.254	-40.96
232.472	75.77
232.689	28.67
232.907	49.15
233.125	-26.62
233.342	57.34
233.56	-36.86
233.777	12.29
233.995	45.06
234.213	-12.29
234.43	-63.49
234.648	14.34
234.865	-20.48
235.083	22.53
235.3	81.92
235.518	71.68
235.735	59.39
235.953	-2.05
236.17	-24.58
236.388	-12.29
236.605	26.62
236.822	-4.1
237.04	40.96
237.257	69.63
237.475	-8.19
237.692	18.43
237.909	8.19
238.127	86.01
238.344	-6.14
238.562	45.06
238.779	10.24
238.996	4.1
239.214	24.58
239.431	8.19
239.648	20.48
239.865	0
240.083	20.48
240.3	10.24
240.517	34.82
240.735	71.68
240.952	73.73
241.169	16.38
241.386	45.06
241.603	98.3
241.821	22.53
242.038	149.5
242.255	49.15
242.472	65.54
242.689	34.82
242.907	63.49
243.124	69.63
243.341	49.15
243.558	-69.63
243.775	-26.62
243.992	-14.34
244.209	18.43
244.426	45.06
244.643	69.63
244.86	65.54
245.078	22.53
245.295	-22.53
245.512	77.82
245.729	4.1
245.946	63.49
246.163	83.97
246.38	32.77
246.597	88.06
246.814	24.58
247.031	34.82
247.248	-8.19
247.464	55.3
247.681	-51.2
247.898	-8.19
248.115	47.1
248.332	16.38
248.549	57.34
248.766	-20.48
248.983	40.96
249.2	61.44
249.417	63.49
249.633	4.1
249.85	75.77
250.067	-30.72
250.284	79.87
250.501	63.49
250.717	26.62
250.934	12.29
251.151	65.54
251.368	59.39
251.585	79.87
251.801	4.1
252.018	-14.34
252.235	43.01
252.451	43.01
252.668	8.19
252.885	34.82
253.102	83.97
253.318	49.15
253.535	4.1
253.752	49.15
253.968	45.06
254.185	-34.82
254.401	26.62
254.618	43.01
254.835	-47.1
255.051	8.19
255.268	22.53
255.484	6.14
255.701	14.34
255.917	28.67
256.134	36.86
256.351	-47.1
256.567	-2.05
256.784	0
257	24.58
257.217	59.39
257.433	112.64
257.65	4.1
257.866	22.53
258.082	-30.72
258.299	-4.1
258.515	36.86
258.732	-24.58
258.948	26.62
259.165	43.01
259.381	8.19
259.597	65.54
259.814	10.24
260.03	-16.38
260.246	-14.34
260.463	77.82
260.679	4.1
260.895	49.15
261.112	67.58
261.328	-4.1
261.544	-12.29
261.761	-8.19
261.977	77.82
262.193	2.05
262.409	114.69
262.626	47.1
262.842	32.77
263.058	-4.1
263.274	61.44
263.49	36.86
263.707	-4.1
263.923	77.82
264.139	16.38
264.355	47.1
264.571	57.34
264.787	59.39
265.004	40.96
265.22	55.3
265.436	65.54
265.652	38.91
265.868	61.44
266.084	-43.01
266.3	49.15
266.516	90.11
266.732	43.01
266.948	83.97
267.164	-10.24
267.38	32.77
267.596	63.49
267.812	18.43
268.028	40.96
268.244	6.14
268.46	40.96
268.676	-18.43
268.892	108.54
269.108	12.29
269.324	10.24
269.54	6.14
269.756	36.86
269.972	51.2
270.188	77.82
270.403	-36.86
270.619	49.15
270.835	-26.62
271.051	73.73
271.267	57.34
271.483	43.01
271.698	8.19
271.914	2.05
272.13	22.53
272.346	98.3
272.562	34.82
272.777	81.92
272.993	10.24
273.209	83.97
273.425	2.05
273.64	86.01
273.856	28.67
274.072	2.05
274.287	-24.58
274.503	73.73
274.719	55.3
274.934	124.93
275.15	0
275.366	51.2
275.581	92.16
275.797	-40.96
276.012	-63.49
276.228	43.01
276.444	40.96
276.659	61.44
276.875	32.77
277.09	59.39
277.306	-16.38
277.521	47.1
277.737	45.06
277.952	77.82
278.168	-73.73
278.383	-18.43
278.599	86.01
278.814	-12.29
279.03	45.06
279.245	83.97
279.461	38.91
279.676	59.39
279.892	69.63
280.107	28.67
280.322	51.2
280.538	-73.73
280.753	32.77
280.969	88.06
281.184	0
281.399	32.77
281.615	8.19
281.83	-8.19
282.045	4.1
282.26	-12.29
282.476	-14.34
282.691	141.31
282.906	36.86
283.122	75.77
283.337	53.25
283.552	47.1
283.767	-18.43
283.983	22.53
284.198	18.43
284.413	38.91
284.628	49.15
284.843	24.58
285.058	81.92
285.274	10.24
285.489	57.34
285.704	38.91
285.919	30.72
286.134	4.1
286.349	14.34
286.564	71.68
286.779	75.77
286.995	63.49
287.21	4.1
287.425	122.88
287.64	-32.77
287.855	32.77
288.07	47.1
288.285	63.49
288.5	34.82
288.715	77.82
288.93	12.29
289.145	57.34
289.36	102.4
289.575	30.72
289.79	73.73
290.004	-10.24
290.219	4.1
290.434	98.3
290.649	8.19
290.864	-51.2
291.079	83.97
291.294	-18.43
291.509	47.1
291.724	-20.48
291.938	16.38
292.153	49.15
292.368	2.05
292.583	92.16
292.798	38.91
293.012	12.29
293.227	53.25
293.442	38.91
293.657	75.77
293.871	-6.14
294.086	10.24
294.301	112.64
294.516	61.44
294.73	75.77
294.945	43.01
295.16	43.01
295.374	94.21
295.589	14.34
295.804	47.1
296.018	57.34
296.233	55.3
296.447	14.34
296.662	-10.24
296.877	75.77
297.091	79.87
297.306	34.82
297.52	53.25
297.735	8.19
297.949	73.73
298.164	24.58
298.378	47.1
298.593	30.72
298.807	24.58
299.022	86.01
299.236	137.21
299.451	61.44
299.665	36.86
299.88	88.06
300.094	10.24
300.309	-2.05
300.523	102.4
300.737	71.68
300.952	26.62
301.166	0
301.381	63.49
301.595	-24.58
301.809	55.3
302.024	-20.48
302.238	-26.62
302.452	92.16
302.667	8.19
302.881	65.54
303.095	55.3
303.309	40.96
303.524	73.73
303.738	-22.53
303.952	49.15
304.166	20.48
304.381	63.49
304.595	92.16
304.809	57.34
305.023	65.54
305.237	38.91
305.452	12.29
305.666	59.39
305.88	16.38
306.094	26.62
306.308	73.73
306.522	47.1
306.736	90.11
306.95	88.06
307.164	88.06
307.379	-10.24
307.593	47.1
307.807	32.77
308.021	30.72
308.235	32.77
308.449	14.34
308.663	-73.73
308.877	104.45
309.091	28.67
309.305	-38.91
309.519	-32.77
309.733	-10.24
309.947	-43.01
310.161	77.82
310.374	32.77
310.588	43.01
310.802	12.29
311.016	43.01
311.23	32.77
311.444	34.82
311.658	14.34
311.872	36.86
312.085	8.19
312.299	45.06
312.513	14.34
312.727	-55.3
312.941	77.82
313.154	12.29
313.368	-8.19
313.582	79.87
313.796	45.06
314.009	4.1
314.223	51.2
314.437	36.86
314.651	26.62
314.864	61.44
315.078	6.14
315.292	-24.58
315.505	-18.43
315.719	-6.14
315.933	47.1
316.146	63.49
316.36	-34.82
316.573	73.73
316.787	36.86
317.001	43.01
317.214	100.35
317.428	90.11
317.641	-2.05
317.855	30.72
318.068	55.3
318.282	38.91
318.495	129.02
318.709	77.82
318.922	24.58
319.136	55.3
319.349	57.34
319.563	12.29
319.776	-16.38
319.99	83.97
320.203	-4.1
320.417	-40.96
320.63	53.25
320.843	83.97
321.057	-6.14
321.27	63.49
321.483	-24.58
321.697	59.39
321.91	26.62
322.124	-8.19
322.337	18.43
322.55	22.53
322.763	106.49
322.977	36.86
323.19	0
323.403	18.43
323.617	4.1
323.83	34.82
324.043	71.68
324.256	49.15
324.469	55.3
324.683	81.92
324.896	-14.34
325.109	30.72
325.322	36.86
325.535	69.63
325.748	69.63
325.962	57.34
326.175	59.39
326.388	59.39
326.601	45.06
326.814	-10.24
327.027	106.49
327.24	-22.53
327.453	-16.38
327.666	40.96
327.879	-20.48
328.092	51.2
328.305	12.29
328.518	71.68
328.731	-26.62
328.944	14.34
329.157	53.25
329.37	53.25
329.583	104.45
329.796	118.78
330.009	-81.92
330.222	45.06
330.435	86.01
330.648	102.4
330.861	86.01
331.073	36.86
331.286	73.73
331.499	-26.62
331.712	26.62
331.925	0
332.138	-40.96
332.35	14.34
332.563	57.34
332.776	26.62
332.989	-18.43
333.202	43.01
333.414	67.58
333.627	-14.34
333.84	45.06
334.053	28.67
334.265	53.25
334.478	8.19
334.691	73.73
334.903	67.58
335.116	22.53
335.329	104.45
335.541	49.15
335.754	88.06
335.966	38.91
336.179	4.1
336.392	30.72
336.604	18.43
336.817	-6.14
337.029	51.2
337.242	43.01
337.454	53.25
337.667	24.58
337.88	49.15
338.092	38.91
338.305	34.82
338.517	90.11
338.729	79.87
338.942	-24.58
339.154	59.39
339.367	28.67
339.579	55.3
339.792	24.58
340.004	96.25
340.217	8.19
340.429	47.1
340.641	47.1
340.854	28.67
341.066	22.53
341.278	30.72
341.491	116.73
341.703	32.77
341.915	-14.34
342.128	8.19
342.34	65.54
342.552	-18.43
342.764	81.92
342.977	-34.82
343.189	40.96
343.401	96.25
343.613	-55.3
343.826	16.38
344.038	22.53
344.25	79.87
344.462	47.1
344.674	57.34
344.886	28.67
345.099	83.97
345.311	98.3
345.523	75.77
345.735	-18.43
345.947	57.34
346.159	106.49
346.371	36.86
346.583	61.44
346.795	153.6
347.007	73.73
347.219	94.21
347.431	30.72
347.643	83.97
347.855	55.3
348.067	92.16
348.279	24.58
348.491	77.82
348.703	26.62
348.915	14.34
349.127	176.13
349.339	145.41
349.551	30.72
349.763	28.67
349.975	88.06
350.187	86.01
350.399	55.3
350.61	20.48
350.822	63.49
351.034	6.14
351.246	22.53
351.458	81.92
351.669	0
351.881	112.64
352.093	98.3
352.305	28.67
352.517	14.34
352.728	75.77
352.94	51.2
353.152	57.34
353.363	20.48
353.575	55.3
353.787	4.1
353.999	79.87
354.21	47.1
354.422	0
354.633	-20.48
354.845	98.3
355.057	16.38
355.268	24.58
355.48	-28.67
355.692	81.92
355.903	90.11
356.115	8.19
356.326	2.05
356.538	79.87
356.749	30.72
356.961	92.16
357.172	47.1
357.384	-14.34
357.595	83.97
357.807	104.45
358.018	16.38
358.23	18.43
358.441	47.1
358.653	81.92
358.864	90.11
359.075	57.34
359.287	90.11
359.498	73.73
359.709	51.2
359.921	10.24
360.132	131.07
360.344	63.49
360.555	71.68
360.766	47.1
360.977	55.3
361.189	98.3
361.4	65.54
361.611	71.68
361.823	57.34
362.034	59.39
362.245	47.1
362.456	14.34
362.667	61.44
362.879	-30.72
363.09	-2.05
363.301	51.2
363.512	45.06
363.723	20.48
363.935	14.34
364.146	86.01
364.357	-51.2
364.568	59.39
364.779	32.77
364.99	53.25
365.201	22.53
365.412	112.64
365.623	22.53
365.834	16.38
366.045	55.3
366.256	22.53
366.467	83.97
366.678	63.49
366.889	40.96
367.1	83.97
367.311	92.16
367.522	-10.24
367.733	122.88
367.944	55.3
368.155	30.72
368.366	55.3
368.577	40.96
368.788	32.77
368.999	65.54
369.209	75.77
369.42	161.79
369.631	120.83
369.842	77.82
370.053	34.82
370.264	88.06
370.474	47.1
370.685	73.73
370.896	81.92
371.107	55.3
371.317	57.34
371.528	65.54
371.739	143.36
371.95	40.96
372.16	71.68
372.371	30.72
372.582	32.77
372.792	8.19
373.003	34.82
373.214	77.82
373.424	57.34
373.635	-20.48
373.846	20.48
374.056	75.77
374.267	47.1
374.477	88.06
374.688	122.88
374.898	24.58
375.109	100.35
375.319	-8.19
375.53	143.36
375.74	73.73
375.951	96.25
376.161	86.01
376.372	98.3
376.582	51.2
376.793	57.34
377.003	0
377.214	71.68
377.424	55.3
377.635	49.15
377.845	36.86
378.055	98.3
378.266	88.06
378.476	55.3
378.686	114.69
378.897	77.82
379.107	38.91
379.317	129.02
379.528	40.96
379.738	61.44
379.948	0
380.158	73.73
380.369	102.4
380.579	102.4
380.789	-43.01
380.999	45.06
381.21	55.3
381.42	92.16
381.63	-8.19
381.84	71.68
382.05	153.6
382.261	57.34
382.471	40.96
382.681	106.49
382.891	73.73
383.101	63.49
383.311	8.19
383.521	65.54
383.731	145.41
383.941	51.2
384.151	45.06
384.361	100.35
384.571	155.65
384.781	43.01
384.991	49.15
385.201	161.79
385.411	92.16
385.621	65.54
385.831	73.73
386.041	-12.29
386.251	118.78
386.461	92.16
386.671	65.54
386.881	38.91
387.091	49.15
387.301	108.54
387.511	2.05
387.72	73.73
387.93	12.29
388.14	14.34
388.35	26.62
388.56	65.54
388.769	12.29
388.979	116.73
389.189	-34.82
389.399	106.49
389.609	88.06
389.818	53.25
390.028	-18.43
390.238	86.01
390.447	63.49
390.657	83.97
390.867	75.77
391.076	28.67
391.286	69.63
391.496	106.49
391.705	98.3
391.915	88.06
392.125	163.84
392.334	102.4
392.544	79.87
392.753	94.21
392.963	102.4
393.172	77.82
393.382	36.86
393.591	57.34
393.801	53.25
394.01	112.64
394.22	137.21
394.429	110.59
394.639	92.16
394.848	106.49
395.058	69.63
395.267	28.67
395.477	90.11
395.686	139.26
395.895	77.82
396.105	163.84
396.314	114.69
396.524	43.01
396.733	26.62
396.942	131.07
397.152	112.64
397.361	65.54
397.57	129.02
397.78	126.97
397.989	184.32
398.198	178.17
398.407	47.1
398.617	81.92
398.826	40.96
399.035	36.86
399.244	24.58
399.453	32.77
399.663	30.72
399.872	67.58
400.081	81.92
400.29	178.17
400.499	69.63
400.708	102.4
400.917	88.06
401.127	108.54
401.336	8.19
401.545	182.27
401.754	71.68
401.963	167.93
402.172	118.78
402.381	180.22
402.59	67.58
402.799	149.5
403.008	94.21
403.217	108.54
403.426	86.01
403.635	45.06
403.844	47.1
404.053	169.98
404.262	67.58
404.471	161.79
404.68	153.6
404.888	143.36
405.097	75.77
405.306	124.93
405.515	129.02
405.724	165.89
405.933	151.55
406.142	112.64
406.35	135.17
406.559	163.84
406.768	235.52
406.977	208.89
407.185	161.79
407.394	159.74
407.603	104.45
407.812	208.89
408.02	192.51
408.229	221.18
408.438	219.13
408.646	249.85
408.855	237.56
409.064	262.14
409.272	260.09
409.481	217.08
409.69	278.52
409.898	256
410.107	233.47
410.315	307.2
410.524	272.38
410.733	307.2
410.941	399.35
411.15	249.85
411.358	362.49
411.567	423.93
411.775	466.94
411.984	292.86
412.192	466.94
412.401	425.98
412.609	440.31
412.818	538.62
413.026	403.45
413.234	366.59
413.443	528.38
413.651	428.03
413.86	516.09
414.068	546.81
414.276	563.19
414.485	548.86
414.693	542.71
414.901	667.64
415.11	681.97
415.318	653.3
415.526	708.6
415.734	688.12
415.943	679.93
416.151	712.69
416.359	823.28
416.567	811
416.776	858.1
416.984	835.57
417.192	909.3
417.4	841.72
417.608	935.92
417.817	980.98
418.025	1007.6
418.233	1036.27
418.441	1036.27
418.649	1097.71
418.857	1122.29
419.065	1202.16
419.273	1200.11
419.481	1116.14
419.689	1251.31
419.897	1361.9
420.105	1406.95
420.313	1433.58
420.521	1542.12
420.729	1509.35
420.937	1556.46
421.145	1509.35
421.353	1746.92
421.561	1857.51
421.769	1783.78
421.977	1873.89
422.185	1912.8
422.393	1974.24
422.601	2052.06
422.809	2064.35
423.017	2189.28
423.224	2215.9
423.432	2224.09
423.64	2281.44
423.848	2617.3
424.056	2408.41
424.263	2541.53
424.471	2527.19
424.679	2676.7
424.887	2731.99
425.094	2938.84
425.302	2815.96
425.51	3037.14
425.718	3053.52
425.925	3188.69
426.133	3276.75
426.341	3389.39
426.548	3626.95
426.756	3616.71
426.964	3672.01
427.171	3854.28
427.379	3880.9
427.586	3954.63
427.794	4087.75
428.001	4157.38
428.209	4421.56
428.417	4323.26
428.624	4726.71
428.832	4755.38
429.039	4624.31
429.247	4677.56
429.454	5019.57
429.662	5568.43
429.869	5142.45
430.076	5494.7
430.284	5212.08
430.491	5722.02
430.699	5857.19
430.906	5973.92
431.114	5930.92
431.321	6133.67
431.528	6332.32
431.736	6635.42
431.943	6897.56
432.15	6748.06
432.358	6762.39
432.565	7231.38
432.772	7380.88
432.979	7739.27
433.187	7806.86
433.394	7919.5
433.601	8169.35
433.808	8484.73
434.016	8185.73
434.223	8607.61
434.43	9027.45
434.637	8898.42
434.844	9553.77
435.052	9516.91
435.259	9478
435.466	9914.22
435.673	9576.3
435.88	10227.56
436.087	10651.49
436.294	10803.04
436.501	10588
436.708	10825.56
436.915	10936.15
437.122	11611.98
437.329	11501.39
437.537	12087.11
437.743	12175.17
437.95	12095.3
438.157	12486.47
438.364	12947.26
438.571	12633.92
438.778	13168.44
438.985	14274.34
439.192	13668.14
439.399	14067.5
439.606	13928.24
439.813	14847.77
440.02	15787.79
440.227	15267.61
440.433	15212.31
440.64	15767.31
440.847	15814.41
441.054	15974.16
441.261	16987.9
441.467	16752.38
441.674	17135.35
441.881	17551.09
442.088	17610.48
442.294	17624.82
442.501	17805.04
442.708	18374.38
442.914	19267.29
443.121	19820.24
443.328	19136.22
443.534	20547.27
443.741	20258.51
443.948	20088.53
444.154	21272.25
444.361	21069.5
444.568	21384.89
444.774	21366.46
444.981	21837.49
445.187	22077.1
445.394	23111.33
445.6	22834.85
445.807	25063.04
446.013	24129.17
446.22	23934.61
446.426	25106.05
446.633	25366.14
446.839	26343.02
447.046	25298.56
447.252	26639.98
447.459	26560.11
447.665	26494.57
447.871	27569.76
448.078	28507.72
448.284	27287.14
448.491	28100.18
448.697	29290.05
448.903	29648.44
449.11	29621.82
449.316	29210.18
449.522	29832.76
449.728	30733.87
449.935	30907.94
450.141	30846.51
450.347	31432.22
450.553	30395.95
450.76	30584.37
450.966	31729.18
451.172	31309.35
451.378	32261.65
451.584	31626.78
451.791	32173.59
451.997	31981.08
452.203	32742.92
452.409	32720.4
452.615	32556.56
452.821	31399.46
453.027	30832.17
453.233	32650.77
453.44	30922.28
453.646	31405.6
453.852	31514.14
454.058	32048.66
454.264	30969.38
454.47	31735.32
454.676	31122.98
454.882	31942.17
455.088	29009.48
455.294	29691.45
455.5	30037.56
455.705	30361.14
455.911	29597.24
456.117	28155.47
456.323	28134.99
456.529	26551.91
456.735	27864.66
456.941	27008.61
457.147	26674.79
457.352	25810.55
457.558	25806.45
457.764	25448.06
457.97	24958.6
458.176	24635.02
458.381	24243.85
458.587	23269.02
458.793	23189.15
458.999	22027.95
459.204	23674.52
459.41	22965.92
459.616	21249.72
459.821	21169.85
460.027	21241.53
460.233	20876.99
460.438	20027.09
460.644	20147.92
460.85	19162.84
461.055	19015.39
461.261	19082.97
461.466	17639.15
461.672	16996.09
461.878	18091.76
462.083	16897.79
462.289	16711.42
462.494	16574.21
462.7	16076.55
462.905	15425.3
463.111	15871.76
463.316	16008.97
463.522	15890.19
463.727	15556.37
463.932	15613.71
464.138	15712.02
464.343	15589.14
464.549	15087.39
464.754	15685.39
464.959	15466.26
465.165	15245.08
465.37	14679.84
465.575	14415.65
465.781	14831.39
465.986	15042.33
466.191	14780.19
466.397	14200.62
466.602	13610.8
466.807	14118.7
467.012	13977.39
467.218	13920.04
467.423	13778.73
467.628	13680.43
467.833	14288.68
468.038	13864.75
468.244	13186.87
468.449	13997.87
