Data from USB4F104151__237__11-11-17-052.txt Node

Date: Wed Mar 12 11:11:17 EDT 2025
User: louis
Spectrometer: USB4F10415
Trigger mode: 4
Integration Time (sec): 2.000000E-2
Scans to average: 1
Electric dark correction enabled: true
Nonlinearity correction enabled: false
Boxcar width: 0
XAxis mode: Wavelengths
Number of Pixels in Spectrum: 3648
>>>>>Begin Spectral Data<<<<<
178.204	-119.81
178.424	-119.81
178.644	-119.81
178.864	-56.32
179.084	-82.94
179.304	21.5
179.524	1.02
179.744	89.09
179.964	-5.12
180.184	-7.17
180.404	-56.32
180.624	17.41
180.844	19.46
181.064	-37.89
181.283	-21.5
181.503	1.02
181.723	-21.5
181.943	-44.03
182.163	37.89
182.383	46.08
182.602	29.7
182.822	33.79
183.042	136.19
183.262	15.36
183.482	56.32
183.701	84.99
183.921	-50.18
184.141	-27.65
184.361	-13.31
184.58	27.65
184.8	52.22
185.02	35.84
185.239	-19.46
185.459	-15.36
185.679	7.17
185.898	-15.36
186.118	3.07
186.338	-25.6
186.557	56.32
186.777	-1.02
186.997	50.18
187.216	-9.22
187.436	29.7
187.655	25.6
187.875	19.46
188.095	7.17
188.314	21.5
188.534	31.74
188.753	15.36
188.973	-1.02
189.192	-29.7
189.412	44.03
189.631	78.85
189.851	15.36
190.07	1.02
190.29	-19.46
190.509	33.79
190.729	29.7
190.948	31.74
191.168	37.89
191.387	17.41
191.607	72.7
191.826	-17.41
192.045	33.79
192.265	7.17
192.484	56.32
192.704	64.51
192.923	46.08
193.142	44.03
193.362	23.55
193.581	50.18
193.8	-21.5
194.02	-9.22
194.239	-9.22
194.458	21.5
194.678	7.17
194.897	25.6
195.116	3.07
195.335	-19.46
195.555	-21.5
195.774	-5.12
195.993	29.7
196.212	23.55
196.432	66.56
196.651	50.18
196.87	52.22
197.089	125.95
197.308	29.7
197.528	74.75
197.747	17.41
197.966	1.02
198.185	11.26
198.404	-3.07
198.623	132.09
198.842	46.08
199.062	46.08
199.281	17.41
199.5	44.03
199.719	41.98
199.938	60.42
200.157	48.13
200.376	15.36
200.595	44.03
200.814	54.27
201.033	27.65
201.252	-37.89
201.471	-56.32
201.69	41.98
201.909	72.7
202.128	-3.07
202.347	5.12
202.566	44.03
202.785	1.02
203.004	37.89
203.223	78.85
203.442	33.79
203.661	13.31
203.879	11.26
204.098	64.51
204.317	-11.26
204.536	21.5
204.755	-60.42
204.974	48.13
205.193	-35.84
205.411	113.66
205.63	-27.65
205.849	25.6
206.068	-3.07
206.287	11.26
206.505	68.61
206.724	5.12
206.943	7.17
207.162	46.08
207.381	11.26
207.599	-3.07
207.818	-5.12
208.037	78.85
208.255	68.61
208.474	1.02
208.693	-74.75
208.911	-1.02
209.13	3.07
209.349	48.13
209.567	95.23
209.786	46.08
210.005	11.26
210.223	-3.07
210.442	21.5
210.661	-11.26
210.879	29.7
211.098	46.08
211.316	-15.36
211.535	27.65
211.753	3.07
211.972	62.46
212.191	-19.46
212.409	17.41
212.628	3.07
212.846	46.08
213.065	-21.5
213.283	119.81
213.502	68.61
213.72	25.6
213.938	58.37
214.157	1.02
214.375	41.98
214.594	1.02
214.812	48.13
215.031	11.26
215.249	33.79
215.467	-1.02
215.686	5.12
215.904	56.32
216.122	19.46
216.341	60.42
216.559	33.79
216.778	111.61
216.996	82.94
217.214	41.98
217.432	68.61
217.651	115.71
217.869	-11.26
218.087	58.37
218.306	-7.17
218.524	-76.8
218.742	56.32
218.96	-27.65
219.179	41.98
219.397	50.18
219.615	37.89
219.833	7.17
220.051	-25.6
220.27	60.42
220.488	66.56
220.706	25.6
220.924	41.98
221.142	5.12
221.36	-29.7
221.578	9.22
221.796	-3.07
222.015	52.22
222.233	-25.6
222.451	52.22
222.669	31.74
222.887	60.42
223.105	-7.17
223.323	52.22
223.541	13.31
223.759	9.22
223.977	74.75
224.195	21.5
224.413	58.37
224.631	-25.6
224.849	89.09
225.067	39.94
225.285	72.7
225.503	78.85
225.721	-54.27
225.939	29.7
226.157	56.32
226.375	66.56
226.592	70.65
226.81	13.31
227.028	64.51
227.246	-3.07
227.464	-15.36
227.682	66.56
227.9	-39.94
228.117	19.46
228.335	-3.07
228.553	7.17
228.771	48.13
228.989	15.36
229.206	41.98
229.424	66.56
229.642	35.84
229.86	17.41
230.077	48.13
230.295	7.17
230.513	52.22
230.731	66.56
230.948	39.94
231.166	87.04
231.384	46.08
231.601	-15.36
231.819	84.99
232.037	-15.36
232.254	105.47
232.472	-3.07
232.689	52.22
232.907	37.89
233.125	-41.98
233.342	39.94
233.56	-52.22
233.777	-37.89
233.995	-62.46
234.213	87.04
234.43	13.31
234.648	13.31
234.865	-35.84
235.083	70.65
235.3	1.02
235.518	5.12
235.735	82.94
235.953	29.7
236.17	9.22
236.388	31.74
236.605	31.74
236.822	78.85
237.04	52.22
237.257	-13.31
237.475	-1.02
237.692	33.79
237.909	68.61
238.127	29.7
238.344	21.5
238.562	25.6
238.779	44.03
238.996	-17.41
239.214	74.75
239.431	33.79
239.648	17.41
239.865	35.84
240.083	44.03
240.3	31.74
240.517	25.6
240.735	107.52
240.952	19.46
241.169	62.46
241.386	66.56
241.603	93.18
241.821	9.22
242.038	82.94
242.255	15.36
242.472	82.94
242.689	101.37
242.907	52.22
243.124	-21.5
243.341	17.41
243.558	13.31
243.775	27.65
243.992	1.02
244.209	25.6
244.426	64.51
244.643	15.36
244.86	17.41
245.078	37.89
245.295	80.89
245.512	13.31
245.729	-54.27
245.946	64.51
246.163	44.03
246.38	19.46
246.597	23.55
246.814	-9.22
247.031	35.84
247.248	25.6
247.464	33.79
247.681	21.5
247.898	-1.02
248.115	107.52
248.332	56.32
248.549	1.02
248.766	-15.36
248.983	1.02
249.2	62.46
249.417	46.08
249.633	50.18
249.85	27.65
250.067	62.46
250.284	21.5
250.501	50.18
250.717	35.84
250.934	-35.84
251.151	19.46
251.368	7.17
251.585	78.85
251.801	27.65
252.018	21.5
252.235	66.56
252.451	-21.5
252.668	-41.98
252.885	60.42
253.102	-1.02
253.318	-50.18
253.535	-23.55
253.752	46.08
253.968	31.74
254.185	19.46
254.401	58.37
254.618	-11.26
254.835	41.98
255.051	113.66
255.268	44.03
255.484	1.02
255.701	-19.46
255.917	13.31
256.134	46.08
256.351	-56.32
256.567	46.08
256.784	17.41
257	3.07
257.217	62.46
257.433	72.7
257.65	35.84
257.866	76.8
258.082	-7.17
258.299	74.75
258.515	41.98
258.732	15.36
258.948	-50.18
259.165	68.61
259.381	58.37
259.597	7.17
259.814	19.46
260.03	-62.46
260.246	-48.13
260.463	-3.07
260.679	1.02
260.895	9.22
261.112	19.46
261.328	39.94
261.544	-19.46
261.761	95.23
261.977	23.55
262.193	33.79
262.409	5.12
262.626	13.31
262.842	25.6
263.058	-11.26
263.274	-3.07
263.49	3.07
263.707	101.37
263.923	62.46
264.139	7.17
264.355	7.17
264.571	21.5
264.787	46.08
265.004	78.85
265.22	23.55
265.436	109.57
265.652	11.26
265.868	15.36
266.084	46.08
266.3	-5.12
266.516	-25.6
266.732	9.22
266.948	41.98
267.164	-54.27
267.38	17.41
267.596	41.98
267.812	54.27
268.028	80.89
268.244	19.46
268.46	72.7
268.676	44.03
268.892	7.17
269.108	-76.8
269.324	15.36
269.54	-23.55
269.756	103.42
269.972	-5.12
270.188	70.65
270.403	58.37
270.619	15.36
270.835	13.31
271.051	31.74
271.267	70.65
271.483	29.7
271.698	33.79
271.914	25.6
272.13	-7.17
272.346	19.46
272.562	89.09
272.777	-9.22
272.993	117.76
273.209	9.22
273.425	-39.94
273.64	13.31
273.856	-33.79
274.072	-15.36
274.287	9.22
274.503	-9.22
274.719	101.37
274.934	39.94
275.15	-54.27
275.366	-31.74
275.581	-17.41
275.797	23.55
276.012	60.42
276.228	37.89
276.444	13.31
276.659	44.03
276.875	35.84
277.09	48.13
277.306	-21.5
277.521	46.08
277.737	21.5
277.952	17.41
278.168	17.41
278.383	74.75
278.599	-13.31
278.814	25.6
279.03	-13.31
279.245	37.89
279.461	-7.17
279.676	13.31
279.892	39.94
280.107	7.17
280.322	13.31
280.538	1.02
280.753	-23.55
280.969	62.46
281.184	41.98
281.399	9.22
281.615	3.07
281.83	3.07
282.045	25.6
282.26	56.32
282.476	-68.61
282.691	87.04
282.906	13.31
283.122	64.51
283.337	-7.17
283.552	44.03
283.767	-113.66
283.983	9.22
284.198	-11.26
284.413	103.42
284.628	-15.36
284.843	15.36
285.058	-19.46
285.274	27.65
285.489	-13.31
285.704	13.31
285.919	-58.37
286.134	52.22
286.349	62.46
286.564	56.32
286.779	54.27
286.995	33.79
287.21	35.84
287.425	50.18
287.64	9.22
287.855	39.94
288.07	44.03
288.285	54.27
288.5	78.85
288.715	74.75
288.93	82.94
289.145	-15.36
289.36	72.7
289.575	91.13
289.79	95.23
290.004	-3.07
290.219	11.26
290.434	-44.03
290.649	64.51
290.864	82.94
291.079	13.31
291.294	64.51
291.509	70.65
291.724	78.85
291.938	17.41
292.153	46.08
292.368	46.08
292.583	50.18
292.798	76.8
293.012	-23.55
293.227	-68.61
293.442	23.55
293.657	82.94
293.871	115.71
294.086	72.7
294.301	1.02
294.516	29.7
294.73	35.84
294.945	13.31
295.16	52.22
295.374	37.89
295.589	-7.17
295.804	23.55
296.018	76.8
296.233	91.13
296.447	132.09
296.662	11.26
296.877	46.08
297.091	66.56
297.306	21.5
297.52	37.89
297.735	-46.08
297.949	3.07
298.164	37.89
298.378	23.55
298.593	-31.74
298.807	52.22
299.022	-25.6
299.236	-23.55
299.451	-41.98
299.665	-21.5
299.88	44.03
300.094	29.7
300.309	-5.12
300.523	-15.36
300.737	25.6
300.952	44.03
301.166	17.41
301.381	41.98
301.595	41.98
301.809	87.04
302.024	1.02
302.238	-19.46
302.452	37.89
302.667	-66.56
302.881	89.09
303.095	80.89
303.309	21.5
303.524	58.37
303.738	19.46
303.952	-15.36
304.166	-33.79
304.381	41.98
304.595	87.04
304.809	7.17
305.023	13.31
305.237	27.65
305.452	35.84
305.666	-27.65
305.88	111.61
306.094	44.03
306.308	-3.07
306.522	41.98
306.736	39.94
306.95	46.08
307.164	-3.07
307.379	-50.18
307.593	156.67
307.807	84.99
308.021	66.56
308.235	-1.02
308.449	-9.22
308.663	7.17
308.877	35.84
309.091	46.08
309.305	27.65
309.519	-7.17
309.733	33.79
309.947	-23.55
310.161	11.26
310.374	33.79
310.588	5.12
310.802	-5.12
311.016	44.03
311.23	9.22
311.444	-21.5
311.658	-17.41
311.872	121.85
312.085	101.37
312.299	93.18
312.513	29.7
312.727	66.56
312.941	-68.61
313.154	87.04
313.368	-41.98
313.582	-31.74
313.796	-7.17
314.009	89.09
314.223	54.27
314.437	37.89
314.651	54.27
314.864	-31.74
315.078	27.65
315.292	-76.8
315.505	37.89
315.719	-25.6
315.933	70.65
316.146	-11.26
316.36	17.41
316.573	54.27
316.787	-23.55
317.001	19.46
317.214	48.13
317.428	25.6
317.641	7.17
317.855	64.51
318.068	35.84
318.282	72.7
318.495	89.09
318.709	74.75
318.922	58.37
319.136	76.8
319.349	50.18
319.563	35.84
319.776	68.61
319.99	93.18
320.203	58.37
320.417	31.74
320.63	-29.7
320.843	70.65
321.057	11.26
321.27	60.42
321.483	-9.22
321.697	130.05
321.91	78.85
322.124	-19.46
322.337	97.28
322.55	-44.03
322.763	91.13
322.977	17.41
323.19	-23.55
323.403	95.23
323.617	115.71
323.83	82.94
324.043	82.94
324.256	21.5
324.469	21.5
324.683	48.13
324.896	31.74
325.109	64.51
325.322	7.17
325.535	70.65
325.748	-19.46
325.962	35.84
326.175	113.66
326.388	17.41
326.601	5.12
326.814	93.18
327.027	1.02
327.24	37.89
327.453	-11.26
327.666	84.99
327.879	41.98
328.092	33.79
328.305	13.31
328.518	-7.17
328.731	-39.94
328.944	130.05
329.157	13.31
329.37	-1.02
329.583	52.22
329.796	84.99
330.009	11.26
330.222	78.85
330.435	70.65
330.648	78.85
330.861	64.51
331.073	41.98
331.286	31.74
331.499	70.65
331.712	1.02
331.925	17.41
332.138	9.22
332.35	84.99
332.563	15.36
332.776	52.22
332.989	-19.46
333.202	19.46
333.414	23.55
333.627	11.26
333.84	25.6
334.053	13.31
334.265	72.7
334.478	-37.89
334.691	21.5
334.903	11.26
335.116	56.32
335.329	60.42
335.541	5.12
335.754	93.18
335.966	74.75
336.179	50.18
336.392	-11.26
336.604	121.85
336.817	-5.12
337.029	68.61
337.242	-29.7
337.454	78.85
337.667	130.05
337.88	64.51
338.092	58.37
338.305	60.42
338.517	87.04
338.729	84.99
338.942	82.94
339.154	41.98
339.367	41.98
339.579	46.08
339.792	44.03
340.004	52.22
340.217	72.7
340.429	-29.7
340.641	68.61
340.854	66.56
341.066	19.46
341.278	46.08
341.491	35.84
341.703	134.14
341.915	17.41
342.128	11.26
342.34	19.46
342.552	31.74
342.764	5.12
342.977	33.79
343.189	25.6
343.401	44.03
343.613	17.41
343.826	29.7
344.038	66.56
344.25	-19.46
344.462	46.08
344.674	-15.36
344.886	70.65
345.099	56.32
345.311	84.99
345.523	89.09
345.735	7.17
345.947	3.07
346.159	11.26
346.371	60.42
346.583	39.94
346.795	82.94
347.007	66.56
347.219	1.02
347.431	-15.36
347.643	11.26
347.855	-5.12
348.067	13.31
348.279	41.98
348.491	33.79
348.703	37.89
348.915	31.74
349.127	-19.46
349.339	84.99
349.551	-39.94
349.763	31.74
349.975	-19.46
350.187	-3.07
350.399	25.6
350.61	64.51
350.822	-50.18
351.034	13.31
351.246	-35.84
351.458	-1.02
351.669	1.02
351.881	76.8
352.093	37.89
352.305	33.79
352.517	115.71
352.728	-7.17
352.94	54.27
353.152	41.98
353.363	35.84
353.575	58.37
353.787	60.42
353.999	103.42
354.21	-1.02
354.422	-15.36
354.633	33.79
354.845	-7.17
355.057	58.37
355.268	37.89
355.48	50.18
355.692	37.89
355.903	-1.02
356.115	-44.03
356.326	5.12
356.538	68.61
356.749	13.31
356.961	207.87
357.172	60.42
357.384	56.32
357.595	144.38
357.807	7.17
358.018	-25.6
358.23	48.13
358.441	-35.84
358.653	64.51
358.864	64.51
359.075	-35.84
359.287	17.41
359.498	48.13
359.709	31.74
359.921	80.89
360.132	9.22
360.344	68.61
360.555	37.89
360.766	70.65
360.977	44.03
361.189	74.75
361.4	48.13
361.611	87.04
361.823	128
362.034	37.89
362.245	101.37
362.456	29.7
362.667	58.37
362.879	29.7
363.09	87.04
363.301	29.7
363.512	-5.12
363.723	-15.36
363.935	48.13
364.146	3.07
364.357	80.89
364.568	68.61
364.779	-1.02
364.99	72.7
365.201	-19.46
365.412	115.71
365.623	5.12
365.834	48.13
366.045	37.89
366.256	11.26
366.467	44.03
366.678	27.65
366.889	76.8
367.1	39.94
367.311	89.09
367.522	1.02
367.733	37.89
367.944	-1.02
368.155	23.55
368.366	60.42
368.577	-1.02
368.788	35.84
368.999	80.89
369.209	39.94
369.42	91.13
369.631	113.66
369.842	72.7
370.053	1.02
370.264	60.42
370.474	48.13
370.685	41.98
370.896	41.98
371.107	-3.07
371.317	46.08
371.528	21.5
371.739	99.33
371.95	15.36
372.16	48.13
372.371	-56.32
372.582	58.37
372.792	-5.12
373.003	39.94
373.214	74.75
373.424	97.28
373.635	35.84
373.846	56.32
374.056	-7.17
374.267	15.36
374.477	50.18
374.688	84.99
374.898	46.08
375.109	84.99
375.319	56.32
375.53	134.14
375.74	41.98
375.951	29.7
376.161	29.7
376.372	-87.04
376.582	-35.84
376.793	-19.46
377.003	-7.17
377.214	25.6
377.424	35.84
377.635	74.75
377.845	56.32
378.055	66.56
378.266	87.04
378.476	50.18
378.686	-5.12
378.897	41.98
379.107	97.28
379.317	41.98
379.528	33.79
379.738	80.89
379.948	9.22
380.158	54.27
380.369	46.08
380.579	66.56
380.789	37.89
380.999	25.6
381.21	44.03
381.42	115.71
381.63	3.07
381.84	87.04
382.05	82.94
382.261	48.13
382.471	70.65
382.681	7.17
382.891	33.79
383.101	72.7
383.311	5.12
383.521	13.31
383.731	37.89
383.941	74.75
384.151	3.07
384.361	31.74
384.571	-7.17
384.781	46.08
384.991	89.09
385.201	105.47
385.411	78.85
385.621	115.71
385.831	25.6
386.041	95.23
386.251	23.55
386.461	64.51
386.671	29.7
386.881	5.12
387.091	97.28
387.301	74.75
387.511	29.7
387.72	99.33
387.93	9.22
388.14	80.89
388.35	44.03
388.56	78.85
388.769	76.8
388.979	117.76
389.189	41.98
389.399	35.84
389.609	117.76
389.818	68.61
390.028	50.18
390.238	50.18
390.447	11.26
390.657	117.76
390.867	99.33
391.076	31.74
391.286	82.94
391.496	109.57
391.705	50.18
391.915	80.89
392.125	48.13
392.334	48.13
392.544	99.33
392.753	50.18
392.963	37.89
393.172	76.8
393.382	7.17
393.591	105.47
393.801	78.85
394.01	109.57
394.22	37.89
394.429	101.37
394.639	48.13
394.848	130.05
395.058	119.81
395.267	70.65
395.477	9.22
395.686	60.42
395.895	64.51
396.105	162.81
396.314	70.65
396.524	95.23
396.733	123.9
396.942	60.42
397.152	64.51
397.361	142.33
397.57	44.03
397.78	87.04
397.989	117.76
398.198	107.52
398.407	95.23
398.617	97.28
398.826	84.99
399.035	68.61
399.244	74.75
399.453	66.56
399.663	21.5
399.872	84.99
400.081	54.27
400.29	29.7
400.499	119.81
400.708	107.52
400.917	66.56
401.127	89.09
401.336	60.42
401.545	39.94
401.754	105.47
401.963	52.22
402.172	68.61
402.381	140.29
402.59	138.24
402.799	117.76
403.008	109.57
403.217	125.95
403.426	87.04
403.635	48.13
403.844	66.56
404.053	74.75
404.262	50.18
404.471	168.96
404.68	187.39
404.888	183.29
405.097	84.99
405.306	125.95
405.515	128
405.724	37.89
405.933	156.67
406.142	115.71
406.35	54.27
406.559	107.52
406.768	150.53
406.977	173.05
407.185	132.09
407.394	185.34
407.603	152.57
407.812	211.96
408.02	132.09
408.229	175.1
408.438	152.57
408.646	193.53
408.855	156.67
409.064	244.73
409.272	128
409.481	250.88
409.69	232.44
409.898	148.48
410.107	222.2
410.315	209.92
410.524	214.01
410.733	320.51
410.941	263.16
411.15	338.94
411.358	291.84
411.567	316.41
411.775	330.75
411.984	281.6
412.192	365.56
412.401	289.79
412.609	435.19
412.818	414.71
413.026	312.32
413.234	488.44
413.443	422.91
413.651	402.43
413.86	398.33
414.068	502.78
414.276	535.54
414.485	433.15
414.693	529.4
414.901	644.09
415.11	586.74
415.318	615.41
415.526	570.36
415.734	553.98
415.943	652.28
416.151	592.89
416.359	639.99
416.567	676.85
416.776	670.71
416.984	801.78
417.192	758.77
417.4	740.34
417.608	740.34
417.817	852.98
418.025	844.79
418.233	861.17
418.441	836.6
418.649	971.76
418.857	906.23
419.065	982
419.273	926.71
419.481	1065.97
419.689	1123.31
419.897	1127.41
420.105	1141.74
420.313	1188.85
420.521	1217.52
420.729	1299.44
420.937	1348.59
421.145	1389.55
421.353	1393.64
421.561	1508.33
421.769	1473.51
421.977	1575.91
422.185	1592.3
422.393	1668.07
422.601	1721.32
422.809	1735.65
423.017	1758.18
423.224	1838.05
423.432	1856.48
423.64	1905.63
423.848	1999.84
424.056	2016.23
424.263	2143.2
424.471	2122.72
424.679	2216.93
424.887	2415.58
425.094	2499.55
425.302	2309.08
425.51	2550.75
425.718	2655.19
425.925	2630.62
426.133	2706.39
426.341	2943.96
426.548	3054.55
426.756	3021.78
426.964	3050.45
427.171	3304.4
427.379	3310.54
427.586	3335.12
427.794	3449.8
428.001	3658.7
428.209	3752.9
428.417	3707.85
428.624	3894.21
428.832	4017.09
429.039	3953.6
429.247	3855.3
429.454	4318.14
429.662	4660.15
429.869	4279.23
430.076	4637.63
430.284	4408.25
430.491	4580.28
430.699	5002.16
430.906	5061.55
431.114	5051.31
431.321	5006.26
431.528	5354.41
431.736	5602.22
431.943	5874.6
432.15	5866.41
432.358	5731.24
432.565	6142.88
432.772	6202.27
432.979	6351.78
433.187	6396.83
433.394	6642.59
433.601	7162.77
433.808	6923.16
434.016	6951.83
434.223	7316.37
434.43	7758.73
434.637	7431.05
434.844	7893.9
435.052	8219.52
435.259	8156.04
435.466	8278.91
435.673	8192.9
435.88	8803.19
436.087	9098.1
436.294	9126.77
436.501	8829.82
436.708	9167.73
436.915	9397.1
437.122	9751.4
437.329	9638.76
437.537	9960.3
437.743	10230.63
437.95	10306.4
438.157	10517.34
438.364	11121.49
438.571	11068.25
438.778	11152.21
438.985	12165.96
439.192	11393.87
439.399	12225.35
439.606	11735.88
439.813	12636.99
440.02	13216.57
440.227	12942.14
440.433	12729.15
440.64	13327.16
440.847	13065.02
441.054	13361.97
441.261	14349.09
441.467	14111.53
441.674	14369.57
441.881	14873.37
442.088	14816.03
442.294	14848.8
442.501	15196.95
442.708	15465.24
442.914	16007.95
443.121	16761.6
443.328	16024.33
443.534	17367.8
443.741	17025.79
443.948	16552.71
444.154	17953.52
444.361	17672.95
444.568	17971.95
444.774	17857.26
444.981	18062.06
445.187	18776.8
445.394	19471.06
445.6	19069.66
445.807	21287.61
446.013	20077.26
446.22	20275.91
446.426	21289.66
446.633	21473.98
446.839	22299.31
447.046	21084.86
447.252	22276.78
447.459	22385.32
447.665	22330.03
447.871	23392.92
448.078	24183.44
448.284	22868.64
448.491	23560.86
448.697	24488.59
448.903	25057.92
449.11	25090.69
449.316	24681.1
449.522	25340.54
449.728	25823.86
449.935	26002.04
450.141	25916.02
450.347	26616.43
450.553	25784.95
450.76	25787
450.966	26813.03
451.172	26583.66
451.378	27241.06
451.584	26464.88
451.791	27165.28
451.997	27116.13
452.203	27359.84
452.409	27611.74
452.615	27243.1
452.821	26342
453.027	25834.1
453.233	27302.5
453.44	26176.11
453.646	26366.57
453.852	26628.71
454.058	26946.15
454.264	26317.42
454.47	26843.75
454.676	26030.71
454.882	26897
455.088	24554.12
455.294	25102.98
455.5	25258.62
455.705	25649.78
455.911	24646.28
456.117	24099.47
456.323	23612.06
456.529	22444.71
456.735	23306.91
456.941	22715.05
457.147	22592.17
457.352	21549.75
457.558	21445.3
457.764	21467.83
457.97	21168.83
458.176	20378.31
458.381	20595.4
458.587	19446.49
458.793	19475.16
458.999	18402.02
459.204	19692.24
459.41	19401.43
459.616	18072.3
459.821	18094.83
460.027	18111.21
460.233	17826.54
460.438	16515.84
460.644	16986.88
460.85	15973.13
461.055	15895.31
461.261	16087.82
461.466	14793.5
461.672	14443.3
461.878	15176.47
462.083	14338.85
462.289	14111.53
462.494	13808.43
462.7	13128.5
462.905	12962.62
463.111	13425.46
463.316	13357.88
463.522	13126.46
463.727	13073.21
463.932	13126.46
464.138	13071.16
464.343	13005.63
464.549	12579.65
464.754	13130.55
464.959	12786.49
465.165	12860.22
465.37	12487.49
465.575	11979.59
465.781	12557.12
465.986	12710.72
466.191	12159.81
466.397	11795.28
466.602	11483.98
466.807	11834.19
467.012	11699.02
467.218	11803.47
467.423	11428.69
467.628	11596.62
467.833	12020.55
468.038	11690.83
468.244	11139.93
468.449	11844.43
468.654	11273.04
