Data from USB4F104151__82__11-06-34-642.txt Node

Date: Wed Mar 12 11:06:34 EDT 2025
User: louis
Spectrometer: USB4F10415
Trigger mode: 4
Integration Time (sec): 2.000000E-2
Scans to average: 1
Electric dark correction enabled: true
Nonlinearity correction enabled: false
Boxcar width: 0
XAxis mode: Wavelengths
Number of Pixels in Spectrum: 3648
>>>>>Begin Spectral Data<<<<<
178.204	-106.84
178.424	-106.84
178.644	-106.84
178.864	-61.78
179.084	-86.36
179.304	30.38
179.524	61.1
179.744	79.53
179.964	30.38
180.184	-88.4
180.404	40.62
180.624	-67.92
180.844	24.23
181.064	-55.64
181.283	-72.02
181.503	-12.63
181.723	30.38
181.943	32.43
182.163	22.19
182.383	-24.92
182.602	16.04
182.822	118.44
183.042	46.76
183.262	46.76
183.482	-31.06
183.701	71.34
183.921	16.04
184.141	28.33
184.361	71.34
184.58	-18.77
184.8	36.52
185.02	-18.77
185.239	77.48
185.459	61.1
185.679	50.86
185.898	-76.12
186.118	26.28
186.338	3.75
186.557	-6.49
186.777	79.53
186.997	-6.49
187.216	59.05
187.436	54.95
187.655	-10.58
187.875	102.06
188.095	5.8
188.314	95.91
188.534	5.8
188.753	34.47
188.973	44.71
189.192	106.15
189.412	44.71
189.631	124.58
189.851	20.14
190.07	13.99
190.29	42.67
190.509	36.52
190.729	75.43
190.948	63.15
191.168	69.29
191.387	73.39
191.607	38.57
191.826	22.19
192.045	28.33
192.265	71.34
192.484	7.85
192.704	40.62
192.923	-0.34
193.142	50.86
193.362	46.76
193.581	61.1
193.8	54.95
194.02	-16.73
194.239	-8.53
194.458	100.01
194.678	-0.34
194.897	63.15
195.116	11.95
195.335	-61.78
195.555	18.09
195.774	34.47
195.993	75.43
196.212	77.48
196.432	63.15
196.651	9.9
196.87	13.99
197.089	18.09
197.308	36.52
197.528	34.47
197.747	-0.34
197.966	22.19
198.185	59.05
198.404	-2.39
198.623	71.34
198.842	-24.92
199.062	46.76
199.281	34.47
199.5	-22.87
199.719	59.05
199.938	26.28
200.157	11.95
200.376	44.71
200.595	13.99
200.814	67.24
201.033	20.14
201.252	38.57
201.471	61.1
201.69	65.19
201.909	36.52
202.128	16.04
202.347	22.19
202.566	5.8
202.785	-20.82
203.004	5.8
203.223	71.34
203.442	91.82
203.661	67.24
203.879	50.86
204.098	44.71
204.317	-63.83
204.536	38.57
204.755	38.57
204.974	89.77
205.193	36.52
205.411	30.38
205.63	63.15
205.849	44.71
206.068	18.09
206.287	9.9
206.505	26.28
206.724	-4.44
206.943	18.09
207.162	112.3
207.381	22.19
207.599	24.23
207.818	5.8
208.037	22.19
208.255	63.15
208.474	-16.73
208.693	1.71
208.911	-4.44
209.13	106.15
209.349	42.67
209.567	63.15
209.786	30.38
210.005	-18.77
210.223	83.63
210.442	-12.63
210.661	52.91
210.879	50.86
211.098	28.33
211.316	36.52
211.535	11.95
211.753	79.53
211.972	59.05
212.191	42.67
212.409	85.67
212.628	93.87
212.846	54.95
213.065	30.38
213.283	112.3
213.502	93.87
213.72	-0.34
213.938	-45.4
214.157	11.95
214.375	91.82
214.594	52.91
214.812	87.72
215.031	54.95
215.249	9.9
215.467	26.28
215.686	48.81
215.904	110.25
216.122	1.71
216.341	1.71
216.559	13.99
216.778	89.77
216.996	26.28
217.214	46.76
217.432	79.53
217.651	32.43
217.869	48.81
218.087	-24.92
218.306	63.15
218.524	36.52
218.742	-26.96
218.96	-2.39
219.179	77.48
219.397	18.09
219.615	36.52
219.833	24.23
220.051	110.25
220.27	16.04
220.488	1.71
220.706	69.29
220.924	-41.3
221.142	44.71
221.36	-26.96
221.578	81.58
221.796	-12.63
222.015	44.71
222.233	30.38
222.451	63.15
222.669	34.47
222.887	104.11
223.105	52.91
223.323	-10.58
223.541	7.85
223.759	32.43
223.977	42.67
224.195	128.68
224.413	-43.35
224.631	67.24
224.849	24.23
225.067	87.72
225.285	20.14
225.503	42.67
225.721	22.19
225.939	5.8
226.157	13.99
226.375	-10.58
226.592	-76.12
226.81	59.05
227.028	44.71
227.246	22.19
227.464	42.67
227.682	32.43
227.9	-57.68
228.117	24.23
228.335	-29.01
228.553	18.09
228.771	-20.82
228.989	30.38
229.206	28.33
229.424	104.11
229.642	26.28
229.86	-16.73
230.077	32.43
230.295	42.67
230.513	91.82
230.731	-4.44
230.948	46.76
231.166	126.63
231.384	5.8
231.601	13.99
231.819	59.05
232.037	18.09
232.254	26.28
232.472	59.05
232.689	-12.63
232.907	85.67
233.125	11.95
233.342	36.52
233.56	-14.68
233.777	46.76
233.995	26.28
234.213	42.67
234.43	77.48
234.648	32.43
234.865	26.28
235.083	50.86
235.3	24.23
235.518	89.77
235.735	140.97
235.953	81.58
236.17	11.95
236.388	34.47
236.605	13.99
236.822	20.14
237.04	155.3
237.257	22.19
237.475	13.99
237.692	22.19
237.909	32.43
238.127	75.43
238.344	112.3
238.562	26.28
238.779	-31.06
238.996	30.38
239.214	-18.77
239.431	75.43
239.648	5.8
239.865	54.95
240.083	38.57
240.3	30.38
240.517	57
240.735	89.77
240.952	18.09
241.169	26.28
241.386	30.38
241.603	95.91
241.821	-18.77
242.038	85.67
242.255	79.53
242.472	18.09
242.689	-4.44
242.907	63.15
243.124	87.72
243.341	20.14
243.558	59.05
243.775	16.04
243.992	-53.59
244.209	77.48
244.426	24.23
244.643	44.71
244.86	5.8
245.078	3.75
245.295	54.95
245.512	28.33
245.729	7.85
245.946	83.63
246.163	42.67
246.38	-8.53
246.597	24.23
246.814	95.91
247.031	-29.01
247.248	65.19
247.464	34.47
247.681	42.67
247.898	50.86
248.115	59.05
248.332	36.52
248.549	71.34
248.766	52.91
248.983	5.8
249.2	-2.39
249.417	18.09
249.633	16.04
249.85	44.71
250.067	38.57
250.284	57
250.501	52.91
250.717	52.91
250.934	26.28
251.151	18.09
251.368	67.24
251.585	32.43
251.801	18.09
252.018	-10.58
252.235	52.91
252.451	1.71
252.668	16.04
252.885	95.91
253.102	42.67
253.318	26.28
253.535	34.47
253.752	104.11
253.968	91.82
254.185	36.52
254.401	5.8
254.618	79.53
254.835	44.71
255.051	87.72
255.268	5.8
255.484	-16.73
255.701	34.47
255.917	34.47
256.134	-4.44
256.351	40.62
256.567	36.52
256.784	18.09
257	30.38
257.217	16.04
257.433	1.71
257.65	5.8
257.866	85.67
258.082	-4.44
258.299	71.34
258.515	-2.39
258.732	32.43
258.948	48.81
259.165	-2.39
259.381	34.47
259.597	83.63
259.814	-0.34
260.03	102.06
260.246	-18.77
260.463	-39.25
260.679	-14.68
260.895	7.85
261.112	54.95
261.328	26.28
261.544	34.47
261.761	104.11
261.977	20.14
262.193	34.47
262.409	24.23
262.626	-8.53
262.842	57
263.058	34.47
263.274	-8.53
263.49	7.85
263.707	79.53
263.923	30.38
264.139	59.05
264.355	85.67
264.571	-18.77
264.787	36.52
265.004	5.8
265.22	-2.39
265.436	89.77
265.652	-6.49
265.868	22.19
266.084	36.52
266.3	-8.53
266.516	40.62
266.732	57
266.948	145.06
267.164	38.57
267.38	40.62
267.596	63.15
267.812	38.57
268.028	-22.87
268.244	13.99
268.46	-10.58
268.676	36.52
268.892	28.33
269.108	22.19
269.324	30.38
269.54	-26.96
269.756	71.34
269.972	-0.34
270.188	5.8
270.403	46.76
270.619	59.05
270.835	22.19
271.051	50.86
271.267	1.71
271.483	46.76
271.698	34.47
271.914	59.05
272.13	-26.96
272.346	32.43
272.562	-0.34
272.777	77.48
272.993	63.15
273.209	-4.44
273.425	63.15
273.64	1.71
273.856	54.95
274.072	34.47
274.287	95.91
274.503	22.19
274.719	11.95
274.934	13.99
275.15	54.95
275.366	20.14
275.581	20.14
275.797	112.3
276.012	26.28
276.228	1.71
276.444	-6.49
276.659	85.67
276.875	5.8
277.09	89.77
277.306	7.85
277.521	79.53
277.737	38.57
277.952	24.23
278.168	13.99
278.383	91.82
278.599	-29.01
278.814	-0.34
279.03	38.57
279.245	87.72
279.461	22.19
279.676	-14.68
279.892	50.86
280.107	69.29
280.322	44.71
280.538	85.67
280.753	-10.58
280.969	7.85
281.184	-41.3
281.399	-6.49
281.615	93.87
281.83	128.68
282.045	-31.06
282.26	104.11
282.476	-24.92
282.691	-2.39
282.906	1.71
283.122	59.05
283.337	3.75
283.552	122.54
283.767	36.52
283.983	22.19
284.198	48.81
284.413	22.19
284.628	-2.39
284.843	75.43
285.058	122.54
285.274	73.39
285.489	38.57
285.704	42.67
285.919	57
286.134	63.15
286.349	-33.11
286.564	57
286.779	48.81
286.995	46.76
287.21	52.91
287.425	38.57
287.64	75.43
287.855	42.67
288.07	-22.87
288.285	61.1
288.5	63.15
288.715	50.86
288.93	1.71
289.145	40.62
289.36	40.62
289.575	9.9
289.79	22.19
290.004	38.57
290.219	-10.58
290.434	-24.92
290.649	1.71
290.864	57
291.079	28.33
291.294	34.47
291.509	81.58
291.724	30.38
291.938	26.28
292.153	13.99
292.368	13.99
292.583	16.04
292.798	71.34
293.012	91.82
293.227	26.28
293.442	9.9
293.657	20.14
293.871	118.44
294.086	40.62
294.301	46.76
294.516	61.1
294.73	20.14
294.945	20.14
295.16	34.47
295.374	32.43
295.589	-10.58
295.804	-12.63
296.018	26.28
296.233	112.3
296.447	34.47
296.662	3.75
296.877	22.19
297.091	38.57
297.306	100.01
297.52	57
297.735	1.71
297.949	30.38
298.164	9.9
298.378	-43.35
298.593	67.24
298.807	34.47
299.022	59.05
299.236	67.24
299.451	30.38
299.665	-2.39
299.88	5.8
300.094	3.75
300.309	18.09
300.523	18.09
300.737	36.52
300.952	1.71
301.166	32.43
301.381	22.19
301.595	5.8
301.809	97.96
302.024	9.9
302.238	-51.54
302.452	140.97
302.667	69.29
302.881	81.58
303.095	95.91
303.309	79.53
303.524	93.87
303.738	48.81
303.952	-10.58
304.166	30.38
304.381	18.09
304.595	75.43
304.809	38.57
305.023	18.09
305.237	1.71
305.452	91.82
305.666	5.8
305.88	52.91
306.094	42.67
306.308	71.34
306.522	54.95
306.736	59.05
306.95	32.43
307.164	73.39
307.379	-2.39
307.593	48.81
307.807	20.14
308.021	59.05
308.235	32.43
308.449	50.86
308.663	95.91
308.877	97.96
309.091	46.76
309.305	30.38
309.519	38.57
309.733	61.1
309.947	42.67
310.161	93.87
310.374	-37.2
310.588	28.33
310.802	11.95
311.016	79.53
311.23	57
311.444	-94.55
311.658	-37.2
311.872	79.53
312.085	1.71
312.299	40.62
312.513	28.33
312.727	57
312.941	-29.01
313.154	13.99
313.368	54.95
313.582	75.43
313.796	57
314.009	42.67
314.223	118.44
314.437	7.85
314.651	42.67
314.864	-2.39
315.078	24.23
315.292	-2.39
315.505	-2.39
315.719	57
315.933	54.95
316.146	50.86
316.36	-26.96
316.573	32.43
316.787	13.99
317.001	16.04
317.214	18.09
317.428	36.52
317.641	13.99
317.855	30.38
318.068	42.67
318.282	38.57
318.495	83.63
318.709	106.15
318.922	32.43
319.136	75.43
319.349	102.06
319.563	13.99
319.776	34.47
319.99	-10.58
320.203	71.34
320.417	40.62
320.63	26.28
320.843	65.19
321.057	5.8
321.27	-20.82
321.483	61.1
321.697	85.67
321.91	83.63
322.124	83.63
322.337	61.1
322.55	-22.87
322.763	18.09
322.977	63.15
323.19	63.15
323.403	124.58
323.617	50.86
323.83	102.06
324.043	-39.25
324.256	61.1
324.469	13.99
324.683	79.53
324.896	48.81
325.109	-35.16
325.322	16.04
325.535	24.23
325.748	59.05
325.962	-22.87
326.175	22.19
326.388	52.91
326.601	42.67
326.814	38.57
327.027	52.91
327.24	77.48
327.453	48.81
327.666	87.72
327.879	61.1
328.092	24.23
328.305	46.76
328.518	-0.34
328.731	50.86
328.944	81.58
329.157	-6.49
329.37	34.47
329.583	75.43
329.796	61.1
330.009	38.57
330.222	36.52
330.435	50.86
330.648	42.67
330.861	-2.39
331.073	75.43
331.286	-8.53
331.499	93.87
331.712	-12.63
331.925	34.47
332.138	-33.11
332.35	61.1
332.563	50.86
332.776	11.95
332.989	-10.58
333.202	61.1
333.414	-0.34
333.627	54.95
333.84	-26.96
334.053	79.53
334.265	30.38
334.478	50.86
334.691	42.67
334.903	-22.87
335.116	54.95
335.329	26.28
335.541	79.53
335.754	-0.34
335.966	54.95
336.179	102.06
336.392	48.81
336.604	75.43
336.817	91.82
337.029	59.05
337.242	97.96
337.454	38.57
337.667	149.16
337.88	65.19
338.092	1.71
338.305	59.05
338.517	61.1
338.729	30.38
338.942	79.53
339.154	97.96
339.367	20.14
339.579	61.1
339.792	71.34
340.004	67.24
340.217	91.82
340.429	-20.82
340.641	11.95
340.854	77.48
341.066	34.47
341.278	69.29
341.491	59.05
341.703	44.71
341.915	28.33
342.128	42.67
342.34	71.34
342.552	22.19
342.764	65.19
342.977	77.48
343.189	28.33
343.401	-2.39
343.613	22.19
343.826	122.54
344.038	11.95
344.25	120.49
344.462	-41.3
344.674	100.01
344.886	59.05
345.099	5.8
345.311	54.95
345.523	22.19
345.735	-14.68
345.947	1.71
346.159	16.04
346.371	59.05
346.583	85.67
346.795	34.47
347.007	57
347.219	-24.92
347.431	-2.39
347.643	77.48
347.855	26.28
348.067	3.75
348.279	26.28
348.491	20.14
348.703	61.1
348.915	5.8
349.127	32.43
349.339	83.63
349.551	22.19
349.763	-8.53
349.975	9.9
350.187	81.58
350.399	18.09
350.61	46.76
350.822	61.1
351.034	124.58
351.246	59.05
351.458	-39.25
351.669	59.05
351.881	114.34
352.093	42.67
352.305	104.11
352.517	18.09
352.728	26.28
352.94	-6.49
353.152	5.8
353.363	91.82
353.575	77.48
353.787	100.01
353.999	59.05
354.21	81.58
354.422	24.23
354.633	83.63
354.845	75.43
355.057	22.19
355.268	38.57
355.48	26.28
355.692	5.8
355.903	-18.77
356.115	91.82
356.326	26.28
356.538	44.71
356.749	112.3
356.961	104.11
357.172	-4.44
357.384	32.43
357.595	59.05
357.807	11.95
358.018	32.43
358.23	-35.16
358.441	104.11
358.653	20.14
358.864	65.19
359.075	61.1
359.287	59.05
359.498	89.77
359.709	71.34
359.921	22.19
360.132	11.95
360.344	48.81
360.555	30.38
360.766	50.86
360.977	77.48
361.189	95.91
361.4	32.43
361.611	79.53
361.823	46.76
362.034	73.39
362.245	38.57
362.456	81.58
362.667	-22.87
362.879	61.1
363.09	57
363.301	38.57
363.512	42.67
363.723	50.86
363.935	71.34
364.146	89.77
364.357	13.99
364.568	110.25
364.779	30.38
364.99	-12.63
365.201	-14.68
365.412	104.11
365.623	63.15
365.834	87.72
366.045	-6.49
366.256	28.33
366.467	67.24
366.678	116.39
366.889	65.19
367.1	128.68
367.311	3.75
367.522	97.96
367.733	30.38
367.944	13.99
368.155	-6.49
368.366	87.72
368.577	67.24
368.788	26.28
368.999	63.15
369.209	5.8
369.42	69.29
369.631	136.87
369.842	54.95
370.053	79.53
370.264	16.04
370.474	63.15
370.685	87.72
370.896	9.9
371.107	110.25
371.317	93.87
371.528	30.38
371.739	28.33
371.95	63.15
372.16	102.06
372.371	46.76
372.582	30.38
372.792	38.57
373.003	81.58
373.214	75.43
373.424	79.53
373.635	24.23
373.846	155.3
374.056	112.3
374.267	95.91
374.477	87.72
374.688	104.11
374.898	85.67
375.109	50.86
375.319	75.43
375.53	77.48
375.74	40.62
375.951	18.09
376.161	32.43
376.372	110.25
376.582	5.8
376.793	97.96
377.003	36.52
377.214	57
377.424	100.01
377.635	-2.39
377.845	34.47
378.055	30.38
378.266	24.23
378.476	93.87
378.686	173.74
378.897	9.9
379.107	34.47
379.317	67.24
379.528	-22.87
379.738	65.19
379.948	20.14
380.158	79.53
380.369	18.09
380.579	118.44
380.789	69.29
380.999	85.67
381.21	-6.49
381.42	69.29
381.63	73.39
381.84	34.47
382.05	54.95
382.261	118.44
382.471	100.01
382.681	-12.63
382.891	50.86
383.101	40.62
383.311	85.67
383.521	79.53
383.731	69.29
383.941	79.53
384.151	106.15
384.361	100.01
384.571	40.62
384.781	130.73
384.991	77.48
385.201	44.71
385.411	20.14
385.621	-18.77
385.831	24.23
386.041	118.44
386.251	93.87
386.461	57
386.671	20.14
386.881	54.95
387.091	48.81
387.301	59.05
387.511	22.19
387.72	87.72
387.93	61.1
388.14	59.05
388.35	18.09
388.56	83.63
388.769	95.91
388.979	-31.06
389.189	85.67
389.399	40.62
389.609	61.1
389.818	48.81
390.028	9.9
390.238	104.11
390.447	11.95
390.657	11.95
390.867	124.58
391.076	40.62
391.286	36.52
391.496	40.62
391.705	36.52
391.915	38.57
392.125	83.63
392.334	95.91
392.544	108.2
392.753	16.04
392.963	67.24
393.172	46.76
393.382	61.1
393.591	112.3
393.801	63.15
394.01	104.11
394.22	138.92
394.429	77.48
394.639	69.29
394.848	97.96
395.058	112.3
395.267	104.11
395.477	93.87
395.686	42.67
395.895	46.76
396.105	104.11
396.314	104.11
396.524	69.29
396.733	93.87
396.942	106.15
397.152	120.49
397.361	75.43
397.57	54.95
397.78	145.06
397.989	63.15
398.198	128.68
398.407	87.72
398.617	93.87
398.826	67.24
399.035	124.58
399.244	89.77
399.453	85.67
399.663	143.02
399.872	71.34
400.081	48.81
400.29	120.49
400.499	85.67
400.708	110.25
400.917	71.34
401.127	75.43
401.336	155.3
401.545	89.77
401.754	63.15
401.963	130.73
402.172	77.48
402.381	-10.58
402.59	116.39
402.799	149.16
403.008	52.91
403.217	153.26
403.426	63.15
403.635	81.58
403.844	167.59
404.053	126.63
404.262	81.58
404.471	138.92
404.68	116.39
404.888	163.5
405.097	100.01
405.306	224.94
405.515	118.44
405.724	134.82
405.933	104.11
406.142	83.63
406.35	183.98
406.559	165.54
406.768	87.72
406.977	212.65
407.185	177.83
407.394	196.26
407.603	91.82
407.812	231.08
408.02	198.31
408.229	120.49
408.438	136.87
408.646	214.7
408.855	188.07
409.064	192.17
409.272	206.5
409.481	218.79
409.69	229.03
409.898	272.04
410.107	206.5
410.315	198.31
410.524	306.85
410.733	276.13
410.941	272.04
411.15	173.74
411.358	331.43
411.567	360.1
411.775	351.91
411.984	313
412.192	366.25
412.401	409.25
412.609	399.01
412.818	308.9
413.026	407.2
413.234	304.81
413.443	429.73
413.651	417.44
413.86	478.88
414.068	474.79
414.276	530.08
414.485	530.08
414.693	523.94
414.901	503.46
415.11	597.67
415.318	566.95
415.526	528.03
415.734	595.62
415.943	566.95
416.151	663.2
416.359	636.58
416.567	675.49
416.776	708.26
416.984	671.39
417.192	763.55
417.4	771.74
417.608	698.02
417.817	767.65
418.025	884.38
418.233	870.05
418.441	843.42
418.649	878.24
418.857	994.97
419.065	1027.74
419.273	1007.26
419.481	990.88
419.689	1052.31
419.897	1148.57
420.105	1158.81
420.313	1224.34
420.521	1291.93
420.729	1222.3
420.937	1314.45
421.145	1414.81
421.353	1408.66
421.561	1500.82
421.769	1484.44
421.977	1611.41
422.185	1609.36
422.393	1676.95
422.601	1707.66
422.809	1719.95
423.017	1838.73
423.224	1824.4
423.432	1877.65
423.64	1945.23
423.848	2158.22
424.056	1957.52
424.263	2123.4
424.471	2166.41
424.679	2340.49
424.887	2352.77
425.094	2387.59
425.302	2291.34
425.51	2608.77
425.718	2533
425.925	2829.95
426.133	2866.81
426.341	2946.69
426.548	3010.17
426.756	3081.85
426.964	3032.7
427.171	3198.59
427.379	3307.13
427.586	3337.85
427.794	3511.93
428.001	3561.08
428.209	3706.48
428.417	3675.76
428.624	3970.67
428.832	3929.71
429.039	3925.61
429.247	3966.57
429.454	4376.17
429.662	4591.2
429.869	4353.64
430.076	4662.88
430.284	4560.49
430.491	4761.19
430.699	5070.43
430.906	5054.05
431.114	5183.07
431.321	5142.11
431.528	5293.66
431.736	5520.98
431.943	5934.67
432.15	5895.76
432.358	5869.14
432.565	6137.42
432.772	6131.28
432.979	6440.52
433.187	6600.26
433.394	6497.86
433.601	6942.27
433.808	7112.25
434.016	6964.8
434.223	7435.83
434.43	7704.12
434.637	7663.16
434.844	8091.18
435.052	8324.65
435.259	8218.16
435.466	8257.07
435.673	8355.37
435.88	8787.49
436.087	9221.66
436.294	9158.17
436.501	8924.71
436.708	9106.98
436.915	9434.65
437.122	10018.32
437.329	9963.03
437.537	10106.38
437.743	10278.41
437.95	10237.45
438.157	10542.6
438.364	11077.12
438.571	11017.73
438.778	11171.33
438.985	12174.83
439.192	11681.27
439.399	12223.98
439.606	11746.81
439.813	12537.32
440.02	13233.63
440.227	13022.69
440.433	12975.59
440.64	13434.33
440.847	13413.85
441.054	13743.58
441.261	14400.97
441.467	14196.18
441.674	14650.83
441.881	14998.98
442.088	14982.6
442.294	14872.01
442.501	15289.79
442.708	15648.19
442.914	16416.18
443.121	16991.66
443.328	16483.76
443.534	17993.11
443.741	17384.87
443.948	16891.3
444.154	17984.92
444.361	18173.33
444.568	18255.25
444.774	18128.28
444.981	18326.93
445.187	18888.07
445.394	19846.52
445.6	19334.53
445.807	21351.78
446.013	20460.91
446.22	20749.68
446.426	21435.75
446.633	21841.25
446.839	22244.7
447.046	21519.71
447.252	22707.54
447.459	22764.88
447.665	22895.95
447.871	23954.75
448.078	24710.45
448.284	23389.51
448.491	24425.78
448.697	24880.43
448.903	25427.24
449.11	25496.87
449.316	25161
449.522	26047.77
449.728	26184.99
449.935	26406.17
450.141	26469.65
450.347	27157.77
450.553	26004.77
450.76	26623.25
450.966	27262.22
451.172	26633.49
451.378	27923.71
451.584	27098.38
451.791	27909.38
451.997	27630.85
452.203	27983.1
452.409	28028.16
452.615	27888.9
452.821	26762.51
453.027	26805.52
453.233	27968.77
453.44	26793.23
453.646	27030.8
453.852	27241.74
454.058	27940.1
454.264	26733.84
454.47	27305.23
454.676	26604.82
454.882	27655.43
455.088	25259.31
455.294	25566.5
455.5	25703.71
455.705	26092.83
455.911	24847.66
456.117	24775.98
456.323	24511.8
456.529	22857.04
456.735	23889.21
456.941	23117.13
457.147	23033.16
457.352	22134.1
457.558	22056.28
457.764	22050.14
457.97	21151.08
458.176	21179.75
458.381	21085.54
458.587	20002.17
458.793	20092.28
458.999	18965.9
459.204	20362.61
459.41	19627.39
459.616	18556.3
459.821	18449.81
460.027	18523.54
460.233	18124.18
460.438	17046.95
460.644	17460.64
460.85	16612.78
461.055	16516.53
461.261	16072.12
461.466	15033.8
461.672	14697.93
461.878	15834.55
462.083	14648.78
462.289	14554.57
462.494	14292.43
462.7	13741.53
462.905	13178.34
463.111	13698.52
463.316	13868.5
463.522	13440.48
463.727	13512.16
463.932	13723.1
464.138	13542.88
464.343	13243.87
464.549	12901.86
464.754	13585.88
464.959	13604.32
465.165	13290.98
465.37	12633.58
465.575	12574.19
465.781	12991.97
465.986	12836.33
466.191	12703.21
466.397	12342.77
466.602	11730.42
466.807	12115.44
467.012	12054
467.218	12017.14
467.423	12099.06
467.628	12045.81
467.833	12436.97
468.038	12039.67
468.244	11709.94
468.449	12252.66
468.654	11732.47
