Data from USB4F104151__238__11-11-22-451.txt Node

Date: Wed Mar 12 11:11:22 EDT 2025
User: louis
Spectrometer: USB4F10415
Trigger mode: 4
Integration Time (sec): 2.000000E-2
Scans to average: 1
Electric dark correction enabled: true
Nonlinearity correction enabled: false
Boxcar width: 0
XAxis mode: Wavelengths
Number of Pixels in Spectrum: 3648
>>>>>Begin Spectral Data<<<<<
178.204	-20.48
178.424	-20.48
178.644	-20.48
178.864	-77.82
179.084	-77.82
179.304	6.14
179.524	57.34
179.744	-12.29
179.964	34.82
180.184	30.72
180.404	-63.49
180.624	-40.96
180.844	28.67
181.064	-0
181.283	-36.86
181.503	-28.67
181.723	24.58
181.943	26.62
182.163	122.88
182.383	-20.48
182.602	92.16
182.822	-14.34
183.042	24.58
183.262	71.68
183.482	73.73
183.701	8.19
183.921	34.82
184.141	-38.91
184.361	16.38
184.58	18.43
184.8	100.35
185.02	51.2
185.239	79.87
185.459	45.06
185.679	75.77
185.898	-47.1
186.118	-20.48
186.338	88.06
186.557	51.2
186.777	4.1
186.997	43.01
187.216	79.87
187.436	51.2
187.655	-4.1
187.875	12.29
188.095	16.38
188.314	18.43
188.534	36.86
188.753	26.62
188.973	118.78
189.192	104.45
189.412	-16.38
189.631	-18.43
189.851	24.58
190.07	4.1
190.29	-12.29
190.509	55.3
190.729	-26.62
190.948	34.82
191.168	71.68
191.387	86.01
191.607	12.29
191.826	-14.34
192.045	47.1
192.265	53.25
192.484	34.82
192.704	94.21
192.923	16.38
193.142	112.64
193.362	65.53
193.581	90.11
193.8	81.92
194.02	24.58
194.239	53.25
194.458	30.72
194.678	6.14
194.897	92.16
195.116	2.05
195.335	12.29
195.555	51.2
195.774	-16.38
195.993	-8.19
196.212	28.67
196.432	43.01
196.651	-43.01
196.87	-16.38
197.089	34.82
197.308	43.01
197.528	51.2
197.747	-61.44
197.966	57.34
198.185	94.21
198.404	26.62
198.623	49.15
198.842	86.01
199.062	45.06
199.281	2.05
199.5	16.38
199.719	110.59
199.938	34.82
200.157	57.34
200.376	161.79
200.595	26.62
200.814	-4.1
201.033	26.62
201.252	-0
201.471	32.77
201.69	32.77
201.909	67.58
202.128	-12.29
202.347	67.58
202.566	4.1
202.785	53.25
203.004	-28.67
203.223	43.01
203.442	63.49
203.661	-0
203.879	20.48
204.098	-8.19
204.317	40.96
204.536	-2.05
204.755	49.15
204.974	51.2
205.193	38.91
205.411	30.72
205.63	16.38
205.849	4.1
206.068	30.72
206.287	18.43
206.505	65.53
206.724	94.21
206.943	24.58
207.162	14.34
207.381	28.67
207.599	28.67
207.818	24.58
208.037	106.49
208.255	43.01
208.474	69.63
208.693	16.38
208.911	55.3
209.13	-28.67
209.349	-2.05
209.567	26.62
209.786	40.96
210.005	67.58
210.223	-16.38
210.442	-38.91
210.661	-12.29
210.879	-26.62
211.098	-38.91
211.316	114.69
211.535	81.92
211.753	-0
211.972	-43.01
212.191	67.58
212.409	-18.43
212.628	-12.29
212.846	-2.05
213.065	-53.25
213.283	43.01
213.502	-4.1
213.72	43.01
213.938	36.86
214.157	47.1
214.375	122.88
214.594	-8.19
214.812	-4.1
215.031	6.14
215.249	-6.14
215.467	2.05
215.686	63.49
215.904	67.58
216.122	61.44
216.341	36.86
216.559	40.96
216.778	73.73
216.996	12.29
217.214	32.77
217.432	12.29
217.651	16.38
217.869	-18.43
218.087	-4.1
218.306	61.44
218.524	61.44
218.742	40.96
218.96	73.73
219.179	43.01
219.397	14.34
219.615	65.53
219.833	57.34
220.051	53.25
220.27	53.25
220.488	83.97
220.706	43.01
220.924	6.14
221.142	-24.58
221.36	36.86
221.578	8.19
221.796	20.48
222.015	36.86
222.233	-14.34
222.451	157.69
222.669	-57.34
222.887	51.2
223.105	-16.38
223.323	-38.91
223.541	67.58
223.759	63.49
223.977	-0
224.195	26.62
224.413	49.15
224.631	38.91
224.849	92.16
225.067	83.97
225.285	-20.48
225.503	-6.14
225.721	75.77
225.939	16.38
226.157	-36.86
226.375	63.49
226.592	4.1
226.81	38.91
227.028	40.96
227.246	55.3
227.464	90.11
227.682	-8.19
227.9	65.53
228.117	77.82
228.335	18.43
228.553	75.77
228.771	38.91
228.989	81.92
229.206	92.16
229.424	55.3
229.642	10.24
229.86	45.06
230.077	59.39
230.295	40.96
230.513	20.48
230.731	45.06
230.948	24.58
231.166	110.59
231.384	65.53
231.601	32.77
231.819	32.77
232.037	51.2
232.254	-28.67
232.472	34.82
232.689	-2.05
232.907	79.87
233.125	26.62
233.342	4.1
233.56	-8.19
233.777	45.06
233.995	45.06
234.213	30.72
234.43	14.34
234.648	59.39
234.865	-30.72
235.083	28.67
235.3	-4.1
235.518	59.39
235.735	81.92
235.953	47.1
236.17	8.19
236.388	24.58
236.605	2.05
236.822	-14.34
237.04	20.48
237.257	92.16
237.475	32.77
237.692	47.1
237.909	53.25
238.127	30.72
238.344	14.34
238.562	-26.62
238.779	32.77
238.996	40.96
239.214	81.92
239.431	51.2
239.648	53.25
239.865	38.91
240.083	88.06
240.3	53.25
240.517	-36.86
240.735	40.96
240.952	71.68
241.169	57.34
241.386	32.77
241.603	18.43
241.821	92.16
242.038	51.2
242.255	51.2
242.472	38.91
242.689	-10.24
242.907	16.38
243.124	10.24
243.341	24.58
243.558	86.01
243.775	51.2
243.992	22.53
244.209	75.77
244.426	61.44
244.643	61.44
244.86	36.86
245.078	32.77
245.295	106.49
245.512	-4.1
245.729	53.25
245.946	71.68
246.163	-18.43
246.38	16.38
246.597	-12.29
246.814	4.1
247.031	81.92
247.248	38.91
247.464	-36.86
247.681	55.3
247.898	51.2
248.115	77.82
248.332	65.53
248.549	90.11
248.766	77.82
248.983	34.82
249.2	6.14
249.417	-20.48
249.633	86.01
249.85	88.06
250.067	88.06
250.284	32.77
250.501	36.86
250.717	75.77
250.934	30.72
251.151	36.86
251.368	14.34
251.585	69.63
251.801	14.34
252.018	83.97
252.235	-20.48
252.451	51.2
252.668	-6.14
252.885	51.2
253.102	83.97
253.318	20.48
253.535	61.44
253.752	-12.29
253.968	-14.34
254.185	26.62
254.401	10.24
254.618	-51.2
254.835	36.86
255.051	-12.29
255.268	28.67
255.484	79.87
255.701	-18.43
255.917	26.62
256.134	-2.05
256.351	94.21
256.567	-18.43
256.784	16.38
257	4.1
257.217	18.43
257.433	10.24
257.65	65.53
257.866	57.34
258.082	16.38
258.299	20.48
258.515	90.11
258.732	-26.62
258.948	16.38
259.165	12.29
259.381	61.44
259.597	45.06
259.814	4.1
260.03	49.15
260.246	-32.77
260.463	34.82
260.679	12.29
260.895	71.68
261.112	24.58
261.328	2.05
261.544	18.43
261.761	61.44
261.977	28.67
262.193	10.24
262.409	-12.29
262.626	10.24
262.842	12.29
263.058	36.86
263.274	20.48
263.49	-6.14
263.707	79.87
263.923	57.34
264.139	-36.86
264.355	22.53
264.571	-14.34
264.787	49.15
265.004	67.58
265.22	30.72
265.436	45.06
265.652	32.77
265.868	38.91
266.084	45.06
266.3	61.44
266.516	-28.67
266.732	47.1
266.948	-12.29
267.164	18.43
267.38	122.88
267.596	38.91
267.812	28.67
268.028	36.86
268.244	-8.19
268.46	38.91
268.676	-8.19
268.892	57.34
269.108	38.91
269.324	2.05
269.54	32.77
269.756	57.34
269.972	-43.01
270.188	59.39
270.403	14.34
270.619	-18.43
270.835	-6.14
271.051	61.44
271.267	22.53
271.483	55.3
271.698	-2.05
271.914	26.62
272.13	57.34
272.346	53.25
272.562	12.29
272.777	61.44
272.993	40.96
273.209	57.34
273.425	24.58
273.64	49.15
273.856	-2.05
274.072	34.82
274.287	-26.62
274.503	8.19
274.719	61.44
274.934	10.24
275.15	32.77
275.366	-20.48
275.581	-45.06
275.797	94.21
276.012	32.77
276.228	88.06
276.444	8.19
276.659	40.96
276.875	-61.44
277.09	-16.38
277.306	36.86
277.521	79.87
277.737	-22.53
277.952	67.58
278.168	38.91
278.383	32.77
278.599	92.16
278.814	30.72
279.03	28.67
279.245	92.16
279.461	65.53
279.676	88.06
279.892	20.48
280.107	-10.24
280.322	-10.24
280.538	51.2
280.753	57.34
280.969	67.58
281.184	-36.86
281.399	4.1
281.615	49.15
281.83	22.53
282.045	-8.19
282.26	63.49
282.476	24.58
282.691	65.53
282.906	55.3
283.122	-4.1
283.337	104.45
283.552	69.63
283.767	14.34
283.983	22.53
284.198	38.91
284.413	59.39
284.628	-22.53
284.843	139.26
285.058	53.25
285.274	45.06
285.489	49.15
285.704	94.21
285.919	-16.38
286.134	45.06
286.349	26.62
286.564	59.39
286.779	43.01
286.995	22.53
287.21	-10.24
287.425	-20.48
287.64	-6.14
287.855	-16.38
288.07	47.1
288.285	108.54
288.5	106.49
288.715	32.77
288.93	122.88
289.145	20.48
289.36	61.44
289.575	-49.15
289.79	10.24
290.004	59.39
290.219	53.25
290.434	-20.48
290.649	49.15
290.864	81.92
291.079	94.21
291.294	-4.1
291.509	-24.58
291.724	-24.58
291.938	26.62
292.153	49.15
292.368	16.38
292.583	73.73
292.798	-32.77
293.012	75.77
293.227	43.01
293.442	57.34
293.657	45.06
293.871	96.25
294.086	20.48
294.301	114.69
294.516	16.38
294.73	-22.53
294.945	-12.29
295.16	16.38
295.374	12.29
295.589	73.73
295.804	92.16
296.018	69.63
296.233	108.54
296.447	49.15
296.662	59.39
296.877	-0
297.091	20.48
297.306	32.77
297.52	43.01
297.735	96.25
297.949	12.29
298.164	-4.1
298.378	49.15
298.593	51.2
298.807	55.3
299.022	65.53
299.236	59.39
299.451	81.92
299.665	110.59
299.88	28.67
300.094	26.62
300.309	77.82
300.523	90.11
300.737	-8.19
300.952	26.62
301.166	14.34
301.381	12.29
301.595	43.01
301.809	45.06
302.024	-12.29
302.238	43.01
302.452	12.29
302.667	67.58
302.881	139.26
303.095	-16.38
303.309	4.1
303.524	24.58
303.738	94.21
303.952	-28.67
304.166	28.67
304.381	-24.58
304.595	69.63
304.809	14.34
305.023	32.77
305.237	49.15
305.452	57.34
305.666	69.63
305.88	90.11
306.094	75.77
306.308	98.3
306.522	137.21
306.736	90.11
306.95	55.3
307.164	45.06
307.379	4.1
307.593	102.4
307.807	32.77
308.021	53.25
308.235	77.82
308.449	32.77
308.663	53.25
308.877	65.53
309.091	32.77
309.305	20.48
309.519	67.58
309.733	104.45
309.947	18.43
310.161	36.86
310.374	53.25
310.588	65.53
310.802	-57.34
311.016	59.39
311.23	36.86
311.444	-22.53
311.658	45.06
311.872	-10.24
312.085	73.73
312.299	102.4
312.513	53.25
312.727	-16.38
312.941	-12.29
313.154	67.58
313.368	61.44
313.582	36.86
313.796	-4.1
314.009	53.25
314.223	2.05
314.437	43.01
314.651	67.58
314.864	67.58
315.078	55.3
315.292	49.15
315.505	65.53
315.719	40.96
315.933	90.11
316.146	-28.67
316.36	49.15
316.573	38.91
316.787	75.77
317.001	92.16
317.214	8.19
317.428	28.67
317.641	-0
317.855	26.62
318.068	61.44
318.282	69.63
318.495	28.67
318.709	53.25
318.922	20.48
319.136	110.59
319.349	40.96
319.563	26.62
319.776	110.59
319.99	30.72
320.203	12.29
320.417	-0
320.63	20.48
320.843	118.78
321.057	47.1
321.27	-0
321.483	122.88
321.697	34.82
321.91	102.4
322.124	63.49
322.337	55.3
322.55	-10.24
322.763	16.38
322.977	-8.19
323.19	10.24
323.403	16.38
323.617	38.91
323.83	77.82
324.043	-22.53
324.256	24.58
324.469	40.96
324.683	-30.72
324.896	26.62
325.109	63.49
325.322	-12.29
325.535	155.65
325.748	69.63
325.962	114.69
326.175	49.15
326.388	6.14
326.601	45.06
326.814	88.06
327.027	86.01
327.24	71.68
327.453	-22.53
327.666	137.21
327.879	114.69
328.092	20.48
328.305	4.1
328.518	63.49
328.731	65.53
328.944	77.82
329.157	81.92
329.37	65.53
329.583	45.06
329.796	108.54
330.009	-14.34
330.222	51.2
330.435	43.01
330.648	-12.29
330.861	-38.91
331.073	47.1
331.286	40.96
331.499	47.1
331.712	61.44
331.925	88.06
332.138	-0
332.35	24.58
332.563	57.34
332.776	114.69
332.989	20.48
333.202	-28.67
333.414	10.24
333.627	65.53
333.84	118.78
334.053	71.68
334.265	45.06
334.478	32.77
334.691	2.05
334.903	14.34
335.116	106.49
335.329	49.15
335.541	71.68
335.754	90.11
335.966	-28.67
336.179	51.2
336.392	-8.19
336.604	6.14
336.817	18.43
337.029	65.53
337.242	92.16
337.454	118.78
337.667	38.91
337.88	26.62
338.092	77.82
338.305	81.92
338.517	51.2
338.729	24.58
338.942	-10.24
339.154	2.05
339.367	-4.1
339.579	96.25
339.792	36.86
340.004	102.4
340.217	16.38
340.429	96.25
340.641	40.96
340.854	-49.15
341.066	-14.34
341.278	88.06
341.491	63.49
341.703	53.25
341.915	81.92
342.128	34.82
342.34	53.25
342.552	36.86
342.764	43.01
342.977	32.77
343.189	2.05
343.401	114.69
343.613	94.21
343.826	55.3
344.038	34.82
344.25	57.34
344.462	51.2
344.674	67.58
344.886	36.86
345.099	90.11
345.311	14.34
345.523	106.49
345.735	-20.48
345.947	139.26
346.159	53.25
346.371	49.15
346.583	57.34
346.795	88.06
347.007	-18.43
347.219	110.59
347.431	32.77
347.643	77.82
347.855	-2.05
348.067	57.34
348.279	100.35
348.491	131.07
348.703	-10.24
348.915	65.53
349.127	61.44
349.339	106.49
349.551	30.72
349.763	-2.05
349.975	77.82
350.187	75.77
350.399	88.06
350.61	63.49
350.822	14.34
351.034	126.97
351.246	143.36
351.458	75.77
351.669	65.53
351.881	55.3
352.093	-6.14
352.305	53.25
352.517	14.34
352.728	22.53
352.94	90.11
353.152	100.35
353.363	81.92
353.575	98.3
353.787	79.87
353.999	92.16
354.21	51.2
354.422	28.67
354.633	83.97
354.845	6.14
355.057	94.21
355.268	122.88
355.48	75.77
355.692	92.16
355.903	-10.24
356.115	-16.38
356.326	55.3
356.538	65.53
356.749	28.67
356.961	108.54
357.172	94.21
357.384	-59.39
357.595	8.19
357.807	20.48
358.018	20.48
358.23	104.45
358.441	102.4
358.653	75.77
358.864	53.25
359.075	94.21
359.287	30.72
359.498	77.82
359.709	-24.58
359.921	12.29
360.132	67.58
360.344	86.01
360.555	116.73
360.766	88.06
360.977	16.38
361.189	104.45
361.4	73.73
361.611	-18.43
361.823	75.77
362.034	67.58
362.245	-24.58
362.456	-0
362.667	67.58
362.879	61.44
363.09	47.1
363.301	63.49
363.512	14.34
363.723	94.21
363.935	98.3
364.146	86.01
364.357	-18.43
364.568	65.53
364.779	26.62
364.99	32.77
365.201	47.1
365.412	69.63
365.623	67.58
365.834	106.49
366.045	79.87
366.256	86.01
366.467	81.92
366.678	51.2
366.889	73.73
367.1	28.67
367.311	30.72
367.522	118.78
367.733	139.26
367.944	81.92
368.155	38.91
368.366	98.3
368.577	75.77
368.788	69.63
368.999	34.82
369.209	75.77
369.42	61.44
369.631	79.87
369.842	110.59
370.053	45.06
370.264	75.77
370.474	30.72
370.685	96.25
370.896	94.21
371.107	53.25
371.317	94.21
371.528	92.16
371.739	53.25
371.95	77.82
372.16	57.34
372.371	88.06
372.582	22.53
372.792	86.01
373.003	110.59
373.214	34.82
373.424	153.6
373.635	26.62
373.846	47.1
374.056	20.48
374.267	59.39
374.477	59.39
374.688	63.49
374.898	65.53
375.109	104.45
375.319	116.73
375.53	88.06
375.74	104.45
375.951	71.68
376.161	-0
376.372	75.77
376.582	61.44
376.793	102.4
377.003	96.25
377.214	69.63
377.424	98.3
377.635	98.3
377.845	90.11
378.055	65.53
378.266	83.97
378.476	77.82
378.686	94.21
378.897	77.82
379.107	92.16
379.317	26.62
379.528	40.96
379.738	75.77
379.948	92.16
380.158	110.59
380.369	86.01
380.579	65.53
380.789	145.41
380.999	73.73
381.21	57.34
381.42	120.83
381.63	86.01
381.84	36.86
382.05	34.82
382.261	69.63
382.471	24.58
382.681	71.68
382.891	75.77
383.101	59.39
383.311	98.3
383.521	122.88
383.731	63.49
383.941	20.48
384.151	77.82
384.361	30.72
384.571	-0
384.781	126.97
384.991	184.32
385.201	172.03
385.411	77.82
385.621	65.53
385.831	40.96
386.041	77.82
386.251	77.82
386.461	22.53
386.671	90.11
386.881	-0
387.091	86.01
387.301	122.88
387.511	55.3
387.72	71.68
387.93	51.2
388.14	26.62
388.35	90.11
388.56	98.3
388.769	30.72
388.979	75.77
389.189	90.11
389.399	131.07
389.609	12.29
389.818	104.45
390.028	-8.19
390.238	129.02
390.447	108.54
390.657	61.44
390.867	120.83
391.076	32.77
391.286	43.01
391.496	67.58
391.705	69.63
391.915	120.83
392.125	77.82
392.334	110.59
392.544	161.79
392.753	47.1
392.963	63.49
393.172	118.78
393.382	14.34
393.591	182.27
393.801	98.3
394.01	38.91
394.22	81.92
394.429	79.87
394.639	86.01
394.848	165.89
395.058	100.35
395.267	116.73
395.477	114.69
395.686	143.36
395.895	163.84
396.105	129.02
396.314	131.07
396.524	59.39
396.733	106.49
396.942	122.88
397.152	141.31
397.361	135.17
397.57	108.54
397.78	20.48
397.989	81.92
398.198	163.84
398.407	79.87
398.617	88.06
398.826	114.69
399.035	24.58
399.244	182.27
399.453	147.45
399.663	167.93
399.872	63.49
400.081	155.65
400.29	149.5
400.499	159.74
400.708	147.45
400.917	112.64
401.127	65.53
401.336	122.88
401.545	118.78
401.754	61.44
401.963	151.55
402.172	118.78
402.381	184.32
402.59	159.74
402.799	88.06
403.008	159.74
403.217	157.69
403.426	176.13
403.635	124.93
403.844	120.83
404.053	149.5
404.262	192.51
404.471	235.52
404.68	147.45
404.888	180.22
405.097	155.65
405.306	172.03
405.515	153.6
405.724	165.89
405.933	292.86
406.142	198.65
406.35	188.41
406.559	217.08
406.768	237.56
406.977	192.51
407.185	282.62
407.394	231.42
407.603	196.6
407.812	176.13
408.02	319.48
408.229	288.76
408.438	229.37
408.646	258.04
408.855	231.42
409.064	307.2
409.272	321.53
409.481	301.05
409.69	264.19
409.898	370.68
410.107	391.16
410.315	335.87
410.524	387.07
410.733	419.83
410.941	356.35
411.15	483.32
411.358	364.54
411.567	550.9
411.775	442.36
411.984	405.5
412.192	567.29
412.401	528.38
412.609	507.9
412.818	567.29
413.026	647.16
413.234	632.82
413.443	612.34
413.651	661.49
413.86	612.34
414.068	749.56
414.276	626.68
414.485	727.03
414.693	804.85
414.901	800.76
415.11	802.8
415.318	802.8
415.526	841.72
415.734	874.48
415.943	845.81
416.151	927.73
416.359	985.07
416.567	1075.18
416.776	1066.99
416.984	1069.04
417.192	1112.05
417.4	1159.15
417.608	1107.95
417.817	1249.26
418.025	1200.11
418.233	1259.5
418.441	1241.07
418.649	1331.18
418.857	1482.73
419.065	1492.97
419.273	1538.02
419.481	1593.32
419.689	1806.31
419.897	1630.18
420.105	1724.39
420.313	1820.64
420.521	1943.52
420.729	1832.93
420.937	2009.06
421.145	1986.53
421.353	2131.94
421.561	2230.24
421.769	2320.35
421.977	2240.48
422.185	2394.08
422.393	2482.14
422.601	2633.69
422.809	2625.5
423.017	2631.64
423.224	2768.85
423.432	2852.82
423.64	2908.12
423.848	3076.05
424.056	3231.69
424.263	3289.04
424.471	3393.48
424.679	3362.76
424.887	3585.99
425.094	3813.32
425.302	3788.74
425.51	3925.96
425.718	3835.85
425.925	3979.2
426.133	4014.02
426.341	4308.93
426.548	4313.02
426.756	4478.91
426.964	4618.17
427.171	4804.53
427.379	5058.48
427.586	5066.67
427.794	5250.99
428.001	5291.95
428.209	5765.03
428.417	5627.82
428.624	6068.13
428.832	5971.88
429.039	5953.45
429.247	5939.11
429.454	6473.63
429.662	6946.71
429.869	6434.72
430.076	6950.81
430.284	6829.98
430.491	6989.72
430.699	7696.27
430.906	7405.45
431.114	7464.85
431.321	7856.01
431.528	8030.09
431.736	8429.44
431.943	8923
432.15	8617.85
432.358	8568.7
432.565	9062.26
432.772	9076.6
432.979	9424.75
433.187	9715.56
433.394	9906.02
433.601	10489.7
433.808	10755.93
434.016	10405.73
434.223	10817.37
434.43	11796.3
434.637	11419.47
434.844	12193.61
435.052	12263.24
435.259	12109.64
435.466	12386.11
435.673	11999.05
435.88	12994.36
436.087	13903.66
436.294	13582.13
436.501	13299.51
436.708	13563.7
436.915	14047.02
437.122	14812.96
437.329	14522.15
437.537	15148.82
437.743	15617.81
437.95	15417.11
438.157	16152.33
438.364	16680.71
438.571	16369.41
438.778	16473.86
438.985	18188.01
439.192	17321.72
439.399	17954.54
439.606	17385.21
439.813	18609.89
440.02	19660.5
440.227	19539.67
440.433	19330.78
440.64	19816.15
440.847	19736.27
441.054	20137.68
441.261	21698.23
441.467	21554.87
441.674	21731
441.881	22449.83
442.088	22191.79
442.294	22245.04
442.501	22742.69
442.708	23408.28
442.914	23979.67
443.121	25212.54
443.328	24409.74
443.534	26494.57
443.741	25222.78
443.948	24946.31
444.154	27156.07
444.361	26816.1
444.568	26893.93
444.774	26984.04
444.981	27328.09
445.187	28030.55
445.394	29118.02
445.6	28784.2
445.807	31673.88
446.013	30182.96
446.22	30590.51
446.426	31743.52
446.633	32304.66
446.839	33443.33
447.046	31751.71
447.252	33746.43
447.459	33529.34
447.665	33586.69
447.871	34940.39
448.078	36390.36
448.284	34393.59
448.491	35427.81
448.697	37111.24
448.903	37895.61
449.11	37377.48
449.316	36775.37
449.522	37694.91
449.728	38467
449.935	38706.61
450.141	38958.51
450.347	39839.14
450.553	38532.53
450.76	38806.96
450.966	39994.78
451.172	39724.45
451.378	40334.74
451.584	39740.83
451.791	40732.05
451.997	40656.28
452.203	41112.97
452.409	41420.17
452.615	40695.19
452.821	39624.1
453.027	38950.32
453.233	41270.67
453.44	39361.96
453.646	40224.15
453.852	39982.49
454.058	40826.26
454.264	39673.25
454.47	40222.11
454.676	39400.87
454.882	40269.21
455.088	36812.24
455.294	37606.85
455.5	38229.43
455.705	38438.33
455.911	36910.54
456.117	36208.09
456.323	35804.64
456.529	33785.34
456.735	35309.03
456.941	34381.3
457.147	33732.09
457.352	32683.53
457.558	32298.52
457.764	32564.75
457.97	32017.94
458.176	31305.25
458.381	31282.72
458.587	29488.7
458.793	29347.39
458.999	28061.27
459.204	30322.23
459.41	29046.34
459.616	27190.88
459.821	27373.15
460.027	27516.51
460.233	26508.91
460.438	25378.43
460.644	25947.76
460.85	24630.92
461.055	24223.37
461.261	23893.65
461.466	22286
461.672	21624.5
461.878	23269.02
462.083	21706.42
462.289	21382.84
462.494	20872.9
462.7	20248.27
462.905	19420.89
463.111	20332.23
463.316	20573.89
463.522	20182.73
463.727	19941.07
463.932	19766.99
464.138	19752.66
464.343	19912.4
464.549	19197.66
464.754	19717.84
464.959	19705.56
465.165	19674.84
465.37	18724.58
465.575	18241.26
465.781	18837.22
465.986	19111.64
466.191	18489.06
466.397	18282.22
466.602	17276.66
466.807	17694.45
467.012	17802.99
467.218	17497.85
