Data from USB4F104151__70__11-06-10-665.txt Node

Date: Wed Mar 12 11:06:10 EDT 2025
User: louis
Spectrometer: USB4F10415
Trigger mode: 4
Integration Time (sec): 2.000000E-2
Scans to average: 1
Electric dark correction enabled: true
Nonlinearity correction enabled: false
Boxcar width: 0
XAxis mode: Wavelengths
Number of Pixels in Spectrum: 3648
>>>>>Begin Spectral Data<<<<<
178.204	-47.27
178.424	-47.27
178.644	-47.27
178.864	-112.81
179.084	-63.66
179.304	51.03
179.524	-18.6
179.744	63.32
179.964	20.31
180.184	-10.41
180.404	-12.46
180.624	-55.47
180.844	1.88
181.064	-41.13
181.283	8.02
181.503	-26.79
181.723	20.31
181.943	-6.31
182.163	53.08
182.383	122.71
182.602	36.69
182.822	16.21
183.042	65.36
183.262	-94.38
183.482	55.12
183.701	30.55
183.921	22.36
184.141	-10.41
184.361	32.6
184.58	55.12
184.8	8.02
185.02	-8.36
185.239	71.51
185.459	57.17
185.679	22.36
185.898	-8.36
186.118	79.7
186.338	55.12
186.557	59.22
186.777	8.02
186.997	32.6
187.216	-4.27
187.436	69.46
187.655	-6.31
187.875	-16.55
188.095	5.97
188.314	18.26
188.534	69.46
188.753	-47.27
188.973	73.56
189.192	69.46
189.412	51.03
189.631	-22.7
189.851	46.93
190.07	28.5
190.29	-2.22
190.509	32.6
190.729	57.17
190.948	77.65
191.168	87.89
191.387	46.93
191.607	-4.27
191.826	-4.27
192.045	40.79
192.265	28.5
192.484	10.07
192.704	57.17
192.923	55.12
193.142	5.97
193.362	34.64
193.581	38.74
193.8	3.93
194.02	18.26
194.239	-118.95
194.458	20.31
194.678	22.36
194.897	-14.51
195.116	28.5
195.335	16.21
195.555	91.99
195.774	40.79
195.993	3.93
196.212	34.64
196.432	38.74
196.651	51.03
196.87	5.97
197.089	34.64
197.308	44.88
197.528	63.32
197.747	26.45
197.966	-22.7
198.185	42.84
198.404	5.97
198.623	16.21
198.842	44.88
199.062	1.88
199.281	53.08
199.5	42.84
199.719	34.64
199.938	34.64
200.157	48.98
200.376	5.97
200.595	44.88
200.814	-39.08
201.033	65.36
201.252	67.41
201.471	51.03
201.69	14.17
201.909	42.84
202.128	5.97
202.347	-6.31
202.566	106.32
202.785	-22.7
203.004	53.08
203.223	100.18
203.442	32.6
203.661	61.27
203.879	-10.41
204.098	102.23
204.317	-55.47
204.536	8.02
204.755	-2.22
204.974	106.32
205.193	40.79
205.411	67.41
205.63	59.22
205.849	30.55
206.068	34.64
206.287	53.08
206.505	112.47
206.724	-51.37
206.943	77.65
207.162	30.55
207.381	83.8
207.599	26.45
207.818	18.26
208.037	28.5
208.255	110.42
208.474	75.6
208.693	10.07
208.911	83.8
209.13	73.56
209.349	69.46
209.567	8.02
209.786	51.03
210.005	-37.03
210.223	8.02
210.442	-41.13
210.661	114.52
210.879	36.69
211.098	36.69
211.316	77.65
211.535	34.64
211.753	75.6
211.972	116.56
212.191	18.26
212.409	36.69
212.628	12.12
212.846	114.52
213.065	8.02
213.283	87.89
213.502	20.31
213.72	75.6
213.938	24.4
214.157	67.41
214.375	85.84
214.594	5.97
214.812	46.93
215.031	87.89
215.249	18.26
215.467	20.31
215.686	1.88
215.904	100.18
216.122	57.17
216.341	61.27
216.559	51.03
216.778	69.46
216.996	1.88
217.214	18.26
217.432	51.03
217.651	63.32
217.869	-43.18
218.087	-49.32
218.306	-63.66
218.524	63.32
218.742	-28.84
218.96	10.07
219.179	87.89
219.397	81.75
219.615	83.8
219.833	42.84
220.051	53.08
220.27	38.74
220.488	30.55
220.706	26.45
220.924	5.97
221.142	38.74
221.36	96.08
221.578	112.47
221.796	-14.51
222.015	18.26
222.233	34.64
222.451	8.02
222.669	-41.13
222.887	96.08
223.105	55.12
223.323	75.6
223.541	18.26
223.759	20.31
223.977	-34.99
224.195	46.93
224.413	81.75
224.631	5.97
224.849	28.5
225.067	94.04
225.285	38.74
225.503	36.69
225.721	26.45
225.939	46.93
226.157	42.84
226.375	81.75
226.592	20.31
226.81	1.88
227.028	53.08
227.246	30.55
227.464	18.26
227.682	32.6
227.9	22.36
228.117	59.22
228.335	14.17
228.553	38.74
228.771	-0.17
228.989	14.17
229.206	30.55
229.424	69.46
229.642	44.88
229.86	10.07
230.077	106.32
230.295	18.26
230.513	51.03
230.731	106.32
230.948	73.56
231.166	14.17
231.384	51.03
231.601	14.17
231.819	16.21
232.037	26.45
232.254	10.07
232.472	14.17
232.689	36.69
232.907	36.69
233.125	-30.89
233.342	40.79
233.56	85.84
233.777	67.41
233.995	18.26
234.213	36.69
234.43	22.36
234.648	28.5
234.865	69.46
235.083	22.36
235.3	-8.36
235.518	96.08
235.735	53.08
235.953	34.64
236.17	51.03
236.388	44.88
236.605	-55.47
236.822	69.46
237.04	48.98
237.257	55.12
237.475	53.08
237.692	53.08
237.909	26.45
238.127	69.46
238.344	100.18
238.562	48.98
238.779	22.36
238.996	36.69
239.214	8.02
239.431	79.7
239.648	3.93
239.865	91.99
240.083	55.12
240.3	42.84
240.517	30.55
240.735	32.6
240.952	96.08
241.169	-16.55
241.386	26.45
241.603	5.97
241.821	22.36
242.038	18.26
242.255	-26.79
242.472	48.98
242.689	30.55
242.907	132.95
243.124	79.7
243.341	57.17
243.558	-2.22
243.775	-4.27
243.992	51.03
244.209	63.32
244.426	104.28
244.643	44.88
244.86	44.88
245.078	42.84
245.295	40.79
245.512	94.04
245.729	3.93
245.946	65.36
246.163	67.41
246.38	34.64
246.597	59.22
246.814	44.88
247.031	51.03
247.248	51.03
247.464	67.41
247.681	149.33
247.898	-4.27
248.115	141.14
248.332	22.36
248.549	71.51
248.766	98.13
248.983	10.07
249.2	24.4
249.417	48.98
249.633	63.32
249.85	-20.65
250.067	10.07
250.284	116.56
250.501	48.98
250.717	55.12
250.934	-34.99
251.151	106.32
251.368	24.4
251.585	36.69
251.801	55.12
252.018	-6.31
252.235	44.88
252.451	61.27
252.668	5.97
252.885	14.17
253.102	75.6
253.318	5.97
253.535	30.55
253.752	-22.7
253.968	44.88
254.185	67.41
254.401	14.17
254.618	24.4
254.835	55.12
255.051	34.64
255.268	5.97
255.484	55.12
255.701	-32.94
255.917	61.27
256.134	36.69
256.351	98.13
256.567	75.6
256.784	57.17
257	-30.89
257.217	77.65
257.433	20.31
257.65	8.02
257.866	18.26
258.082	24.4
258.299	1.88
258.515	22.36
258.732	-24.75
258.948	-41.13
259.165	-6.31
259.381	-26.79
259.597	8.02
259.814	-16.55
260.03	77.65
260.246	42.84
260.463	3.93
260.679	40.79
260.895	53.08
261.112	120.66
261.328	-2.22
261.544	18.26
261.761	-32.94
261.977	57.17
262.193	55.12
262.409	67.41
262.626	98.13
262.842	24.4
263.058	-14.51
263.274	61.27
263.49	-10.41
263.707	28.5
263.923	71.51
264.139	-8.36
264.355	18.26
264.571	116.56
264.787	38.74
265.004	22.36
265.22	22.36
265.436	1.88
265.652	112.47
265.868	-16.55
266.084	20.31
266.3	5.97
266.516	5.97
266.732	114.52
266.948	22.36
267.164	34.64
267.38	48.98
267.596	-10.41
267.812	81.75
268.028	67.41
268.244	24.4
268.46	-28.84
268.676	-20.65
268.892	75.6
269.108	71.51
269.324	48.98
269.54	-30.89
269.756	173.91
269.972	28.5
270.188	36.69
270.403	14.17
270.619	10.07
270.835	14.17
271.051	42.84
271.267	34.64
271.483	44.88
271.698	3.93
271.914	59.22
272.13	42.84
272.346	36.69
272.562	53.08
272.777	40.79
272.993	18.26
273.209	20.31
273.425	63.32
273.64	20.31
273.856	34.64
274.072	75.6
274.287	44.88
274.503	96.08
274.719	63.32
274.934	65.36
275.15	1.88
275.366	-39.08
275.581	-16.55
275.797	100.18
276.012	-2.22
276.228	40.79
276.444	87.89
276.659	104.28
276.875	24.4
277.09	-8.36
277.306	71.51
277.521	38.74
277.737	14.17
277.952	53.08
278.168	55.12
278.383	-6.31
278.599	-24.75
278.814	59.22
279.03	42.84
279.245	96.08
279.461	71.51
279.676	10.07
279.892	53.08
280.107	24.4
280.322	55.12
280.538	116.56
280.753	46.93
280.969	10.07
281.184	112.47
281.399	26.45
281.615	112.47
281.83	26.45
282.045	55.12
282.26	94.04
282.476	-20.65
282.691	-2.22
282.906	51.03
283.122	5.97
283.337	16.21
283.552	34.64
283.767	-18.6
283.983	65.36
284.198	-18.6
284.413	-61.61
284.628	-39.08
284.843	-28.84
285.058	26.45
285.274	-92.33
285.489	53.08
285.704	1.88
285.919	-4.27
286.134	42.84
286.349	67.41
286.564	24.4
286.779	38.74
286.995	106.32
287.21	8.02
287.425	32.6
287.64	61.27
287.855	69.46
288.07	-2.22
288.285	53.08
288.5	40.79
288.715	36.69
288.93	59.22
289.145	46.93
289.36	85.84
289.575	67.41
289.79	14.17
290.004	114.52
290.219	73.56
290.434	48.98
290.649	-2.22
290.864	106.32
291.079	81.75
291.294	91.99
291.509	55.12
291.724	-22.7
291.938	67.41
292.153	81.75
292.368	85.84
292.583	83.8
292.798	-22.7
293.012	102.23
293.227	14.17
293.442	1.88
293.657	100.18
293.871	102.23
294.086	71.51
294.301	157.52
294.516	1.88
294.73	16.21
294.945	51.03
295.16	53.08
295.374	67.41
295.589	126.8
295.804	26.45
296.018	112.47
296.233	46.93
296.447	128.85
296.662	-28.84
296.877	75.6
297.091	46.93
297.306	83.8
297.52	53.08
297.735	104.28
297.949	44.88
298.164	16.21
298.378	79.7
298.593	26.45
298.807	14.17
299.022	73.56
299.236	38.74
299.451	8.02
299.665	51.03
299.88	51.03
300.094	14.17
300.309	94.04
300.523	75.6
300.737	8.02
300.952	128.85
301.166	-0.17
301.381	14.17
301.595	65.36
301.809	16.21
302.024	71.51
302.238	-37.03
302.452	63.32
302.667	59.22
302.881	28.5
303.095	73.56
303.309	48.98
303.524	44.88
303.738	-0.17
303.952	14.17
304.166	40.79
304.381	34.64
304.595	63.32
304.809	51.03
305.023	46.93
305.237	1.88
305.452	12.12
305.666	61.27
305.88	67.41
306.094	79.7
306.308	48.98
306.522	34.64
306.736	10.07
306.95	65.36
307.164	38.74
307.379	-6.31
307.593	-10.41
307.807	69.46
308.021	-4.27
308.235	85.84
308.449	20.31
308.663	14.17
308.877	61.27
309.091	14.17
309.305	89.94
309.519	44.88
309.733	55.12
309.947	1.88
310.161	12.12
310.374	8.02
310.588	-18.6
310.802	18.26
311.016	81.75
311.23	53.08
311.444	61.27
311.658	26.45
311.872	40.79
312.085	91.99
312.299	73.56
312.513	34.64
312.727	91.99
312.941	22.36
313.154	30.55
313.368	20.31
313.582	65.36
313.796	1.88
314.009	89.94
314.223	67.41
314.437	108.37
314.651	20.31
314.864	30.55
315.078	67.41
315.292	18.26
315.505	61.27
315.719	61.27
315.933	1.88
316.146	51.03
316.36	48.98
316.573	96.08
316.787	38.74
317.001	79.7
317.214	55.12
317.428	77.65
317.641	53.08
317.855	75.6
318.068	57.17
318.282	20.31
318.495	46.93
318.709	149.33
318.922	55.12
319.136	130.9
319.349	57.17
319.563	63.32
319.776	57.17
319.99	28.5
320.203	26.45
320.417	48.98
320.63	-24.75
320.843	81.75
321.057	124.76
321.27	85.84
321.483	55.12
321.697	55.12
321.91	55.12
322.124	55.12
322.337	18.26
322.55	5.97
322.763	65.36
322.977	59.22
323.19	-18.6
323.403	69.46
323.617	3.93
323.83	34.64
324.043	73.56
324.256	89.94
324.469	5.97
324.683	61.27
324.896	77.65
325.109	48.98
325.322	-34.99
325.535	91.99
325.748	42.84
325.962	-24.75
326.175	63.32
326.388	83.8
326.601	36.69
326.814	5.97
327.027	110.42
327.24	151.38
327.453	-0.17
327.666	91.99
327.879	10.07
328.092	83.8
328.305	20.31
328.518	65.36
328.731	-16.55
328.944	81.75
329.157	24.4
329.37	3.93
329.583	20.31
329.796	59.22
330.009	12.12
330.222	104.28
330.435	32.6
330.648	63.32
330.861	14.17
331.073	59.22
331.286	75.6
331.499	108.37
331.712	79.7
331.925	10.07
332.138	79.7
332.35	55.12
332.563	94.04
332.776	65.36
332.989	18.26
333.202	57.17
333.414	36.69
333.627	69.46
333.84	3.93
334.053	57.17
334.265	12.12
334.478	94.04
334.691	-2.22
334.903	42.84
335.116	63.32
335.329	24.4
335.541	36.69
335.754	108.37
335.966	63.32
336.179	79.7
336.392	20.31
336.604	116.56
336.817	46.93
337.029	69.46
337.242	61.27
337.454	69.46
337.667	5.97
337.88	26.45
338.092	61.27
338.305	63.32
338.517	40.79
338.729	83.8
338.942	112.47
339.154	-12.46
339.367	10.07
339.579	18.26
339.792	44.88
340.004	55.12
340.217	51.03
340.429	135
340.641	-20.65
340.854	30.55
341.066	65.36
341.278	77.65
341.491	96.08
341.703	12.12
341.915	57.17
342.128	120.66
342.34	40.79
342.552	83.8
342.764	69.46
342.977	104.28
343.189	1.88
343.401	118.61
343.613	-0.17
343.826	96.08
344.038	57.17
344.25	67.41
344.462	40.79
344.674	108.37
344.886	120.66
345.099	24.4
345.311	124.76
345.523	20.31
345.735	87.89
345.947	48.98
346.159	51.03
346.371	32.6
346.583	63.32
346.795	63.32
347.007	-8.36
347.219	20.31
347.431	40.79
347.643	79.7
347.855	48.98
348.067	67.41
348.279	5.97
348.491	20.31
348.703	28.5
348.915	65.36
349.127	71.51
349.339	24.4
349.551	-0.17
349.763	-0.17
349.975	24.4
350.187	34.64
350.399	20.31
350.61	-4.27
350.822	16.21
351.034	53.08
351.246	26.45
351.458	22.36
351.669	20.31
351.881	128.85
352.093	112.47
352.305	12.12
352.517	44.88
352.728	94.04
352.94	18.26
353.152	5.97
353.363	91.99
353.575	40.79
353.787	161.62
353.999	81.75
354.21	104.28
354.422	-8.36
354.633	-8.36
354.845	5.97
355.057	48.98
355.268	38.74
355.48	79.7
355.692	55.12
355.903	44.88
356.115	18.26
356.326	61.27
356.538	67.41
356.749	102.23
356.961	79.7
357.172	10.07
357.384	87.89
357.595	63.32
357.807	40.79
358.018	67.41
358.23	53.08
358.441	135
358.653	59.22
358.864	69.46
359.075	91.99
359.287	89.94
359.498	22.36
359.709	65.36
359.921	36.69
360.132	141.14
360.344	91.99
360.555	46.93
360.766	22.36
360.977	61.27
361.189	79.7
361.4	51.03
361.611	77.65
361.823	57.17
362.034	75.6
362.245	28.5
362.456	108.37
362.667	14.17
362.879	44.88
363.09	96.08
363.301	38.74
363.512	51.03
363.723	120.66
363.935	65.36
364.146	77.65
364.357	87.89
364.568	98.13
364.779	14.17
364.99	32.6
365.201	71.51
365.412	124.76
365.623	-6.31
365.834	75.6
366.045	12.12
366.256	46.93
366.467	46.93
366.678	30.55
366.889	44.88
367.1	3.93
367.311	128.85
367.522	-2.22
367.733	61.27
367.944	83.8
368.155	51.03
368.366	71.51
368.577	98.13
368.788	71.51
368.999	-28.84
369.209	63.32
369.42	98.13
369.631	163.67
369.842	81.75
370.053	46.93
370.264	1.88
370.474	59.22
370.685	67.41
370.896	122.71
371.107	143.19
371.317	147.28
371.528	116.56
371.739	65.36
371.95	53.08
372.16	65.36
372.371	12.12
372.582	42.84
372.792	34.64
373.003	108.37
373.214	67.41
373.424	67.41
373.635	5.97
373.846	18.26
374.056	40.79
374.267	91.99
374.477	87.89
374.688	48.98
374.898	24.4
375.109	114.52
375.319	104.28
375.53	102.23
375.74	132.95
375.951	85.84
376.161	139.09
376.372	91.99
376.582	3.93
376.793	67.41
377.003	69.46
377.214	63.32
377.424	51.03
377.635	63.32
377.845	48.98
378.055	63.32
378.266	-2.22
378.476	-16.55
378.686	51.03
378.897	44.88
379.107	98.13
379.317	102.23
379.528	55.12
379.738	124.76
379.948	91.99
380.158	100.18
380.369	48.98
380.579	120.66
380.789	104.28
380.999	98.13
381.21	141.14
381.42	112.47
381.63	3.93
381.84	153.43
382.05	87.89
382.261	104.28
382.471	61.27
382.681	71.51
382.891	5.97
383.101	20.31
383.311	44.88
383.521	34.64
383.731	94.04
383.941	87.89
384.151	63.32
384.361	24.4
384.571	61.27
384.781	118.61
384.991	38.74
385.201	38.74
385.411	10.07
385.621	77.65
385.831	87.89
386.041	14.17
386.251	57.17
386.461	102.23
386.671	26.45
386.881	94.04
387.091	108.37
387.301	75.6
387.511	71.51
387.72	143.19
387.93	24.4
388.14	132.95
388.35	139.09
388.56	55.12
388.769	165.71
388.979	57.17
389.189	184.15
389.399	124.76
389.609	91.99
389.818	28.5
390.028	120.66
390.238	42.84
390.447	126.8
390.657	61.27
390.867	100.18
391.076	75.6
391.286	112.47
391.496	116.56
391.705	30.55
391.915	145.24
392.125	112.47
392.334	75.6
392.544	122.71
392.753	87.89
392.963	48.98
393.172	53.08
393.382	28.5
393.591	139.09
393.801	114.52
394.01	110.42
394.22	116.56
394.429	87.89
394.639	116.56
394.848	122.71
395.058	69.46
395.267	79.7
395.477	63.32
395.686	100.18
395.895	112.47
396.105	139.09
396.314	26.45
396.524	194.39
396.733	85.84
396.942	139.09
397.152	126.8
397.361	81.75
397.57	87.89
397.78	112.47
397.989	122.71
398.198	186.19
398.407	126.8
398.617	34.64
398.826	153.43
399.035	91.99
399.244	120.66
399.453	135
399.663	94.04
399.872	83.8
400.081	100.18
400.29	198.48
400.499	153.43
400.708	208.72
400.917	69.46
401.127	73.56
401.336	102.23
401.545	161.62
401.754	190.29
401.963	178
402.172	235.35
402.381	151.38
402.59	171.86
402.799	151.38
403.008	130.9
403.217	104.28
403.426	143.19
403.635	79.7
403.844	153.43
404.053	214.87
404.262	112.47
404.471	216.91
404.68	128.85
404.888	216.91
405.097	145.24
405.306	208.72
405.515	200.53
405.724	206.67
405.933	225.11
406.142	182.1
406.35	206.67
406.559	231.25
406.768	157.52
406.977	255.83
407.185	255.83
407.394	243.54
407.603	204.63
407.812	274.26
408.02	294.74
408.229	321.36
408.438	313.17
408.646	257.87
408.855	309.07
409.064	325.46
409.272	241.49
409.481	360.27
409.69	333.65
409.898	374.61
410.107	366.42
410.315	390.99
410.524	356.18
410.733	466.77
410.941	452.43
411.15	436.05
411.358	446.29
411.567	563.02
411.775	417.61
411.984	495.44
412.192	501.58
412.401	436.05
412.609	462.67
412.818	608.08
413.026	618.32
413.234	632.65
413.443	628.56
413.651	687.95
413.86	646.99
414.068	710.47
414.276	724.81
414.485	755.53
414.693	737.1
414.901	839.5
415.11	812.87
415.318	821.06
415.526	864.07
415.734	849.74
415.943	933.7
416.151	954.18
416.359	976.71
416.567	972.61
416.776	1038.15
416.984	1181.51
417.192	1118.02
417.4	1150.79
417.608	1099.59
417.817	1300.29
418.025	1306.43
418.233	1371.97
418.441	1308.48
418.649	1439.55
418.857	1572.67
419.065	1427.26
419.273	1584.96
419.481	1603.39
419.689	1705.79
419.897	1929.02
420.105	1779.51
420.313	1869.62
420.521	1865.53
420.729	1998.65
420.937	1982.26
421.145	2164.53
421.353	2121.52
421.561	2289.46
421.769	2432.82
421.977	2449.2
422.185	2518.83
422.393	2703.15
422.601	2852.65
422.809	2727.72
423.017	2774.83
423.224	2955.05
423.432	2969.38
423.64	3075.88
423.848	3295.01
424.056	3229.48
424.263	3479.33
424.471	3585.82
424.679	3559.2
424.887	3669.79
425.094	3837.72
425.302	3823.39
425.51	4210.45
425.718	4169.49
425.925	4124.44
426.133	4402.96
426.341	4671.25
426.548	4634.38
426.756	4767.5
426.964	4947.72
427.171	5060.36
427.379	5252.87
427.586	5281.54
427.794	5326.6
428.001	5795.58
428.209	5973.75
428.417	5885.69
428.624	6186.74
428.832	6274.81
429.039	6287.09
429.247	6170.36
429.454	7083.75
429.662	7327.46
429.869	6829.81
430.076	7292.65
430.284	7284.45
430.491	7648.99
430.699	7751.39
430.906	8042.2
431.114	7849.69
431.321	8392.41
431.528	8593.11
431.736	9111.24
431.943	9510.6
432.15	9123.53
432.358	9205.45
432.565	9721.54
432.772	9756.35
432.979	10127.03
433.187	10376.89
433.394	10585.78
433.601	11210.41
433.808	11239.08
434.016	11271.85
434.223	11763.36
434.43	12422.81
434.637	12015.26
434.844	12916.37
435.052	13172.36
435.259	13041.29
435.466	13211.28
435.673	13022.86
435.88	14073.47
436.087	14888.56
436.294	14626.42
436.501	14478.97
436.708	14521.98
436.915	15142.51
437.122	15806.05
437.329	15804
437.537	16277.08
437.743	16412.25
437.95	16469.59
438.157	17370.7
438.364	17862.21
438.571	17962.56
438.778	17802.82
438.985	19426.86
439.192	18847.29
439.399	19707.43
439.606	18896.44
439.813	20026.92
440.02	21181.97
440.227	20778.52
440.433	20483.61
440.64	21548.56
440.847	21208.59
441.054	21818.89
441.261	23410.16
441.467	22879.74
441.674	23559.66
441.881	24206.82
442.088	24200.68
442.294	24354.27
442.501	24786.4
442.708	25206.23
442.914	25943.5
443.121	27366.84
443.328	26703.29
443.534	28614.05
443.741	27594.16
443.948	27258.29
444.154	29169.05
444.361	29076.89
444.568	29486.48
444.774	29109.66
444.981	29846.93
445.187	30692.74
445.394	31528.31
445.6	31485.3
445.807	34225.48
446.013	33095
446.22	33631.57
446.426	34934.08
446.633	35190.08
446.839	36140.33
447.046	34626.88
447.252	36730.15
447.459	36580.65
447.665	36359.47
447.871	37895.44
448.078	39826.68
448.284	37829.91
448.491	38767.88
448.697	40279.28
448.903	41460.96
449.11	41125.09
449.316	40662.25
449.522	41430.24
449.728	42355.92
449.935	42566.86
450.141	42075.35
450.347	43232.45
450.553	41862.36
450.76	42405.07
450.966	43656.38
451.172	43220.16
451.378	44508.33
451.584	43801.78
451.791	44555.44
451.997	44487.85
452.203	44735.66
452.409	45106.34
452.615	44924.07
452.821	43441.34
453.027	43013.32
453.233	44774.57
453.44	42874.06
453.646	44010.68
453.852	43814.07
454.058	44145.84
454.264	42976.45
454.47	44354.74
454.676	42829
454.882	44008.63
455.088	40293.61
455.294	40815.85
455.5	41626.84
455.705	42104.02
455.911	40344.81
456.117	39738.61
456.323	38946.05
456.529	36775.2
456.735	38599.94
456.941	37432.6
457.147	36891.94
457.352	35820.85
457.558	35745.08
457.764	35462.46
457.97	34694.47
458.176	34233.67
458.381	34141.52
458.587	32144.75
458.793	32560.48
458.999	30655.87
459.204	32965.98
459.41	32011.63
459.616	30090.63
459.821	30115.21
460.027	29523.35
460.233	28980.64
460.438	27698.61
460.644	28143.02
460.85	26926.52
461.055	26557.89
461.261	26428.87
461.466	24550.88
461.672	23981.54
461.878	25267.67
462.083	23854.57
462.289	23207.41
462.494	23162.36
462.7	22472.19
462.905	21380.62
463.111	22031.88
463.316	22222.34
463.522	21788.17
463.727	22013.45
463.932	22267.39
464.138	21665.29
464.343	21845.51
464.549	21116.44
464.754	21808.65
464.959	21718.54
465.165	21263.89
465.37	20586.01
465.575	20067.88
465.781	20860.44
465.986	21026.32
466.191	20260.38
466.397	19691.05
466.602	18837.05
466.807	19602.99
467.012	19650.09
467.218	19375.66
467.423	19263.02
