Data from USB4F104151__167__11-08-49-588.txt Node

Date: Wed Mar 12 11:08:49 EDT 2025
User: louis
Spectrometer: USB4F10415
Trigger mode: 4
Integration Time (sec): 2.000000E-2
Scans to average: 1
Electric dark correction enabled: true
Nonlinearity correction enabled: false
Boxcar width: 0
XAxis mode: Wavelengths
Number of Pixels in Spectrum: 3648
>>>>>Begin Spectral Data<<<<<
178.204	-50.18
178.424	-50.18
178.644	-50.18
178.864	-9.22
179.084	-35.84
179.304	-15.36
179.524	-11.26
179.744	29.7
179.964	54.27
180.184	-21.5
180.404	13.31
180.624	3.07
180.844	50.18
181.064	-25.6
181.283	39.94
181.503	-87.04
181.723	-29.7
181.943	-13.31
182.163	19.46
182.383	97.28
182.602	-25.6
182.822	-1.02
183.042	-7.17
183.262	-13.31
183.482	23.55
183.701	44.03
183.921	41.98
184.141	-13.31
184.361	-17.41
184.58	58.37
184.8	48.13
185.02	9.22
185.239	17.41
185.459	87.04
185.679	19.46
185.898	41.98
186.118	1.02
186.338	52.22
186.557	29.7
186.777	1.02
186.997	35.84
187.216	-46.08
187.436	74.75
187.655	64.51
187.875	39.94
188.095	66.56
188.314	-21.5
188.534	72.7
188.753	84.99
188.973	87.04
189.192	64.51
189.412	25.6
189.631	-48.13
189.851	25.6
190.07	93.18
190.29	-74.75
190.509	17.41
190.729	41.98
190.948	41.98
191.168	130.05
191.387	37.89
191.607	62.46
191.826	7.17
192.045	29.7
192.265	-23.55
192.484	58.37
192.704	99.33
192.923	7.17
193.142	107.52
193.362	72.7
193.581	52.22
193.8	95.23
194.02	37.89
194.239	48.13
194.458	37.89
194.678	-19.46
194.897	35.84
195.116	21.5
195.335	25.6
195.555	-11.26
195.774	-64.51
195.993	11.26
196.212	-17.41
196.432	54.27
196.651	48.13
196.87	64.51
197.089	-17.41
197.308	13.31
197.528	-44.03
197.747	17.41
197.966	80.89
198.185	54.27
198.404	9.22
198.623	-5.12
198.842	76.8
199.062	11.26
199.281	66.56
199.5	33.79
199.719	33.79
199.938	64.51
200.157	41.98
200.376	-72.7
200.595	21.5
200.814	31.74
201.033	13.31
201.252	27.65
201.471	117.76
201.69	125.95
201.909	19.46
202.128	17.41
202.347	-5.12
202.566	60.42
202.785	-1.02
203.004	-21.5
203.223	80.89
203.442	-60.42
203.661	33.79
203.879	46.08
204.098	52.22
204.317	-29.7
204.536	21.5
204.755	27.65
204.974	111.61
205.193	-11.26
205.411	54.27
205.63	37.89
205.849	29.7
206.068	25.6
206.287	-11.26
206.505	72.7
206.724	91.13
206.943	19.46
207.162	7.17
207.381	27.65
207.599	128
207.818	-80.89
208.037	46.08
208.255	52.22
208.474	39.94
208.693	-11.26
208.911	74.75
209.13	11.26
209.349	46.08
209.567	11.26
209.786	-15.36
210.005	148.48
210.223	35.84
210.442	33.79
210.661	-62.46
210.879	-13.31
211.098	15.36
211.316	-23.55
211.535	3.07
211.753	-27.65
211.972	27.65
212.191	84.99
212.409	23.55
212.628	95.23
212.846	33.79
213.065	-23.55
213.283	31.74
213.502	105.47
213.72	-19.46
213.938	9.22
214.157	97.28
214.375	9.22
214.594	23.55
214.812	80.89
215.031	-5.12
215.249	25.6
215.467	103.42
215.686	-5.12
215.904	95.23
216.122	44.03
216.341	78.85
216.559	-21.5
216.778	48.13
216.996	35.84
217.214	35.84
217.432	31.74
217.651	29.7
217.869	29.7
218.087	-76.8
218.306	23.55
218.524	-3.07
218.742	-31.74
218.96	56.32
219.179	25.6
219.397	74.75
219.615	29.7
219.833	68.61
220.051	-11.26
220.27	158.72
220.488	11.26
220.706	101.37
220.924	78.85
221.142	29.7
221.36	-17.41
221.578	44.03
221.796	31.74
222.015	31.74
222.233	35.84
222.451	13.31
222.669	-48.13
222.887	62.46
223.105	-23.55
223.323	-7.17
223.541	19.46
223.759	91.13
223.977	25.6
224.195	113.66
224.413	80.89
224.631	109.57
224.849	11.26
225.067	68.61
225.285	103.42
225.503	15.36
225.721	5.12
225.939	37.89
226.157	66.56
226.375	54.27
226.592	-17.41
226.81	117.76
227.028	-13.31
227.246	82.94
227.464	-39.94
227.682	74.75
227.9	21.5
228.117	48.13
228.335	19.46
228.553	103.42
228.771	41.98
228.989	5.12
229.206	-7.17
229.424	9.22
229.642	44.03
229.86	27.65
230.077	-23.55
230.295	50.18
230.513	74.75
230.731	46.08
230.948	136.19
231.166	29.7
231.384	62.46
231.601	68.61
231.819	-33.79
232.037	35.84
232.254	25.6
232.472	136.19
232.689	19.46
232.907	78.85
233.125	-23.55
233.342	66.56
233.56	5.12
233.777	62.46
233.995	13.31
234.213	62.46
234.43	9.22
234.648	-3.07
234.865	37.89
235.083	103.42
235.3	-11.26
235.518	17.41
235.735	-15.36
235.953	44.03
236.17	50.18
236.388	41.98
236.605	-39.94
236.822	138.24
237.04	37.89
237.257	29.7
237.475	27.65
237.692	-33.79
237.909	93.18
238.127	23.55
238.344	-15.36
238.562	17.41
238.779	-37.89
238.996	33.79
239.214	27.65
239.431	13.31
239.648	21.5
239.865	76.8
240.083	35.84
240.3	115.71
240.517	48.13
240.735	52.22
240.952	52.22
241.169	115.71
241.386	21.5
241.603	82.94
241.821	56.32
242.038	66.56
242.255	33.79
242.472	-29.7
242.689	76.8
242.907	3.07
243.124	46.08
243.341	52.22
243.558	-15.36
243.775	27.65
243.992	-33.79
244.209	-3.07
244.426	21.5
244.643	89.09
244.86	13.31
245.078	-9.22
245.295	-1.02
245.512	44.03
245.729	64.51
245.946	74.75
246.163	70.65
246.38	39.94
246.597	13.31
246.814	35.84
247.031	-39.94
247.248	62.46
247.464	117.76
247.681	50.18
247.898	70.65
248.115	56.32
248.332	-93.18
248.549	68.61
248.766	21.5
248.983	115.71
249.2	44.03
249.417	72.7
249.633	21.5
249.85	-27.65
250.067	33.79
250.284	-39.94
250.501	95.23
250.717	41.98
250.934	-35.84
251.151	-23.55
251.368	62.46
251.585	70.65
251.801	15.36
252.018	-19.46
252.235	80.89
252.451	21.5
252.668	41.98
252.885	-17.41
253.102	68.61
253.318	74.75
253.535	-1.02
253.752	13.31
253.968	132.09
254.185	3.07
254.401	-64.51
254.618	46.08
254.835	1.02
255.051	97.28
255.268	66.56
255.484	66.56
255.701	56.32
255.917	91.13
256.134	46.08
256.351	101.37
256.567	21.5
256.784	105.47
257	21.5
257.217	17.41
257.433	52.22
257.65	95.23
257.866	25.6
258.082	7.17
258.299	1.02
258.515	93.18
258.732	-19.46
258.948	48.13
259.165	62.46
259.381	58.37
259.597	68.61
259.814	56.32
260.03	82.94
260.246	33.79
260.463	21.5
260.679	-33.79
260.895	56.32
261.112	21.5
261.328	13.31
261.544	-29.7
261.761	87.04
261.977	46.08
262.193	74.75
262.409	78.85
262.626	41.98
262.842	58.37
263.058	-7.17
263.274	44.03
263.49	21.5
263.707	23.55
263.923	70.65
264.139	39.94
264.355	-5.12
264.571	56.32
264.787	23.55
265.004	82.94
265.22	-3.07
265.436	3.07
265.652	1.02
265.868	7.17
266.084	48.13
266.3	39.94
266.516	25.6
266.732	-17.41
266.948	-21.5
267.164	60.42
267.38	-7.17
267.596	35.84
267.812	1.02
268.028	-13.31
268.244	99.33
268.46	87.04
268.676	-7.17
268.892	17.41
269.108	-11.26
269.324	66.56
269.54	-29.7
269.756	50.18
269.972	13.31
270.188	17.41
270.403	37.89
270.619	17.41
270.835	89.09
271.051	11.26
271.267	37.89
271.483	56.32
271.698	23.55
271.914	3.07
272.13	48.13
272.346	29.7
272.562	-3.07
272.777	87.04
272.993	17.41
273.209	19.46
273.425	52.22
273.64	58.37
273.856	37.89
274.072	-5.12
274.287	-27.65
274.503	68.61
274.719	74.75
274.934	-7.17
275.15	44.03
275.366	33.79
275.581	66.56
275.797	93.18
276.012	33.79
276.228	76.8
276.444	-33.79
276.659	54.27
276.875	-11.26
277.09	93.18
277.306	95.23
277.521	39.94
277.737	70.65
277.952	-9.22
278.168	5.12
278.383	68.61
278.599	25.6
278.814	-1.02
279.03	37.89
279.245	5.12
279.461	44.03
279.676	9.22
279.892	-27.65
280.107	-39.94
280.322	19.46
280.538	62.46
280.753	3.07
280.969	41.98
281.184	35.84
281.399	70.65
281.615	-35.84
281.83	41.98
282.045	-1.02
282.26	72.7
282.476	54.27
282.691	3.07
282.906	17.41
283.122	60.42
283.337	5.12
283.552	82.94
283.767	25.6
283.983	76.8
284.198	21.5
284.413	15.36
284.628	-1.02
284.843	19.46
285.058	9.22
285.274	25.6
285.489	-50.18
285.704	91.13
285.919	103.42
286.134	62.46
286.349	23.55
286.564	11.26
286.779	-29.7
286.995	107.52
287.21	52.22
287.425	101.37
287.64	41.98
287.855	9.22
288.07	56.32
288.285	80.89
288.5	33.79
288.715	11.26
288.93	-13.31
289.145	1.02
289.36	27.65
289.575	9.22
289.79	74.75
290.004	25.6
290.219	115.71
290.434	56.32
290.649	68.61
290.864	13.31
291.079	19.46
291.294	54.27
291.509	25.6
291.724	70.65
291.938	25.6
292.153	-46.08
292.368	60.42
292.583	29.7
292.798	68.61
293.012	11.26
293.227	50.18
293.442	82.94
293.657	103.42
293.871	56.32
294.086	17.41
294.301	166.91
294.516	29.7
294.73	-1.02
294.945	54.27
295.16	58.37
295.374	115.71
295.589	9.22
295.804	-27.65
296.018	-11.26
296.233	105.47
296.447	80.89
296.662	17.41
296.877	72.7
297.091	-7.17
297.306	33.79
297.52	66.56
297.735	60.42
297.949	101.37
298.164	-17.41
298.378	66.56
298.593	-9.22
298.807	48.13
299.022	3.07
299.236	130.05
299.451	54.27
299.665	62.46
299.88	19.46
300.094	-31.74
300.309	23.55
300.523	-17.41
300.737	58.37
300.952	109.57
301.166	-15.36
301.381	136.19
301.595	46.08
301.809	46.08
302.024	84.99
302.238	9.22
302.452	117.76
302.667	89.09
302.881	111.61
303.095	-5.12
303.309	50.18
303.524	48.13
303.738	58.37
303.952	-70.65
304.166	44.03
304.381	19.46
304.595	60.42
304.809	-39.94
305.023	66.56
305.237	-3.07
305.452	115.71
305.666	13.31
305.88	95.23
306.094	29.7
306.308	84.99
306.522	-3.07
306.736	25.6
306.95	62.46
307.164	74.75
307.379	87.04
307.593	3.07
307.807	115.71
308.021	19.46
308.235	23.55
308.449	-3.07
308.663	76.8
308.877	58.37
309.091	66.56
309.305	37.89
309.519	-21.5
309.733	44.03
309.947	11.26
310.161	121.85
310.374	41.98
310.588	64.51
310.802	50.18
311.016	39.94
311.23	87.04
311.444	121.85
311.658	97.28
311.872	76.8
312.085	37.89
312.299	-54.27
312.513	111.61
312.727	68.61
312.941	3.07
313.154	-1.02
313.368	19.46
313.582	70.65
313.796	-23.55
314.009	35.84
314.223	25.6
314.437	-15.36
314.651	91.13
314.864	5.12
315.078	5.12
315.292	11.26
315.505	48.13
315.719	23.55
315.933	27.65
316.146	93.18
316.36	70.65
316.573	13.31
316.787	29.7
317.001	-23.55
317.214	-3.07
317.428	50.18
317.641	50.18
317.855	-35.84
318.068	19.46
318.282	-11.26
318.495	70.65
318.709	1.02
318.922	99.33
319.136	1.02
319.349	5.12
319.563	41.98
319.776	17.41
319.99	-64.51
320.203	5.12
320.417	31.74
320.63	44.03
320.843	72.7
321.057	60.42
321.27	97.28
321.483	35.84
321.697	48.13
321.91	23.55
322.124	66.56
322.337	105.47
322.55	37.89
322.763	37.89
322.977	-7.17
323.19	11.26
323.403	25.6
323.617	-7.17
323.83	103.42
324.043	50.18
324.256	74.75
324.469	-68.61
324.683	-17.41
324.896	103.42
325.109	37.89
325.322	29.7
325.535	76.8
325.748	41.98
325.962	1.02
326.175	78.85
326.388	-1.02
326.601	23.55
326.814	35.84
327.027	15.36
327.24	27.65
327.453	-44.03
327.666	89.09
327.879	48.13
328.092	37.89
328.305	54.27
328.518	78.85
328.731	-1.02
328.944	64.51
329.157	11.26
329.37	23.55
329.583	17.41
329.796	74.75
330.009	56.32
330.222	5.12
330.435	95.23
330.648	-13.31
330.861	97.28
331.073	-13.31
331.286	48.13
331.499	54.27
331.712	58.37
331.925	87.04
332.138	37.89
332.35	-13.31
332.563	-19.46
332.776	23.55
332.989	39.94
333.202	25.6
333.414	19.46
333.627	25.6
333.84	-31.74
334.053	107.52
334.265	7.17
334.478	-3.07
334.691	46.08
334.903	58.37
335.116	70.65
335.329	76.8
335.541	19.46
335.754	48.13
335.966	-41.98
336.179	123.9
336.392	68.61
336.604	46.08
336.817	13.31
337.029	31.74
337.242	78.85
337.454	72.7
337.667	13.31
337.88	76.8
338.092	117.76
338.305	78.85
338.517	-7.17
338.729	7.17
338.942	177.15
339.154	31.74
339.367	-9.22
339.579	41.98
339.792	-31.74
340.004	44.03
340.217	58.37
340.429	80.89
340.641	-33.79
340.854	93.18
341.066	44.03
341.278	-7.17
341.491	101.37
341.703	33.79
341.915	46.08
342.128	21.5
342.34	29.7
342.552	15.36
342.764	103.42
342.977	64.51
343.189	89.09
343.401	121.85
343.613	-31.74
343.826	70.65
344.038	80.89
344.25	-15.36
344.462	99.33
344.674	1.02
344.886	52.22
345.099	121.85
345.311	-7.17
345.523	23.55
345.735	136.19
345.947	3.07
346.159	37.89
346.371	17.41
346.583	3.07
346.795	33.79
347.007	37.89
347.219	11.26
347.431	39.94
347.643	70.65
347.855	9.22
348.067	76.8
348.279	27.65
348.491	-39.94
348.703	15.36
348.915	46.08
349.127	9.22
349.339	31.74
349.551	82.94
349.763	-17.41
349.975	76.8
350.187	93.18
350.399	101.37
350.61	-7.17
350.822	80.89
351.034	33.79
351.246	25.6
351.458	72.7
351.669	46.08
351.881	84.99
352.093	5.12
352.305	76.8
352.517	3.07
352.728	44.03
352.94	25.6
353.152	66.56
353.363	29.7
353.575	-15.36
353.787	54.27
353.999	-9.22
354.21	82.94
354.422	119.81
354.633	29.7
354.845	62.46
355.057	25.6
355.268	-33.79
355.48	31.74
355.692	54.27
355.903	-7.17
356.115	66.56
356.326	89.09
356.538	76.8
356.749	97.28
356.961	17.41
357.172	46.08
357.384	64.51
357.595	84.99
357.807	-23.55
358.018	13.31
358.23	93.18
358.441	46.08
358.653	15.36
358.864	74.75
359.075	80.89
359.287	103.42
359.498	37.89
359.709	11.26
359.921	19.46
360.132	74.75
360.344	115.71
360.555	9.22
360.766	-1.02
360.977	68.61
361.189	60.42
361.4	35.84
361.611	50.18
361.823	37.89
362.034	39.94
362.245	48.13
362.456	11.26
362.667	93.18
362.879	64.51
363.09	39.94
363.301	-19.46
363.512	21.5
363.723	58.37
363.935	-1.02
364.146	5.12
364.357	52.22
364.568	21.5
364.779	-37.89
364.99	89.09
365.201	46.08
365.412	103.42
365.623	3.07
365.834	78.85
366.045	130.05
366.256	87.04
366.467	44.03
366.678	17.41
366.889	50.18
367.1	15.36
367.311	39.94
367.522	13.31
367.733	80.89
367.944	84.99
368.155	62.46
368.366	25.6
368.577	72.7
368.788	84.99
368.999	5.12
369.209	76.8
369.42	48.13
369.631	113.66
369.842	19.46
370.053	76.8
370.264	11.26
370.474	44.03
370.685	-19.46
370.896	76.8
371.107	64.51
371.317	56.32
371.528	91.13
371.739	27.65
371.95	5.12
372.16	15.36
372.371	29.7
372.582	119.81
372.792	52.22
373.003	115.71
373.214	103.42
373.424	52.22
373.635	29.7
373.846	46.08
374.056	66.56
374.267	115.71
374.477	-11.26
374.688	74.75
374.898	58.37
375.109	68.61
375.319	5.12
375.53	109.57
375.74	89.09
375.951	80.89
376.161	91.13
376.372	78.85
376.582	68.61
376.793	37.89
377.003	93.18
377.214	70.65
377.424	74.75
377.635	13.31
377.845	46.08
378.055	66.56
378.266	68.61
378.476	-11.26
378.686	17.41
378.897	50.18
379.107	56.32
379.317	76.8
379.528	95.23
379.738	117.76
379.948	46.08
380.158	27.65
380.369	93.18
380.579	82.94
380.789	9.22
380.999	50.18
381.21	23.55
381.42	84.99
381.63	99.33
381.84	50.18
382.05	44.03
382.261	109.57
382.471	101.37
382.681	41.98
382.891	93.18
383.101	29.7
383.311	-11.26
383.521	-5.12
383.731	74.75
383.941	62.46
384.151	50.18
384.361	115.71
384.571	93.18
384.781	74.75
384.991	50.18
385.201	115.71
385.411	52.22
385.621	128
385.831	37.89
386.041	39.94
386.251	70.65
386.461	132.09
386.671	1.02
386.881	25.6
387.091	5.12
387.301	-23.55
387.511	21.5
387.72	1.02
387.93	33.79
388.14	35.84
388.35	21.5
388.56	156.67
388.769	95.23
388.979	95.23
389.189	46.08
389.399	121.85
389.609	44.03
389.818	128
390.028	91.13
390.238	105.47
390.447	7.17
390.657	56.32
390.867	117.76
391.076	11.26
391.286	3.07
391.496	44.03
391.705	54.27
391.915	93.18
392.125	89.09
392.334	56.32
392.544	103.42
392.753	54.27
392.963	74.75
393.172	80.89
393.382	-1.02
393.591	13.31
393.801	68.61
394.01	111.61
394.22	37.89
394.429	64.51
394.639	39.94
394.848	52.22
395.058	64.51
395.267	9.22
395.477	144.38
395.686	13.31
395.895	95.23
396.105	123.9
396.314	111.61
396.524	154.62
396.733	74.75
396.942	115.71
397.152	107.52
397.361	132.09
397.57	33.79
397.78	101.37
397.989	123.9
398.198	37.89
398.407	113.66
398.617	97.28
398.826	136.19
399.035	115.71
399.244	84.99
399.453	105.47
399.663	76.8
399.872	119.81
400.081	56.32
400.29	199.68
400.499	60.42
400.708	76.8
400.917	97.28
401.127	27.65
401.336	99.33
401.545	58.37
401.754	132.09
401.963	152.57
402.172	62.46
402.381	113.66
402.59	164.86
402.799	76.8
403.008	103.42
403.217	158.72
403.426	103.42
403.635	80.89
403.844	66.56
404.053	68.61
404.262	117.76
404.471	136.19
404.68	152.57
404.888	185.34
405.097	123.9
405.306	160.77
405.515	128
405.724	109.57
405.933	117.76
406.142	209.92
406.35	119.81
406.559	183.29
406.768	146.43
406.977	199.68
407.185	109.57
407.394	185.34
407.603	168.96
407.812	177.15
408.02	259.07
408.229	140.29
408.438	205.82
408.646	154.62
408.855	171.01
409.064	261.12
409.272	238.59
409.481	205.82
409.69	261.12
409.898	201.72
410.107	275.45
410.315	287.74
410.524	300.03
410.733	242.68
410.941	332.79
411.15	267.26
411.358	353.27
411.567	297.98
411.775	304.12
411.984	328.7
412.192	287.74
412.401	302.08
412.609	353.27
412.818	347.13
413.026	408.57
413.234	338.94
413.443	345.08
413.651	437.24
413.86	457.72
414.068	578.55
414.276	463.86
414.485	498.68
414.693	506.87
414.901	535.54
415.11	545.78
415.318	517.11
415.526	596.98
415.734	556.02
415.943	590.84
416.151	621.56
416.359	697.33
416.567	648.18
416.776	650.23
416.984	785.4
417.192	746.48
417.4	852.98
417.608	879.6
417.817	807.92
418.025	836.6
418.233	979.95
418.441	916.47
418.649	975.86
418.857	988.14
419.065	1022.96
419.273	1102.83
419.481	1123.31
419.689	1080.3
419.897	1149.93
420.105	1102.83
420.313	1262.57
420.521	1356.78
420.729	1317.87
420.937	1358.83
421.145	1321.96
421.353	1434.6
421.561	1369.07
421.769	1596.39
421.977	1616.87
422.185	1520.62
422.393	1811.43
422.601	1807.33
422.809	1821.67
423.017	1758.18
423.224	1815.52
423.432	1862.63
423.64	1983.46
423.848	2069.47
424.056	2071.52
424.263	2231.26
424.471	2257.89
424.679	2259.93
424.887	2438.11
425.094	2644.95
425.302	2393.05
425.51	2653.14
425.718	2651.1
425.925	2657.24
426.133	2808.79
426.341	2954.19
426.548	2999.25
426.756	3118.03
426.964	3138.51
427.171	3285.97
427.379	3402.7
427.586	3451.85
427.794	3441.61
428.001	3738.57
428.209	3918.79
428.417	3658.7
428.624	3965.89
428.832	3945.41
429.039	3949.51
429.247	4172.74
429.454	4246.46
429.662	4551.61
429.869	4506.56
430.076	4826.04
430.284	4484.03
430.491	4703.16
430.699	5026.74
430.906	4944.82
431.114	5172.15
431.321	5436.33
431.528	5346.22
431.736	5628.84
431.943	6196.13
432.15	5716.9
432.358	5788.58
432.565	6181.79
432.772	6253.47
432.979	6437.79
433.187	6536.09
433.394	6701.98
433.601	7103.38
433.808	7058.32
434.016	6865.82
434.223	7285.65
434.43	7691.15
434.637	7652.24
434.844	8311.68
435.052	8186.76
435.259	8467.33
435.466	8256.39
435.673	7979.91
435.88	8713.08
436.087	9225.08
436.294	9145.2
436.501	9083.77
436.708	9278.32
436.915	9415.54
437.122	9796.46
437.329	9872.23
437.537	10312.55
437.743	10308.45
437.95	10232.68
438.157	10713.95
438.364	11080.53
438.571	11080.53
438.778	11311.96
438.985	12278.6
439.192	11701.07
439.399	12237.64
439.606	11959.11
439.813	12534.59
440.02	13159.22
440.227	13026.11
440.433	13017.91
440.64	13425.46
440.847	13169.46
441.054	13886.25
441.261	14557.99
441.467	14345
441.674	14826.27
441.881	15319.83
442.088	15168.28
442.294	15088.41
442.501	15409.94
442.708	15848.21
442.914	16421.64
443.121	16859.9
443.328	16427.78
443.534	17871.6
443.741	17163
443.948	16861.95
444.154	17996.53
444.361	18201.32
444.568	18025.2
444.774	18043.63
444.981	18688.74
445.187	19043.04
445.394	19866.32
445.6	19419.86
445.807	21177.02
446.013	20443.85
446.22	20886.21
446.426	21541.56
446.633	21979.82
446.839	22346.41
447.046	21469.88
447.252	22551.21
447.459	22985.38
447.665	22592.17
447.871	23495.32
448.078	24341.13
448.284	23577.24
448.491	24195.73
448.697	25041.54
448.903	25361.02
449.11	25500.28
449.316	25113.22
449.522	25377.4
449.728	26376.81
449.935	26325.61
450.141	25930.36
450.347	26868.33
450.553	26227.31
450.76	26323.57
450.966	27390.56
451.172	26794.6
451.378	27466.33
451.584	27208.29
451.791	27550.3
451.997	27630.17
452.203	28062.29
452.409	27814.49
452.615	27687.51
452.821	26587.75
453.027	26624.62
453.233	27976.28
453.44	26761.83
453.646	27226.72
453.852	27142.75
454.058	27357.79
454.264	26690.15
454.47	27050.6
454.676	26655.34
454.882	27249.25
455.088	25275.01
455.294	25029.25
455.5	25864.82
455.705	25639.54
455.911	24722.05
456.117	24351.37
456.323	24052.37
456.529	22809.25
456.735	23710.36
456.941	23093.92
457.147	22526.63
457.352	22131.37
457.558	21809.84
457.764	21807.8
457.97	21449.4
458.176	20789.95
458.381	21029.57
458.587	19720.92
458.793	19866.32
458.999	19075.8
459.204	20320.97
459.41	19757.78
459.616	18137.84
459.821	18318.06
460.027	18506.47
460.233	17883.89
460.438	16993.02
460.644	17257.21
460.85	16362.25
461.055	16098.06
461.261	16022.28
461.466	14824.22
461.672	14519.07
461.878	15620.88
462.083	14439.2
462.289	14273.32
462.494	14074.67
462.7	13591.34
462.905	12882.75
463.111	13587.25
463.316	13458.23
463.522	13144.89
463.727	13464.37
463.932	13423.41
464.138	13265.72
464.343	13339.44
464.549	12866.36
464.754	13433.65
464.959	13296.44
465.165	13103.93
465.37	12542.78
465.575	12122.95
465.781	12639.04
465.986	13005.63
466.191	12436.29
466.397	12256.07
466.602	11357.01
466.807	12219.21
467.012	12020.55
467.218	12059.46
467.423	11588.43
467.628	11914.06
467.833	12348.23
468.038	11881.29
