Data from USB4F104151__67__11-06-08-785.txt Node

Date: Wed Mar 12 11:06:08 EDT 2025
User: louis
Spectrometer: USB4F10415
Trigger mode: 4
Integration Time (sec): 2.000000E-2
Scans to average: 1
Electric dark correction enabled: true
Nonlinearity correction enabled: false
Boxcar width: 0
XAxis mode: Wavelengths
Number of Pixels in Spectrum: 3648
>>>>>Begin Spectral Data<<<<<
178.204	-82.6
178.424	-82.6
178.644	-82.6
178.864	-68.27
179.084	-72.36
179.304	-31.4
179.524	-72.36
179.744	30.04
179.964	34.13
180.184	5.46
180.404	7.51
180.624	-19.11
180.844	44.37
181.064	-4.78
181.283	30.04
181.503	-43.69
181.723	19.8
181.943	34.13
182.163	17.75
182.383	66.9
182.602	75.09
182.822	89.43
183.042	75.09
183.262	-15.02
183.482	23.89
183.701	38.23
183.921	48.47
184.141	-2.73
184.361	58.71
184.58	9.56
184.8	-37.55
185.02	-37.55
185.239	15.7
185.459	-17.07
185.679	79.19
185.898	5.46
186.118	13.65
186.338	15.7
186.557	1.37
186.777	-35.5
186.997	-107.18
187.216	105.81
187.436	83.28
187.655	-53.93
187.875	30.04
188.095	21.84
188.314	27.99
188.534	21.84
188.753	64.85
188.973	-0.68
189.192	30.04
189.412	-23.21
189.631	-35.5
189.851	-15.02
190.07	83.28
190.29	1.37
190.509	79.19
190.729	13.65
190.948	73.04
191.168	73.04
191.387	71
191.607	-15.02
191.826	-58.03
192.045	-25.26
192.265	40.28
192.484	75.09
192.704	87.38
192.923	5.46
193.142	87.38
193.362	27.99
193.581	9.56
193.8	11.61
194.02	93.52
194.239	32.08
194.458	-19.11
194.678	7.51
194.897	-2.73
195.116	60.76
195.335	-33.45
195.555	58.71
195.774	21.84
195.993	46.42
196.212	42.32
196.432	5.46
196.651	-25.26
196.87	-10.92
197.089	42.32
197.308	44.37
197.528	-8.87
197.747	-90.79
197.966	27.99
198.185	30.04
198.404	44.37
198.623	-68.27
198.842	46.42
199.062	111.96
199.281	128.34
199.5	13.65
199.719	-19.11
199.938	25.94
200.157	62.8
200.376	30.04
200.595	30.04
200.814	-58.03
201.033	-49.83
201.252	93.52
201.471	60.76
201.69	58.71
201.909	15.7
202.128	118.1
202.347	-39.59
202.566	25.94
202.785	-23.21
203.004	-2.73
203.223	40.28
203.442	34.13
203.661	36.18
203.879	3.41
204.098	60.76
204.317	-39.59
204.536	38.23
204.755	-10.92
204.974	56.66
205.193	9.56
205.411	62.8
205.63	56.66
205.849	-35.5
206.068	25.94
206.287	19.8
206.505	60.76
206.724	5.46
206.943	-51.88
207.162	9.56
207.381	23.89
207.599	73.04
207.818	87.38
208.037	-15.02
208.255	-0.68
208.474	46.42
208.693	11.61
208.911	36.18
209.13	50.52
209.349	-47.79
209.567	50.52
209.786	66.9
210.005	11.61
210.223	-31.4
210.442	50.52
210.661	-33.45
210.879	38.23
211.098	5.46
211.316	30.04
211.535	34.13
211.753	-4.78
211.972	46.42
212.191	-0.68
212.409	5.46
212.628	-6.83
212.846	-33.45
213.065	75.09
213.283	56.66
213.502	-15.02
213.72	-35.5
213.938	73.04
214.157	7.51
214.375	66.9
214.594	25.94
214.812	-23.21
215.031	-6.83
215.249	118.1
215.467	15.7
215.686	9.56
215.904	66.9
216.122	-6.83
216.341	34.13
216.559	38.23
216.778	17.75
216.996	30.04
217.214	13.65
217.432	-8.87
217.651	-27.31
217.869	-4.78
218.087	7.51
218.306	21.84
218.524	19.8
218.742	54.61
218.96	75.09
219.179	-17.07
219.397	64.85
219.615	52.56
219.833	105.81
220.051	58.71
220.27	30.04
220.488	-10.92
220.706	25.94
220.924	71
221.142	46.42
221.36	-21.16
221.578	-43.69
221.796	21.84
222.015	25.94
222.233	71
222.451	52.56
222.669	15.7
222.887	150.87
223.105	44.37
223.323	21.84
223.541	17.75
223.759	7.51
223.977	36.18
224.195	30.04
224.413	5.46
224.631	1.37
224.849	66.9
225.067	36.18
225.285	-19.11
225.503	40.28
225.721	-31.4
225.939	1.37
226.157	46.42
226.375	60.76
226.592	60.76
226.81	-12.97
227.028	38.23
227.246	91.48
227.464	-19.11
227.682	30.04
227.9	46.42
228.117	46.42
228.335	15.7
228.553	42.32
228.771	-17.07
228.989	75.09
229.206	44.37
229.424	25.94
229.642	50.52
229.86	-0.68
230.077	-10.92
230.295	-0.68
230.513	62.8
230.731	-27.31
230.948	126.29
231.166	30.04
231.384	30.04
231.601	36.18
231.819	71
232.037	30.04
232.254	9.56
232.472	50.52
232.689	46.42
232.907	52.56
233.125	52.56
233.342	38.23
233.56	-4.78
233.777	-12.97
233.995	44.37
234.213	1.37
234.43	34.13
234.648	68.95
234.865	3.41
235.083	-27.31
235.3	30.04
235.518	-0.68
235.735	68.95
235.953	68.95
236.17	62.8
236.388	25.94
236.605	42.32
236.822	116.05
237.04	1.37
237.257	-23.21
237.475	15.7
237.692	-0.68
237.909	85.33
238.127	-31.4
238.344	73.04
238.562	91.48
238.779	40.28
238.996	-4.78
239.214	40.28
239.431	17.75
239.648	5.46
239.865	68.95
240.083	42.32
240.3	-23.21
240.517	71
240.735	21.84
240.952	23.89
241.169	-8.87
241.386	62.8
241.603	11.61
241.821	13.65
242.038	71
242.255	64.85
242.472	-4.78
242.689	99.67
242.907	34.13
243.124	23.89
243.341	7.51
243.558	34.13
243.775	-0.68
243.992	27.99
244.209	79.19
244.426	-15.02
244.643	71
244.86	1.37
245.078	62.8
245.295	25.94
245.512	44.37
245.729	-35.5
245.946	66.9
246.163	-43.69
246.38	44.37
246.597	7.51
246.814	-0.68
247.031	23.89
247.248	42.32
247.464	93.52
247.681	89.43
247.898	27.99
248.115	34.13
248.332	-4.78
248.549	50.52
248.766	36.18
248.983	73.04
249.2	-12.97
249.417	19.8
249.633	52.56
249.85	-15.02
250.067	9.56
250.284	50.52
250.501	11.61
250.717	36.18
250.934	42.32
251.151	23.89
251.368	9.56
251.585	79.19
251.801	25.94
252.018	-6.83
252.235	75.09
252.451	-0.68
252.668	68.95
252.885	42.32
253.102	5.46
253.318	-0.68
253.535	15.7
253.752	73.04
253.968	50.52
254.185	79.19
254.401	36.18
254.618	38.23
254.835	58.71
255.051	48.47
255.268	11.61
255.484	27.99
255.701	32.08
255.917	-31.4
256.134	-19.11
256.351	58.71
256.567	-29.35
256.784	36.18
257	3.41
257.217	7.51
257.433	101.72
257.65	60.76
257.866	34.13
258.082	-6.83
258.299	60.76
258.515	7.51
258.732	1.37
258.948	-15.02
259.165	5.46
259.381	42.32
259.597	54.61
259.814	34.13
260.03	79.19
260.246	60.76
260.463	34.13
260.679	30.04
260.895	54.61
261.112	40.28
261.328	9.56
261.544	-23.21
261.761	36.18
261.977	46.42
262.193	30.04
262.409	9.56
262.626	73.04
262.842	13.65
263.058	66.9
263.274	114
263.49	36.18
263.707	77.14
263.923	-23.21
264.139	87.38
264.355	25.94
264.571	111.96
264.787	118.1
265.004	64.85
265.22	-6.83
265.436	-2.73
265.652	130.39
265.868	15.7
266.084	7.51
266.3	25.94
266.516	5.46
266.732	95.57
266.948	52.56
267.164	-47.79
267.38	62.8
267.596	-39.59
267.812	130.39
268.028	71
268.244	38.23
268.46	9.56
268.676	19.8
268.892	25.94
269.108	1.37
269.324	60.76
269.54	75.09
269.756	81.24
269.972	-27.31
270.188	56.66
270.403	46.42
270.619	42.32
270.835	-41.64
271.051	25.94
271.267	1.37
271.483	46.42
271.698	3.41
271.914	54.61
272.13	73.04
272.346	19.8
272.562	52.56
272.777	-4.78
272.993	-35.5
273.209	66.9
273.425	71
273.64	38.23
273.856	9.56
274.072	50.52
274.287	54.61
274.503	27.99
274.719	81.24
274.934	34.13
275.15	3.41
275.366	50.52
275.581	-6.83
275.797	58.71
276.012	-35.5
276.228	27.99
276.444	79.19
276.659	-23.21
276.875	34.13
277.09	75.09
277.306	66.9
277.521	1.37
277.737	36.18
277.952	58.71
278.168	5.46
278.383	3.41
278.599	27.99
278.814	83.28
279.03	48.47
279.245	40.28
279.461	34.13
279.676	114
279.892	68.95
280.107	46.42
280.322	7.51
280.538	71
280.753	66.9
280.969	-41.64
281.184	11.61
281.399	101.72
281.615	50.52
281.83	48.47
282.045	44.37
282.26	17.75
282.476	46.42
282.691	48.47
282.906	124.24
283.122	34.13
283.337	38.23
283.552	64.85
283.767	5.46
283.983	79.19
284.198	79.19
284.413	77.14
284.628	-19.11
284.843	111.96
285.058	91.48
285.274	62.8
285.489	52.56
285.704	42.32
285.919	-8.87
286.134	17.75
286.349	17.75
286.564	19.8
286.779	52.56
286.995	101.72
287.21	-33.45
287.425	40.28
287.64	52.56
287.855	34.13
288.07	54.61
288.285	62.8
288.5	50.52
288.715	79.19
288.93	42.32
289.145	60.76
289.36	97.62
289.575	36.18
289.79	75.09
290.004	50.52
290.219	60.76
290.434	-0.68
290.649	66.9
290.864	21.84
291.079	3.41
291.294	21.84
291.509	60.76
291.724	99.67
291.938	-0.68
292.153	58.71
292.368	42.32
292.583	13.65
292.798	11.61
293.012	-33.45
293.227	44.37
293.442	-21.16
293.657	66.9
293.871	52.56
294.086	11.61
294.301	66.9
294.516	75.09
294.73	-92.84
294.945	-39.59
295.16	109.91
295.374	42.32
295.589	58.71
295.804	15.7
296.018	73.04
296.233	77.14
296.447	40.28
296.662	111.96
296.877	19.8
297.091	25.94
297.306	48.47
297.52	21.84
297.735	25.94
297.949	60.76
298.164	60.76
298.378	118.1
298.593	118.1
298.807	46.42
299.022	-17.07
299.236	64.85
299.451	50.52
299.665	34.13
299.88	34.13
300.094	109.91
300.309	-37.55
300.523	25.94
300.737	1.37
300.952	21.84
301.166	46.42
301.381	13.65
301.595	73.04
301.809	-43.69
302.024	34.13
302.238	23.89
302.452	11.61
302.667	81.24
302.881	42.32
303.095	40.28
303.309	66.9
303.524	50.52
303.738	38.23
303.952	54.61
304.166	81.24
304.381	-29.35
304.595	99.67
304.809	13.65
305.023	75.09
305.237	46.42
305.452	23.89
305.666	40.28
305.88	81.24
306.094	-12.97
306.308	50.52
306.522	93.52
306.736	54.61
306.95	83.28
307.164	52.56
307.379	48.47
307.593	68.95
307.807	85.33
308.021	68.95
308.235	5.46
308.449	23.89
308.663	34.13
308.877	73.04
309.091	93.52
309.305	-6.83
309.519	-6.83
309.733	25.94
309.947	44.37
310.161	27.99
310.374	52.56
310.588	109.91
310.802	38.23
311.016	101.72
311.23	13.65
311.444	-15.02
311.658	17.75
311.872	25.94
312.085	36.18
312.299	146.77
312.513	40.28
312.727	89.43
312.941	-17.07
313.154	46.42
313.368	1.37
313.582	48.47
313.796	44.37
314.009	66.9
314.223	1.37
314.437	50.52
314.651	32.08
314.864	60.76
315.078	40.28
315.292	44.37
315.505	60.76
315.719	83.28
315.933	38.23
316.146	40.28
316.36	75.09
316.573	38.23
316.787	21.84
317.001	40.28
317.214	124.24
317.428	81.24
317.641	68.95
317.855	30.04
318.068	56.66
318.282	118.1
318.495	107.86
318.709	93.52
318.922	3.41
319.136	105.81
319.349	25.94
319.563	17.75
319.776	60.76
319.99	-15.02
320.203	75.09
320.417	30.04
320.63	21.84
320.843	34.13
321.057	60.76
321.27	9.56
321.483	54.61
321.697	30.04
321.91	95.57
322.124	17.75
322.337	83.28
322.55	79.19
322.763	1.37
322.977	99.67
323.19	9.56
323.403	62.8
323.617	-2.73
323.83	50.52
324.043	83.28
324.256	30.04
324.469	42.32
324.683	99.67
324.896	62.8
325.109	17.75
325.322	-37.55
325.535	89.43
325.748	73.04
325.962	17.75
326.175	50.52
326.388	107.86
326.601	62.8
326.814	13.65
327.027	62.8
327.24	89.43
327.453	25.94
327.666	30.04
327.879	38.23
328.092	81.24
328.305	13.65
328.518	97.62
328.731	107.86
328.944	7.51
329.157	23.89
329.37	83.28
329.583	19.8
329.796	23.89
330.009	11.61
330.222	95.57
330.435	77.14
330.648	36.18
330.861	103.76
331.073	23.89
331.286	27.99
331.499	85.33
331.712	75.09
331.925	9.56
332.138	79.19
332.35	134.48
332.563	34.13
332.776	111.96
332.989	71
333.202	34.13
333.414	56.66
333.627	3.41
333.84	99.67
334.053	120.15
334.265	97.62
334.478	11.61
334.691	48.47
334.903	71
335.116	54.61
335.329	52.56
335.541	52.56
335.754	68.95
335.966	27.99
336.179	30.04
336.392	56.66
336.604	17.75
336.817	50.52
337.029	103.76
337.242	34.13
337.454	23.89
337.667	83.28
337.88	146.77
338.092	66.9
338.305	154.96
338.517	99.67
338.729	44.37
338.942	9.56
339.154	79.19
339.367	27.99
339.579	46.42
339.792	11.61
340.004	36.18
340.217	5.46
340.429	-15.02
340.641	-17.07
340.854	60.76
341.066	-2.73
341.278	134.48
341.491	36.18
341.703	46.42
341.915	44.37
342.128	38.23
342.34	34.13
342.552	-19.11
342.764	23.89
342.977	-12.97
343.189	50.52
343.401	60.76
343.613	1.37
343.826	13.65
344.038	77.14
344.25	3.41
344.462	87.38
344.674	109.91
344.886	99.67
345.099	17.75
345.311	-6.83
345.523	38.23
345.735	38.23
345.947	9.56
346.159	66.9
346.371	46.42
346.583	-2.73
346.795	99.67
347.007	56.66
347.219	109.91
347.431	71
347.643	89.43
347.855	38.23
348.067	68.95
348.279	-35.5
348.491	13.65
348.703	27.99
348.915	5.46
349.127	-25.26
349.339	34.13
349.551	46.42
349.763	38.23
349.975	30.04
350.187	46.42
350.399	34.13
350.61	46.42
350.822	-6.83
351.034	50.52
351.246	75.09
351.458	46.42
351.669	46.42
351.881	109.91
352.093	58.71
352.305	42.32
352.517	73.04
352.728	81.24
352.94	34.13
353.152	54.61
353.363	38.23
353.575	68.95
353.787	38.23
353.999	17.75
354.21	97.62
354.422	71
354.633	25.94
354.845	99.67
355.057	23.89
355.268	66.9
355.48	93.52
355.692	21.84
355.903	9.56
356.115	77.14
356.326	-0.68
356.538	107.86
356.749	9.56
356.961	107.86
357.172	32.08
357.384	11.61
357.595	11.61
357.807	89.43
358.018	46.42
358.23	40.28
358.441	83.28
358.653	87.38
358.864	79.19
359.075	52.56
359.287	118.1
359.498	91.48
359.709	66.9
359.921	107.86
360.132	60.76
360.344	85.33
360.555	25.94
360.766	54.61
360.977	161.11
361.189	105.81
361.4	50.52
361.611	40.28
361.823	40.28
362.034	60.76
362.245	-31.4
362.456	36.18
362.667	79.19
362.879	95.57
363.09	64.85
363.301	75.09
363.512	17.75
363.723	40.28
363.935	54.61
364.146	73.04
364.357	11.61
364.568	9.56
364.779	46.42
364.99	66.9
365.201	32.08
365.412	52.56
365.623	30.04
365.834	62.8
366.045	19.8
366.256	83.28
366.467	107.86
366.678	107.86
366.889	32.08
367.1	19.8
367.311	71
367.522	87.38
367.733	85.33
367.944	126.29
368.155	44.37
368.366	50.52
368.577	126.29
368.788	52.56
368.999	54.61
369.209	56.66
369.42	111.96
369.631	99.67
369.842	101.72
370.053	77.14
370.264	48.47
370.474	75.09
370.685	87.38
370.896	138.58
371.107	44.37
371.317	169.3
371.528	50.52
371.739	109.91
371.95	97.62
372.16	32.08
372.371	126.29
372.582	21.84
372.792	40.28
373.003	89.43
373.214	62.8
373.424	71
373.635	54.61
373.846	140.63
374.056	107.86
374.267	85.33
374.477	62.8
374.688	-10.92
374.898	7.51
375.109	-0.68
375.319	42.32
375.53	105.81
375.74	60.76
375.951	21.84
376.161	46.42
376.372	103.76
376.582	68.95
376.793	17.75
377.003	30.04
377.214	89.43
377.424	50.52
377.635	32.08
377.845	30.04
378.055	52.56
378.266	46.42
378.476	58.71
378.686	128.34
378.897	62.8
379.107	120.15
379.317	73.04
379.528	83.28
379.738	83.28
379.948	83.28
380.158	97.62
380.369	52.56
380.579	83.28
380.789	103.76
380.999	73.04
381.21	66.9
381.42	56.66
381.63	46.42
381.84	52.56
382.05	85.33
382.261	85.33
382.471	77.14
382.681	136.53
382.891	138.58
383.101	60.76
383.311	34.13
383.521	95.57
383.731	54.61
383.941	99.67
384.151	71
384.361	68.95
384.571	128.34
384.781	77.14
384.991	128.34
385.201	138.58
385.411	52.56
385.621	32.08
385.831	91.48
386.041	79.19
386.251	30.04
386.461	132.44
386.671	30.04
386.881	-12.97
387.091	159.06
387.301	81.24
387.511	25.94
387.72	134.48
387.93	-29.35
388.14	21.84
388.35	107.86
388.56	91.48
388.769	95.57
388.979	36.18
389.189	60.76
389.399	107.86
389.609	132.44
389.818	140.63
390.028	75.09
390.238	85.33
390.447	56.66
390.657	103.76
390.867	44.37
391.076	81.24
391.286	101.72
391.496	75.09
391.705	58.71
391.915	177.49
392.125	97.62
392.334	122.2
392.544	68.95
392.753	62.8
392.963	36.18
393.172	148.82
393.382	120.15
393.591	107.86
393.801	85.33
394.01	71
394.22	116.05
394.429	126.29
394.639	95.57
394.848	46.42
395.058	75.09
395.267	177.49
395.477	64.85
395.686	75.09
395.895	73.04
396.105	189.78
396.314	87.38
396.524	83.28
396.733	111.96
396.942	75.09
397.152	56.66
397.361	146.77
397.57	126.29
397.78	30.04
397.989	152.91
398.198	183.63
398.407	200.02
398.617	159.06
398.826	126.29
399.035	171.35
399.244	87.38
399.453	17.75
399.663	83.28
399.872	165.2
400.081	142.68
400.29	116.05
400.499	181.59
400.708	204.11
400.917	58.71
401.127	224.59
401.336	130.39
401.545	159.06
401.754	171.35
401.963	167.25
402.172	126.29
402.381	144.72
402.59	105.81
402.799	195.92
403.008	185.68
403.217	118.1
403.426	181.59
403.635	136.53
403.844	175.44
404.053	152.91
404.262	146.77
404.471	212.31
404.68	152.91
404.888	165.2
405.097	161.11
405.306	58.71
405.515	206.16
405.724	171.35
405.933	202.07
406.142	230.74
406.35	232.79
406.559	224.59
406.768	224.59
406.977	251.22
407.185	214.35
407.394	195.92
407.603	218.45
407.812	210.26
408.02	267.6
408.229	230.74
408.438	212.31
408.646	251.22
408.855	279.89
409.064	353.62
409.272	259.41
409.481	273.75
409.69	359.76
409.898	355.66
410.107	433.49
410.315	392.53
410.524	277.84
410.733	355.66
410.941	445.77
411.15	408.91
411.358	333.14
411.567	400.72
411.775	441.68
411.984	435.53
412.192	445.77
412.401	517.45
412.609	447.82
412.818	572.75
413.026	521.55
413.234	593.23
413.443	558.41
413.651	636.24
413.86	699.72
414.068	705.87
414.276	673.1
414.485	720.2
414.693	752.97
414.901	822.6
415.11	759.11
415.318	875.85
415.526	914.76
415.734	845.13
415.943	871.75
416.151	845.13
416.359	998.73
416.567	978.25
416.776	1013.06
416.984	1054.02
417.192	1103.17
417.4	1193.28
417.608	1033.54
417.817	1152.32
418.025	1273.15
418.233	1297.73
418.441	1383.74
418.649	1373.5
418.857	1508.67
419.065	1447.23
419.273	1588.54
419.481	1672.51
419.689	1717.56
419.897	1719.61
420.105	1652.03
420.313	1836.35
420.521	1836.35
420.729	1885.5
420.937	1938.74
421.145	2045.24
421.353	2100.53
421.561	2227.51
421.769	2188.6
421.977	2288.95
422.185	2346.29
422.393	2567.47
422.601	2723.12
422.809	2725.16
423.017	2628.91
423.224	2747.69
423.432	2811.18
423.64	2964.78
423.848	3099.94
424.056	3140.9
424.263	3349.79
424.471	3161.38
424.679	3306.79
424.887	3568.93
425.094	3786.01
425.302	3634.46
425.51	3896.6
425.718	3841.31
425.925	3863.83
426.133	4226.32
426.341	4367.63
426.548	4654.35
426.756	4576.53
426.964	4535.57
427.171	4969.74
427.379	5076.23
427.586	5215.49
427.794	5201.16
428.001	5543.17
428.209	5786.88
428.417	5586.18
428.624	6018.3
428.832	6100.22
429.039	6087.93
429.247	6128.89
429.454	6526.19
429.662	7021.8
429.869	6622.45
430.076	7032.04
430.284	6679.79
430.491	7136.49
430.699	7632.1
430.906	7656.67
431.114	7519.46
431.321	7931.1
431.528	8246.49
431.736	8576.21
431.943	8946.89
432.15	8717.52
432.358	9110.73
432.565	9542.85
432.772	9364.68
432.979	9825.47
433.187	10073.28
433.394	10077.37
433.601	10708.15
433.808	10773.68
434.016	10636.47
434.223	11170.99
434.43	11850.91
434.637	11576.48
434.844	12231.83
435.052	12461.21
435.259	12395.67
435.466	12455.06
435.673	12514.45
435.88	13132.94
436.087	14124.16
436.294	13927.55
436.501	13532.29
436.708	14214.27
436.915	14234.75
437.122	14752.88
437.329	15219.82
437.537	15441
437.743	15707.24
437.95	15766.63
438.157	16559.19
438.364	17103.95
438.571	17091.66
438.778	17417.29
438.985	18742.33
439.192	17994.82
439.399	18474.04
439.606	18170.94
439.813	19231.79
440.02	20458.53
440.227	19899.43
440.433	19600.43
440.64	20528.16
440.847	20374.56
441.054	20841.5
441.261	22084.61
441.467	21994.5
441.674	22402.05
441.881	23256.05
442.088	23466.99
442.294	22907.9
442.501	23608.3
442.708	24173.54
442.914	25320.4
443.121	26102.73
443.328	25156.57
443.534	27370.42
443.741	26360.77
443.948	25879.5
444.154	27884.46
444.361	27511.73
444.568	28183.46
444.774	28099.5
444.981	28402.6
445.187	29143.96
445.394	30362.5
445.6	29918.09
445.807	32885.6
446.013	31732.59
446.22	32029.55
446.426	32928.61
446.633	33370.97
446.839	34421.58
447.046	32772.96
447.252	34939.71
447.459	35429.18
447.665	34886.46
447.871	36123.44
448.078	37624.6
448.284	36258.6
448.491	37100.32
448.697	38402.83
448.903	39045.89
449.11	38976.26
449.316	38486.79
449.522	39279.36
449.728	40422.12
449.935	40878.82
450.141	40196.85
450.347	41620.19
450.553	39897.84
450.76	40893.16
450.966	42052.31
451.172	41462.49
451.378	42408.65
451.584	41728.73
451.791	42629.83
451.997	42433.23
452.203	42883.78
452.409	43322.05
452.615	42644.17
452.821	41319.13
453.027	41292.51
453.233	42924.74
453.44	41272.03
453.646	41454.3
453.852	41548.51
454.058	42629.83
454.264	41063.14
454.47	41913.05
454.676	40739.56
454.882	42072.79
455.088	38734.6
455.294	39152.38
455.5	39101.18
455.705	39979.76
455.911	38304.52
456.117	37659.41
456.323	37274.4
456.529	35117.89
456.735	36617
456.941	35662.65
457.147	35337.02
457.352	34122.57
457.558	33635.16
457.764	33973.07
457.97	33000.29
458.176	32373.61
458.381	32373.61
458.587	30655.36
458.793	30888.83
458.999	29309.85
459.204	31247.22
459.41	30571.39
459.616	28285.86
459.821	28494.75
460.027	28453.8
460.233	27890.6
460.438	26289.09
460.644	26729.41
460.85	25709.52
461.055	25088.98
461.261	24703.96
461.466	23344.11
461.672	22690.81
461.878	24177.64
462.083	22422.53
462.289	22084.61
462.494	22203.39
462.7	21107.73
462.905	20423.71
463.111	21146.64
463.316	21158.93
463.522	20771.86
463.727	20775.96
463.932	20786.2
464.138	20755.48
464.343	20773.91
464.549	20169.76
464.754	20888.6
464.959	20462.62
465.165	20331.55
465.37	19385.39
465.575	19117.11
465.781	19817.51
465.986	20112.42
466.191	19268.66
466.397	19024.95
466.602	18197.57
466.807	18828.34
467.012	18662.46
467.218	18398.27
467.423	18275.39
467.628	18562.11
467.833	19278.9
468.038	18592.83
