Data from USB4F104151__257__11-11-49-047.txt Node

Date: Wed Mar 12 11:11:49 EDT 2025
User: louis
Spectrometer: USB4F10415
Trigger mode: 4
Integration Time (sec): 2.000000E-2
Scans to average: 1
Electric dark correction enabled: true
Nonlinearity correction enabled: false
Boxcar width: 0
XAxis mode: Wavelengths
Number of Pixels in Spectrum: 3648
>>>>>Begin Spectral Data<<<<<
178.204	-45.4
178.424	-45.4
178.644	-45.4
178.864	-84.31
179.084	-57.68
179.304	-31.06
179.524	24.23
179.744	24.23
179.964	63.15
180.184	-37.2
180.404	-0.34
180.624	36.52
180.844	-20.82
181.064	3.75
181.283	11.95
181.503	-45.4
181.723	-29.01
181.943	-2.39
182.163	48.81
182.383	1.71
182.602	57
182.822	-2.39
183.042	61.1
183.262	30.38
183.482	13.99
183.701	57
183.921	38.57
184.141	-55.64
184.361	67.24
184.58	77.48
184.8	38.57
185.02	-41.3
185.239	26.28
185.459	34.47
185.679	102.06
185.898	5.8
186.118	61.1
186.338	120.49
186.557	89.77
186.777	57
186.997	-4.44
187.216	50.86
187.436	67.24
187.655	24.23
187.875	40.62
188.095	50.86
188.314	44.71
188.534	38.57
188.753	-57.68
188.973	63.15
189.192	38.57
189.412	63.15
189.631	38.57
189.851	54.95
190.07	91.82
190.29	32.43
190.509	11.95
190.729	5.8
190.948	75.43
191.168	108.2
191.387	-6.49
191.607	-39.25
191.826	5.8
192.045	69.29
192.265	-20.82
192.484	-10.58
192.704	5.8
192.923	-22.87
193.142	87.72
193.362	22.19
193.581	40.62
193.8	20.14
194.02	48.81
194.239	36.52
194.458	16.04
194.678	28.33
194.897	5.8
195.116	24.23
195.335	13.99
195.555	-4.44
195.774	79.53
195.993	54.95
196.212	30.38
196.432	-10.58
196.651	-10.58
196.87	-18.77
197.089	32.43
197.308	40.62
197.528	59.05
197.747	-33.11
197.966	42.67
198.185	65.19
198.404	3.75
198.623	61.1
198.842	126.63
199.062	48.81
199.281	73.39
199.5	1.71
199.719	44.71
199.938	38.57
200.157	1.71
200.376	65.19
200.595	13.99
200.814	67.24
201.033	-4.44
201.252	16.04
201.471	-6.49
201.69	-37.2
201.909	34.47
202.128	32.43
202.347	5.8
202.566	34.47
202.785	-12.63
203.004	22.19
203.223	73.39
203.442	38.57
203.661	116.39
203.879	-10.58
204.098	77.48
204.317	65.19
204.536	75.43
204.755	42.67
204.974	46.76
205.193	-18.77
205.411	42.67
205.63	38.57
205.849	3.75
206.068	7.85
206.287	83.63
206.505	44.71
206.724	-8.53
206.943	-74.07
207.162	79.53
207.381	69.29
207.599	36.52
207.818	24.23
208.037	71.34
208.255	-16.73
208.474	40.62
208.693	87.72
208.911	-14.68
209.13	79.53
209.349	-55.64
209.567	44.71
209.786	5.8
210.005	22.19
210.223	42.67
210.442	26.28
210.661	16.04
210.879	3.75
211.098	22.19
211.316	48.81
211.535	69.29
211.753	24.23
211.972	28.33
212.191	32.43
212.409	-10.58
212.628	-0.34
212.846	89.77
213.065	11.95
213.283	91.82
213.502	50.86
213.72	48.81
213.938	38.57
214.157	-10.58
214.375	-2.39
214.594	75.43
214.812	38.57
215.031	5.8
215.249	44.71
215.467	26.28
215.686	40.62
215.904	59.05
216.122	63.15
216.341	40.62
216.559	-2.39
216.778	87.72
216.996	52.91
217.214	-12.63
217.432	-31.06
217.651	69.29
217.869	-0.34
218.087	42.67
218.306	36.52
218.524	13.99
218.742	5.8
218.96	116.39
219.179	-22.87
219.397	85.67
219.615	97.96
219.833	22.19
220.051	-33.11
220.27	79.53
220.488	13.99
220.706	22.19
220.924	65.19
221.142	5.8
221.36	52.91
221.578	38.57
221.796	50.86
222.015	44.71
222.233	59.05
222.451	36.52
222.669	-31.06
222.887	73.39
223.105	16.04
223.323	-20.82
223.541	73.39
223.759	116.39
223.977	61.1
224.195	24.23
224.413	22.19
224.631	42.67
224.849	52.91
225.067	97.96
225.285	16.04
225.503	18.09
225.721	-51.54
225.939	24.23
226.157	-22.87
226.375	143.02
226.592	30.38
226.81	-20.82
227.028	9.9
227.246	108.2
227.464	30.38
227.682	46.76
227.9	63.15
228.117	116.39
228.335	-18.77
228.553	54.95
228.771	65.19
228.989	7.85
229.206	54.95
229.424	40.62
229.642	-12.63
229.86	-39.25
230.077	-2.39
230.295	18.09
230.513	30.38
230.731	18.09
230.948	9.9
231.166	36.52
231.384	71.34
231.601	75.43
231.819	93.87
232.037	40.62
232.254	9.9
232.472	118.44
232.689	48.81
232.907	73.39
233.125	-20.82
233.342	18.09
233.56	5.8
233.777	-47.44
233.995	-20.82
234.213	67.24
234.43	9.9
234.648	44.71
234.865	-6.49
235.083	79.53
235.3	-10.58
235.518	16.04
235.735	32.43
235.953	42.67
236.17	34.47
236.388	-26.96
236.605	46.76
236.822	44.71
237.04	20.14
237.257	71.34
237.475	-10.58
237.692	30.38
237.909	-4.44
238.127	26.28
238.344	-2.39
238.562	65.19
238.779	26.28
238.996	1.71
239.214	38.57
239.431	46.76
239.648	5.8
239.865	28.33
240.083	73.39
240.3	34.47
240.517	59.05
240.735	50.86
240.952	34.47
241.169	124.58
241.386	67.24
241.603	-14.68
241.821	5.8
242.038	-24.92
242.255	-10.58
242.472	28.33
242.689	22.19
242.907	46.76
243.124	-14.68
243.341	22.19
243.558	50.86
243.775	32.43
243.992	1.71
244.209	38.57
244.426	-10.58
244.643	16.04
244.86	67.24
245.078	34.47
245.295	34.47
245.512	26.28
245.729	-55.64
245.946	61.1
246.163	44.71
246.38	79.53
246.597	-53.59
246.814	42.67
247.031	9.9
247.248	13.99
247.464	95.91
247.681	87.72
247.898	52.91
248.115	22.19
248.332	-10.58
248.549	16.04
248.766	126.63
248.983	69.29
249.2	-2.39
249.417	-14.68
249.633	61.1
249.85	34.47
250.067	-24.92
250.284	13.99
250.501	1.71
250.717	89.77
250.934	-18.77
251.151	40.62
251.368	57
251.585	-0.34
251.801	22.19
252.018	32.43
252.235	65.19
252.451	-0.34
252.668	5.8
252.885	87.72
253.102	-22.87
253.318	110.25
253.535	44.71
253.752	-6.49
253.968	-37.2
254.185	-4.44
254.401	26.28
254.618	48.81
254.835	50.86
255.051	54.95
255.268	26.28
255.484	63.15
255.701	48.81
255.917	13.99
256.134	5.8
256.351	11.95
256.567	-57.68
256.784	32.43
257	1.71
257.217	85.67
257.433	59.05
257.65	50.86
257.866	38.57
258.082	32.43
258.299	57
258.515	16.04
258.732	9.9
258.948	9.9
259.165	71.34
259.381	-4.44
259.597	34.47
259.814	32.43
260.03	32.43
260.246	59.05
260.463	16.04
260.679	42.67
260.895	32.43
261.112	57
261.328	-47.44
261.544	-65.88
261.761	59.05
261.977	13.99
262.193	32.43
262.409	75.43
262.626	61.1
262.842	-20.82
263.058	3.75
263.274	5.8
263.49	30.38
263.707	79.53
263.923	69.29
264.139	34.47
264.355	-31.06
264.571	151.21
264.787	73.39
265.004	89.77
265.22	75.43
265.436	9.9
265.652	7.85
265.868	-26.96
266.084	-4.44
266.3	61.1
266.516	44.71
266.732	1.71
266.948	61.1
267.164	52.91
267.38	36.52
267.596	-6.49
267.812	126.63
268.028	13.99
268.244	42.67
268.46	3.75
268.676	-6.49
268.892	3.75
269.108	-2.39
269.324	-12.63
269.54	42.67
269.756	-14.68
269.972	52.91
270.188	116.39
270.403	-45.4
270.619	-14.68
270.835	48.81
271.051	18.09
271.267	42.67
271.483	9.9
271.698	83.63
271.914	40.62
272.13	46.76
272.346	-31.06
272.562	-12.63
272.777	5.8
272.993	26.28
273.209	-26.96
273.425	22.19
273.64	65.19
273.856	34.47
274.072	24.23
274.287	1.71
274.503	-10.58
274.719	38.57
274.934	46.76
275.15	-29.01
275.366	5.8
275.581	85.67
275.797	52.91
276.012	71.34
276.228	52.91
276.444	91.82
276.659	79.53
276.875	-14.68
277.09	26.28
277.306	61.1
277.521	54.95
277.737	16.04
277.952	16.04
278.168	63.15
278.383	73.39
278.599	44.71
278.814	-18.77
279.03	44.71
279.245	104.11
279.461	34.47
279.676	81.58
279.892	44.71
280.107	-8.53
280.322	18.09
280.538	32.43
280.753	-35.16
280.969	28.33
281.184	54.95
281.399	52.91
281.615	-24.92
281.83	42.67
282.045	-24.92
282.26	18.09
282.476	59.05
282.691	44.71
282.906	44.71
283.122	26.28
283.337	-2.39
283.552	67.24
283.767	-12.63
283.983	11.95
284.198	63.15
284.413	-0.34
284.628	44.71
284.843	-39.25
285.058	34.47
285.274	54.95
285.489	3.75
285.704	24.23
285.919	3.75
286.134	69.29
286.349	32.43
286.564	-43.35
286.779	71.34
286.995	24.23
287.21	-31.06
287.425	42.67
287.64	24.23
287.855	26.28
288.07	34.47
288.285	-24.92
288.5	-29.01
288.715	-0.34
288.93	-31.06
289.145	38.57
289.36	71.34
289.575	18.09
289.79	1.71
290.004	26.28
290.219	-33.11
290.434	-12.63
290.649	18.09
290.864	42.67
291.079	11.95
291.294	46.76
291.509	-24.92
291.724	34.47
291.938	-16.73
292.153	-18.77
292.368	-51.54
292.583	46.76
292.798	1.71
293.012	32.43
293.227	-22.87
293.442	57
293.657	38.57
293.871	69.29
294.086	44.71
294.301	69.29
294.516	61.1
294.73	-33.11
294.945	73.39
295.16	1.71
295.374	69.29
295.589	59.05
295.804	26.28
296.018	-14.68
296.233	71.34
296.447	-2.39
296.662	-4.44
296.877	36.52
297.091	59.05
297.306	83.63
297.52	1.71
297.735	114.34
297.949	42.67
298.164	32.43
298.378	-0.34
298.593	-6.49
298.807	57
299.022	-2.39
299.236	-2.39
299.451	40.62
299.665	-0.34
299.88	-10.58
300.094	79.53
300.309	26.28
300.523	48.81
300.737	1.71
300.952	42.67
301.166	42.67
301.381	1.71
301.595	71.34
301.809	24.23
302.024	63.15
302.238	-18.77
302.452	28.33
302.667	44.71
302.881	34.47
303.095	87.72
303.309	3.75
303.524	36.52
303.738	13.99
303.952	-10.58
304.166	79.53
304.381	-20.82
304.595	59.05
304.809	28.33
305.023	89.77
305.237	32.43
305.452	-0.34
305.666	63.15
305.88	16.04
306.094	44.71
306.308	151.21
306.522	48.81
306.736	26.28
306.95	38.57
307.164	9.9
307.379	-35.16
307.593	38.57
307.807	46.76
308.021	59.05
308.235	-4.44
308.449	71.34
308.663	-8.53
308.877	75.43
309.091	57
309.305	87.72
309.519	16.04
309.733	46.76
309.947	34.47
310.161	40.62
310.374	22.19
310.588	87.72
310.802	-12.63
311.016	91.82
311.23	57
311.444	13.99
311.658	-16.73
311.872	44.71
312.085	116.39
312.299	73.39
312.513	65.19
312.727	13.99
312.941	22.19
313.154	57
313.368	81.58
313.582	65.19
313.796	44.71
314.009	-16.73
314.223	91.82
314.437	73.39
314.651	7.85
314.864	38.57
315.078	32.43
315.292	48.81
315.505	-6.49
315.719	93.87
315.933	42.67
316.146	-43.35
316.36	26.28
316.573	-8.53
316.787	112.3
317.001	1.71
317.214	40.62
317.428	38.57
317.641	32.43
317.855	57
318.068	48.81
318.282	3.75
318.495	54.95
318.709	9.9
318.922	11.95
319.136	108.2
319.349	136.87
319.563	40.62
319.776	7.85
319.99	108.2
320.203	24.23
320.417	34.47
320.63	20.14
320.843	59.05
321.057	-26.96
321.27	18.09
321.483	28.33
321.697	77.48
321.91	40.62
322.124	50.86
322.337	48.81
322.55	44.71
322.763	34.47
322.977	-2.39
323.19	87.72
323.403	26.28
323.617	95.91
323.83	3.75
324.043	97.96
324.256	79.53
324.469	-39.25
324.683	134.82
324.896	36.52
325.109	26.28
325.322	-29.01
325.535	20.14
325.748	34.47
325.962	9.9
326.175	18.09
326.388	18.09
326.601	83.63
326.814	93.87
327.027	-4.44
327.24	54.95
327.453	50.86
327.666	24.23
327.879	95.91
328.092	59.05
328.305	71.34
328.518	52.91
328.731	-33.11
328.944	-2.39
329.157	7.85
329.37	46.76
329.583	22.19
329.796	97.96
330.009	20.14
330.222	63.15
330.435	130.73
330.648	-24.92
330.861	75.43
331.073	9.9
331.286	18.09
331.499	34.47
331.712	71.34
331.925	93.87
332.138	59.05
332.35	69.29
332.563	-10.58
332.776	91.82
332.989	20.14
333.202	59.05
333.414	-0.34
333.627	73.39
333.84	34.47
334.053	40.62
334.265	-33.11
334.478	-41.3
334.691	126.63
334.903	-0.34
335.116	-6.49
335.329	40.62
335.541	54.95
335.754	36.52
335.966	13.99
336.179	-33.11
336.392	54.95
336.604	26.28
336.817	73.39
337.029	46.76
337.242	71.34
337.454	77.48
337.667	24.23
337.88	97.96
338.092	57
338.305	63.15
338.517	71.34
338.729	114.34
338.942	36.52
339.154	57
339.367	36.52
339.579	134.82
339.792	-39.25
340.004	26.28
340.217	104.11
340.429	42.67
340.641	-8.53
340.854	77.48
341.066	40.62
341.278	81.58
341.491	24.23
341.703	83.63
341.915	11.95
342.128	13.99
342.34	124.58
342.552	69.29
342.764	-2.39
342.977	67.24
343.189	34.47
343.401	63.15
343.613	36.52
343.826	-31.06
344.038	7.85
344.25	97.96
344.462	-0.34
344.674	26.28
344.886	54.95
345.099	34.47
345.311	24.23
345.523	83.63
345.735	13.99
345.947	11.95
346.159	1.71
346.371	20.14
346.583	-12.63
346.795	81.58
347.007	16.04
347.219	67.24
347.431	81.58
347.643	44.71
347.855	9.9
348.067	120.49
348.279	30.38
348.491	16.04
348.703	9.9
348.915	59.05
349.127	-26.96
349.339	65.19
349.551	71.34
349.763	134.82
349.975	26.28
350.187	79.53
350.399	-0.34
350.61	16.04
350.822	48.81
351.034	30.38
351.246	36.52
351.458	52.91
351.669	75.43
351.881	120.49
352.093	38.57
352.305	48.81
352.517	95.91
352.728	24.23
352.94	75.43
353.152	-22.87
353.363	75.43
353.575	108.2
353.787	63.15
353.999	67.24
354.21	42.67
354.422	1.71
354.633	106.15
354.845	5.8
355.057	42.67
355.268	69.29
355.48	61.1
355.692	40.62
355.903	104.11
356.115	-10.58
356.326	5.8
356.538	93.87
356.749	71.34
356.961	67.24
357.172	69.29
357.384	65.19
357.595	102.06
357.807	1.71
358.018	-26.96
358.23	36.52
358.441	50.86
358.653	24.23
358.864	69.29
359.075	44.71
359.287	26.28
359.498	18.09
359.709	-8.53
359.921	42.67
360.132	42.67
360.344	145.06
360.555	91.82
360.766	85.67
360.977	3.75
361.189	44.71
361.4	-16.73
361.611	147.11
361.823	81.58
362.034	46.76
362.245	38.57
362.456	7.85
362.667	75.43
362.879	18.09
363.09	-6.49
363.301	95.91
363.512	9.9
363.723	32.43
363.935	77.48
364.146	85.67
364.357	-18.77
364.568	32.43
364.779	-22.87
364.99	40.62
365.201	-47.44
365.412	87.72
365.623	89.77
365.834	140.97
366.045	102.06
366.256	24.23
366.467	1.71
366.678	13.99
366.889	38.57
367.1	-4.44
367.311	85.67
367.522	-51.54
367.733	1.71
367.944	71.34
368.155	18.09
368.366	75.43
368.577	-22.87
368.788	30.38
368.999	18.09
369.209	89.77
369.42	81.58
369.631	50.86
369.842	32.43
370.053	40.62
370.264	108.2
370.474	42.67
370.685	5.8
370.896	46.76
371.107	71.34
371.317	38.57
371.528	-0.34
371.739	67.24
371.95	22.19
372.16	100.01
372.371	40.62
372.582	30.38
372.792	24.23
373.003	75.43
373.214	36.52
373.424	136.87
373.635	9.9
373.846	36.52
374.056	81.58
374.267	65.19
374.477	83.63
374.688	9.9
374.898	-57.68
375.109	30.38
375.319	57
375.53	18.09
375.74	69.29
375.951	-12.63
376.161	44.71
376.372	95.91
376.582	71.34
376.793	89.77
377.003	40.62
377.214	32.43
377.424	32.43
377.635	5.8
377.845	61.1
378.055	120.49
378.266	34.47
378.476	18.09
378.686	-22.87
378.897	34.47
379.107	9.9
379.317	102.06
379.528	18.09
379.738	28.33
379.948	-37.2
380.158	67.24
380.369	38.57
380.579	87.72
380.789	100.01
380.999	67.24
381.21	44.71
381.42	91.82
381.63	-47.44
381.84	79.53
382.05	65.19
382.261	120.49
382.471	85.67
382.681	67.24
382.891	57
383.101	69.29
383.311	89.77
383.521	89.77
383.731	30.38
383.941	13.99
384.151	95.91
384.361	52.91
384.571	65.19
384.781	61.1
384.991	9.9
385.201	73.39
385.411	89.77
385.621	-12.63
385.831	18.09
386.041	67.24
386.251	67.24
386.461	34.47
386.671	104.11
386.881	59.05
387.091	-0.34
387.301	106.15
387.511	-24.92
387.72	67.24
387.93	50.86
388.14	-14.68
388.35	-4.44
388.56	93.87
388.769	40.62
388.979	57
389.189	69.29
389.399	7.85
389.609	75.43
389.818	91.82
390.028	44.71
390.238	36.52
390.447	24.23
390.657	59.05
390.867	-16.73
391.076	91.82
391.286	50.86
391.496	73.39
391.705	63.15
391.915	97.96
392.125	9.9
392.334	-4.44
392.544	32.43
392.753	42.67
392.963	57
393.172	108.2
393.382	22.19
393.591	81.58
393.801	13.99
394.01	118.44
394.22	63.15
394.429	61.1
394.639	-35.16
394.848	-26.96
395.058	20.14
395.267	36.52
395.477	79.53
395.686	114.34
395.895	100.01
396.105	67.24
396.314	69.29
396.524	71.34
396.733	65.19
396.942	22.19
397.152	81.58
397.361	79.53
397.57	54.95
397.78	114.34
397.989	100.01
398.198	149.16
398.407	106.15
398.617	118.44
398.826	73.39
399.035	3.75
399.244	100.01
399.453	83.63
399.663	116.39
399.872	81.58
400.081	126.63
400.29	120.49
400.499	91.82
400.708	124.58
400.917	173.74
401.127	104.11
401.336	124.58
401.545	140.97
401.754	106.15
401.963	104.11
402.172	167.59
402.381	63.15
402.59	112.3
402.799	71.34
403.008	42.67
403.217	126.63
403.426	100.01
403.635	85.67
403.844	91.82
404.053	22.19
404.262	65.19
404.471	91.82
404.68	106.15
404.888	114.34
405.097	81.58
405.306	93.87
405.515	114.34
405.724	124.58
405.933	155.3
406.142	18.09
406.35	157.35
406.559	151.21
406.768	134.82
406.977	120.49
407.185	218.79
407.394	151.21
407.603	89.77
407.812	138.92
408.02	173.74
408.229	186.02
408.438	208.55
408.646	143.02
408.855	237.22
409.064	210.6
409.272	163.5
409.481	77.48
409.69	241.32
409.898	145.06
410.107	269.99
410.315	188.07
410.524	214.7
410.733	249.51
410.941	274.09
411.15	245.41
411.358	214.7
411.567	323.24
411.775	257.7
411.984	208.55
412.192	308.9
412.401	255.65
412.609	333.48
412.818	265.89
413.026	310.95
413.234	317.09
413.443	349.86
413.651	280.23
413.86	300.71
414.068	358.05
414.276	421.54
414.485	403.11
414.693	427.68
414.901	478.88
415.11	429.73
415.318	517.79
415.526	478.88
415.734	525.99
415.943	497.32
416.151	478.88
416.359	515.75
416.567	521.89
416.776	679.58
416.984	636.58
417.192	648.86
417.4	706.21
417.608	591.52
417.817	693.92
418.025	683.68
418.233	792.22
418.441	693.92
418.649	822.94
418.857	868
419.065	853.66
419.273	824.99
419.481	859.81
419.689	923.29
419.897	984.73
420.105	974.49
420.313	1050.27
420.521	1150.62
420.729	1042.07
420.937	1111.71
421.145	1171.1
421.353	1150.62
421.561	1332.89
421.769	1285.78
421.977	1382.04
422.185	1384.09
422.393	1392.28
422.601	1396.37
422.809	1361.56
423.017	1439.38
423.224	1607.31
423.432	1685.14
423.64	1601.17
423.848	1724.05
424.056	1793.68
424.263	1822.35
424.471	1926.8
424.679	1842.83
424.887	1904.27
425.094	2137.74
425.302	2162.31
425.51	2123.4
425.718	2141.83
425.925	2150.03
426.133	2258.57
426.341	2424.45
426.548	2485.89
426.756	2592.39
426.964	2637.44
427.171	2752.13
427.379	2844.29
427.586	2780.8
427.794	2973.31
428.001	3169.91
428.209	3208.83
428.417	3225.21
428.624	3300.98
428.832	3288.7
429.039	3315.32
429.247	3372.66
429.454	3704.43
429.662	4066.92
429.869	3597.94
430.076	4009.58
430.284	3714.67
430.491	4054.64
430.699	4292.2
430.906	4212.33
431.114	4175.47
431.321	4451.94
431.528	4558.44
431.736	4789.86
431.943	4974.17
432.15	5019.23
432.358	4978.27
432.565	5221.98
432.772	5101.15
432.979	5451.35
433.187	5459.54
433.394	5547.61
433.601	5772.88
433.808	5842.51
434.016	5989.97
434.223	6219.34
434.43	6610.5
434.637	6338.12
434.844	6968.9
435.052	6897.22
435.259	6841.92
435.466	6878.79
435.673	6907.46
435.88	7390.78
436.087	7605.81
436.294	7720.5
436.501	7319.1
436.708	7779.89
436.915	7804.47
437.122	8310.32
437.329	8201.77
437.537	8488.49
437.743	8570.41
437.95	8584.74
438.157	8767.01
438.364	9291.29
438.571	9219.61
438.778	9389.6
438.985	10090
439.192	9766.42
439.399	10090
439.606	9909.78
439.813	10550.79
440.02	10810.89
440.227	10776.07
440.433	10827.27
440.64	11148.8
440.847	10876.42
441.054	11308.54
441.261	12191.22
441.467	11771.38
441.674	12193.26
441.881	12531.18
442.088	12584.43
442.294	12426.73
442.501	12883.43
442.708	12924.39
442.914	13428.19
443.121	14028.24
443.328	13661.66
443.534	14521.81
443.741	14220.75
443.948	13897.17
444.154	14925.25
444.361	15025.61
444.568	15144.39
444.774	14876.1
444.981	15365.57
445.187	15777.21
445.394	16170.42
445.6	16254.39
445.807	17595.81
446.013	16881.07
446.22	16973.22
446.426	17737.12
446.633	17946.01
446.839	18566.54
447.046	17757.6
447.252	18931.08
447.459	18920.84
447.665	18814.35
447.871	19600.77
448.078	20247.93
448.284	19266.95
448.491	20030.84
448.697	20704.62
448.903	21155.18
449.11	21144.94
449.316	20686.19
449.522	21353.83
449.728	21505.38
449.935	21744.99
450.141	21788
450.347	22246.74
450.553	21790.05
450.76	21921.12
450.966	22517.08
451.172	22162.78
451.378	22867.28
451.584	22285.65
451.791	22789.45
451.997	23059.79
452.203	23168.33
452.409	23455.04
452.615	22926.67
452.821	22000.99
453.027	21998.94
453.233	22793.55
453.44	22097.24
453.646	22533.46
453.852	22576.47
454.058	22619.47
454.264	22082.91
454.47	22435.16
454.676	21857.63
454.882	22834.51
455.088	20542.83
455.294	21056.87
455.5	21470.56
455.705	21517.67
455.911	20606.32
456.117	20315.51
456.323	19944.83
456.529	18894.22
456.735	19756.41
456.941	19283.33
457.147	19066.25
457.352	18247.06
457.558	18159
457.764	17984.92
457.97	18029.98
458.176	17558.94
458.381	17319.33
458.587	16655.79
458.793	16485.81
458.999	15541.69
459.204	16743.85
459.41	16381.36
459.616	15011.27
459.821	15371.71
460.027	15150.53
460.233	14843.34
460.438	14018
460.644	14235.09
460.85	13587.93
461.055	13317.6
461.261	13477.34
461.466	12465.64
461.672	12240.37
461.878	12910.05
462.083	12201.46
462.289	12023.28
462.494	11531.77
462.7	11142.66
462.905	10843.65
463.111	11167.23
463.316	11410.94
463.522	11085.31
463.727	11146.75
463.932	11216.38
464.138	10819.08
464.343	10921.48
464.549	10683.91
464.754	11181.57
464.959	10939.91
465.165	10765.83
465.37	10507.79
465.575	10126.86
465.781	10432.01
465.986	10550.79
466.191	9997.84
466.397	10108.43
466.602	9549.34
466.807	10032.66
467.012	10092.05
467.218	9850.39
467.423	9877.01
467.628	9731.61
467.833	10284.56
468.038	9647.64
468.244	9504.28
468.449	9850.39
468.654	9780.76
468.859	9471.51
