Data from USB4F104151__11__11-04-40-615.txt Node

Date: Wed Mar 12 11:04:40 EDT 2025
User: louis
Spectrometer: USB4F10415
Trigger mode: 4
Integration Time (sec): 2.000000E-2
Scans to average: 1
Electric dark correction enabled: true
Nonlinearity correction enabled: false
Boxcar width: 0
XAxis mode: Wavelengths
Number of Pixels in Spectrum: 3648
>>>>>Begin Spectral Data<<<<<
178.204	-112.3
178.424	-112.3
178.644	-112.3
178.864	-50.86
179.084	-24.23
179.304	-42.67
179.524	24.92
179.744	-11.95
179.964	-1.71
180.184	22.87
180.404	35.16
180.624	45.4
180.844	-5.8
181.064	-57
181.283	-7.85
181.503	4.44
181.723	-5.8
181.943	43.35
182.163	29.01
182.383	57.68
182.602	31.06
182.822	4.44
183.042	112.98
183.262	45.4
183.482	47.44
183.701	-11.95
183.921	61.78
184.141	6.49
184.361	76.12
184.58	-26.28
184.8	-26.28
185.02	61.78
185.239	123.22
185.459	18.77
185.679	12.63
185.898	47.44
186.118	57.68
186.338	65.88
186.557	82.26
186.777	8.53
186.997	76.12
187.216	29.01
187.436	43.35
187.655	-26.28
187.875	-38.57
188.095	67.92
188.314	10.58
188.534	51.54
188.753	24.92
188.973	86.36
189.192	127.32
189.412	31.06
189.631	22.87
189.851	-36.52
190.07	63.83
190.29	-24.23
190.509	-34.47
190.729	29.01
190.948	47.44
191.168	37.2
191.387	76.12
191.607	51.54
191.826	-34.47
192.045	2.39
192.265	102.74
192.484	102.74
192.704	78.16
192.923	8.53
193.142	20.82
193.362	43.35
193.581	65.88
193.8	2.39
194.02	55.64
194.239	-7.85
194.458	31.06
194.678	16.73
194.897	59.73
195.116	-16.04
195.335	-1.71
195.555	100.69
195.774	37.2
195.993	69.97
196.212	57.68
196.432	0.34
196.651	20.82
196.87	-65.19
197.089	59.73
197.308	55.64
197.528	57.68
197.747	78.16
197.966	90.45
198.185	43.35
198.404	-1.71
198.623	-20.14
198.842	59.73
199.062	16.73
199.281	51.54
199.5	-28.33
199.719	-9.9
199.938	59.73
200.157	108.88
200.376	4.44
200.595	86.36
200.814	22.87
201.033	29.01
201.252	37.2
201.471	35.16
201.69	22.87
201.909	57.68
202.128	-30.38
202.347	-13.99
202.566	80.21
202.785	0.34
203.004	-13.99
203.223	92.5
203.442	31.06
203.661	35.16
203.879	-16.04
204.098	-24.23
204.317	-46.76
204.536	123.22
204.755	49.49
204.974	65.88
205.193	55.64
205.411	67.92
205.63	8.53
205.849	59.73
206.068	45.4
206.287	57.68
206.505	61.78
206.724	49.49
206.943	45.4
207.162	55.64
207.381	55.64
207.599	14.68
207.818	6.49
208.037	59.73
208.255	26.96
208.474	53.59
208.693	-7.85
208.911	2.39
209.13	63.83
209.349	41.3
209.567	57.68
209.786	41.3
210.005	-13.99
210.223	18.77
210.442	18.77
210.661	49.49
210.879	31.06
211.098	59.73
211.316	98.64
211.535	-5.8
211.753	45.4
211.972	33.11
212.191	39.25
212.409	74.07
212.628	20.82
212.846	39.25
213.065	20.82
213.283	80.21
213.502	51.54
213.72	6.49
213.938	88.4
214.157	82.26
214.375	10.58
214.594	49.49
214.812	63.83
215.031	80.21
215.249	57.68
215.467	51.54
215.686	10.58
215.904	76.12
216.122	82.26
216.341	67.92
216.559	49.49
216.778	61.78
216.996	39.25
217.214	88.4
217.432	-57
217.651	33.11
217.869	104.79
218.087	37.2
218.306	12.63
218.524	33.11
218.742	96.6
218.96	2.39
219.179	59.73
219.397	55.64
219.615	82.26
219.833	84.31
220.051	0.34
220.27	88.4
220.488	0.34
220.706	43.35
220.924	-18.09
221.142	41.3
221.36	61.78
221.578	59.73
221.796	55.64
222.015	84.31
222.233	2.39
222.451	100.69
222.669	-18.09
222.887	18.77
223.105	-9.9
223.323	-1.71
223.541	47.44
223.759	74.07
223.977	61.78
224.195	127.32
224.413	86.36
224.631	12.63
224.849	133.46
225.067	80.21
225.285	55.64
225.503	51.54
225.721	43.35
225.939	69.97
226.157	51.54
226.375	88.4
226.592	-28.33
226.81	100.69
227.028	41.3
227.246	80.21
227.464	41.3
227.682	-1.71
227.9	69.97
228.117	37.2
228.335	61.78
228.553	86.36
228.771	16.73
228.989	49.49
229.206	86.36
229.424	80.21
229.642	12.63
229.86	86.36
230.077	31.06
230.295	78.16
230.513	16.73
230.731	98.64
230.948	6.49
231.166	78.16
231.384	65.88
231.601	-36.52
231.819	24.92
232.037	110.93
232.254	53.59
232.472	-13.99
232.689	0.34
232.907	-5.8
233.125	57.68
233.342	29.01
233.56	57.68
233.777	29.01
233.995	49.49
234.213	55.64
234.43	67.92
234.648	90.45
234.865	67.92
235.083	74.07
235.3	41.3
235.518	110.93
235.735	51.54
235.953	76.12
236.17	53.59
236.388	14.68
236.605	90.45
236.822	61.78
237.04	8.53
237.257	22.87
237.475	22.87
237.692	69.97
237.909	22.87
238.127	0.34
238.344	-24.23
238.562	90.45
238.779	88.4
238.996	6.49
239.214	100.69
239.431	61.78
239.648	67.92
239.865	74.07
240.083	2.39
240.3	29.01
240.517	74.07
240.735	164.18
240.952	74.07
241.169	24.92
241.386	0.34
241.603	35.16
241.821	69.97
242.038	72.02
242.255	41.3
242.472	65.88
242.689	92.5
242.907	51.54
243.124	41.3
243.341	-16.04
243.558	31.06
243.775	20.82
243.992	-18.09
244.209	84.31
244.426	88.4
244.643	57.68
244.86	-9.9
245.078	0.34
245.295	24.92
245.512	45.4
245.729	63.83
245.946	-11.95
246.163	49.49
246.38	86.36
246.597	45.4
246.814	39.25
247.031	45.4
247.248	78.16
247.464	-13.99
247.681	33.11
247.898	84.31
248.115	43.35
248.332	47.44
248.549	57.68
248.766	76.12
248.983	22.87
249.2	35.16
249.417	18.77
249.633	-28.33
249.85	53.59
250.067	-28.33
250.284	92.5
250.501	26.96
250.717	57.68
250.934	-18.09
251.151	45.4
251.368	-40.62
251.585	24.92
251.801	18.77
252.018	18.77
252.235	47.44
252.451	-28.33
252.668	74.07
252.885	102.74
253.102	72.02
253.318	80.21
253.535	82.26
253.752	33.11
253.968	16.73
254.185	65.88
254.401	57.68
254.618	69.97
254.835	4.44
255.051	84.31
255.268	26.96
255.484	39.25
255.701	57.68
255.917	84.31
256.134	61.78
256.351	59.73
256.567	37.2
256.784	53.59
257	-1.71
257.217	55.64
257.433	57.68
257.65	74.07
257.866	-7.85
258.082	63.83
258.299	4.44
258.515	57.68
258.732	106.84
258.948	20.82
259.165	59.73
259.381	69.97
259.597	76.12
259.814	41.3
260.03	57.68
260.246	49.49
260.463	24.92
260.679	-11.95
260.895	10.58
261.112	69.97
261.328	92.5
261.544	18.77
261.761	67.92
261.977	43.35
262.193	84.31
262.409	20.82
262.626	57.68
262.842	104.79
263.058	29.01
263.274	-28.33
263.49	22.87
263.707	31.06
263.923	10.58
264.139	57.68
264.355	20.82
264.571	80.21
264.787	76.12
265.004	24.92
265.22	39.25
265.436	16.73
265.652	-5.8
265.868	112.98
266.084	35.16
266.3	-3.75
266.516	33.11
266.732	43.35
266.948	45.4
267.164	110.93
267.38	90.45
267.596	45.4
267.812	63.83
268.028	45.4
268.244	20.82
268.46	18.77
268.676	39.25
268.892	82.26
269.108	8.53
269.324	53.59
269.54	57.68
269.756	0.34
269.972	26.96
270.188	33.11
270.403	33.11
270.619	35.16
270.835	55.64
271.051	-48.81
271.267	20.82
271.483	76.12
271.698	22.87
271.914	76.12
272.13	117.08
272.346	26.96
272.562	39.25
272.777	78.16
272.993	-46.76
273.209	57.68
273.425	96.6
273.64	84.31
273.856	94.55
274.072	29.01
274.287	51.54
274.503	8.53
274.719	65.88
274.934	149.84
275.15	108.88
275.366	22.87
275.581	2.39
275.797	-13.99
276.012	57.68
276.228	78.16
276.444	53.59
276.659	67.92
276.875	63.83
277.09	110.93
277.306	45.4
277.521	63.83
277.737	22.87
277.952	61.78
278.168	-13.99
278.383	37.2
278.599	22.87
278.814	86.36
279.03	41.3
279.245	80.21
279.461	18.77
279.676	14.68
279.892	94.55
280.107	78.16
280.322	37.2
280.538	29.01
280.753	39.25
280.969	35.16
281.184	20.82
281.399	22.87
281.615	61.78
281.83	98.64
282.045	41.3
282.26	39.25
282.476	139.6
282.691	51.54
282.906	43.35
283.122	18.77
283.337	76.12
283.552	31.06
283.767	-44.71
283.983	45.4
284.198	24.92
284.413	100.69
284.628	47.44
284.843	43.35
285.058	65.88
285.274	35.16
285.489	47.44
285.704	90.45
285.919	80.21
286.134	29.01
286.349	53.59
286.564	37.2
286.779	-9.9
286.995	49.49
287.21	-22.19
287.425	8.53
287.64	57.68
287.855	59.73
288.07	33.11
288.285	65.88
288.5	53.59
288.715	80.21
288.93	65.88
289.145	-9.9
289.36	16.73
289.575	94.55
289.79	24.92
290.004	88.4
290.219	55.64
290.434	51.54
290.649	0.34
290.864	74.07
291.079	39.25
291.294	51.54
291.509	98.64
291.724	29.01
291.938	37.2
292.153	55.64
292.368	96.6
292.583	100.69
292.798	39.25
293.012	86.36
293.227	-26.28
293.442	-1.71
293.657	-13.99
293.871	88.4
294.086	45.4
294.301	80.21
294.516	117.08
294.73	61.78
294.945	12.63
295.16	0.34
295.374	72.02
295.589	-11.95
295.804	35.16
296.018	59.73
296.233	137.56
296.447	-9.9
296.662	-7.85
296.877	43.35
297.091	61.78
297.306	37.2
297.52	82.26
297.735	53.59
297.949	51.54
298.164	43.35
298.378	57.68
298.593	14.68
298.807	37.2
299.022	26.96
299.236	35.16
299.451	84.31
299.665	90.45
299.88	115.03
300.094	26.96
300.309	31.06
300.523	61.78
300.737	37.2
300.952	22.87
301.166	4.44
301.381	22.87
301.595	18.77
301.809	-57
302.024	53.59
302.238	20.82
302.452	63.83
302.667	10.58
302.881	65.88
303.095	53.59
303.309	88.4
303.524	20.82
303.738	61.78
303.952	65.88
304.166	0.34
304.381	39.25
304.595	39.25
304.809	100.69
305.023	135.51
305.237	82.26
305.452	106.84
305.666	49.49
305.88	10.58
306.094	26.96
306.308	-5.8
306.522	98.64
306.736	94.55
306.95	80.21
307.164	-16.04
307.379	74.07
307.593	-1.71
307.807	80.21
308.021	51.54
308.235	67.92
308.449	8.53
308.663	41.3
308.877	119.12
309.091	29.01
309.305	72.02
309.519	117.08
309.733	102.74
309.947	-69.29
310.161	131.41
310.374	16.73
310.588	67.92
310.802	0.34
311.016	29.01
311.23	-24.23
311.444	8.53
311.658	-3.75
311.872	72.02
312.085	78.16
312.299	78.16
312.513	127.32
312.727	18.77
312.941	37.2
313.154	63.83
313.368	-24.23
313.582	72.02
313.796	29.01
314.009	53.59
314.223	67.92
314.437	33.11
314.651	172.37
314.864	61.78
315.078	-1.71
315.292	67.92
315.505	129.36
315.719	67.92
315.933	53.59
316.146	69.97
316.36	63.83
316.573	80.21
316.787	0.34
317.001	45.4
317.214	151.89
317.428	143.7
317.641	14.68
317.855	61.78
318.068	29.01
318.282	49.49
318.495	151.89
318.709	92.5
318.922	39.25
319.136	110.93
319.349	86.36
319.563	104.79
319.776	59.73
319.99	14.68
320.203	96.6
320.417	123.22
320.63	-16.04
320.843	84.31
321.057	69.97
321.27	119.12
321.483	51.54
321.697	59.73
321.91	98.64
322.124	82.26
322.337	24.92
322.55	67.92
322.763	51.54
322.977	53.59
323.19	121.17
323.403	22.87
323.617	59.73
323.83	37.2
324.043	135.51
324.256	55.64
324.469	61.78
324.683	90.45
324.896	35.16
325.109	57.68
325.322	49.49
325.535	-7.85
325.748	41.3
325.962	14.68
326.175	88.4
326.388	76.12
326.601	108.88
326.814	133.46
327.027	67.92
327.24	82.26
327.453	8.53
327.666	108.88
327.879	63.83
328.092	20.82
328.305	49.49
328.518	59.73
328.731	76.12
328.944	123.22
329.157	24.92
329.37	12.63
329.583	12.63
329.796	59.73
330.009	76.12
330.222	84.31
330.435	22.87
330.648	16.73
330.861	51.54
331.073	92.5
331.286	49.49
331.499	33.11
331.712	-34.47
331.925	100.69
332.138	164.18
332.35	123.22
332.563	53.59
332.776	123.22
332.989	69.97
333.202	10.58
333.414	20.82
333.627	119.12
333.84	-7.85
334.053	59.73
334.265	33.11
334.478	12.63
334.691	-26.28
334.903	53.59
335.116	16.73
335.329	106.84
335.541	67.92
335.754	82.26
335.966	43.35
336.179	51.54
336.392	61.78
336.604	6.49
336.817	94.55
337.029	31.06
337.242	67.92
337.454	104.79
337.667	29.01
337.88	104.79
338.092	98.64
338.305	47.44
338.517	94.55
338.729	76.12
338.942	123.22
339.154	72.02
339.367	-1.71
339.579	-11.95
339.792	41.3
340.004	123.22
340.217	4.44
340.429	65.88
340.641	61.78
340.854	67.92
341.066	67.92
341.278	88.4
341.491	102.74
341.703	78.16
341.915	86.36
342.128	96.6
342.34	33.11
342.552	-3.75
342.764	63.83
342.977	41.3
343.189	8.53
343.401	29.01
343.613	67.92
343.826	55.64
344.038	14.68
344.25	98.64
344.462	14.68
344.674	102.74
344.886	49.49
345.099	57.68
345.311	194.9
345.523	53.59
345.735	49.49
345.947	67.92
346.159	12.63
346.371	94.55
346.583	57.68
346.795	84.31
347.007	123.22
347.219	112.98
347.431	80.21
347.643	106.84
347.855	24.92
348.067	78.16
348.279	-9.9
348.491	110.93
348.703	80.21
348.915	106.84
349.127	29.01
349.339	86.36
349.551	100.69
349.763	92.5
349.975	-36.52
350.187	43.35
350.399	22.87
350.61	106.84
350.822	-18.09
351.034	-32.43
351.246	115.03
351.458	45.4
351.669	106.84
351.881	100.69
352.093	6.49
352.305	33.11
352.517	33.11
352.728	47.44
352.94	57.68
353.152	139.6
353.363	55.64
353.575	94.55
353.787	43.35
353.999	133.46
354.21	108.88
354.422	102.74
354.633	51.54
354.845	35.16
355.057	74.07
355.268	78.16
355.48	26.96
355.692	47.44
355.903	57.68
356.115	49.49
356.326	37.2
356.538	135.51
356.749	-7.85
356.961	90.45
357.172	55.64
357.384	61.78
357.595	102.74
357.807	-5.8
358.018	86.36
358.23	57.68
358.441	96.6
358.653	106.84
358.864	110.93
359.075	94.55
359.287	149.84
359.498	127.32
359.709	18.77
359.921	39.25
360.132	96.6
360.344	104.79
360.555	90.45
360.766	22.87
360.977	67.92
361.189	127.32
361.4	4.44
361.611	137.56
361.823	74.07
362.034	104.79
362.245	65.88
362.456	139.6
362.667	74.07
362.879	121.17
363.09	102.74
363.301	43.35
363.512	127.32
363.723	86.36
363.935	57.68
364.146	104.79
364.357	84.31
364.568	55.64
364.779	49.49
364.99	61.78
365.201	84.31
365.412	149.84
365.623	57.68
365.834	47.44
366.045	76.12
366.256	104.79
366.467	98.64
366.678	61.78
366.889	98.64
367.1	53.59
367.311	90.45
367.522	170.32
367.733	88.4
367.944	94.55
368.155	117.08
368.366	80.21
368.577	94.55
368.788	20.82
368.999	45.4
369.209	112.98
369.42	24.92
369.631	108.88
369.842	51.54
370.053	65.88
370.264	119.12
370.474	33.11
370.685	88.4
370.896	18.77
371.107	121.17
371.317	90.45
371.528	90.45
371.739	121.17
371.95	121.17
372.16	57.68
372.371	94.55
372.582	-9.9
372.792	96.6
373.003	86.36
373.214	115.03
373.424	69.97
373.635	33.11
373.846	127.32
374.056	55.64
374.267	129.36
374.477	47.44
374.688	72.02
374.898	145.75
375.109	41.3
375.319	139.6
375.53	184.66
375.74	160.08
375.951	92.5
376.161	90.45
376.372	176.47
376.582	45.4
376.793	63.83
377.003	53.59
377.214	86.36
377.424	14.68
377.635	84.31
377.845	119.12
378.055	47.44
378.266	55.64
378.476	112.98
378.686	98.64
378.897	76.12
379.107	57.68
379.317	72.02
379.528	24.92
379.738	0.34
379.948	24.92
380.158	65.88
380.369	80.21
380.579	115.03
380.789	26.96
380.999	115.03
381.21	115.03
381.42	115.03
381.63	24.92
381.84	141.65
382.05	133.46
382.261	98.64
382.471	76.12
382.681	31.06
382.891	147.8
383.101	147.8
383.311	67.92
383.521	133.46
383.731	80.21
383.941	57.68
384.151	51.54
384.361	127.32
384.571	94.55
384.781	74.07
384.991	98.64
385.201	176.47
385.411	26.96
385.621	123.22
385.831	57.68
386.041	149.84
386.251	115.03
386.461	67.92
386.671	41.3
386.881	53.59
387.091	76.12
387.301	74.07
387.511	135.51
387.72	41.3
387.93	80.21
388.14	94.55
388.35	78.16
388.56	98.64
388.769	90.45
388.979	4.44
389.189	123.22
389.399	112.98
389.609	115.03
389.818	129.36
390.028	125.27
390.238	31.06
390.447	49.49
390.657	119.12
390.867	102.74
391.076	-18.09
391.286	72.02
391.496	104.79
391.705	129.36
391.915	108.88
392.125	104.79
392.334	102.74
392.544	100.69
392.753	78.16
392.963	90.45
393.172	35.16
393.382	72.02
393.591	115.03
393.801	55.64
394.01	112.98
394.22	129.36
394.429	162.13
394.639	102.74
394.848	131.41
395.058	90.45
395.267	137.56
395.477	123.22
395.686	151.89
395.895	145.75
396.105	123.22
396.314	115.03
396.524	153.94
396.733	123.22
396.942	170.32
397.152	143.7
397.361	153.94
397.57	151.89
397.78	141.65
397.989	172.37
398.198	194.9
398.407	209.23
398.617	131.41
398.826	110.93
399.035	205.14
399.244	180.56
399.453	211.28
399.663	153.94
399.872	160.08
400.081	172.37
400.29	137.56
400.499	108.88
400.708	235.86
400.917	168.27
401.127	151.89
401.336	141.65
401.545	246.1
401.754	127.32
401.963	227.67
402.172	207.19
402.381	205.14
402.59	110.93
402.799	209.23
403.008	207.19
403.217	168.27
403.426	121.17
403.635	176.47
403.844	67.92
404.053	235.86
404.262	160.08
404.471	244.05
404.68	221.52
404.888	250.19
405.097	221.52
405.306	256.34
405.515	252.24
405.724	258.39
405.933	260.43
406.142	237.91
406.35	282.96
406.559	313.68
406.768	258.39
406.977	330.06
407.185	276.82
407.394	274.77
407.603	258.39
407.812	344.4
408.02	373.07
408.229	334.16
408.438	354.64
408.646	344.4
408.855	403.79
409.064	315.73
409.272	305.49
409.481	473.42
409.69	424.27
409.898	422.22
410.107	364.88
410.315	491.85
410.524	471.37
410.733	432.46
410.941	469.33
411.15	495.95
411.358	532.81
411.567	520.53
411.775	551.24
411.984	590.16
412.192	586.06
412.401	534.86
412.609	678.22
412.818	700.75
413.026	735.56
413.234	719.18
413.443	721.23
413.651	717.13
413.86	835.91
414.068	864.58
414.276	831.82
414.485	901.45
414.693	948.55
414.901	969.03
415.11	1003.85
415.318	934.22
415.526	1083.72
415.734	1179.97
415.943	1108.29
416.151	1265.99
416.359	1098.05
416.567	1155.4
416.776	1282.37
416.984	1304.9
417.192	1315.14
417.4	1347.9
417.608	1360.19
417.817	1554.75
418.025	1571.13
418.233	1708.35
418.441	1659.2
418.649	1679.68
418.857	1806.65
419.065	1931.58
419.273	1857.85
419.481	2015.54
419.689	2097.46
419.897	2187.57
420.105	2300.21
420.313	2273.59
420.521	2289.97
420.729	2298.16
420.937	2357.55
421.145	2476.34
421.353	2582.83
421.561	2769.2
421.769	2863.4
421.977	2865.45
422.185	2834.73
422.393	3082.53
422.601	3297.57
422.809	3277.09
423.017	3283.24
423.224	3445.02
423.432	3547.42
423.64	3473.7
423.848	3901.72
424.056	3823.9
424.263	4133.14
424.471	4167.96
424.679	4206.87
424.887	4331.8
425.094	4497.68
425.302	4645.13
425.51	4770.06
425.718	4837.64
425.925	4897.03
426.133	5208.33
426.341	5382.4
426.548	5697.79
426.756	5832.96
426.964	5847.29
427.171	5986.55
427.379	6285.56
427.586	6263.03
427.794	6510.83
428.001	6789.36
428.209	7137.51
428.417	7004.39
428.624	7588.07
428.832	7563.49
429.039	7674.08
429.247	7649.5
429.454	8294.61
429.662	8939.72
429.869	8091.87
430.076	8700.11
430.284	8478.93
430.491	9009.36
430.699	9406.66
430.906	9408.71
431.114	9547.97
431.321	9894.08
431.528	10078.4
431.736	10666.16
431.943	11362.47
432.15	10832.05
432.358	10975.41
432.565	11378.86
432.772	11475.11
432.979	12034.21
433.187	12386.46
433.394	12365.98
433.601	13289.61
433.808	13498.5
434.016	13176.97
434.223	13842.56
434.43	14706.8
434.637	14102.65
434.844	15175.79
435.052	15749.22
435.259	15388.78
435.466	15603.82
435.673	15603.82
435.88	16623.7
436.087	17563.72
436.294	17334.35
436.501	16949.33
436.708	17520.71
436.915	17795.14
437.122	18774.07
437.329	18595.9
437.537	19421.23
437.743	19753
437.95	19458.09
438.157	20602.91
438.364	20858.9
438.571	21217.3
438.778	21309.46
438.985	23392.24
439.192	22415.36
439.399	23076.85
439.606	22317.06
439.813	23721.96
440.02	25198.55
440.227	24766.43
440.433	24676.32
440.64	25786.32
440.847	25241.56
441.054	26013.64
441.261	27688.88
441.467	27314.1
441.674	27807.66
441.881	28485.54
442.088	28676
442.294	28321.7
442.501	29482.9
442.708	29777.81
442.914	31092.6
443.121	32245.61
443.328	30994.3
443.534	33947.47
443.741	32575.33
443.948	32546.66
444.154	34856.77
444.361	34412.36
444.568	34785.09
444.774	34707.27
444.981	35116.86
445.187	36138.8
445.394	37517.08
445.6	37553.94
445.807	40726.25
446.013	38575.88
446.22	39575.29
446.426	41152.23
446.633	41500.38
446.839	42780.36
447.046	40849.13
447.252	43345.6
447.459	43529.92
447.665	43069.12
447.871	45022.89
448.078	46632.59
448.284	44687.02
448.491	45530.78
448.697	47439.49
448.903	47851.13
449.11	48383.6
449.316	47421.06
449.522	48203.38
449.728	49555.04
449.935	49657.44
450.141	49661.54
450.347	50988.62
450.553	49534.56
450.76	49729.12
450.966	51170.89
451.172	50701.9
451.378	51336.77
451.584	50992.72
451.791	51709.5
451.997	51580.48
452.203	52227.64
452.409	52143.67
452.615	51951.16
452.821	49815.13
453.027	49557.09
453.233	51824.19
453.44	49684.06
453.646	50525.78
453.852	50613.84
454.058	51461.7
454.264	49610.34
454.47	50777.68
454.676	49383.01
454.882	50800.21
455.088	46593.68
455.294	46966.41
455.5	47722.11
455.705	48086.65
455.911	46366.35
456.117	45254.31
456.323	45014.69
456.529	42036.95
456.735	43939.51
456.941	42890.95
457.147	42264.27
457.352	40767.21
457.558	40404.72
457.764	40482.54
457.97	39591.67
458.176	38862.6
458.381	39028.48
458.587	36724.52
458.793	36497.19
458.999	35012.42
459.204	37170.97
459.41	36407.08
459.616	33918.8
459.821	33955.66
460.027	33752.91
460.233	33040.22
460.438	31350.65
460.644	31661.94
460.85	29908.88
461.055	30056.33
461.261	29945.74
461.466	27342.77
461.672	26814.4
461.878	29073.31
462.083	26798.01
462.289	26415.04
462.494	25993.16
462.7	25155.54
462.905	24518.62
463.111	25192.4
463.316	25153.49
463.522	24502.24
463.727	24811.48
463.932	25063.38
464.138	24690.65
464.343	24446.94
464.549	23549.93
464.754	25051.1
464.959	24672.22
465.165	24461.28
465.37	23359.47
465.575	22665.21
465.781	23511.02
465.986	23584.75
466.191	23048.18
466.397	22474.75
466.602	21497.87
466.807	22061.06
