Data from USB4F104151__79__11-06-25-524.txt Node

Date: Wed Mar 12 11:06:25 EDT 2025
User: louis
Spectrometer: USB4F10415
Trigger mode: 4
Integration Time (sec): 2.000000E-2
Scans to average: 1
Electric dark correction enabled: true
Nonlinearity correction enabled: false
Boxcar width: 0
XAxis mode: Wavelengths
Number of Pixels in Spectrum: 3648
>>>>>Begin Spectral Data<<<<<
178.204	-71.17
178.424	-71.17
178.644	-71.17
178.864	-95.74
179.084	-65.02
179.304	-22.02
179.524	-15.87
179.744	-22.02
179.964	59.9
180.184	74.24
180.404	61.95
180.624	-22.02
180.844	-34.3
181.064	-50.69
181.283	-24.06
181.503	-9.73
181.723	4.61
181.943	23.04
182.163	100.86
182.383	-22.02
182.602	23.04
182.822	43.52
183.042	74.24
183.262	20.99
183.482	6.66
183.701	-19.97
183.921	27.14
184.141	-19.97
184.361	23.04
184.58	23.04
184.8	-7.68
185.02	55.81
185.239	78.33
185.459	2.56
185.679	45.57
185.898	6.66
186.118	45.57
186.338	8.7
186.557	51.71
186.777	23.04
186.997	6.66
187.216	33.28
187.436	94.72
187.655	-7.68
187.875	74.24
188.095	16.9
188.314	82.43
188.534	55.81
188.753	61.95
188.973	-5.63
189.192	72.19
189.412	23.04
189.631	-3.58
189.851	33.28
190.07	12.8
190.29	51.71
190.509	68.09
190.729	10.75
190.948	-1.54
191.168	80.38
191.387	61.95
191.607	4.61
191.826	55.81
192.045	-30.21
192.265	-5.63
192.484	-30.21
192.704	-48.64
192.923	0.51
193.142	47.62
193.362	12.8
193.581	109.05
193.8	18.94
194.02	70.14
194.239	-26.11
194.458	4.61
194.678	23.04
194.897	64
195.116	-30.21
195.335	72.19
195.555	12.8
195.774	59.9
195.993	43.52
196.212	-7.68
196.432	-19.97
196.651	53.76
196.87	8.7
197.089	158.21
197.308	41.47
197.528	70.14
197.747	-7.68
197.966	37.38
198.185	-9.73
198.404	6.66
198.623	-17.92
198.842	43.52
199.062	35.33
199.281	0.51
199.5	35.33
199.719	31.23
199.938	12.8
200.157	139.77
200.376	-11.78
200.595	23.04
200.814	68.09
201.033	41.47
201.252	94.72
201.471	10.75
201.69	98.81
201.909	-50.69
202.128	-5.63
202.347	35.33
202.566	-5.63
202.785	39.42
203.004	23.04
203.223	66.05
203.442	90.62
203.661	-32.26
203.879	-19.97
204.098	25.09
204.317	-48.64
204.536	76.29
204.755	23.04
204.974	29.18
205.193	12.8
205.411	14.85
205.63	64
205.849	55.81
206.068	-87.55
206.287	78.33
206.505	94.72
206.724	66.05
206.943	-13.82
207.162	39.42
207.381	14.85
207.599	25.09
207.818	-22.02
208.037	33.28
208.255	31.23
208.474	-3.58
208.693	68.09
208.911	-36.35
209.13	45.57
209.349	45.57
209.567	27.14
209.786	-34.3
210.005	23.04
210.223	49.66
210.442	-7.68
210.661	51.71
210.879	41.47
211.098	45.57
211.316	35.33
211.535	61.95
211.753	-36.35
211.972	-5.63
212.191	47.62
212.409	72.19
212.628	-9.73
212.846	31.23
213.065	111.1
213.283	55.81
213.502	27.14
213.72	43.52
213.938	20.99
214.157	-5.63
214.375	27.14
214.594	12.8
214.812	86.53
215.031	-69.12
215.249	14.85
215.467	55.81
215.686	16.9
215.904	29.18
216.122	31.23
216.341	70.14
216.559	49.66
216.778	64
216.996	51.71
217.214	31.23
217.432	-24.06
217.651	29.18
217.869	25.09
218.087	64
218.306	43.52
218.524	33.28
218.742	43.52
218.96	57.86
219.179	27.14
219.397	2.56
219.615	35.33
219.833	96.77
220.051	-77.31
220.27	33.28
220.488	74.24
220.706	39.42
220.924	49.66
221.142	39.42
221.36	-26.11
221.578	33.28
221.796	33.28
222.015	2.56
222.233	47.62
222.451	45.57
222.669	-7.68
222.887	88.57
223.105	51.71
223.323	2.56
223.541	29.18
223.759	68.09
223.977	20.99
224.195	27.14
224.413	74.24
224.631	84.48
224.849	2.56
225.067	35.33
225.285	59.9
225.503	55.81
225.721	-1.54
225.939	39.42
226.157	-13.82
226.375	150.01
226.592	29.18
226.81	29.18
227.028	23.04
227.246	64
227.464	76.29
227.682	109.05
227.9	84.48
228.117	43.52
228.335	-7.68
228.553	-24.06
228.771	84.48
228.989	66.05
229.206	64
229.424	18.94
229.642	35.33
229.86	25.09
230.077	43.52
230.295	4.61
230.513	72.19
230.731	64
230.948	29.18
231.166	47.62
231.384	37.38
231.601	76.29
231.819	12.8
232.037	45.57
232.254	2.56
232.472	6.66
232.689	-50.69
232.907	23.04
233.125	-3.58
233.342	-3.58
233.56	8.7
233.777	29.18
233.995	8.7
234.213	-34.3
234.43	61.95
234.648	47.62
234.865	-32.26
235.083	41.47
235.3	45.57
235.518	59.9
235.735	55.81
235.953	133.63
236.17	35.33
236.388	49.66
236.605	10.75
236.822	-32.26
237.04	41.47
237.257	35.33
237.475	25.09
237.692	31.23
237.909	55.81
238.127	86.53
238.344	64
238.562	18.94
238.779	43.52
238.996	80.38
239.214	127.49
239.431	70.14
239.648	27.14
239.865	29.18
240.083	14.85
240.3	-11.78
240.517	20.99
240.735	82.43
240.952	-30.21
241.169	70.14
241.386	80.38
241.603	35.33
241.821	47.62
242.038	70.14
242.255	96.77
242.472	12.8
242.689	76.29
242.907	6.66
243.124	-32.26
243.341	-24.06
243.558	2.56
243.775	78.33
243.992	-5.63
244.209	39.42
244.426	94.72
244.643	64
244.86	33.28
245.078	47.62
245.295	51.71
245.512	23.04
245.729	-32.26
245.946	-36.35
246.163	74.24
246.38	131.58
246.597	37.38
246.814	4.61
247.031	61.95
247.248	123.39
247.464	88.57
247.681	57.86
247.898	57.86
248.115	98.81
248.332	-5.63
248.549	-7.68
248.766	143.87
248.983	18.94
249.2	55.81
249.417	37.38
249.633	-77.31
249.85	33.28
250.067	-3.58
250.284	59.9
250.501	64
250.717	0.51
250.934	12.8
251.151	23.04
251.368	20.99
251.585	-15.87
251.801	84.48
252.018	-38.4
252.235	37.38
252.451	66.05
252.668	27.14
252.885	84.48
253.102	-46.59
253.318	20.99
253.535	64
253.752	-3.58
253.968	45.57
254.185	55.81
254.401	55.81
254.618	49.66
254.835	20.99
255.051	94.72
255.268	4.61
255.484	90.62
255.701	45.57
255.917	4.61
256.134	-77.31
256.351	18.94
256.567	23.04
256.784	-1.54
257	16.9
257.217	-1.54
257.433	37.38
257.65	51.71
257.866	51.71
258.082	14.85
258.299	76.29
258.515	74.24
258.732	4.61
258.948	-9.73
259.165	53.76
259.381	96.77
259.597	-11.78
259.814	66.05
260.03	68.09
260.246	-3.58
260.463	55.81
260.679	68.09
260.895	12.8
261.112	57.86
261.328	-69.12
261.544	37.38
261.761	27.14
261.977	6.66
262.193	27.14
262.409	16.9
262.626	27.14
262.842	16.9
263.058	-30.21
263.274	16.9
263.49	8.7
263.707	39.42
263.923	72.19
264.139	-83.45
264.355	35.33
264.571	23.04
264.787	66.05
265.004	37.38
265.22	-19.97
265.436	18.94
265.652	-15.87
265.868	31.23
266.084	20.99
266.3	12.8
266.516	35.33
266.732	-34.3
266.948	-22.02
267.164	49.66
267.38	57.86
267.596	12.8
267.812	57.86
268.028	76.29
268.244	70.14
268.46	39.42
268.676	117.25
268.892	43.52
269.108	-44.54
269.324	6.66
269.54	47.62
269.756	51.71
269.972	-9.73
270.188	57.86
270.403	45.57
270.619	18.94
270.835	102.91
271.051	64
271.267	41.47
271.483	41.47
271.698	16.9
271.914	-15.87
272.13	41.47
272.346	23.04
272.562	61.95
272.777	80.38
272.993	45.57
273.209	72.19
273.425	-3.58
273.64	-7.68
273.856	29.18
274.072	37.38
274.287	37.38
274.503	-9.73
274.719	68.09
274.934	23.04
275.15	-24.06
275.366	61.95
275.581	35.33
275.797	76.29
276.012	-9.73
276.228	104.96
276.444	27.14
276.659	104.96
276.875	2.56
277.09	-13.82
277.306	-50.69
277.521	49.66
277.737	4.61
277.952	6.66
278.168	-36.35
278.383	68.09
278.599	82.43
278.814	117.25
279.03	31.23
279.245	33.28
279.461	39.42
279.676	59.9
279.892	4.61
280.107	25.09
280.322	-26.11
280.538	76.29
280.753	45.57
280.969	-22.02
281.184	74.24
281.399	59.9
281.615	20.99
281.83	6.66
282.045	57.86
282.26	84.48
282.476	55.81
282.691	41.47
282.906	51.71
283.122	39.42
283.337	-3.58
283.552	68.09
283.767	119.29
283.983	-13.82
284.198	8.7
284.413	61.95
284.628	41.47
284.843	-11.78
285.058	64
285.274	-58.88
285.489	41.47
285.704	23.04
285.919	-17.92
286.134	86.53
286.349	31.23
286.564	-7.68
286.779	111.1
286.995	4.61
287.21	14.85
287.425	117.25
287.64	35.33
287.855	29.18
288.07	-11.78
288.285	43.52
288.5	-7.68
288.715	29.18
288.93	37.38
289.145	74.24
289.36	61.95
289.575	57.86
289.79	80.38
290.004	18.94
290.219	-1.54
290.434	43.52
290.649	41.47
290.864	47.62
291.079	35.33
291.294	51.71
291.509	90.62
291.724	53.76
291.938	14.85
292.153	64
292.368	43.52
292.583	45.57
292.798	96.77
293.012	33.28
293.227	84.48
293.442	14.85
293.657	-1.54
293.871	92.67
294.086	86.53
294.301	61.95
294.516	59.9
294.73	45.57
294.945	-52.74
295.16	92.67
295.374	47.62
295.589	27.14
295.804	43.52
296.018	45.57
296.233	-3.58
296.447	74.24
296.662	49.66
296.877	59.9
297.091	-1.54
297.306	41.47
297.52	47.62
297.735	51.71
297.949	14.85
298.164	16.9
298.378	45.57
298.593	43.52
298.807	96.77
299.022	39.42
299.236	78.33
299.451	64
299.665	-9.73
299.88	31.23
300.094	53.76
300.309	66.05
300.523	18.94
300.737	55.81
300.952	23.04
301.166	82.43
301.381	-30.21
301.595	61.95
301.809	55.81
302.024	35.33
302.238	35.33
302.452	84.48
302.667	49.66
302.881	35.33
303.095	55.81
303.309	20.99
303.524	20.99
303.738	102.91
303.952	6.66
304.166	57.86
304.381	39.42
304.595	104.96
304.809	43.52
305.023	35.33
305.237	39.42
305.452	64
305.666	-5.63
305.88	55.81
306.094	4.61
306.308	78.33
306.522	16.9
306.736	64
306.95	33.28
307.164	23.04
307.379	70.14
307.593	29.18
307.807	39.42
308.021	51.71
308.235	6.66
308.449	-46.59
308.663	80.38
308.877	0.51
309.091	37.38
309.305	59.9
309.519	74.24
309.733	55.81
309.947	37.38
310.161	55.81
310.374	-7.68
310.588	123.39
310.802	53.76
311.016	43.52
311.23	74.24
311.444	64
311.658	-34.3
311.872	35.33
312.085	31.23
312.299	6.66
312.513	74.24
312.727	82.43
312.941	72.19
313.154	53.76
313.368	6.66
313.582	12.8
313.796	84.48
314.009	84.48
314.223	86.53
314.437	107.01
314.651	2.56
314.864	16.9
315.078	59.9
315.292	31.23
315.505	-19.97
315.719	57.86
315.933	23.04
316.146	59.9
316.36	41.47
316.573	66.05
316.787	94.72
317.001	100.86
317.214	78.33
317.428	72.19
317.641	-9.73
317.855	78.33
318.068	33.28
318.282	-3.58
318.495	51.71
318.709	33.28
318.922	125.44
319.136	59.9
319.349	70.14
319.563	4.61
319.776	-34.3
319.99	20.99
320.203	55.81
320.417	20.99
320.63	84.48
320.843	135.68
321.057	-5.63
321.27	10.75
321.483	18.94
321.697	33.28
321.91	31.23
322.124	90.62
322.337	55.81
322.55	72.19
322.763	90.62
322.977	86.53
323.19	37.38
323.403	100.86
323.617	39.42
323.83	55.81
324.043	31.23
324.256	74.24
324.469	0.51
324.683	-17.92
324.896	14.85
325.109	8.7
325.322	14.85
325.535	68.09
325.748	35.33
325.962	55.81
326.175	64
326.388	57.86
326.601	68.09
326.814	23.04
327.027	96.77
327.24	88.57
327.453	-1.54
327.666	23.04
327.879	25.09
328.092	43.52
328.305	55.81
328.518	29.18
328.731	6.66
328.944	-24.06
329.157	55.81
329.37	78.33
329.583	12.8
329.796	100.86
330.009	51.71
330.222	-1.54
330.435	-19.97
330.648	76.29
330.861	115.2
331.073	10.75
331.286	64
331.499	107.01
331.712	68.09
331.925	113.15
332.138	53.76
332.35	223.74
332.563	72.19
332.776	39.42
332.989	41.47
333.202	4.61
333.414	27.14
333.627	18.94
333.84	31.23
334.053	78.33
334.265	66.05
334.478	53.76
334.691	23.04
334.903	35.33
335.116	59.9
335.329	29.18
335.541	14.85
335.754	23.04
335.966	55.81
336.179	-48.64
336.392	45.57
336.604	14.85
336.817	-34.3
337.029	23.04
337.242	31.23
337.454	94.72
337.667	55.81
337.88	29.18
338.092	4.61
338.305	49.66
338.517	43.52
338.729	16.9
338.942	-1.54
339.154	-34.3
339.367	47.62
339.579	66.05
339.792	27.14
340.004	-9.73
340.217	51.71
340.429	20.99
340.641	53.76
340.854	51.71
341.066	53.76
341.278	100.86
341.491	-1.54
341.703	96.77
341.915	115.2
342.128	35.33
342.34	72.19
342.552	-1.54
342.764	31.23
342.977	68.09
343.189	49.66
343.401	145.92
343.613	-34.3
343.826	14.85
344.038	-13.82
344.25	131.58
344.462	66.05
344.674	86.53
344.886	45.57
345.099	20.99
345.311	82.43
345.523	39.42
345.735	-3.58
345.947	47.62
346.159	53.76
346.371	20.99
346.583	68.09
346.795	84.48
347.007	49.66
347.219	20.99
347.431	64
347.643	47.62
347.855	121.34
348.067	80.38
348.279	59.9
348.491	-34.3
348.703	51.71
348.915	117.25
349.127	64
349.339	72.19
349.551	37.38
349.763	47.62
349.975	70.14
350.187	64
350.399	74.24
350.61	31.23
350.822	20.99
351.034	2.56
351.246	31.23
351.458	92.67
351.669	66.05
351.881	35.33
352.093	90.62
352.305	-13.82
352.517	90.62
352.728	14.85
352.94	92.67
353.152	111.1
353.363	31.23
353.575	-9.73
353.787	92.67
353.999	39.42
354.21	35.33
354.422	37.38
354.633	23.04
354.845	59.9
355.057	84.48
355.268	12.8
355.48	88.57
355.692	25.09
355.903	78.33
356.115	-3.58
356.326	80.38
356.538	35.33
356.749	51.71
356.961	86.53
357.172	102.91
357.384	-30.21
357.595	57.86
357.807	64
358.018	35.33
358.23	20.99
358.441	43.52
358.653	84.48
358.864	51.71
359.075	-15.87
359.287	31.23
359.498	51.71
359.709	10.75
359.921	100.86
360.132	80.38
360.344	70.14
360.555	-30.21
360.766	125.44
360.977	39.42
361.189	35.33
361.4	18.94
361.611	94.72
361.823	59.9
362.034	27.14
362.245	78.33
362.456	-15.87
362.667	100.86
362.879	14.85
363.09	51.71
363.301	35.33
363.512	-5.63
363.723	98.81
363.935	53.76
364.146	90.62
364.357	45.57
364.568	-24.06
364.779	-11.78
364.99	31.23
365.201	27.14
365.412	84.48
365.623	43.52
365.834	84.48
366.045	59.9
366.256	47.62
366.467	72.19
366.678	25.09
366.889	66.05
367.1	92.67
367.311	59.9
367.522	76.29
367.733	55.81
367.944	61.95
368.155	66.05
368.366	31.23
368.577	-9.73
368.788	55.81
368.999	6.66
369.209	37.38
369.42	-44.54
369.631	123.39
369.842	57.86
370.053	74.24
370.264	16.9
370.474	51.71
370.685	-22.02
370.896	76.29
371.107	59.9
371.317	68.09
371.528	31.23
371.739	80.38
371.95	35.33
372.16	109.05
372.371	102.91
372.582	59.9
372.792	33.28
373.003	61.95
373.214	-30.21
373.424	117.25
373.635	92.67
373.846	55.81
374.056	78.33
374.267	57.86
374.477	18.94
374.688	121.34
374.898	41.47
375.109	66.05
375.319	49.66
375.53	111.1
375.74	-11.78
375.951	86.53
376.161	45.57
376.372	53.76
376.582	29.18
376.793	119.29
377.003	92.67
377.214	68.09
377.424	41.47
377.635	88.57
377.845	57.86
378.055	125.44
378.266	88.57
378.476	41.47
378.686	31.23
378.897	86.53
379.107	59.9
379.317	53.76
379.528	20.99
379.738	74.24
379.948	37.38
380.158	102.91
380.369	111.1
380.579	68.09
380.789	90.62
380.999	102.91
381.21	64
381.42	104.96
381.63	59.9
381.84	27.14
382.05	31.23
382.261	64
382.471	74.24
382.681	92.67
382.891	49.66
383.101	78.33
383.311	18.94
383.521	45.57
383.731	70.14
383.941	131.58
384.151	53.76
384.361	66.05
384.571	80.38
384.781	45.57
384.991	107.01
385.201	66.05
385.411	90.62
385.621	10.75
385.831	90.62
386.041	35.33
386.251	135.68
386.461	131.58
386.671	57.86
386.881	70.14
387.091	88.57
387.301	88.57
387.511	37.38
387.72	94.72
387.93	129.53
388.14	43.52
388.35	104.96
388.56	117.25
388.769	125.44
388.979	31.23
389.189	-13.82
389.399	57.86
389.609	23.04
389.818	37.38
390.028	76.29
390.238	66.05
390.447	45.57
390.657	20.99
390.867	92.67
391.076	49.66
391.286	20.99
391.496	121.34
391.705	70.14
391.915	72.19
392.125	121.34
392.334	156.16
392.544	68.09
392.753	-34.3
392.963	94.72
393.172	66.05
393.382	68.09
393.591	80.38
393.801	74.24
394.01	104.96
394.22	96.77
394.429	145.92
394.639	88.57
394.848	115.2
395.058	84.48
395.267	133.63
395.477	104.96
395.686	115.2
395.895	125.44
396.105	168.45
396.314	107.01
396.524	217.6
396.733	92.67
396.942	172.54
397.152	123.39
397.361	90.62
397.57	115.2
397.78	111.1
397.989	131.58
398.198	166.4
398.407	47.62
398.617	137.73
398.826	133.63
399.035	84.48
399.244	125.44
399.453	121.34
399.663	84.48
399.872	184.83
400.081	80.38
400.29	143.87
400.499	111.1
400.708	109.05
400.917	115.2
401.127	37.38
401.336	172.54
401.545	92.67
401.754	154.11
401.963	193.02
402.172	174.59
402.381	80.38
402.59	190.97
402.799	129.53
403.008	141.82
403.217	88.57
403.426	88.57
403.635	90.62
403.844	125.44
404.053	117.25
404.262	133.63
404.471	121.34
404.68	205.31
404.888	193.02
405.097	84.48
405.306	195.07
405.515	178.69
405.724	145.92
405.933	186.88
406.142	160.25
406.35	119.29
406.559	154.11
406.768	184.83
406.977	203.26
407.185	250.36
407.394	219.64
407.603	164.35
407.812	221.69
408.02	252.41
408.229	186.88
408.438	268.8
408.646	279.04
408.855	252.41
409.064	272.89
409.272	317.95
409.481	248.32
409.69	301.56
409.898	242.17
410.107	317.95
410.315	293.37
410.524	258.56
410.733	324.09
410.941	371.19
411.15	446.97
411.358	367.1
411.567	406.01
411.775	367.1
411.984	383.48
412.192	473.59
412.401	438.78
412.609	492.02
412.818	494.07
413.026	551.42
413.234	477.69
413.443	559.61
413.651	541.18
413.86	559.61
414.068	578.04
414.276	651.77
414.485	698.87
414.693	582.14
414.901	762.36
415.11	680.44
415.318	657.91
415.526	748.02
415.734	834.04
415.943	770.55
416.151	874.99
416.359	801.27
416.567	858.61
416.776	934.39
416.984	1030.64
417.192	997.87
417.4	1051.12
417.608	944.63
417.817	1038.83
418.025	1077.74
418.233	1219.05
418.441	1139.18
418.649	1249.77
418.857	1278.44
419.065	1346.03
419.273	1348.08
419.481	1370.6
419.689	1542.63
419.897	1511.91
420.105	1581.54
420.313	1612.26
420.521	1702.37
420.729	1737.19
420.937	1798.63
421.145	1831.4
421.353	1964.51
421.561	2052.58
421.769	1984.99
421.977	2136.54
422.185	2150.88
422.393	2247.13
422.601	2378.2
422.809	2296.28
423.017	2306.52
423.224	2390.49
423.432	2615.77
423.64	2517.47
423.848	2785.75
424.056	2777.56
424.263	2949.59
424.471	2990.55
424.679	3004.88
424.887	3105.23
425.094	3314.13
425.302	3283.41
425.51	3418.57
425.718	3459.53
425.925	3559.88
426.133	3693
426.341	3842.5
426.548	4143.55
426.756	4137.41
426.964	4182.46
427.171	4231.62
427.379	4567.48
427.586	4544.95
427.794	4764.09
428.001	4993.46
428.209	5056.95
428.417	5009.84
428.624	5499.31
428.832	5458.35
429.039	5298.61
429.247	5501.36
429.454	5974.44
429.662	6320.54
429.869	5738.92
430.076	6295.97
430.284	6203.81
430.491	6412.7
430.699	6805.91
430.906	6826.39
431.114	6951.32
431.321	7113.11
431.528	7250.32
431.736	7737.74
431.943	8092.04
432.15	7694.73
432.358	8055.17
432.565	8352.13
432.772	8348.03
432.979	8925.56
433.187	9070.97
433.394	9017.72
433.601	9791.85
433.808	9783.66
434.016	9507.18
434.223	9900.39
434.43	10617.18
434.637	10324.32
434.844	11092.31
435.052	11254.1
435.259	11166.04
435.466	11295.06
435.673	11131.22
435.88	11981.13
436.087	12654.91
436.294	12515.65
436.501	12228.93
436.708	12562.75
436.915	12923.19
437.122	13558.07
437.329	13488.43
437.537	14039.34
437.743	13855.02
437.95	14227.75
438.157	14860.57
438.364	15315.22
438.571	15249.69
438.778	15313.17
438.985	16675.07
439.192	16144.65
439.399	16701.7
439.606	16388.36
439.813	17150.2
440.02	18247.91
440.227	17893.61
440.433	17627.38
440.64	18419.94
440.847	18165.99
441.054	18673.89
441.261	19861.71
441.467	19429.59
441.674	20005.07
441.881	20893.89
442.088	20881.6
442.294	20809.92
442.501	21108.93
442.708	21770.42
442.914	22270.12
443.121	23247.01
443.328	22933.67
443.534	24643.72
443.741	23470.23
443.948	23593.11
444.154	25421.95
444.361	24887.43
444.568	25299.07
444.774	25383.04
444.981	25438.33
445.187	26103.92
445.394	27179.11
445.6	27197.54
445.807	29780.03
446.013	28340.3
446.22	28762.19
446.426	29939.77
446.633	30109.75
446.839	31141.92
447.046	29759.55
447.252	31115.3
447.459	31617.05
447.665	31641.63
447.871	33073.16
448.078	33927.16
448.284	32714.76
448.491	33554.43
448.697	34936.81
448.903	35422.18
449.11	35301.35
449.316	34936.81
449.522	35254.25
449.728	36493.27
449.935	36538.32
450.141	36442.07
450.347	37517.25
450.553	36079.58
450.76	36726.74
450.966	37605.31
451.172	37070.79
451.378	38025.15
451.584	37582.79
451.791	38084.54
451.997	38131.64
452.203	38723.51
452.409	38756.27
452.615	38379.45
452.821	37154.76
453.027	36474.84
453.233	38811.57
453.44	37218.25
453.646	37375.94
453.852	37461.96
454.058	38414.26
454.264	36956.11
454.47	37949.37
454.676	36532.18
454.882	37707.71
455.088	34838.51
455.294	35194.85
455.5	35586.02
455.705	36323.29
455.911	34650.1
456.117	34244.6
456.323	33445.89
456.529	31553.57
456.735	33394.69
456.941	32288.79
457.147	31191.08
457.352	31041.57
457.558	30582.83
457.764	30535.73
457.97	30068.79
458.176	29061.19
458.381	29171.78
458.587	27684.95
458.793	27371.61
458.999	26515.56
459.204	28274.77
459.41	27431.01
459.616	25456.76
459.821	25913.46
460.027	25632.89
460.233	24805.51
460.438	23724.18
460.644	24029.33
460.85	23130.27
461.055	22583.46
461.261	22755.49
461.466	20897.99
461.672	20332.75
461.878	21616.82
462.083	20355.27
462.289	20130
462.494	19722.45
462.7	18731.23
462.905	18118.89
463.111	19161.31
463.316	19249.37
463.522	18796.77
463.727	19024.09
463.932	18487.53
464.138	18776.29
464.343	18692.32
464.549	18129.13
464.754	18753.76
464.959	18551.01
465.165	18358.5
465.37	17846.51
465.575	17123.58
465.781	17795.31
465.986	17971.44
466.191	17447.16
466.397	17021.18
466.602	16150.79
466.807	16967.93
467.012	16947.45
467.218	16773.38
467.423	16435.46
467.628	16466.18
467.833	17535.22
468.038	16746.75
468.244	16433.41
