Data from USB4F104151__249__11-11-42-488.txt Node

Date: Wed Mar 12 11:11:42 EDT 2025
User: louis
Spectrometer: USB4F10415
Trigger mode: 4
Integration Time (sec): 2.000000E-2
Scans to average: 1
Electric dark correction enabled: true
Nonlinearity correction enabled: false
Boxcar width: 0
XAxis mode: Wavelengths
Number of Pixels in Spectrum: 3648
>>>>>Begin Spectral Data<<<<<
178.204	-71.17
178.424	-71.17
178.644	-71.17
178.864	-114.17
179.084	-85.5
179.304	18.94
179.524	31.23
179.744	-50.69
179.964	-24.06
180.184	-22.02
180.404	35.33
180.624	37.38
180.844	8.7
181.064	47.62
181.283	-50.69
181.503	-15.87
181.723	-15.87
181.943	-9.73
182.163	20.99
182.383	47.62
182.602	43.52
182.822	68.09
183.042	53.76
183.262	35.33
183.482	12.8
183.701	10.75
183.921	76.29
184.141	18.94
184.361	47.62
184.58	25.09
184.8	51.71
185.02	66.05
185.239	6.66
185.459	45.57
185.679	-7.68
185.898	41.47
186.118	113.15
186.338	-3.58
186.557	-48.64
186.777	-7.68
186.997	117.25
187.216	41.47
187.436	-1.54
187.655	-28.16
187.875	2.56
188.095	8.7
188.314	55.81
188.534	70.14
188.753	-17.92
188.973	41.47
189.192	113.15
189.412	31.23
189.631	0.51
189.851	-13.82
190.07	27.14
190.29	45.57
190.509	12.8
190.729	23.04
190.948	76.29
191.168	90.62
191.387	72.19
191.607	-15.87
191.826	18.94
192.045	72.19
192.265	80.38
192.484	86.53
192.704	-36.35
192.923	0.51
193.142	29.18
193.362	41.47
193.581	57.86
193.8	-5.63
194.02	20.99
194.239	64
194.458	86.53
194.678	74.24
194.897	43.52
195.116	53.76
195.335	49.66
195.555	16.9
195.774	51.71
195.993	0.51
196.212	-26.11
196.432	-15.87
196.651	25.09
196.87	-9.73
197.089	33.28
197.308	51.71
197.528	41.47
197.747	51.71
197.966	74.24
198.185	45.57
198.404	119.29
198.623	88.57
198.842	64
199.062	20.99
199.281	102.91
199.5	51.71
199.719	76.29
199.938	-17.92
200.157	70.14
200.376	18.94
200.595	70.14
200.814	66.05
201.033	39.42
201.252	16.9
201.471	8.7
201.69	49.66
201.909	20.99
202.128	76.29
202.347	27.14
202.566	102.91
202.785	-19.97
203.004	-26.11
203.223	86.53
203.442	-17.92
203.661	-15.87
203.879	107.01
204.098	78.33
204.317	16.9
204.536	31.23
204.755	94.72
204.974	27.14
205.193	88.57
205.411	80.38
205.63	45.57
205.849	33.28
206.068	51.71
206.287	84.48
206.505	18.94
206.724	-36.35
206.943	-15.87
207.162	4.61
207.381	-26.11
207.599	-32.26
207.818	29.18
208.037	57.86
208.255	-9.73
208.474	25.09
208.693	64
208.911	-5.63
209.13	33.28
209.349	55.81
209.567	53.76
209.786	39.42
210.005	55.81
210.223	57.86
210.442	-1.54
210.661	35.33
210.879	12.8
211.098	-42.5
211.316	29.18
211.535	94.72
211.753	0.51
211.972	0.51
212.191	41.47
212.409	-3.58
212.628	49.66
212.846	-19.97
213.065	90.62
213.283	59.9
213.502	20.99
213.72	23.04
213.938	6.66
214.157	57.86
214.375	6.66
214.594	16.9
214.812	94.72
215.031	-7.68
215.249	-5.63
215.467	33.28
215.686	31.23
215.904	94.72
216.122	-1.54
216.341	59.9
216.559	41.47
216.778	10.75
216.996	-40.45
217.214	-11.78
217.432	41.47
217.651	41.47
217.869	74.24
218.087	86.53
218.306	82.43
218.524	96.77
218.742	-93.69
218.96	49.66
219.179	4.61
219.397	37.38
219.615	88.57
219.833	76.29
220.051	-1.54
220.27	78.33
220.488	-1.54
220.706	98.81
220.924	0.51
221.142	18.94
221.36	57.86
221.578	-13.82
221.796	8.7
222.015	72.19
222.233	43.52
222.451	94.72
222.669	31.23
222.887	86.53
223.105	72.19
223.323	37.38
223.541	-11.78
223.759	107.01
223.977	109.05
224.195	-50.69
224.413	86.53
224.631	39.42
224.849	102.91
225.067	84.48
225.285	92.67
225.503	16.9
225.721	55.81
225.939	35.33
226.157	4.61
226.375	86.53
226.592	64
226.81	102.91
227.028	113.15
227.246	76.29
227.464	-5.63
227.682	33.28
227.9	27.14
228.117	70.14
228.335	29.18
228.553	82.43
228.771	-9.73
228.989	45.57
229.206	41.47
229.424	86.53
229.642	14.85
229.86	12.8
230.077	43.52
230.295	37.38
230.513	2.56
230.731	47.62
230.948	72.19
231.166	104.96
231.384	-7.68
231.601	20.99
231.819	51.71
232.037	-19.97
232.254	23.04
232.472	86.53
232.689	31.23
232.907	37.38
233.125	0.51
233.342	-3.58
233.56	37.38
233.777	10.75
233.995	49.66
234.213	47.62
234.43	43.52
234.648	41.47
234.865	14.85
235.083	20.99
235.3	-15.87
235.518	18.94
235.735	72.19
235.953	25.09
236.17	-30.21
236.388	78.33
236.605	100.86
236.822	82.43
237.04	92.67
237.257	90.62
237.475	18.94
237.692	37.38
237.909	25.09
238.127	25.09
238.344	90.62
238.562	51.71
238.779	0.51
238.996	-5.63
239.214	2.56
239.431	6.66
239.648	47.62
239.865	100.86
240.083	33.28
240.3	37.38
240.517	33.28
240.735	-46.59
240.952	18.94
241.169	72.19
241.386	82.43
241.603	-28.16
241.821	20.99
242.038	84.48
242.255	41.47
242.472	29.18
242.689	72.19
242.907	90.62
243.124	45.57
243.341	23.04
243.558	107.01
243.775	64
243.992	64
244.209	59.9
244.426	57.86
244.643	12.8
244.86	20.99
245.078	10.75
245.295	82.43
245.512	68.09
245.729	41.47
245.946	53.76
246.163	37.38
246.38	102.91
246.597	25.09
246.814	55.81
247.031	16.9
247.248	27.14
247.464	47.62
247.681	74.24
247.898	20.99
248.115	64
248.332	14.85
248.549	55.81
248.766	74.24
248.983	20.99
249.2	39.42
249.417	82.43
249.633	-71.17
249.85	45.57
250.067	16.9
250.284	-5.63
250.501	119.29
250.717	6.66
250.934	-28.16
251.151	2.56
251.368	-22.02
251.585	66.05
251.801	64
252.018	29.18
252.235	12.8
252.451	-17.92
252.668	6.66
252.885	61.95
253.102	-65.02
253.318	49.66
253.535	33.28
253.752	20.99
253.968	0.51
254.185	2.56
254.401	51.71
254.618	74.24
254.835	-17.92
255.051	27.14
255.268	66.05
255.484	-5.63
255.701	2.56
255.917	113.15
256.134	0.51
256.351	23.04
256.567	14.85
256.784	4.61
257	-56.83
257.217	94.72
257.433	33.28
257.65	53.76
257.866	51.71
258.082	41.47
258.299	8.7
258.515	104.96
258.732	29.18
258.948	72.19
259.165	90.62
259.381	16.9
259.597	74.24
259.814	-26.11
260.03	25.09
260.246	57.86
260.463	129.53
260.679	100.86
260.895	10.75
261.112	37.38
261.328	57.86
261.544	-7.68
261.761	39.42
261.977	61.95
262.193	47.62
262.409	-9.73
262.626	41.47
262.842	66.05
263.058	25.09
263.274	47.62
263.49	72.19
263.707	102.91
263.923	8.7
264.139	-30.21
264.355	23.04
264.571	70.14
264.787	27.14
265.004	20.99
265.22	-32.26
265.436	53.76
265.652	16.9
265.868	49.66
266.084	35.33
266.3	35.33
266.516	2.56
266.732	43.52
266.948	-26.11
267.164	102.91
267.38	66.05
267.596	14.85
267.812	29.18
268.028	-48.64
268.244	61.95
268.46	78.33
268.676	8.7
268.892	-48.64
269.108	68.09
269.324	4.61
269.54	-9.73
269.756	41.47
269.972	6.66
270.188	41.47
270.403	-17.92
270.619	6.66
270.835	82.43
271.051	-7.68
271.267	57.86
271.483	23.04
271.698	29.18
271.914	47.62
272.13	78.33
272.346	88.57
272.562	92.67
272.777	64
272.993	86.53
273.209	-13.82
273.425	90.62
273.64	64
273.856	74.24
274.072	109.05
274.287	57.86
274.503	57.86
274.719	115.2
274.934	-1.54
275.15	-50.69
275.366	4.61
275.581	20.99
275.797	68.09
276.012	70.14
276.228	64
276.444	31.23
276.659	57.86
276.875	-56.83
277.09	47.62
277.306	70.14
277.521	6.66
277.737	49.66
277.952	84.48
278.168	16.9
278.383	33.28
278.599	-3.58
278.814	107.01
279.03	80.38
279.245	80.38
279.461	-7.68
279.676	92.67
279.892	74.24
280.107	2.56
280.322	25.09
280.538	113.15
280.753	33.28
280.969	-3.58
281.184	37.38
281.399	61.95
281.615	98.81
281.83	47.62
282.045	6.66
282.26	53.76
282.476	31.23
282.691	39.42
282.906	6.66
283.122	41.47
283.337	43.52
283.552	51.71
283.767	-5.63
283.983	98.81
284.198	-1.54
284.413	66.05
284.628	127.49
284.843	18.94
285.058	37.38
285.274	39.42
285.489	-5.63
285.704	86.53
285.919	23.04
286.134	10.75
286.349	39.42
286.564	37.38
286.779	104.96
286.995	57.86
287.21	47.62
287.425	39.42
287.64	37.38
287.855	10.75
288.07	8.7
288.285	39.42
288.5	41.47
288.715	61.95
288.93	-22.02
289.145	-15.87
289.36	6.66
289.575	29.18
289.79	35.33
290.004	45.57
290.219	-38.4
290.434	18.94
290.649	59.9
290.864	45.57
291.079	41.47
291.294	51.71
291.509	78.33
291.724	72.19
291.938	20.99
292.153	33.28
292.368	98.81
292.583	59.9
292.798	41.47
293.012	74.24
293.227	74.24
293.442	27.14
293.657	37.38
293.871	98.81
294.086	33.28
294.301	74.24
294.516	64
294.73	76.29
294.945	35.33
295.16	12.8
295.374	45.57
295.589	51.71
295.804	51.71
296.018	27.14
296.233	25.09
296.447	31.23
296.662	47.62
296.877	59.9
297.091	18.94
297.306	66.05
297.52	31.23
297.735	55.81
297.949	68.09
298.164	14.85
298.378	-13.82
298.593	68.09
298.807	-34.3
299.022	45.57
299.236	51.71
299.451	55.81
299.665	25.09
299.88	-36.35
300.094	92.67
300.309	47.62
300.523	20.99
300.737	39.42
300.952	86.53
301.166	121.34
301.381	45.57
301.595	33.28
301.809	68.09
302.024	41.47
302.238	66.05
302.452	154.11
302.667	27.14
302.881	6.66
303.095	115.2
303.309	64
303.524	35.33
303.738	31.23
303.952	76.29
304.166	90.62
304.381	-34.3
304.595	84.48
304.809	47.62
305.023	-30.21
305.237	20.99
305.452	80.38
305.666	66.05
305.88	92.67
306.094	92.67
306.308	74.24
306.522	61.95
306.736	96.77
306.95	84.48
307.164	20.99
307.379	82.43
307.593	88.57
307.807	74.24
308.021	68.09
308.235	39.42
308.449	20.99
308.663	45.57
308.877	131.58
309.091	27.14
309.305	117.25
309.519	35.33
309.733	37.38
309.947	45.57
310.161	12.8
310.374	90.62
310.588	33.28
310.802	14.85
311.016	-40.45
311.23	107.01
311.444	33.28
311.658	47.62
311.872	64
312.085	119.29
312.299	31.23
312.513	55.81
312.727	37.38
312.941	41.47
313.154	0.51
313.368	-40.45
313.582	66.05
313.796	55.81
314.009	53.76
314.223	25.09
314.437	39.42
314.651	88.57
314.864	53.76
315.078	53.76
315.292	39.42
315.505	94.72
315.719	61.95
315.933	-32.26
316.146	117.25
316.36	111.1
316.573	82.43
316.787	47.62
317.001	53.76
317.214	4.61
317.428	45.57
317.641	20.99
317.855	35.33
318.068	4.61
318.282	64
318.495	98.81
318.709	43.52
318.922	51.71
319.136	127.49
319.349	37.38
319.563	49.66
319.776	61.95
319.99	29.18
320.203	-42.5
320.417	12.8
320.63	-5.63
320.843	43.52
321.057	2.56
321.27	31.23
321.483	8.7
321.697	143.87
321.91	35.33
322.124	-1.54
322.337	6.66
322.55	70.14
322.763	43.52
322.977	45.57
323.19	25.09
323.403	-3.58
323.617	80.38
323.83	14.85
324.043	66.05
324.256	107.01
324.469	31.23
324.683	107.01
324.896	51.71
325.109	6.66
325.322	37.38
325.535	121.34
325.748	121.34
325.962	45.57
326.175	45.57
326.388	43.52
326.601	57.86
326.814	53.76
327.027	66.05
327.24	86.53
327.453	47.62
327.666	49.66
327.879	88.57
328.092	86.53
328.305	64
328.518	57.86
328.731	45.57
328.944	102.91
329.157	16.9
329.37	25.09
329.583	119.29
329.796	41.47
330.009	20.99
330.222	66.05
330.435	76.29
330.648	59.9
330.861	35.33
331.073	14.85
331.286	47.62
331.499	20.99
331.712	10.75
331.925	45.57
332.138	80.38
332.35	82.43
332.563	4.61
332.776	25.09
332.989	45.57
333.202	-1.54
333.414	64
333.627	49.66
333.84	35.33
334.053	109.05
334.265	66.05
334.478	8.7
334.691	53.76
334.903	94.72
335.116	90.62
335.329	80.38
335.541	70.14
335.754	68.09
335.966	27.14
336.179	12.8
336.392	0.51
336.604	59.9
336.817	45.57
337.029	20.99
337.242	25.09
337.454	16.9
337.667	-22.02
337.88	47.62
338.092	14.85
338.305	160.25
338.517	82.43
338.729	80.38
338.942	80.38
339.154	18.94
339.367	-3.58
339.579	64
339.792	37.38
340.004	51.71
340.217	14.85
340.429	14.85
340.641	53.76
340.854	-1.54
341.066	23.04
341.278	102.91
341.491	107.01
341.703	64
341.915	92.67
342.128	53.76
342.34	49.66
342.552	78.33
342.764	68.09
342.977	33.28
343.189	23.04
343.401	29.18
343.613	14.85
343.826	78.33
344.038	35.33
344.25	16.9
344.462	29.18
344.674	53.76
344.886	76.29
345.099	-26.11
345.311	25.09
345.523	86.53
345.735	16.9
345.947	6.66
346.159	14.85
346.371	14.85
346.583	10.75
346.795	170.49
347.007	-3.58
347.219	66.05
347.431	10.75
347.643	31.23
347.855	12.8
348.067	76.29
348.279	43.52
348.491	70.14
348.703	12.8
348.915	119.29
349.127	90.62
349.339	90.62
349.551	47.62
349.763	4.61
349.975	29.18
350.187	39.42
350.399	51.71
350.61	53.76
350.822	57.86
351.034	70.14
351.246	143.87
351.458	107.01
351.669	4.61
351.881	20.99
352.093	47.62
352.305	61.95
352.517	70.14
352.728	66.05
352.94	49.66
353.152	12.8
353.363	72.19
353.575	164.35
353.787	98.81
353.999	-38.4
354.21	43.52
354.422	16.9
354.633	47.62
354.845	64
355.057	57.86
355.268	66.05
355.48	72.19
355.692	76.29
355.903	82.43
356.115	100.86
356.326	43.52
356.538	102.91
356.749	139.77
356.961	94.72
357.172	29.18
357.384	72.19
357.595	45.57
357.807	74.24
358.018	57.86
358.23	16.9
358.441	123.39
358.653	115.2
358.864	43.52
359.075	113.15
359.287	78.33
359.498	119.29
359.709	64
359.921	41.47
360.132	18.94
360.344	82.43
360.555	-11.78
360.766	107.01
360.977	-1.54
361.189	115.2
361.4	59.9
361.611	59.9
361.823	86.53
362.034	104.96
362.245	25.09
362.456	55.81
362.667	-5.63
362.879	23.04
363.09	16.9
363.301	123.39
363.512	61.95
363.723	-22.02
363.935	37.38
364.146	102.91
364.357	4.61
364.568	33.28
364.779	78.33
364.99	43.52
365.201	51.71
365.412	104.96
365.623	109.05
365.834	47.62
366.045	66.05
366.256	72.19
366.467	37.38
366.678	180.73
366.889	64
367.1	96.77
367.311	143.87
367.522	12.8
367.733	68.09
367.944	90.62
368.155	29.18
368.366	12.8
368.577	90.62
368.788	39.42
368.999	-24.06
369.209	74.24
369.42	100.86
369.631	98.81
369.842	57.86
370.053	72.19
370.264	141.82
370.474	-19.97
370.685	166.4
370.896	10.75
371.107	119.29
371.317	49.66
371.528	25.09
371.739	86.53
371.95	115.2
372.16	64
372.371	-22.02
372.582	121.34
372.792	14.85
373.003	100.86
373.214	123.39
373.424	82.43
373.635	25.09
373.846	66.05
374.056	98.81
374.267	70.14
374.477	59.9
374.688	76.29
374.898	31.23
375.109	49.66
375.319	74.24
375.53	123.39
375.74	125.44
375.951	41.47
376.161	70.14
376.372	88.57
376.582	64
376.793	70.14
377.003	70.14
377.214	53.76
377.424	145.92
377.635	66.05
377.845	25.09
378.055	66.05
378.266	68.09
378.476	170.49
378.686	59.9
378.897	59.9
379.107	76.29
379.317	47.62
379.528	49.66
379.738	84.48
379.948	37.38
380.158	12.8
380.369	64
380.579	35.33
380.789	0.51
380.999	68.09
381.21	55.81
381.42	104.96
381.63	74.24
381.84	127.49
382.05	86.53
382.261	27.14
382.471	74.24
382.681	25.09
382.891	27.14
383.101	104.96
383.311	68.09
383.521	4.61
383.731	-1.54
383.941	66.05
384.151	66.05
384.361	129.53
384.571	68.09
384.781	96.77
384.991	84.48
385.201	90.62
385.411	102.91
385.621	94.72
385.831	43.52
386.041	145.92
386.251	55.81
386.461	45.57
386.671	-1.54
386.881	61.95
387.091	57.86
387.301	37.38
387.511	25.09
387.72	94.72
387.93	57.86
388.14	109.05
388.35	104.96
388.56	31.23
388.769	86.53
388.979	98.81
389.189	70.14
389.399	18.94
389.609	74.24
389.818	102.91
390.028	41.47
390.238	129.53
390.447	-22.02
390.657	90.62
390.867	59.9
391.076	98.81
391.286	74.24
391.496	86.53
391.705	86.53
391.915	61.95
392.125	145.92
392.334	70.14
392.544	123.39
392.753	64
392.963	94.72
393.172	100.86
393.382	92.67
393.591	94.72
393.801	113.15
394.01	147.97
394.22	98.81
394.429	68.09
394.639	125.44
394.848	47.62
395.058	109.05
395.267	64
395.477	115.2
395.686	86.53
395.895	160.25
396.105	135.68
396.314	111.1
396.524	49.66
396.733	109.05
396.942	147.97
397.152	84.48
397.361	154.11
397.57	113.15
397.78	180.73
397.989	121.34
398.198	133.63
398.407	98.81
398.617	98.81
398.826	90.62
399.035	74.24
399.244	109.05
399.453	92.67
399.663	180.73
399.872	127.49
400.081	115.2
400.29	182.78
400.499	127.49
400.708	143.87
400.917	35.33
401.127	172.54
401.336	113.15
401.545	178.69
401.754	107.01
401.963	193.02
402.172	145.92
402.381	201.21
402.59	188.93
402.799	137.73
403.008	199.16
403.217	178.69
403.426	150.01
403.635	102.91
403.844	133.63
404.053	152.06
404.262	215.55
404.471	125.44
404.68	182.78
404.888	102.91
405.097	238.08
405.306	246.27
405.515	233.98
405.724	242.17
405.933	182.78
406.142	215.55
406.35	147.97
406.559	213.5
406.768	205.31
406.977	236.03
407.185	270.84
407.394	258.56
407.603	248.32
407.812	311.8
408.02	283.13
408.229	260.6
408.438	215.55
408.646	233.98
408.855	260.6
409.064	246.27
409.272	256.51
409.481	430.59
409.69	369.15
409.898	354.81
410.107	444.92
410.315	455.16
410.524	358.91
410.733	496.12
410.941	430.59
411.15	393.72
411.358	387.58
411.567	471.54
411.775	416.25
411.984	543.22
412.192	565.75
412.401	416.25
412.609	553.46
412.818	518.65
413.026	504.31
413.234	555.51
413.443	602.61
413.651	563.7
413.86	655.86
414.068	633.33
414.276	682.49
414.485	625.14
414.693	786.93
414.901	819.7
415.11	813.56
415.318	762.36
415.526	817.65
415.734	897.52
415.943	932.34
416.151	930.29
416.359	942.58
416.567	1047.02
416.776	1016.3
416.984	1153.52
417.192	1102.32
417.4	1208.81
417.608	1139.18
417.817	1102.32
418.025	1282.54
418.233	1362.41
418.441	1350.12
418.649	1432.04
418.857	1520.1
419.065	1473
419.273	1546.73
419.481	1593.83
419.689	1589.74
419.897	1681.89
420.105	1884.64
420.313	1866.21
420.521	1815.01
420.729	1917.41
420.937	1939.94
421.145	1888.74
421.353	2093.54
421.561	2361.82
421.769	2191.84
421.977	2263.52
422.185	2333.15
422.393	2701.78
422.601	2595.29
422.809	2707.93
423.017	2574.81
423.224	2767.32
423.432	2906.58
423.64	2750.93
423.848	3105.23
424.056	3115.47
424.263	3303.89
424.471	3363.28
424.679	3281.36
424.887	3488.2
425.094	3619.27
425.302	3766.73
425.51	3877.32
425.718	3842.5
425.925	3987.91
426.133	4200.9
426.341	4327.87
426.548	4712.89
426.756	4489.66
426.964	4532.67
427.171	4909.49
427.379	4999.6
427.586	5013.94
427.794	5210.54
428.001	5403.05
428.209	5743.02
428.417	5540.27
428.624	5931.43
428.832	6064.55
429.039	5984.68
429.247	6070.69
429.454	6592.92
429.662	7006.61
429.869	6674.84
430.076	7018.9
430.284	6824.34
430.491	7063.96
430.699	7590.28
430.906	7383.44
431.114	7518.61
431.321	7776.65
431.528	8020.36
431.736	8262.02
431.943	9025.91
432.15	8755.58
432.358	8847.74
432.565	9240.95
432.772	9179.51
432.979	9775.47
433.187	9920.87
433.394	9902.44
433.601	10445.15
433.808	10703.2
434.016	10522.98
434.223	10778.97
434.43	11667.79
434.637	11348.31
434.844	12040.52
435.052	12413.25
435.259	12325.19
435.466	12202.31
435.673	12110.15
435.88	13123.9
436.087	13744.43
436.294	13877.55
436.501	13553.97
436.708	13793.58
436.915	14119.21
437.122	14715.17
437.329	14731.55
437.537	15114.52
437.743	15487.25
437.95	15094.04
438.157	16115.98
438.364	16937.21
438.571	16503.04
438.778	16716.03
438.985	18274.54
439.192	17301.75
439.399	18100.46
439.606	17678.58
439.813	18737.38
440.02	19800.27
440.227	19433.69
440.433	19237.08
440.64	20232.4
440.847	19716.31
441.054	20242.64
441.261	21668.02
441.467	21452.98
441.674	21817.52
441.881	22528.17
442.088	22423.72
442.294	22282.41
442.501	22769.83
442.708	23531.67
442.914	24469.64
443.121	25522.3
443.328	24782.98
443.534	26808.42
443.741	25583.74
443.948	25364.6
444.154	27142.24
444.361	26880.1
444.568	27099.23
444.774	27246.69
444.981	27283.55
445.187	28069.97
445.394	29382.72
445.6	28983.37
445.807	31827.99
446.013	30584.88
446.22	30859.31
446.426	32069.65
446.633	32055.32
446.839	33472.51
447.046	31993.88
447.252	33660.93
447.459	34027.51
447.665	33615.87
447.871	34940.91
448.078	36456.4
448.284	34772.97
448.491	35803.1
448.697	37482.44
448.903	38000.57
449.11	37652.42
449.316	36726.74
449.522	38029.24
449.728	38649.78
449.935	38954.93
450.141	38717.36
450.347	39718.82
450.553	38623.15
450.76	39389.09
450.966	40454.04
451.172	40114.08
451.378	40675.22
451.584	40470.42
451.791	41166.73
451.997	40634.26
452.203	41510.79
452.409	41375.62
452.615	41037.71
452.821	39423.91
453.027	39233.45
453.233	41322.38
453.44	39749.54
453.646	39839.65
453.852	40247.19
454.058	40822.67
454.264	39290.79
454.47	40363.93
454.676	39268.26
454.882	40802.19
455.088	37103.56
455.294	37726.14
455.5	38100.92
455.705	38418.36
455.911	37103.56
456.117	36413.4
456.323	35731.42
456.529	34004.99
456.735	35293.16
456.941	34377.72
457.147	33961.98
457.352	32851.98
457.558	32421.91
457.764	32559.12
457.97	31971.35
458.176	31012.9
458.381	31221.8
458.587	29382.72
458.793	29718.59
458.999	28174.42
459.204	29911.1
459.41	29204.55
459.616	27297.89
459.821	27666.52
460.027	27275.36
460.233	26613.87
460.438	25548.92
460.644	25690.23
460.85	24524.94
461.055	23988.37
461.261	23842.96
461.466	22333.61
461.672	21495.99
461.878	22993.06
462.083	21770.42
462.289	21309.63
462.494	21037.25
462.7	20027.6
462.905	19531.99
463.111	20275.4
463.316	20332.75
463.522	19996.88
463.727	20211.92
463.932	19841.23
464.138	19679.44
464.343	19802.32
464.549	19235.03
464.754	19982.54
464.959	19720.4
465.165	19742.93
465.37	18950.37
465.575	18551.01
465.781	18923.74
465.986	19321.05
466.191	18497.77
466.397	18086.12
466.602	17144.06
466.807	18133.23
467.012	18041.07
467.218	17545.46
467.423	17465.59
467.628	17582.32
467.833	18358.5
468.038	17834.22
