Data from USB4F104151__211__11-10-23-817.txt Node

Date: Wed Mar 12 11:10:23 EDT 2025
User: louis
Spectrometer: USB4F10415
Trigger mode: 4
Integration Time (sec): 2.000000E-2
Scans to average: 1
Electric dark correction enabled: true
Nonlinearity correction enabled: false
Boxcar width: 0
XAxis mode: Wavelengths
Number of Pixels in Spectrum: 3648
>>>>>Begin Spectral Data<<<<<
178.204	-104.79
178.424	-104.79
178.644	-104.79
178.864	-10.58
179.084	-41.3
179.304	-22.87
179.524	-10.58
179.744	65.19
179.964	9.9
180.184	30.38
180.404	-43.35
180.624	-29.01
180.844	5.8
181.064	-20.82
181.283	30.38
181.503	1.71
181.723	-16.73
181.943	3.75
182.163	9.9
182.383	11.95
182.602	79.53
182.822	59.05
183.042	34.47
183.262	28.33
183.482	75.43
183.701	9.9
183.921	-26.96
184.141	-4.44
184.361	50.86
184.58	44.71
184.8	79.53
185.02	42.67
185.239	24.23
185.459	9.9
185.679	30.38
185.898	-39.25
186.118	100.01
186.338	71.34
186.557	34.47
186.777	16.04
186.997	36.52
187.216	-0.34
187.436	34.47
187.655	42.67
187.875	87.72
188.095	22.19
188.314	110.25
188.534	-29.01
188.753	30.38
188.973	48.81
189.192	-6.49
189.412	48.81
189.631	54.95
189.851	-10.58
190.07	16.04
190.29	-78.16
190.509	85.67
190.729	-20.82
190.948	52.91
191.168	108.2
191.387	28.33
191.607	-12.63
191.826	65.19
192.045	87.72
192.265	9.9
192.484	-2.39
192.704	-53.59
192.923	-12.63
193.142	42.67
193.362	11.95
193.581	83.63
193.8	-24.92
194.02	65.19
194.239	26.28
194.458	67.24
194.678	-12.63
194.897	48.81
195.116	85.67
195.335	38.57
195.555	83.63
195.774	36.52
195.993	22.19
196.212	91.82
196.432	-37.2
196.651	40.62
196.87	-6.49
197.089	34.47
197.308	9.9
197.528	42.67
197.747	-16.73
197.966	5.8
198.185	75.43
198.404	42.67
198.623	-31.06
198.842	102.06
199.062	32.43
199.281	36.52
199.5	79.53
199.719	-0.34
199.938	-16.73
200.157	26.28
200.376	67.24
200.595	20.14
200.814	-8.53
201.033	18.09
201.252	7.85
201.471	24.23
201.69	153.26
201.909	-96.6
202.128	46.76
202.347	36.52
202.566	5.8
202.785	40.62
203.004	1.71
203.223	87.72
203.442	1.71
203.661	52.91
203.879	28.33
204.098	-16.73
204.317	-33.11
204.536	5.8
204.755	5.8
204.974	-6.49
205.193	20.14
205.411	143.02
205.63	46.76
205.849	42.67
206.068	16.04
206.287	75.43
206.505	-33.11
206.724	5.8
206.943	-22.87
207.162	46.76
207.381	93.87
207.599	-37.2
207.818	67.24
208.037	9.9
208.255	-2.39
208.474	69.29
208.693	38.57
208.911	-20.82
209.13	34.47
209.349	-53.59
209.567	30.38
209.786	52.91
210.005	77.48
210.223	34.47
210.442	24.23
210.661	48.81
210.879	50.86
211.098	38.57
211.316	-6.49
211.535	67.24
211.753	-6.49
211.972	13.99
212.191	5.8
212.409	54.95
212.628	7.85
212.846	108.2
213.065	-0.34
213.283	89.77
213.502	24.23
213.72	-24.92
213.938	-22.87
214.157	85.67
214.375	57
214.594	-31.06
214.812	38.57
215.031	112.3
215.249	26.28
215.467	-41.3
215.686	16.04
215.904	42.67
216.122	57
216.341	38.57
216.559	48.81
216.778	-10.58
216.996	46.76
217.214	85.67
217.432	36.52
217.651	-45.4
217.869	73.39
218.087	67.24
218.306	48.81
218.524	106.15
218.742	-35.16
218.96	3.75
219.179	46.76
219.397	24.23
219.615	81.58
219.833	40.62
220.051	3.75
220.27	44.71
220.488	18.09
220.706	40.62
220.924	46.76
221.142	48.81
221.36	26.28
221.578	63.15
221.796	-29.01
222.015	93.87
222.233	7.85
222.451	52.91
222.669	9.9
222.887	36.52
223.105	7.85
223.323	91.82
223.541	1.71
223.759	38.57
223.977	52.91
224.195	75.43
224.413	52.91
224.631	54.95
224.849	75.43
225.067	32.43
225.285	69.29
225.503	102.06
225.721	-35.16
225.939	16.04
226.157	26.28
226.375	11.95
226.592	52.91
226.81	11.95
227.028	104.11
227.246	28.33
227.464	-31.06
227.682	26.28
227.9	83.63
228.117	22.19
228.335	50.86
228.553	-6.49
228.771	-43.35
228.989	110.25
229.206	65.19
229.424	40.62
229.642	-33.11
229.86	65.19
230.077	81.58
230.295	18.09
230.513	40.62
230.731	26.28
230.948	40.62
231.166	3.75
231.384	-16.73
231.601	22.19
231.819	26.28
232.037	-10.58
232.254	59.05
232.472	77.48
232.689	30.38
232.907	9.9
233.125	40.62
233.342	26.28
233.56	9.9
233.777	81.58
233.995	-4.44
234.213	50.86
234.43	77.48
234.648	54.95
234.865	-20.82
235.083	73.39
235.3	59.05
235.518	85.67
235.735	7.85
235.953	50.86
236.17	46.76
236.388	75.43
236.605	42.67
236.822	77.48
237.04	42.67
237.257	-0.34
237.475	50.86
237.692	34.47
237.909	93.87
238.127	65.19
238.344	22.19
238.562	7.85
238.779	32.43
238.996	9.9
239.214	83.63
239.431	40.62
239.648	32.43
239.865	63.15
240.083	65.19
240.3	57
240.517	-43.35
240.735	22.19
240.952	34.47
241.169	59.05
241.386	-63.83
241.603	-0.34
241.821	61.1
242.038	100.01
242.255	91.82
242.472	24.23
242.689	11.95
242.907	106.15
243.124	46.76
243.341	3.75
243.558	-18.77
243.775	61.1
243.992	-35.16
244.209	11.95
244.426	75.43
244.643	89.77
244.86	59.05
245.078	48.81
245.295	1.71
245.512	95.91
245.729	3.75
245.946	89.77
246.163	46.76
246.38	32.43
246.597	83.63
246.814	32.43
247.031	16.04
247.248	65.19
247.464	50.86
247.681	20.14
247.898	57
248.115	87.72
248.332	34.47
248.549	34.47
248.766	54.95
248.983	26.28
249.2	13.99
249.417	118.44
249.633	67.24
249.85	32.43
250.067	48.81
250.284	9.9
250.501	11.95
250.717	-4.44
250.934	-22.87
251.151	16.04
251.368	44.71
251.585	91.82
251.801	50.86
252.018	48.81
252.235	44.71
252.451	16.04
252.668	42.67
252.885	32.43
253.102	-10.58
253.318	-6.49
253.535	67.24
253.752	26.28
253.968	67.24
254.185	40.62
254.401	22.19
254.618	13.99
254.835	-22.87
255.051	87.72
255.268	61.1
255.484	112.3
255.701	52.91
255.917	89.77
256.134	-22.87
256.351	24.23
256.567	9.9
256.784	-6.49
257	112.3
257.217	57
257.433	132.78
257.65	-14.68
257.866	40.62
258.082	18.09
258.299	44.71
258.515	91.82
258.732	-8.53
258.948	95.91
259.165	30.38
259.381	9.9
259.597	40.62
259.814	-16.73
260.03	28.33
260.246	69.29
260.463	57
260.679	32.43
260.895	36.52
261.112	73.39
261.328	-33.11
261.544	75.43
261.761	34.47
261.977	-6.49
262.193	46.76
262.409	44.71
262.626	77.48
262.842	46.76
263.058	-20.82
263.274	67.24
263.49	102.06
263.707	42.67
263.923	-6.49
264.139	24.23
264.355	71.34
264.571	85.67
264.787	24.23
265.004	83.63
265.22	20.14
265.436	59.05
265.652	22.19
265.868	71.34
266.084	44.71
266.3	42.67
266.516	26.28
266.732	13.99
266.948	16.04
267.164	16.04
267.38	40.62
267.596	63.15
267.812	73.39
268.028	44.71
268.244	11.95
268.46	-43.35
268.676	18.09
268.892	112.3
269.108	-35.16
269.324	30.38
269.54	-14.68
269.756	26.28
269.972	1.71
270.188	-0.34
270.403	7.85
270.619	79.53
270.835	-22.87
271.051	100.01
271.267	16.04
271.483	91.82
271.698	46.76
271.914	136.87
272.13	46.76
272.346	42.67
272.562	54.95
272.777	-16.73
272.993	13.99
273.209	79.53
273.425	11.95
273.64	-35.16
273.856	116.39
274.072	59.05
274.287	16.04
274.503	16.04
274.719	22.19
274.934	-6.49
275.15	-10.58
275.366	26.28
275.581	7.85
275.797	40.62
276.012	36.52
276.228	-33.11
276.444	26.28
276.659	175.78
276.875	-2.39
277.09	81.58
277.306	63.15
277.521	57
277.737	9.9
277.952	36.52
278.168	-55.64
278.383	18.09
278.599	40.62
278.814	120.49
279.03	50.86
279.245	54.95
279.461	-0.34
279.676	75.43
279.892	-8.53
280.107	3.75
280.322	32.43
280.538	50.86
280.753	-55.64
280.969	22.19
281.184	54.95
281.399	54.95
281.615	32.43
281.83	22.19
282.045	20.14
282.26	-8.53
282.476	24.23
282.691	1.71
282.906	22.19
283.122	91.82
283.337	-47.44
283.552	93.87
283.767	34.47
283.983	22.19
284.198	36.52
284.413	85.67
284.628	63.15
284.843	61.1
285.058	42.67
285.274	-24.92
285.489	9.9
285.704	79.53
285.919	11.95
286.134	57
286.349	-45.4
286.564	16.04
286.779	34.47
286.995	-0.34
287.21	-8.53
287.425	42.67
287.64	30.38
287.855	75.43
288.07	28.33
288.285	13.99
288.5	89.77
288.715	65.19
288.93	30.38
289.145	11.95
289.36	67.24
289.575	63.15
289.79	48.81
290.004	73.39
290.219	36.52
290.434	36.52
290.649	24.23
290.864	-10.58
291.079	16.04
291.294	91.82
291.509	63.15
291.724	67.24
291.938	-59.73
292.153	50.86
292.368	-2.39
292.583	44.71
292.798	42.67
293.012	5.8
293.227	-0.34
293.442	30.38
293.657	-31.06
293.871	75.43
294.086	26.28
294.301	16.04
294.516	75.43
294.73	110.25
294.945	24.23
295.16	20.14
295.374	16.04
295.589	54.95
295.804	-2.39
296.018	16.04
296.233	59.05
296.447	75.43
296.662	30.38
296.877	112.3
297.091	59.05
297.306	38.57
297.52	22.19
297.735	13.99
297.949	-24.92
298.164	-0.34
298.378	7.85
298.593	61.1
298.807	18.09
299.022	36.52
299.236	13.99
299.451	18.09
299.665	59.05
299.88	61.1
300.094	69.29
300.309	16.04
300.523	30.38
300.737	42.67
300.952	-6.49
301.166	-0.34
301.381	-8.53
301.595	102.06
301.809	110.25
302.024	44.71
302.238	63.15
302.452	114.34
302.667	44.71
302.881	102.06
303.095	95.91
303.309	57
303.524	38.57
303.738	40.62
303.952	75.43
304.166	46.76
304.381	57
304.595	97.96
304.809	18.09
305.023	24.23
305.237	-49.49
305.452	36.52
305.666	13.99
305.88	48.81
306.094	3.75
306.308	13.99
306.522	77.48
306.736	67.24
306.95	61.1
307.164	13.99
307.379	36.52
307.593	52.91
307.807	42.67
308.021	59.05
308.235	89.77
308.449	65.19
308.663	30.38
308.877	57
309.091	1.71
309.305	11.95
309.519	48.81
309.733	3.75
309.947	30.38
310.161	18.09
310.374	63.15
310.588	124.58
310.802	65.19
311.016	42.67
311.23	54.95
311.444	44.71
311.658	59.05
311.872	18.09
312.085	9.9
312.299	93.87
312.513	11.95
312.727	48.81
312.941	40.62
313.154	75.43
313.368	128.68
313.582	79.53
313.796	9.9
314.009	-10.58
314.223	69.29
314.437	100.01
314.651	30.38
314.864	46.76
315.078	61.1
315.292	93.87
315.505	34.47
315.719	73.39
315.933	28.33
316.146	28.33
316.36	22.19
316.573	59.05
316.787	48.81
317.001	18.09
317.214	-12.63
317.428	18.09
317.641	54.95
317.855	30.38
318.068	-6.49
318.282	38.57
318.495	136.87
318.709	50.86
318.922	52.91
319.136	32.43
319.349	-0.34
319.563	61.1
319.776	32.43
319.99	9.9
320.203	50.86
320.417	40.62
320.63	-2.39
320.843	5.8
321.057	59.05
321.27	63.15
321.483	34.47
321.697	67.24
321.91	46.76
322.124	87.72
322.337	11.95
322.55	-16.73
322.763	36.52
322.977	61.1
323.19	-22.87
323.403	75.43
323.617	95.91
323.83	16.04
324.043	71.34
324.256	42.67
324.469	24.23
324.683	69.29
324.896	-2.39
325.109	65.19
325.322	5.8
325.535	97.96
325.748	-45.4
325.962	132.78
326.175	48.81
326.388	30.38
326.601	-33.11
326.814	65.19
327.027	26.28
327.24	75.43
327.453	24.23
327.666	38.57
327.879	-4.44
328.092	75.43
328.305	22.19
328.518	11.95
328.731	71.34
328.944	79.53
329.157	32.43
329.37	-24.92
329.583	40.62
329.796	118.44
330.009	26.28
330.222	63.15
330.435	48.81
330.648	1.71
330.861	-10.58
331.073	24.23
331.286	18.09
331.499	16.04
331.712	36.52
331.925	22.19
332.138	57
332.35	104.11
332.563	32.43
332.776	71.34
332.989	9.9
333.202	44.71
333.414	67.24
333.627	-4.44
333.84	79.53
334.053	71.34
334.265	-45.4
334.478	89.77
334.691	102.06
334.903	79.53
335.116	48.81
335.329	-47.44
335.541	104.11
335.754	54.95
335.966	-55.64
336.179	28.33
336.392	-10.58
336.604	-18.77
336.817	11.95
337.029	77.48
337.242	46.76
337.454	110.25
337.667	40.62
337.88	42.67
338.092	48.81
338.305	42.67
338.517	50.86
338.729	34.47
338.942	63.15
339.154	52.91
339.367	48.81
339.579	102.06
339.792	38.57
340.004	91.82
340.217	63.15
340.429	151.21
340.641	9.9
340.854	77.48
341.066	26.28
341.278	52.91
341.491	75.43
341.703	116.39
341.915	102.06
342.128	50.86
342.34	-18.77
342.552	50.86
342.764	50.86
342.977	30.38
343.189	36.52
343.401	65.19
343.613	87.72
343.826	87.72
344.038	9.9
344.25	-33.11
344.462	-22.87
344.674	95.91
344.886	36.52
345.099	59.05
345.311	128.68
345.523	46.76
345.735	-22.87
345.947	63.15
346.159	42.67
346.371	159.4
346.583	20.14
346.795	114.34
347.007	87.72
347.219	50.86
347.431	73.39
347.643	71.34
347.855	18.09
348.067	85.67
348.279	40.62
348.491	77.48
348.703	61.1
348.915	108.2
349.127	-6.49
349.339	138.92
349.551	-20.82
349.763	46.76
349.975	65.19
350.187	75.43
350.399	83.63
350.61	110.25
350.822	104.11
351.034	143.02
351.246	13.99
351.458	-8.53
351.669	50.86
351.881	40.62
352.093	59.05
352.305	67.24
352.517	63.15
352.728	132.78
352.94	130.73
353.152	52.91
353.363	102.06
353.575	59.05
353.787	-26.96
353.999	71.34
354.21	85.67
354.422	59.05
354.633	59.05
354.845	24.23
355.057	69.29
355.268	18.09
355.48	-6.49
355.692	46.76
355.903	40.62
356.115	38.57
356.326	-2.39
356.538	91.82
356.749	83.63
356.961	128.68
357.172	63.15
357.384	69.29
357.595	48.81
357.807	28.33
358.018	7.85
358.23	77.48
358.441	87.72
358.653	97.96
358.864	32.43
359.075	57
359.287	40.62
359.498	130.73
359.709	1.71
359.921	30.38
360.132	36.52
360.344	77.48
360.555	24.23
360.766	13.99
360.977	59.05
361.189	67.24
361.4	-12.63
361.611	59.05
361.823	36.52
362.034	54.95
362.245	24.23
362.456	79.53
362.667	-18.77
362.879	-8.53
363.09	13.99
363.301	11.95
363.512	48.81
363.723	-2.39
363.935	34.47
364.146	77.48
364.357	57
364.568	69.29
364.779	54.95
364.99	65.19
365.201	93.87
365.412	104.11
365.623	22.19
365.834	57
366.045	11.95
366.256	57
366.467	16.04
366.678	61.1
366.889	63.15
367.1	11.95
367.311	42.67
367.522	-78.16
367.733	136.87
367.944	100.01
368.155	54.95
368.366	114.34
368.577	50.86
368.788	69.29
368.999	-6.49
369.209	102.06
369.42	61.1
369.631	7.85
369.842	81.58
370.053	145.06
370.264	54.95
370.474	52.91
370.685	91.82
370.896	93.87
371.107	104.11
371.317	-6.49
371.528	22.19
371.739	136.87
371.95	54.95
372.16	85.67
372.371	3.75
372.582	48.81
372.792	24.23
373.003	61.1
373.214	34.47
373.424	112.3
373.635	54.95
373.846	100.01
374.056	63.15
374.267	54.95
374.477	50.86
374.688	-16.73
374.898	50.86
375.109	85.67
375.319	71.34
375.53	67.24
375.74	63.15
375.951	118.44
376.161	34.47
376.372	138.92
376.582	24.23
376.793	9.9
377.003	13.99
377.214	91.82
377.424	91.82
377.635	34.47
377.845	52.91
378.055	75.43
378.266	-63.83
378.476	-14.68
378.686	54.95
378.897	42.67
379.107	61.1
379.317	130.73
379.528	67.24
379.738	46.76
379.948	26.28
380.158	73.39
380.369	75.43
380.579	40.62
380.789	48.81
380.999	30.38
381.21	13.99
381.42	130.73
381.63	57
381.84	9.9
382.05	81.58
382.261	67.24
382.471	59.05
382.681	32.43
382.891	91.82
383.101	138.92
383.311	-43.35
383.521	24.23
383.731	61.1
383.941	81.58
384.151	42.67
384.361	95.91
384.571	22.19
384.781	36.52
384.991	81.58
385.201	67.24
385.411	32.43
385.621	79.53
385.831	67.24
386.041	102.06
386.251	83.63
386.461	36.52
386.671	69.29
386.881	50.86
387.091	32.43
387.301	97.96
387.511	104.11
387.72	18.09
387.93	52.91
388.14	48.81
388.35	18.09
388.56	104.11
388.769	120.49
388.979	34.47
389.189	87.72
389.399	71.34
389.609	116.39
389.818	79.53
390.028	32.43
390.238	104.11
390.447	81.58
390.657	44.71
390.867	54.95
391.076	57
391.286	91.82
391.496	67.24
391.705	89.77
391.915	50.86
392.125	46.76
392.334	100.01
392.544	50.86
392.753	71.34
392.963	34.47
393.172	110.25
393.382	75.43
393.591	128.68
393.801	38.57
394.01	85.67
394.22	75.43
394.429	18.09
394.639	13.99
394.848	130.73
395.058	102.06
395.267	110.25
395.477	126.63
395.686	136.87
395.895	110.25
396.105	177.83
396.314	106.15
396.524	18.09
396.733	81.58
396.942	100.01
397.152	126.63
397.361	153.26
397.57	134.82
397.78	120.49
397.989	151.21
398.198	140.97
398.407	116.39
398.617	112.3
398.826	89.77
399.035	124.58
399.244	157.35
399.453	143.02
399.663	128.68
399.872	81.58
400.081	79.53
400.29	108.2
400.499	114.34
400.708	100.01
400.917	120.49
401.127	110.25
401.336	108.2
401.545	138.92
401.754	155.3
401.963	181.93
402.172	186.02
402.381	97.96
402.59	153.26
402.799	91.82
403.008	136.87
403.217	138.92
403.426	212.65
403.635	143.02
403.844	140.97
404.053	177.83
404.262	132.78
404.471	198.31
404.68	77.48
404.888	149.16
405.097	157.35
405.306	165.54
405.515	134.82
405.724	186.02
405.933	210.6
406.142	171.69
406.35	253.61
406.559	134.82
406.768	155.3
406.977	149.16
407.185	274.09
407.394	157.35
407.603	224.94
407.812	269.99
408.02	216.74
408.229	198.31
408.438	224.94
408.646	259.75
408.855	304.81
409.064	229.03
409.272	253.61
409.481	321.19
409.69	235.18
409.898	306.85
410.107	288.42
410.315	276.13
410.524	306.85
410.733	339.62
410.941	360.1
411.15	366.25
411.358	384.68
411.567	454.31
411.775	482.98
411.984	407.2
412.192	372.39
412.401	382.63
412.609	409.25
412.818	480.93
413.026	558.75
413.234	482.98
413.443	540.32
413.651	460.45
413.86	489.12
414.068	640.67
414.276	628.39
414.485	669.34
414.693	618.15
414.901	702.11
415.11	702.11
415.318	673.44
415.526	728.74
415.734	786.08
415.943	749.22
416.151	843.42
416.359	845.47
416.567	751.26
416.776	908.96
416.984	960.16
417.192	984.73
417.4	1029.79
417.608	997.02
417.817	1060.51
418.025	1035.93
418.233	1123.99
418.441	1066.65
418.649	1175.19
418.857	1205.91
419.065	1347.22
419.273	1308.31
419.481	1336.98
419.689	1314.45
419.897	1441.43
420.105	1490.58
420.313	1484.44
420.521	1611.41
420.729	1535.64
420.937	1578.64
421.145	1765.01
421.353	1816.21
421.561	1953.42
421.769	1941.13
421.977	2121.35
422.185	2025.1
422.393	2164.36
422.601	2195.08
422.809	2240.14
423.017	2270.86
423.224	2395.78
423.432	2485.89
423.64	2426.5
423.848	2750.08
424.056	2610.82
424.263	2795.14
424.471	2768.51
424.679	2858.62
424.887	3131
425.094	3059.32
425.302	3020.41
425.51	3178.11
425.718	3294.84
425.925	3534.45
426.133	3575.41
426.341	3597.94
426.548	3825.26
426.756	3884.66
426.964	3933.81
427.171	4175.47
427.379	4218.47
427.586	4204.14
427.794	4372.07
428.001	4619.88
428.209	4759.14
428.417	4722.27
428.624	5015.13
428.832	5058.14
429.039	5117.53
429.247	5174.88
429.454	5428.82
429.662	5842.51
429.869	5492.31
430.076	6078.03
430.284	5582.42
430.491	5856.85
430.699	6303.31
430.906	6391.37
431.114	6311.5
431.321	6774.34
431.528	6880.83
431.736	7028.29
431.943	7462.46
432.15	7241.28
432.358	7427.64
432.565	7870
432.772	7675.45
432.979	8295.98
433.187	8234.54
433.394	8400.43
433.601	8883.75
433.808	8934.95
434.016	9080.35
434.223	9254.43
434.43	9745.94
434.637	9569.82
434.844	10231.31
435.052	10421.77
435.259	10251.79
435.466	10323.47
435.673	10380.81
435.88	11124.22
436.087	11568.63
436.294	11505.15
436.501	11341.31
436.708	11693.56
436.915	11898.36
437.122	12307.95
437.329	12447.21
437.537	12998.12
437.743	13041.12
437.95	13080.04
438.157	13649.37
438.364	13995.48
438.571	14112.21
438.778	14061.01
438.985	15207.87
439.192	14951.88
439.399	15164.87
439.606	15015.37
439.813	15611.32
440.02	16674.22
440.227	16358.83
440.433	16418.22
440.64	16973.22
440.847	16672.17
441.054	17393.06
441.261	18210.2
441.467	17956.25
441.674	18218.39
441.881	19041.67
442.088	19025.29
442.294	19056.01
442.501	19281.28
442.708	19697.02
442.914	20338.04
443.121	21124.46
443.328	20983.15
443.534	22465.88
443.741	21435.75
443.948	21253.48
444.154	22850.89
444.361	22541.65
444.568	23080.27
444.774	22852.94
444.981	23346.5
445.187	23569.73
445.394	24616.24
445.6	24409.4
445.807	26754.32
446.013	25574.69
446.22	26377.5
446.426	27399.43
446.633	27540.74
446.839	28366.07
447.046	27172.11
447.252	28523.77
447.459	28747
447.665	28411.13
447.871	29496.55
448.078	30901.46
448.284	29492.46
448.491	30108.9
448.697	31788.23
448.903	32048.32
449.11	32316.61
449.316	31618.25
449.522	32058.56
449.728	32697.53
449.935	33252.53
450.141	32918.71
450.347	34024.61
450.553	32773.3
450.76	33191.09
450.966	34477.21
451.172	33811.62
451.378	34872.47
451.584	33965.22
451.791	34757.78
451.997	34966.68
452.203	35310.74
452.409	35069.08
452.615	35366.03
452.821	33561.77
453.027	33496.24
453.233	34978.96
453.44	33825.96
453.646	33975.46
453.852	34516.12
454.058	34774.17
454.264	34059.43
454.47	34061.47
454.676	33232.05
454.882	34575.52
455.088	31325.39
455.294	32222.4
455.5	32660.66
455.705	33139.89
455.911	31585.48
456.117	30901.46
456.323	30350.56
456.529	28976.37
456.735	30375.13
456.941	29482.22
457.147	28943.6
457.352	27981.06
457.558	27774.21
457.764	27972.86
457.97	26979.6
458.176	26756.37
458.381	26782.99
458.587	25523.49
458.793	25474.34
458.999	24005.95
459.204	25847.07
459.41	24866.1
459.616	23364.93
459.821	23287.11
460.027	23344.45
460.233	22996.3
460.438	21755.23
460.644	21968.22
460.85	20843.88
461.055	20579.7
461.261	20647.28
461.466	19121.54
461.672	18503.06
461.878	20075.9
462.083	18541.97
462.289	18288.02
462.494	18050.46
462.7	17491.36
462.905	16821.67
463.111	17427.87
463.316	17421.73
463.522	17118.63
463.727	16960.94
463.932	16795.05
464.138	16778.67
464.343	16805.29
464.549	16438.7
464.754	16993.7
464.959	16825.77
465.165	16790.95
465.37	16143.8
465.575	15580.6
465.781	16283.06
465.986	16166.32
466.191	15730.11
466.397	15486.4
466.602	14769.61
466.807	15136.2
467.012	15267.27
467.218	15214.02
467.423	15029.7
467.628	15070.66
467.833	15513.02
