Data from USB4F104151__245__11-11-35-909.txt Node

Date: Wed Mar 12 11:11:35 EDT 2025
User: louis
Spectrometer: USB4F10415
Trigger mode: 4
Integration Time (sec): 2.000000E-2
Scans to average: 1
Electric dark correction enabled: true
Nonlinearity correction enabled: false
Boxcar width: 0
XAxis mode: Wavelengths
Number of Pixels in Spectrum: 3648
>>>>>Begin Spectral Data<<<<<
178.204	-122.02
178.424	-122.02
178.644	-122.02
178.864	-81.07
179.084	-13.48
179.304	72.53
179.524	-25.77
179.744	-83.11
179.964	70.48
180.184	17.24
180.404	4.95
180.624	35.67
180.844	-27.82
181.064	-40.11
181.283	-31.91
181.503	-31.91
181.723	39.76
181.943	-50.35
182.163	80.72
182.383	-42.15
182.602	58.2
182.822	23.38
183.042	4.95
183.262	9.05
183.482	54.1
183.701	47.96
183.921	-13.48
184.141	54.1
184.361	13.14
184.58	-64.68
184.8	11.09
185.02	-15.53
185.239	39.76
185.459	43.86
185.679	17.24
185.898	17.24
186.118	66.39
186.338	-23.72
186.557	-23.72
186.777	2.9
186.997	25.43
187.216	74.58
187.436	45.91
187.655	68.44
187.875	52.05
188.095	41.81
188.314	60.24
188.534	-15.53
188.753	54.1
188.973	-13.48
189.192	58.2
189.412	70.48
189.631	68.44
189.851	88.92
190.07	-36.01
190.29	-56.49
190.509	54.1
190.729	-1.19
190.948	39.76
191.168	74.58
191.387	47.96
191.607	-81.07
191.826	21.33
192.045	-1.19
192.265	60.24
192.484	15.19
192.704	31.57
192.923	4.95
193.142	4.95
193.362	45.91
193.581	23.38
193.8	23.38
194.02	-5.29
194.239	-29.87
194.458	54.1
194.678	-7.34
194.897	-19.63
195.116	-25.77
195.335	39.76
195.555	11.09
195.774	54.1
195.993	-5.29
196.212	23.38
196.432	19.29
196.651	0.85
196.87	-62.63
197.089	72.53
197.308	-38.06
197.528	50
197.747	-13.48
197.966	37.72
198.185	-36.01
198.404	56.15
198.623	-7.34
198.842	0.85
199.062	-5.29
199.281	21.33
199.5	-15.53
199.719	19.29
199.938	60.24
200.157	41.81
200.376	-11.43
200.595	35.67
200.814	15.19
201.033	21.33
201.252	52.05
201.471	-5.29
201.69	-9.39
201.909	68.44
202.128	-52.39
202.347	21.33
202.566	13.14
202.785	25.43
203.004	-42.15
203.223	74.58
203.442	11.09
203.661	-19.63
203.879	17.24
204.098	41.81
204.317	13.14
204.536	47.96
204.755	31.57
204.974	45.91
205.193	-31.91
205.411	39.76
205.63	84.82
205.849	37.72
206.068	-7.34
206.287	-5.29
206.505	82.77
206.724	15.19
206.943	68.44
207.162	-3.24
207.381	-11.43
207.599	-19.63
207.818	70.48
208.037	45.91
208.255	37.72
208.474	-3.24
208.693	2.9
208.911	37.72
209.13	0.85
209.349	107.35
209.567	-7.34
209.786	21.33
210.005	-36.01
210.223	17.24
210.442	35.67
210.661	-1.19
210.879	-17.58
211.098	-3.24
211.316	11.09
211.535	76.63
211.753	-19.63
211.972	62.29
212.191	37.72
212.409	111.44
212.628	15.19
212.846	9.05
213.065	50
213.283	-5.29
213.502	17.24
213.72	74.58
213.938	33.62
214.157	13.14
214.375	0.85
214.594	27.48
214.812	-27.82
215.031	7
215.249	70.48
215.467	56.15
215.686	-5.29
215.904	25.43
216.122	84.82
216.341	19.29
216.559	43.86
216.778	-21.67
216.996	64.34
217.214	-46.25
217.432	25.43
217.651	25.43
217.869	11.09
218.087	64.34
218.306	58.2
218.524	86.87
218.742	-33.96
218.96	-17.58
219.179	-15.53
219.397	27.48
219.615	80.72
219.833	-15.53
220.051	31.57
220.27	84.82
220.488	7
220.706	17.24
220.924	-48.3
221.142	45.91
221.36	43.86
221.578	60.24
221.796	68.44
222.015	17.24
222.233	-38.06
222.451	101.2
222.669	-3.24
222.887	23.38
223.105	-54.44
223.323	27.48
223.541	-7.34
223.759	-66.73
223.977	9.05
224.195	41.81
224.413	68.44
224.631	-7.34
224.849	33.62
225.067	17.24
225.285	-5.29
225.503	-46.25
225.721	9.05
225.939	19.29
226.157	70.48
226.375	86.87
226.592	-31.91
226.81	31.57
227.028	-62.63
227.246	50
227.464	9.05
227.682	17.24
227.9	-40.11
228.117	50
228.335	54.1
228.553	133.97
228.771	-3.24
228.989	-5.29
229.206	-11.43
229.424	15.19
229.642	13.14
229.86	41.81
230.077	70.48
230.295	66.39
230.513	13.14
230.731	-27.82
230.948	9.05
231.166	15.19
231.384	-19.63
231.601	70.48
231.819	45.91
232.037	-33.96
232.254	0.85
232.472	21.33
232.689	-5.29
232.907	43.86
233.125	25.43
233.342	27.48
233.56	-11.43
233.777	-3.24
233.995	74.58
234.213	54.1
234.43	56.15
234.648	-7.34
234.865	72.53
235.083	29.52
235.3	-7.34
235.518	-7.34
235.735	-15.53
235.953	97.11
236.17	11.09
236.388	-11.43
236.605	43.86
236.822	121.68
237.04	74.58
237.257	74.58
237.475	31.57
237.692	25.43
237.909	-7.34
238.127	-38.06
238.344	52.05
238.562	-13.48
238.779	27.48
238.996	-46.25
239.214	37.72
239.431	101.2
239.648	17.24
239.865	-1.19
240.083	25.43
240.3	-13.48
240.517	17.24
240.735	35.67
240.952	136.02
241.169	95.06
241.386	82.77
241.603	43.86
241.821	15.19
242.038	74.58
242.255	-5.29
242.472	47.96
242.689	-15.53
242.907	23.38
243.124	66.39
243.341	35.67
243.558	-7.34
243.775	4.95
243.992	-3.24
244.209	33.62
244.426	-5.29
244.643	33.62
244.86	9.05
245.078	33.62
245.295	-38.06
245.512	4.95
245.729	68.44
245.946	13.14
246.163	25.43
246.38	-23.72
246.597	-36.01
246.814	72.53
247.031	11.09
247.248	-3.24
247.464	-58.54
247.681	50
247.898	86.87
248.115	17.24
248.332	45.91
248.549	39.76
248.766	-15.53
248.983	78.68
249.2	-31.91
249.417	62.29
249.633	21.33
249.85	74.58
250.067	-27.82
250.284	-19.63
250.501	-36.01
250.717	25.43
250.934	0.85
251.151	-5.29
251.368	27.48
251.585	64.34
251.801	37.72
252.018	37.72
252.235	7
252.451	11.09
252.668	58.2
252.885	88.92
253.102	68.44
253.318	-13.48
253.535	29.52
253.752	11.09
253.968	-31.91
254.185	41.81
254.401	17.24
254.618	-64.68
254.835	35.67
255.051	50
255.268	-15.53
255.484	-23.72
255.701	21.33
255.917	31.57
256.134	17.24
256.351	56.15
256.567	45.91
256.784	35.67
257	0.85
257.217	31.57
257.433	45.91
257.65	35.67
257.866	25.43
258.082	-3.24
258.299	-44.2
258.515	107.35
258.732	-21.67
258.948	-11.43
259.165	127.83
259.381	-17.58
259.597	62.29
259.814	62.29
260.03	-3.24
260.246	29.52
260.463	21.33
260.679	37.72
260.895	84.82
261.112	23.38
261.328	-27.82
261.544	-54.44
261.761	45.91
261.977	4.95
262.193	50
262.409	78.68
262.626	70.48
262.842	-23.72
263.058	25.43
263.274	62.29
263.49	23.38
263.707	50
263.923	0.85
264.139	-44.2
264.355	50
264.571	33.62
264.787	9.05
265.004	37.72
265.22	13.14
265.436	25.43
265.652	-1.19
265.868	-11.43
266.084	78.68
266.3	119.64
266.516	78.68
266.732	41.81
266.948	-19.63
267.164	103.25
267.38	60.24
267.596	62.29
267.812	-15.53
268.028	82.77
268.244	-36.01
268.46	-9.39
268.676	13.14
268.892	68.44
269.108	15.19
269.324	15.19
269.54	27.48
269.756	90.96
269.972	25.43
270.188	13.14
270.403	29.52
270.619	52.05
270.835	107.35
271.051	41.81
271.267	-5.29
271.483	-17.58
271.698	-38.06
271.914	60.24
272.13	0.85
272.346	86.87
272.562	-5.29
272.777	-11.43
272.993	129.88
273.209	0.85
273.425	4.95
273.64	70.48
273.856	31.57
274.072	35.67
274.287	35.67
274.503	7
274.719	45.91
274.934	50
275.15	-36.01
275.366	84.82
275.581	54.1
275.797	95.06
276.012	50
276.228	37.72
276.444	45.91
276.659	109.4
276.875	-1.19
277.09	-11.43
277.306	-15.53
277.521	47.96
277.737	58.2
277.952	117.59
278.168	-17.58
278.383	50
278.599	-40.11
278.814	-31.91
279.03	-7.34
279.245	47.96
279.461	11.09
279.676	90.96
279.892	2.9
280.107	0.85
280.322	-46.25
280.538	86.87
280.753	-27.82
280.969	39.76
281.184	35.67
281.399	99.16
281.615	0.85
281.83	76.63
282.045	-5.29
282.26	19.29
282.476	68.44
282.691	21.33
282.906	13.14
283.122	-31.91
283.337	35.67
283.552	-5.29
283.767	86.87
283.983	62.29
284.198	-17.58
284.413	56.15
284.628	11.09
284.843	58.2
285.058	62.29
285.274	31.57
285.489	33.62
285.704	45.91
285.919	29.52
286.134	70.48
286.349	17.24
286.564	70.48
286.779	39.76
286.995	15.19
287.21	4.95
287.425	-13.48
287.64	-19.63
287.855	33.62
288.07	7
288.285	45.91
288.5	-7.34
288.715	113.49
288.93	4.95
289.145	66.39
289.36	-23.72
289.575	-27.82
289.79	21.33
290.004	19.29
290.219	60.24
290.434	7
290.649	-13.48
290.864	62.29
291.079	99.16
291.294	-15.53
291.509	70.48
291.724	66.39
291.938	-17.58
292.153	27.48
292.368	-11.43
292.583	-27.82
292.798	2.9
293.012	62.29
293.227	33.62
293.442	2.9
293.657	2.9
293.871	37.72
294.086	0.85
294.301	43.86
294.516	2.9
294.73	99.16
294.945	21.33
295.16	35.67
295.374	37.72
295.589	4.95
295.804	66.39
296.018	23.38
296.233	64.34
296.447	15.19
296.662	27.48
296.877	117.59
297.091	-9.39
297.306	37.72
297.52	52.05
297.735	-79.02
297.949	35.67
298.164	35.67
298.378	-1.19
298.593	95.06
298.807	31.57
299.022	-23.72
299.236	76.63
299.451	25.43
299.665	43.86
299.88	-21.67
300.094	41.81
300.309	54.1
300.523	27.48
300.737	33.62
300.952	54.1
301.166	47.96
301.381	-44.2
301.595	64.34
301.809	17.24
302.024	50
302.238	-1.19
302.452	27.48
302.667	41.81
302.881	39.76
303.095	35.67
303.309	-11.43
303.524	-11.43
303.738	21.33
303.952	45.91
304.166	80.72
304.381	-21.67
304.595	52.05
304.809	2.9
305.023	27.48
305.237	-11.43
305.452	-7.34
305.666	-7.34
305.88	37.72
306.094	27.48
306.308	60.24
306.522	62.29
306.736	136.02
306.95	115.54
307.164	29.52
307.379	45.91
307.593	113.49
307.807	21.33
308.021	47.96
308.235	-19.63
308.449	43.86
308.663	54.1
308.877	68.44
309.091	27.48
309.305	-44.2
309.519	72.53
309.733	84.82
309.947	15.19
310.161	-40.11
310.374	41.81
310.588	19.29
310.802	-52.39
311.016	31.57
311.23	-19.63
311.444	21.33
311.658	93.01
311.872	72.53
312.085	41.81
312.299	15.19
312.513	-42.15
312.727	39.76
312.941	-11.43
313.154	-42.15
313.368	31.57
313.582	25.43
313.796	-17.58
314.009	31.57
314.223	58.2
314.437	72.53
314.651	33.62
314.864	64.34
315.078	-40.11
315.292	58.2
315.505	52.05
315.719	11.09
315.933	17.24
316.146	103.25
316.36	-21.67
316.573	37.72
316.787	70.48
317.001	-11.43
317.214	68.44
317.428	13.14
317.641	-5.29
317.855	76.63
318.068	64.34
318.282	70.48
318.495	19.29
318.709	-1.19
318.922	25.43
319.136	23.38
319.349	2.9
319.563	39.76
319.776	-5.29
319.99	70.48
320.203	33.62
320.417	25.43
320.63	33.62
320.843	56.15
321.057	15.19
321.27	11.09
321.483	29.52
321.697	15.19
321.91	-1.19
322.124	60.24
322.337	17.24
322.55	-44.2
322.763	-15.53
322.977	-5.29
323.19	21.33
323.403	-3.24
323.617	82.77
323.83	68.44
324.043	-36.01
324.256	21.33
324.469	19.29
324.683	19.29
324.896	78.68
325.109	33.62
325.322	21.33
325.535	50
325.748	-5.29
325.962	101.2
326.175	52.05
326.388	-13.48
326.601	80.72
326.814	93.01
327.027	35.67
327.24	52.05
327.453	-42.15
327.666	29.52
327.879	54.1
328.092	17.24
328.305	82.77
328.518	25.43
328.731	-60.59
328.944	62.29
329.157	-13.48
329.37	-19.63
329.583	7
329.796	19.29
330.009	43.86
330.222	88.92
330.435	78.68
330.648	58.2
330.861	27.48
331.073	-23.72
331.286	-50.35
331.499	93.01
331.712	-33.96
331.925	119.64
332.138	111.44
332.35	29.52
332.563	50
332.776	56.15
332.989	35.67
333.202	90.96
333.414	21.33
333.627	117.59
333.84	58.2
334.053	37.72
334.265	7
334.478	2.9
334.691	21.33
334.903	62.29
335.116	-3.24
335.329	41.81
335.541	76.63
335.754	80.72
335.966	2.9
336.179	35.67
336.392	56.15
336.604	41.81
336.817	62.29
337.029	95.06
337.242	50
337.454	19.29
337.667	-44.2
337.88	78.68
338.092	17.24
338.305	84.82
338.517	43.86
338.729	43.86
338.942	62.29
339.154	109.4
339.367	-1.19
339.579	-7.34
339.792	52.05
340.004	52.05
340.217	-13.48
340.429	68.44
340.641	88.92
340.854	90.96
341.066	15.19
341.278	0.85
341.491	84.82
341.703	39.76
341.915	-31.91
342.128	23.38
342.34	68.44
342.552	13.14
342.764	82.77
342.977	-27.82
343.189	115.54
343.401	52.05
343.613	82.77
343.826	27.48
344.038	13.14
344.25	62.29
344.462	60.24
344.674	21.33
344.886	41.81
345.099	-15.53
345.311	58.2
345.523	70.48
345.735	13.14
345.947	66.39
346.159	66.39
346.371	35.67
346.583	90.96
346.795	109.4
347.007	-1.19
347.219	27.48
347.431	-25.77
347.643	25.43
347.855	13.14
348.067	45.91
348.279	62.29
348.491	66.39
348.703	74.58
348.915	-11.43
349.127	29.52
349.339	41.81
349.551	37.72
349.763	25.43
349.975	7
350.187	74.58
350.399	45.91
350.61	76.63
350.822	80.72
351.034	82.77
351.246	25.43
351.458	41.81
351.669	66.39
351.881	80.72
352.093	109.4
352.305	60.24
352.517	19.29
352.728	19.29
352.94	-3.24
353.152	39.76
353.363	4.95
353.575	-42.15
353.787	60.24
353.999	60.24
354.21	113.49
354.422	-7.34
354.633	109.4
354.845	-31.91
355.057	23.38
355.268	54.1
355.48	72.53
355.692	62.29
355.903	35.67
356.115	103.25
356.326	76.63
356.538	88.92
356.749	93.01
356.961	62.29
357.172	54.1
357.384	58.2
357.595	66.39
357.807	41.81
358.018	37.72
358.23	33.62
358.441	37.72
358.653	45.91
358.864	25.43
359.075	66.39
359.287	54.1
359.498	52.05
359.709	25.43
359.921	115.54
360.132	21.33
360.344	54.1
360.555	43.86
360.766	2.9
360.977	7
361.189	37.72
361.4	0.85
361.611	105.3
361.823	17.24
362.034	84.82
362.245	27.48
362.456	-23.72
362.667	54.1
362.879	2.9
363.09	39.76
363.301	27.48
363.512	97.11
363.723	39.76
363.935	90.96
364.146	50
364.357	47.96
364.568	103.25
364.779	13.14
364.99	17.24
365.201	33.62
365.412	50
365.623	19.29
365.834	19.29
366.045	70.48
366.256	78.68
366.467	84.82
366.678	15.19
366.889	52.05
367.1	-40.11
367.311	41.81
367.522	-7.34
367.733	35.67
367.944	54.1
368.155	54.1
368.366	21.33
368.577	68.44
368.788	54.1
368.999	17.24
369.209	41.81
369.42	37.72
369.631	52.05
369.842	35.67
370.053	41.81
370.264	107.35
370.474	13.14
370.685	0.85
370.896	62.29
371.107	64.34
371.317	95.06
371.528	29.52
371.739	103.25
371.95	97.11
372.16	-5.29
372.371	50
372.582	23.38
372.792	21.33
373.003	2.9
373.214	66.39
373.424	29.52
373.635	-7.34
373.846	27.48
374.056	76.63
374.267	2.9
374.477	11.09
374.688	107.35
374.898	19.29
375.109	66.39
375.319	9.05
375.53	62.29
375.74	101.2
375.951	84.82
376.161	7
376.372	68.44
376.582	37.72
376.793	133.97
377.003	43.86
377.214	113.49
377.424	129.88
377.635	119.64
377.845	62.29
378.055	41.81
378.266	33.62
378.476	56.15
378.686	17.24
378.897	66.39
379.107	41.81
379.317	127.83
379.528	21.33
379.738	105.3
379.948	41.81
380.158	43.86
380.369	45.91
380.579	72.53
380.789	39.76
380.999	62.29
381.21	54.1
381.42	84.82
381.63	52.05
381.84	37.72
382.05	68.44
382.261	88.92
382.471	74.58
382.681	82.77
382.891	64.34
383.101	58.2
383.311	62.29
383.521	33.62
383.731	95.06
383.941	127.83
384.151	52.05
384.361	-11.43
384.571	64.34
384.781	29.52
384.991	76.63
385.201	103.25
385.411	52.05
385.621	164.69
385.831	86.87
386.041	70.48
386.251	88.92
386.461	78.68
386.671	50
386.881	41.81
387.091	109.4
387.301	80.72
387.511	50
387.72	58.2
387.93	111.44
388.14	62.29
388.35	78.68
388.56	54.1
388.769	25.43
388.979	66.39
389.189	7
389.399	103.25
389.609	29.52
389.818	29.52
390.028	33.62
390.238	68.44
390.447	-1.19
390.657	80.72
390.867	64.34
391.076	39.76
391.286	82.77
391.496	62.29
391.705	84.82
391.915	80.72
392.125	25.43
392.334	31.57
392.544	101.2
392.753	117.59
392.963	117.59
393.172	121.68
393.382	-15.53
393.591	88.92
393.801	84.82
394.01	152.4
394.22	133.97
394.429	70.48
394.639	47.96
394.848	66.39
395.058	131.92
395.267	-13.48
395.477	62.29
395.686	115.54
395.895	21.33
396.105	125.78
396.314	70.48
396.524	70.48
396.733	41.81
396.942	95.06
397.152	144.21
397.361	146.26
397.57	107.35
397.78	107.35
397.989	76.63
398.198	148.31
398.407	97.11
398.617	13.14
398.826	76.63
399.035	131.92
399.244	144.21
399.453	101.2
399.663	101.2
399.872	125.78
400.081	140.12
400.29	160.59
400.499	111.44
400.708	150.36
400.917	133.97
401.127	60.24
401.336	166.74
401.545	197.46
401.754	168.79
401.963	166.74
402.172	74.58
402.381	99.16
402.59	179.03
402.799	156.5
403.008	109.4
403.217	152.4
403.426	166.74
403.635	47.96
403.844	166.74
404.053	144.21
404.262	119.64
404.471	183.12
404.68	146.26
404.888	150.36
405.097	90.96
405.306	113.49
405.515	205.65
405.724	168.79
405.933	238.42
406.142	158.55
406.35	138.07
406.559	166.74
406.768	238.42
406.977	258.9
407.185	144.21
407.394	213.84
407.603	215.89
407.812	181.07
408.02	215.89
408.229	224.08
408.438	195.41
408.646	215.89
408.855	258.9
409.064	324.43
409.272	308.05
409.481	277.33
409.69	201.55
409.898	283.47
410.107	359.25
410.315	330.58
410.524	389.97
410.733	355.15
410.941	308.05
411.15	467.79
411.358	447.31
411.567	496.46
411.775	389.97
411.984	402.26
412.192	504.65
412.401	469.84
412.609	467.79
412.818	590.67
413.026	504.65
413.234	529.23
413.443	471.89
413.651	562
413.86	596.81
414.068	676.68
414.276	682.83
414.485	699.21
414.693	731.98
414.901	752.46
415.11	756.55
415.318	711.5
415.526	815.94
415.734	779.08
415.943	830.28
416.151	901.96
416.359	947.01
416.567	1063.75
416.776	1004.36
416.984	1028.93
417.192	1010.5
417.4	1016.65
417.608	1092.42
417.817	1182.53
418.025	1143.62
418.233	1248.07
418.441	1180.48
418.649	1385.28
418.857	1309.51
419.065	1307.46
419.273	1413.95
419.481	1514.3
419.689	1569.6
419.897	1653.56
420.105	1719.1
420.313	1704.76
420.521	1807.16
420.729	1706.81
420.937	1809.21
421.145	1927.99
421.353	1882.94
421.561	2132.79
421.769	2145.08
421.977	2210.61
422.185	2167.6
422.393	2276.15
422.601	2448.18
422.809	2427.7
423.017	2523.95
423.224	2644.78
423.432	2661.16
423.64	2790.19
423.848	2921.26
424.056	2988.84
424.263	3011.37
424.471	3175.2
424.679	3259.17
424.887	3314.47
425.094	3357.47
425.302	3474.21
425.51	3556.13
425.718	3724.06
425.925	3795.74
426.133	3803.93
426.341	3982.1
426.548	4174.61
426.756	4285.2
426.964	4295.44
427.171	4600.59
427.379	4735.76
427.586	4729.61
427.794	4889.35
428.001	5139.21
428.209	5395.2
428.417	5079.82
428.624	5571.33
428.832	5481.22
429.039	5581.57
429.247	5704.45
429.454	5972.73
429.662	6562.55
429.869	6017.79
430.076	6472.43
430.284	6263.54
430.491	6623.98
430.699	6918.89
430.906	7064.3
431.114	7015.15
431.321	7221.99
431.528	7564
431.736	7989.98
431.943	8313.56
432.15	8231.64
432.358	8262.36
432.565	8645.33
432.772	8749.78
432.979	9173.71
433.187	9233.1
433.394	9304.78
433.601	9829.06
433.808	10037.95
434.016	9855.68
434.223	10359.48
434.43	10699.44
434.637	10633.91
434.844	11143.85
435.052	11606.69
435.259	11276.97
435.466	11379.37
435.673	11436.71
435.88	12094.11
436.087	13005.45
436.294	12993.17
436.501	12569.24
436.708	12843.67
436.915	13423.24
437.122	13687.43
437.329	13730.44
437.537	14193.28
437.743	14701.17
437.95	14078.59
438.157	15014.51
438.364	15665.77
438.571	15540.84
438.778	15561.32
438.985	17140.3
439.192	16075.36
439.399	16663.13
439.606	16386.65
439.813	17713.74
440.02	18457.15
440.227	18156.1
440.433	17873.48
440.64	18627.13
440.847	18739.77
441.054	18874.93
441.261	20183.59
441.467	20034.08
441.674	20337.18
441.881	21129.75
442.088	21041.68
442.294	20877.85
442.501	21338.64
442.708	21680.65
442.914	22757.88
443.121	23796.2
443.328	22792.7
443.534	24283.62
443.741	23988.71
443.948	23638.51
444.154	25264.6
444.361	24691.16
444.568	25289.17
444.774	25295.32
444.981	25498.06
445.187	26341.83
445.394	27562.42
445.6	26917.31
445.807	29555.09
446.013	28606.88
446.22	28979.61
446.426	29966.73
446.633	30192.01
446.839	31349.11
447.046	30177.67
447.252	31478.13
447.459	31431.03
447.665	31414.65
447.871	33184.09
448.078	33855.82
448.284	32414.05
448.491	33687.89
448.697	34709.83
448.903	35322.17
449.11	35354.94
449.316	34541.89
449.522	35426.62
449.728	36477.22
449.935	36817.19
450.141	36565.29
450.347	37351.71
450.553	36282.67
450.76	36829.48
450.966	37777.68
451.172	37093.66
451.378	38066.45
451.584	37511.45
451.791	38291.73
451.997	38457.61
452.203	38697.22
452.409	38945.03
452.615	38654.22
452.821	37409.05
453.027	36770.08
453.233	38803.72
453.44	37349.66
453.646	37759.25
453.852	37951.76
454.058	38101.26
454.264	37036.32
454.47	37839.12
454.676	37083.42
454.882	38136.08
455.088	34945.34
455.294	35711.28
455.5	35594.55
455.705	36473.13
455.911	34978.11
456.117	34406.73
456.323	34087.25
456.529	31719.79
456.735	33200.47
456.941	32076.14
457.147	32051.56
457.352	31074.68
457.558	30493.06
457.764	30691.71
457.97	30083.47
458.176	29137.3
458.381	29403.54
458.587	27644.34
458.793	27861.42
458.999	26603.97
459.204	28326.31
459.41	27789.74
459.616	25958.86
459.821	25799.12
460.027	25596.37
460.233	25131.48
460.438	24099.3
460.644	24238.56
460.85	23480.82
461.055	22807.03
461.261	22635
461.466	21154.32
461.672	20353.57
461.878	21824.01
462.083	20390.43
462.289	20095.52
462.494	19778.09
462.7	19128.88
462.905	18549.31
463.111	18983.48
463.316	19135.03
463.522	18795.06
463.727	18766.39
463.932	18358.85
464.138	18723.38
464.343	18381.37
464.549	18088.51
464.754	18793.01
464.959	18508.35
465.165	18283.07
465.37	17723.97
465.575	17351.24
465.781	17990.21
465.986	18102.85
466.191	17142.35
466.397	16902.74
466.602	16210.53
466.807	16925.27
467.012	16679.51
467.218	16759.38
467.423	16282.2
467.628	16562.78
467.833	17289.81
468.038	16677.46
