Data from USB4F104151__244__11-11-35-370.txt Node

Date: Wed Mar 12 11:11:35 EDT 2025
User: louis
Spectrometer: USB4F10415
Trigger mode: 4
Integration Time (sec): 2.000000E-2
Scans to average: 1
Electric dark correction enabled: true
Nonlinearity correction enabled: false
Boxcar width: 0
XAxis mode: Wavelengths
Number of Pixels in Spectrum: 3648
>>>>>Begin Spectral Data<<<<<
178.204	-48.13
178.424	-48.13
178.644	-48.13
178.864	-119.81
179.084	-70.65
179.304	-39.94
179.524	-19.46
179.744	-44.03
179.964	62.46
180.184	68.61
180.404	50.18
180.624	37.89
180.844	-3.07
181.064	-33.79
181.283	-54.27
181.503	-37.89
181.723	13.31
181.943	-76.8
182.163	17.41
182.383	95.23
182.602	29.7
182.822	31.74
183.042	-11.26
183.262	-1.02
183.482	27.65
183.701	23.55
183.921	66.56
184.141	15.36
184.361	91.13
184.58	-52.22
184.8	44.03
185.02	27.65
185.239	-25.6
185.459	56.32
185.679	1.02
185.898	-37.89
186.118	-23.55
186.338	-11.26
186.557	48.13
186.777	-7.17
186.997	-23.55
187.216	-1.02
187.436	-5.12
187.655	15.36
187.875	50.18
188.095	-11.26
188.314	-35.84
188.534	74.75
188.753	35.84
188.973	78.85
189.192	17.41
189.412	-13.31
189.631	50.18
189.851	39.94
190.07	66.56
190.29	-29.7
190.509	48.13
190.729	-3.07
190.948	101.37
191.168	82.94
191.387	56.32
191.607	17.41
191.826	35.84
192.045	15.36
192.265	107.52
192.484	-58.37
192.704	3.07
192.923	33.79
193.142	115.71
193.362	54.27
193.581	-19.46
193.8	99.33
194.02	48.13
194.239	-37.89
194.458	-9.22
194.678	11.26
194.897	-31.74
195.116	62.46
195.335	99.33
195.555	17.41
195.774	-23.55
195.993	25.6
196.212	76.8
196.432	-64.51
196.651	52.22
196.87	35.84
197.089	76.8
197.308	25.6
197.528	66.56
197.747	-50.18
197.966	19.46
198.185	19.46
198.404	66.56
198.623	41.98
198.842	-33.79
199.062	31.74
199.281	54.27
199.5	-3.07
199.719	56.32
199.938	50.18
200.157	5.12
200.376	64.51
200.595	66.56
200.814	-3.07
201.033	111.61
201.252	15.36
201.471	62.46
201.69	41.98
201.909	11.26
202.128	33.79
202.347	60.42
202.566	9.22
202.785	60.42
203.004	-25.6
203.223	78.85
203.442	7.17
203.661	50.18
203.879	21.5
204.098	27.65
204.317	-21.5
204.536	82.94
204.755	29.7
204.974	70.65
205.193	66.56
205.411	-23.55
205.63	-3.07
205.849	-13.31
206.068	62.46
206.287	23.55
206.505	31.74
206.724	13.31
206.943	-62.46
207.162	70.65
207.381	-25.6
207.599	87.04
207.818	60.42
208.037	-3.07
208.255	39.94
208.474	48.13
208.693	-35.84
208.911	-7.17
209.13	62.46
209.349	23.55
209.567	78.85
209.786	50.18
210.005	54.27
210.223	-11.26
210.442	-46.08
210.661	44.03
210.879	74.75
211.098	68.61
211.316	-17.41
211.535	82.94
211.753	17.41
211.972	-1.02
212.191	37.89
212.409	105.47
212.628	19.46
212.846	7.17
213.065	31.74
213.283	82.94
213.502	-13.31
213.72	33.79
213.938	29.7
214.157	11.26
214.375	74.75
214.594	-27.65
214.812	48.13
215.031	95.23
215.249	39.94
215.467	66.56
215.686	48.13
215.904	50.18
216.122	37.89
216.341	48.13
216.559	7.17
216.778	37.89
216.996	56.32
217.214	68.61
217.432	-15.36
217.651	29.7
217.869	11.26
218.087	-23.55
218.306	35.84
218.524	17.41
218.742	-15.36
218.96	41.98
219.179	64.51
219.397	27.65
219.615	62.46
219.833	-13.31
220.051	15.36
220.27	37.89
220.488	-33.79
220.706	37.89
220.924	27.65
221.142	-25.6
221.36	31.74
221.578	54.27
221.796	13.31
222.015	60.42
222.233	-19.46
222.451	72.7
222.669	-3.07
222.887	46.08
223.105	41.98
223.323	58.37
223.541	31.74
223.759	29.7
223.977	48.13
224.195	27.65
224.413	17.41
224.631	72.7
224.849	115.71
225.067	52.22
225.285	29.7
225.503	25.6
225.721	-35.84
225.939	93.18
226.157	60.42
226.375	70.65
226.592	-7.17
226.81	27.65
227.028	48.13
227.246	64.51
227.464	19.46
227.682	29.7
227.9	-5.12
228.117	138.24
228.335	48.13
228.553	29.7
228.771	64.51
228.989	-78.85
229.206	58.37
229.424	46.08
229.642	15.36
229.86	25.6
230.077	50.18
230.295	-56.32
230.513	64.51
230.731	29.7
230.948	23.55
231.166	21.5
231.384	50.18
231.601	-3.07
231.819	29.7
232.037	7.17
232.254	5.12
232.472	35.84
232.689	-15.36
232.907	101.37
233.125	27.65
233.342	35.84
233.56	50.18
233.777	1.02
233.995	23.55
234.213	25.6
234.43	-7.17
234.648	-5.12
234.865	48.13
235.083	48.13
235.3	-5.12
235.518	5.12
235.735	54.27
235.953	-11.26
236.17	9.22
236.388	62.46
236.605	-29.7
236.822	25.6
237.04	64.51
237.257	62.46
237.475	37.89
237.692	-17.41
237.909	72.7
238.127	78.85
238.344	27.65
238.562	82.94
238.779	-3.07
238.996	27.65
239.214	-27.65
239.431	46.08
239.648	-9.22
239.865	50.18
240.083	54.27
240.3	5.12
240.517	21.5
240.735	72.7
240.952	17.41
241.169	76.8
241.386	50.18
241.603	23.55
241.821	-27.65
242.038	66.56
242.255	27.65
242.472	21.5
242.689	25.6
242.907	121.85
243.124	-31.74
243.341	27.65
243.558	56.32
243.775	109.57
243.992	-15.36
244.209	35.84
244.426	48.13
244.643	95.23
244.86	72.7
245.078	41.98
245.295	99.33
245.512	29.7
245.729	29.7
245.946	-19.46
246.163	21.5
246.38	48.13
246.597	21.5
246.814	68.61
247.031	33.79
247.248	56.32
247.464	-23.55
247.681	11.26
247.898	35.84
248.115	76.8
248.332	52.22
248.549	13.31
248.766	48.13
248.983	41.98
249.2	39.94
249.417	-15.36
249.633	-31.74
249.85	80.89
250.067	27.65
250.284	62.46
250.501	19.46
250.717	103.42
250.934	-39.94
251.151	9.22
251.368	95.23
251.585	62.46
251.801	-11.26
252.018	-11.26
252.235	33.79
252.451	-1.02
252.668	46.08
252.885	-23.55
253.102	1.02
253.318	39.94
253.535	52.22
253.752	13.31
253.968	9.22
254.185	-11.26
254.401	-17.41
254.618	72.7
254.835	25.6
255.051	70.65
255.268	15.36
255.484	15.36
255.701	-31.74
255.917	17.41
256.134	56.32
256.351	-7.17
256.567	52.22
256.784	44.03
257	9.22
257.217	1.02
257.433	-33.79
257.65	76.8
257.866	41.98
258.082	27.65
258.299	-7.17
258.515	13.31
258.732	-27.65
258.948	-3.07
259.165	72.7
259.381	-9.22
259.597	-80.89
259.814	39.94
260.03	72.7
260.246	33.79
260.463	-7.17
260.679	62.46
260.895	68.61
261.112	33.79
261.328	-9.22
261.544	97.28
261.761	37.89
261.977	19.46
262.193	62.46
262.409	99.33
262.626	107.52
262.842	54.27
263.058	58.37
263.274	11.26
263.49	64.51
263.707	107.52
263.923	62.46
264.139	-15.36
264.355	44.03
264.571	68.61
264.787	39.94
265.004	68.61
265.22	-15.36
265.436	66.56
265.652	46.08
265.868	33.79
266.084	17.41
266.3	13.31
266.516	-3.07
266.732	62.46
266.948	9.22
267.164	74.75
267.38	66.56
267.596	-7.17
267.812	62.46
268.028	84.99
268.244	7.17
268.46	64.51
268.676	9.22
268.892	25.6
269.108	56.32
269.324	-9.22
269.54	-23.55
269.756	50.18
269.972	17.41
270.188	60.42
270.403	-3.07
270.619	-9.22
270.835	9.22
271.051	19.46
271.267	25.6
271.483	107.52
271.698	78.85
271.914	78.85
272.13	23.55
272.346	78.85
272.562	7.17
272.777	35.84
272.993	52.22
273.209	33.79
273.425	74.75
273.64	13.31
273.856	37.89
274.072	-5.12
274.287	46.08
274.503	62.46
274.719	21.5
274.934	25.6
275.15	39.94
275.366	89.09
275.581	35.84
275.797	-33.79
276.012	74.75
276.228	44.03
276.444	46.08
276.659	70.65
276.875	17.41
277.09	72.7
277.306	9.22
277.521	41.98
277.737	58.37
277.952	-9.22
278.168	80.89
278.383	46.08
278.599	74.75
278.814	35.84
279.03	21.5
279.245	130.05
279.461	50.18
279.676	3.07
279.892	50.18
280.107	-9.22
280.322	21.5
280.538	84.99
280.753	7.17
280.969	-5.12
281.184	56.32
281.399	78.85
281.615	5.12
281.83	-23.55
282.045	9.22
282.26	33.79
282.476	35.84
282.691	46.08
282.906	70.65
283.122	5.12
283.337	-21.5
283.552	68.61
283.767	-7.17
283.983	80.89
284.198	-3.07
284.413	33.79
284.628	-37.89
284.843	13.31
285.058	-19.46
285.274	132.09
285.489	25.6
285.704	37.89
285.919	50.18
286.134	29.7
286.349	91.13
286.564	3.07
286.779	9.22
286.995	54.27
287.21	7.17
287.425	52.22
287.64	1.02
287.855	56.32
288.07	11.26
288.285	95.23
288.5	31.74
288.715	-29.7
288.93	17.41
289.145	9.22
289.36	87.04
289.575	56.32
289.79	44.03
290.004	3.07
290.219	17.41
290.434	9.22
290.649	76.8
290.864	121.85
291.079	5.12
291.294	9.22
291.509	25.6
291.724	11.26
291.938	29.7
292.153	-7.17
292.368	25.6
292.583	13.31
292.798	7.17
293.012	9.22
293.227	-3.07
293.442	60.42
293.657	9.22
293.871	19.46
294.086	39.94
294.301	54.27
294.516	29.7
294.73	99.33
294.945	25.6
295.16	25.6
295.374	70.65
295.589	15.36
295.804	17.41
296.018	89.09
296.233	19.46
296.447	-46.08
296.662	23.55
296.877	25.6
297.091	7.17
297.306	29.7
297.52	50.18
297.735	87.04
297.949	15.36
298.164	74.75
298.378	17.41
298.593	25.6
298.807	23.55
299.022	103.42
299.236	80.89
299.451	-41.98
299.665	62.46
299.88	23.55
300.094	11.26
300.309	13.31
300.523	50.18
300.737	50.18
300.952	68.61
301.166	46.08
301.381	11.26
301.595	76.8
301.809	72.7
302.024	93.18
302.238	66.56
302.452	17.41
302.667	72.7
302.881	97.28
303.095	58.37
303.309	15.36
303.524	-39.94
303.738	-3.07
303.952	-7.17
304.166	74.75
304.381	-19.46
304.595	101.37
304.809	60.42
305.023	7.17
305.237	23.55
305.452	93.18
305.666	64.51
305.88	37.89
306.094	70.65
306.308	64.51
306.522	21.5
306.736	13.31
306.95	62.46
307.164	70.65
307.379	91.13
307.593	54.27
307.807	56.32
308.021	109.57
308.235	1.02
308.449	44.03
308.663	64.51
308.877	39.94
309.091	52.22
309.305	9.22
309.519	7.17
309.733	109.57
309.947	21.5
310.161	15.36
310.374	-7.17
310.588	95.23
310.802	-33.79
311.016	48.13
311.23	-7.17
311.444	62.46
311.658	11.26
311.872	-37.89
312.085	58.37
312.299	25.6
312.513	95.23
312.727	80.89
312.941	35.84
313.154	-35.84
313.368	25.6
313.582	27.65
313.796	107.52
314.009	27.65
314.223	66.56
314.437	35.84
314.651	89.09
314.864	13.31
315.078	-3.07
315.292	46.08
315.505	-23.55
315.719	39.94
315.933	-41.98
316.146	29.7
316.36	41.98
316.573	60.42
316.787	9.22
317.001	17.41
317.214	39.94
317.428	23.55
317.641	-39.94
317.855	3.07
318.068	-9.22
318.282	17.41
318.495	99.33
318.709	70.65
318.922	27.65
319.136	50.18
319.349	54.27
319.563	70.65
319.776	39.94
319.99	-35.84
320.203	87.04
320.417	48.13
320.63	84.99
320.843	46.08
321.057	33.79
321.27	13.31
321.483	95.23
321.697	52.22
321.91	48.13
322.124	3.07
322.337	35.84
322.55	-9.22
322.763	66.56
322.977	15.36
323.19	7.17
323.403	91.13
323.617	50.18
323.83	89.09
324.043	-3.07
324.256	-29.7
324.469	39.94
324.683	74.75
324.896	3.07
325.109	82.94
325.322	-3.07
325.535	33.79
325.748	15.36
325.962	76.8
326.175	54.27
326.388	17.41
326.601	56.32
326.814	72.7
327.027	39.94
327.24	64.51
327.453	62.46
327.666	64.51
327.879	31.74
328.092	66.56
328.305	-15.36
328.518	-1.02
328.731	9.22
328.944	-19.46
329.157	52.22
329.37	-25.6
329.583	56.32
329.796	111.61
330.009	23.55
330.222	76.8
330.435	25.6
330.648	107.52
330.861	76.8
331.073	58.37
331.286	3.07
331.499	35.84
331.712	-39.94
331.925	95.23
332.138	54.27
332.35	35.84
332.563	37.89
332.776	115.71
332.989	39.94
333.202	25.6
333.414	-17.41
333.627	19.46
333.84	3.07
334.053	87.04
334.265	15.36
334.478	27.65
334.691	3.07
334.903	37.89
335.116	50.18
335.329	39.94
335.541	39.94
335.754	76.8
335.966	-15.36
336.179	87.04
336.392	-27.65
336.604	78.85
336.817	66.56
337.029	25.6
337.242	56.32
337.454	41.98
337.667	21.5
337.88	105.47
338.092	58.37
338.305	70.65
338.517	52.22
338.729	29.7
338.942	46.08
339.154	66.56
339.367	-46.08
339.579	7.17
339.792	-9.22
340.004	44.03
340.217	-23.55
340.429	-31.74
340.641	-15.36
340.854	9.22
341.066	33.79
341.278	50.18
341.491	107.52
341.703	46.08
341.915	15.36
342.128	52.22
342.34	107.52
342.552	76.8
342.764	7.17
342.977	15.36
343.189	101.37
343.401	46.08
343.613	-19.46
343.826	78.85
344.038	17.41
344.25	35.84
344.462	5.12
344.674	99.33
344.886	46.08
345.099	46.08
345.311	117.76
345.523	27.65
345.735	33.79
345.947	89.09
346.159	58.37
346.371	50.18
346.583	78.85
346.795	95.23
347.007	62.46
347.219	46.08
347.431	41.98
347.643	56.32
347.855	-5.12
348.067	105.47
348.279	-7.17
348.491	48.13
348.703	89.09
348.915	-27.65
349.127	31.74
349.339	95.23
349.551	123.9
349.763	13.31
349.975	-31.74
350.187	66.56
350.399	31.74
350.61	48.13
350.822	17.41
351.034	58.37
351.246	-3.07
351.458	-66.56
351.669	19.46
351.881	64.51
352.093	105.47
352.305	54.27
352.517	58.37
352.728	37.89
352.94	9.22
353.152	84.99
353.363	29.7
353.575	74.75
353.787	125.95
353.999	66.56
354.21	66.56
354.422	39.94
354.633	74.75
354.845	37.89
355.057	-13.31
355.268	64.51
355.48	52.22
355.692	41.98
355.903	41.98
356.115	66.56
356.326	89.09
356.538	91.13
356.749	9.22
356.961	19.46
357.172	60.42
357.384	39.94
357.595	56.32
357.807	29.7
358.018	-27.65
358.23	46.08
358.441	-19.46
358.653	66.56
358.864	115.71
359.075	68.61
359.287	41.98
359.498	107.52
359.709	5.12
359.921	46.08
360.132	41.98
360.344	48.13
360.555	1.02
360.766	123.9
360.977	15.36
361.189	-7.17
361.4	132.09
361.611	50.18
361.823	23.55
362.034	97.28
362.245	-39.94
362.456	41.98
362.667	35.84
362.879	29.7
363.09	44.03
363.301	29.7
363.512	35.84
363.723	103.42
363.935	48.13
364.146	109.57
364.357	50.18
364.568	-11.26
364.779	-46.08
364.99	27.65
365.201	23.55
365.412	70.65
365.623	58.37
365.834	46.08
366.045	44.03
366.256	109.57
366.467	29.7
366.678	123.9
366.889	35.84
367.1	87.04
367.311	19.46
367.522	89.09
367.733	78.85
367.944	44.03
368.155	-23.55
368.366	107.52
368.577	89.09
368.788	37.89
368.999	1.02
369.209	-1.02
369.42	70.65
369.631	76.8
369.842	37.89
370.053	62.46
370.264	35.84
370.474	78.85
370.685	58.37
370.896	25.6
371.107	23.55
371.317	56.32
371.528	130.05
371.739	68.61
371.95	76.8
372.16	109.57
372.371	80.89
372.582	3.07
372.792	50.18
373.003	123.9
373.214	7.17
373.424	89.09
373.635	23.55
373.846	27.65
374.056	35.84
374.267	25.6
374.477	72.7
374.688	15.36
374.898	50.18
375.109	35.84
375.319	123.9
375.53	89.09
375.74	46.08
375.951	105.47
376.161	56.32
376.372	82.94
376.582	41.98
376.793	13.31
377.003	-7.17
377.214	13.31
377.424	95.23
377.635	74.75
377.845	-35.84
378.055	76.8
378.266	58.37
378.476	9.22
378.686	107.52
378.897	95.23
379.107	91.13
379.317	93.18
379.528	101.37
379.738	105.47
379.948	35.84
380.158	-13.31
380.369	37.89
380.579	105.47
380.789	15.36
380.999	105.47
381.21	78.85
381.42	117.76
381.63	72.7
381.84	89.09
382.05	91.13
382.261	33.79
382.471	132.09
382.681	25.6
382.891	46.08
383.101	70.65
383.311	-27.65
383.521	31.74
383.731	17.41
383.941	23.55
384.151	89.09
384.361	62.46
384.571	54.27
384.781	74.75
384.991	56.32
385.201	99.33
385.411	89.09
385.621	68.61
385.831	103.42
386.041	68.61
386.251	-5.12
386.461	76.8
386.671	23.55
386.881	80.89
387.091	15.36
387.301	-29.7
387.511	78.85
387.72	48.13
387.93	72.7
388.14	144.38
388.35	97.28
388.56	109.57
388.769	35.84
388.979	64.51
389.189	21.5
389.399	72.7
389.609	37.89
389.818	31.74
390.028	46.08
390.238	44.03
390.447	41.98
390.657	87.04
390.867	111.61
391.076	58.37
391.286	107.52
391.496	70.65
391.705	46.08
391.915	9.22
392.125	19.46
392.334	23.55
392.544	74.75
392.753	66.56
392.963	17.41
393.172	117.76
393.382	87.04
393.591	113.66
393.801	39.94
394.01	78.85
394.22	123.9
394.429	60.42
394.639	97.28
394.848	50.18
395.058	97.28
395.267	91.13
395.477	52.22
395.686	162.81
395.895	125.95
396.105	185.34
396.314	115.71
396.524	93.18
396.733	89.09
396.942	140.29
397.152	152.57
397.361	136.19
397.57	125.95
397.78	64.51
397.989	117.76
398.198	125.95
398.407	35.84
398.617	119.81
398.826	74.75
399.035	64.51
399.244	111.61
399.453	-9.22
399.663	123.9
399.872	72.7
400.081	113.66
400.29	89.09
400.499	109.57
400.708	76.8
400.917	132.09
401.127	195.58
401.336	175.1
401.545	166.91
401.754	125.95
401.963	197.63
402.172	164.86
402.381	60.42
402.59	60.42
402.799	187.39
403.008	119.81
403.217	166.91
403.426	164.86
403.635	128
403.844	203.77
404.053	187.39
404.262	160.77
404.471	246.78
404.68	181.25
404.888	115.71
405.097	95.23
405.306	171.01
405.515	201.72
405.724	160.77
405.933	193.53
406.142	179.2
406.35	216.06
406.559	267.26
406.768	232.44
406.977	242.68
407.185	197.63
407.394	230.4
407.603	164.86
407.812	191.49
408.02	281.6
408.229	224.25
408.438	246.78
408.646	238.59
408.855	273.4
409.064	369.66
409.272	259.07
409.481	297.98
409.69	287.74
409.898	334.84
410.107	365.56
410.315	355.32
410.524	283.64
410.733	347.13
410.941	310.27
411.15	416.76
411.358	427
411.567	427
411.775	408.57
411.984	457.72
412.192	508.92
412.401	463.86
412.609	476.15
412.818	543.74
413.026	592.89
413.234	558.07
413.443	576.5
413.651	586.74
413.86	596.98
414.068	672.76
414.276	742.39
414.485	670.71
414.693	697.33
414.901	797.68
415.11	742.39
415.318	771.06
415.526	766.96
415.734	701.43
415.943	850.93
416.151	906.23
416.359	875.51
416.567	928.75
416.776	1022.96
416.984	1010.67
417.192	1025.01
417.4	1127.41
417.608	1082.35
417.817	1139.69
418.025	1166.32
418.233	1260.52
418.441	1262.57
418.649	1375.21
418.857	1405.93
419.065	1414.12
419.273	1467.37
419.481	1469.42
419.689	1504.23
419.897	1631.21
420.105	1661.93
420.313	1831.91
420.521	1672.17
420.729	1799.14
420.937	1786.85
421.145	1975.27
421.353	1899.49
421.561	2059.23
421.769	2221.02
421.977	2104.29
422.185	2184.16
422.393	2327.52
422.601	2388.96
422.809	2317.28
423.017	2524.12
423.224	2626.52
423.432	2718.68
423.64	2780.12
423.848	2937.81
424.056	2956.24
424.263	3087.31
424.471	3197.9
424.679	3107.79
424.887	3308.49
425.094	3447.76
425.302	3408.84
425.51	3646.41
425.718	3834.82
425.925	3732.42
426.133	3922.88
426.341	4021.19
426.548	4172.74
426.756	4254.66
426.964	4271.04
427.171	4498.36
427.379	4789.17
427.586	4860.85
427.794	4965.3
428.001	5096.37
428.209	5239.73
428.417	5094.32
428.624	5745.58
428.832	5618.6
429.039	5725.1
429.247	5493.68
429.454	6251.42
429.662	6689.69
429.869	6032.29
430.076	6628.25
430.284	6480.8
430.491	6751.13
430.699	7056.28
430.906	6845.34
431.114	7084.95
431.321	7420.81
431.528	7564.17
431.736	7926.66
431.943	8541.05
432.15	8072.07
432.358	8414.08
432.565	8557.44
432.772	8524.67
432.979	9038.71
433.187	9274.23
433.394	9298.8
433.601	10023.78
433.808	10058.6
434.016	9890.67
434.223	10240.87
434.43	10814.3
434.637	10662.75
434.844	11451.22
435.052	11535.18
435.259	11647.82
435.466	11518.8
435.673	11592.53
435.88	12237.64
436.087	12712.77
436.294	12479.3
436.501	12745.53
436.708	12780.35
436.915	13247.29
437.122	13708.08
437.329	13488.95
437.537	14228.26
437.743	14345
437.95	14510.88
438.157	15250.2
438.364	15620.88
438.571	15600.4
438.778	15569.68
438.985	17201.91
439.192	16415.49
439.399	17015.55
439.606	16653.06
439.813	17660.66
440.02	18625.25
440.227	18186.99
440.433	17920.75
440.64	18713.31
440.847	18643.68
441.054	19161.82
441.261	20372.17
441.467	20054.73
441.674	20386.5
441.881	21287.61
442.088	21248.7
442.294	20961.98
442.501	21678.77
442.708	21840.56
442.914	22682.28
443.121	23718.55
443.328	23194.27
443.534	24590.98
443.741	24066.7
443.948	24038.03
444.154	25571.96
444.361	25057.92
444.568	25506.43
444.774	25672.31
444.981	25711.22
445.187	26389.1
445.394	27372.13
445.6	27232.86
445.807	29946.42
446.013	28729.93
446.22	29157.96
446.426	30450.22
446.633	30546.48
446.839	31287.84
447.046	30018.1
447.252	31578.65
447.459	31494.69
447.665	31760.92
447.871	33032.71
448.078	34445.81
448.284	32705.04
448.491	33708.54
448.697	34965.99
448.903	35588.58
449.11	35469.79
449.316	34908.65
449.522	35461.6
449.728	36805.07
449.935	36407.76
450.141	36737.49
450.347	37618.11
450.553	36348.37
450.76	36768.21
450.966	38136.25
451.172	37675.46
451.378	38441.4
451.584	37851.58
451.791	38810.03
451.997	38533.56
452.203	39037.36
452.409	39160.23
452.615	39123.37
452.821	37194.18
453.027	37079.5
453.233	38812.08
453.44	37278.15
453.646	37761.47
453.852	37865.92
454.058	38734.26
454.264	37188.04
454.47	38572.47
454.676	36915.66
454.882	38408.63
455.088	34710
455.294	35533.28
455.5	36020.7
455.705	36262.36
455.911	34828.78
456.117	34146.81
456.323	33837.56
456.529	31932.95
456.735	33196.55
456.941	32520.72
457.147	31924.76
457.352	30784.04
457.558	30706.22
457.764	30781.99
457.97	29927.99
458.176	29647.42
458.381	29196.87
458.587	28033.62
458.793	28187.22
458.999	26444.4
459.204	28293.71
459.41	27552.35
459.616	26335.85
459.821	25979.51
460.027	25723.51
460.233	25406.08
460.438	24070.8
460.644	24201.87
460.85	23249.57
461.055	23020.19
461.261	22811.3
461.466	21351.1
461.672	20413.13
461.878	22117.04
462.083	20550.34
462.289	20081.36
462.494	19966.67
462.7	18891.49
462.905	18621.16
463.111	18871.01
463.316	19327.71
463.522	18600.68
463.727	18813.66
463.932	18811.62
464.138	18531.05
464.343	18741.99
464.549	18244.33
464.754	18766.56
464.959	18543.33
465.165	18592.48
465.37	17814.26
465.575	16995.07
465.781	17734.39
465.986	17900.27
466.191	17554.16
466.397	17017.6
466.602	15962.89
466.807	16767.74
467.012	16943.87
467.218	16575.24
467.423	16229.13
467.628	16587.52
467.833	17122.04
