Data from USB4F104151__127__11-07-37-416.txt Node

Date: Wed Mar 12 11:07:37 EDT 2025
User: louis
Spectrometer: USB4F10415
Trigger mode: 4
Integration Time (sec): 2.000000E-2
Scans to average: 1
Electric dark correction enabled: true
Nonlinearity correction enabled: false
Boxcar width: 0
XAxis mode: Wavelengths
Number of Pixels in Spectrum: 3648
>>>>>Begin Spectral Data<<<<<
178.204	-17.41
178.424	-17.41
178.644	-17.41
178.864	5.12
179.084	23.55
179.304	-15.36
179.524	3.07
179.744	-35.84
179.964	27.65
180.184	3.07
180.404	11.26
180.624	23.55
180.844	-21.5
181.064	-33.79
181.283	82.94
181.503	-9.22
181.723	-35.84
181.943	-15.36
182.163	5.12
182.383	-54.27
182.602	84.99
182.822	66.56
183.042	89.09
183.262	56.32
183.482	64.51
183.701	-3.07
183.921	7.17
184.141	-5.12
184.361	52.22
184.58	7.17
184.8	-25.6
185.02	66.56
185.239	48.13
185.459	5.12
185.679	31.74
185.898	19.46
186.118	99.33
186.338	39.94
186.557	72.7
186.777	68.61
186.997	101.37
187.216	5.12
187.436	29.7
187.655	31.74
187.875	89.09
188.095	29.7
188.314	84.99
188.534	199.68
188.753	17.41
188.973	101.37
189.192	46.08
189.412	66.56
189.631	91.13
189.851	44.03
190.07	111.61
190.29	33.79
190.509	58.37
190.729	138.24
190.948	123.9
191.168	84.99
191.387	44.03
191.607	27.65
191.826	19.46
192.045	74.75
192.265	89.09
192.484	68.61
192.704	35.84
192.923	-11.26
193.142	64.51
193.362	31.74
193.581	99.33
193.8	113.66
194.02	101.37
194.239	13.31
194.458	134.14
194.678	50.18
194.897	44.03
195.116	-19.46
195.335	87.04
195.555	19.46
195.774	5.12
195.993	46.08
196.212	48.13
196.432	-5.12
196.651	11.26
196.87	58.37
197.089	113.66
197.308	-17.41
197.528	64.51
197.747	15.36
197.966	3.07
198.185	74.75
198.404	62.46
198.623	19.46
198.842	72.7
199.062	58.37
199.281	103.42
199.5	54.27
199.719	56.32
199.938	-1.02
200.157	121.85
200.376	1.02
200.595	33.79
200.814	66.56
201.033	97.28
201.252	168.96
201.471	17.41
201.69	95.23
201.909	99.33
202.128	-41.98
202.347	95.23
202.566	39.94
202.785	62.46
203.004	48.13
203.223	97.28
203.442	66.56
203.661	-17.41
203.879	41.98
204.098	44.03
204.317	-19.46
204.536	44.03
204.755	68.61
204.974	87.04
205.193	37.89
205.411	89.09
205.63	19.46
205.849	62.46
206.068	48.13
206.287	1.02
206.505	84.99
206.724	35.84
206.943	37.89
207.162	66.56
207.381	41.98
207.599	87.04
207.818	66.56
208.037	-21.5
208.255	-54.27
208.474	41.98
208.693	44.03
208.911	78.85
209.13	25.6
209.349	37.89
209.567	76.8
209.786	3.07
210.005	48.13
210.223	1.02
210.442	7.17
210.661	39.94
210.879	44.03
211.098	25.6
211.316	80.89
211.535	21.5
211.753	78.85
211.972	56.32
212.191	70.65
212.409	27.65
212.628	35.84
212.846	19.46
213.065	56.32
213.283	56.32
213.502	17.41
213.72	35.84
213.938	93.18
214.157	119.81
214.375	58.37
214.594	37.89
214.812	-7.17
215.031	76.8
215.249	76.8
215.467	-1.02
215.686	13.31
215.904	41.98
216.122	78.85
216.341	74.75
216.559	15.36
216.778	46.08
216.996	31.74
217.214	-29.7
217.432	-35.84
217.651	29.7
217.869	80.89
218.087	64.51
218.306	58.37
218.524	76.8
218.742	25.6
218.96	-7.17
219.179	56.32
219.397	64.51
219.615	62.46
219.833	87.04
220.051	89.09
220.27	95.23
220.488	80.89
220.706	68.61
220.924	-17.41
221.142	82.94
221.36	37.89
221.578	113.66
221.796	93.18
222.015	37.89
222.233	35.84
222.451	72.7
222.669	25.6
222.887	50.18
223.105	78.85
223.323	39.94
223.541	-37.89
223.759	35.84
223.977	72.7
224.195	109.57
224.413	21.5
224.631	11.26
224.849	101.37
225.067	15.36
225.285	54.27
225.503	78.85
225.721	54.27
225.939	97.28
226.157	19.46
226.375	76.8
226.592	-1.02
226.81	66.56
227.028	23.55
227.246	23.55
227.464	48.13
227.682	66.56
227.9	72.7
228.117	68.61
228.335	107.52
228.553	35.84
228.771	37.89
228.989	48.13
229.206	11.26
229.424	48.13
229.642	76.8
229.86	48.13
230.077	39.94
230.295	50.18
230.513	84.99
230.731	60.42
230.948	132.09
231.166	72.7
231.384	19.46
231.601	111.61
231.819	60.42
232.037	17.41
232.254	5.12
232.472	44.03
232.689	-39.94
232.907	17.41
233.125	19.46
233.342	101.37
233.56	27.65
233.777	15.36
233.995	62.46
234.213	64.51
234.43	37.89
234.648	132.09
234.865	3.07
235.083	80.89
235.3	11.26
235.518	35.84
235.735	15.36
235.953	113.66
236.17	64.51
236.388	3.07
236.605	60.42
236.822	97.28
237.04	25.6
237.257	39.94
237.475	29.7
237.692	9.22
237.909	29.7
238.127	78.85
238.344	29.7
238.562	70.65
238.779	13.31
238.996	66.56
239.214	93.18
239.431	13.31
239.648	5.12
239.865	99.33
240.083	29.7
240.3	111.61
240.517	15.36
240.735	130.05
240.952	93.18
241.169	89.09
241.386	46.08
241.603	80.89
241.821	119.81
242.038	39.94
242.255	101.37
242.472	60.42
242.689	70.65
242.907	15.36
243.124	7.17
243.341	37.89
243.558	52.22
243.775	56.32
243.992	7.17
244.209	111.61
244.426	31.74
244.643	82.94
244.86	44.03
245.078	15.36
245.295	64.51
245.512	-29.7
245.729	-5.12
245.946	60.42
246.163	66.56
246.38	35.84
246.597	44.03
246.814	-1.02
247.031	25.6
247.248	44.03
247.464	35.84
247.681	50.18
247.898	95.23
248.115	15.36
248.332	31.74
248.549	48.13
248.766	87.04
248.983	46.08
249.2	64.51
249.417	13.31
249.633	-3.07
249.85	29.7
250.067	23.55
250.284	105.47
250.501	54.27
250.717	27.65
250.934	-9.22
251.151	66.56
251.368	19.46
251.585	46.08
251.801	132.09
252.018	70.65
252.235	84.99
252.451	46.08
252.668	-50.18
252.885	52.22
253.102	35.84
253.318	-15.36
253.535	21.5
253.752	23.55
253.968	5.12
254.185	68.61
254.401	-5.12
254.618	70.65
254.835	15.36
255.051	123.9
255.268	52.22
255.484	117.76
255.701	-17.41
255.917	148.48
256.134	56.32
256.351	48.13
256.567	41.98
256.784	138.24
257	21.5
257.217	91.13
257.433	39.94
257.65	41.98
257.866	80.89
258.082	48.13
258.299	97.28
258.515	82.94
258.732	70.65
258.948	15.36
259.165	31.74
259.381	80.89
259.597	64.51
259.814	74.75
260.03	66.56
260.246	15.36
260.463	76.8
260.679	64.51
260.895	134.14
261.112	9.22
261.328	84.99
261.544	7.17
261.761	78.85
261.977	156.67
262.193	31.74
262.409	31.74
262.626	89.09
262.842	48.13
263.058	-60.42
263.274	74.75
263.49	21.5
263.707	80.89
263.923	15.36
264.139	-44.03
264.355	31.74
264.571	68.61
264.787	89.09
265.004	68.61
265.22	99.33
265.436	70.65
265.652	-17.41
265.868	62.46
266.084	-58.37
266.3	1.02
266.516	35.84
266.732	52.22
266.948	35.84
267.164	17.41
267.38	58.37
267.596	76.8
267.812	39.94
268.028	56.32
268.244	41.98
268.46	89.09
268.676	74.75
268.892	105.47
269.108	23.55
269.324	31.74
269.54	23.55
269.756	115.71
269.972	13.31
270.188	21.5
270.403	58.37
270.619	46.08
270.835	46.08
271.051	87.04
271.267	23.55
271.483	25.6
271.698	37.89
271.914	-46.08
272.13	78.85
272.346	17.41
272.562	3.07
272.777	89.09
272.993	84.99
273.209	76.8
273.425	15.36
273.64	91.13
273.856	82.94
274.072	54.27
274.287	27.65
274.503	21.5
274.719	62.46
274.934	80.89
275.15	3.07
275.366	80.89
275.581	76.8
275.797	33.79
276.012	11.26
276.228	-25.6
276.444	119.81
276.659	50.18
276.875	3.07
277.09	70.65
277.306	17.41
277.521	27.65
277.737	84.99
277.952	31.74
278.168	89.09
278.383	58.37
278.599	95.23
278.814	-33.79
279.03	33.79
279.245	50.18
279.461	41.98
279.676	21.5
279.892	39.94
280.107	70.65
280.322	-33.79
280.538	46.08
280.753	58.37
280.969	130.05
281.184	27.65
281.399	39.94
281.615	56.32
281.83	68.61
282.045	-9.22
282.26	27.65
282.476	-9.22
282.691	-1.02
282.906	25.6
283.122	105.47
283.337	-27.65
283.552	37.89
283.767	-5.12
283.983	11.26
284.198	37.89
284.413	84.99
284.628	87.04
284.843	72.7
285.058	5.12
285.274	117.76
285.489	11.26
285.704	95.23
285.919	-19.46
286.134	72.7
286.349	21.5
286.564	1.02
286.779	58.37
286.995	78.85
287.21	62.46
287.425	93.18
287.64	46.08
287.855	95.23
288.07	5.12
288.285	97.28
288.5	70.65
288.715	80.89
288.93	31.74
289.145	31.74
289.36	48.13
289.575	68.61
289.79	60.42
290.004	107.52
290.219	68.61
290.434	37.89
290.649	60.42
290.864	-9.22
291.079	-41.98
291.294	72.7
291.509	76.8
291.724	125.95
291.938	-25.6
292.153	101.37
292.368	-3.07
292.583	52.22
292.798	99.33
293.012	-15.36
293.227	35.84
293.442	52.22
293.657	29.7
293.871	93.18
294.086	109.57
294.301	31.74
294.516	97.28
294.73	99.33
294.945	13.31
295.16	80.89
295.374	48.13
295.589	103.42
295.804	25.6
296.018	56.32
296.233	117.76
296.447	89.09
296.662	19.46
296.877	31.74
297.091	142.33
297.306	78.85
297.52	39.94
297.735	91.13
297.949	48.13
298.164	-15.36
298.378	87.04
298.593	3.07
298.807	39.94
299.022	140.29
299.236	74.75
299.451	68.61
299.665	-17.41
299.88	80.89
300.094	128
300.309	99.33
300.523	89.09
300.737	27.65
300.952	33.79
301.166	123.9
301.381	-27.65
301.595	111.61
301.809	158.72
302.024	1.02
302.238	-56.32
302.452	60.42
302.667	54.27
302.881	93.18
303.095	117.76
303.309	60.42
303.524	58.37
303.738	46.08
303.952	72.7
304.166	15.36
304.381	39.94
304.595	84.99
304.809	7.17
305.023	39.94
305.237	97.28
305.452	101.37
305.666	58.37
305.88	48.13
306.094	48.13
306.308	50.18
306.522	60.42
306.736	50.18
306.95	46.08
307.164	76.8
307.379	56.32
307.593	152.57
307.807	48.13
308.021	39.94
308.235	19.46
308.449	48.13
308.663	-11.26
308.877	21.5
309.091	48.13
309.305	60.42
309.519	111.61
309.733	146.43
309.947	64.51
310.161	80.89
310.374	44.03
310.588	84.99
310.802	91.13
311.016	82.94
311.23	66.56
311.444	64.51
311.658	19.46
311.872	54.27
312.085	87.04
312.299	78.85
312.513	80.89
312.727	70.65
312.941	15.36
313.154	80.89
313.368	35.84
313.582	64.51
313.796	50.18
314.009	56.32
314.223	74.75
314.437	31.74
314.651	80.89
314.864	54.27
315.078	11.26
315.292	-11.26
315.505	7.17
315.719	97.28
315.933	84.99
316.146	25.6
316.36	39.94
316.573	39.94
316.787	-1.02
317.001	109.57
317.214	99.33
317.428	52.22
317.641	17.41
317.855	52.22
318.068	-9.22
318.282	44.03
318.495	123.9
318.709	64.51
318.922	13.31
319.136	74.75
319.349	130.05
319.563	7.17
319.776	66.56
319.99	62.46
320.203	109.57
320.417	93.18
320.63	48.13
320.843	33.79
321.057	89.09
321.27	64.51
321.483	50.18
321.697	54.27
321.91	25.6
322.124	154.62
322.337	78.85
322.55	23.55
322.763	91.13
322.977	54.27
323.19	13.31
323.403	76.8
323.617	48.13
323.83	121.85
324.043	-1.02
324.256	44.03
324.469	5.12
324.683	91.13
324.896	21.5
325.109	121.85
325.322	21.5
325.535	27.65
325.748	46.08
325.962	-27.65
326.175	9.22
326.388	35.84
326.601	48.13
326.814	31.74
327.027	150.53
327.24	76.8
327.453	44.03
327.666	21.5
327.879	97.28
328.092	115.71
328.305	64.51
328.518	23.55
328.731	-9.22
328.944	52.22
329.157	58.37
329.37	76.8
329.583	29.7
329.796	68.61
330.009	48.13
330.222	66.56
330.435	58.37
330.648	109.57
330.861	50.18
331.073	78.85
331.286	66.56
331.499	58.37
331.712	72.7
331.925	9.22
332.138	54.27
332.35	-1.02
332.563	76.8
332.776	19.46
332.989	31.74
333.202	91.13
333.414	13.31
333.627	-3.07
333.84	62.46
334.053	17.41
334.265	72.7
334.478	13.31
334.691	76.8
334.903	44.03
335.116	117.76
335.329	62.46
335.541	7.17
335.754	64.51
335.966	95.23
336.179	37.89
336.392	3.07
336.604	84.99
336.817	31.74
337.029	105.47
337.242	25.6
337.454	62.46
337.667	95.23
337.88	117.76
338.092	-70.65
338.305	70.65
338.517	72.7
338.729	9.22
338.942	11.26
339.154	15.36
339.367	41.98
339.579	56.32
339.792	56.32
340.004	62.46
340.217	35.84
340.429	95.23
340.641	48.13
340.854	91.13
341.066	50.18
341.278	138.24
341.491	31.74
341.703	84.99
341.915	72.7
342.128	62.46
342.34	93.18
342.552	31.74
342.764	105.47
342.977	62.46
343.189	99.33
343.401	105.47
343.613	21.5
343.826	97.28
344.038	46.08
344.25	52.22
344.462	56.32
344.674	87.04
344.886	11.26
345.099	25.6
345.311	44.03
345.523	82.94
345.735	62.46
345.947	175.1
346.159	29.7
346.371	64.51
346.583	87.04
346.795	72.7
347.007	52.22
347.219	50.18
347.431	52.22
347.643	95.23
347.855	56.32
348.067	15.36
348.279	-5.12
348.491	66.56
348.703	128
348.915	25.6
349.127	84.99
349.339	78.85
349.551	19.46
349.763	29.7
349.975	87.04
350.187	140.29
350.399	103.42
350.61	35.84
350.822	78.85
351.034	119.81
351.246	152.57
351.458	89.09
351.669	48.13
351.881	105.47
352.093	97.28
352.305	72.7
352.517	89.09
352.728	46.08
352.94	62.46
353.152	72.7
353.363	54.27
353.575	97.28
353.787	44.03
353.999	78.85
354.21	78.85
354.422	62.46
354.633	-21.5
354.845	66.56
355.057	91.13
355.268	78.85
355.48	33.79
355.692	1.02
355.903	46.08
356.115	11.26
356.326	56.32
356.538	99.33
356.749	70.65
356.961	136.19
357.172	68.61
357.384	23.55
357.595	99.33
357.807	121.85
358.018	31.74
358.23	56.32
358.441	164.86
358.653	62.46
358.864	37.89
359.075	68.61
359.287	19.46
359.498	46.08
359.709	39.94
359.921	111.61
360.132	-1.02
360.344	41.98
360.555	11.26
360.766	74.75
360.977	23.55
361.189	58.37
361.4	72.7
361.611	82.94
361.823	152.57
362.034	52.22
362.245	-1.02
362.456	91.13
362.667	35.84
362.879	76.8
363.09	101.37
363.301	60.42
363.512	58.37
363.723	54.27
363.935	29.7
364.146	93.18
364.357	93.18
364.568	105.47
364.779	31.74
364.99	99.33
365.201	-7.17
365.412	70.65
365.623	41.98
365.834	74.75
366.045	44.03
366.256	84.99
366.467	50.18
366.678	91.13
366.889	64.51
367.1	70.65
367.311	64.51
367.522	74.75
367.733	78.85
367.944	41.98
368.155	97.28
368.366	50.18
368.577	148.48
368.788	68.61
368.999	111.61
369.209	56.32
369.42	89.09
369.631	154.62
369.842	84.99
370.053	109.57
370.264	48.13
370.474	101.37
370.685	125.95
370.896	105.47
371.107	35.84
371.317	39.94
371.528	37.89
371.739	68.61
371.95	66.56
372.16	99.33
372.371	5.12
372.582	11.26
372.792	91.13
373.003	60.42
373.214	39.94
373.424	158.72
373.635	11.26
373.846	109.57
374.056	23.55
374.267	48.13
374.477	156.67
374.688	-1.02
374.898	56.32
375.109	52.22
375.319	87.04
375.53	78.85
375.74	21.5
375.951	105.47
376.161	11.26
376.372	173.05
376.582	27.65
376.793	138.24
377.003	54.27
377.214	97.28
377.424	95.23
377.635	91.13
377.845	50.18
378.055	136.19
378.266	68.61
378.476	68.61
378.686	58.37
378.897	97.28
379.107	144.38
379.317	23.55
379.528	13.31
379.738	39.94
379.948	35.84
380.158	56.32
380.369	35.84
380.579	119.81
380.789	25.6
380.999	93.18
381.21	52.22
381.42	64.51
381.63	146.43
381.84	148.48
382.05	82.94
382.261	162.81
382.471	99.33
382.681	91.13
382.891	89.09
383.101	52.22
383.311	62.46
383.521	54.27
383.731	97.28
383.941	66.56
384.151	111.61
384.361	68.61
384.571	93.18
384.781	60.42
384.991	97.28
385.201	72.7
385.411	58.37
385.621	128
385.831	76.8
386.041	72.7
386.251	54.27
386.461	60.42
386.671	64.51
386.881	101.37
387.091	97.28
387.301	80.89
387.511	56.32
387.72	97.28
387.93	46.08
388.14	107.52
388.35	115.71
388.56	68.61
388.769	91.13
388.979	140.29
389.189	13.31
389.399	150.53
389.609	72.7
389.818	91.13
390.028	142.33
390.238	66.56
390.447	84.99
390.657	95.23
390.867	103.42
391.076	80.89
391.286	41.98
391.496	52.22
391.705	80.89
391.915	123.9
392.125	76.8
392.334	130.05
392.544	-13.31
392.753	101.37
392.963	33.79
393.172	132.09
393.382	15.36
393.591	123.9
393.801	66.56
394.01	54.27
394.22	17.41
394.429	39.94
394.639	76.8
394.848	66.56
395.058	95.23
395.267	52.22
395.477	89.09
395.686	68.61
395.895	105.47
396.105	76.8
396.314	101.37
396.524	152.57
396.733	173.05
396.942	162.81
397.152	111.61
397.361	150.53
397.57	111.61
397.78	91.13
397.989	119.81
398.198	195.58
398.407	95.23
398.617	52.22
398.826	171.01
399.035	138.24
399.244	46.08
399.453	95.23
399.663	132.09
399.872	146.43
400.081	74.75
400.29	187.39
400.499	136.19
400.708	91.13
400.917	111.61
401.127	82.94
401.336	41.98
401.545	234.49
401.754	138.24
401.963	216.06
402.172	82.94
402.381	78.85
402.59	111.61
402.799	125.95
403.008	117.76
403.217	119.81
403.426	117.76
403.635	185.34
403.844	146.43
404.053	113.66
404.262	68.61
404.471	146.43
404.68	168.96
404.888	136.19
405.097	177.15
405.306	156.67
405.515	214.01
405.724	162.81
405.933	168.96
406.142	130.05
406.35	113.66
406.559	154.62
406.768	214.01
406.977	189.44
407.185	150.53
407.394	130.05
407.603	211.96
407.812	218.11
408.02	267.26
408.229	244.73
408.438	216.06
408.646	248.83
408.855	257.02
409.064	246.78
409.272	259.07
409.481	242.68
409.69	293.88
409.898	220.16
410.107	252.92
410.315	345.08
410.524	314.36
410.733	373.75
410.941	343.03
411.15	314.36
411.358	355.32
411.567	273.4
411.775	318.46
411.984	408.57
412.192	427
412.401	461.82
412.609	429.05
412.818	486.39
413.026	488.44
413.234	390.14
413.443	465.91
413.651	486.39
413.86	515.06
414.068	539.64
414.276	523.26
414.485	519.16
414.693	607.22
414.901	654.33
415.11	656.37
415.318	578.55
415.526	719.86
415.734	699.38
415.943	658.42
416.151	717.81
416.359	713.72
416.567	742.39
416.776	783.35
416.984	883.7
417.192	826.36
417.4	826.36
417.608	916.47
417.817	986.1
418.025	979.95
418.233	1049.58
418.441	1035.25
418.649	1055.73
418.857	1129.45
419.065	1170.41
419.273	1113.07
419.481	1233.9
419.689	1209.33
419.897	1262.57
420.105	1270.76
420.313	1321.96
420.521	1397.74
420.729	1440.75
420.937	1461.23
421.145	1530.86
421.353	1668.07
421.561	1743.85
421.769	1747.94
421.977	1811.43
422.185	1616.87
422.393	1903.59
422.601	1950.69
422.809	2016.23
423.017	1922.02
423.224	2057.18
423.432	2163.68
423.64	2223.07
423.848	2358.24
424.056	2196.45
424.263	2501.59
424.471	2509.79
424.679	2536.41
424.887	2663.38
425.094	2720.73
425.302	2827.22
425.51	2841.56
425.718	2878.42
425.925	3036.11
426.133	3101.65
426.341	3199.95
426.548	3396.56
426.756	3433.42
426.964	3488.71
427.171	3562.44
427.379	3769.29
427.586	3888.07
427.794	4006.85
428.001	3974.08
428.209	4299.71
428.417	4213.7
428.624	4418.49
428.832	4453.31
429.039	4463.55
429.247	4537.27
429.454	4965.3
429.662	5096.37
429.869	4938.68
430.076	5340.08
430.284	5200.82
430.491	5381.04
430.699	5645.23
430.906	5731.24
431.114	5659.56
431.321	5821.35
431.528	6044.58
431.736	6400.93
431.943	6742.94
432.15	6433.69
432.358	6513.56
432.565	6892.44
432.772	6923.16
432.979	7336.85
433.187	7330.7
433.394	7433.1
433.601	7857.03
433.808	8020.87
434.016	7879.56
434.223	8090.5
434.43	8907.64
434.637	8448.9
434.844	9106.29
435.052	9112.44
435.259	8942.46
435.466	9323.38
435.673	8924.02
435.88	9892.71
436.087	10396.51
436.294	10287.97
436.501	10161
436.708	10236.77
436.915	10521.44
437.122	10957.66
437.329	11000.66
437.537	11508.56
437.743	11518.8
437.95	11576.14
438.157	12069.7
438.364	12499.78
438.571	12393.28
438.778	12581.7
438.985	13546.29
439.192	13114.17
439.399	13646.64
439.606	13300.53
439.813	14039.85
440.02	14617.38
440.227	14662.43
440.433	14433.06
440.64	15074.07
440.847	14877.47
441.054	15217.43
441.261	16370.44
441.467	16001.8
441.674	16413.45
441.881	16964.35
442.088	16937.73
442.294	17007.36
442.501	17275.64
442.708	17685.23
442.914	18082.54
443.121	18866.91
443.328	18498.28
443.534	19991.25
443.741	19202.78
443.948	19112.67
444.154	20312.78
444.361	20062.93
444.568	20619.97
444.774	20296.39
444.981	20265.67
445.187	21232.32
445.394	21893.81
445.6	21586.61
445.807	24091.28
446.013	22696.61
446.22	23298.72
446.426	24119.95
446.633	24455.82
446.839	25193.09
447.046	24128.14
447.252	25649.78
447.459	25367.16
447.665	25463.42
447.871	26610.28
448.078	27656.79
448.284	26327.66
448.491	26954.34
448.697	28127.83
448.903	28416.59
449.11	28770.89
449.316	28314.19
449.522	28670.54
449.728	29528.64
449.935	29719.1
450.141	29538.88
450.347	30280.24
450.553	29235.78
450.76	29536.83
450.966	30700.08
451.172	30399.02
451.378	30892.58
451.584	30310.96
451.791	31134.24
451.997	30900.78
452.203	31318.56
452.409	31427.1
452.615	31554.08
452.821	30259.76
453.027	30130.74
453.233	31005.22
453.44	30241.33
453.646	30519.85
453.852	30536.24
454.058	30872.1
454.264	29989.43
454.47	30736.94
454.676	29913.66
454.882	31078.95
455.088	28195.41
455.294	28445.26
455.5	29336.13
455.705	29651.52
455.911	28043.86
456.117	27619.93
456.323	26884.71
456.529	25995.89
456.735	26626.67
456.941	26395.25
457.147	25905.78
457.352	25270.91
457.558	24867.46
457.764	24836.74
457.97	24334.99
458.176	23923.35
458.381	23710.36
458.587	22495.91
458.793	22602.41
458.999	21377.72
459.204	22782.63
459.41	22301.36
459.616	20687.56
459.821	20785.86
460.027	20945.6
460.233	20273.87
460.438	19475.16
460.644	19452.63
460.85	18580.2
461.055	18184.94
461.261	18383.59
461.466	16982.78
461.672	16497.41
461.878	17715.95
462.083	16341.77
462.289	16403.21
462.494	16077.58
462.7	15379.22
462.905	14912.28
463.111	15368.98
463.316	15772.43
463.522	15104.79
463.727	15289.11
463.932	15182.62
464.138	14992.16
464.343	15000.35
464.549	14611.23
464.754	15229.72
464.959	14904.09
465.165	14904.09
465.37	14269.22
465.575	14152.49
465.781	14680.86
465.986	14672.67
466.191	14152.49
466.397	13697.84
466.602	13321.01
466.807	13275.96
467.012	13785.9
467.218	13802.29
467.423	13519.67
467.628	13669.17
