Data from USB4F104151__62__11-06-02-466.txt Node

Date: Wed Mar 12 11:06:02 EDT 2025
User: louis
Spectrometer: USB4F10415
Trigger mode: 4
Integration Time (sec): 2.000000E-2
Scans to average: 1
Electric dark correction enabled: true
Nonlinearity correction enabled: false
Boxcar width: 0
XAxis mode: Wavelengths
Number of Pixels in Spectrum: 3648
>>>>>Begin Spectral Data<<<<<
178.204	-76.97
178.424	-76.97
178.644	-76.97
178.864	-5.29
179.084	-64.68
179.304	33.62
179.524	-33.96
179.744	-5.29
179.964	35.67
180.184	-29.87
180.404	45.91
180.624	-52.39
180.844	21.33
181.064	-31.91
181.283	-29.87
181.503	0.85
181.723	45.91
181.943	45.91
182.163	62.29
182.383	15.19
182.602	119.64
182.822	97.11
183.042	56.15
183.262	4.95
183.482	33.62
183.701	-23.72
183.921	82.77
184.141	56.15
184.361	0.85
184.58	101.2
184.8	11.09
185.02	-9.39
185.239	152.4
185.459	29.52
185.679	25.43
185.898	50
186.118	99.16
186.338	-9.39
186.557	9.05
186.777	11.09
186.997	-11.43
187.216	76.63
187.436	45.91
187.655	56.15
187.875	64.34
188.095	60.24
188.314	66.39
188.534	4.95
188.753	-3.24
188.973	66.39
189.192	37.72
189.412	17.24
189.631	35.67
189.851	86.87
190.07	62.29
190.29	37.72
190.509	-27.82
190.729	117.59
190.948	88.92
191.168	97.11
191.387	158.55
191.607	33.62
191.826	43.86
192.045	-11.43
192.265	21.33
192.484	41.81
192.704	70.48
192.923	29.52
193.142	76.63
193.362	-21.67
193.581	97.11
193.8	58.2
194.02	0.85
194.239	95.06
194.458	-15.53
194.678	31.57
194.897	27.48
195.116	72.53
195.335	103.25
195.555	19.29
195.774	-54.44
195.993	21.33
196.212	78.68
196.432	21.33
196.651	-46.25
196.87	17.24
197.089	119.64
197.308	45.91
197.528	33.62
197.747	-1.19
197.966	-64.68
198.185	60.24
198.404	27.48
198.623	21.33
198.842	74.58
199.062	-11.43
199.281	37.72
199.5	31.57
199.719	-15.53
199.938	43.86
200.157	-19.63
200.376	101.2
200.595	82.77
200.814	68.44
201.033	52.05
201.252	70.48
201.471	2.9
201.69	84.82
201.909	99.16
202.128	-1.19
202.347	45.91
202.566	11.09
202.785	29.52
203.004	37.72
203.223	111.44
203.442	41.81
203.661	31.57
203.879	99.16
204.098	82.77
204.317	82.77
204.536	99.16
204.755	-15.53
204.974	84.82
205.193	50
205.411	29.52
205.63	54.1
205.849	58.2
206.068	-21.67
206.287	47.96
206.505	50
206.724	60.24
206.943	-3.24
207.162	0.85
207.381	21.33
207.599	-21.67
207.818	84.82
208.037	-21.67
208.255	13.14
208.474	121.68
208.693	54.1
208.911	47.96
209.13	74.58
209.349	-9.39
209.567	37.72
209.786	50
210.005	37.72
210.223	76.63
210.442	52.05
210.661	29.52
210.879	21.33
211.098	23.38
211.316	70.48
211.535	62.29
211.753	68.44
211.972	76.63
212.191	64.34
212.409	39.76
212.628	52.05
212.846	7
213.065	52.05
213.283	52.05
213.502	7
213.72	31.57
213.938	-13.48
214.157	54.1
214.375	-5.29
214.594	15.19
214.812	17.24
215.031	9.05
215.249	-3.24
215.467	-3.24
215.686	29.52
215.904	62.29
216.122	54.1
216.341	103.25
216.559	19.29
216.778	64.34
216.996	58.2
217.214	90.96
217.432	0.85
217.651	64.34
217.869	82.77
218.087	45.91
218.306	-17.58
218.524	86.87
218.742	-27.82
218.96	23.38
219.179	4.95
219.397	78.68
219.615	29.52
219.833	74.58
220.051	-19.63
220.27	70.48
220.488	31.57
220.706	93.01
220.924	-15.53
221.142	50
221.36	25.43
221.578	9.05
221.796	56.15
222.015	11.09
222.233	-27.82
222.451	113.49
222.669	35.67
222.887	54.1
223.105	52.05
223.323	-36.01
223.541	58.2
223.759	25.43
223.977	33.62
224.195	78.68
224.413	78.68
224.631	45.91
224.849	72.53
225.067	45.91
225.285	50
225.503	62.29
225.721	54.1
225.939	115.54
226.157	29.52
226.375	66.39
226.592	35.67
226.81	140.12
227.028	21.33
227.246	43.86
227.464	50
227.682	78.68
227.9	103.25
228.117	54.1
228.335	-13.48
228.553	29.52
228.771	82.77
228.989	101.2
229.206	70.48
229.424	107.35
229.642	50
229.86	35.67
230.077	129.88
230.295	80.72
230.513	37.72
230.731	140.12
230.948	41.81
231.166	129.88
231.384	62.29
231.601	101.2
231.819	-13.48
232.037	-38.06
232.254	7
232.472	62.29
232.689	58.2
232.907	66.39
233.125	39.76
233.342	0.85
233.56	41.81
233.777	13.14
233.995	109.4
234.213	90.96
234.43	-11.43
234.648	35.67
234.865	68.44
235.083	146.26
235.3	39.76
235.518	64.34
235.735	62.29
235.953	27.48
236.17	45.91
236.388	35.67
236.605	35.67
236.822	29.52
237.04	50
237.257	4.95
237.475	64.34
237.692	76.63
237.909	95.06
238.127	33.62
238.344	29.52
238.562	-5.29
238.779	62.29
238.996	-3.24
239.214	56.15
239.431	50
239.648	23.38
239.865	50
240.083	90.96
240.3	74.58
240.517	-46.25
240.735	17.24
240.952	86.87
241.169	50
241.386	29.52
241.603	43.86
241.821	-17.58
242.038	54.1
242.255	33.62
242.472	129.88
242.689	99.16
242.907	78.68
243.124	15.19
243.341	62.29
243.558	54.1
243.775	13.14
243.992	70.48
244.209	33.62
244.426	90.96
244.643	72.53
244.86	45.91
245.078	13.14
245.295	52.05
245.512	45.91
245.729	41.81
245.946	68.44
246.163	17.24
246.38	95.06
246.597	21.33
246.814	105.3
247.031	84.82
247.248	41.81
247.464	39.76
247.681	-9.39
247.898	29.52
248.115	78.68
248.332	37.72
248.549	31.57
248.766	111.44
248.983	-1.19
249.2	29.52
249.417	31.57
249.633	7
249.85	101.2
250.067	21.33
250.284	-11.43
250.501	82.77
250.717	56.15
250.934	45.91
251.151	70.48
251.368	33.62
251.585	84.82
251.801	47.96
252.018	64.34
252.235	-46.25
252.451	99.16
252.668	27.48
252.885	60.24
253.102	78.68
253.318	160.59
253.535	29.52
253.752	2.9
253.968	17.24
254.185	-46.25
254.401	74.58
254.618	103.25
254.835	-15.53
255.051	78.68
255.268	62.29
255.484	64.34
255.701	-3.24
255.917	70.48
256.134	25.43
256.351	58.2
256.567	-3.24
256.784	50
257	72.53
257.217	70.48
257.433	-13.48
257.65	68.44
257.866	39.76
258.082	107.35
258.299	33.62
258.515	33.62
258.732	39.76
258.948	43.86
259.165	101.2
259.381	45.91
259.597	41.81
259.814	9.05
260.03	56.15
260.246	43.86
260.463	29.52
260.679	117.59
260.895	64.34
261.112	68.44
261.328	101.2
261.544	76.63
261.761	93.01
261.977	62.29
262.193	-23.72
262.409	54.1
262.626	33.62
262.842	84.82
263.058	41.81
263.274	60.24
263.49	39.76
263.707	109.4
263.923	2.9
264.139	35.67
264.355	50
264.571	88.92
264.787	97.11
265.004	47.96
265.22	70.48
265.436	31.57
265.652	-54.44
265.868	21.33
266.084	25.43
266.3	82.77
266.516	33.62
266.732	54.1
266.948	88.92
267.164	123.73
267.38	27.48
267.596	13.14
267.812	107.35
268.028	43.86
268.244	39.76
268.46	84.82
268.676	25.43
268.892	27.48
269.108	7
269.324	29.52
269.54	66.39
269.756	23.38
269.972	76.63
270.188	80.72
270.403	-29.87
270.619	74.58
270.835	60.24
271.051	68.44
271.267	19.29
271.483	33.62
271.698	90.96
271.914	66.39
272.13	95.06
272.346	78.68
272.562	52.05
272.777	17.24
272.993	39.76
273.209	-19.63
273.425	76.63
273.64	70.48
273.856	66.39
274.072	47.96
274.287	39.76
274.503	11.09
274.719	74.58
274.934	133.97
275.15	70.48
275.366	76.63
275.581	58.2
275.797	13.14
276.012	74.58
276.228	70.48
276.444	62.29
276.659	80.72
276.875	119.64
277.09	84.82
277.306	19.29
277.521	7
277.737	41.81
277.952	109.4
278.168	70.48
278.383	76.63
278.599	29.52
278.814	82.77
279.03	80.72
279.245	21.33
279.461	29.52
279.676	68.44
279.892	103.25
280.107	29.52
280.322	33.62
280.538	17.24
280.753	-40.11
280.969	0.85
281.184	27.48
281.399	78.68
281.615	47.96
281.83	95.06
282.045	2.9
282.26	-7.34
282.476	50
282.691	33.62
282.906	47.96
283.122	-7.34
283.337	111.44
283.552	131.92
283.767	93.01
283.983	97.11
284.198	9.05
284.413	88.92
284.628	11.09
284.843	2.9
285.058	45.91
285.274	82.77
285.489	54.1
285.704	131.92
285.919	-58.54
286.134	11.09
286.349	13.14
286.564	43.86
286.779	45.91
286.995	70.48
287.21	33.62
287.425	78.68
287.64	97.11
287.855	52.05
288.07	-9.39
288.285	101.2
288.5	105.3
288.715	68.44
288.93	15.19
289.145	43.86
289.36	23.38
289.575	41.81
289.79	-7.34
290.004	35.67
290.219	95.06
290.434	78.68
290.649	54.1
290.864	11.09
291.079	35.67
291.294	142.16
291.509	27.48
291.724	101.2
291.938	-15.53
292.153	86.87
292.368	-13.48
292.583	54.1
292.798	43.86
293.012	4.95
293.227	52.05
293.442	62.29
293.657	88.92
293.871	45.91
294.086	39.76
294.301	95.06
294.516	41.81
294.73	-5.29
294.945	15.19
295.16	-7.34
295.374	86.87
295.589	41.81
295.804	35.67
296.018	62.29
296.233	25.43
296.447	72.53
296.662	11.09
296.877	31.57
297.091	113.49
297.306	35.67
297.52	-1.19
297.735	43.86
297.949	2.9
298.164	50
298.378	0.85
298.593	9.05
298.807	-19.63
299.022	70.48
299.236	80.72
299.451	41.81
299.665	45.91
299.88	29.52
300.094	68.44
300.309	52.05
300.523	35.67
300.737	19.29
300.952	88.92
301.166	41.81
301.381	76.63
301.595	43.86
301.809	70.48
302.024	70.48
302.238	127.83
302.452	-9.39
302.667	47.96
302.881	66.39
303.095	136.02
303.309	111.44
303.524	52.05
303.738	35.67
303.952	17.24
304.166	58.2
304.381	11.09
304.595	109.4
304.809	9.05
305.023	74.58
305.237	60.24
305.452	21.33
305.666	45.91
305.88	105.3
306.094	27.48
306.308	27.48
306.522	105.3
306.736	72.53
306.95	35.67
307.164	-7.34
307.379	37.72
307.593	58.2
307.807	58.2
308.021	-13.48
308.235	27.48
308.449	58.2
308.663	66.39
308.877	72.53
309.091	66.39
309.305	50
309.519	58.2
309.733	68.44
309.947	33.62
310.161	68.44
310.374	31.57
310.588	107.35
310.802	35.67
311.016	23.38
311.23	21.33
311.444	7
311.658	47.96
311.872	23.38
312.085	50
312.299	80.72
312.513	-21.67
312.727	70.48
312.941	19.29
313.154	31.57
313.368	68.44
313.582	54.1
313.796	64.34
314.009	29.52
314.223	84.82
314.437	29.52
314.651	-21.67
314.864	15.19
315.078	33.62
315.292	78.68
315.505	27.48
315.719	58.2
315.933	21.33
316.146	62.29
316.36	45.91
316.573	109.4
316.787	39.76
317.001	60.24
317.214	45.91
317.428	47.96
317.641	13.14
317.855	97.11
318.068	72.53
318.282	45.91
318.495	90.96
318.709	66.39
318.922	19.29
319.136	95.06
319.349	72.53
319.563	62.29
319.776	45.91
319.99	52.05
320.203	37.72
320.417	13.14
320.63	78.68
320.843	17.24
321.057	54.1
321.27	88.92
321.483	86.87
321.697	111.44
321.91	17.24
322.124	80.72
322.337	68.44
322.55	29.52
322.763	52.05
322.977	103.25
323.19	-58.54
323.403	21.33
323.617	74.58
323.83	33.62
324.043	47.96
324.256	25.43
324.469	56.15
324.683	88.92
324.896	13.14
325.109	39.76
325.322	74.58
325.535	101.2
325.748	33.62
325.962	-11.43
326.175	33.62
326.388	58.2
326.601	60.24
326.814	43.86
327.027	47.96
327.24	113.49
327.453	64.34
327.666	39.76
327.879	90.96
328.092	86.87
328.305	74.58
328.518	62.29
328.731	-33.96
328.944	131.92
329.157	95.06
329.37	4.95
329.583	119.64
329.796	66.39
330.009	37.72
330.222	-1.19
330.435	70.48
330.648	58.2
330.861	4.95
331.073	90.96
331.286	27.48
331.499	121.68
331.712	99.16
331.925	47.96
332.138	60.24
332.35	56.15
332.563	56.15
332.776	52.05
332.989	-36.01
333.202	150.36
333.414	29.52
333.627	-11.43
333.84	66.39
334.053	72.53
334.265	-40.11
334.478	21.33
334.691	-29.87
334.903	33.62
335.116	78.68
335.329	-13.48
335.541	64.34
335.754	111.44
335.966	-23.72
336.179	9.05
336.392	68.44
336.604	54.1
336.817	39.76
337.029	131.92
337.242	78.68
337.454	47.96
337.667	-1.19
337.88	80.72
338.092	107.35
338.305	23.38
338.517	93.01
338.729	45.91
338.942	90.96
339.154	7
339.367	50
339.579	35.67
339.792	2.9
340.004	90.96
340.217	-5.29
340.429	29.52
340.641	-15.53
340.854	72.53
341.066	52.05
341.278	60.24
341.491	74.58
341.703	45.91
341.915	17.24
342.128	52.05
342.34	-3.24
342.552	76.63
342.764	25.43
342.977	27.48
343.189	29.52
343.401	41.81
343.613	82.77
343.826	74.58
344.038	23.38
344.25	37.72
344.462	111.44
344.674	99.16
344.886	4.95
345.099	131.92
345.311	74.58
345.523	95.06
345.735	47.96
345.947	97.11
346.159	101.2
346.371	52.05
346.583	70.48
346.795	78.68
347.007	13.14
347.219	62.29
347.431	9.05
347.643	39.76
347.855	70.48
348.067	70.48
348.279	43.86
348.491	50
348.703	103.25
348.915	-5.29
349.127	39.76
349.339	-5.29
349.551	113.49
349.763	23.38
349.975	27.48
350.187	15.19
350.399	4.95
350.61	82.77
350.822	109.4
351.034	66.39
351.246	-19.63
351.458	156.5
351.669	47.96
351.881	131.92
352.093	-5.29
352.305	41.81
352.517	70.48
352.728	70.48
352.94	82.77
353.152	103.25
353.363	52.05
353.575	66.39
353.787	62.29
353.999	117.59
354.21	35.67
354.422	103.25
354.633	29.52
354.845	72.53
355.057	50
355.268	90.96
355.48	21.33
355.692	11.09
355.903	25.43
356.115	66.39
356.326	17.24
356.538	105.3
356.749	-19.63
356.961	37.72
357.172	97.11
357.384	119.64
357.595	17.24
357.807	72.53
358.018	60.24
358.23	111.44
358.441	103.25
358.653	43.86
358.864	43.86
359.075	54.1
359.287	70.48
359.498	70.48
359.709	45.91
359.921	68.44
360.132	90.96
360.344	58.2
360.555	117.59
360.766	68.44
360.977	11.09
361.189	103.25
361.4	62.29
361.611	152.4
361.823	37.72
362.034	119.64
362.245	129.88
362.456	58.2
362.667	70.48
362.879	19.29
363.09	103.25
363.301	103.25
363.512	4.95
363.723	64.34
363.935	115.54
364.146	58.2
364.357	29.52
364.568	95.06
364.779	76.63
364.99	125.78
365.201	62.29
365.412	74.58
365.623	-38.06
365.834	90.96
366.045	56.15
366.256	39.76
366.467	93.01
366.678	33.62
366.889	25.43
367.1	17.24
367.311	33.62
367.522	93.01
367.733	47.96
367.944	97.11
368.155	80.72
368.366	66.39
368.577	107.35
368.788	117.59
368.999	-31.91
369.209	105.3
369.42	19.29
369.631	93.01
369.842	56.15
370.053	125.78
370.264	117.59
370.474	47.96
370.685	47.96
370.896	-1.19
371.107	101.2
371.317	58.2
371.528	78.68
371.739	107.35
371.95	0.85
372.16	105.3
372.371	95.06
372.582	62.29
372.792	93.01
373.003	97.11
373.214	13.14
373.424	64.34
373.635	-7.34
373.846	119.64
374.056	109.4
374.267	109.4
374.477	-11.43
374.688	150.36
374.898	27.48
375.109	29.52
375.319	113.49
375.53	123.73
375.74	13.14
375.951	11.09
376.161	56.15
376.372	158.55
376.582	33.62
376.793	54.1
377.003	78.68
377.214	45.91
377.424	33.62
377.635	31.57
377.845	43.86
378.055	72.53
378.266	95.06
378.476	70.48
378.686	50
378.897	72.53
379.107	115.54
379.317	33.62
379.528	27.48
379.738	148.31
379.948	101.2
380.158	-3.24
380.369	54.1
380.579	90.96
380.789	33.62
380.999	93.01
381.21	109.4
381.42	52.05
381.63	45.91
381.84	76.63
382.05	47.96
382.261	66.39
382.471	21.33
382.681	60.24
382.891	-33.96
383.101	68.44
383.311	82.77
383.521	78.68
383.731	99.16
383.941	95.06
384.151	43.86
384.361	70.48
384.571	60.24
384.781	123.73
384.991	115.54
385.201	45.91
385.411	127.83
385.621	95.06
385.831	19.29
386.041	111.44
386.251	58.2
386.461	70.48
386.671	68.44
386.881	105.3
387.091	78.68
387.301	62.29
387.511	25.43
387.72	84.82
387.93	105.3
388.14	-11.43
388.35	125.78
388.56	121.68
388.769	121.68
388.979	33.62
389.189	70.48
389.399	47.96
389.609	95.06
389.818	123.73
390.028	-11.43
390.238	15.19
390.447	95.06
390.657	121.68
390.867	43.86
391.076	82.77
391.286	84.82
391.496	119.64
391.705	131.92
391.915	74.58
392.125	58.2
392.334	103.25
392.544	80.72
392.753	43.86
392.963	76.63
393.172	88.92
393.382	60.24
393.591	113.49
393.801	66.39
394.01	25.43
394.22	125.78
394.429	101.2
394.639	129.88
394.848	136.02
395.058	109.4
395.267	109.4
395.477	105.3
395.686	113.49
395.895	121.68
396.105	160.59
396.314	111.44
396.524	66.39
396.733	45.91
396.942	187.22
397.152	105.3
397.361	86.87
397.57	111.44
397.78	101.2
397.989	99.16
398.198	197.46
398.407	33.62
398.617	121.68
398.826	101.2
399.035	121.68
399.244	95.06
399.453	164.69
399.663	58.2
399.872	115.54
400.081	103.25
400.29	187.22
400.499	105.3
400.708	144.21
400.917	62.29
401.127	90.96
401.336	127.83
401.545	131.92
401.754	88.92
401.963	185.17
402.172	125.78
402.381	76.63
402.59	142.16
402.799	113.49
403.008	179.03
403.217	219.99
403.426	95.06
403.635	99.16
403.844	119.64
404.053	195.41
404.262	170.83
404.471	133.97
404.68	138.07
404.888	176.98
405.097	88.92
405.306	129.88
405.515	168.79
405.724	166.74
405.933	213.84
406.142	166.74
406.35	217.94
406.559	140.12
406.768	201.55
406.977	195.41
407.185	158.55
407.394	162.64
407.603	232.27
407.812	189.27
408.02	240.47
408.229	197.46
408.438	324.43
408.646	156.5
408.855	265.04
409.064	258.9
409.272	265.04
409.481	336.72
409.69	256.85
409.898	262.99
410.107	314.19
410.315	287.57
410.524	217.94
410.733	260.95
410.941	355.15
411.15	312.14
411.358	320.34
411.567	400.21
411.775	406.35
411.984	318.29
412.192	367.44
412.401	469.84
412.609	443.21
412.818	496.46
413.026	398.16
413.234	490.32
413.443	500.56
413.651	488.27
413.86	437.07
414.068	582.48
414.276	537.42
414.485	578.38
414.693	566.09
414.901	617.29
415.11	611.15
415.318	643.92
415.526	611.15
415.734	656.2
415.943	709.45
416.151	738.12
416.359	727.88
416.567	742.22
416.776	803.66
416.984	848.71
417.192	871.24
417.4	942.92
417.608	928.58
417.817	934.73
418.025	987.97
418.233	1098.56
418.441	1069.89
418.649	1157.96
418.857	1078.08
419.065	1258.31
419.273	1192.77
419.481	1217.35
419.689	1301.31
419.897	1336.13
420.105	1385.28
420.313	1387.33
420.521	1540.93
420.729	1557.31
420.937	1526.59
421.145	1551.17
421.353	1598.27
421.561	1747.77
421.769	1684.28
421.977	1895.22
422.185	1727.29
422.393	1989.43
422.601	2050.87
422.809	2100.02
423.017	2057.01
423.224	2116.41
423.432	2218.8
423.64	2227
423.848	2583.34
424.056	2413.36
424.263	2562.86
424.471	2530.09
424.679	2589.49
424.887	2745.13
425.094	2898.73
425.302	2847.53
425.51	2978.6
425.718	2997.03
425.925	3031.85
426.133	3212.07
426.341	3394.34
426.548	3470.11
426.756	3558.18
426.964	3601.18
427.171	3838.75
427.379	3859.23
427.586	3887.9
427.794	3959.58
428.001	4178.71
428.209	4401.94
428.417	4293.4
428.624	4768.52
428.832	4559.63
429.039	4684.56
429.247	4621.07
429.454	5159.69
429.662	5466.88
429.869	5157.64
430.076	5602.05
430.284	5305.09
430.491	5630.72
430.699	5905.15
430.906	5747.45
431.114	6028.03
431.321	6028.03
431.528	6195.96
431.736	6806.25
431.943	6879.98
432.15	6847.21
432.358	6787.82
432.565	7305.96
432.772	7058.15
432.979	7623.39
433.187	7688.93
433.394	7811.81
433.601	8225.5
433.808	8239.83
434.016	8184.54
434.223	8665.81
434.43	9167.56
434.637	8973
434.844	9433.8
435.052	9603.78
435.259	9773.76
435.466	9732.8
435.673	9644.74
435.88	10355.38
436.087	10875.57
436.294	10695.35
436.501	10601.14
436.708	10781.36
436.915	11104.94
437.122	11541.16
437.329	11702.95
437.537	11856.54
437.743	11901.6
437.95	12194.46
438.157	12530.33
438.364	13138.57
438.571	13079.18
438.778	13333.13
438.985	14555.77
439.192	13791.87
439.399	14430.84
439.606	14015.1
439.813	14695.03
440.02	15637.09
440.227	15260.27
440.433	15309.42
440.64	15852.13
440.847	15598.18
441.054	15954.53
441.261	17236.56
441.467	16943.7
441.674	17273.42
441.881	17875.52
442.088	17947.2
442.294	17683.02
442.501	18248.25
442.708	18655.8
442.914	19313.2
443.121	20118.05
443.328	19458.6
443.534	20783.64
443.741	20398.62
443.948	20089.38
444.154	21699.08
444.361	21166.61
444.568	21430.8
444.774	21412.37
444.981	21649.93
445.187	22290.95
445.394	23763.43
445.6	22962.68
445.807	25256.4
446.013	23822.83
446.22	24613.34
446.426	25496.02
446.633	26040.78
446.839	26438.08
447.046	25569.74
447.252	27077.05
447.459	26974.65
447.665	26880.44
447.871	28045.74
448.078	29159.83
448.284	27638.19
448.491	28619.17
448.697	29677.97
448.903	29964.68
449.11	30292.36
449.316	29641.11
449.522	30245.26
449.728	30865.79
449.935	31502.71
450.141	31197.56
450.347	32233.83
450.553	30785.92
450.76	30931.33
450.966	32049.52
451.172	31983.98
451.378	32532.84
451.584	32369
451.791	32878.94
451.997	32588.13
452.203	33229.15
452.409	33163.61
452.615	33048.93
452.821	31633.78
453.027	31234.42
453.233	33141.08
453.44	31385.97
453.646	31998.32
453.852	32119.15
454.058	32620.9
454.264	31369.59
454.47	32164.2
454.676	31545.72
454.882	32475.49
455.088	29712.78
455.294	29962.64
455.5	30603.65
455.705	30855.55
455.911	29559.19
456.117	29008.28
456.323	28477.86
456.529	27105.72
456.735	28377.51
456.941	27335.09
457.147	27113.91
457.352	26329.54
457.558	25954.76
457.764	25795.02
457.97	25332.18
458.176	24809.95
458.381	24951.26
458.587	23536.11
458.793	23589.36
458.999	22262.27
459.204	23986.66
459.41	23441.9
459.616	21651.98
459.821	21717.51
460.027	22067.72
460.233	21176.85
460.438	20208.16
460.644	20511.26
460.85	19622.44
461.055	19110.45
461.261	19442.22
461.466	17640.01
461.672	17140.3
461.878	18510.39
462.083	17445.45
462.289	16900.69
462.494	16951.89
462.7	16208.48
462.905	15780.45
463.111	16099.94
463.316	16360.03
463.522	15751.78
463.727	15694.44
463.932	15833.7
464.138	15524.46
464.343	15911.52
464.549	15377
464.754	15624.81
464.959	15655.53
465.165	15493.74
465.37	14828.15
465.575	14482.04
465.781	15030.9
465.986	15245.93
466.191	14688.89
466.397	14365.31
466.602	13697.67
466.807	14318.2
467.012	14226.04
467.218	14140.03
467.423	13869.7
467.628	14082.69
467.833	14795.38
468.038	14201.47
468.244	13669
