Data from USB4F104151__3__11-04-30-256.txt Node

Date: Wed Mar 12 11:04:30 EDT 2025
User: louis
Spectrometer: USB4F10415
Trigger mode: 4
Integration Time (sec): 2.000000E-2
Scans to average: 1
Electric dark correction enabled: true
Nonlinearity correction enabled: false
Boxcar width: 0
XAxis mode: Wavelengths
Number of Pixels in Spectrum: 3648
>>>>>Begin Spectral Data<<<<<
178.204	-108.88
178.424	-108.88
178.644	-108.88
178.864	-69.97
179.084	-72.02
179.304	-102.74
179.524	16.04
179.744	-18.77
179.964	57
180.184	-14.68
180.404	20.14
180.624	71.34
180.844	-10.58
181.064	-6.49
181.283	18.09
181.503	-26.96
181.723	-2.39
181.943	-16.73
182.163	46.76
182.383	-2.39
182.602	50.86
182.822	32.43
183.042	100.01
183.262	34.47
183.482	26.28
183.701	24.23
183.921	104.11
184.141	-45.4
184.361	-39.25
184.58	22.19
184.8	61.1
185.02	48.81
185.239	-29.01
185.459	-26.96
185.679	28.33
185.898	28.33
186.118	30.38
186.338	52.91
186.557	122.54
186.777	-12.63
186.997	67.24
187.216	-24.92
187.436	28.33
187.655	57
187.875	16.04
188.095	-49.49
188.314	9.9
188.534	-26.96
188.753	16.04
188.973	1.71
189.192	73.39
189.412	97.96
189.631	-45.4
189.851	65.19
190.07	32.43
190.29	-35.16
190.509	26.28
190.729	-0.34
190.948	22.19
191.168	134.82
191.387	95.91
191.607	-37.2
191.826	93.87
192.045	-8.53
192.265	20.14
192.484	38.57
192.704	3.75
192.923	-2.39
193.142	91.82
193.362	112.3
193.581	26.28
193.8	42.67
194.02	54.95
194.239	18.09
194.458	42.67
194.678	93.87
194.897	1.71
195.116	-22.87
195.335	44.71
195.555	52.91
195.774	28.33
195.993	52.91
196.212	54.95
196.432	81.58
196.651	-12.63
196.87	9.9
197.089	22.19
197.308	5.8
197.528	36.52
197.747	52.91
197.966	-41.3
198.185	63.15
198.404	5.8
198.623	-8.53
198.842	63.15
199.062	-26.96
199.281	28.33
199.5	36.52
199.719	32.43
199.938	7.85
200.157	81.58
200.376	65.19
200.595	34.47
200.814	52.91
201.033	-43.35
201.252	95.91
201.471	-35.16
201.69	42.67
201.909	-41.3
202.128	30.38
202.347	61.1
202.566	40.62
202.785	46.76
203.004	26.28
203.223	112.3
203.442	-8.53
203.661	3.75
203.879	42.67
204.098	77.48
204.317	61.1
204.536	50.86
204.755	42.67
204.974	83.63
205.193	32.43
205.411	91.82
205.63	-8.53
205.849	-2.39
206.068	61.1
206.287	-43.35
206.505	16.04
206.724	95.91
206.943	24.23
207.162	-6.49
207.381	11.95
207.599	13.99
207.818	13.99
208.037	89.77
208.255	-31.06
208.474	1.71
208.693	83.63
208.911	-45.4
209.13	69.29
209.349	44.71
209.567	50.86
209.786	48.81
210.005	71.34
210.223	40.62
210.442	-20.82
210.661	-22.87
210.879	52.91
211.098	13.99
211.316	52.91
211.535	106.15
211.753	11.95
211.972	57
212.191	13.99
212.409	67.24
212.628	67.24
212.846	9.9
213.065	61.1
213.283	79.53
213.502	83.63
213.72	57
213.938	28.33
214.157	18.09
214.375	40.62
214.594	69.29
214.812	36.52
215.031	-18.77
215.249	54.95
215.467	16.04
215.686	24.23
215.904	79.53
216.122	69.29
216.341	75.43
216.559	67.24
216.778	22.19
216.996	26.28
217.214	73.39
217.432	-6.49
217.651	-22.87
217.869	87.72
218.087	-6.49
218.306	-41.3
218.524	75.43
218.742	52.91
218.96	44.71
219.179	-2.39
219.397	69.29
219.615	100.01
219.833	46.76
220.051	38.57
220.27	34.47
220.488	22.19
220.706	1.71
220.924	61.1
221.142	3.75
221.36	77.48
221.578	83.63
221.796	32.43
222.015	73.39
222.233	16.04
222.451	24.23
222.669	-39.25
222.887	20.14
223.105	36.52
223.323	38.57
223.541	20.14
223.759	44.71
223.977	44.71
224.195	104.11
224.413	5.8
224.631	11.95
224.849	-4.44
225.067	130.73
225.285	-6.49
225.503	61.1
225.721	24.23
225.939	73.39
226.157	81.58
226.375	20.14
226.592	-16.73
226.81	46.76
227.028	59.05
227.246	81.58
227.464	59.05
227.682	22.19
227.9	112.3
228.117	-29.01
228.335	46.76
228.553	-22.87
228.771	-41.3
228.989	69.29
229.206	87.72
229.424	9.9
229.642	-37.2
229.86	61.1
230.077	32.43
230.295	-45.4
230.513	28.33
230.731	-16.73
230.948	61.1
231.166	77.48
231.384	26.28
231.601	69.29
231.819	38.57
232.037	-43.35
232.254	-24.92
232.472	59.05
232.689	30.38
232.907	79.53
233.125	50.86
233.342	30.38
233.56	57
233.777	-2.39
233.995	85.67
234.213	36.52
234.43	61.1
234.648	69.29
234.865	-4.44
235.083	38.57
235.3	-8.53
235.518	44.71
235.735	32.43
235.953	89.77
236.17	85.67
236.388	59.05
236.605	-10.58
236.822	67.24
237.04	-24.92
237.257	52.91
237.475	-4.44
237.692	104.11
237.909	7.85
238.127	65.19
238.344	93.87
238.562	61.1
238.779	-0.34
238.996	122.54
239.214	67.24
239.431	50.86
239.648	9.9
239.865	-6.49
240.083	1.71
240.3	110.25
240.517	16.04
240.735	100.01
240.952	7.85
241.169	79.53
241.386	106.15
241.603	42.67
241.821	18.09
242.038	71.34
242.255	-14.68
242.472	-16.73
242.689	-20.82
242.907	87.72
243.124	52.91
243.341	16.04
243.558	34.47
243.775	16.04
243.992	-14.68
244.209	71.34
244.426	-6.49
244.643	28.33
244.86	50.86
245.078	46.76
245.295	79.53
245.512	59.05
245.729	-10.58
245.946	59.05
246.163	-29.01
246.38	36.52
246.597	7.85
246.814	114.34
247.031	-12.63
247.248	46.76
247.464	46.76
247.681	-6.49
247.898	38.57
248.115	34.47
248.332	71.34
248.549	-16.73
248.766	83.63
248.983	59.05
249.2	-18.77
249.417	106.15
249.633	16.04
249.85	18.09
250.067	-6.49
250.284	44.71
250.501	54.95
250.717	81.58
250.934	-35.16
251.151	22.19
251.368	67.24
251.585	77.48
251.801	34.47
252.018	-35.16
252.235	54.95
252.451	79.53
252.668	11.95
252.885	83.63
253.102	30.38
253.318	46.76
253.535	-26.96
253.752	-2.39
253.968	32.43
254.185	18.09
254.401	24.23
254.618	122.54
254.835	9.9
255.051	71.34
255.268	85.67
255.484	69.29
255.701	24.23
255.917	42.67
256.134	-37.2
256.351	-18.77
256.567	-69.97
256.784	71.34
257	30.38
257.217	36.52
257.433	63.15
257.65	73.39
257.866	97.96
258.082	16.04
258.299	36.52
258.515	34.47
258.732	38.57
258.948	42.67
259.165	3.75
259.381	85.67
259.597	65.19
259.814	26.28
260.03	24.23
260.246	104.11
260.463	24.23
260.679	16.04
260.895	-6.49
261.112	71.34
261.328	44.71
261.544	7.85
261.761	52.91
261.977	50.86
262.193	-0.34
262.409	67.24
262.626	100.01
262.842	24.23
263.058	-22.87
263.274	87.72
263.49	26.28
263.707	18.09
263.923	57
264.139	16.04
264.355	44.71
264.571	120.49
264.787	77.48
265.004	75.43
265.22	-20.82
265.436	-22.87
265.652	44.71
265.868	97.96
266.084	46.76
266.3	-16.73
266.516	18.09
266.732	26.28
266.948	36.52
267.164	38.57
267.38	42.67
267.596	102.06
267.812	91.82
268.028	5.8
268.244	5.8
268.46	52.91
268.676	52.91
268.892	7.85
269.108	-10.58
269.324	13.99
269.54	69.29
269.756	54.95
269.972	89.77
270.188	61.1
270.403	-29.01
270.619	13.99
270.835	-26.96
271.051	110.25
271.267	54.95
271.483	38.57
271.698	83.63
271.914	36.52
272.13	16.04
272.346	38.57
272.562	22.19
272.777	30.38
272.993	57
273.209	9.9
273.425	38.57
273.64	-8.53
273.856	-0.34
274.072	-29.01
274.287	28.33
274.503	-2.39
274.719	-0.34
274.934	46.76
275.15	9.9
275.366	71.34
275.581	32.43
275.797	16.04
276.012	59.05
276.228	73.39
276.444	28.33
276.659	69.29
276.875	-6.49
277.09	1.71
277.306	1.71
277.521	24.23
277.737	32.43
277.952	28.33
278.168	20.14
278.383	71.34
278.599	22.19
278.814	89.77
279.03	13.99
279.245	116.39
279.461	-4.44
279.676	104.11
279.892	11.95
280.107	9.9
280.322	-37.2
280.538	59.05
280.753	40.62
280.969	102.06
281.184	104.11
281.399	110.25
281.615	24.23
281.83	16.04
282.045	46.76
282.26	-8.53
282.476	93.87
282.691	-0.34
282.906	61.1
283.122	83.63
283.337	34.47
283.552	81.58
283.767	20.14
283.983	59.05
284.198	61.1
284.413	59.05
284.628	5.8
284.843	46.76
285.058	30.38
285.274	87.72
285.489	24.23
285.704	65.19
285.919	-22.87
286.134	24.23
286.349	36.52
286.564	9.9
286.779	30.38
286.995	-10.58
287.21	16.04
287.425	38.57
287.64	9.9
287.855	11.95
288.07	50.86
288.285	61.1
288.5	30.38
288.715	124.58
288.93	-16.73
289.145	71.34
289.36	38.57
289.575	67.24
289.79	-12.63
290.004	-6.49
290.219	79.53
290.434	50.86
290.649	-35.16
290.864	20.14
291.079	-78.16
291.294	61.1
291.509	-31.06
291.724	-8.53
291.938	67.24
292.153	67.24
292.368	30.38
292.583	57
292.798	52.91
293.012	57
293.227	59.05
293.442	-18.77
293.657	42.67
293.871	81.58
294.086	3.75
294.301	114.34
294.516	83.63
294.73	3.75
294.945	112.3
295.16	7.85
295.374	-10.58
295.589	24.23
295.804	85.67
296.018	24.23
296.233	36.52
296.447	11.95
296.662	85.67
296.877	85.67
297.091	7.85
297.306	77.48
297.52	54.95
297.735	-26.96
297.949	-10.58
298.164	81.58
298.378	54.95
298.593	36.52
298.807	-12.63
299.022	1.71
299.236	61.1
299.451	16.04
299.665	44.71
299.88	112.3
300.094	13.99
300.309	147.11
300.523	32.43
300.737	-22.87
300.952	61.1
301.166	126.63
301.381	-4.44
301.595	16.04
301.809	63.15
302.024	52.91
302.238	-31.06
302.452	24.23
302.667	38.57
302.881	87.72
303.095	143.02
303.309	77.48
303.524	30.38
303.738	20.14
303.952	42.67
304.166	116.39
304.381	24.23
304.595	26.28
304.809	36.52
305.023	50.86
305.237	79.53
305.452	36.52
305.666	69.29
305.88	77.48
306.094	59.05
306.308	106.15
306.522	42.67
306.736	24.23
306.95	69.29
307.164	36.52
307.379	1.71
307.593	89.77
307.807	151.21
308.021	-2.39
308.235	136.87
308.449	38.57
308.663	50.86
308.877	67.24
309.091	-39.25
309.305	34.47
309.519	-41.3
309.733	73.39
309.947	46.76
310.161	67.24
310.374	97.96
310.588	52.91
310.802	22.19
311.016	71.34
311.23	3.75
311.444	59.05
311.658	36.52
311.872	59.05
312.085	63.15
312.299	50.86
312.513	61.1
312.727	-4.44
312.941	20.14
313.154	32.43
313.368	16.04
313.582	87.72
313.796	16.04
314.009	-18.77
314.223	-2.39
314.437	75.43
314.651	22.19
314.864	-20.82
315.078	26.28
315.292	-35.16
315.505	65.19
315.719	32.43
315.933	75.43
316.146	79.53
316.36	24.23
316.573	138.92
316.787	26.28
317.001	79.53
317.214	-0.34
317.428	89.77
317.641	36.52
317.855	85.67
318.068	42.67
318.282	44.71
318.495	79.53
318.709	71.34
318.922	20.14
319.136	63.15
319.349	63.15
319.563	-18.77
319.776	32.43
319.99	-12.63
320.203	63.15
320.417	-59.73
320.63	34.47
320.843	24.23
321.057	24.23
321.27	73.39
321.483	-29.01
321.697	93.87
321.91	61.1
322.124	30.38
322.337	81.58
322.55	83.63
322.763	65.19
322.977	36.52
323.19	108.2
323.403	52.91
323.617	28.33
323.83	69.29
324.043	75.43
324.256	11.95
324.469	44.71
324.683	95.91
324.896	-49.49
325.109	3.75
325.322	22.19
325.535	34.47
325.748	69.29
325.962	61.1
326.175	65.19
326.388	22.19
326.601	-4.44
326.814	91.82
327.027	32.43
327.24	67.24
327.453	-14.68
327.666	32.43
327.879	75.43
328.092	65.19
328.305	63.15
328.518	89.77
328.731	54.95
328.944	-2.39
329.157	42.67
329.37	95.91
329.583	63.15
329.796	69.29
330.009	77.48
330.222	-10.58
330.435	11.95
330.648	46.76
330.861	50.86
331.073	30.38
331.286	28.33
331.499	40.62
331.712	5.8
331.925	40.62
332.138	16.04
332.35	3.75
332.563	-2.39
332.776	57
332.989	7.85
333.202	5.8
333.414	50.86
333.627	91.82
333.84	7.85
334.053	42.67
334.265	52.91
334.478	54.95
334.691	116.39
334.903	34.47
335.116	116.39
335.329	26.28
335.541	16.04
335.754	63.15
335.966	32.43
336.179	22.19
336.392	50.86
336.604	40.62
336.817	16.04
337.029	9.9
337.242	26.28
337.454	89.77
337.667	30.38
337.88	28.33
338.092	46.76
338.305	67.24
338.517	1.71
338.729	104.11
338.942	34.47
339.154	52.91
339.367	-12.63
339.579	1.71
339.792	7.85
340.004	46.76
340.217	34.47
340.429	44.71
340.641	28.33
340.854	30.38
341.066	32.43
341.278	32.43
341.491	59.05
341.703	48.81
341.915	36.52
342.128	102.06
342.34	3.75
342.552	69.29
342.764	46.76
342.977	-18.77
343.189	87.72
343.401	69.29
343.613	63.15
343.826	71.34
344.038	-6.49
344.25	81.58
344.462	-12.63
344.674	34.47
344.886	18.09
345.099	34.47
345.311	9.9
345.523	108.2
345.735	46.76
345.947	-12.63
346.159	85.67
346.371	38.57
346.583	36.52
346.795	57
347.007	11.95
347.219	89.77
347.431	32.43
347.643	118.44
347.855	73.39
348.067	26.28
348.279	81.58
348.491	48.81
348.703	91.82
348.915	59.05
349.127	32.43
349.339	24.23
349.551	18.09
349.763	153.26
349.975	40.62
350.187	132.78
350.399	171.69
350.61	77.48
350.822	-14.68
351.034	67.24
351.246	-22.87
351.458	28.33
351.669	30.38
351.881	93.87
352.093	-12.63
352.305	52.91
352.517	87.72
352.728	50.86
352.94	32.43
353.152	44.71
353.363	7.85
353.575	77.48
353.787	73.39
353.999	44.71
354.21	91.82
354.422	67.24
354.633	32.43
354.845	69.29
355.057	50.86
355.268	61.1
355.48	-31.06
355.692	36.52
355.903	13.99
356.115	91.82
356.326	40.62
356.538	77.48
356.749	75.43
356.961	38.57
357.172	42.67
357.384	87.72
357.595	89.77
357.807	69.29
358.018	40.62
358.23	65.19
358.441	26.28
358.653	87.72
358.864	81.58
359.075	63.15
359.287	73.39
359.498	83.63
359.709	22.19
359.921	71.34
360.132	44.71
360.344	114.34
360.555	67.24
360.766	28.33
360.977	97.96
361.189	38.57
361.4	112.3
361.611	87.72
361.823	16.04
362.034	28.33
362.245	-20.82
362.456	63.15
362.667	24.23
362.879	63.15
363.09	73.39
363.301	75.43
363.512	75.43
363.723	73.39
363.935	110.25
364.146	48.81
364.357	46.76
364.568	83.63
364.779	7.85
364.99	112.3
365.201	-53.59
365.412	100.01
365.623	59.05
365.834	110.25
366.045	61.1
366.256	77.48
366.467	118.44
366.678	57
366.889	67.24
367.1	-16.73
367.311	48.81
367.522	1.71
367.733	52.91
367.944	95.91
368.155	50.86
368.366	26.28
368.577	20.14
368.788	38.57
368.999	85.67
369.209	83.63
369.42	79.53
369.631	77.48
369.842	13.99
370.053	-37.2
370.264	38.57
370.474	69.29
370.685	-2.39
370.896	-2.39
371.107	87.72
371.317	108.2
371.528	143.02
371.739	67.24
371.95	79.53
372.16	83.63
372.371	40.62
372.582	38.57
372.792	110.25
373.003	5.8
373.214	-8.53
373.424	36.52
373.635	18.09
373.846	95.91
374.056	85.67
374.267	16.04
374.477	-45.4
374.688	100.01
374.898	93.87
375.109	36.52
375.319	75.43
375.53	194.22
375.74	116.39
375.951	30.38
376.161	59.05
376.372	106.15
376.582	30.38
376.793	22.19
377.003	11.95
377.214	73.39
377.424	75.43
377.635	1.71
377.845	112.3
378.055	79.53
378.266	46.76
378.476	38.57
378.686	9.9
378.897	57
379.107	77.48
379.317	73.39
379.528	11.95
379.738	130.73
379.948	100.01
380.158	20.14
380.369	57
380.579	38.57
380.789	57
380.999	128.68
381.21	65.19
381.42	95.91
381.63	110.25
381.84	81.58
382.05	77.48
382.261	73.39
382.471	54.95
382.681	42.67
382.891	116.39
383.101	102.06
383.311	77.48
383.521	67.24
383.731	73.39
383.941	46.76
384.151	71.34
384.361	145.06
384.571	30.38
384.781	140.97
384.991	93.87
385.201	77.48
385.411	65.19
385.621	38.57
385.831	30.38
386.041	89.77
386.251	44.71
386.461	18.09
386.671	108.2
386.881	59.05
387.091	38.57
387.301	81.58
387.511	57
387.72	61.1
387.93	100.01
388.14	28.33
388.35	69.29
388.56	32.43
388.769	83.63
388.979	73.39
389.189	30.38
389.399	3.75
389.609	102.06
389.818	110.25
390.028	63.15
390.238	87.72
390.447	95.91
390.657	40.62
390.867	67.24
391.076	102.06
391.286	69.29
391.496	13.99
391.705	1.71
391.915	83.63
392.125	79.53
392.334	116.39
392.544	155.3
392.753	102.06
392.963	54.95
393.172	114.34
393.382	36.52
393.591	114.34
393.801	116.39
394.01	122.54
394.22	136.87
394.429	63.15
394.639	63.15
394.848	50.86
395.058	42.67
395.267	106.15
395.477	157.35
395.686	112.3
395.895	93.87
396.105	122.54
396.314	67.24
396.524	102.06
396.733	79.53
396.942	77.48
397.152	52.91
397.361	130.73
397.57	97.96
397.78	93.87
397.989	124.58
398.198	122.54
398.407	147.11
398.617	102.06
398.826	81.58
399.035	138.92
399.244	124.58
399.453	79.53
399.663	69.29
399.872	130.73
400.081	134.82
400.29	198.31
400.499	108.2
400.708	126.63
400.917	136.87
401.127	108.2
401.336	116.39
401.545	138.92
401.754	153.26
401.963	97.96
402.172	97.96
402.381	165.54
402.59	177.83
402.799	122.54
403.008	100.01
403.217	102.06
403.426	173.74
403.635	91.82
403.844	102.06
404.053	95.91
404.262	134.82
404.471	140.97
404.68	208.55
404.888	186.02
405.097	177.83
405.306	192.17
405.515	161.45
405.724	134.82
405.933	167.59
406.142	177.83
406.35	128.68
406.559	208.55
406.768	130.73
406.977	190.12
407.185	167.59
407.394	255.65
407.603	126.63
407.812	216.74
408.02	241.32
408.229	251.56
408.438	294.57
408.646	204.46
408.855	292.52
409.064	272.04
409.272	282.28
409.481	288.42
409.69	239.27
409.898	261.8
410.107	313
410.315	368.29
410.524	313
410.733	323.24
410.941	331.43
411.15	435.88
411.358	392.87
411.567	374.44
411.775	444.07
411.984	337.57
412.192	405.16
412.401	472.74
412.609	552.61
412.818	562.85
413.026	507.55
413.234	556.71
413.443	556.71
413.651	558.75
413.86	624.29
414.068	646.82
414.276	736.93
414.485	577.19
414.693	667.3
414.901	751.26
415.11	745.12
415.318	730.78
415.526	820.89
415.734	868
415.943	888.48
416.151	954.01
416.359	868
416.567	876.19
416.776	933.53
416.984	1058.46
417.192	1042.07
417.4	1060.51
417.608	1019.55
417.817	1154.71
418.025	1183.38
418.233	1222.3
418.441	1222.3
418.649	1267.35
418.857	1355.41
419.065	1324.69
419.273	1314.45
419.481	1490.58
419.689	1646.23
419.897	1492.63
420.105	1658.51
420.313	1660.56
420.521	1711.76
420.729	1777.3
420.937	1834.64
421.145	1887.89
421.353	2051.72
421.561	1990.28
421.769	2154.12
421.977	2250.38
422.185	2133.64
422.393	2264.71
422.601	2387.59
422.809	2426.5
423.017	2428.55
423.224	2598.53
423.432	2688.64
423.64	2606.72
423.848	3108.48
424.056	2915.97
424.263	3075.71
424.471	3106.43
424.679	3063.42
424.887	3309.18
425.094	3346.04
425.302	3481.21
425.51	3561.08
425.718	3645.04
425.925	3765.87
426.133	3815.02
426.341	4017.77
426.548	4161.13
426.756	4281.96
426.964	4279.91
427.171	4619.88
427.379	4660.84
427.586	4681.32
427.794	4800.1
428.001	5148.25
428.209	5361.24
428.417	5250.65
428.624	5553.75
428.832	5604.95
429.039	5529.17
429.247	5604.95
429.454	6078.03
429.662	6479.43
429.869	6225.48
430.076	6643.27
430.284	6409.8
430.491	6708.8
430.699	7097.92
430.906	7214.65
431.114	7171.65
431.321	7347.77
431.528	7609.91
431.736	8203.82
431.943	8511.02
432.15	8183.34
432.358	8246.83
432.565	8711.72
432.772	8664.61
432.979	8984.1
433.187	9430.55
433.394	9283.1
433.601	9895.44
433.808	9960.98
434.016	9987.6
434.223	10319.37
434.43	10995.2
434.637	10798.6
434.844	11351.55
435.052	11857.4
435.259	11585.02
435.466	11658.74
435.673	11548.15
435.88	12469.74
436.087	12772.84
436.294	13358.56
436.501	12754.41
436.708	13082.08
436.915	13389.28
437.122	14067.16
437.329	14136.79
437.537	14478.8
437.743	14638.54
437.95	14446.03
438.157	15459.77
438.364	15726.01
438.571	15887.8
438.778	15969.72
438.985	17618.33
439.192	16698.8
439.399	17481.12
439.606	17008.04
439.813	17876.38
440.02	19019.14
440.227	18396.56
440.433	18257.3
440.64	19027.34
440.847	18998.66
441.054	19613.06
441.261	20700.53
441.467	20747.63
441.674	20833.64
441.881	21687.65
442.088	21857.63
442.294	21466.47
442.501	22125.91
442.708	22555.99
442.914	23655.75
443.121	24341.82
443.328	23590.21
443.534	25453.86
443.741	24399.16
443.948	24386.87
444.154	26324.25
444.361	25924.9
444.568	26238.23
444.774	26367.26
444.981	26518.81
445.187	27483.4
445.394	28681.46
445.6	27950.34
445.807	30590.17
446.013	29500.65
446.22	29943.01
446.426	31184.08
446.633	31018.19
446.839	32498.87
447.046	31057.1
447.252	32812.21
447.459	32824.5
447.665	32367.8
447.871	33760.42
448.078	35292.3
448.284	33719.46
448.491	34727.06
448.697	36250.75
448.903	36463.74
449.11	36430.97
449.316	35902.6
449.522	36824.18
449.728	37688.43
449.935	37737.58
450.141	37717.1
450.347	38626.4
450.553	37495.92
450.76	38089.83
450.966	38976.6
451.172	38761.56
451.378	39793.74
451.584	38521.95
451.791	39736.4
451.997	39461.97
452.203	40260.68
452.409	39902.28
452.615	39820.36
452.821	38237.28
453.027	37448.82
453.233	39746.64
453.44	37893.22
453.646	38351.97
453.852	38724.7
454.058	39117.91
454.264	37493.87
454.47	38356.07
454.676	37745.77
454.882	38659.16
455.088	35468.43
455.294	35832.97
455.5	36492.41
455.705	36410.5
455.911	35456.14
456.117	34385.05
456.323	34075.81
456.529	32138.43
456.735	33195.18
456.941	32539.83
457.147	32046.27
457.352	31245.52
457.558	30203.1
457.764	30420.19
457.97	29857
458.176	29603.05
458.381	29125.87
458.587	27950.34
458.793	27661.57
458.999	26334.49
459.204	28329.21
459.41	27268.36
459.616	25623.84
459.821	25685.28
460.027	25656.61
460.233	24837.42
460.438	23813.44
460.644	23835.97
460.85	22881.61
461.055	22584.66
461.261	22377.81
461.466	20817.26
461.672	20223.35
461.878	21591.39
462.083	20282.74
462.289	19789.18
462.494	19651.97
462.7	18877.83
462.905	18093.46
463.111	19062.15
463.316	19191.17
463.522	18689.42
463.727	18822.54
463.932	18609.55
464.138	18441.62
464.343	18750.86
464.549	17915.29
464.754	18683.28
464.959	18509.2
465.165	18124.18
465.37	17892.76
465.575	17253.8
465.781	17778.08
465.986	17862.04
466.191	17376.67
466.397	16997.8
466.602	16295.35
466.807	16629.16
467.012	16500.14
467.218	16604.59
467.423	16543.15
467.628	16414.13
467.833	17397.15
