Data from USB4F104151__141__11-08-10-532.txt Node

Date: Wed Mar 12 11:08:10 EDT 2025
User: louis
Spectrometer: USB4F10415
Trigger mode: 4
Integration Time (sec): 2.000000E-2
Scans to average: 1
Electric dark correction enabled: true
Nonlinearity correction enabled: false
Boxcar width: 0
XAxis mode: Wavelengths
Number of Pixels in Spectrum: 3648
>>>>>Begin Spectral Data<<<<<
178.204	-107.18
178.424	-107.18
178.644	-107.18
178.864	-115.37
179.084	-146.09
179.304	-6.83
179.524	27.99
179.744	-6.83
179.964	50.52
180.184	38.23
180.404	-41.64
180.624	54.61
180.844	1.37
181.064	-68.27
181.283	-6.83
181.503	-45.74
181.723	3.41
181.943	-37.55
182.163	71
182.383	-0.68
182.602	50.52
182.822	5.46
183.042	-25.26
183.262	-51.88
183.482	44.37
183.701	17.75
183.921	-15.02
184.141	23.89
184.361	-41.64
184.58	52.56
184.8	-27.31
185.02	11.61
185.239	50.52
185.459	19.8
185.679	114
185.898	-51.88
186.118	30.04
186.338	44.37
186.557	111.96
186.777	-0.68
186.997	50.52
187.216	48.47
187.436	36.18
187.655	40.28
187.875	27.99
188.095	62.8
188.314	54.61
188.534	17.75
188.753	11.61
188.973	3.41
189.192	87.38
189.412	15.7
189.631	-8.87
189.851	-82.6
190.07	89.43
190.29	44.37
190.509	-47.79
190.729	13.65
190.948	30.04
191.168	118.1
191.387	-15.02
191.607	3.41
191.826	27.99
192.045	19.8
192.265	62.8
192.484	-2.73
192.704	-2.73
192.923	19.8
193.142	17.75
193.362	21.85
193.581	1.37
193.8	32.08
194.02	30.04
194.239	-55.98
194.458	77.14
194.678	54.61
194.897	-35.5
195.116	66.9
195.335	60.76
195.555	-35.5
195.774	32.08
195.993	36.18
196.212	9.56
196.432	1.37
196.651	54.61
196.87	5.46
197.089	58.71
197.308	21.85
197.528	-58.03
197.747	-0.68
197.966	17.75
198.185	9.56
198.404	-4.78
198.623	54.61
198.842	15.7
199.062	42.32
199.281	52.56
199.5	109.91
199.719	-29.35
199.938	68.95
200.157	13.65
200.376	68.95
200.595	34.13
200.814	87.38
201.033	-6.83
201.252	50.52
201.471	15.7
201.69	-4.78
201.909	17.75
202.128	77.14
202.347	19.8
202.566	-25.26
202.785	32.08
203.004	-4.78
203.223	42.32
203.442	36.18
203.661	27.99
203.879	48.47
204.098	48.47
204.317	25.94
204.536	52.56
204.755	15.7
204.974	19.8
205.193	68.95
205.411	77.14
205.63	13.65
205.849	99.67
206.068	-49.83
206.287	50.52
206.505	9.56
206.724	17.75
206.943	58.71
207.162	42.32
207.381	75.09
207.599	-23.21
207.818	73.04
208.037	32.08
208.255	52.56
208.474	11.61
208.693	-10.92
208.911	7.51
209.13	36.18
209.349	66.9
209.567	1.37
209.786	60.76
210.005	44.37
210.223	5.46
210.442	19.8
210.661	34.13
210.879	23.89
211.098	60.76
211.316	-2.73
211.535	-74.41
211.753	-49.83
211.972	46.42
212.191	-27.31
212.409	66.9
212.628	9.56
212.846	-6.83
213.065	50.52
213.283	23.89
213.502	1.37
213.72	25.94
213.938	25.94
214.157	-0.68
214.375	9.56
214.594	77.14
214.812	19.8
215.031	97.62
215.249	50.52
215.467	7.51
215.686	54.61
215.904	1.37
216.122	46.42
216.341	62.8
216.559	-10.92
216.778	73.04
216.996	34.13
217.214	44.37
217.432	42.32
217.651	40.28
217.869	34.13
218.087	25.94
218.306	30.04
218.524	71
218.742	-8.87
218.96	-2.73
219.179	30.04
219.397	60.76
219.615	73.04
219.833	66.9
220.051	54.61
220.27	7.51
220.488	25.94
220.706	38.23
220.924	60.76
221.142	9.56
221.36	3.41
221.578	25.94
221.796	25.94
222.015	-6.83
222.233	89.43
222.451	25.94
222.669	-0.68
222.887	13.65
223.105	-6.83
223.323	-0.68
223.541	17.75
223.759	27.99
223.977	-12.97
224.195	46.42
224.413	9.56
224.631	38.23
224.849	-12.97
225.067	66.9
225.285	-49.83
225.503	9.56
225.721	15.7
225.939	-21.16
226.157	5.46
226.375	64.85
226.592	68.95
226.81	36.18
227.028	-29.35
227.246	34.13
227.464	19.8
227.682	79.19
227.9	44.37
228.117	146.77
228.335	25.94
228.553	50.52
228.771	3.41
228.989	-4.78
229.206	25.94
229.424	-0.68
229.642	-49.83
229.86	-25.26
230.077	64.85
230.295	48.47
230.513	46.42
230.731	48.47
230.948	48.47
231.166	34.13
231.384	87.38
231.601	9.56
231.819	87.38
232.037	3.41
232.254	23.89
232.472	13.65
232.689	9.56
232.907	87.38
233.125	25.94
233.342	93.52
233.56	11.61
233.777	38.23
233.995	13.65
234.213	42.32
234.43	7.51
234.648	-31.4
234.865	50.52
235.083	-0.68
235.3	27.99
235.518	5.46
235.735	-2.73
235.953	99.67
236.17	17.75
236.388	-47.79
236.605	-31.4
236.822	87.38
237.04	79.19
237.257	15.7
237.475	-2.73
237.692	15.7
237.909	54.61
238.127	-0.68
238.344	71
238.562	21.85
238.779	52.56
238.996	32.08
239.214	15.7
239.431	-58.03
239.648	19.8
239.865	58.71
240.083	60.76
240.3	-17.07
240.517	40.28
240.735	56.66
240.952	99.67
241.169	-25.26
241.386	19.8
241.603	25.94
241.821	9.56
242.038	40.28
242.255	34.13
242.472	-10.92
242.689	52.56
242.907	124.24
243.124	1.37
243.341	23.89
243.558	-25.26
243.775	-12.97
243.992	1.37
244.209	120.15
244.426	21.85
244.643	38.23
244.86	15.7
245.078	83.28
245.295	-25.26
245.512	15.7
245.729	1.37
245.946	56.66
246.163	17.75
246.38	54.61
246.597	56.66
246.814	9.56
247.031	62.8
247.248	25.94
247.464	62.8
247.681	105.81
247.898	54.61
248.115	48.47
248.332	-2.73
248.549	122.2
248.766	58.71
248.983	62.8
249.2	50.52
249.417	38.23
249.633	52.56
249.85	87.38
250.067	46.42
250.284	19.8
250.501	7.51
250.717	-23.21
250.934	-23.21
251.151	-12.97
251.368	21.85
251.585	68.95
251.801	56.66
252.018	34.13
252.235	95.57
252.451	-17.07
252.668	11.61
252.885	3.41
253.102	30.04
253.318	58.71
253.535	-12.97
253.752	5.46
253.968	13.65
254.185	15.7
254.401	46.42
254.618	58.71
254.835	-0.68
255.051	109.91
255.268	44.37
255.484	13.65
255.701	60.76
255.917	-10.92
256.134	9.56
256.351	75.09
256.567	-8.87
256.784	9.56
257	-10.92
257.217	-43.69
257.433	79.19
257.65	1.37
257.866	-33.45
258.082	27.99
258.299	3.41
258.515	44.37
258.732	-2.73
258.948	52.56
259.165	-4.78
259.381	48.47
259.597	1.37
259.814	40.28
260.03	38.23
260.246	13.65
260.463	40.28
260.679	99.67
260.895	46.42
261.112	62.8
261.328	7.51
261.544	66.9
261.761	56.66
261.977	68.95
262.193	5.46
262.409	93.52
262.626	5.46
262.842	48.47
263.058	54.61
263.274	89.43
263.49	46.42
263.707	23.89
263.923	-8.87
264.139	25.94
264.355	40.28
264.571	81.24
264.787	36.18
265.004	85.33
265.22	85.33
265.436	50.52
265.652	87.38
265.868	23.89
266.084	3.41
266.3	7.51
266.516	-19.11
266.732	-2.73
266.948	64.85
267.164	38.23
267.38	-17.07
267.596	46.42
267.812	-27.31
268.028	-6.83
268.244	9.56
268.46	46.42
268.676	-25.26
268.892	54.61
269.108	36.18
269.324	1.37
269.54	-45.74
269.756	32.08
269.972	-74.41
270.188	54.61
270.403	7.51
270.619	93.52
270.835	36.18
271.051	13.65
271.267	122.2
271.483	50.52
271.698	36.18
271.914	23.89
272.13	38.23
272.346	27.99
272.562	77.14
272.777	42.32
272.993	50.52
273.209	75.09
273.425	21.85
273.64	81.24
273.856	17.75
274.072	15.7
274.287	50.52
274.503	52.56
274.719	15.7
274.934	-23.21
275.15	-15.02
275.366	46.42
275.581	-15.02
275.797	36.18
276.012	-23.21
276.228	17.75
276.444	-0.68
276.659	73.04
276.875	17.75
277.09	21.85
277.306	23.89
277.521	101.72
277.737	-23.21
277.952	15.7
278.168	54.61
278.383	50.52
278.599	-2.73
278.814	81.24
279.03	13.65
279.245	114
279.461	68.95
279.676	87.38
279.892	7.51
280.107	-53.93
280.322	-41.64
280.538	9.56
280.753	44.37
280.969	-19.11
281.184	71
281.399	146.77
281.615	79.19
281.83	52.56
282.045	25.94
282.26	-27.31
282.476	32.08
282.691	-15.02
282.906	-25.26
283.122	-8.87
283.337	-19.11
283.552	-0.68
283.767	5.46
283.983	36.18
284.198	68.95
284.413	83.28
284.628	19.8
284.843	52.56
285.058	11.61
285.274	27.99
285.489	40.28
285.704	64.85
285.919	30.04
286.134	-35.5
286.349	-17.07
286.564	-4.78
286.779	32.08
286.995	21.85
287.21	-35.5
287.425	-0.68
287.64	5.46
287.855	68.95
288.07	17.75
288.285	118.1
288.5	25.94
288.715	-33.45
288.93	30.04
289.145	25.94
289.36	64.85
289.575	103.76
289.79	27.99
290.004	87.38
290.219	66.9
290.434	19.8
290.649	-12.97
290.864	1.37
291.079	50.52
291.294	25.94
291.509	58.71
291.724	7.51
291.938	46.42
292.153	62.8
292.368	30.04
292.583	32.08
292.798	11.61
293.012	42.32
293.227	50.52
293.442	3.41
293.657	66.9
293.871	111.96
294.086	73.04
294.301	34.13
294.516	21.85
294.73	89.43
294.945	34.13
295.16	-10.92
295.374	23.89
295.589	95.57
295.804	38.23
296.018	36.18
296.233	-12.97
296.447	89.43
296.662	30.04
296.877	66.9
297.091	50.52
297.306	30.04
297.52	77.14
297.735	19.8
297.949	-39.59
298.164	15.7
298.378	56.66
298.593	46.42
298.807	25.94
299.022	-6.83
299.236	126.29
299.451	46.42
299.665	21.85
299.88	-8.87
300.094	40.28
300.309	144.72
300.523	40.28
300.737	36.18
300.952	85.33
301.166	1.37
301.381	21.85
301.595	27.99
301.809	36.18
302.024	50.52
302.238	66.9
302.452	-31.4
302.667	30.04
302.881	54.61
303.095	17.75
303.309	50.52
303.524	5.46
303.738	48.47
303.952	95.57
304.166	54.61
304.381	34.13
304.595	58.71
304.809	-19.11
305.023	87.38
305.237	30.04
305.452	-0.68
305.666	-2.73
305.88	27.99
306.094	75.09
306.308	34.13
306.522	13.65
306.736	54.61
306.95	50.52
307.164	11.61
307.379	50.52
307.593	21.85
307.807	25.94
308.021	1.37
308.235	56.66
308.449	46.42
308.663	68.95
308.877	77.14
309.091	-12.97
309.305	71
309.519	25.94
309.733	48.47
309.947	17.75
310.161	81.24
310.374	-27.31
310.588	64.85
310.802	48.47
311.016	27.99
311.23	114
311.444	5.46
311.658	-29.35
311.872	136.53
312.085	-23.21
312.299	60.76
312.513	-39.59
312.727	32.08
312.941	-29.35
313.154	42.32
313.368	64.85
313.582	19.8
313.796	42.32
314.009	3.41
314.223	15.7
314.437	64.85
314.651	42.32
314.864	-8.87
315.078	-21.16
315.292	-21.16
315.505	56.66
315.719	75.09
315.933	-2.73
316.146	7.51
316.36	-10.92
316.573	-4.78
316.787	79.19
317.001	5.46
317.214	-31.4
317.428	46.42
317.641	64.85
317.855	17.75
318.068	13.65
318.282	77.14
318.495	44.37
318.709	54.61
318.922	-2.73
319.136	62.8
319.349	62.8
319.563	36.18
319.776	34.13
319.99	25.94
320.203	-2.73
320.417	40.28
320.63	75.09
320.843	152.92
321.057	56.66
321.27	62.8
321.483	91.48
321.697	11.61
321.91	17.75
322.124	32.08
322.337	79.19
322.55	34.13
322.763	75.09
322.977	19.8
323.19	27.99
323.403	15.7
323.617	1.37
323.83	23.89
324.043	-31.4
324.256	83.28
324.469	19.8
324.683	-35.5
324.896	-10.92
325.109	79.19
325.322	13.65
325.535	3.41
325.748	114
325.962	46.42
326.175	77.14
326.388	38.23
326.601	122.2
326.814	38.23
327.027	50.52
327.24	-21.16
327.453	23.89
327.666	50.52
327.879	40.28
328.092	58.71
328.305	79.19
328.518	11.61
328.731	13.65
328.944	-19.11
329.157	44.37
329.37	17.75
329.583	48.47
329.796	148.82
330.009	-4.78
330.222	52.56
330.435	71
330.648	71
330.861	34.13
331.073	-4.78
331.286	36.18
331.499	17.75
331.712	-49.83
331.925	46.42
332.138	56.66
332.35	-10.92
332.563	-4.78
332.776	42.32
332.989	13.65
333.202	91.48
333.414	66.9
333.627	32.08
333.84	58.71
334.053	140.63
334.265	21.85
334.478	68.95
334.691	52.56
334.903	9.56
335.116	97.62
335.329	116.05
335.541	19.8
335.754	62.8
335.966	7.51
336.179	5.46
336.392	71
336.604	17.75
336.817	118.1
337.029	32.08
337.242	38.23
337.454	66.9
337.667	-4.78
337.88	68.95
338.092	27.99
338.305	62.8
338.517	-8.87
338.729	60.76
338.942	46.42
339.154	77.14
339.367	-31.4
339.579	71
339.792	-19.11
340.004	68.95
340.217	-27.31
340.429	81.24
340.641	64.85
340.854	109.91
341.066	34.13
341.278	42.32
341.491	42.32
341.703	54.61
341.915	-4.78
342.128	17.75
342.34	-12.97
342.552	23.89
342.764	36.18
342.977	60.76
343.189	9.56
343.401	79.19
343.613	-6.83
343.826	15.7
344.038	-37.55
344.25	54.61
344.462	40.28
344.674	75.09
344.886	11.61
345.099	111.96
345.311	56.66
345.523	34.13
345.735	62.8
345.947	44.37
346.159	44.37
346.371	19.8
346.583	17.75
346.795	36.18
347.007	46.42
347.219	58.71
347.431	62.8
347.643	52.56
347.855	13.65
348.067	9.56
348.279	34.13
348.491	114
348.703	25.94
348.915	83.28
349.127	21.85
349.339	-2.73
349.551	-10.92
349.763	95.57
349.975	-2.73
350.187	30.04
350.399	40.28
350.61	32.08
350.822	40.28
351.034	32.08
351.246	-19.11
351.458	140.63
351.669	9.56
351.881	-27.31
352.093	25.94
352.305	34.13
352.517	9.56
352.728	95.57
352.94	42.32
353.152	75.09
353.363	27.99
353.575	-12.97
353.787	87.38
353.999	44.37
354.21	38.23
354.422	27.99
354.633	19.8
354.845	50.52
355.057	3.41
355.268	60.76
355.48	9.56
355.692	-10.92
355.903	52.56
356.115	56.66
356.326	30.04
356.538	71
356.749	64.85
356.961	107.86
357.172	42.32
357.384	-15.02
357.595	83.28
357.807	-6.83
358.018	54.61
358.23	25.94
358.441	54.61
358.653	44.37
358.864	64.85
359.075	46.42
359.287	-2.73
359.498	44.37
359.709	13.65
359.921	-23.21
360.132	46.42
360.344	48.47
360.555	3.41
360.766	36.18
360.977	23.89
361.189	50.52
361.4	54.61
361.611	23.89
361.823	50.52
362.034	109.91
362.245	77.14
362.456	71
362.667	32.08
362.879	15.7
363.09	30.04
363.301	77.14
363.512	56.66
363.723	1.37
363.935	-35.5
364.146	-8.87
364.357	21.85
364.568	62.8
364.779	-15.02
364.99	32.08
365.201	68.95
365.412	79.19
365.623	-4.78
365.834	-4.78
366.045	30.04
366.256	105.81
366.467	62.8
366.678	58.71
366.889	23.89
367.1	85.33
367.311	101.72
367.522	27.99
367.733	7.51
367.944	107.86
368.155	32.08
368.366	30.04
368.577	-0.68
368.788	44.37
368.999	105.81
369.209	93.52
369.42	99.67
369.631	71
369.842	73.04
370.053	130.39
370.264	27.99
370.474	73.04
370.685	68.95
370.896	83.28
371.107	54.61
371.317	9.56
371.528	11.61
371.739	62.8
371.95	99.67
372.16	89.43
372.371	64.85
372.582	30.04
372.792	-2.73
373.003	83.28
373.214	85.33
373.424	-23.21
373.635	25.94
373.846	40.28
374.056	23.89
374.267	60.76
374.477	54.61
374.688	21.85
374.898	91.48
375.109	5.46
375.319	-15.02
375.53	95.57
375.74	62.8
375.951	64.85
376.161	50.52
376.372	15.7
376.582	42.32
376.793	60.76
377.003	54.61
377.214	60.76
377.424	71
377.635	46.42
377.845	34.13
378.055	87.38
378.266	150.87
378.476	36.18
378.686	46.42
378.897	91.48
379.107	62.8
379.317	62.8
379.528	25.94
379.738	50.52
379.948	116.05
380.158	5.46
380.369	30.04
380.579	34.13
380.789	11.61
380.999	34.13
381.21	42.32
381.42	97.62
381.63	34.13
381.84	-0.68
382.05	58.71
382.261	42.32
382.471	83.28
382.681	23.89
382.891	77.14
383.101	34.13
383.311	93.52
383.521	64.85
383.731	58.71
383.941	91.48
384.151	-2.73
384.361	91.48
384.571	99.67
384.781	124.24
384.991	71
385.201	58.71
385.411	81.24
385.621	77.14
385.831	75.09
386.041	66.9
386.251	5.46
386.461	120.15
386.671	-0.68
386.881	66.9
387.091	7.51
387.301	23.89
387.511	38.23
387.72	124.24
387.93	-17.07
388.14	1.37
388.35	103.76
388.56	89.43
388.769	62.8
388.979	-17.07
389.189	91.48
389.399	7.51
389.609	42.32
389.818	87.38
390.028	81.24
390.238	60.76
390.447	34.13
390.657	46.42
390.867	85.33
391.076	68.95
391.286	23.89
391.496	34.13
391.705	42.32
391.915	85.33
392.125	95.57
392.334	50.52
392.544	122.2
392.753	48.47
392.963	1.37
393.172	77.14
393.382	52.56
393.591	66.9
393.801	81.24
394.01	95.57
394.22	73.04
394.429	101.72
394.639	56.66
394.848	44.37
395.058	111.96
395.267	83.28
395.477	99.67
395.686	214.35
395.895	124.24
396.105	89.43
396.314	83.28
396.524	144.72
396.733	77.14
396.942	34.13
397.152	193.87
397.361	114
397.57	95.57
397.78	83.28
397.989	60.76
398.198	105.81
398.407	46.42
398.617	83.28
398.826	109.91
399.035	140.63
399.244	138.58
399.453	97.62
399.663	79.19
399.872	75.09
400.081	103.76
400.29	93.52
400.499	-4.78
400.708	126.29
400.917	56.66
401.127	60.76
401.336	91.48
401.545	120.15
401.754	107.86
401.963	109.91
402.172	91.48
402.381	136.53
402.59	146.77
402.799	34.13
403.008	109.91
403.217	116.05
403.426	40.28
403.635	81.24
403.844	118.1
404.053	124.24
404.262	25.94
404.471	234.83
404.68	142.68
404.888	161.11
405.097	126.29
405.306	200.02
405.515	175.44
405.724	132.44
405.933	163.15
406.142	202.07
406.35	216.4
406.559	269.65
406.768	204.11
406.977	206.16
407.185	210.26
407.394	259.41
407.603	140.63
407.812	189.78
408.02	173.39
408.229	240.98
408.438	134.48
408.646	161.11
408.855	251.22
409.064	314.7
409.272	220.5
409.481	283.99
409.69	234.83
409.898	312.66
410.107	265.55
410.315	292.18
410.524	310.61
410.733	320.85
410.941	351.57
411.15	275.79
411.358	378.19
411.567	386.38
411.775	365.9
411.984	451.92
412.192	376.14
412.401	367.95
412.609	451.92
412.818	443.73
413.026	421.2
413.234	429.39
413.443	554.32
413.651	453.97
413.86	503.12
414.068	570.7
414.276	570.7
414.485	511.31
414.693	626
414.901	638.28
415.11	640.33
415.318	572.75
415.526	640.33
415.734	648.52
415.943	726.35
416.151	783.69
416.359	818.5
416.567	804.17
416.776	867.66
416.984	869.7
417.192	927.05
417.4	939.34
417.608	1027.4
417.817	949.57
418.025	1004.87
418.233	1072.45
418.441	1008.97
418.649	1103.17
418.857	1213.76
419.065	1328.45
419.273	1103.17
419.481	1185.09
419.689	1387.84
419.897	1301.83
420.105	1486.14
420.313	1426.75
420.521	1527.1
420.729	1484.09
420.937	1584.45
421.145	1643.84
421.353	1629.5
421.561	1809.72
421.769	1862.97
421.977	1817.91
422.185	1885.5
422.393	1926.46
422.601	2159.92
422.809	2055.48
423.017	2174.26
423.224	2313.52
423.432	2274.61
423.64	2368.82
423.848	2465.07
424.056	2463.02
424.263	2694.44
424.471	2671.92
424.679	2680.11
424.887	2741.55
425.094	2895.15
425.302	2938.15
425.51	3032.36
425.718	3167.53
425.925	3200.29
426.133	3265.83
426.341	3441.95
426.548	3708.19
426.756	3671.33
426.964	3712.28
427.171	3898.65
427.379	3984.66
427.586	4035.86
427.794	4070.68
428.001	4209.94
428.209	4531.47
428.417	4414.74
428.624	4750.6
428.832	4711.69
429.039	4754.7
429.247	4689.17
429.454	5354.76
429.662	5451.01
429.869	5195.01
430.076	5655.81
430.284	5467.39
430.491	5704.96
430.699	5897.47
430.906	5911.8
431.114	6081.78
431.321	6268.15
431.528	6372.6
431.736	6759.66
431.943	7175.4
432.15	6937.84
432.358	6915.31
432.565	7294.18
432.772	7324.9
432.979	7558.37
433.187	7709.92
433.394	7648.48
433.601	8457.43
433.808	8453.33
434.016	8269.02
434.223	8783.06
434.43	9241.8
434.637	9284.81
434.844	9796.8
435.052	10060.99
435.259	9628.87
435.466	9919.68
435.673	9751.74
435.88	10394.81
436.087	11115.69
436.294	11132.08
436.501	10564.79
436.708	10972.33
436.915	11392.17
437.122	11670.69
437.329	11758.75
437.537	12215.45
437.743	12203.16
437.95	12332.19
438.157	12831.89
438.364	13200.52
438.571	13157.52
438.778	13497.48
438.985	14750.84
439.192	13997.18
439.399	14574.71
439.606	13972.61
439.813	14894.19
440.02	15621.22
440.227	15389.8
440.433	15342.7
440.64	15899.75
440.847	15887.46
441.054	16057.44
441.261	17495.11
441.467	16927.83
441.674	17380.43
441.881	17876.04
442.088	18062.4
442.294	17976.39
442.501	18273.34
442.708	18740.28
442.914	19530.8
443.121	20143.14
443.328	19780.65
443.534	21113.88
443.741	20728.86
443.948	19973.16
444.154	21842.95
444.361	21523.47
444.568	21769.23
444.774	21822.47
444.981	21910.53
445.187	22318.08
445.394	23620.59
445.6	23116.79
445.807	25357.27
446.013	24538.08
446.22	24701.92
446.426	25859.02
446.633	26022.86
446.839	26762.17
447.046	25797.58
447.252	27087.8
447.459	26950.59
447.665	27167.67
447.871	28220.33
448.078	29252.5
448.284	28003.24
448.491	28861.34
448.697	29784.97
448.903	30495.62
449.11	30604.16
449.316	29918.09
449.522	30288.78
449.728	31148.92
449.935	31325.05
450.141	31400.82
450.347	32050.03
450.553	30968.7
450.76	31349.62
450.966	32775.01
451.172	32271.21
451.378	32865.12
451.584	32488.29
451.791	32955.23
451.997	32918.37
452.203	33200.99
452.409	33180.51
452.615	32942.94
452.821	31933.29
453.027	31671.15
453.233	33039.2
453.44	31734.64
453.646	32119.66
453.852	32043.88
454.058	33137.5
454.264	31888.24
454.47	32236.39
454.676	31695.73
454.882	32846.69
455.088	29987.72
455.294	30399.37
455.5	30524.29
455.705	31267.7
455.911	30002.06
456.117	29371.29
456.323	28623.78
456.529	27433.91
456.735	28105.64
456.941	27540.4
457.147	27253.69
457.352	26371.01
457.558	26031.05
457.764	26162.12
457.97	25861.07
458.176	25177.05
458.381	25199.57
458.587	23632.88
458.793	23741.42
458.999	22522.88
459.204	24507.36
459.41	23634.92
459.616	21949.45
459.821	21830.66
460.027	22109.19
460.233	21595.15
460.438	20134.95
460.644	20706.33
460.85	19690.54
461.055	19479.6
461.261	19274.8
461.466	18033.73
461.672	17468.49
461.878	18697.27
462.083	17302.61
462.289	17142.86
462.494	16782.42
462.7	16419.93
462.905	16006.24
463.111	16378.97
463.316	16395.36
463.522	16086.11
463.727	16305.24
463.932	15957.09
464.138	15561.83
464.343	15512.68
464.549	15500.39
464.754	15823.97
464.959	15895.65
465.165	15633.51
465.37	14945.39
465.575	14677.11
465.781	15223.92
465.986	15463.53
466.191	14580.85
466.397	14421.11
466.602	13655.17
466.807	14324.86
467.012	14359.67
467.218	14214.27
467.423	14115.97
467.628	14347.39
467.833	14513.27
468.038	14441.59
468.244	13679.75
468.449	14386.3
468.654	13960.32
468.859	13808.77
469.064	13575.3
