Data from USB4F104151__99__11-07-01-240.txt Node

Date: Wed Mar 12 11:07:01 EDT 2025
User: louis
Spectrometer: USB4F10415
Trigger mode: 4
Integration Time (sec): 2.000000E-2
Scans to average: 1
Electric dark correction enabled: true
Nonlinearity correction enabled: false
Boxcar width: 0
XAxis mode: Wavelengths
Number of Pixels in Spectrum: 3648
>>>>>Begin Spectral Data<<<<<
178.204	-95.57
178.424	-95.57
178.644	-95.57
178.864	-136.53
179.084	-66.9
179.304	-13.65
179.524	-46.42
179.744	-60.76
179.964	60.07
180.184	-25.94
180.404	25.26
180.624	-36.18
180.844	39.59
181.064	-11.61
181.283	29.35
181.503	35.5
181.723	4.78
181.943	-15.7
182.163	-7.51
182.383	10.92
182.602	64.17
182.822	-44.37
183.042	41.64
183.262	-7.51
183.482	-32.08
183.701	-21.84
183.921	49.83
184.141	29.35
184.361	43.69
184.58	21.16
184.8	41.64
185.02	-23.89
185.239	12.97
185.459	-50.52
185.679	-36.18
185.898	-36.18
186.118	72.36
186.338	-5.46
186.557	6.83
186.777	25.26
186.997	31.4
187.216	27.31
187.436	-1.37
187.655	-48.47
187.875	103.08
188.095	15.02
188.314	-36.18
188.534	-40.28
188.753	-17.75
188.973	45.74
189.192	47.79
189.412	-54.61
189.631	-13.65
189.851	-11.61
190.07	25.26
190.29	15.02
190.509	-11.61
190.729	17.07
190.948	29.35
191.168	62.12
191.387	27.31
191.607	-25.94
191.826	-17.75
192.045	25.26
192.265	17.07
192.484	-32.08
192.704	-17.75
192.923	-3.41
193.142	119.46
193.362	4.78
193.581	35.5
193.8	12.97
194.02	31.4
194.239	4.78
194.458	72.36
194.678	6.83
194.897	31.4
195.116	-25.94
195.335	43.69
195.555	29.35
195.774	31.4
195.993	62.12
196.212	10.92
196.432	70.31
196.651	70.31
196.87	45.74
197.089	37.55
197.308	4.78
197.528	-15.7
197.747	-11.61
197.966	8.87
198.185	68.27
198.404	-5.46
198.623	-38.23
198.842	35.5
199.062	70.31
199.281	4.78
199.5	21.16
199.719	25.26
199.938	41.64
200.157	0.68
200.376	25.26
200.595	0.68
200.814	8.87
201.033	0.68
201.252	17.07
201.471	-5.46
201.69	12.97
201.909	-25.94
202.128	62.12
202.347	62.12
202.566	-85.33
202.785	-103.76
203.004	62.12
203.223	45.74
203.442	88.75
203.661	-3.41
203.879	68.27
204.098	2.73
204.317	27.31
204.536	0.68
204.755	-38.23
204.974	170.66
205.193	27.31
205.411	60.07
205.63	86.7
205.849	10.92
206.068	6.83
206.287	-50.52
206.505	35.5
206.724	55.98
206.943	21.16
207.162	37.55
207.381	-11.61
207.599	39.59
207.818	-23.89
208.037	55.98
208.255	27.31
208.474	-1.37
208.693	12.97
208.911	70.31
209.13	55.98
209.349	10.92
209.567	86.7
209.786	60.07
210.005	8.87
210.223	17.07
210.442	-48.47
210.661	17.07
210.879	39.59
211.098	-1.37
211.316	-44.37
211.535	33.45
211.753	-27.99
211.972	17.07
212.191	41.64
212.409	43.69
212.628	41.64
212.846	41.64
213.065	37.55
213.283	8.87
213.502	58.03
213.72	-21.84
213.938	8.87
214.157	-21.84
214.375	45.74
214.594	55.98
214.812	-5.46
215.031	70.31
215.249	0.68
215.467	31.4
215.686	10.92
215.904	2.73
216.122	101.03
216.341	-73.04
216.559	58.03
216.778	19.11
216.996	8.87
217.214	-40.28
217.432	-19.8
217.651	4.78
217.869	84.65
218.087	19.11
218.306	25.26
218.524	25.26
218.742	76.46
218.96	27.31
219.179	-36.18
219.397	35.5
219.615	-36.18
219.833	21.16
220.051	-54.61
220.27	78.51
220.488	62.12
220.706	-7.51
220.924	31.4
221.142	-5.46
221.36	55.98
221.578	37.55
221.796	4.78
222.015	-1.37
222.233	-44.37
222.451	68.27
222.669	101.03
222.887	86.7
223.105	-58.71
223.323	-7.51
223.541	53.93
223.759	6.83
223.977	-56.66
224.195	21.16
224.413	-23.89
224.631	31.4
224.849	-23.89
225.067	72.36
225.285	-42.32
225.503	64.17
225.721	-34.13
225.939	-30.04
226.157	60.07
226.375	51.88
226.592	-23.89
226.81	51.88
227.028	101.03
227.246	62.12
227.464	-40.28
227.682	19.11
227.9	15.02
228.117	-40.28
228.335	35.5
228.553	49.83
228.771	29.35
228.989	27.31
229.206	-38.23
229.424	39.59
229.642	8.87
229.86	-38.23
230.077	-11.61
230.295	-36.18
230.513	39.59
230.731	2.73
230.948	0.68
231.166	-23.89
231.384	-19.8
231.601	64.17
231.819	8.87
232.037	41.64
232.254	-7.51
232.472	12.97
232.689	-7.51
232.907	6.83
233.125	33.45
233.342	17.07
233.56	31.4
233.777	51.88
233.995	2.73
234.213	31.4
234.43	8.87
234.648	6.83
234.865	72.36
235.083	86.7
235.3	-17.75
235.518	19.11
235.735	0.68
235.953	98.99
236.17	25.26
236.388	66.22
236.605	-38.23
236.822	58.03
237.04	-5.46
237.257	37.55
237.475	33.45
237.692	103.08
237.909	43.69
238.127	10.92
238.344	29.35
238.562	84.65
238.779	-21.84
238.996	-13.65
239.214	35.5
239.431	39.59
239.648	72.36
239.865	17.07
240.083	0.68
240.3	29.35
240.517	25.26
240.735	21.16
240.952	-17.75
241.169	101.03
241.386	60.07
241.603	-15.7
241.821	17.07
242.038	25.26
242.255	82.6
242.472	-3.41
242.689	58.03
242.907	23.21
243.124	-13.65
243.341	8.87
243.558	-3.41
243.775	60.07
243.992	0.68
244.209	45.74
244.426	74.41
244.643	37.55
244.86	-77.14
245.078	-1.37
245.295	-34.13
245.512	23.21
245.729	25.26
245.946	12.97
246.163	-38.23
246.38	2.73
246.597	15.02
246.814	-7.51
247.031	-3.41
247.248	66.22
247.464	82.6
247.681	47.79
247.898	45.74
248.115	37.55
248.332	-7.51
248.549	82.6
248.766	62.12
248.983	29.35
249.2	17.07
249.417	15.02
249.633	27.31
249.85	-25.94
250.067	-13.65
250.284	80.55
250.501	-15.7
250.717	19.11
250.934	119.46
251.151	80.55
251.368	-44.37
251.585	4.78
251.801	72.36
252.018	-19.8
252.235	33.45
252.451	86.7
252.668	17.07
252.885	70.31
253.102	70.31
253.318	-32.08
253.535	-17.75
253.752	12.97
253.968	8.87
254.185	-3.41
254.401	58.03
254.618	86.7
254.835	2.73
255.051	25.26
255.268	76.46
255.484	-1.37
255.701	-3.41
255.917	37.55
256.134	-50.52
256.351	-21.84
256.567	64.17
256.784	12.97
257	31.4
257.217	2.73
257.433	21.16
257.65	31.4
257.866	-1.37
258.082	86.7
258.299	39.59
258.515	45.74
258.732	-42.32
258.948	39.59
259.165	53.93
259.381	21.16
259.597	84.65
259.814	64.17
260.03	35.5
260.246	2.73
260.463	37.55
260.679	39.59
260.895	29.35
261.112	74.41
261.328	-27.99
261.544	37.55
261.761	64.17
261.977	-3.41
262.193	66.22
262.409	0.68
262.626	90.79
262.842	64.17
263.058	4.78
263.274	-15.7
263.49	15.02
263.707	45.74
263.923	49.83
264.139	-23.89
264.355	-54.61
264.571	51.88
264.787	8.87
265.004	25.26
265.22	29.35
265.436	0.68
265.652	29.35
265.868	76.46
266.084	80.55
266.3	127.66
266.516	-36.18
266.732	-56.66
266.948	58.03
267.164	-3.41
267.38	35.5
267.596	4.78
267.812	-15.7
268.028	-19.8
268.244	45.74
268.46	-30.04
268.676	23.21
268.892	66.22
269.108	-56.66
269.324	43.69
269.54	-3.41
269.756	62.12
269.972	37.55
270.188	-25.94
270.403	62.12
270.619	-9.56
270.835	41.64
271.051	49.83
271.267	62.12
271.483	109.23
271.698	-64.85
271.914	35.5
272.13	23.21
272.346	64.17
272.562	6.83
272.777	55.98
272.993	15.02
273.209	45.74
273.425	41.64
273.64	12.97
273.856	27.31
274.072	62.12
274.287	-1.37
274.503	53.93
274.719	80.55
274.934	58.03
275.15	21.16
275.366	10.92
275.581	10.92
275.797	86.7
276.012	29.35
276.228	12.97
276.444	43.69
276.659	4.78
276.875	0.68
277.09	-7.51
277.306	51.88
277.521	-5.46
277.737	-11.61
277.952	-15.7
278.168	125.61
278.383	47.79
278.599	45.74
278.814	-13.65
279.03	-38.23
279.245	35.5
279.461	76.46
279.676	2.73
279.892	-44.37
280.107	51.88
280.322	27.31
280.538	96.94
280.753	35.5
280.969	64.17
281.184	58.03
281.399	8.87
281.615	70.31
281.83	62.12
282.045	29.35
282.26	-40.28
282.476	-50.52
282.691	-7.51
282.906	6.83
283.122	-7.51
283.337	47.79
283.552	31.4
283.767	-3.41
283.983	66.22
284.198	94.89
284.413	78.51
284.628	-30.04
284.843	-7.51
285.058	8.87
285.274	23.21
285.489	39.59
285.704	43.69
285.919	27.31
286.134	29.35
286.349	-19.8
286.564	-36.18
286.779	8.87
286.995	41.64
287.21	-7.51
287.425	41.64
287.64	10.92
287.855	82.6
288.07	49.83
288.285	-9.56
288.5	21.16
288.715	47.79
288.93	-50.52
289.145	92.84
289.36	-9.56
289.575	88.75
289.79	-11.61
290.004	2.73
290.219	17.07
290.434	-25.94
290.649	-34.13
290.864	-40.28
291.079	-38.23
291.294	55.98
291.509	51.88
291.724	-3.41
291.938	17.07
292.153	60.07
292.368	82.6
292.583	-40.28
292.798	23.21
293.012	-7.51
293.227	64.17
293.442	37.55
293.657	12.97
293.871	60.07
294.086	66.22
294.301	101.03
294.516	-7.51
294.73	82.6
294.945	-60.76
295.16	6.83
295.374	55.98
295.589	43.69
295.804	23.21
296.018	31.4
296.233	41.64
296.447	33.45
296.662	-25.94
296.877	-32.08
297.091	-11.61
297.306	-11.61
297.52	25.26
297.735	23.21
297.949	-5.46
298.164	82.6
298.378	-36.18
298.593	29.35
298.807	10.92
299.022	-7.51
299.236	25.26
299.451	-11.61
299.665	60.07
299.88	-11.61
300.094	35.5
300.309	-30.04
300.523	12.97
300.737	-13.65
300.952	45.74
301.166	10.92
301.381	37.55
301.595	-23.89
301.809	68.27
302.024	-7.51
302.238	55.98
302.452	70.31
302.667	-38.23
302.881	53.93
303.095	17.07
303.309	37.55
303.524	51.88
303.738	64.17
303.952	-13.65
304.166	66.22
304.381	45.74
304.595	94.89
304.809	10.92
305.023	53.93
305.237	78.51
305.452	55.98
305.666	-3.41
305.88	-1.37
306.094	45.74
306.308	72.36
306.522	68.27
306.736	72.36
306.95	39.59
307.164	33.45
307.379	-40.28
307.593	43.69
307.807	72.36
308.021	96.94
308.235	90.79
308.449	4.78
308.663	8.87
308.877	62.12
309.091	90.79
309.305	29.35
309.519	-66.9
309.733	25.26
309.947	12.97
310.161	47.79
310.374	64.17
310.588	66.22
310.802	8.87
311.016	90.79
311.23	-1.37
311.444	-9.56
311.658	-36.18
311.872	0.68
312.085	62.12
312.299	-15.7
312.513	10.92
312.727	-9.56
312.941	29.35
313.154	64.17
313.368	74.41
313.582	-11.61
313.796	86.7
314.009	-5.46
314.223	19.11
314.437	21.16
314.651	25.26
314.864	17.07
315.078	76.46
315.292	-56.66
315.505	23.21
315.719	66.22
315.933	-9.56
316.146	-54.61
316.36	70.31
316.573	72.36
316.787	35.5
317.001	33.45
317.214	47.79
317.428	62.12
317.641	35.5
317.855	-5.46
318.068	-3.41
318.282	154.28
318.495	-25.94
318.709	-40.28
318.922	21.16
319.136	39.59
319.349	-13.65
319.563	35.5
319.776	31.4
319.99	-27.99
320.203	-17.75
320.417	86.7
320.63	94.89
320.843	92.84
321.057	12.97
321.27	-5.46
321.483	72.36
321.697	39.59
321.91	-30.04
322.124	33.45
322.337	62.12
322.55	4.78
322.763	47.79
322.977	45.74
323.19	-87.38
323.403	45.74
323.617	-27.99
323.83	47.79
324.043	23.21
324.256	-3.41
324.469	47.79
324.683	37.55
324.896	-5.46
325.109	33.45
325.322	-15.7
325.535	105.13
325.748	70.31
325.962	-3.41
326.175	53.93
326.388	53.93
326.601	21.16
326.814	45.74
327.027	-54.61
327.24	62.12
327.453	-23.89
327.666	53.93
327.879	-3.41
328.092	12.97
328.305	-9.56
328.518	-3.41
328.731	-38.23
328.944	94.89
329.157	119.46
329.37	17.07
329.583	158.38
329.796	51.88
330.009	27.31
330.222	12.97
330.435	70.31
330.648	80.55
330.861	0.68
331.073	-3.41
331.286	107.18
331.499	58.03
331.712	-7.51
331.925	25.26
332.138	-30.04
332.35	70.31
332.563	39.59
332.776	86.7
332.989	-13.65
333.202	19.11
333.414	-15.7
333.627	17.07
333.84	82.6
334.053	90.79
334.265	27.31
334.478	19.11
334.691	45.74
334.903	78.51
335.116	10.92
335.329	111.27
335.541	74.41
335.754	41.64
335.966	123.56
336.179	12.97
336.392	25.26
336.604	12.97
336.817	131.75
337.029	17.07
337.242	39.59
337.454	4.78
337.667	-15.7
337.88	53.93
338.092	4.78
338.305	80.55
338.517	12.97
338.729	60.07
338.942	35.5
339.154	-34.13
339.367	84.65
339.579	53.93
339.792	-60.76
340.004	74.41
340.217	6.83
340.429	-15.7
340.641	-5.46
340.854	23.21
341.066	-23.89
341.278	123.56
341.491	41.64
341.703	-21.84
341.915	88.75
342.128	74.41
342.34	117.42
342.552	12.97
342.764	19.11
342.977	33.45
343.189	-19.8
343.401	-23.89
343.613	-25.94
343.826	53.93
344.038	10.92
344.25	49.83
344.462	74.41
344.674	4.78
344.886	-13.65
345.099	2.73
345.311	45.74
345.523	43.69
345.735	60.07
345.947	23.21
346.159	78.51
346.371	8.87
346.583	-34.13
346.795	29.35
347.007	80.55
347.219	39.59
347.431	2.73
347.643	-1.37
347.855	35.5
348.067	76.46
348.279	-13.65
348.491	12.97
348.703	27.31
348.915	31.4
349.127	25.26
349.339	31.4
349.551	-11.61
349.763	82.6
349.975	105.13
350.187	21.16
350.399	53.93
350.61	21.16
350.822	23.21
351.034	98.99
351.246	-7.51
351.458	49.83
351.669	33.45
351.881	41.64
352.093	49.83
352.305	76.46
352.517	62.12
352.728	-7.51
352.94	-5.46
353.152	39.59
353.363	-46.42
353.575	47.79
353.787	-44.37
353.999	62.12
354.21	33.45
354.422	64.17
354.633	4.78
354.845	53.93
355.057	49.83
355.268	15.02
355.48	98.99
355.692	27.31
355.903	-11.61
356.115	8.87
356.326	-23.89
356.538	-1.37
356.749	37.55
356.961	74.41
357.172	19.11
357.384	12.97
357.595	82.6
357.807	27.31
358.018	21.16
358.23	94.89
358.441	60.07
358.653	19.11
358.864	41.64
359.075	-34.13
359.287	37.55
359.498	-38.23
359.709	53.93
359.921	23.21
360.132	-3.41
360.344	84.65
360.555	-9.56
360.766	82.6
360.977	43.69
361.189	58.03
361.4	-11.61
361.611	58.03
361.823	15.02
362.034	45.74
362.245	74.41
362.456	53.93
362.667	29.35
362.879	86.7
363.09	29.35
363.301	53.93
363.512	12.97
363.723	29.35
363.935	6.83
364.146	47.79
364.357	-48.47
364.568	-3.41
364.779	-58.71
364.99	98.99
365.201	8.87
365.412	109.23
365.623	6.83
365.834	53.93
366.045	78.51
366.256	17.07
366.467	62.12
366.678	70.31
366.889	31.4
367.1	55.98
367.311	-5.46
367.522	25.26
367.733	53.93
367.944	55.98
368.155	0.68
368.366	72.36
368.577	51.88
368.788	105.13
368.999	-36.18
369.209	43.69
369.42	60.07
369.631	70.31
369.842	4.78
370.053	98.99
370.264	64.17
370.474	0.68
370.685	62.12
370.896	37.55
371.107	37.55
371.317	88.75
371.528	105.13
371.739	55.98
371.95	12.97
372.16	23.21
372.371	25.26
372.582	66.22
372.792	12.97
373.003	33.45
373.214	21.16
373.424	25.26
373.635	139.94
373.846	23.21
374.056	53.93
374.267	70.31
374.477	23.21
374.688	72.36
374.898	12.97
375.109	76.46
375.319	49.83
375.53	29.35
375.74	15.02
375.951	70.31
376.161	60.07
376.372	119.46
376.582	35.5
376.793	-13.65
377.003	37.55
377.214	41.64
377.424	70.31
377.635	55.98
377.845	76.46
378.055	33.45
378.266	-3.41
378.476	12.97
378.686	37.55
378.897	70.31
379.107	12.97
379.317	74.41
379.528	12.97
379.738	58.03
379.948	82.6
380.158	60.07
380.369	53.93
380.579	19.11
380.789	84.65
380.999	78.51
381.21	78.51
381.42	98.99
381.63	-46.42
381.84	133.8
382.05	23.21
382.261	70.31
382.471	15.02
382.681	70.31
382.891	55.98
383.101	43.69
383.311	23.21
383.521	-7.51
383.731	15.02
383.941	82.6
384.151	86.7
384.361	10.92
384.571	64.17
384.781	117.42
384.991	135.85
385.201	117.42
385.411	35.5
385.621	58.03
385.831	45.74
386.041	53.93
386.251	19.11
386.461	101.03
386.671	10.92
386.881	-15.7
387.091	62.12
387.301	60.07
387.511	23.21
387.72	39.59
387.93	88.75
388.14	-9.56
388.35	37.55
388.56	78.51
388.769	21.16
388.979	21.16
389.189	41.64
389.399	45.74
389.609	70.31
389.818	103.08
390.028	29.35
390.238	-5.46
390.447	31.4
390.657	0.68
390.867	17.07
391.076	35.5
391.286	115.37
391.496	66.22
391.705	66.22
391.915	96.94
392.125	33.45
392.334	37.55
392.544	103.08
392.753	17.07
392.963	47.79
393.172	15.02
393.382	29.35
393.591	119.46
393.801	-32.08
394.01	37.55
394.22	111.27
394.429	4.78
394.639	160.42
394.848	76.46
395.058	6.83
395.267	53.93
395.477	45.74
395.686	123.56
395.895	53.93
396.105	90.79
396.314	115.37
396.524	19.11
396.733	80.55
396.942	129.7
397.152	133.8
397.361	70.31
397.57	51.88
397.78	68.27
397.989	111.27
398.198	101.03
398.407	29.35
398.617	37.55
398.826	107.18
399.035	43.69
399.244	144.04
399.453	55.98
399.663	60.07
399.872	92.84
400.081	41.64
400.29	127.66
400.499	60.07
400.708	111.27
400.917	86.7
401.127	49.83
401.336	86.7
401.545	176.81
401.754	96.94
401.963	154.28
402.172	176.81
402.381	125.61
402.59	111.27
402.799	105.13
403.008	119.46
403.217	164.52
403.426	133.8
403.635	66.22
403.844	158.38
404.053	178.86
404.262	123.56
404.471	90.79
404.68	180.9
404.888	92.84
405.097	84.65
405.306	219.82
405.515	191.14
405.724	193.19
405.933	82.6
406.142	164.52
406.35	223.91
406.559	172.71
406.768	156.33
406.977	189.1
407.185	150.18
407.394	172.71
407.603	217.77
407.812	113.32
408.02	275.11
408.229	217.77
408.438	185
408.646	148.14
408.855	191.14
409.064	240.3
409.272	209.58
409.481	271.01
409.69	209.58
409.898	285.35
410.107	289.45
410.315	301.73
410.524	295.59
410.733	320.17
410.941	334.5
411.15	357.03
411.358	334.5
411.567	375.46
411.775	330.41
411.984	334.5
412.192	488.1
412.401	408.23
412.609	397.99
412.818	414.37
413.026	451.24
413.234	486.05
413.443	529.06
413.651	496.29
413.86	461.48
414.068	529.06
414.276	594.59
414.485	543.39
414.693	627.36
414.901	647.84
415.11	547.49
415.318	713.38
415.526	606.88
415.734	746.14
415.943	658.08
416.151	848.54
416.359	696.99
416.567	778.91
416.776	901.79
416.984	860.83
417.192	922.27
417.4	907.93
417.608	928.41
417.817	1002.14
418.025	1014.43
418.233	1133.21
418.441	1000.09
418.649	1071.77
418.857	1219.22
419.065	1223.32
419.273	1258.14
419.481	1192.6
419.689	1292.95
419.897	1385.11
420.105	1391.25
420.313	1458.84
420.521	1553.04
420.729	1499.8
420.937	1534.61
421.145	1622.67
421.353	1757.84
421.561	1782.42
421.769	1839.76
421.977	1948.3
422.185	1856.14
422.393	1997.45
422.601	2140.81
422.809	2038.41
423.017	2087.56
423.224	2296.46
423.432	2259.59
423.64	2196.11
423.848	2411.14
424.056	2357.89
424.263	2542.21
424.471	2564.74
424.679	2771.58
424.887	2693.76
425.094	3005.05
425.302	2867.84
425.51	3019.39
425.718	3224.19
425.925	3160.7
426.133	3353.21
426.341	3375.74
426.548	3537.52
426.756	3596.92
426.964	3727.99
427.171	3889.78
427.379	4022.89
427.586	4039.28
427.794	4090.48
428.001	4362.86
428.209	4518.5
428.417	4534.89
428.624	4768.35
428.832	4883.04
429.039	4846.18
429.247	4866.66
429.454	5204.57
429.662	5646.93
429.869	5190.24
430.076	5644.88
430.284	5540.44
430.491	5771.86
430.699	6074.96
430.906	6013.52
431.114	6062.67
431.321	6390.35
431.528	6502.98
431.736	6851.14
431.943	7262.78
432.15	7012.93
432.358	7127.61
432.565	7328.31
432.772	7418.43
432.979	7793.2
433.187	7903.79
433.394	7926.32
433.601	8528.42
433.808	8446.51
434.016	8507.94
434.223	8911.39
434.43	9343.52
434.637	9144.86
434.844	9751.06
435.052	9890.32
435.259	9812.5
435.466	9935.38
435.673	9859.6
435.88	10654.22
436.087	11063.81
436.294	10951.17
436.501	10641.93
436.708	10996.23
436.915	11467.26
437.122	12009.97
437.329	11710.97
437.537	12378.61
437.743	12358.13
437.95	12208.62
438.157	13181.41
438.364	13418.97
438.571	13300.19
438.778	13363.68
438.985	14760.39
439.192	14121.43
439.399	14694.86
439.606	14322.13
439.813	14901.7
440.02	16067
440.227	15772.09
440.433	15577.53
440.64	16196.02
440.847	16107.96
441.054	16529.84
441.261	17205.67
441.467	17275.3
441.674	17877.4
441.881	18454.93
442.088	18157.97
442.294	18026.9
442.501	18524.56
442.708	18944.39
442.914	19618.18
443.121	20519.28
443.328	19849.6
443.534	21080.42
443.741	20697.45
443.948	20439.41
444.154	21926.24
444.361	21920.09
444.568	21920.09
444.774	22317.4
444.981	22362.45
445.187	23202.12
445.394	23818.56
445.6	23511.36
445.807	25907.49
446.013	24621.36
446.22	25020.72
446.426	25923.87
446.633	26554.65
446.839	27156.75
447.046	25993.5
447.252	27373.83
447.459	27539.72
447.665	27343.11
447.871	28508.41
448.078	30083.3
448.284	28612.85
448.491	29180.14
448.697	30347.48
448.903	31117.52
449.11	30961.87
449.316	30263.52
449.522	30855.38
449.728	31883.46
449.935	31924.42
450.141	31690.95
450.347	32651.45
450.553	31486.15
450.76	31996.1
450.966	33001.65
451.172	32719.03
451.378	33558.7
451.584	32614.58
451.791	33444.01
451.997	33274.03
452.203	33906.85
452.409	33665.19
452.615	33800.36
452.821	32731.32
453.027	32131.26
453.233	33847.46
453.44	32305.34
453.646	33001.65
453.852	32891.06
454.058	33560.75
454.264	32454.84
454.47	33034.42
454.676	32161.98
454.882	33376.43
455.088	30462.17
455.294	30929.11
455.5	31303.88
455.705	31717.57
455.911	30329.05
456.117	29976.8
456.323	29313.26
456.529	27691.27
456.735	28954.86
456.941	28424.44
457.147	27873.54
457.352	26820.88
457.558	26548.5
457.764	26935.57
457.97	26226.97
458.176	25719.07
458.381	25837.86
458.587	24299.83
458.793	24389.94
458.999	23054.67
459.204	24631.6
459.41	24158.52
459.616	22538.58
459.821	22587.73
460.027	22542.67
460.233	22159.7
460.438	21059.95
460.644	20965.74
460.85	20257.14
461.055	19908.99
461.261	19831.16
461.466	18401.68
461.672	17623.45
461.878	19073.42
462.083	17936.79
462.289	17574.3
462.494	17373.6
462.7	16785.83
462.905	16306.61
463.111	16763.31
463.316	17025.45
463.522	16619.95
463.727	16615.85
463.932	16437.68
464.138	16150.96
464.343	16212.4
464.549	15946.17
464.754	16456.11
464.959	16372.14
465.165	16218.55
465.37	15387.07
465.575	15159.75
465.781	15661.5
465.986	15862.2
466.191	14928.33
466.397	15141.32
466.602	14164.43
466.807	14524.88
467.012	14686.67
467.218	14629.32
467.423	14543.31
467.628	14762.44
