Data from USB4F104151__133__11-07-48-174.txt Node

Date: Wed Mar 12 11:07:48 EDT 2025
User: louis
Spectrometer: USB4F10415
Trigger mode: 4
Integration Time (sec): 2.000000E-2
Scans to average: 1
Electric dark correction enabled: true
Nonlinearity correction enabled: false
Boxcar width: 0
XAxis mode: Wavelengths
Number of Pixels in Spectrum: 3648
>>>>>Begin Spectral Data<<<<<
178.204	-46.93
178.424	-46.93
178.644	-46.93
178.864	-87.89
179.084	-40.79
179.304	37.03
179.524	-28.5
179.744	14.51
179.964	-1.88
180.184	-44.88
180.404	14.51
180.624	30.89
180.844	-16.21
181.064	51.37
181.283	20.65
181.503	-55.12
181.723	-22.36
181.943	-26.45
182.163	18.6
182.383	24.75
182.602	98.47
182.822	-51.03
183.042	55.47
183.262	-24.4
183.482	49.32
183.701	12.46
183.921	63.66
184.141	-28.5
184.361	65.71
184.58	22.7
184.8	71.85
185.02	8.36
185.239	43.18
185.459	63.66
185.679	39.08
185.898	8.36
186.118	55.47
186.338	69.8
186.557	37.03
186.777	0.17
186.997	16.55
187.216	30.89
187.436	41.13
187.655	28.84
187.875	-18.26
188.095	32.94
188.314	-10.07
188.534	47.27
188.753	-18.26
188.973	82.09
189.192	59.56
189.412	2.22
189.631	6.31
189.851	61.61
190.07	18.6
190.29	-14.17
190.509	43.18
190.729	-18.26
190.948	37.03
191.168	157.86
191.387	106.67
191.607	8.36
191.826	43.18
192.045	-10.07
192.265	4.27
192.484	73.9
192.704	41.13
192.923	22.7
193.142	69.8
193.362	47.27
193.581	2.22
193.8	80.04
194.02	80.04
194.239	-10.07
194.458	-20.31
194.678	-59.22
194.897	71.85
195.116	37.03
195.335	30.89
195.555	22.7
195.774	-20.31
195.993	49.32
196.212	22.7
196.432	-18.26
196.651	18.6
196.87	32.94
197.089	37.03
197.308	-14.17
197.528	82.09
197.747	0.17
197.966	24.75
198.185	57.51
198.404	77.99
198.623	-42.84
198.842	108.71
199.062	10.41
199.281	20.65
199.5	39.08
199.719	22.7
199.938	20.65
200.157	63.66
200.376	86.19
200.595	69.8
200.814	-42.84
201.033	32.94
201.252	51.37
201.471	18.6
201.69	4.27
201.909	-18.26
202.128	-16.21
202.347	20.65
202.566	-10.07
202.785	-32.6
203.004	-8.02
203.223	92.33
203.442	8.36
203.661	4.27
203.879	-1.88
204.098	57.51
204.317	-1.88
204.536	34.99
204.755	34.99
204.974	30.89
205.193	63.66
205.411	67.75
205.63	69.8
205.849	47.27
206.068	59.56
206.287	22.7
206.505	8.36
206.724	14.51
206.943	51.37
207.162	30.89
207.381	47.27
207.599	24.75
207.818	16.55
208.037	10.41
208.255	37.03
208.474	34.99
208.693	-10.07
208.911	34.99
209.13	71.85
209.349	22.7
209.567	77.99
209.786	51.37
210.005	-40.79
210.223	32.94
210.442	10.41
210.661	24.75
210.879	75.95
211.098	69.8
211.316	-1.88
211.535	67.75
211.753	-28.5
211.972	22.7
212.191	110.76
212.409	-14.17
212.628	26.79
212.846	16.55
213.065	45.23
213.283	63.66
213.502	32.94
213.72	-16.21
213.938	80.04
214.157	22.7
214.375	47.27
214.594	41.13
214.812	16.55
215.031	106.67
215.249	30.89
215.467	80.04
215.686	14.51
215.904	4.27
216.122	8.36
216.341	51.37
216.559	24.75
216.778	-26.45
216.996	43.18
217.214	24.75
217.432	-8.02
217.651	10.41
217.869	2.22
218.087	4.27
218.306	-14.17
218.524	-14.17
218.742	-3.93
218.96	104.62
219.179	-3.93
219.397	41.13
219.615	28.84
219.833	88.23
220.051	-34.64
220.27	94.38
220.488	98.47
220.706	57.51
220.924	86.19
221.142	20.65
221.36	-12.12
221.578	14.51
221.796	-8.02
222.015	20.65
222.233	22.7
222.451	51.37
222.669	4.27
222.887	43.18
223.105	14.51
223.323	51.37
223.541	28.84
223.759	26.79
223.977	49.32
224.195	-5.97
224.413	39.08
224.631	-5.97
224.849	34.99
225.067	26.79
225.285	-1.88
225.503	-10.07
225.721	-53.08
225.939	-3.93
226.157	69.8
226.375	47.27
226.592	18.6
226.81	49.32
227.028	32.94
227.246	129.19
227.464	4.27
227.682	-14.17
227.9	69.8
228.117	75.95
228.335	34.99
228.553	37.03
228.771	16.55
228.989	45.23
229.206	39.08
229.424	14.51
229.642	-24.4
229.86	-5.97
230.077	110.76
230.295	61.61
230.513	-8.02
230.731	16.55
230.948	88.23
231.166	88.23
231.384	22.7
231.601	4.27
231.819	55.47
232.037	92.33
232.254	51.37
232.472	-3.93
232.689	16.55
232.907	-8.02
233.125	30.89
233.342	-16.21
233.56	55.47
233.777	2.22
233.995	12.46
234.213	75.95
234.43	14.51
234.648	10.41
234.865	34.99
235.083	24.75
235.3	28.84
235.518	39.08
235.735	0.17
235.953	55.47
236.17	77.99
236.388	-18.26
236.605	8.36
236.822	82.09
237.04	67.75
237.257	20.65
237.475	55.47
237.692	26.79
237.909	47.27
238.127	55.47
238.344	12.46
238.562	34.99
238.779	-1.88
238.996	49.32
239.214	2.22
239.431	14.51
239.648	-5.97
239.865	30.89
240.083	59.56
240.3	28.84
240.517	43.18
240.735	47.27
240.952	55.47
241.169	94.38
241.386	63.66
241.603	49.32
241.821	18.6
242.038	63.66
242.255	63.66
242.472	18.6
242.689	75.95
242.907	39.08
243.124	104.62
243.341	-14.17
243.558	67.75
243.775	2.22
243.992	-32.6
244.209	61.61
244.426	108.71
244.643	32.94
244.86	-5.97
245.078	61.61
245.295	71.85
245.512	32.94
245.729	6.31
245.946	14.51
246.163	-24.4
246.38	-10.07
246.597	61.61
246.814	26.79
247.031	2.22
247.248	30.89
247.464	26.79
247.681	-46.93
247.898	-30.55
248.115	2.22
248.332	37.03
248.549	77.99
248.766	39.08
248.983	12.46
249.2	57.51
249.417	26.79
249.633	-14.17
249.85	65.71
250.067	32.94
250.284	20.65
250.501	18.6
250.717	63.66
250.934	59.56
251.151	-59.22
251.368	43.18
251.585	-51.03
251.801	-22.36
252.018	-20.31
252.235	28.84
252.451	-3.93
252.668	6.31
252.885	53.42
253.102	55.47
253.318	0.17
253.535	14.51
253.752	22.7
253.968	-53.08
254.185	18.6
254.401	92.33
254.618	71.85
254.835	22.7
255.051	43.18
255.268	-10.07
255.484	0.17
255.701	71.85
255.917	88.23
256.134	20.65
256.351	-8.02
256.567	-30.55
256.784	-14.17
257	-3.93
257.217	71.85
257.433	53.42
257.65	57.51
257.866	18.6
258.082	16.55
258.299	84.14
258.515	82.09
258.732	16.55
258.948	-8.02
259.165	-26.45
259.381	20.65
259.597	20.65
259.814	8.36
260.03	49.32
260.246	55.47
260.463	86.19
260.679	34.99
260.895	34.99
261.112	69.8
261.328	80.04
261.544	4.27
261.761	63.66
261.977	4.27
262.193	4.27
262.409	47.27
262.626	12.46
262.842	82.09
263.058	-1.88
263.274	110.76
263.49	8.36
263.707	45.23
263.923	24.75
264.139	-1.88
264.355	96.43
264.571	-20.31
264.787	55.47
265.004	-3.93
265.22	-1.88
265.436	69.8
265.652	18.6
265.868	55.47
266.084	22.7
266.3	32.94
266.516	20.65
266.732	98.47
266.948	104.62
267.164	-8.02
267.38	30.89
267.596	34.99
267.812	86.19
268.028	51.37
268.244	-36.69
268.46	49.32
268.676	6.31
268.892	61.61
269.108	59.56
269.324	73.9
269.54	61.61
269.756	73.9
269.972	-1.88
270.188	43.18
270.403	14.51
270.619	18.6
270.835	-18.26
271.051	69.8
271.267	-10.07
271.483	73.9
271.698	45.23
271.914	84.14
272.13	20.65
272.346	4.27
272.562	22.7
272.777	30.89
272.993	77.99
273.209	51.37
273.425	14.51
273.64	16.55
273.856	6.31
274.072	-57.17
274.287	57.51
274.503	24.75
274.719	4.27
274.934	6.31
275.15	20.65
275.366	8.36
275.581	-8.02
275.797	4.27
276.012	-10.07
276.228	88.23
276.444	4.27
276.659	12.46
276.875	-8.02
277.09	41.13
277.306	-3.93
277.521	41.13
277.737	12.46
277.952	77.99
278.168	28.84
278.383	-14.17
278.599	22.7
278.814	37.03
279.03	6.31
279.245	57.51
279.461	2.22
279.676	75.95
279.892	30.89
280.107	10.41
280.322	10.41
280.538	45.23
280.753	22.7
280.969	53.42
281.184	47.27
281.399	51.37
281.615	18.6
281.83	143.53
282.045	59.56
282.26	41.13
282.476	80.04
282.691	34.99
282.906	14.51
283.122	8.36
283.337	-18.26
283.552	71.85
283.767	34.99
283.983	37.03
284.198	53.42
284.413	-22.36
284.628	-14.17
284.843	84.14
285.058	-5.97
285.274	4.27
285.489	30.89
285.704	43.18
285.919	6.31
286.134	-46.93
286.349	6.31
286.564	82.09
286.779	69.8
286.995	-10.07
287.21	34.99
287.425	55.47
287.64	41.13
287.855	69.8
288.07	26.79
288.285	-8.02
288.5	14.51
288.715	-1.88
288.93	2.22
289.145	55.47
289.36	37.03
289.575	-1.88
289.79	6.31
290.004	14.51
290.219	57.51
290.434	55.47
290.649	34.99
290.864	24.75
291.079	-44.88
291.294	77.99
291.509	63.66
291.724	20.65
291.938	55.47
292.153	104.62
292.368	4.27
292.583	39.08
292.798	57.51
293.012	63.66
293.227	69.8
293.442	0.17
293.657	32.94
293.871	88.23
294.086	8.36
294.301	141.48
294.516	45.23
294.73	10.41
294.945	67.75
295.16	14.51
295.374	102.57
295.589	6.31
295.804	16.55
296.018	10.41
296.233	57.51
296.447	55.47
296.662	6.31
296.877	20.65
297.091	2.22
297.306	34.99
297.52	6.31
297.735	88.23
297.949	4.27
298.164	67.75
298.378	28.84
298.593	69.8
298.807	-14.17
299.022	14.51
299.236	34.99
299.451	82.09
299.665	67.75
299.88	-30.55
300.094	34.99
300.309	86.19
300.523	24.75
300.737	10.41
300.952	30.89
301.166	16.55
301.381	-53.08
301.595	8.36
301.809	-32.6
302.024	71.85
302.238	22.7
302.452	39.08
302.667	-42.84
302.881	98.47
303.095	34.99
303.309	-10.07
303.524	-1.88
303.738	43.18
303.952	-20.31
304.166	67.75
304.381	30.89
304.595	12.46
304.809	47.27
305.023	45.23
305.237	10.41
305.452	34.99
305.666	14.51
305.88	82.09
306.094	61.61
306.308	61.61
306.522	-20.31
306.736	92.33
306.95	26.79
307.164	26.79
307.379	37.03
307.593	2.22
307.807	55.47
308.021	34.99
308.235	57.51
308.449	16.55
308.663	47.27
308.877	69.8
309.091	18.6
309.305	55.47
309.519	-5.97
309.733	16.55
309.947	34.99
310.161	45.23
310.374	47.27
310.588	45.23
310.802	45.23
311.016	47.27
311.23	47.27
311.444	41.13
311.658	94.38
311.872	8.36
312.085	43.18
312.299	96.43
312.513	96.43
312.727	45.23
312.941	4.27
313.154	53.42
313.368	22.7
313.582	67.75
313.796	30.89
314.009	39.08
314.223	53.42
314.437	43.18
314.651	-32.6
314.864	51.37
315.078	-75.6
315.292	53.42
315.505	-42.84
315.719	28.84
315.933	8.36
316.146	16.55
316.36	12.46
316.573	149.67
316.787	86.19
317.001	34.99
317.214	55.47
317.428	2.22
317.641	-67.41
317.855	-3.93
318.068	80.04
318.282	-1.88
318.495	37.03
318.709	4.27
318.922	-12.12
319.136	116.9
319.349	108.71
319.563	22.7
319.776	22.7
319.99	65.71
320.203	18.6
320.417	55.47
320.63	55.47
320.843	75.95
321.057	39.08
321.27	22.7
321.483	10.41
321.697	80.04
321.91	2.22
322.124	53.42
322.337	-16.21
322.55	59.56
322.763	39.08
322.977	61.61
323.19	-61.27
323.403	26.79
323.617	10.41
323.83	92.33
324.043	16.55
324.256	6.31
324.469	-10.07
324.683	41.13
324.896	67.75
325.109	53.42
325.322	-14.17
325.535	45.23
325.748	30.89
325.962	39.08
326.175	92.33
326.388	98.47
326.601	8.36
326.814	-32.6
327.027	39.08
327.24	102.57
327.453	34.99
327.666	61.61
327.879	55.47
328.092	39.08
328.305	22.7
328.518	57.51
328.731	14.51
328.944	57.51
329.157	32.94
329.37	104.62
329.583	30.89
329.796	53.42
330.009	2.22
330.222	47.27
330.435	77.99
330.648	6.31
330.861	-5.97
331.073	-10.07
331.286	2.22
331.499	57.51
331.712	45.23
331.925	0.17
332.138	-8.02
332.35	30.89
332.563	39.08
332.776	53.42
332.989	6.31
333.202	47.27
333.414	37.03
333.627	2.22
333.84	14.51
334.053	8.36
334.265	51.37
334.478	90.28
334.691	37.03
334.903	67.75
335.116	14.51
335.329	28.84
335.541	37.03
335.754	94.38
335.966	51.37
336.179	43.18
336.392	34.99
336.604	-8.02
336.817	32.94
337.029	-12.12
337.242	67.75
337.454	69.8
337.667	2.22
337.88	61.61
338.092	6.31
338.305	30.89
338.517	30.89
338.729	90.28
338.942	61.61
339.154	43.18
339.367	-48.98
339.579	-1.88
339.792	-26.45
340.004	102.57
340.217	28.84
340.429	114.86
340.641	30.89
340.854	26.79
341.066	-42.84
341.278	22.7
341.491	22.7
341.703	86.19
341.915	-71.51
342.128	2.22
342.34	112.81
342.552	-12.12
342.764	18.6
342.977	108.71
343.189	61.61
343.401	37.03
343.613	-18.26
343.826	34.99
344.038	49.32
344.25	108.71
344.462	-3.93
344.674	86.19
344.886	80.04
345.099	104.62
345.311	75.95
345.523	73.9
345.735	2.22
345.947	37.03
346.159	67.75
346.371	61.61
346.583	-10.07
346.795	61.61
347.007	108.71
347.219	65.71
347.431	-42.84
347.643	90.28
347.855	-5.97
348.067	110.76
348.279	-20.31
348.491	16.55
348.703	39.08
348.915	67.75
349.127	14.51
349.339	22.7
349.551	6.31
349.763	51.37
349.975	51.37
350.187	63.66
350.399	53.42
350.61	37.03
350.822	-20.31
351.034	-28.5
351.246	18.6
351.458	77.99
351.669	24.75
351.881	39.08
352.093	34.99
352.305	22.7
352.517	14.51
352.728	96.43
352.94	80.04
353.152	37.03
353.363	43.18
353.575	30.89
353.787	55.47
353.999	-5.97
354.21	129.19
354.422	10.41
354.633	55.47
354.845	75.95
355.057	57.51
355.268	49.32
355.48	63.66
355.692	28.84
355.903	94.38
356.115	39.08
356.326	6.31
356.538	102.57
356.749	41.13
356.961	80.04
357.172	26.79
357.384	41.13
357.595	92.33
357.807	22.7
358.018	63.66
358.23	94.38
358.441	32.94
358.653	2.22
358.864	112.81
359.075	32.94
359.287	67.75
359.498	84.14
359.709	-24.4
359.921	51.37
360.132	14.51
360.344	12.46
360.555	61.61
360.766	26.79
360.977	37.03
361.189	127.14
361.4	10.41
361.611	-14.17
361.823	20.65
362.034	75.95
362.245	-24.4
362.456	53.42
362.667	20.65
362.879	47.27
363.09	63.66
363.301	84.14
363.512	59.56
363.723	45.23
363.935	51.37
364.146	80.04
364.357	14.51
364.568	-8.02
364.779	-1.88
364.99	102.57
365.201	80.04
365.412	53.42
365.623	41.13
365.834	-5.97
366.045	75.95
366.256	-1.88
366.467	-3.93
366.678	125.1
366.889	80.04
367.1	43.18
367.311	30.89
367.522	14.51
367.733	53.42
367.944	53.42
368.155	59.56
368.366	100.52
368.577	6.31
368.788	24.75
368.999	-3.93
369.209	28.84
369.42	67.75
369.631	51.37
369.842	-34.64
370.053	45.23
370.264	-3.93
370.474	69.8
370.685	10.41
370.896	53.42
371.107	-12.12
371.317	61.61
371.528	-40.79
371.739	14.51
371.95	6.31
372.16	4.27
372.371	30.89
372.582	-14.17
372.792	-22.36
373.003	55.47
373.214	16.55
373.424	53.42
373.635	96.43
373.846	63.66
374.056	49.32
374.267	-3.93
374.477	86.19
374.688	20.65
374.898	22.7
375.109	88.23
375.319	80.04
375.53	43.18
375.74	57.51
375.951	96.43
376.161	20.65
376.372	73.9
376.582	65.71
376.793	102.57
377.003	59.56
377.214	-24.4
377.424	82.09
377.635	88.23
377.845	37.03
378.055	59.56
378.266	4.27
378.476	108.71
378.686	14.51
378.897	43.18
379.107	20.65
379.317	108.71
379.528	30.89
379.738	16.55
379.948	-26.45
380.158	71.85
380.369	49.32
380.579	110.76
380.789	32.94
380.999	104.62
381.21	49.32
381.42	51.37
381.63	77.99
381.84	114.86
382.05	18.6
382.261	59.56
382.471	57.51
382.681	32.94
382.891	180.39
383.101	39.08
383.311	18.6
383.521	112.81
383.731	112.81
383.941	147.62
384.151	14.51
384.361	51.37
384.571	104.62
384.781	104.62
384.991	92.33
385.201	69.8
385.411	123.05
385.621	96.43
385.831	82.09
386.041	59.56
386.251	67.75
386.461	28.84
386.671	59.56
386.881	57.51
387.091	55.47
387.301	67.75
387.511	10.41
387.72	39.08
387.93	-28.5
388.14	92.33
388.35	71.85
388.56	67.75
388.769	39.08
388.979	-42.84
389.189	34.99
389.399	102.57
389.609	61.61
389.818	12.46
390.028	-20.31
390.238	96.43
390.447	69.8
390.657	8.36
390.867	80.04
391.076	24.75
391.286	24.75
391.496	59.56
391.705	-42.84
391.915	112.81
392.125	39.08
392.334	67.75
392.544	61.61
392.753	69.8
392.963	24.75
393.172	24.75
393.382	98.47
393.591	94.38
393.801	77.99
394.01	90.28
394.22	80.04
394.429	45.23
394.639	55.47
394.848	59.56
395.058	121
395.267	86.19
395.477	114.86
395.686	75.95
395.895	53.42
396.105	125.1
396.314	121
396.524	166.06
396.733	57.51
396.942	110.76
397.152	84.14
397.361	18.6
397.57	67.75
397.78	127.14
397.989	75.95
398.198	147.62
398.407	75.95
398.617	110.76
398.826	84.14
399.035	39.08
399.244	143.53
399.453	41.13
399.663	18.6
399.872	88.23
400.081	16.55
400.29	110.76
400.499	18.6
400.708	114.86
400.917	69.8
401.127	96.43
401.336	80.04
401.545	129.19
401.754	96.43
401.963	80.04
402.172	96.43
402.381	80.04
402.59	139.43
402.799	84.14
403.008	106.67
403.217	32.94
403.426	121
403.635	71.85
403.844	16.55
404.053	172.2
404.262	143.53
404.471	106.67
404.68	129.19
404.888	96.43
405.097	129.19
405.306	41.13
405.515	172.2
405.724	106.67
405.933	159.91
406.142	149.67
406.35	127.14
406.559	131.24
406.768	196.78
406.977	217.26
407.185	118.95
407.394	127.14
407.603	133.29
407.812	176.3
408.02	192.68
408.229	178.34
408.438	258.21
408.646	159.91
408.855	153.77
409.064	200.87
409.272	243.88
409.481	252.07
409.69	159.91
409.898	245.93
410.107	231.59
410.315	297.13
410.524	301.22
410.733	270.5
410.941	239.78
411.15	256.17
411.358	243.88
411.567	266.41
411.775	317.61
411.984	286.89
412.192	327.85
412.401	338.09
412.609	299.17
412.818	364.71
413.026	358.57
413.234	346.28
413.443	278.69
413.651	426.15
413.86	391.33
414.068	489.64
414.276	397.48
414.485	489.64
414.693	450.72
414.901	526.5
415.11	501.92
415.318	555.17
415.526	516.26
415.734	503.97
415.943	563.36
416.151	587.94
416.359	610.47
416.567	655.52
416.776	678.05
416.984	698.53
417.192	770.21
417.4	743.58
417.608	747.68
417.817	788.64
418.025	778.4
418.233	927.9
418.441	858.27
418.649	913.56
418.857	964.76
419.065	985.24
419.273	895.13
419.481	1196.18
419.689	1097.88
419.897	1120.41
420.105	1200.28
420.313	1153.18
420.521	1134.75
420.729	1177.75
420.937	1286.3
421.145	1366.17
421.353	1398.93
421.561	1441.94
421.769	1525.91
421.977	1534.1
422.185	1509.52
422.393	1570.96
422.601	1753.23
422.809	1788.05
423.017	1654.93
423.224	1742.99
423.432	1837.2
423.64	1908.88
423.848	1953.93
424.056	2044.04
424.263	2105.48
424.471	2101.39
424.679	2218.12
424.887	2259.08
425.094	2502.79
425.302	2289.8
425.51	2488.45
425.718	2496.64
425.925	2537.6
426.133	2506.88
426.341	2803.84
426.548	2943.1
426.756	3002.49
426.964	2967.68
427.171	3160.19
427.379	3289.21
427.586	3303.54
427.794	3434.61
428.001	3545.2
428.209	3596.4
428.417	3674.23
428.624	3967.09
428.832	3969.13
429.039	4063.34
429.247	3928.17
429.454	4343.91
429.662	4610.15
429.869	4163.69
430.076	4579.43
430.284	4550.76
430.491	4782.18
430.699	4831.33
430.906	4986.97
431.114	5003.36
431.321	5144.67
431.528	5290.07
431.736	5484.63
431.943	5662.8
432.15	5738.58
432.358	5671
432.565	6053.97
432.772	5988.43
432.979	6346.83
433.187	6559.81
433.394	6490.18
433.601	6873.15
433.808	6875.2
434.016	6901.83
434.223	7252.03
434.43	7587.89
434.637	7555.13
434.844	7903.28
435.052	8110.13
435.259	7983.15
435.466	8269.87
435.673	7997.49
435.88	8699.94
436.087	9119.78
436.294	9064.48
436.501	8751.14
436.708	8908.83
436.915	9279.52
437.122	9750.55
437.329	9619.48
437.537	10104.85
437.743	10246.16
437.95	10149.9
438.157	10512.39
438.364	10874.88
438.571	11051.01
438.778	11022.34
438.985	12046.32
439.192	11448.32
439.399	11821.05
439.606	11614.2
439.813	12271.6
440.02	13015.01
440.227	12806.12
440.433	12638.19
440.64	13150.18
440.847	13103.07
441.054	13289.44
441.261	14450.64
441.467	14010.32
441.674	14579.66
441.881	14831.56
442.088	14903.24
442.294	14604.24
442.501	14954.44
442.708	15429.57
442.914	15984.57
443.121	16443.31
443.328	16195.51
443.534	17358.75
443.741	16859.05
443.948	16422.83
444.154	18065.3
444.361	17737.63
444.568	17788.83
444.774	18083.73
444.981	18012.06
445.187	18800.52
445.394	19431.3
445.6	19423.11
445.807	20916.08
446.013	20201.33
446.22	20371.32
446.426	21245.8
446.633	21485.41
446.839	21940.06
447.046	21268.33
447.252	22546.26
447.459	22523.73
447.665	22198.1
447.871	23560
448.078	24024.89
448.284	23088.97
448.491	23826.24
448.697	24653.62
448.903	25196.33
449.11	25155.37
449.316	24457.01
449.522	24946.48
449.728	25898.78
449.935	26058.53
450.141	26042.14
450.347	26500.89
450.553	25552.68
450.76	25976.61
450.966	27029.26
451.172	27025.17
451.378	27434.76
451.584	26722.07
451.791	27453.19
451.997	26967.82
452.203	27739.91
452.409	27492.1
452.615	27731.72
452.821	26558.23
453.027	26433.3
453.233	27590.41
453.44	26449.69
453.646	26869.52
453.852	27395.85
454.058	27205.39
454.264	26380.06
454.47	27182.86
454.676	26552.09
454.882	27225.87
455.088	24950.57
455.294	25102.12
455.5	25591.59
455.705	26023.71
455.911	24725.3
456.117	24381.24
456.323	23887.68
456.529	22644.56
456.735	23449.41
456.941	23283.53
457.147	23043.92
457.352	21925.72
457.558	21577.57
457.764	22052.7
457.97	21448.55
458.176	20928.36
458.381	21002.09
458.587	19705.73
458.793	19967.87
458.999	18868.11
459.204	20354.93
459.41	19652.48
459.616	18474.9
459.821	18136.98
460.027	18536.34
460.233	17975.19
460.438	17223.59
460.644	17156
460.85	16326.58
461.055	16265.14
461.261	16361.39
461.466	14989.25
461.672	14624.72
461.878	15452.09
462.083	14323.66
462.289	14282.7
462.494	14251.99
462.7	13707.23
462.905	13092.83
463.111	13490.14
463.316	13780.95
463.522	13471.71
463.727	13629.4
463.932	13578.2
464.138	13228
464.343	13537.24
464.549	12871.65
464.754	13481.95
464.959	13309.92
465.165	13082.6
465.37	12922.85
465.575	12230.64
465.781	12873.7
465.986	12793.83
466.191	12314.61
466.397	12259.31
466.602	11663.35
466.807	12257.26
467.012	12226.54
467.218	11872.25
467.423	11806.71
467.628	11886.58
467.833	12562.41
468.038	11911.16
468.244	11608.06
468.449	12175.34
468.654	11689.98
