Data from USB4F104151__116__11-07-23-597.txt Node

Date: Wed Mar 12 11:07:23 EDT 2025
User: louis
Spectrometer: USB4F10415
Trigger mode: 4
Integration Time (sec): 2.000000E-2
Scans to average: 1
Electric dark correction enabled: true
Nonlinearity correction enabled: false
Boxcar width: 0
XAxis mode: Wavelengths
Number of Pixels in Spectrum: 3648
>>>>>Begin Spectral Data<<<<<
178.204	-47.79
178.424	-47.79
178.644	-47.79
178.864	-78.51
179.084	-66.22
179.304	-62.12
179.524	23.89
179.744	17.75
179.964	5.46
180.184	3.41
180.404	21.84
180.624	-33.45
180.844	71
181.064	-43.69
181.283	30.04
181.503	19.8
181.723	-53.93
181.943	-103.08
182.163	34.13
182.383	83.28
182.602	23.89
182.822	87.38
183.042	68.95
183.262	93.52
183.482	66.9
183.701	38.23
183.921	128.34
184.141	5.46
184.361	105.81
184.58	32.08
184.8	15.7
185.02	54.61
185.239	68.95
185.459	30.04
185.679	68.95
185.898	-21.16
186.118	23.89
186.338	50.52
186.557	27.99
186.777	-27.31
186.997	46.42
187.216	44.37
187.436	124.24
187.655	5.46
187.875	48.47
188.095	27.99
188.314	87.38
188.534	50.52
188.753	52.56
188.973	79.19
189.192	73.04
189.412	-19.11
189.631	32.08
189.851	40.28
190.07	-41.64
190.29	38.23
190.509	-15.02
190.729	62.8
190.948	103.76
191.168	107.86
191.387	58.71
191.607	56.66
191.826	56.66
192.045	17.75
192.265	42.32
192.484	42.32
192.704	27.99
192.923	3.41
193.142	71
193.362	56.66
193.581	83.28
193.8	126.29
194.02	27.99
194.239	60.76
194.458	32.08
194.678	75.09
194.897	44.37
195.116	-60.07
195.335	-12.97
195.555	95.57
195.774	77.14
195.993	64.85
196.212	85.33
196.432	19.8
196.651	62.8
196.87	27.99
197.089	152.91
197.308	13.65
197.528	103.76
197.747	25.94
197.966	7.51
198.185	38.23
198.404	42.32
198.623	34.13
198.842	21.84
199.062	52.56
199.281	36.18
199.5	99.67
199.719	-31.4
199.938	-60.07
200.157	128.34
200.376	103.76
200.595	56.66
200.814	71
201.033	89.43
201.252	44.37
201.471	34.13
201.69	25.94
201.909	21.84
202.128	27.99
202.347	-96.94
202.566	-8.87
202.785	-45.74
203.004	9.56
203.223	62.8
203.442	122.2
203.661	-43.69
203.879	9.56
204.098	68.95
204.317	-23.21
204.536	134.48
204.755	83.28
204.974	1.37
205.193	-72.36
205.411	148.82
205.63	107.86
205.849	79.19
206.068	58.71
206.287	-2.73
206.505	81.24
206.724	73.04
206.943	105.81
207.162	9.56
207.381	87.38
207.599	107.86
207.818	56.66
208.037	73.04
208.255	48.47
208.474	118.1
208.693	71
208.911	25.94
209.13	95.57
209.349	56.66
209.567	34.13
209.786	34.13
210.005	42.32
210.223	42.32
210.442	-27.31
210.661	56.66
210.879	62.8
211.098	85.33
211.316	27.99
211.535	40.28
211.753	40.28
211.972	122.2
212.191	58.71
212.409	34.13
212.628	50.52
212.846	19.8
213.065	-35.5
213.283	79.19
213.502	38.23
213.72	89.43
213.938	66.9
214.157	3.41
214.375	48.47
214.594	9.56
214.812	111.96
215.031	-25.26
215.249	42.32
215.467	25.94
215.686	79.19
215.904	-51.88
216.122	3.41
216.341	25.94
216.559	13.65
216.778	62.8
216.996	62.8
217.214	7.51
217.432	-31.4
217.651	5.46
217.869	17.75
218.087	38.23
218.306	97.62
218.524	5.46
218.742	50.52
218.96	83.28
219.179	19.8
219.397	23.89
219.615	44.37
219.833	54.61
220.051	40.28
220.27	83.28
220.488	15.7
220.706	91.48
220.924	89.43
221.142	83.28
221.36	15.7
221.578	83.28
221.796	54.61
222.015	34.13
222.233	95.57
222.451	75.09
222.669	-27.31
222.887	89.43
223.105	32.08
223.323	48.47
223.541	7.51
223.759	109.91
223.977	9.56
224.195	95.57
224.413	99.67
224.631	7.51
224.849	42.32
225.067	48.47
225.285	-12.97
225.503	58.71
225.721	50.52
225.939	64.85
226.157	56.66
226.375	120.15
226.592	-2.73
226.81	11.61
227.028	-12.97
227.246	93.52
227.464	-12.97
227.682	44.37
227.9	77.14
228.117	30.04
228.335	42.32
228.553	52.56
228.771	19.8
228.989	68.95
229.206	62.8
229.424	5.46
229.642	32.08
229.86	89.43
230.077	46.42
230.295	13.65
230.513	83.28
230.731	116.05
230.948	42.32
231.166	128.34
231.384	97.62
231.601	95.57
231.819	42.32
232.037	38.23
232.254	-8.87
232.472	87.38
232.689	54.61
232.907	-10.92
233.125	25.94
233.342	42.32
233.56	25.94
233.777	58.71
233.995	-4.78
234.213	134.48
234.43	71
234.648	68.95
234.865	15.7
235.083	32.08
235.3	71
235.518	15.7
235.735	66.9
235.953	30.04
236.17	71
236.388	58.71
236.605	-47.79
236.822	58.71
237.04	77.14
237.257	19.8
237.475	71
237.692	83.28
237.909	21.84
238.127	46.42
238.344	19.8
238.562	40.28
238.779	79.19
238.996	19.8
239.214	83.28
239.431	116.05
239.648	34.13
239.865	101.72
240.083	118.1
240.3	25.94
240.517	21.84
240.735	42.32
240.952	58.71
241.169	50.52
241.386	13.65
241.603	54.61
241.821	44.37
242.038	17.75
242.255	77.14
242.472	11.61
242.689	66.9
242.907	21.84
243.124	116.05
243.341	48.47
243.558	46.42
243.775	-8.87
243.992	19.8
244.209	64.85
244.426	66.9
244.643	68.95
244.86	15.7
245.078	64.85
245.295	66.9
245.512	42.32
245.729	30.04
245.946	91.48
246.163	44.37
246.38	30.04
246.597	71
246.814	42.32
247.031	-8.87
247.248	-6.83
247.464	-21.16
247.681	66.9
247.898	111.96
248.115	58.71
248.332	-33.45
248.549	114
248.766	66.9
248.983	62.8
249.2	128.34
249.417	38.23
249.633	-19.11
249.85	132.44
250.067	5.46
250.284	46.42
250.501	50.52
250.717	77.14
250.934	46.42
251.151	54.61
251.368	64.85
251.585	52.56
251.801	68.95
252.018	30.04
252.235	91.48
252.451	25.94
252.668	36.18
252.885	124.24
253.102	50.52
253.318	103.76
253.535	15.7
253.752	52.56
253.968	62.8
254.185	60.76
254.401	5.46
254.618	25.94
254.835	13.65
255.051	56.66
255.268	58.71
255.484	54.61
255.701	83.28
255.917	5.46
256.134	79.19
256.351	124.24
256.567	58.71
256.784	48.47
257	15.7
257.217	62.8
257.433	109.91
257.65	64.85
257.866	38.23
258.082	-33.45
258.299	21.84
258.515	52.56
258.732	58.71
258.948	50.52
259.165	-35.5
259.381	25.94
259.597	38.23
259.814	91.48
260.03	50.52
260.246	5.46
260.463	56.66
260.679	114
260.895	3.41
261.112	54.61
261.328	27.99
261.544	38.23
261.761	75.09
261.977	38.23
262.193	66.9
262.409	109.91
262.626	56.66
262.842	25.94
263.058	23.89
263.274	44.37
263.49	52.56
263.707	89.43
263.923	50.52
264.139	-25.26
264.355	36.18
264.571	163.15
264.787	7.51
265.004	46.42
265.22	27.99
265.436	36.18
265.652	56.66
265.868	38.23
266.084	44.37
266.3	34.13
266.516	-17.07
266.732	116.05
266.948	73.04
267.164	50.52
267.38	114
267.596	44.37
267.812	52.56
268.028	142.68
268.244	-0.68
268.46	95.57
268.676	9.56
268.892	48.47
269.108	77.14
269.324	54.61
269.54	34.13
269.756	42.32
269.972	50.52
270.188	75.09
270.403	87.38
270.619	44.37
270.835	83.28
271.051	93.52
271.267	95.57
271.483	30.04
271.698	79.19
271.914	44.37
272.13	62.8
272.346	68.95
272.562	54.61
272.777	200.02
272.993	19.8
273.209	101.72
273.425	34.13
273.64	-0.68
273.856	85.33
274.072	34.13
274.287	52.56
274.503	83.28
274.719	9.56
274.934	44.37
275.15	27.99
275.366	87.38
275.581	21.84
275.797	48.47
276.012	138.58
276.228	-21.16
276.444	75.09
276.659	107.86
276.875	30.04
277.09	87.38
277.306	89.43
277.521	109.91
277.737	87.38
277.952	54.61
278.168	30.04
278.383	-2.73
278.599	103.76
278.814	17.75
279.03	91.48
279.245	124.24
279.461	46.42
279.676	111.96
279.892	5.46
280.107	60.76
280.322	58.71
280.538	118.1
280.753	60.76
280.969	50.52
281.184	19.8
281.399	71
281.615	34.13
281.83	64.85
282.045	-35.5
282.26	79.19
282.476	48.47
282.691	50.52
282.906	64.85
283.122	95.57
283.337	27.99
283.552	5.46
283.767	3.41
283.983	56.66
284.198	48.47
284.413	107.86
284.628	1.37
284.843	3.41
285.058	68.95
285.274	52.56
285.489	50.52
285.704	58.71
285.919	60.76
286.134	52.56
286.349	36.18
286.564	1.37
286.779	85.33
286.995	73.04
287.21	5.46
287.425	81.24
287.64	-0.68
287.855	32.08
288.07	11.61
288.285	13.65
288.5	36.18
288.715	60.76
288.93	54.61
289.145	40.28
289.36	91.48
289.575	95.57
289.79	-19.11
290.004	9.56
290.219	99.67
290.434	71
290.649	54.61
290.864	11.61
291.079	79.19
291.294	19.8
291.509	36.18
291.724	27.99
291.938	54.61
292.153	75.09
292.368	40.28
292.583	66.9
292.798	44.37
293.012	27.99
293.227	60.76
293.442	-12.97
293.657	46.42
293.871	58.71
294.086	15.7
294.301	103.76
294.516	38.23
294.73	95.57
294.945	68.95
295.16	52.56
295.374	48.47
295.589	58.71
295.804	97.62
296.018	58.71
296.233	23.89
296.447	77.14
296.662	87.38
296.877	109.91
297.091	93.52
297.306	-6.83
297.52	19.8
297.735	87.38
297.949	83.28
298.164	122.2
298.378	17.75
298.593	134.48
298.807	-21.16
299.022	122.2
299.236	38.23
299.451	116.05
299.665	38.23
299.88	-8.87
300.094	50.52
300.309	44.37
300.523	23.89
300.737	68.95
300.952	44.37
301.166	68.95
301.381	15.7
301.595	50.52
301.809	58.71
302.024	48.47
302.238	68.95
302.452	144.72
302.667	19.8
302.881	99.67
303.095	46.42
303.309	1.37
303.524	52.56
303.738	38.23
303.952	109.91
304.166	87.38
304.381	91.48
304.595	73.04
304.809	58.71
305.023	91.48
305.237	50.52
305.452	27.99
305.666	62.8
305.88	83.28
306.094	109.91
306.308	21.84
306.522	21.84
306.736	81.24
306.95	68.95
307.164	-27.31
307.379	21.84
307.593	73.04
307.807	134.48
308.021	107.86
308.235	54.61
308.449	21.84
308.663	-0.68
308.877	73.04
309.091	-31.4
309.305	42.32
309.519	46.42
309.733	68.95
309.947	42.32
310.161	34.13
310.374	91.48
310.588	105.81
310.802	58.71
311.016	75.09
311.23	15.7
311.444	95.57
311.658	68.95
311.872	99.67
312.085	134.48
312.299	75.09
312.513	40.28
312.727	114
312.941	124.24
313.154	103.76
313.368	36.18
313.582	105.81
313.796	-6.83
314.009	66.9
314.223	103.76
314.437	44.37
314.651	62.8
314.864	44.37
315.078	56.66
315.292	17.75
315.505	50.52
315.719	66.9
315.933	46.42
316.146	-15.02
316.36	21.84
316.573	89.43
316.787	62.8
317.001	73.04
317.214	46.42
317.428	95.57
317.641	-2.73
317.855	105.81
318.068	85.33
318.282	56.66
318.495	50.52
318.709	81.24
318.922	62.8
319.136	120.15
319.349	68.95
319.563	38.23
319.776	87.38
319.99	1.37
320.203	25.94
320.417	15.7
320.63	42.32
320.843	62.8
321.057	116.05
321.27	71
321.483	44.37
321.697	77.14
321.91	71
322.124	60.76
322.337	60.76
322.55	40.28
322.763	128.34
322.977	66.9
323.19	54.61
323.403	91.48
323.617	161.11
323.83	46.42
324.043	75.09
324.256	66.9
324.469	50.52
324.683	101.72
324.896	50.52
325.109	42.32
325.322	34.13
325.535	21.84
325.748	21.84
325.962	50.52
326.175	68.95
326.388	34.13
326.601	75.09
326.814	95.57
327.027	48.47
327.24	105.81
327.453	-19.11
327.666	109.91
327.879	79.19
328.092	185.68
328.305	83.28
328.518	42.32
328.731	11.61
328.944	17.75
329.157	89.43
329.37	75.09
329.583	118.1
329.796	89.43
330.009	93.52
330.222	58.71
330.435	62.8
330.648	75.09
330.861	21.84
331.073	122.2
331.286	54.61
331.499	30.04
331.712	-25.26
331.925	48.47
332.138	34.13
332.35	130.39
332.563	85.33
332.776	114
332.989	44.37
333.202	42.32
333.414	85.33
333.627	48.47
333.84	58.71
334.053	62.8
334.265	58.71
334.478	52.56
334.691	62.8
334.903	87.38
335.116	9.56
335.329	64.85
335.541	89.43
335.754	120.15
335.966	99.67
336.179	42.32
336.392	27.99
336.604	87.38
336.817	83.28
337.029	128.34
337.242	46.42
337.454	48.47
337.667	64.85
337.88	77.14
338.092	87.38
338.305	93.52
338.517	50.52
338.729	79.19
338.942	32.08
339.154	-27.31
339.367	-41.64
339.579	60.76
339.792	25.94
340.004	152.91
340.217	60.76
340.429	71
340.641	91.48
340.854	101.72
341.066	103.76
341.278	3.41
341.491	79.19
341.703	54.61
341.915	48.47
342.128	38.23
342.34	105.81
342.552	36.18
342.764	71
342.977	42.32
343.189	36.18
343.401	101.72
343.613	50.52
343.826	21.84
344.038	48.47
344.25	95.57
344.462	77.14
344.674	38.23
344.886	116.05
345.099	66.9
345.311	62.8
345.523	50.52
345.735	27.99
345.947	128.34
346.159	42.32
346.371	79.19
346.583	99.67
346.795	54.61
347.007	144.72
347.219	9.56
347.431	60.76
347.643	130.39
347.855	19.8
348.067	68.95
348.279	40.28
348.491	52.56
348.703	64.85
348.915	46.42
349.127	68.95
349.339	-4.78
349.551	120.15
349.763	56.66
349.975	-0.68
350.187	73.04
350.399	146.77
350.61	54.61
350.822	64.85
351.034	91.48
351.246	126.29
351.458	111.96
351.669	89.43
351.881	126.29
352.093	105.81
352.305	79.19
352.517	77.14
352.728	87.38
352.94	-17.07
353.152	93.52
353.363	105.81
353.575	15.7
353.787	77.14
353.999	103.76
354.21	165.2
354.422	66.9
354.633	71
354.845	81.24
355.057	62.8
355.268	87.38
355.48	54.61
355.692	52.56
355.903	87.38
356.115	81.24
356.326	120.15
356.538	81.24
356.749	21.84
356.961	107.86
357.172	13.65
357.384	-10.92
357.595	171.35
357.807	116.05
358.018	-0.68
358.23	81.24
358.441	83.28
358.653	32.08
358.864	21.84
359.075	56.66
359.287	114
359.498	21.84
359.709	79.19
359.921	95.57
360.132	60.76
360.344	107.86
360.555	52.56
360.766	-12.97
360.977	66.9
361.189	87.38
361.4	124.24
361.611	54.61
361.823	126.29
362.034	56.66
362.245	25.94
362.456	54.61
362.667	79.19
362.879	40.28
363.09	91.48
363.301	91.48
363.512	73.04
363.723	60.76
363.935	38.23
364.146	118.1
364.357	34.13
364.568	99.67
364.779	50.52
364.99	130.39
365.201	93.52
365.412	81.24
365.623	81.24
365.834	71
366.045	107.86
366.256	120.15
366.467	15.7
366.678	109.91
366.889	79.19
367.1	140.63
367.311	44.37
367.522	83.28
367.733	-2.73
367.944	81.24
368.155	81.24
368.366	30.04
368.577	44.37
368.788	77.14
368.999	95.57
369.209	116.05
369.42	85.33
369.631	154.96
369.842	101.72
370.053	124.24
370.264	58.71
370.474	77.14
370.685	23.89
370.896	36.18
371.107	91.48
371.317	95.57
371.528	54.61
371.739	60.76
371.95	52.56
372.16	58.71
372.371	81.24
372.582	105.81
372.792	161.11
373.003	23.89
373.214	79.19
373.424	91.48
373.635	40.28
373.846	97.62
374.056	62.8
374.267	75.09
374.477	62.8
374.688	130.39
374.898	50.52
375.109	99.67
375.319	60.76
375.53	140.63
375.74	68.95
375.951	79.19
376.161	132.44
376.372	75.09
376.582	46.42
376.793	79.19
377.003	32.08
377.214	68.95
377.424	89.43
377.635	152.91
377.845	99.67
378.055	169.3
378.266	62.8
378.476	91.48
378.686	154.96
378.897	36.18
379.107	75.09
379.317	83.28
379.528	36.18
379.738	95.57
379.948	13.65
380.158	95.57
380.369	134.48
380.579	77.14
380.789	79.19
380.999	144.72
381.21	111.96
381.42	83.28
381.63	68.95
381.84	144.72
382.05	87.38
382.261	109.91
382.471	27.99
382.681	142.68
382.891	150.87
383.101	126.29
383.311	52.56
383.521	54.61
383.731	107.86
383.941	89.43
384.151	105.81
384.361	103.76
384.571	30.04
384.781	58.71
384.991	85.33
385.201	66.9
385.411	91.48
385.621	44.37
385.831	120.15
386.041	144.72
386.251	109.91
386.461	150.87
386.671	93.52
386.881	177.49
387.091	126.29
387.301	99.67
387.511	114
387.72	75.09
387.93	159.06
388.14	50.52
388.35	93.52
388.56	120.15
388.769	97.62
388.979	99.67
389.189	103.76
389.399	-6.83
389.609	99.67
389.818	85.33
390.028	150.87
390.238	150.87
390.447	64.85
390.657	77.14
390.867	30.04
391.076	60.76
391.286	109.91
391.496	124.24
391.705	157.01
391.915	52.56
392.125	111.96
392.334	73.04
392.544	85.33
392.753	179.54
392.963	109.91
393.172	62.8
393.382	107.86
393.591	97.62
393.801	93.52
394.01	169.3
394.22	177.49
394.429	93.52
394.639	142.68
394.848	142.68
395.058	154.96
395.267	81.24
395.477	89.43
395.686	71
395.895	154.96
396.105	152.91
396.314	132.44
396.524	144.72
396.733	175.44
396.942	148.82
397.152	95.57
397.361	202.07
397.57	109.91
397.78	181.59
397.989	128.34
398.198	197.97
398.407	148.82
398.617	169.3
398.826	75.09
399.035	195.92
399.244	60.76
399.453	210.26
399.663	226.64
399.872	238.93
400.081	148.82
400.29	193.87
400.499	163.15
400.708	154.96
400.917	120.15
401.127	167.25
401.336	212.31
401.545	226.64
401.754	181.59
401.963	165.2
402.172	206.16
402.381	214.35
402.59	202.07
402.799	222.55
403.008	136.53
403.217	202.07
403.426	173.39
403.635	167.25
403.844	173.39
404.053	202.07
404.262	249.17
404.471	269.65
404.68	247.12
404.888	165.2
405.097	238.93
405.306	275.79
405.515	222.55
405.724	243.03
405.933	308.56
406.142	269.65
406.35	271.7
406.559	288.08
406.768	314.7
406.977	281.94
407.185	312.66
407.394	341.33
407.603	349.52
407.812	245.07
408.02	259.41
408.229	402.77
408.438	298.32
408.646	353.62
408.855	349.52
409.064	435.53
409.272	339.28
409.481	499.02
409.69	421.2
409.898	417.1
410.107	441.68
410.315	390.48
410.524	490.83
410.733	482.64
410.941	546.12
411.15	576.84
411.358	542.03
411.567	554.32
411.775	525.65
411.984	662.86
412.192	578.89
412.401	626
412.609	660.81
412.818	718.15
413.026	795.98
413.234	800.07
413.443	769.35
413.651	793.93
413.86	886.09
414.068	851.27
414.276	986.44
414.485	927.05
414.693	1045.83
414.901	1054.02
415.11	1109.32
415.318	1064.26
415.526	1094.98
415.734	1105.22
415.943	1107.27
416.151	1293.63
416.359	1277.25
416.567	1310.02
416.776	1303.87
416.984	1375.55
417.192	1537.34
417.4	1471.81
417.608	1537.34
417.817	1535.29
418.025	1656.12
418.233	1678.65
418.441	1592.64
418.649	1705.28
418.857	1883.45
419.065	1860.92
419.273	1881.4
419.481	2121.01
419.689	2207.03
419.897	2231.6
420.105	2280.75
420.313	2334
420.521	2391.34
420.729	2442.54
420.937	2497.84
421.145	2512.18
421.353	2645.29
421.561	2897.19
421.769	3091.75
421.977	3011.88
422.185	3063.08
422.393	3175.72
422.601	3478.82
422.809	3450.14
423.017	3413.28
423.224	3493.15
423.432	3626.27
423.64	3902.75
423.848	4154.65
424.056	3818.78
424.263	4300.05
424.471	4265.24
424.679	4414.74
424.887	4680.97
425.094	4656.4
425.302	4914.44
425.51	4848.91
425.718	5072.14
425.925	5072.14
426.133	5528.83
426.341	5596.42
426.548	5618.94
426.756	5901.56
426.964	5879.04
427.171	6294.77
427.379	6333.68
427.586	6614.26
427.794	6817.01
428.001	7189.74
428.209	7333.09
428.417	7435.49
428.624	7666.91
428.832	7752.93
429.039	7703.78
429.247	7828.7
429.454	8469.72
429.662	8953.04
429.869	8600.79
430.076	8991.95
430.284	8826.06
430.491	9159.88
430.699	9825.47
430.906	9786.56
431.114	9899.2
431.321	10259.64
431.528	10697.91
431.736	11238.57
431.943	11586.72
432.15	11402.41
432.358	11406.5
432.565	11959.45
432.772	12024.99
432.979	12809.36
433.187	12582.04
433.394	12905.62
433.601	13560.97
433.808	13819.01
434.016	13671.56
434.223	14228.6
434.43	15299.69
434.637	14685.3
434.844	15803.49
435.052	15879.27
435.259	16082.02
435.466	15965.28
435.673	16061.54
435.88	17089.62
436.087	17847.36
436.294	17953.86
436.501	17282.13
436.708	17779.78
436.915	18508.86
437.122	19350.57
437.329	19158.06
437.537	19954.72
437.743	20317.22
437.95	20091.94
438.157	21216.27
438.364	21865.48
438.571	21599.24
438.778	21836.81
438.985	24091.62
439.192	22858.74
439.399	24019.94
439.606	23165.94
439.813	24869.85
440.02	25916.36
440.227	25603.02
440.433	25265.11
440.64	26080.2
440.847	25985.99
441.054	26661.82
441.261	28666.78
441.467	27966.38
441.674	28677.02
441.881	29592.47
442.088	29223.83
442.294	28939.16
442.501	30069.64
442.708	30339.97
442.914	31912.81
443.121	33100.64
443.328	32449.38
443.534	34636.61
443.741	33438.55
443.948	33200.99
444.154	35918.64
444.361	35439.42
444.568	35789.62
444.774	35771.19
444.981	35814.19
445.187	36694.82
445.394	38812.42
445.6	38005.52
445.807	41681.63
446.013	39408.38
446.22	40817.38
446.426	42173.14
446.633	42662.6
446.839	43774.65
447.046	42328.78
447.252	44141.24
447.459	44225.2
447.665	44378.8
447.871	46090.9
448.078	47671.93
448.284	45755.04
448.491	46936.71
448.697	48540.27
448.903	49441.38
449.11	49103.46
449.316	48777.84
449.522	49496.67
449.728	50756.17
449.935	51401.29
450.141	51092.04
450.347	52087.35
450.553	50512.47
450.76	50950.73
450.966	52615.73
451.172	52314.68
451.378	53287.46
451.584	52333.11
451.791	53719.59
451.997	53475.88
452.203	53774.88
452.409	54073.88
452.615	53836.32
452.821	51673.66
453.027	51501.64
453.233	53934.62
453.44	51573.31
453.646	52372.02
453.852	52539.96
454.058	52959.79
454.264	51575.36
454.47	52611.63
454.676	51483.2
454.882	53248.55
455.088	48503.41
455.294	49187.43
455.5	50152.02
455.705	50567.76
455.911	48145.01
456.117	47651.45
456.323	46836.36
456.529	43809.46
456.735	46598.8
456.941	45367.97
457.147	44483.25
457.352	42898.12
457.558	42531.53
457.764	42687.18
457.97	41810.65
458.176	41065.19
458.381	40862.44
458.587	38628.1
458.793	38931.2
458.999	36629.29
459.204	39318.27
459.41	38609.67
459.616	35971.89
459.821	36172.59
460.027	35844.91
460.233	34966.34
460.438	33493.85
460.644	33798.99
460.85	32232.3
461.055	31921.01
461.261	31456.12
461.466	29447.06
461.672	28527.52
461.878	30600.07
462.083	28584.87
462.289	28337.06
462.494	27665.33
462.7	26756.03
462.905	26080.2
463.111	26647.49
463.316	26700.73
463.522	26153.93
463.727	26313.67
463.932	26172.36
464.138	25895.88
464.343	26076.1
464.549	25654.22
464.754	26000.33
464.959	25947.08
465.165	25766.86
465.37	24730.59
465.575	23929.83
465.781	24843.23
465.986	25275.35
466.191	24583.13
466.397	23907.3
466.602	22721.53
466.807	23929.83
467.012	23516.14
467.218	23389.17
