Data from USB4F104151__213__11-10-35-844.txt Node

Date: Wed Mar 12 11:10:35 EDT 2025
User: louis
Spectrometer: USB4F10415
Trigger mode: 4
Integration Time (sec): 2.000000E-2
Scans to average: 1
Electric dark correction enabled: true
Nonlinearity correction enabled: false
Boxcar width: 0
XAxis mode: Wavelengths
Number of Pixels in Spectrum: 3648
>>>>>Begin Spectral Data<<<<<
178.204	4.78
178.424	4.78
178.644	4.78
178.864	-83.28
179.084	-118.1
179.304	27.31
179.524	-32.08
179.744	-23.89
179.964	-7.51
180.184	43.69
180.404	-9.56
180.624	-54.61
180.844	41.64
181.064	17.07
181.283	19.11
181.503	-30.04
181.723	8.87
181.943	92.84
182.163	78.51
182.383	-48.47
182.602	60.07
182.822	8.87
183.042	74.41
183.262	17.07
183.482	33.45
183.701	-11.61
183.921	8.87
184.141	-85.33
184.361	41.64
184.58	4.78
184.8	0.68
185.02	-23.89
185.239	58.03
185.459	2.73
185.679	82.6
185.898	-25.94
186.118	33.45
186.338	19.11
186.557	72.36
186.777	-13.65
186.997	6.83
187.216	41.64
187.436	15.02
187.655	39.59
187.875	6.83
188.095	-7.51
188.314	135.85
188.534	49.83
188.753	12.97
188.973	53.93
189.192	19.11
189.412	74.41
189.631	82.6
189.851	29.35
190.07	19.11
190.29	35.5
190.509	25.26
190.729	-9.56
190.948	27.31
191.168	21.16
191.387	31.4
191.607	49.83
191.826	62.12
192.045	27.31
192.265	-36.18
192.484	-19.8
192.704	53.93
192.923	-52.56
193.142	121.51
193.362	70.31
193.581	70.31
193.8	-19.8
194.02	49.83
194.239	37.55
194.458	58.03
194.678	-11.61
194.897	8.87
195.116	33.45
195.335	12.97
195.555	-17.75
195.774	17.07
195.993	-11.61
196.212	-23.89
196.432	94.89
196.651	96.94
196.87	-7.51
197.089	17.07
197.308	35.5
197.528	58.03
197.747	25.26
197.966	82.6
198.185	43.69
198.404	4.78
198.623	-46.42
198.842	19.11
199.062	41.64
199.281	29.35
199.5	39.59
199.719	-23.89
199.938	12.97
200.157	12.97
200.376	12.97
200.595	-54.61
200.814	10.92
201.033	6.83
201.252	12.97
201.471	45.74
201.69	0.68
201.909	107.18
202.128	-19.8
202.347	62.12
202.566	-15.7
202.785	-13.65
203.004	-19.8
203.223	72.36
203.442	41.64
203.661	31.4
203.879	37.55
204.098	31.4
204.317	41.64
204.536	-1.37
204.755	10.92
204.974	55.98
205.193	27.31
205.411	76.46
205.63	94.89
205.849	37.55
206.068	66.22
206.287	-68.95
206.505	64.17
206.724	64.17
206.943	-13.65
207.162	-44.37
207.381	0.68
207.599	70.31
207.818	4.78
208.037	10.92
208.255	-44.37
208.474	41.64
208.693	70.31
208.911	82.6
209.13	64.17
209.349	15.02
209.567	8.87
209.786	53.93
210.005	33.45
210.223	47.79
210.442	-42.32
210.661	82.6
210.879	33.45
211.098	33.45
211.316	21.16
211.535	45.74
211.753	51.88
211.972	-9.56
212.191	21.16
212.409	39.59
212.628	-27.99
212.846	33.45
213.065	-9.56
213.283	82.6
213.502	49.83
213.72	19.11
213.938	-21.84
214.157	-5.46
214.375	-11.61
214.594	-13.65
214.812	37.55
215.031	76.46
215.249	-1.37
215.467	66.22
215.686	31.4
215.904	39.59
216.122	43.69
216.341	19.11
216.559	45.74
216.778	55.98
216.996	37.55
217.214	-25.94
217.432	-68.95
217.651	15.02
217.869	53.93
218.087	35.5
218.306	35.5
218.524	64.17
218.742	62.12
218.96	-48.47
219.179	47.79
219.397	12.97
219.615	49.83
219.833	47.79
220.051	-36.18
220.27	49.83
220.488	-5.46
220.706	12.97
220.924	64.17
221.142	-7.51
221.36	-83.28
221.578	33.45
221.796	35.5
222.015	-27.99
222.233	-30.04
222.451	74.41
222.669	21.16
222.887	-3.41
223.105	82.6
223.323	-15.7
223.541	47.79
223.759	29.35
223.977	-30.04
224.195	111.27
224.413	51.88
224.631	-7.51
224.849	29.35
225.067	78.51
225.285	21.16
225.503	84.65
225.721	8.87
225.939	12.97
226.157	27.31
226.375	25.26
226.592	-34.13
226.81	-1.37
227.028	58.03
227.246	27.31
227.464	76.46
227.682	53.93
227.9	17.07
228.117	90.79
228.335	25.26
228.553	27.31
228.771	10.92
228.989	-3.41
229.206	-15.7
229.424	-1.37
229.642	21.16
229.86	12.97
230.077	96.94
230.295	-23.89
230.513	51.88
230.731	88.75
230.948	-7.51
231.166	17.07
231.384	-3.41
231.601	23.21
231.819	41.64
232.037	35.5
232.254	-21.84
232.472	41.64
232.689	80.55
232.907	58.03
233.125	-30.04
233.342	74.41
233.56	10.92
233.777	-17.75
233.995	27.31
234.213	35.5
234.43	12.97
234.648	-25.94
234.865	51.88
235.083	123.56
235.3	37.55
235.518	55.98
235.735	15.02
235.953	31.4
236.17	2.73
236.388	-19.8
236.605	27.31
236.822	53.93
237.04	-9.56
237.257	25.26
237.475	-3.41
237.692	31.4
237.909	29.35
238.127	23.21
238.344	6.83
238.562	80.55
238.779	-5.46
238.996	23.21
239.214	-9.56
239.431	29.35
239.648	15.02
239.865	-19.8
240.083	62.12
240.3	15.02
240.517	58.03
240.735	60.07
240.952	23.21
241.169	35.5
241.386	51.88
241.603	107.18
241.821	12.97
242.038	23.21
242.255	31.4
242.472	84.65
242.689	45.74
242.907	29.35
243.124	-7.51
243.341	58.03
243.558	8.87
243.775	-11.61
243.992	17.07
244.209	45.74
244.426	39.59
244.643	21.16
244.86	2.73
245.078	41.64
245.295	80.55
245.512	41.64
245.729	21.16
245.946	45.74
246.163	35.5
246.38	41.64
246.597	31.4
246.814	-1.37
247.031	35.5
247.248	23.21
247.464	21.16
247.681	66.22
247.898	-3.41
248.115	35.5
248.332	-7.51
248.549	17.07
248.766	27.31
248.983	-19.8
249.2	49.83
249.417	35.5
249.633	-15.7
249.85	98.99
250.067	33.45
250.284	94.89
250.501	49.83
250.717	121.51
250.934	6.83
251.151	88.75
251.368	39.59
251.585	76.46
251.801	88.75
252.018	64.17
252.235	86.7
252.451	12.97
252.668	70.31
252.885	96.94
253.102	31.4
253.318	72.36
253.535	-5.46
253.752	29.35
253.968	80.55
254.185	-38.23
254.401	12.97
254.618	43.69
254.835	-11.61
255.051	66.22
255.268	72.36
255.484	-13.65
255.701	53.93
255.917	41.64
256.134	49.83
256.351	35.5
256.567	47.79
256.784	0.68
257	70.31
257.217	-9.56
257.433	-21.84
257.65	64.17
257.866	64.17
258.082	49.83
258.299	39.59
258.515	37.55
258.732	29.35
258.948	-3.41
259.165	-13.65
259.381	78.51
259.597	58.03
259.814	-11.61
260.03	-48.47
260.246	-17.75
260.463	4.78
260.679	29.35
260.895	19.11
261.112	55.98
261.328	35.5
261.544	58.03
261.761	10.92
261.977	-15.7
262.193	37.55
262.409	17.07
262.626	45.74
262.842	51.88
263.058	27.31
263.274	62.12
263.49	127.66
263.707	76.46
263.923	-9.56
264.139	-101.72
264.355	70.31
264.571	68.27
264.787	25.26
265.004	15.02
265.22	-30.04
265.436	60.07
265.652	51.88
265.868	43.69
266.084	0.68
266.3	58.03
266.516	62.12
266.732	2.73
266.948	62.12
267.164	33.45
267.38	10.92
267.596	-3.41
267.812	68.27
268.028	72.36
268.244	33.45
268.46	41.64
268.676	35.5
268.892	2.73
269.108	-68.95
269.324	-40.28
269.54	-3.41
269.756	66.22
269.972	66.22
270.188	58.03
270.403	-3.41
270.619	119.46
270.835	60.07
271.051	37.55
271.267	10.92
271.483	55.98
271.698	90.79
271.914	39.59
272.13	6.83
272.346	37.55
272.562	58.03
272.777	72.36
272.993	27.31
273.209	70.31
273.425	70.31
273.64	21.16
273.856	60.07
274.072	8.87
274.287	31.4
274.503	-7.51
274.719	53.93
274.934	47.79
275.15	-32.08
275.366	53.93
275.581	51.88
275.797	45.74
276.012	-7.51
276.228	-38.23
276.444	-3.41
276.659	82.6
276.875	-50.52
277.09	60.07
277.306	2.73
277.521	-21.84
277.737	-23.89
277.952	74.41
278.168	84.65
278.383	88.75
278.599	35.5
278.814	-15.7
279.03	-66.9
279.245	29.35
279.461	58.03
279.676	12.97
279.892	-30.04
280.107	60.07
280.322	51.88
280.538	107.18
280.753	10.92
280.969	-3.41
281.184	12.97
281.399	84.65
281.615	-54.61
281.83	2.73
282.045	90.79
282.26	-19.8
282.476	15.02
282.691	12.97
282.906	37.55
283.122	27.31
283.337	8.87
283.552	0.68
283.767	92.84
283.983	0.68
284.198	-34.13
284.413	111.27
284.628	66.22
284.843	-7.51
285.058	21.16
285.274	58.03
285.489	-11.61
285.704	33.45
285.919	115.37
286.134	58.03
286.349	35.5
286.564	-27.99
286.779	33.45
286.995	-1.37
287.21	-27.99
287.425	62.12
287.64	29.35
287.855	15.02
288.07	-3.41
288.285	-3.41
288.5	72.36
288.715	60.07
288.93	15.02
289.145	64.17
289.36	15.02
289.575	29.35
289.79	84.65
290.004	-25.94
290.219	144.04
290.434	27.31
290.649	12.97
290.864	31.4
291.079	35.5
291.294	27.31
291.509	80.55
291.724	10.92
291.938	68.27
292.153	45.74
292.368	78.51
292.583	51.88
292.798	121.51
293.012	70.31
293.227	64.17
293.442	49.83
293.657	115.37
293.871	31.4
294.086	94.89
294.301	82.6
294.516	86.7
294.73	21.16
294.945	-5.46
295.16	0.68
295.374	51.88
295.589	4.78
295.804	-13.65
296.018	64.17
296.233	86.7
296.447	4.78
296.662	12.97
296.877	-3.41
297.091	86.7
297.306	12.97
297.52	53.93
297.735	35.5
297.949	-75.09
298.164	37.55
298.378	-9.56
298.593	39.59
298.807	-48.47
299.022	45.74
299.236	66.22
299.451	15.02
299.665	-13.65
299.88	78.51
300.094	-32.08
300.309	47.79
300.523	74.41
300.737	0.68
300.952	23.21
301.166	4.78
301.381	-15.7
301.595	29.35
301.809	55.98
302.024	37.55
302.238	4.78
302.452	103.08
302.667	-3.41
302.881	27.31
303.095	96.94
303.309	27.31
303.524	60.07
303.738	107.18
303.952	82.6
304.166	12.97
304.381	-32.08
304.595	62.12
304.809	-58.71
305.023	127.66
305.237	103.08
305.452	90.79
305.666	29.35
305.88	76.46
306.094	-1.37
306.308	49.83
306.522	12.97
306.736	109.23
306.95	19.11
307.164	31.4
307.379	60.07
307.593	115.37
307.807	19.11
308.021	62.12
308.235	58.03
308.449	23.21
308.663	10.92
308.877	41.64
309.091	27.31
309.305	31.4
309.519	-46.42
309.733	66.22
309.947	-68.95
310.161	53.93
310.374	35.5
310.588	33.45
310.802	-25.94
311.016	6.83
311.23	78.51
311.444	8.87
311.658	4.78
311.872	-32.08
312.085	17.07
312.299	-3.41
312.513	4.78
312.727	43.69
312.941	10.92
313.154	-3.41
313.368	10.92
313.582	31.4
313.796	78.51
314.009	58.03
314.223	58.03
314.437	25.26
314.651	47.79
314.864	35.5
315.078	70.31
315.292	-30.04
315.505	6.83
315.719	43.69
315.933	70.31
316.146	-11.61
316.36	-32.08
316.573	19.11
316.787	88.75
317.001	-9.56
317.214	6.83
317.428	33.45
317.641	6.83
317.855	43.69
318.068	4.78
318.282	80.55
318.495	74.41
318.709	64.17
318.922	51.88
319.136	55.98
319.349	98.99
319.563	66.22
319.776	-3.41
319.99	-85.33
320.203	35.5
320.417	25.26
320.63	43.69
320.843	92.84
321.057	76.46
321.27	74.41
321.483	53.93
321.697	0.68
321.91	29.35
322.124	58.03
322.337	51.88
322.55	23.21
322.763	19.11
322.977	21.16
323.19	29.35
323.403	6.83
323.617	43.69
323.83	45.74
324.043	21.16
324.256	-9.56
324.469	25.26
324.683	31.4
324.896	-32.08
325.109	109.23
325.322	47.79
325.535	27.31
325.748	-9.56
325.962	-9.56
326.175	12.97
326.388	62.12
326.601	53.93
326.814	31.4
327.027	58.03
327.24	68.27
327.453	25.26
327.666	49.83
327.879	0.68
328.092	121.51
328.305	35.5
328.518	51.88
328.731	41.64
328.944	45.74
329.157	115.37
329.37	25.26
329.583	15.02
329.796	58.03
330.009	19.11
330.222	19.11
330.435	64.17
330.648	27.31
330.861	21.16
331.073	10.92
331.286	6.83
331.499	25.26
331.712	12.97
331.925	94.89
332.138	23.21
332.35	68.27
332.563	76.46
332.776	17.07
332.989	-1.37
333.202	53.93
333.414	66.22
333.627	-23.89
333.84	70.31
334.053	33.45
334.265	17.07
334.478	12.97
334.691	12.97
334.903	86.7
335.116	58.03
335.329	31.4
335.541	-19.8
335.754	96.94
335.966	25.26
336.179	49.83
336.392	-15.7
336.604	66.22
336.817	12.97
337.029	43.69
337.242	113.32
337.454	41.64
337.667	6.83
337.88	29.35
338.092	86.7
338.305	60.07
338.517	51.88
338.729	84.65
338.942	66.22
339.154	45.74
339.367	-15.7
339.579	47.79
339.792	-60.76
340.004	121.51
340.217	49.83
340.429	131.75
340.641	12.97
340.854	96.94
341.066	109.23
341.278	82.6
341.491	60.07
341.703	39.59
341.915	19.11
342.128	148.14
342.34	17.07
342.552	23.21
342.764	70.31
342.977	62.12
343.189	94.89
343.401	6.83
343.613	21.16
343.826	82.6
344.038	92.84
344.25	119.46
344.462	43.69
344.674	72.36
344.886	78.51
345.099	72.36
345.311	82.6
345.523	49.83
345.735	-7.51
345.947	70.31
346.159	62.12
346.371	101.03
346.583	53.93
346.795	51.88
347.007	-32.08
347.219	62.12
347.431	43.69
347.643	60.07
347.855	-19.8
348.067	131.75
348.279	-11.61
348.491	45.74
348.703	-27.99
348.915	55.98
349.127	29.35
349.339	66.22
349.551	115.37
349.763	49.83
349.975	70.31
350.187	4.78
350.399	70.31
350.61	-40.28
350.822	43.69
351.034	62.12
351.246	-11.61
351.458	41.64
351.669	74.41
351.881	8.87
352.093	62.12
352.305	66.22
352.517	49.83
352.728	82.6
352.94	41.64
353.152	37.55
353.363	0.68
353.575	33.45
353.787	68.27
353.999	51.88
354.21	76.46
354.422	84.65
354.633	68.27
354.845	60.07
355.057	8.87
355.268	29.35
355.48	43.69
355.692	-36.18
355.903	-3.41
356.115	19.11
356.326	35.5
356.538	21.16
356.749	17.07
356.961	60.07
357.172	15.02
357.384	37.55
357.595	111.27
357.807	58.03
358.018	4.78
358.23	41.64
358.441	117.42
358.653	4.78
358.864	58.03
359.075	23.21
359.287	82.6
359.498	37.55
359.709	78.51
359.921	49.83
360.132	64.17
360.344	76.46
360.555	33.45
360.766	125.61
360.977	-25.94
361.189	109.23
361.4	37.55
361.611	27.31
361.823	29.35
362.034	45.74
362.245	10.92
362.456	103.08
362.667	39.59
362.879	23.21
363.09	25.26
363.301	0.68
363.512	33.45
363.723	123.56
363.935	88.75
364.146	82.6
364.357	29.35
364.568	23.21
364.779	6.83
364.99	98.99
365.201	78.51
365.412	70.31
365.623	-11.61
365.834	-38.23
366.045	41.64
366.256	25.26
366.467	141.99
366.678	58.03
366.889	62.12
367.1	45.74
367.311	72.36
367.522	35.5
367.733	72.36
367.944	37.55
368.155	70.31
368.366	2.73
368.577	66.22
368.788	96.94
368.999	-15.7
369.209	33.45
369.42	60.07
369.631	70.31
369.842	37.55
370.053	23.21
370.264	-5.46
370.474	60.07
370.685	53.93
370.896	64.17
371.107	37.55
371.317	-7.51
371.528	45.74
371.739	47.79
371.95	27.31
372.16	135.85
372.371	72.36
372.582	47.79
372.792	35.5
373.003	43.69
373.214	35.5
373.424	45.74
373.635	8.87
373.846	62.12
374.056	25.26
374.267	-21.84
374.477	12.97
374.688	33.45
374.898	51.88
375.109	8.87
375.319	27.31
375.53	109.23
375.74	47.79
375.951	37.55
376.161	35.5
376.372	62.12
376.582	-5.46
376.793	19.11
377.003	60.07
377.214	80.55
377.424	58.03
377.635	39.59
377.845	15.02
378.055	35.5
378.266	17.07
378.476	33.45
378.686	45.74
378.897	27.31
379.107	88.75
379.317	45.74
379.528	33.45
379.738	39.59
379.948	47.79
380.158	86.7
380.369	111.27
380.579	55.98
380.789	70.31
380.999	45.74
381.21	37.55
381.42	51.88
381.63	39.59
381.84	109.23
382.05	17.07
382.261	92.84
382.471	68.27
382.681	53.93
382.891	66.22
383.101	12.97
383.311	8.87
383.521	10.92
383.731	6.83
383.941	86.7
384.151	41.64
384.361	-40.28
384.571	119.46
384.781	53.93
384.991	49.83
385.201	107.18
385.411	68.27
385.621	25.26
385.831	33.45
386.041	66.22
386.251	82.6
386.461	31.4
386.671	74.41
386.881	33.45
387.091	88.75
387.301	62.12
387.511	80.55
387.72	115.37
387.93	53.93
388.14	-5.46
388.35	-5.46
388.56	96.94
388.769	53.93
388.979	105.13
389.189	25.26
389.399	64.17
389.609	80.55
389.818	92.84
390.028	31.4
390.238	66.22
390.447	-3.41
390.657	113.32
390.867	180.9
391.076	88.75
391.286	96.94
391.496	41.64
391.705	47.79
391.915	66.22
392.125	60.07
392.334	98.99
392.544	107.18
392.753	-3.41
392.963	84.65
393.172	76.46
393.382	53.93
393.591	117.42
393.801	27.31
394.01	158.38
394.22	76.46
394.429	-7.51
394.639	62.12
394.848	41.64
395.058	58.03
395.267	103.08
395.477	31.4
395.686	115.37
395.895	68.27
396.105	121.51
396.314	80.55
396.524	98.99
396.733	109.23
396.942	105.13
397.152	53.93
397.361	101.03
397.57	49.83
397.78	62.12
397.989	84.65
398.198	156.33
398.407	66.22
398.617	152.23
398.826	76.46
399.035	33.45
399.244	168.62
399.453	82.6
399.663	131.75
399.872	86.7
400.081	66.22
400.29	107.18
400.499	137.9
400.708	84.65
400.917	96.94
401.127	39.59
401.336	88.75
401.545	98.99
401.754	109.23
401.963	92.84
402.172	45.74
402.381	96.94
402.59	84.65
402.799	158.38
403.008	107.18
403.217	160.42
403.426	166.57
403.635	55.98
403.844	178.86
404.053	101.03
404.262	150.18
404.471	180.9
404.68	162.47
404.888	96.94
405.097	111.27
405.306	125.61
405.515	88.75
405.724	70.31
405.933	178.86
406.142	158.38
406.35	250.53
406.559	148.14
406.768	92.84
406.977	170.66
407.185	164.52
407.394	152.23
407.603	230.06
407.812	182.95
408.02	129.7
408.229	154.28
408.438	244.39
408.646	277.16
408.855	166.57
409.064	211.62
409.272	180.9
409.481	291.49
409.69	185
409.898	246.44
410.107	187.05
410.315	314.02
410.524	291.49
410.733	434.85
410.941	354.98
411.15	250.53
411.358	277.16
411.567	340.65
411.775	334.5
411.984	357.03
412.192	412.32
412.401	330.41
412.609	395.94
412.818	459.43
413.026	404.13
413.234	436.9
413.443	512.67
413.651	504.48
413.86	492.2
414.068	555.68
414.276	535.2
414.485	506.53
414.693	539.3
414.901	600.74
415.11	559.78
415.318	570.02
415.526	588.45
415.734	690.85
415.943	701.09
416.151	721.57
416.359	684.7
416.567	791.2
416.776	772.77
416.984	821.92
417.192	940.7
417.4	801.44
417.608	862.88
417.817	1012.38
418.025	975.52
418.233	983.71
418.441	1008.28
418.649	1016.48
418.857	1153.69
419.065	1182.36
419.273	1055.39
419.481	1196.7
419.689	1241.75
419.897	1426.07
420.105	1247.9
420.313	1421.97
420.521	1350.29
420.729	1374.87
420.937	1456.79
421.145	1551
421.353	1579.67
421.561	1694.35
421.769	1663.63
421.977	1839.76
422.185	1768.08
422.393	1948.3
422.601	1960.59
422.809	1911.44
423.017	2009.74
423.224	2114.19
423.432	2067.08
423.64	2103.95
423.848	2361.99
424.056	2245.26
424.263	2427.53
424.471	2482.82
424.679	2589.32
424.887	2663.04
425.094	2638.47
425.302	2744.96
425.51	2865.79
425.718	2939.52
425.925	2945.66
426.133	3156.6
426.341	3353.21
426.548	3406.45
426.756	3326.58
426.964	3408.5
427.171	3596.92
427.379	3691.12
427.586	3799.66
427.794	3889.78
428.001	4129.39
428.209	4264.55
428.417	4082.28
428.624	4356.71
428.832	4350.57
429.039	4354.66
429.247	4366.95
429.454	4770.4
429.662	5259.87
429.869	4883.04
430.076	5290.59
430.284	5104.22
430.491	5331.55
430.699	5601.88
430.906	5483.1
431.114	5669.46
431.321	5935.7
431.528	6013.52
431.736	6396.49
431.943	6711.88
432.15	6591.05
432.358	6455.88
432.565	6787.65
432.772	6818.37
432.979	7131.71
433.187	7414.33
433.394	7166.53
433.601	7911.99
433.808	7846.45
434.016	7850.55
434.223	8151.6
434.43	9062.94
434.637	8438.31
434.844	9146.91
435.052	9470.49
435.259	9302.56
435.466	9386.52
435.673	9210.4
435.88	9837.08
436.087	10355.21
436.294	10459.66
436.501	10064.4
436.708	10228.24
436.915	10684.94
437.122	11293.18
437.329	10994.18
437.537	11278.85
437.743	11485.69
437.95	11579.9
438.157	12177.9
438.364	12476.91
438.571	12597.74
438.778	12534.25
438.985	13685.21
439.192	13380.06
439.399	13748.7
439.606	13488.6
439.813	14150.1
440.02	14930.37
440.227	14467.53
440.433	14445.01
440.64	15090.12
440.847	15106.5
441.054	15477.18
441.261	16214.45
441.467	16159.16
441.674	16622
441.881	16904.62
442.088	17076.65
442.294	16742.83
442.501	17375.65
442.708	17535.39
442.914	18555.28
443.121	19038.6
443.328	18706.83
443.534	19945.85
443.741	19440
443.948	18747.79
444.154	20384.12
444.361	20275.57
444.568	20615.54
444.774	20294
444.981	20756.85
445.187	21180.78
445.394	22004.06
445.6	21711.2
445.807	24117.56
446.013	22675.79
446.22	23351.62
446.426	24435
446.633	24371.51
446.839	25454.89
447.046	24258.87
447.252	25747.75
447.459	25567.52
447.665	25180.46
447.871	26720.53
448.078	27422.98
448.284	26145.05
448.491	27048.21
448.697	28164.35
448.903	28549.37
449.11	28569.85
449.316	28297.47
449.522	28760.31
449.728	29432.04
449.935	29761.76
450.141	29640.93
450.347	30447.83
450.553	29294.83
450.76	29739.24
450.966	30554.33
451.172	30349.53
451.378	31295.69
451.584	30232.8
451.791	31144.14
451.997	30892.24
452.203	31647.94
452.409	31512.78
452.615	31467.72
452.821	29933.79
453.027	29952.23
453.233	31512.78
453.44	29749.48
453.646	30314.72
453.852	30415.07
454.058	30963.92
454.264	30103.78
454.47	30742.74
454.676	29597.93
454.882	30808.28
455.088	28408.06
455.294	28344.57
455.5	28928.24
455.705	29368.55
455.911	28115.2
456.117	27689.22
456.323	27187.47
456.529	25612.58
456.735	26751.25
456.941	26069.28
457.147	25833.76
457.352	25139.5
457.558	24656.18
457.764	24772.91
457.97	24144.19
458.176	23753.02
458.381	23730.5
458.587	22651.22
458.793	22442.32
458.999	21404
459.204	23179.59
459.41	22305.11
459.616	20820.33
459.821	20771.18
460.027	20781.42
460.233	20484.47
460.438	19247.49
460.644	19616.13
460.85	18817.42
461.055	18194.84
461.261	18459.02
461.466	17002.92
461.672	16546.22
461.878	17699.23
462.083	16306.61
462.289	16374.19
462.494	16097.72
462.7	15430.08
462.905	14965.19
463.111	15307.2
463.316	15378.88
463.522	15208.9
463.727	15186.37
463.932	15172.04
464.138	15174.08
464.343	15045.06
464.549	14701
464.754	15106.5
464.959	14997.96
465.165	14672.33
465.37	14111.19
465.575	14051.8
465.781	14395.85
465.986	14551.5
466.191	13836.76
466.397	13754.84
466.602	13074.92
466.807	13480.41
467.012	13732.31
467.218	13705.69
467.423	13294.05
467.628	13326.82
467.833	13939.16
468.038	13464.03
468.244	13109.73
468.449	13447.65
