Data from USB4F104151__286__11-12-57-480.txt Node

Date: Wed Mar 12 11:12:57 EDT 2025
User: louis
Spectrometer: USB4F10415
Trigger mode: 4
Integration Time (sec): 2.000000E-2
Scans to average: 1
Electric dark correction enabled: true
Nonlinearity correction enabled: false
Boxcar width: 0
XAxis mode: Wavelengths
Number of Pixels in Spectrum: 3648
>>>>>Begin Spectral Data<<<<<
178.204	-77.31
178.424	-77.31
178.644	-77.31
178.864	-69.12
179.084	-81.41
179.304	53.76
179.524	-34.3
179.744	-26.11
179.964	33.28
180.184	-17.92
180.404	-11.78
180.624	45.57
180.844	-11.78
181.064	20.99
181.283	-50.69
181.503	-26.11
181.723	25.09
181.943	-30.21
182.163	-48.64
182.383	12.8
182.602	39.42
182.822	61.95
183.042	2.56
183.262	-22.02
183.482	37.38
183.701	2.56
183.921	-11.78
184.141	-9.73
184.361	-3.58
184.58	66.05
184.8	4.61
185.02	-7.68
185.239	84.48
185.459	-3.58
185.679	23.04
185.898	-24.06
186.118	51.71
186.338	-17.92
186.557	-11.78
186.777	-48.64
186.997	49.66
187.216	45.57
187.436	47.62
187.655	-3.58
187.875	51.71
188.095	27.14
188.314	29.18
188.534	88.57
188.753	-28.16
188.973	84.48
189.192	27.14
189.412	31.23
189.631	39.42
189.851	27.14
190.07	66.05
190.29	-36.35
190.509	20.99
190.729	-17.92
190.948	-22.02
191.168	107.01
191.387	0.51
191.607	29.18
191.826	-11.78
192.045	55.81
192.265	-32.26
192.484	53.76
192.704	12.8
192.923	14.85
193.142	123.39
193.362	53.76
193.581	53.76
193.8	53.76
194.02	88.57
194.239	-3.58
194.458	49.66
194.678	-5.63
194.897	16.9
195.116	-32.26
195.335	43.52
195.555	76.29
195.774	59.9
195.993	86.53
196.212	61.95
196.432	59.9
196.651	49.66
196.87	27.14
197.089	76.29
197.308	43.52
197.528	74.24
197.747	-36.35
197.966	64
198.185	66.05
198.404	86.53
198.623	0.51
198.842	47.62
199.062	68.09
199.281	18.94
199.5	29.18
199.719	-15.87
199.938	29.18
200.157	-1.54
200.376	66.05
200.595	-1.54
200.814	59.9
201.033	84.48
201.252	74.24
201.471	31.23
201.69	125.44
201.909	57.86
202.128	113.15
202.347	10.75
202.566	64
202.785	-60.93
203.004	59.9
203.223	-1.54
203.442	16.9
203.661	33.28
203.879	41.47
204.098	43.52
204.317	74.24
204.536	29.18
204.755	64
204.974	41.47
205.193	0.51
205.411	80.38
205.63	37.38
205.849	-40.45
206.068	10.75
206.287	20.99
206.505	82.43
206.724	-15.87
206.943	18.94
207.162	72.19
207.381	16.9
207.599	-5.63
207.818	59.9
208.037	78.33
208.255	61.95
208.474	47.62
208.693	23.04
208.911	53.76
209.13	-3.58
209.349	109.05
209.567	49.66
209.786	23.04
210.005	23.04
210.223	76.29
210.442	-42.5
210.661	55.81
210.879	-17.92
211.098	41.47
211.316	-19.97
211.535	-5.63
211.753	23.04
211.972	82.43
212.191	86.53
212.409	64
212.628	72.19
212.846	82.43
213.065	113.15
213.283	37.38
213.502	70.14
213.72	-28.16
213.938	41.47
214.157	37.38
214.375	41.47
214.594	102.91
214.812	16.9
215.031	8.7
215.249	113.15
215.467	29.18
215.686	41.47
215.904	51.71
216.122	70.14
216.341	29.18
216.559	25.09
216.778	66.05
216.996	68.09
217.214	61.95
217.432	33.28
217.651	-15.87
217.869	41.47
218.087	-38.4
218.306	6.66
218.524	88.57
218.742	10.75
218.96	55.81
219.179	55.81
219.397	41.47
219.615	66.05
219.833	-11.78
220.051	-48.64
220.27	20.99
220.488	74.24
220.706	-22.02
220.924	41.47
221.142	61.95
221.36	4.61
221.578	117.25
221.796	23.04
222.015	37.38
222.233	23.04
222.451	70.14
222.669	29.18
222.887	35.33
223.105	-5.63
223.323	49.66
223.541	-11.78
223.759	70.14
223.977	61.95
224.195	29.18
224.413	14.85
224.631	59.9
224.849	-7.68
225.067	10.75
225.285	20.99
225.503	-19.97
225.721	18.94
225.939	107.01
226.157	68.09
226.375	113.15
226.592	41.47
226.81	-19.97
227.028	49.66
227.246	33.28
227.464	-1.54
227.682	-19.97
227.9	68.09
228.117	23.04
228.335	45.57
228.553	49.66
228.771	12.8
228.989	96.77
229.206	47.62
229.424	12.8
229.642	31.23
229.86	57.86
230.077	-40.45
230.295	14.85
230.513	-17.92
230.731	70.14
230.948	14.85
231.166	-5.63
231.384	8.7
231.601	43.52
231.819	94.72
232.037	29.18
232.254	14.85
232.472	59.9
232.689	33.28
232.907	14.85
233.125	31.23
233.342	41.47
233.56	6.66
233.777	-5.63
233.995	4.61
234.213	4.61
234.43	119.29
234.648	49.66
234.865	39.42
235.083	76.29
235.3	-15.87
235.518	37.38
235.735	39.42
235.953	53.76
236.17	-1.54
236.388	-7.68
236.605	25.09
236.822	45.57
237.04	115.2
237.257	47.62
237.475	-5.63
237.692	12.8
237.909	115.2
238.127	-40.45
238.344	41.47
238.562	76.29
238.779	-1.54
238.996	-42.5
239.214	14.85
239.431	29.18
239.648	18.94
239.865	82.43
240.083	59.9
240.3	104.96
240.517	-17.92
240.735	20.99
240.952	119.29
241.169	90.62
241.386	51.71
241.603	0.51
241.821	18.94
242.038	18.94
242.255	49.66
242.472	47.62
242.689	102.91
242.907	0.51
243.124	49.66
243.341	4.61
243.558	49.66
243.775	35.33
243.992	49.66
244.209	-3.58
244.426	152.06
244.643	29.18
244.86	64
245.078	66.05
245.295	41.47
245.512	20.99
245.729	25.09
245.946	43.52
246.163	37.38
246.38	33.28
246.597	12.8
246.814	12.8
247.031	74.24
247.248	86.53
247.464	72.19
247.681	2.56
247.898	35.33
248.115	35.33
248.332	6.66
248.549	94.72
248.766	154.11
248.983	35.33
249.2	43.52
249.417	2.56
249.633	102.91
249.85	33.28
250.067	4.61
250.284	96.77
250.501	29.18
250.717	35.33
250.934	-30.21
251.151	12.8
251.368	43.52
251.585	74.24
251.801	88.57
252.018	-30.21
252.235	16.9
252.451	8.7
252.668	70.14
252.885	100.86
253.102	82.43
253.318	37.38
253.535	18.94
253.752	51.71
253.968	23.04
254.185	43.52
254.401	-3.58
254.618	16.9
254.835	39.42
255.051	90.62
255.268	12.8
255.484	14.85
255.701	66.05
255.917	43.52
256.134	0.51
256.351	-19.97
256.567	-48.64
256.784	86.53
257	12.8
257.217	43.52
257.433	135.68
257.65	57.86
257.866	117.25
258.082	37.38
258.299	-11.78
258.515	14.85
258.732	37.38
258.948	14.85
259.165	57.86
259.381	0.51
259.597	68.09
259.814	10.75
260.03	8.7
260.246	14.85
260.463	27.14
260.679	131.58
260.895	0.51
261.112	94.72
261.328	125.44
261.544	61.95
261.761	119.29
261.977	-46.59
262.193	72.19
262.409	8.7
262.626	27.14
262.842	53.76
263.058	53.76
263.274	23.04
263.49	64
263.707	82.43
263.923	74.24
264.139	-9.73
264.355	61.95
264.571	23.04
264.787	49.66
265.004	27.14
265.22	82.43
265.436	-7.68
265.652	6.66
265.868	18.94
266.084	33.28
266.3	82.43
266.516	-3.58
266.732	25.09
266.948	-15.87
267.164	8.7
267.38	57.86
267.596	137.73
267.812	49.66
268.028	92.67
268.244	4.61
268.46	59.9
268.676	86.53
268.892	57.86
269.108	2.56
269.324	0.51
269.54	-3.58
269.756	68.09
269.972	72.19
270.188	16.9
270.403	47.62
270.619	25.09
270.835	61.95
271.051	20.99
271.267	25.09
271.483	-38.4
271.698	57.86
271.914	47.62
272.13	-34.3
272.346	37.38
272.562	64
272.777	29.18
272.993	-7.68
273.209	70.14
273.425	43.52
273.64	16.9
273.856	57.86
274.072	107.01
274.287	-9.73
274.503	12.8
274.719	33.28
274.934	84.48
275.15	29.18
275.366	150.01
275.581	82.43
275.797	39.42
276.012	37.38
276.228	18.94
276.444	-22.02
276.659	82.43
276.875	-44.54
277.09	33.28
277.306	53.76
277.521	41.47
277.737	-1.54
277.952	20.99
278.168	20.99
278.383	33.28
278.599	72.19
278.814	61.95
279.03	25.09
279.245	55.81
279.461	68.09
279.676	74.24
279.892	-5.63
280.107	10.75
280.322	16.9
280.538	4.61
280.753	84.48
280.969	31.23
281.184	18.94
281.399	-7.68
281.615	102.91
281.83	47.62
282.045	-52.74
282.26	31.23
282.476	98.81
282.691	51.71
282.906	2.56
283.122	8.7
283.337	8.7
283.552	-13.82
283.767	4.61
283.983	27.14
284.198	25.09
284.413	76.29
284.628	39.42
284.843	33.28
285.058	14.85
285.274	33.28
285.489	-7.68
285.704	-44.54
285.919	14.85
286.134	49.66
286.349	10.75
286.564	27.14
286.779	47.62
286.995	104.96
287.21	37.38
287.425	113.15
287.64	70.14
287.855	23.04
288.07	25.09
288.285	57.86
288.5	61.95
288.715	76.29
288.93	39.42
289.145	29.18
289.36	23.04
289.575	47.62
289.79	-13.82
290.004	-7.68
290.219	49.66
290.434	25.09
290.649	39.42
290.864	49.66
291.079	-17.92
291.294	-17.92
291.509	-17.92
291.724	-13.82
291.938	41.47
292.153	57.86
292.368	29.18
292.583	33.28
292.798	90.62
293.012	98.81
293.227	45.57
293.442	14.85
293.657	20.99
293.871	37.38
294.086	0.51
294.301	23.04
294.516	76.29
294.73	68.09
294.945	23.04
295.16	23.04
295.374	74.24
295.589	2.56
295.804	129.53
296.018	70.14
296.233	72.19
296.447	4.61
296.662	51.71
296.877	39.42
297.091	92.67
297.306	53.76
297.52	-11.78
297.735	84.48
297.949	55.81
298.164	80.38
298.378	49.66
298.593	39.42
298.807	98.81
299.022	37.38
299.236	123.39
299.451	-24.06
299.665	47.62
299.88	92.67
300.094	4.61
300.309	27.14
300.523	94.72
300.737	45.57
300.952	137.73
301.166	72.19
301.381	-3.58
301.595	20.99
301.809	61.95
302.024	53.76
302.238	25.09
302.452	47.62
302.667	127.49
302.881	84.48
303.095	10.75
303.309	96.77
303.524	31.23
303.738	29.18
303.952	-28.16
304.166	125.44
304.381	43.52
304.595	41.47
304.809	-44.54
305.023	64
305.237	-17.92
305.452	68.09
305.666	16.9
305.88	23.04
306.094	104.96
306.308	98.81
306.522	109.05
306.736	4.61
306.95	49.66
307.164	23.04
307.379	49.66
307.593	27.14
307.807	53.76
308.021	31.23
308.235	4.61
308.449	12.8
308.663	80.38
308.877	104.96
309.091	61.95
309.305	88.57
309.519	-54.78
309.733	43.52
309.947	25.09
310.161	156.16
310.374	-26.11
310.588	57.86
310.802	76.29
311.016	82.43
311.23	-1.54
311.444	74.24
311.658	68.09
311.872	100.86
312.085	49.66
312.299	61.95
312.513	88.57
312.727	129.53
312.941	14.85
313.154	92.67
313.368	61.95
313.582	47.62
313.796	61.95
314.009	90.62
314.223	-24.06
314.437	29.18
314.651	20.99
314.864	0.51
315.078	129.53
315.292	-7.68
315.505	-9.73
315.719	51.71
315.933	-40.45
316.146	18.94
316.36	18.94
316.573	94.72
316.787	113.15
317.001	-11.78
317.214	61.95
317.428	74.24
317.641	70.14
317.855	41.47
318.068	-15.87
318.282	51.71
318.495	72.19
318.709	57.86
318.922	43.52
319.136	25.09
319.349	86.53
319.563	49.66
319.776	25.09
319.99	6.66
320.203	35.33
320.417	92.67
320.63	72.19
320.843	150.01
321.057	57.86
321.27	-17.92
321.483	51.71
321.697	20.99
321.91	78.33
322.124	16.9
322.337	-7.68
322.55	27.14
322.763	86.53
322.977	64
323.19	-22.02
323.403	92.67
323.617	76.29
323.83	23.04
324.043	66.05
324.256	84.48
324.469	49.66
324.683	74.24
324.896	14.85
325.109	123.39
325.322	16.9
325.535	25.09
325.748	43.52
325.962	72.19
326.175	43.52
326.388	96.77
326.601	8.7
326.814	80.38
327.027	-19.97
327.24	70.14
327.453	20.99
327.666	57.86
327.879	68.09
328.092	68.09
328.305	33.28
328.518	119.29
328.731	-13.82
328.944	45.57
329.157	68.09
329.37	84.48
329.583	117.25
329.796	74.24
330.009	61.95
330.222	-5.63
330.435	43.52
330.648	16.9
330.861	10.75
331.073	51.71
331.286	53.76
331.499	125.44
331.712	-69.12
331.925	47.62
332.138	98.81
332.35	47.62
332.563	39.42
332.776	-1.54
332.989	43.52
333.202	94.72
333.414	86.53
333.627	57.86
333.84	113.15
334.053	-28.16
334.265	111.1
334.478	20.99
334.691	39.42
334.903	86.53
335.116	16.9
335.329	66.05
335.541	-7.68
335.754	14.85
335.966	27.14
336.179	39.42
336.392	29.18
336.604	82.43
336.817	-15.87
337.029	23.04
337.242	45.57
337.454	111.1
337.667	29.18
337.88	57.86
338.092	41.47
338.305	18.94
338.517	23.04
338.729	102.91
338.942	-30.21
339.154	45.57
339.367	33.28
339.579	-30.21
339.792	-36.35
340.004	154.11
340.217	86.53
340.429	49.66
340.641	59.9
340.854	27.14
341.066	74.24
341.278	66.05
341.491	51.71
341.703	80.38
341.915	27.14
342.128	57.86
342.34	31.23
342.552	51.71
342.764	74.24
342.977	-24.06
343.189	84.48
343.401	150.01
343.613	45.57
343.826	29.18
344.038	4.61
344.25	76.29
344.462	68.09
344.674	94.72
344.886	0.51
345.099	90.62
345.311	41.47
345.523	33.28
345.735	80.38
345.947	57.86
346.159	72.19
346.371	82.43
346.583	49.66
346.795	104.96
347.007	53.76
347.219	57.86
347.431	66.05
347.643	57.86
347.855	20.99
348.067	-11.78
348.279	10.75
348.491	57.86
348.703	96.77
348.915	49.66
349.127	12.8
349.339	51.71
349.551	84.48
349.763	-11.78
349.975	10.75
350.187	31.23
350.399	51.71
350.61	45.57
350.822	72.19
351.034	49.66
351.246	68.09
351.458	104.96
351.669	74.24
351.881	45.57
352.093	98.81
352.305	8.7
352.517	121.34
352.728	84.48
352.94	43.52
353.152	70.14
353.363	70.14
353.575	117.25
353.787	92.67
353.999	111.1
354.21	66.05
354.422	84.48
354.633	74.24
354.845	33.28
355.057	18.94
355.268	25.09
355.48	4.61
355.692	74.24
355.903	57.86
356.115	18.94
356.326	-24.06
356.538	115.2
356.749	74.24
356.961	61.95
357.172	88.57
357.384	37.38
357.595	10.75
357.807	88.57
358.018	33.28
358.23	57.86
358.441	131.58
358.653	45.57
358.864	25.09
359.075	-17.92
359.287	41.47
359.498	-22.02
359.709	-3.58
359.921	39.42
360.132	80.38
360.344	102.91
360.555	23.04
360.766	10.75
360.977	2.56
361.189	113.15
361.4	160.25
361.611	90.62
361.823	119.29
362.034	119.29
362.245	-30.21
362.456	45.57
362.667	45.57
362.879	92.67
363.09	127.49
363.301	14.85
363.512	-50.69
363.723	68.09
363.935	66.05
364.146	127.49
364.357	-19.97
364.568	37.38
364.779	4.61
364.99	135.68
365.201	16.9
365.412	-17.92
365.623	25.09
365.834	80.38
366.045	98.81
366.256	98.81
366.467	8.7
366.678	61.95
366.889	57.86
367.1	33.28
367.311	90.62
367.522	64
367.733	70.14
367.944	172.54
368.155	68.09
368.366	92.67
368.577	82.43
368.788	16.9
368.999	-15.87
369.209	51.71
369.42	115.2
369.631	74.24
369.842	16.9
370.053	12.8
370.264	70.14
370.474	98.81
370.685	94.72
370.896	0.51
371.107	29.18
371.317	41.47
371.528	31.23
371.739	61.95
371.95	37.38
372.16	143.87
372.371	90.62
372.582	35.33
372.792	-40.45
373.003	45.57
373.214	37.38
373.424	-3.58
373.635	94.72
373.846	88.57
374.056	29.18
374.267	8.7
374.477	41.47
374.688	49.66
374.898	66.05
375.109	141.82
375.319	90.62
375.53	70.14
375.74	53.76
375.951	51.71
376.161	25.09
376.372	14.85
376.582	8.7
376.793	68.09
377.003	-38.4
377.214	35.33
377.424	96.77
377.635	47.62
377.845	84.48
378.055	12.8
378.266	68.09
378.476	68.09
378.686	23.04
378.897	96.77
379.107	61.95
379.317	-7.68
379.528	100.86
379.738	90.62
379.948	29.18
380.158	68.09
380.369	47.62
380.579	59.9
380.789	113.15
380.999	47.62
381.21	31.23
381.42	121.34
381.63	94.72
381.84	168.45
382.05	80.38
382.261	121.34
382.471	129.53
382.681	80.38
382.891	90.62
383.101	88.57
383.311	78.33
383.521	18.94
383.731	74.24
383.941	43.52
384.151	16.9
384.361	41.47
384.571	70.14
384.781	76.29
384.991	51.71
385.201	139.77
385.411	27.14
385.621	16.9
385.831	61.95
386.041	49.66
386.251	86.53
386.461	55.81
386.671	80.38
386.881	49.66
387.091	88.57
387.301	174.59
387.511	27.14
387.72	49.66
387.93	84.48
388.14	0.51
388.35	139.77
388.56	33.28
388.769	113.15
388.979	82.43
389.189	49.66
389.399	12.8
389.609	12.8
389.818	143.87
390.028	115.2
390.238	74.24
390.447	-3.58
390.657	59.9
390.867	72.19
391.076	111.1
391.286	25.09
391.496	115.2
391.705	16.9
391.915	174.59
392.125	90.62
392.334	98.81
392.544	109.05
392.753	64
392.963	61.95
393.172	86.53
393.382	107.01
393.591	162.3
393.801	78.33
394.01	152.06
394.22	145.92
394.429	70.14
394.639	49.66
394.848	72.19
395.058	131.58
395.267	70.14
395.477	64
395.686	14.85
395.895	135.68
396.105	84.48
396.314	166.4
396.524	35.33
396.733	76.29
396.942	217.6
397.152	113.15
397.361	160.25
397.57	111.1
397.78	115.2
397.989	147.97
398.198	147.97
398.407	33.28
398.617	115.2
398.826	59.9
399.035	115.2
399.244	57.86
399.453	104.96
399.663	170.49
399.872	131.58
400.081	55.81
400.29	193.02
400.499	115.2
400.708	92.67
400.917	98.81
401.127	76.29
401.336	88.57
401.545	113.15
401.754	107.01
401.963	96.77
402.172	152.06
402.381	96.77
402.59	143.87
402.799	64
403.008	172.54
403.217	152.06
403.426	135.68
403.635	109.05
403.844	96.77
404.053	131.58
404.262	70.14
404.471	145.92
404.68	180.73
404.888	94.72
405.097	147.97
405.306	125.44
405.515	184.83
405.724	207.36
405.933	156.16
406.142	285.18
406.35	180.73
406.559	145.92
406.768	211.45
406.977	154.11
407.185	180.73
407.394	236.03
407.603	152.06
407.812	242.17
408.02	188.93
408.229	180.73
408.438	223.74
408.646	205.31
408.855	242.17
409.064	238.08
409.272	246.27
409.481	287.23
409.69	279.04
409.898	279.04
410.107	360.95
410.315	381.43
410.524	332.28
410.733	471.54
410.941	338.43
411.15	399.87
411.358	397.82
411.567	406.01
411.775	426.49
411.984	449.02
412.192	436.73
412.401	467.45
412.609	424.44
412.818	541.18
413.026	508.41
413.234	539.13
413.443	553.46
413.651	512.5
413.86	553.46
414.068	602.61
414.276	700.92
414.485	639.48
414.693	700.92
414.901	637.43
415.11	676.34
415.318	666.1
415.526	762.36
415.734	743.92
415.943	864.75
416.151	797.17
416.359	786.93
416.567	872.95
416.776	907.76
416.984	918
417.192	1063.41
417.4	958.96
417.608	1042.93
417.817	1055.22
418.025	1065.46
418.233	1157.61
418.441	1196.53
418.649	1208.81
418.857	1356.27
419.065	1350.12
419.273	1294.83
419.481	1399.27
419.689	1401.32
419.897	1464.81
420.105	1571.3
420.313	1499.63
420.521	1624.55
420.729	1616.36
420.937	1751.53
421.145	1733.09
421.353	1921.51
421.561	1966.56
421.769	1966.56
421.977	2023.91
422.185	2021.86
422.393	2173.41
422.601	2327
422.809	2331.1
423.017	2296.28
423.224	2449.88
423.432	2519.51
423.64	2617.82
423.848	2730.45
424.056	2677.21
424.263	2822.61
424.471	2834.9
424.679	3043.79
424.887	3101.14
425.094	3256.78
425.302	3297.74
425.51	3252.69
425.718	3387.85
425.925	3502.54
426.133	3633.61
426.341	3621.32
426.548	3920.32
426.756	4020.67
426.964	4030.91
427.171	4282.81
427.379	4139.46
427.586	4336.06
427.794	4536.76
428.001	4671.93
428.209	4823.48
428.417	4800.95
428.624	5192.11
428.832	5231.02
429.039	5124.53
429.247	5075.38
429.454	5695.91
429.662	6078.88
429.869	5669.29
430.076	6046.12
430.284	5982.63
430.491	6166.95
430.699	6449.57
430.906	6453.66
431.114	6435.23
431.321	6781.34
431.528	6916.5
431.736	7465.36
431.943	7768.46
432.15	7485.84
432.358	7618.96
432.565	8026.5
432.772	7928.2
432.979	8536.45
433.187	8644.99
433.394	8532.35
433.601	9224.56
433.808	9124.21
434.016	9042.29
434.223	9568.62
434.43	10152.29
434.637	9826.67
434.844	10303.84
435.052	10750.3
435.259	10598.75
435.466	10727.77
435.673	10678.62
435.88	11270.48
436.087	12038.47
436.294	12087.62
436.501	11585.87
436.708	11878.73
436.915	12208.45
437.122	12714.3
437.329	12955.96
437.537	13396.28
437.743	13271.35
437.95	13392.18
438.157	13953.32
438.364	14401.83
438.571	14121.26
438.778	14455.08
438.985	15612.18
439.192	15255.83
439.399	15767.82
439.606	15376.66
439.813	16113.93
440.02	16847.1
440.227	16759.04
440.433	16756.99
440.64	17438.97
440.847	17058.04
441.054	17488.12
441.261	18448.61
441.467	18284.78
441.674	18854.11
441.881	19376.34
442.088	19560.66
442.294	19390.68
442.501	19712.21
442.708	20113.61
442.914	20996.29
443.121	21686.45
443.328	21260.48
443.534	22753.44
443.741	21924.02
443.948	22010.03
444.154	23552.15
444.361	23097.5
444.568	23724.18
444.774	23353.5
444.981	23732.37
445.187	24778.89
445.394	25546.87
445.6	25254.01
445.807	27400.29
446.013	26421.36
446.22	26810.47
446.426	27652.19
446.633	28078.16
446.839	29044.8
447.046	27877.46
447.252	29245.51
447.459	29440.06
447.665	29390.91
447.871	30201.91
448.078	31961.11
448.284	30222.39
448.491	31082.53
448.697	31985.69
448.903	32673.81
449.11	32540.69
449.316	32339.99
449.522	32995.34
449.728	33720.32
449.935	33828.86
450.141	33703.93
450.347	34840.56
450.553	33630.21
450.76	33449.99
450.966	35088.36
451.172	34734.06
451.378	35252.2
451.584	34828.27
451.791	35518.43
451.997	35653.6
452.203	35874.78
452.409	35631.07
452.615	35686.37
452.821	34443.25
453.027	34119.67
453.233	35878.88
453.44	34351.09
453.646	34656.24
453.852	34924.52
454.058	35420.13
454.264	34277.36
454.47	34975.72
454.676	34310.13
454.882	35282.92
455.088	32176.15
455.294	32321.55
455.5	32985.1
455.705	33282.05
455.911	32124.95
456.117	31572
456.323	30875.69
456.529	28993.61
456.735	30586.93
456.941	29616.19
457.147	29055.04
457.352	28385.36
457.558	27918.42
457.764	28184.66
457.97	27469.92
458.176	27125.86
458.381	26658.92
458.587	25301.12
458.793	25739.38
458.999	24584.33
459.204	25831.54
459.41	25450.62
459.616	23658.65
459.821	23650.46
460.027	23429.27
460.233	23095.46
460.438	21889.2
460.644	22538.41
460.85	21260.48
461.055	20789.44
461.261	20523.21
461.466	19484.89
461.672	18665.7
461.878	19992.78
462.083	18553.06
462.289	18475.24
462.494	18165.99
462.7	17500.4
462.905	16793.86
463.111	17617.14
463.316	17926.38
463.522	17084.67
463.727	17336.57
463.932	17406.2
464.138	17281.27
464.343	17086.72
464.549	16705.79
464.754	17221.88
464.959	17168.63
465.165	16918.78
465.37	16197.9
465.575	15724.82
465.781	16388.36
465.986	16759.04
466.191	16109.83
466.397	15671.57
466.602	15147.29
466.807	15440.15
467.012	15388.95
467.218	15354.13
467.423	15204.63
467.628	15472.92
