Data from USB4F104151__185__11-09-40-762.txt Node

Date: Wed Mar 12 11:09:40 EDT 2025
User: louis
Spectrometer: USB4F10415
Trigger mode: 4
Integration Time (sec): 2.000000E-2
Scans to average: 1
Electric dark correction enabled: true
Nonlinearity correction enabled: false
Boxcar width: 0
XAxis mode: Wavelengths
Number of Pixels in Spectrum: 3648
>>>>>Begin Spectral Data<<<<<
178.204	-78.16
178.424	-78.16
178.644	-78.16
178.864	-112.98
179.084	-88.4
179.304	20.14
179.524	-2.39
179.744	-10.58
179.964	9.9
180.184	-18.77
180.404	50.86
180.624	69.29
180.844	32.43
181.064	-35.16
181.283	-55.64
181.503	-61.78
181.723	1.71
181.943	-22.87
182.163	11.95
182.383	-16.73
182.602	75.43
182.822	-6.49
183.042	5.8
183.262	57
183.482	40.62
183.701	9.9
183.921	44.71
184.141	22.19
184.361	52.91
184.58	-35.16
184.8	-6.49
185.02	-4.44
185.239	85.67
185.459	28.33
185.679	108.2
185.898	26.28
186.118	118.44
186.338	79.53
186.557	22.19
186.777	42.67
186.997	38.57
187.216	11.95
187.436	67.24
187.655	-31.06
187.875	16.04
188.095	71.34
188.314	3.75
188.534	42.67
188.753	112.3
188.973	44.71
189.192	16.04
189.412	-10.58
189.631	63.15
189.851	75.43
190.07	24.23
190.29	9.9
190.509	-51.54
190.729	22.19
190.948	54.95
191.168	87.72
191.387	73.39
191.607	-14.68
191.826	114.34
192.045	67.24
192.265	-18.77
192.484	11.95
192.704	24.23
192.923	42.67
193.142	59.05
193.362	26.28
193.581	67.24
193.8	73.39
194.02	52.91
194.239	59.05
194.458	61.1
194.678	7.85
194.897	67.24
195.116	34.47
195.335	57
195.555	26.28
195.774	46.76
195.993	46.76
196.212	54.95
196.432	-12.63
196.651	18.09
196.87	61.1
197.089	34.47
197.308	22.19
197.528	69.29
197.747	34.47
197.966	-39.25
198.185	91.82
198.404	48.81
198.623	18.09
198.842	93.87
199.062	18.09
199.281	-18.77
199.5	1.71
199.719	59.05
199.938	9.9
200.157	52.91
200.376	-22.87
200.595	36.52
200.814	-2.39
201.033	11.95
201.252	18.09
201.471	93.87
201.69	30.38
201.909	77.48
202.128	61.1
202.347	63.15
202.566	-20.82
202.785	3.75
203.004	22.19
203.223	71.34
203.442	32.43
203.661	-18.77
203.879	-10.58
204.098	26.28
204.317	71.34
204.536	69.29
204.755	26.28
204.974	89.77
205.193	34.47
205.411	89.77
205.63	-24.92
205.849	57
206.068	5.8
206.287	-43.35
206.505	54.95
206.724	-43.35
206.943	3.75
207.162	38.57
207.381	9.9
207.599	36.52
207.818	-4.44
208.037	73.39
208.255	77.48
208.474	20.14
208.693	-57.68
208.911	87.72
209.13	-16.73
209.349	42.67
209.567	34.47
209.786	-12.63
210.005	42.67
210.223	54.95
210.442	18.09
210.661	122.54
210.879	5.8
211.098	63.15
211.316	11.95
211.535	16.04
211.753	13.99
211.972	13.99
212.191	9.9
212.409	1.71
212.628	77.48
212.846	63.15
213.065	1.71
213.283	42.67
213.502	-24.92
213.72	3.75
213.938	38.57
214.157	18.09
214.375	79.53
214.594	30.38
214.812	61.1
215.031	32.43
215.249	24.23
215.467	3.75
215.686	22.19
215.904	85.67
216.122	18.09
216.341	30.38
216.559	75.43
216.778	-4.44
216.996	34.47
217.214	83.63
217.432	-43.35
217.651	28.33
217.869	-8.53
218.087	-0.34
218.306	81.58
218.524	67.24
218.742	1.71
218.96	9.9
219.179	16.04
219.397	11.95
219.615	71.34
219.833	69.29
220.051	-82.26
220.27	44.71
220.488	13.99
220.706	42.67
220.924	1.71
221.142	9.9
221.36	18.09
221.578	48.81
221.796	7.85
222.015	3.75
222.233	-8.53
222.451	100.01
222.669	-35.16
222.887	140.97
223.105	-6.49
223.323	83.63
223.541	-35.16
223.759	75.43
223.977	-47.44
224.195	46.76
224.413	22.19
224.631	-51.54
224.849	-31.06
225.067	16.04
225.285	-14.68
225.503	36.52
225.721	-37.2
225.939	26.28
226.157	-41.3
226.375	134.82
226.592	-78.16
226.81	38.57
227.028	7.85
227.246	85.67
227.464	-16.73
227.682	149.16
227.9	38.57
228.117	16.04
228.335	85.67
228.553	67.24
228.771	54.95
228.989	7.85
229.206	-2.39
229.424	100.01
229.642	9.9
229.86	48.81
230.077	16.04
230.295	67.24
230.513	34.47
230.731	26.28
230.948	18.09
231.166	100.01
231.384	30.38
231.601	26.28
231.819	48.81
232.037	18.09
232.254	-8.53
232.472	-29.01
232.689	-37.2
232.907	-24.92
233.125	38.57
233.342	16.04
233.56	-41.3
233.777	83.63
233.995	30.38
234.213	-0.34
234.43	-16.73
234.648	26.28
234.865	30.38
235.083	34.47
235.3	81.58
235.518	5.8
235.735	-0.34
235.953	100.01
236.17	-0.34
236.388	26.28
236.605	85.67
236.822	95.91
237.04	32.43
237.257	-12.63
237.475	3.75
237.692	-0.34
237.909	32.43
238.127	-16.73
238.344	38.57
238.562	48.81
238.779	-37.2
238.996	38.57
239.214	46.76
239.431	26.28
239.648	-31.06
239.865	5.8
240.083	26.28
240.3	22.19
240.517	57
240.735	-10.58
240.952	59.05
241.169	7.85
241.386	36.52
241.603	28.33
241.821	104.11
242.038	67.24
242.255	22.19
242.472	34.47
242.689	36.52
242.907	-10.58
243.124	22.19
243.341	38.57
243.558	32.43
243.775	36.52
243.992	44.71
244.209	-26.96
244.426	18.09
244.643	13.99
244.86	40.62
245.078	42.67
245.295	50.86
245.512	13.99
245.729	18.09
245.946	5.8
246.163	-22.87
246.38	16.04
246.597	-16.73
246.814	52.91
247.031	104.11
247.248	20.14
247.464	38.57
247.681	36.52
247.898	50.86
248.115	9.9
248.332	77.48
248.549	-31.06
248.766	24.23
248.983	69.29
249.2	13.99
249.417	34.47
249.633	30.38
249.85	11.95
250.067	11.95
250.284	26.28
250.501	26.28
250.717	69.29
250.934	-18.77
251.151	36.52
251.368	38.57
251.585	16.04
251.801	34.47
252.018	36.52
252.235	-8.53
252.451	54.95
252.668	34.47
252.885	44.71
253.102	65.19
253.318	-0.34
253.535	24.23
253.752	-20.82
253.968	13.99
254.185	-22.87
254.401	5.8
254.618	61.1
254.835	24.23
255.051	75.43
255.268	83.63
255.484	-26.96
255.701	-2.39
255.917	28.33
256.134	24.23
256.351	50.86
256.567	5.8
256.784	-2.39
257	26.28
257.217	44.71
257.433	89.77
257.65	52.91
257.866	16.04
258.082	3.75
258.299	67.24
258.515	1.71
258.732	-16.73
258.948	13.99
259.165	93.87
259.381	-24.92
259.597	65.19
259.814	-39.25
260.03	59.05
260.246	3.75
260.463	81.58
260.679	-16.73
260.895	18.09
261.112	44.71
261.328	50.86
261.544	20.14
261.761	87.72
261.977	63.15
262.193	-45.4
262.409	-20.82
262.626	46.76
262.842	-26.96
263.058	-24.92
263.274	-39.25
263.49	26.28
263.707	34.47
263.923	18.09
264.139	3.75
264.355	102.06
264.571	89.77
264.787	-8.53
265.004	59.05
265.22	138.92
265.436	93.87
265.652	-6.49
265.868	9.9
266.084	9.9
266.3	-6.49
266.516	32.43
266.732	-10.58
266.948	75.43
267.164	73.39
267.38	24.23
267.596	22.19
267.812	42.67
268.028	22.19
268.244	59.05
268.46	71.34
268.676	3.75
268.892	-12.63
269.108	-31.06
269.324	85.67
269.54	-31.06
269.756	67.24
269.972	24.23
270.188	54.95
270.403	-18.77
270.619	102.06
270.835	40.62
271.051	-31.06
271.267	1.71
271.483	48.81
271.698	3.75
271.914	54.95
272.13	34.47
272.346	11.95
272.562	61.1
272.777	13.99
272.993	-18.77
273.209	83.63
273.425	73.39
273.64	32.43
273.856	54.95
274.072	30.38
274.287	-10.58
274.503	-65.88
274.719	22.19
274.934	-16.73
275.15	-14.68
275.366	42.67
275.581	-74.07
275.797	46.76
276.012	34.47
276.228	-12.63
276.444	7.85
276.659	124.58
276.875	22.19
277.09	11.95
277.306	36.52
277.521	79.53
277.737	-4.44
277.952	63.15
278.168	112.3
278.383	-6.49
278.599	28.33
278.814	61.1
279.03	91.82
279.245	5.8
279.461	75.43
279.676	46.76
279.892	48.81
280.107	38.57
280.322	59.05
280.538	24.23
280.753	63.15
280.969	106.15
281.184	91.82
281.399	50.86
281.615	16.04
281.83	30.38
282.045	-20.82
282.26	63.15
282.476	44.71
282.691	18.09
282.906	16.04
283.122	48.81
283.337	-22.87
283.552	34.47
283.767	-12.63
283.983	54.95
284.198	-39.25
284.413	24.23
284.628	32.43
284.843	83.63
285.058	36.52
285.274	24.23
285.489	5.8
285.704	93.87
285.919	11.95
286.134	59.05
286.349	61.1
286.564	44.71
286.779	71.34
286.995	3.75
287.21	-16.73
287.425	61.1
287.64	52.91
287.855	46.76
288.07	-12.63
288.285	91.82
288.5	26.28
288.715	16.04
288.93	20.14
289.145	16.04
289.36	30.38
289.575	79.53
289.79	52.91
290.004	-16.73
290.219	50.86
290.434	52.91
290.649	11.95
290.864	34.47
291.079	20.14
291.294	-22.87
291.509	63.15
291.724	30.38
291.938	9.9
292.153	42.67
292.368	50.86
292.583	-10.58
292.798	16.04
293.012	61.1
293.227	75.43
293.442	-6.49
293.657	40.62
293.871	-14.68
294.086	73.39
294.301	59.05
294.516	30.38
294.73	-10.58
294.945	-16.73
295.16	59.05
295.374	79.53
295.589	-26.96
295.804	-35.16
296.018	71.34
296.233	85.67
296.447	44.71
296.662	61.1
296.877	89.77
297.091	-4.44
297.306	-33.11
297.52	3.75
297.735	34.47
297.949	1.71
298.164	16.04
298.378	-8.53
298.593	-51.54
298.807	-18.77
299.022	83.63
299.236	75.43
299.451	54.95
299.665	100.01
299.88	-16.73
300.094	67.24
300.309	57
300.523	9.9
300.737	5.8
300.952	-6.49
301.166	5.8
301.381	52.91
301.595	91.82
301.809	16.04
302.024	-0.34
302.238	-2.39
302.452	13.99
302.667	7.85
302.881	57
303.095	16.04
303.309	50.86
303.524	-8.53
303.738	89.77
303.952	36.52
304.166	93.87
304.381	9.9
304.595	3.75
304.809	-6.49
305.023	22.19
305.237	-29.01
305.452	85.67
305.666	-2.39
305.88	77.48
306.094	-10.58
306.308	28.33
306.522	30.38
306.736	13.99
306.95	26.28
307.164	-18.77
307.379	71.34
307.593	34.47
307.807	79.53
308.021	46.76
308.235	59.05
308.449	38.57
308.663	-0.34
308.877	28.33
309.091	-31.06
309.305	59.05
309.519	9.9
309.733	54.95
309.947	38.57
310.161	120.49
310.374	50.86
310.588	61.1
310.802	18.09
311.016	67.24
311.23	42.67
311.444	11.95
311.658	28.33
311.872	30.38
312.085	59.05
312.299	77.48
312.513	52.91
312.727	93.87
312.941	-29.01
313.154	18.09
313.368	-2.39
313.582	13.99
313.796	59.05
314.009	-8.53
314.223	48.81
314.437	59.05
314.651	34.47
314.864	42.67
315.078	46.76
315.292	61.1
315.505	54.95
315.719	16.04
315.933	11.95
316.146	38.57
316.36	9.9
316.573	22.19
316.787	48.81
317.001	102.06
317.214	-20.82
317.428	104.11
317.641	36.52
317.855	18.09
318.068	-14.68
318.282	73.39
318.495	108.2
318.709	44.71
318.922	50.86
319.136	32.43
319.349	89.77
319.563	-12.63
319.776	1.71
319.99	1.71
320.203	77.48
320.417	32.43
320.63	83.63
320.843	147.11
321.057	1.71
321.27	32.43
321.483	-41.3
321.697	42.67
321.91	42.67
322.124	24.23
322.337	34.47
322.55	16.04
322.763	20.14
322.977	3.75
323.19	61.1
323.403	112.3
323.617	-0.34
323.83	18.09
324.043	-8.53
324.256	108.2
324.469	9.9
324.683	67.24
324.896	-14.68
325.109	22.19
325.322	13.99
325.535	48.81
325.748	46.76
325.962	67.24
326.175	65.19
326.388	75.43
326.601	34.47
326.814	3.75
327.027	1.71
327.24	79.53
327.453	5.8
327.666	-45.4
327.879	16.04
328.092	57
328.305	20.14
328.518	52.91
328.731	-4.44
328.944	95.91
329.157	34.47
329.37	5.8
329.583	67.24
329.796	3.75
330.009	-37.2
330.222	91.82
330.435	54.95
330.648	-0.34
330.861	57
331.073	30.38
331.286	32.43
331.499	79.53
331.712	-37.2
331.925	-31.06
332.138	59.05
332.35	13.99
332.563	-8.53
332.776	-6.49
332.989	-29.01
333.202	48.81
333.414	30.38
333.627	9.9
333.84	-53.59
334.053	-6.49
334.265	54.95
334.478	97.96
334.691	11.95
334.903	32.43
335.116	40.62
335.329	1.71
335.541	-24.92
335.754	65.19
335.966	-14.68
336.179	-4.44
336.392	-16.73
336.604	34.47
336.817	54.95
337.029	-16.73
337.242	48.81
337.454	48.81
337.667	-16.73
337.88	30.38
338.092	-41.3
338.305	118.44
338.517	-65.88
338.729	-29.01
338.942	75.43
339.154	63.15
339.367	-96.6
339.579	-33.11
339.792	36.52
340.004	71.34
340.217	-59.73
340.429	61.1
340.641	9.9
340.854	7.85
341.066	42.67
341.278	16.04
341.491	97.96
341.703	30.38
341.915	30.38
342.128	-22.87
342.34	9.9
342.552	95.91
342.764	22.19
342.977	67.24
343.189	22.19
343.401	67.24
343.613	-72.02
343.826	20.14
344.038	48.81
344.25	100.01
344.462	34.47
344.674	54.95
344.886	34.47
345.099	-6.49
345.311	75.43
345.523	57
345.735	38.57
345.947	9.9
346.159	1.71
346.371	32.43
346.583	59.05
346.795	22.19
347.007	44.71
347.219	13.99
347.431	26.28
347.643	48.81
347.855	34.47
348.067	34.47
348.279	-47.44
348.491	32.43
348.703	50.86
348.915	50.86
349.127	26.28
349.339	77.48
349.551	85.67
349.763	54.95
349.975	5.8
350.187	102.06
350.399	-0.34
350.61	36.52
350.822	57
351.034	91.82
351.246	-20.82
351.458	124.58
351.669	3.75
351.881	54.95
352.093	38.57
352.305	38.57
352.517	-18.77
352.728	75.43
352.94	40.62
353.152	11.95
353.363	114.34
353.575	61.1
353.787	16.04
353.999	40.62
354.21	54.95
354.422	65.19
354.633	32.43
354.845	85.67
355.057	67.24
355.268	65.19
355.48	95.91
355.692	5.8
355.903	71.34
356.115	67.24
356.326	-16.73
356.538	46.76
356.749	18.09
356.961	54.95
357.172	24.23
357.384	52.91
357.595	34.47
357.807	44.71
358.018	-8.53
358.23	48.81
358.441	5.8
358.653	63.15
358.864	-10.58
359.075	40.62
359.287	38.57
359.498	95.91
359.709	-26.96
359.921	54.95
360.132	48.81
360.344	106.15
360.555	112.3
360.766	1.71
360.977	18.09
361.189	97.96
361.4	132.78
361.611	42.67
361.823	85.67
362.034	3.75
362.245	26.28
362.456	85.67
362.667	22.19
362.879	63.15
363.09	13.99
363.301	50.86
363.512	-12.63
363.723	59.05
363.935	-22.87
364.146	65.19
364.357	67.24
364.568	57
364.779	-31.06
364.99	85.67
365.201	1.71
365.412	-18.77
365.623	54.95
365.834	-43.35
366.045	42.67
366.256	36.52
366.467	-0.34
366.678	-10.58
366.889	59.05
367.1	5.8
367.311	40.62
367.522	-6.49
367.733	16.04
367.944	40.62
368.155	57
368.366	52.91
368.577	85.67
368.788	-35.16
368.999	-6.49
369.209	44.71
369.42	89.77
369.631	75.43
369.842	87.72
370.053	-0.34
370.264	81.58
370.474	22.19
370.685	110.25
370.896	65.19
371.107	-8.53
371.317	77.48
371.528	40.62
371.739	100.01
371.95	3.75
372.16	63.15
372.371	16.04
372.582	26.28
372.792	59.05
373.003	54.95
373.214	-26.96
373.424	-2.39
373.635	16.04
373.846	46.76
374.056	32.43
374.267	65.19
374.477	46.76
374.688	32.43
374.898	-10.58
375.109	9.9
375.319	61.1
375.53	18.09
375.74	52.91
375.951	69.29
376.161	-41.3
376.372	83.63
376.582	9.9
376.793	65.19
377.003	-24.92
377.214	24.23
377.424	3.75
377.635	40.62
377.845	52.91
378.055	93.87
378.266	-43.35
378.476	-8.53
378.686	16.04
378.897	34.47
379.107	-0.34
379.317	11.95
379.528	-26.96
379.738	16.04
379.948	-20.82
380.158	77.48
380.369	-22.87
380.579	28.33
380.789	5.8
380.999	13.99
381.21	7.85
381.42	126.63
381.63	89.77
381.84	57
382.05	63.15
382.261	77.48
382.471	59.05
382.681	102.06
382.891	40.62
383.101	38.57
383.311	54.95
383.521	38.57
383.731	85.67
383.941	85.67
384.151	79.53
384.361	75.43
384.571	20.14
384.781	20.14
384.991	71.34
385.201	67.24
385.411	26.28
385.621	61.1
385.831	13.99
386.041	-14.68
386.251	-10.58
386.461	73.39
386.671	46.76
386.881	40.62
387.091	89.77
387.301	118.44
387.511	59.05
387.72	87.72
387.93	91.82
388.14	-14.68
388.35	54.95
388.56	26.28
388.769	-20.82
388.979	71.34
389.189	13.99
389.399	30.38
389.609	32.43
389.818	54.95
390.028	13.99
390.238	69.29
390.447	79.53
390.657	-0.34
390.867	22.19
391.076	-18.77
391.286	91.82
391.496	46.76
391.705	32.43
391.915	71.34
392.125	108.2
392.334	63.15
392.544	48.81
392.753	-22.87
392.963	-12.63
393.172	75.43
393.382	73.39
393.591	65.19
393.801	20.14
394.01	118.44
394.22	-2.39
394.429	67.24
394.639	54.95
394.848	124.58
395.058	-18.77
395.267	48.81
395.477	157.35
395.686	93.87
395.895	85.67
396.105	50.86
396.314	9.9
396.524	71.34
396.733	59.05
396.942	126.63
397.152	97.96
397.361	130.73
397.57	46.76
397.78	100.01
397.989	75.43
398.198	38.57
398.407	104.11
398.617	57
398.826	87.72
399.035	71.34
399.244	106.15
399.453	114.34
399.663	102.06
399.872	67.24
400.081	48.81
400.29	79.53
400.499	95.91
400.708	157.35
400.917	91.82
401.127	61.1
401.336	95.91
401.545	95.91
401.754	106.15
401.963	104.11
402.172	48.81
402.381	67.24
402.59	71.34
402.799	114.34
403.008	65.19
403.217	24.23
403.426	57
403.635	52.91
403.844	102.06
404.053	46.76
404.262	145.06
404.471	153.26
404.68	46.76
404.888	79.53
405.097	38.57
405.306	89.77
405.515	214.7
405.724	122.54
405.933	54.95
406.142	145.06
406.35	120.49
406.559	120.49
406.768	100.01
406.977	112.3
407.185	44.71
407.394	188.07
407.603	36.52
407.812	110.25
408.02	128.68
408.229	138.92
408.438	145.06
408.646	97.96
408.855	159.4
409.064	179.88
409.272	132.78
409.481	112.3
409.69	136.87
409.898	204.46
410.107	214.7
410.315	239.27
410.524	200.36
410.733	173.74
410.941	198.31
411.15	267.94
411.358	288.42
411.567	233.13
411.775	198.31
411.984	173.74
412.192	251.56
412.401	229.03
412.609	331.43
412.818	349.86
413.026	263.85
413.234	284.33
413.443	267.94
413.651	319.14
413.86	296.61
414.068	413.35
414.276	380.58
414.485	302.76
414.693	319.14
414.901	390.82
415.11	374.44
415.318	366.25
415.526	442.02
415.734	558.75
415.943	437.92
416.151	517.79
416.359	511.65
416.567	499.36
416.776	540.32
416.984	607.91
417.192	624.29
417.4	523.94
417.608	558.75
417.817	579.23
418.025	618.15
418.233	718.5
418.441	659.1
418.649	655.01
418.857	767.65
419.065	769.69
419.273	689.82
419.481	779.93
419.689	771.74
419.897	861.85
420.105	857.76
420.313	837.28
420.521	994.97
420.729	874.14
420.937	882.33
421.145	980.64
421.353	1138.33
421.561	1093.27
421.769	1062.55
421.977	1244.82
422.185	1146.52
422.393	1232.54
422.601	1306.26
422.809	1336.98
423.017	1271.45
423.224	1410.71
423.432	1466
423.64	1484.44
423.848	1613.46
424.056	1623.7
424.263	1648.27
424.471	1705.62
424.679	1695.38
424.887	1742.48
425.094	1805.97
425.302	1805.97
425.51	1795.73
425.718	1978
425.925	2045.58
426.133	2094.73
426.341	2172.55
426.548	2277
426.756	2315.91
426.964	2320.01
427.171	2426.5
427.379	2446.98
427.586	2584.2
427.794	2655.87
428.001	2811.52
428.209	2702.98
428.417	2786.94
428.624	2993.79
428.832	3049.08
429.039	3014.27
429.247	2930.3
429.454	3247.74
429.662	3528.31
429.869	3245.69
430.076	3384.95
430.284	3315.32
430.491	3522.16
430.699	3804.78
430.906	3739.25
431.114	3708.53
431.321	3841.65
431.528	3917.42
431.736	4277.87
431.943	4392.55
432.15	4324.97
432.358	4265.58
432.565	4630.12
432.772	4494.95
432.979	4855.39
433.187	4865.63
433.394	4961.89
433.601	5152.35
433.808	5307.99
434.016	5164.64
434.223	5469.78
434.43	5652.05
434.637	5523.03
434.844	6039.12
435.052	6067.79
435.259	6092.37
435.466	6104.65
435.673	6024.78
435.88	6430.28
436.087	6772.29
436.294	6796.87
436.501	6745.67
436.708	6735.43
436.915	6895.17
437.122	7394.87
437.329	7255.61
437.537	7560.76
437.743	7679.54
437.95	7527.99
438.157	7988.78
438.364	8326.7
438.571	8130.09
438.778	8074.8
438.985	8906.27
439.192	8678.95
439.399	8920.61
439.606	8752.68
439.813	9115.17
440.02	9799.19
440.227	9553.43
440.433	9395.74
440.64	9854.48
440.847	9747.99
441.054	9909.78
441.261	10530.31
441.467	10477.07
441.674	10604.04
441.881	11240.96
442.088	11050.5
442.294	10966.53
442.501	11218.43
442.708	11570.68
442.914	12043.76
443.121	12355.05
443.328	12054
443.534	13135.33
443.741	12465.64
443.948	12539.37
444.154	13239.78
444.361	13258.21
444.568	13581.79
444.774	13225.44
444.981	13428.19
445.187	13975
445.394	14642.64
445.6	14403.02
445.807	15535.55
446.013	15191.49
446.22	15349.18
446.426	15871.42
446.633	15898.04
446.839	16405.94
447.046	15771.07
447.252	16737.71
447.459	16659.88
447.665	16655.79
447.871	17313.19
448.078	18005.4
448.284	17325.47
448.491	17720.73
448.697	18380.18
448.903	18978.19
449.11	18859.4
449.316	18214.29
449.522	18832.78
449.728	19254.66
449.935	19051.91
450.141	19223.94
450.347	19699.07
450.553	18955.66
450.76	19344.77
450.966	19668.35
451.172	19889.53
451.378	20010.36
451.584	19770.75
451.791	20231.54
451.997	19924.35
452.203	20356.47
452.409	20409.72
452.615	20565.36
452.821	19817.85
453.027	19355.01
453.233	20335.99
453.44	19369.35
453.646	19916.15
453.852	19946.87
454.058	20266.36
454.264	19369.35
454.47	19809.66
454.676	19504.51
454.882	19914.11
455.088	18298.26
455.294	18677.13
455.5	18879.88
455.705	18988.42
455.911	18187.67
456.117	17804.7
456.323	17710.49
456.529	16612.78
456.735	17481.12
456.941	17135.01
457.147	16676.27
457.352	16199.09
457.558	16012.73
457.764	16094.65
457.97	15773.11
458.176	15345.09
458.381	15310.27
458.587	14491.09
458.793	14482.89
458.999	13962.71
459.204	14874.06
459.41	14362.06
459.616	13628.89
459.821	13737.43
460.027	13430.24
460.233	13164
460.438	12482.03
460.644	12428.78
460.85	12226.03
461.055	11902.45
461.261	11808.25
461.466	11077.12
461.672	10796.55
461.878	11566.59
462.083	10618.38
462.289	10331.66
462.494	10616.33
462.7	9868.82
462.905	9670.17
463.111	10112.53
463.316	9991.7
463.522	9885.2
463.727	9727.51
463.932	9643.54
464.138	9756.18
464.343	9672.22
464.549	9397.79
464.754	10053.14
464.959	9840.15
465.165	9549.34
465.37	9158.17
465.575	9115.17
465.781	9285.15
465.986	9342.49
466.191	8853.03
466.397	8781.35
466.602	8320.56
466.807	8891.94
467.012	8801.83
467.218	8791.59
467.423	8476.2
467.628	8599.08
467.833	9039.39
468.038	8613.42
468.244	8486.44
468.449	8879.65
468.654	8525.35
468.859	8406.57
469.064	8351.28
469.269	7953.97
