Data from USB4F104151__195__11-09-52-741.txt Node

Date: Wed Mar 12 11:09:52 EDT 2025
User: louis
Spectrometer: USB4F10415
Trigger mode: 4
Integration Time (sec): 2.000000E-2
Scans to average: 1
Electric dark correction enabled: true
Nonlinearity correction enabled: false
Boxcar width: 0
XAxis mode: Wavelengths
Number of Pixels in Spectrum: 3648
>>>>>Begin Spectral Data<<<<<
178.204	-66.9
178.424	-66.9
178.644	-66.9
178.864	-83.28
179.084	-68.95
179.304	19.11
179.524	-17.75
179.744	37.55
179.964	23.21
180.184	39.59
180.404	-42.32
180.624	-27.99
180.844	-50.52
181.064	27.31
181.283	6.83
181.503	-23.89
181.723	8.87
181.943	-32.08
182.163	41.64
182.383	-13.65
182.602	-9.56
182.822	25.26
183.042	8.87
183.262	6.83
183.482	4.78
183.701	-30.04
183.921	-42.32
184.141	-21.85
184.361	78.51
184.58	-23.89
184.8	12.97
185.02	-38.23
185.239	-40.28
185.459	8.87
185.679	53.93
185.898	-56.66
186.118	-40.28
186.338	-81.24
186.557	-46.42
186.777	-7.51
186.997	-48.47
187.216	25.26
187.436	8.87
187.655	-9.56
187.875	43.69
188.095	62.12
188.314	-23.89
188.534	80.55
188.753	-5.46
188.973	43.69
189.192	15.02
189.412	-21.85
189.631	-13.65
189.851	-11.61
190.07	47.79
190.29	-13.65
190.509	-62.8
190.729	-3.41
190.948	51.88
191.168	72.36
191.387	6.83
191.607	-7.51
191.826	-21.85
192.045	-13.65
192.265	39.59
192.484	-46.42
192.704	-25.94
192.923	-21.85
193.142	19.11
193.362	51.88
193.581	4.78
193.8	-5.46
194.02	-30.04
194.239	-5.46
194.458	35.5
194.678	-7.51
194.897	27.31
195.116	-44.37
195.335	-13.65
195.555	-30.04
195.774	17.07
195.993	-25.94
196.212	-79.19
196.432	23.21
196.651	51.88
196.87	-32.08
197.089	-13.65
197.308	-85.33
197.528	49.83
197.747	-11.61
197.966	-46.42
198.185	55.98
198.404	-36.18
198.623	-9.56
198.842	31.4
199.062	8.87
199.281	55.98
199.5	-11.61
199.719	0.68
199.938	35.5
200.157	74.41
200.376	-21.85
200.595	2.73
200.814	-9.56
201.033	-25.94
201.252	0.68
201.471	-5.46
201.69	-9.56
201.909	8.87
202.128	31.4
202.347	25.26
202.566	-15.7
202.785	27.31
203.004	-60.76
203.223	6.83
203.442	-19.8
203.661	-21.85
203.879	58.03
204.098	86.7
204.317	-21.85
204.536	86.7
204.755	-3.41
204.974	-17.75
205.193	-54.61
205.411	80.55
205.63	45.74
205.849	39.59
206.068	-58.71
206.287	-9.56
206.505	8.87
206.724	-23.89
206.943	-7.51
207.162	35.5
207.381	-60.76
207.599	-54.61
207.818	-5.46
208.037	-17.75
208.255	-54.61
208.474	39.59
208.693	25.26
208.911	19.11
209.13	-27.99
209.349	19.11
209.567	74.41
209.786	76.46
210.005	-52.56
210.223	-3.41
210.442	-68.95
210.661	-19.8
210.879	-107.86
211.098	-85.33
211.316	-36.18
211.535	35.5
211.753	-3.41
211.972	-7.51
212.191	-32.08
212.409	-40.28
212.628	2.73
212.846	-9.56
213.065	-15.7
213.283	15.02
213.502	68.27
213.72	66.22
213.938	-50.52
214.157	4.78
214.375	35.5
214.594	10.92
214.812	-54.61
215.031	-62.8
215.249	-32.08
215.467	-17.75
215.686	-44.37
215.904	-120.15
216.122	23.21
216.341	76.46
216.559	-75.09
216.778	-7.51
216.996	-5.46
217.214	-25.94
217.432	37.55
217.651	-1.37
217.869	-15.7
218.087	58.03
218.306	-75.09
218.524	-23.89
218.742	-32.08
218.96	-1.37
219.179	23.21
219.397	-48.47
219.615	39.59
219.833	19.11
220.051	-32.08
220.27	53.93
220.488	-13.65
220.706	47.79
220.924	-60.76
221.142	-21.85
221.36	27.31
221.578	25.26
221.796	-17.75
222.015	-21.85
222.233	-15.7
222.451	-25.94
222.669	-42.32
222.887	39.59
223.105	12.97
223.323	-13.65
223.541	17.07
223.759	-34.13
223.977	10.92
224.195	25.26
224.413	-19.8
224.631	23.21
224.849	-15.7
225.067	-54.61
225.285	-30.04
225.503	21.16
225.721	-40.28
225.939	62.12
226.157	29.35
226.375	23.21
226.592	-58.71
226.81	-5.46
227.028	-11.61
227.246	70.31
227.464	-3.41
227.682	-11.61
227.9	15.02
228.117	21.16
228.335	-15.7
228.553	-13.65
228.771	23.21
228.989	-42.32
229.206	-17.75
229.424	27.31
229.642	-58.71
229.86	-62.8
230.077	2.73
230.295	-77.14
230.513	15.02
230.731	-25.94
230.948	31.4
231.166	115.37
231.384	8.87
231.601	0.68
231.819	66.22
232.037	-38.23
232.254	15.02
232.472	8.87
232.689	-46.42
232.907	41.64
233.125	-64.85
233.342	29.35
233.56	35.5
233.777	29.35
233.995	-46.42
234.213	-9.56
234.43	-71
234.648	-19.8
234.865	-64.85
235.083	68.27
235.3	-60.76
235.518	25.26
235.735	55.98
235.953	-44.37
236.17	-32.08
236.388	6.83
236.605	-1.37
236.822	-50.52
237.04	10.92
237.257	12.97
237.475	-79.19
237.692	58.03
237.909	-42.32
238.127	47.79
238.344	-36.18
238.562	-48.47
238.779	-5.46
238.996	-1.37
239.214	47.79
239.431	-15.7
239.648	4.78
239.865	-34.13
240.083	-21.85
240.3	53.93
240.517	-19.8
240.735	51.88
240.952	-40.28
241.169	-34.13
241.386	78.51
241.603	29.35
241.821	-38.23
242.038	127.66
242.255	47.79
242.472	-48.47
242.689	31.4
242.907	21.16
243.124	-58.71
243.341	-11.61
243.558	43.69
243.775	-38.23
243.992	-34.13
244.209	4.78
244.426	64.17
244.643	33.45
244.86	6.83
245.078	-9.56
245.295	-81.24
245.512	-58.71
245.729	6.83
245.946	27.31
246.163	37.55
246.38	-3.41
246.597	-93.52
246.814	-17.75
247.031	19.11
247.248	10.92
247.464	-52.56
247.681	43.69
247.898	-77.14
248.115	-95.57
248.332	2.73
248.549	6.83
248.766	-15.7
248.983	6.83
249.2	-11.61
249.417	-11.61
249.633	-85.33
249.85	23.21
250.067	8.87
250.284	12.97
250.501	-5.46
250.717	25.26
250.934	-27.99
251.151	-1.37
251.368	33.45
251.585	17.07
251.801	-38.23
252.018	-38.23
252.235	-19.8
252.451	-32.08
252.668	31.4
252.885	-91.48
253.102	-23.89
253.318	-21.85
253.535	-23.89
253.752	-32.08
253.968	43.69
254.185	-52.56
254.401	43.69
254.618	47.79
254.835	-66.9
255.051	-40.28
255.268	-60.76
255.484	-3.41
255.701	-34.13
255.917	-73.04
256.134	-38.23
256.351	-44.37
256.567	62.12
256.784	0.68
257	-11.61
257.217	-64.85
257.433	17.07
257.65	-3.41
257.866	23.21
258.082	-17.75
258.299	-19.8
258.515	107.18
258.732	4.78
258.948	-15.7
259.165	-32.08
259.381	-91.48
259.597	-13.65
259.814	-42.32
260.03	-54.61
260.246	47.79
260.463	0.68
260.679	23.21
260.895	-46.42
261.112	-19.8
261.328	55.98
261.544	-40.28
261.761	55.98
261.977	23.21
262.193	-23.89
262.409	-15.7
262.626	12.97
262.842	-13.65
263.058	-64.85
263.274	-38.23
263.49	37.55
263.707	-11.61
263.923	-15.7
264.139	-42.32
264.355	78.51
264.571	2.73
264.787	51.88
265.004	51.88
265.22	-66.9
265.436	53.93
265.652	0.68
265.868	31.4
266.084	53.93
266.3	-30.04
266.516	-101.72
266.732	-19.8
266.948	2.73
267.164	35.5
267.38	-21.85
267.596	-30.04
267.812	94.89
268.028	17.07
268.244	-19.8
268.46	43.69
268.676	-13.65
268.892	17.07
269.108	41.64
269.324	-50.52
269.54	-13.65
269.756	47.79
269.972	-21.85
270.188	29.35
270.403	-3.41
270.619	-62.8
270.835	-62.8
271.051	-54.61
271.267	-91.48
271.483	-81.24
271.698	29.35
271.914	-21.85
272.13	-21.85
272.346	43.69
272.562	-9.56
272.777	-5.46
272.993	-32.08
273.209	31.4
273.425	-21.85
273.64	-107.86
273.856	33.45
274.072	4.78
274.287	62.12
274.503	76.46
274.719	-38.23
274.934	19.11
275.15	-34.13
275.366	-27.99
275.581	66.22
275.797	45.74
276.012	-38.23
276.228	-42.32
276.444	-11.61
276.659	-50.52
276.875	39.59
277.09	23.21
277.306	62.12
277.521	8.87
277.737	2.73
277.952	23.21
278.168	-1.37
278.383	-23.89
278.599	8.87
278.814	4.78
279.03	-5.46
279.245	72.36
279.461	-5.46
279.676	6.83
279.892	-3.41
280.107	-77.14
280.322	29.35
280.538	23.21
280.753	-68.95
280.969	35.5
281.184	-9.56
281.399	33.45
281.615	39.59
281.83	47.79
282.045	45.74
282.26	47.79
282.476	17.07
282.691	-27.99
282.906	-46.42
283.122	-56.66
283.337	-1.37
283.552	-7.51
283.767	-15.7
283.983	82.6
284.198	-34.13
284.413	-9.56
284.628	-1.37
284.843	-11.61
285.058	-77.14
285.274	10.92
285.489	-13.65
285.704	6.83
285.919	-1.37
286.134	-19.8
286.349	-13.65
286.564	-5.46
286.779	-32.08
286.995	-19.8
287.21	8.87
287.425	-46.42
287.64	0.68
287.855	80.55
288.07	-54.61
288.285	-21.85
288.5	43.69
288.715	17.07
288.93	-42.32
289.145	37.55
289.36	-1.37
289.575	-46.42
289.79	-103.76
290.004	-7.51
290.219	-5.46
290.434	4.78
290.649	-3.41
290.864	-42.32
291.079	10.92
291.294	-1.37
291.509	60.07
291.724	-5.46
291.938	-5.46
292.153	-48.47
292.368	-3.41
292.583	-17.75
292.798	39.59
293.012	-23.89
293.227	-40.28
293.442	-73.04
293.657	6.83
293.871	8.87
294.086	25.26
294.301	43.69
294.516	10.92
294.73	-15.7
294.945	-27.99
295.16	10.92
295.374	6.83
295.589	-23.89
295.804	-17.75
296.018	25.26
296.233	-17.75
296.447	8.87
296.662	-52.56
296.877	55.98
297.091	0.68
297.306	-9.56
297.52	-52.56
297.735	47.79
297.949	17.07
298.164	-7.51
298.378	-79.19
298.593	78.51
298.807	-3.41
299.022	-5.46
299.236	27.31
299.451	-54.61
299.665	15.02
299.88	-9.56
300.094	25.26
300.309	-97.62
300.523	-48.47
300.737	10.92
300.952	10.92
301.166	-1.37
301.381	-105.81
301.595	33.45
301.809	-19.8
302.024	6.83
302.238	-21.85
302.452	-1.37
302.667	-5.46
302.881	23.21
303.095	-38.23
303.309	39.59
303.524	-56.66
303.738	-5.46
303.952	-40.28
304.166	2.73
304.381	-32.08
304.595	35.5
304.809	86.7
305.023	-15.7
305.237	-27.99
305.452	-21.85
305.666	-11.61
305.88	-3.41
306.094	-60.76
306.308	-30.04
306.522	-25.94
306.736	-13.65
306.95	10.92
307.164	-9.56
307.379	-32.08
307.593	55.98
307.807	31.4
308.021	12.97
308.235	10.92
308.449	-13.65
308.663	58.03
308.877	27.31
309.091	8.87
309.305	45.74
309.519	-52.56
309.733	-7.51
309.947	-42.32
310.161	-19.8
310.374	-52.56
310.588	-13.65
310.802	43.69
311.016	27.31
311.23	-71
311.444	-7.51
311.658	19.11
311.872	-30.04
312.085	17.07
312.299	-17.75
312.513	41.64
312.727	-40.28
312.941	-44.37
313.154	45.74
313.368	0.68
313.582	51.88
313.796	-60.76
314.009	-15.7
314.223	45.74
314.437	4.78
314.651	4.78
314.864	-9.56
315.078	6.83
315.292	8.87
315.505	29.35
315.719	19.11
315.933	23.21
316.146	-3.41
316.36	23.21
316.573	29.35
316.787	-25.94
317.001	-60.76
317.214	-17.75
317.428	-30.04
317.641	12.97
317.855	-46.42
318.068	0.68
318.282	39.59
318.495	96.94
318.709	98.99
318.922	23.21
319.136	19.11
319.349	19.11
319.563	-52.56
319.776	70.31
319.99	-21.85
320.203	-23.89
320.417	-3.41
320.63	39.59
320.843	51.88
321.057	60.07
321.27	21.16
321.483	37.55
321.697	27.31
321.91	-23.89
322.124	-32.08
322.337	64.17
322.55	43.69
322.763	-32.08
322.977	23.21
323.19	-32.08
323.403	15.02
323.617	12.97
323.83	23.21
324.043	-52.56
324.256	23.21
324.469	-32.08
324.683	45.74
324.896	31.4
325.109	37.55
325.322	-3.41
325.535	8.87
325.748	-19.8
325.962	6.83
326.175	33.45
326.388	86.7
326.601	43.69
326.814	4.78
327.027	-15.7
327.24	21.16
327.453	-7.51
327.666	0.68
327.879	-30.04
328.092	-42.32
328.305	-5.46
328.518	68.27
328.731	0.68
328.944	-27.99
329.157	-9.56
329.37	-7.51
329.583	12.97
329.796	39.59
330.009	-25.94
330.222	-60.76
330.435	-23.89
330.648	39.59
330.861	-9.56
331.073	-48.47
331.286	55.98
331.499	29.35
331.712	-30.04
331.925	-19.8
332.138	-54.61
332.35	27.31
332.563	10.92
332.776	-30.04
332.989	-36.18
333.202	-42.32
333.414	-7.51
333.627	55.98
333.84	-9.56
334.053	25.26
334.265	37.55
334.478	-50.52
334.691	-87.38
334.903	23.21
335.116	-21.85
335.329	-50.52
335.541	-23.89
335.754	10.92
335.966	-54.61
336.179	-15.7
336.392	-15.7
336.604	-21.85
336.817	0.68
337.029	-13.65
337.242	-32.08
337.454	41.64
337.667	53.93
337.88	23.21
338.092	0.68
338.305	-42.32
338.517	37.55
338.729	8.87
338.942	51.88
339.154	-9.56
339.367	-27.99
339.579	-36.18
339.792	-5.46
340.004	31.4
340.217	-46.42
340.429	31.4
340.641	64.17
340.854	66.22
341.066	60.07
341.278	-32.08
341.491	45.74
341.703	8.87
341.915	-130.39
342.128	12.97
342.34	10.92
342.552	0.68
342.764	-13.65
342.977	-30.04
343.189	-1.37
343.401	55.98
343.613	-17.75
343.826	31.4
344.038	19.11
344.25	-9.56
344.462	12.97
344.674	-15.7
344.886	-27.99
345.099	60.07
345.311	-19.8
345.523	-5.46
345.735	12.97
345.947	-3.41
346.159	37.55
346.371	-34.13
346.583	-32.08
346.795	12.97
347.007	-58.71
347.219	-7.51
347.431	-7.51
347.643	41.64
347.855	-40.28
348.067	17.07
348.279	-40.28
348.491	35.5
348.703	23.21
348.915	-5.46
349.127	-13.65
349.339	72.36
349.551	-42.32
349.763	-11.61
349.975	88.75
350.187	47.79
350.399	31.4
350.61	-36.18
350.822	-17.75
351.034	-1.37
351.246	-13.65
351.458	15.02
351.669	-27.99
351.881	0.68
352.093	8.87
352.305	6.83
352.517	-30.04
352.728	78.51
352.94	12.97
353.152	72.36
353.363	-54.61
353.575	-7.51
353.787	-7.51
353.999	10.92
354.21	-19.8
354.422	4.78
354.633	-32.08
354.845	55.98
355.057	-15.7
355.268	55.98
355.48	19.11
355.692	-32.08
355.903	-34.13
356.115	-9.56
356.326	25.26
356.538	31.4
356.749	4.78
356.961	8.87
357.172	49.83
357.384	39.59
357.595	10.92
357.807	6.83
358.018	-34.13
358.23	51.88
358.441	15.02
358.653	23.21
358.864	-27.99
359.075	-50.52
359.287	2.73
359.498	33.45
359.709	31.4
359.921	-11.61
360.132	-13.65
360.344	60.07
360.555	10.92
360.766	45.74
360.977	-38.23
361.189	29.35
361.4	35.5
361.611	31.4
361.823	33.45
362.034	19.11
362.245	-62.8
362.456	-32.08
362.667	43.69
362.879	-30.04
363.09	29.35
363.301	17.07
363.512	-19.8
363.723	37.55
363.935	29.35
364.146	66.22
364.357	-27.99
364.568	-3.41
364.779	2.73
364.99	53.93
365.201	-9.56
365.412	23.21
365.623	-11.61
365.834	-34.13
366.045	-77.14
366.256	35.5
366.467	35.5
366.678	58.03
366.889	45.74
367.1	25.26
367.311	27.31
367.522	8.87
367.733	35.5
367.944	74.41
368.155	8.87
368.366	-32.08
368.577	41.64
368.788	-5.46
368.999	-34.13
369.209	-30.04
369.42	41.64
369.631	64.17
369.842	-66.9
370.053	-50.52
370.264	107.18
370.474	-9.56
370.685	-73.04
370.896	35.5
371.107	45.74
371.317	6.83
371.528	31.4
371.739	80.55
371.95	-48.47
372.16	62.12
372.371	17.07
372.582	-23.89
372.792	-15.7
373.003	27.31
373.214	17.07
373.424	-3.41
373.635	-30.04
373.846	8.87
374.056	49.83
374.267	-25.94
374.477	-58.71
374.688	15.02
374.898	45.74
375.109	-15.7
375.319	-15.7
375.53	25.26
375.74	25.26
375.951	10.92
376.161	49.83
376.372	6.83
376.582	25.26
376.793	-30.04
377.003	-60.76
377.214	60.07
377.424	-11.61
377.635	-36.18
377.845	-11.61
378.055	53.93
378.266	23.21
378.476	-7.51
378.686	-56.66
378.897	60.07
379.107	31.4
379.317	-42.32
379.528	-38.23
379.738	8.87
379.948	-19.8
380.158	17.07
380.369	31.4
380.579	64.17
380.789	58.03
380.999	58.03
381.21	92.84
381.42	17.07
381.63	-3.41
381.84	33.45
382.05	0.68
382.261	-15.7
382.471	39.59
382.681	-25.94
382.891	23.21
383.101	-15.7
383.311	-21.85
383.521	47.79
383.731	35.5
383.941	2.73
384.151	70.31
384.361	-21.85
384.571	72.36
384.781	-38.23
384.991	31.4
385.201	78.51
385.411	-23.89
385.621	39.59
385.831	-87.38
386.041	21.16
386.251	6.83
386.461	47.79
386.671	51.88
386.881	58.03
387.091	-11.61
387.301	37.55
387.511	-38.23
387.72	-7.51
387.93	41.64
388.14	-17.75
388.35	-25.94
388.56	19.11
388.769	60.07
388.979	49.83
389.189	-34.13
389.399	-42.32
389.609	64.17
389.818	27.31
390.028	-21.85
390.238	-23.89
390.447	-11.61
390.657	-13.65
390.867	66.22
391.076	45.74
391.286	2.73
391.496	55.98
391.705	51.88
391.915	-15.7
392.125	10.92
392.334	-7.51
392.544	8.87
392.753	27.31
392.963	23.21
393.172	37.55
393.382	39.59
393.591	94.89
393.801	-21.85
394.01	88.75
394.22	43.69
394.429	64.17
394.639	25.26
394.848	37.55
395.058	-13.65
395.267	-11.61
395.477	-25.94
395.686	35.5
395.895	27.31
396.105	45.74
396.314	58.03
396.524	49.83
396.733	-19.8
396.942	27.31
397.152	-1.37
397.361	49.83
397.57	23.21
397.78	-23.89
397.989	31.4
398.198	51.88
398.407	68.27
398.617	49.83
398.826	49.83
399.035	33.45
399.244	84.65
399.453	76.46
399.663	12.97
399.872	146.09
400.081	-7.51
400.29	43.69
400.499	23.21
400.708	113.32
400.917	29.35
401.127	33.45
401.336	64.17
401.545	53.93
401.754	23.21
401.963	39.59
402.172	4.78
402.381	33.45
402.59	41.64
402.799	107.18
403.008	68.27
403.217	78.51
403.426	76.46
403.635	37.55
403.844	96.94
404.053	37.55
404.262	103.08
404.471	-19.8
404.68	19.11
404.888	111.27
405.097	33.45
405.306	49.83
405.515	35.5
405.724	58.03
405.933	74.41
406.142	115.37
406.35	127.66
406.559	105.13
406.768	117.42
406.977	49.83
407.185	58.03
407.394	55.98
407.603	55.98
407.812	127.66
408.02	141.99
408.229	80.55
408.438	96.94
408.646	39.59
408.855	187.05
409.064	98.99
409.272	82.6
409.481	119.46
409.69	152.23
409.898	148.14
410.107	107.18
410.315	185
410.524	107.18
410.733	182.95
410.941	135.85
411.15	135.85
411.358	240.3
411.567	187.05
411.775	209.58
411.984	242.34
412.192	174.76
412.401	248.49
412.609	250.53
412.818	338.6
413.026	264.87
413.234	240.3
413.443	283.3
413.651	303.78
413.86	264.87
414.068	320.17
414.276	395.94
414.485	316.07
414.693	295.59
414.901	465.57
415.11	301.73
415.318	395.94
415.526	397.99
415.734	447.14
415.943	348.84
416.151	465.57
416.359	471.72
416.567	484
416.776	486.05
416.984	588.45
417.192	570.02
417.4	488.1
417.608	559.78
417.817	514.72
418.025	621.22
418.233	596.64
418.441	690.85
418.649	651.94
418.857	615.07
419.065	746.14
419.273	660.13
419.481	742.05
419.689	803.49
419.897	797.34
420.105	742.05
420.313	799.39
420.521	850.59
420.729	813.73
420.937	940.7
421.145	1002.14
421.353	975.52
421.561	1057.43
421.769	1012.38
421.977	1141.4
422.185	1045.15
422.393	1208.98
422.601	1299.09
422.809	1178.26
423.017	1243.8
423.224	1327.77
423.432	1346.2
423.64	1333.91
423.848	1479.32
424.056	1473.17
424.263	1489.56
424.471	1522.32
424.679	1458.84
424.887	1684.11
425.094	1731.22
425.302	1684.11
425.51	1698.45
425.718	1913.49
425.925	1893.01
426.133	1931.92
426.341	1950.35
426.548	2136.71
426.756	2099.85
426.964	2062.99
427.171	2284.17
427.379	2384.52
427.586	2263.69
427.794	2423.43
428.001	2654.85
428.209	2654.85
428.417	2751.1
428.624	2781.82
428.832	2796.16
429.039	2886.27
429.247	2777.73
429.454	3021.44
429.662	3228.28
429.869	3177.08
430.076	3244.67
430.284	3175.03
430.491	3246.71
430.699	3474.04
430.906	3535.48
431.114	3502.71
431.321	3766.9
431.528	3938.93
431.736	3908.21
431.943	4250.22
432.15	4031.09
432.358	4110.96
432.565	4328.04
432.772	4270.7
432.979	4696.68
433.187	4536.93
433.394	4737.63
433.601	4962.91
433.808	4944.48
434.016	4924
434.223	5163.61
434.43	5362.26
434.637	5489.24
434.844	5659.22
435.052	5749.33
435.259	5771.86
435.466	5798.48
435.673	5681.75
435.88	6132.3
436.087	6406.73
436.294	6578.76
436.501	6339.15
436.708	6494.79
436.915	6677.06
437.122	7039.55
437.329	6849.09
437.537	7117.37
437.743	7230.01
437.95	7209.53
438.157	7651.89
438.364	7926.32
438.571	7848.5
438.778	8043.06
438.985	8694.31
439.192	8311.34
439.399	8624.68
439.606	8227.37
439.813	8677.93
440.02	9245.21
440.227	9134.62
440.433	9040.42
440.64	9288.22
440.847	9320.99
441.054	9468.44
441.261	10177.04
441.467	10019.35
441.674	10299.92
441.881	10504.71
442.088	10650.12
442.294	10607.11
442.501	10721.8
442.708	11045.38
442.914	11387.39
443.121	11803.13
443.328	11680.25
443.534	12339.69
443.741	12034.55
443.948	11956.72
444.154	12675.56
444.361	12646.89
444.568	12683.75
444.774	12906.98
444.981	12827.11
445.187	13281.76
445.394	13666.78
445.6	13887.96
445.807	14627.28
446.013	14205.39
446.22	14518.73
446.426	14899.66
446.633	15215.04
446.839	15729.08
447.046	15247.81
447.252	15815.1
447.459	16144.82
447.665	16064.95
447.871	16525.74
448.078	17168.8
448.284	16503.21
448.491	16834.99
448.697	17676.7
448.903	18055.58
449.11	17789.34
449.316	17306.02
449.522	17922.46
449.728	18534.8
449.935	18520.46
450.141	18182.55
450.347	18782.6
450.553	18534.8
450.76	18383.25
450.966	19014.02
451.172	18743.69
451.378	19030.41
451.584	19024.26
451.791	19378.56
451.997	19407.23
452.203	19550.59
452.409	19612.03
452.615	19380.61
452.821	18835.85
453.027	18534.8
453.233	19825.02
453.44	18561.42
453.646	19167.62
453.852	18985.35
454.058	19220.87
454.264	18536.85
454.47	18817.42
454.676	18538.9
454.882	19417.47
455.088	17820.06
455.294	17838.49
455.5	17998.23
455.705	18194.84
455.911	17398.18
456.117	17213.86
456.323	16800.17
456.529	16015.8
456.735	16566.7
456.941	16296.37
457.147	16001.46
457.352	15475.13
457.558	15208.9
457.764	15151.56
457.97	15016.39
458.176	14629.32
458.381	14705.1
458.587	14178.77
458.793	13803.99
458.999	13128.16
459.204	14170.58
459.41	13904.34
459.616	12947.94
459.821	12630.51
460.027	12747.24
460.233	12671.47
460.438	11903.48
460.644	12251.63
460.85	11553.27
461.055	11414.01
461.261	11098.63
461.466	10424.84
461.672	10035.73
461.878	10807.81
462.083	10308.11
462.289	10097.17
462.494	10002.96
462.7	9480.73
462.905	8983.07
463.111	9398.81
463.316	9562.65
463.522	9306.65
463.727	9536.03
463.932	9224.73
464.138	9169.44
464.343	9243.17
464.549	9038.37
464.754	9419.29
464.959	9269.79
465.165	9148.96
465.37	8858.15
465.575	8518.18
465.781	8983.07
465.986	9116.19
466.191	8532.52
466.397	8530.47
