Data from USB4F104151__111__11-07-17-978.txt Node

Date: Wed Mar 12 11:07:17 EDT 2025
User: louis
Spectrometer: USB4F10415
Trigger mode: 4
Integration Time (sec): 2.000000E-2
Scans to average: 1
Electric dark correction enabled: true
Nonlinearity correction enabled: false
Boxcar width: 0
XAxis mode: Wavelengths
Number of Pixels in Spectrum: 3648
>>>>>Begin Spectral Data<<<<<
178.204	-57.86
178.424	-57.86
178.644	-57.86
178.864	-41.47
179.084	-113.15
179.304	36.35
179.524	-61.95
179.744	-0.51
179.964	-23.04
180.184	-51.71
180.404	19.97
180.624	3.58
180.844	32.26
181.064	9.73
181.283	13.82
181.503	5.63
181.723	15.87
181.943	-43.52
182.163	62.98
182.383	-37.38
182.602	11.78
182.822	-37.38
183.042	108.03
183.262	62.98
183.482	13.82
183.701	-18.94
183.921	-12.8
184.141	26.11
184.361	42.5
184.58	69.12
184.8	50.69
185.02	1.54
185.239	19.97
185.459	-33.28
185.679	65.02
185.898	-115.2
186.118	48.64
186.338	11.78
186.557	19.97
186.777	56.83
186.997	22.02
187.216	17.92
187.436	-37.38
187.655	17.92
187.875	62.98
188.095	-25.09
188.314	-20.99
188.534	-29.18
188.753	60.93
188.973	36.35
189.192	1.54
189.412	11.78
189.631	22.02
189.851	9.73
190.07	56.83
190.29	32.26
190.509	-18.94
190.729	38.4
190.948	-2.56
191.168	89.6
191.387	22.02
191.607	101.89
191.826	-14.85
192.045	7.68
192.265	56.83
192.484	-0.51
192.704	3.58
192.923	-25.09
193.142	103.93
193.362	36.35
193.581	58.88
193.8	13.82
194.02	-4.61
194.239	15.87
194.458	44.54
194.678	28.16
194.897	-37.38
195.116	36.35
195.335	48.64
195.555	9.73
195.774	15.87
195.993	89.6
196.212	-113.15
196.432	22.02
196.651	-0.51
196.87	11.78
197.089	130.56
197.308	1.54
197.528	15.87
197.747	5.63
197.966	5.63
198.185	69.12
198.404	19.97
198.623	28.16
198.842	-8.7
199.062	79.36
199.281	3.58
199.5	9.73
199.719	93.69
199.938	34.3
200.157	38.4
200.376	28.16
200.595	-18.94
200.814	97.79
201.033	116.22
201.252	-6.66
201.471	32.26
201.69	50.69
201.909	-16.9
202.128	11.78
202.347	36.35
202.566	48.64
202.785	17.92
203.004	46.59
203.223	58.88
203.442	44.54
203.661	-10.75
203.879	46.59
204.098	28.16
204.317	3.58
204.536	38.4
204.755	17.92
204.974	22.02
205.193	26.11
205.411	-8.7
205.63	17.92
205.849	95.74
206.068	44.54
206.287	56.83
206.505	34.3
206.724	-55.81
206.943	-31.23
207.162	17.92
207.381	34.3
207.599	9.73
207.818	-39.42
208.037	15.87
208.255	38.4
208.474	-8.7
208.693	44.54
208.911	1.54
209.13	30.21
209.349	-35.33
209.567	44.54
209.786	75.26
210.005	-29.18
210.223	24.06
210.442	36.35
210.661	40.45
210.879	34.3
211.098	-8.7
211.316	13.82
211.535	46.59
211.753	-18.94
211.972	32.26
212.191	-37.38
212.409	-47.62
212.628	-16.9
212.846	81.41
213.065	62.98
213.283	87.55
213.502	-10.75
213.72	83.45
213.938	77.31
214.157	36.35
214.375	17.92
214.594	46.59
214.812	-0.51
215.031	-20.99
215.249	3.58
215.467	32.26
215.686	79.36
215.904	120.32
216.122	13.82
216.341	44.54
216.559	-6.66
216.778	19.97
216.996	52.74
217.214	30.21
217.432	-16.9
217.651	-16.9
217.869	-18.94
218.087	-0.51
218.306	32.26
218.524	36.35
218.742	-20.99
218.96	13.82
219.179	28.16
219.397	75.26
219.615	79.36
219.833	28.16
220.051	60.93
220.27	-31.23
220.488	38.4
220.706	67.07
220.924	-14.85
221.142	24.06
221.36	-18.94
221.578	5.63
221.796	15.87
222.015	46.59
222.233	22.02
222.451	9.73
222.669	15.87
222.887	30.21
223.105	-25.09
223.323	32.26
223.541	7.68
223.759	77.31
223.977	11.78
224.195	81.41
224.413	1.54
224.631	75.26
224.849	32.26
225.067	73.21
225.285	28.16
225.503	65.02
225.721	11.78
225.939	-64
226.157	30.21
226.375	85.5
226.592	-16.9
226.81	11.78
227.028	-37.38
227.246	7.68
227.464	-31.23
227.682	65.02
227.9	87.55
228.117	-23.04
228.335	-35.33
228.553	56.83
228.771	-2.56
228.989	17.92
229.206	42.5
229.424	26.11
229.642	1.54
229.86	34.3
230.077	-4.61
230.295	42.5
230.513	67.07
230.731	97.79
230.948	40.45
231.166	-10.75
231.384	15.87
231.601	44.54
231.819	-20.99
232.037	-8.7
232.254	40.45
232.472	-25.09
232.689	36.35
232.907	28.16
233.125	-25.09
233.342	-45.57
233.56	-25.09
233.777	46.59
233.995	-0.51
234.213	118.27
234.43	50.69
234.648	1.54
234.865	46.59
235.083	1.54
235.3	56.83
235.518	56.83
235.735	-14.85
235.953	7.68
236.17	15.87
236.388	-8.7
236.605	22.02
236.822	40.45
237.04	19.97
237.257	24.06
237.475	-39.42
237.692	40.45
237.909	-2.56
238.127	-20.99
238.344	116.22
238.562	-4.61
238.779	44.54
238.996	13.82
239.214	-31.23
239.431	3.58
239.648	48.64
239.865	17.92
240.083	7.68
240.3	15.87
240.517	-16.9
240.735	3.58
240.952	95.74
241.169	-4.61
241.386	30.21
241.603	34.3
241.821	9.73
242.038	75.26
242.255	13.82
242.472	58.88
242.689	11.78
242.907	34.3
243.124	26.11
243.341	36.35
243.558	-27.14
243.775	-0.51
243.992	-61.95
244.209	11.78
244.426	83.45
244.643	52.74
244.86	42.5
245.078	-25.09
245.295	32.26
245.512	30.21
245.729	11.78
245.946	-0.51
246.163	44.54
246.38	89.6
246.597	52.74
246.814	24.06
247.031	36.35
247.248	-2.56
247.464	32.26
247.681	38.4
247.898	105.98
248.115	19.97
248.332	15.87
248.549	112.13
248.766	11.78
248.983	71.17
249.2	42.5
249.417	69.12
249.633	-27.14
249.85	17.92
250.067	-6.66
250.284	65.02
250.501	-23.04
250.717	17.92
250.934	-25.09
251.151	26.11
251.368	-86.53
251.585	17.92
251.801	36.35
252.018	-14.85
252.235	40.45
252.451	11.78
252.668	-92.67
252.885	110.08
253.102	110.08
253.318	38.4
253.535	56.83
253.752	-23.04
253.968	26.11
254.185	32.26
254.401	7.68
254.618	15.87
254.835	34.3
255.051	71.17
255.268	75.26
255.484	62.98
255.701	15.87
255.917	75.26
256.134	-98.81
256.351	-23.04
256.567	-10.75
256.784	28.16
257	-12.8
257.217	-0.51
257.433	17.92
257.65	91.65
257.866	-4.61
258.082	-61.95
258.299	-12.8
258.515	19.97
258.732	52.74
258.948	11.78
259.165	-27.14
259.381	26.11
259.597	-70.14
259.814	17.92
260.03	44.54
260.246	24.06
260.463	24.06
260.679	9.73
260.895	-29.18
261.112	50.69
261.328	40.45
261.544	26.11
261.761	50.69
261.977	34.3
262.193	-37.38
262.409	65.02
262.626	38.4
262.842	44.54
263.058	11.78
263.274	93.69
263.49	60.93
263.707	81.41
263.923	65.02
264.139	13.82
264.355	101.89
264.571	65.02
264.787	-10.75
265.004	42.5
265.22	36.35
265.436	-14.85
265.652	-8.7
265.868	-2.56
266.084	3.58
266.3	9.73
266.516	-4.61
266.732	54.78
266.948	-4.61
267.164	30.21
267.38	48.64
267.596	56.83
267.812	75.26
268.028	32.26
268.244	42.5
268.46	-33.28
268.676	-18.94
268.892	40.45
269.108	-53.76
269.324	-0.51
269.54	26.11
269.756	54.78
269.972	-2.56
270.188	11.78
270.403	15.87
270.619	26.11
270.835	32.26
271.051	50.69
271.267	42.5
271.483	36.35
271.698	17.92
271.914	85.5
272.13	15.87
272.346	13.82
272.562	-23.04
272.777	32.26
272.993	67.07
273.209	24.06
273.425	48.64
273.64	1.54
273.856	110.08
274.072	54.78
274.287	40.45
274.503	73.21
274.719	44.54
274.934	52.74
275.15	-25.09
275.366	5.63
275.581	19.97
275.797	-35.33
276.012	30.21
276.228	-6.66
276.444	13.82
276.659	15.87
276.875	-39.42
277.09	-0.51
277.306	99.84
277.521	17.92
277.737	-31.23
277.952	60.93
278.168	48.64
278.383	85.5
278.599	38.4
278.814	85.5
279.03	22.02
279.245	24.06
279.461	-29.18
279.676	50.69
279.892	46.59
280.107	11.78
280.322	22.02
280.538	52.74
280.753	-8.7
280.969	22.02
281.184	65.02
281.399	71.17
281.615	28.16
281.83	28.16
282.045	54.78
282.26	-4.61
282.476	7.68
282.691	-2.56
282.906	30.21
283.122	32.26
283.337	-31.23
283.552	44.54
283.767	15.87
283.983	54.78
284.198	30.21
284.413	85.5
284.628	69.12
284.843	89.6
285.058	3.58
285.274	22.02
285.489	-12.8
285.704	60.93
285.919	79.36
286.134	24.06
286.349	-37.38
286.564	122.37
286.779	15.87
286.995	38.4
287.21	-12.8
287.425	67.07
287.64	50.69
287.855	73.21
288.07	52.74
288.285	65.02
288.5	69.12
288.715	7.68
288.93	7.68
289.145	52.74
289.36	28.16
289.575	-4.61
289.79	30.21
290.004	19.97
290.219	3.58
290.434	26.11
290.649	56.83
290.864	54.78
291.079	-25.09
291.294	54.78
291.509	46.59
291.724	65.02
291.938	44.54
292.153	-16.9
292.368	-0.51
292.583	-12.8
292.798	7.68
293.012	-31.23
293.227	40.45
293.442	-27.14
293.657	-4.61
293.871	58.88
294.086	36.35
294.301	81.41
294.516	9.73
294.73	67.07
294.945	28.16
295.16	-45.57
295.374	13.82
295.589	46.59
295.804	30.21
296.018	-25.09
296.233	58.88
296.447	58.88
296.662	-8.7
296.877	-4.61
297.091	56.83
297.306	3.58
297.52	52.74
297.735	95.74
297.949	69.12
298.164	36.35
298.378	89.6
298.593	60.93
298.807	3.58
299.022	11.78
299.236	13.82
299.451	46.59
299.665	-8.7
299.88	-29.18
300.094	11.78
300.309	48.64
300.523	30.21
300.737	62.98
300.952	-25.09
301.166	13.82
301.381	60.93
301.595	69.12
301.809	-37.38
302.024	3.58
302.238	-8.7
302.452	40.45
302.667	73.21
302.881	-0.51
303.095	67.07
303.309	11.78
303.524	19.97
303.738	-16.9
303.952	-8.7
304.166	32.26
304.381	1.54
304.595	9.73
304.809	-0.51
305.023	69.12
305.237	50.69
305.452	30.21
305.666	50.69
305.88	-6.66
306.094	77.31
306.308	83.45
306.522	42.5
306.736	75.26
306.95	52.74
307.164	-6.66
307.379	-8.7
307.593	103.93
307.807	32.26
308.021	52.74
308.235	-25.09
308.449	24.06
308.663	26.11
308.877	22.02
309.091	19.97
309.305	58.88
309.519	-20.99
309.733	3.58
309.947	50.69
310.161	87.55
310.374	5.63
310.588	-16.9
310.802	9.73
311.016	-18.94
311.23	28.16
311.444	24.06
311.658	-37.38
311.872	-61.95
312.085	73.21
312.299	73.21
312.513	50.69
312.727	13.82
312.941	62.98
313.154	-2.56
313.368	62.98
313.582	34.3
313.796	-10.75
314.009	24.06
314.223	15.87
314.437	11.78
314.651	38.4
314.864	50.69
315.078	-6.66
315.292	19.97
315.505	-25.09
315.719	38.4
315.933	-14.85
316.146	17.92
316.36	118.27
316.573	36.35
316.787	-0.51
317.001	30.21
317.214	26.11
317.428	28.16
317.641	44.54
317.855	19.97
318.068	7.68
318.282	24.06
318.495	58.88
318.709	30.21
318.922	40.45
319.136	40.45
319.349	1.54
319.563	52.74
319.776	28.16
319.99	-29.18
320.203	19.97
320.417	50.69
320.63	65.02
320.843	22.02
321.057	3.58
321.27	46.59
321.483	44.54
321.697	93.69
321.91	116.22
322.124	32.26
322.337	36.35
322.55	7.68
322.763	67.07
322.977	17.92
323.19	-20.99
323.403	58.88
323.617	-0.51
323.83	81.41
324.043	19.97
324.256	7.68
324.469	-23.04
324.683	15.87
324.896	7.68
325.109	38.4
325.322	44.54
325.535	69.12
325.748	-8.7
325.962	-70.14
326.175	101.89
326.388	17.92
326.601	50.69
326.814	-8.7
327.027	28.16
327.24	15.87
327.453	9.73
327.666	95.74
327.879	52.74
328.092	32.26
328.305	-51.71
328.518	40.45
328.731	62.98
328.944	-10.75
329.157	105.98
329.37	-8.7
329.583	24.06
329.796	40.45
330.009	34.3
330.222	40.45
330.435	-43.52
330.648	3.58
330.861	67.07
331.073	19.97
331.286	42.5
331.499	77.31
331.712	67.07
331.925	46.59
332.138	-45.57
332.35	122.37
332.563	17.92
332.776	13.82
332.989	28.16
333.202	-18.94
333.414	42.5
333.627	89.6
333.84	52.74
334.053	17.92
334.265	-16.9
334.478	54.78
334.691	50.69
334.903	-8.7
335.116	-23.04
335.329	67.07
335.541	42.5
335.754	-0.51
335.966	13.82
336.179	19.97
336.392	44.54
336.604	9.73
336.817	46.59
337.029	-2.56
337.242	81.41
337.454	50.69
337.667	19.97
337.88	75.26
338.092	101.89
338.305	-6.66
338.517	44.54
338.729	34.3
338.942	97.79
339.154	44.54
339.367	54.78
339.579	34.3
339.792	24.06
340.004	3.58
340.217	56.83
340.429	22.02
340.641	24.06
340.854	44.54
341.066	11.78
341.278	151.04
341.491	24.06
341.703	65.02
341.915	22.02
342.128	19.97
342.34	36.35
342.552	46.59
342.764	15.87
342.977	50.69
343.189	-88.57
343.401	83.45
343.613	28.16
343.826	56.83
344.038	40.45
344.25	103.93
344.462	-6.66
344.674	7.68
344.886	73.21
345.099	-8.7
345.311	65.02
345.523	-23.04
345.735	62.98
345.947	-14.85
346.159	22.02
346.371	-14.85
346.583	-8.7
346.795	22.02
347.007	-6.66
347.219	65.02
347.431	30.21
347.643	128.51
347.855	50.69
348.067	36.35
348.279	42.5
348.491	30.21
348.703	54.78
348.915	50.69
349.127	24.06
349.339	19.97
349.551	38.4
349.763	15.87
349.975	93.69
350.187	-2.56
350.399	15.87
350.61	11.78
350.822	71.17
351.034	101.89
351.246	36.35
351.458	11.78
351.669	44.54
351.881	83.45
352.093	40.45
352.305	3.58
352.517	-45.57
352.728	34.3
352.94	-20.99
353.152	-23.04
353.363	28.16
353.575	128.51
353.787	60.93
353.999	-2.56
354.21	32.26
354.422	-0.51
354.633	56.83
354.845	48.64
355.057	52.74
355.268	71.17
355.48	1.54
355.692	-16.9
355.903	-12.8
356.115	9.73
356.326	42.5
356.538	73.21
356.749	50.69
356.961	67.07
357.172	36.35
357.384	101.89
357.595	112.13
357.807	34.3
358.018	22.02
358.23	130.56
358.441	99.84
358.653	54.78
358.864	71.17
359.075	15.87
359.287	54.78
359.498	132.61
359.709	50.69
359.921	67.07
360.132	77.31
360.344	34.3
360.555	15.87
360.766	22.02
360.977	17.92
361.189	34.3
361.4	52.74
361.611	97.79
361.823	24.06
362.034	42.5
362.245	42.5
362.456	52.74
362.667	75.26
362.879	-39.42
363.09	28.16
363.301	32.26
363.512	17.92
363.723	5.63
363.935	81.41
364.146	69.12
364.357	67.07
364.568	97.79
364.779	17.92
364.99	40.45
365.201	-29.18
365.412	101.89
365.623	73.21
365.834	11.78
366.045	13.82
366.256	32.26
366.467	40.45
366.678	-0.51
366.889	-37.38
367.1	7.68
367.311	60.93
367.522	13.82
367.733	-0.51
367.944	42.5
368.155	48.64
368.366	15.87
368.577	58.88
368.788	32.26
368.999	-12.8
369.209	11.78
369.42	73.21
369.631	89.6
369.842	36.35
370.053	13.82
370.264	60.93
370.474	40.45
370.685	36.35
370.896	58.88
371.107	34.3
371.317	67.07
371.528	93.69
371.739	42.5
371.95	83.45
372.16	73.21
372.371	9.73
372.582	19.97
372.792	40.45
373.003	79.36
373.214	89.6
373.424	65.02
373.635	24.06
373.846	34.3
374.056	13.82
374.267	97.79
374.477	26.11
374.688	79.36
374.898	19.97
375.109	-10.75
375.319	19.97
375.53	-8.7
375.74	58.88
375.951	46.59
376.161	65.02
376.372	62.98
376.582	67.07
376.793	44.54
377.003	-14.85
377.214	24.06
377.424	3.58
377.635	42.5
377.845	54.78
378.055	73.21
378.266	5.63
378.476	97.79
378.686	69.12
378.897	56.83
379.107	32.26
379.317	73.21
379.528	69.12
379.738	95.74
379.948	9.73
380.158	58.88
380.369	44.54
380.579	50.69
380.789	48.64
380.999	32.26
381.21	79.36
381.42	48.64
381.63	73.21
381.84	38.4
382.05	-25.09
382.261	69.12
382.471	56.83
382.681	42.5
382.891	19.97
383.101	44.54
383.311	11.78
383.521	30.21
383.731	56.83
383.941	83.45
384.151	30.21
384.361	69.12
384.571	89.6
384.781	93.69
384.991	81.41
385.201	122.37
385.411	22.02
385.621	44.54
385.831	46.59
386.041	65.02
386.251	75.26
386.461	54.78
386.671	30.21
386.881	67.07
387.091	91.65
387.301	75.26
387.511	58.88
387.72	19.97
387.93	77.31
388.14	32.26
388.35	38.4
388.56	81.41
388.769	91.65
388.979	56.83
389.189	103.93
389.399	1.54
389.609	54.78
389.818	83.45
390.028	-10.75
390.238	77.31
390.447	3.58
390.657	114.17
390.867	99.84
391.076	44.54
391.286	60.93
391.496	136.7
391.705	124.41
391.915	81.41
392.125	116.22
392.334	28.16
392.544	50.69
392.753	24.06
392.963	19.97
393.172	56.83
393.382	-41.47
393.591	185.85
393.801	30.21
394.01	126.46
394.22	71.17
394.429	-8.7
394.639	83.45
394.848	79.36
395.058	83.45
395.267	69.12
395.477	40.45
395.686	136.7
395.895	81.41
396.105	122.37
396.314	-6.66
396.524	67.07
396.733	-23.04
396.942	22.02
397.152	105.98
397.361	77.31
397.57	71.17
397.78	204.28
397.989	99.84
398.198	134.65
398.407	95.74
398.617	95.74
398.826	132.61
399.035	161.28
399.244	77.31
399.453	79.36
399.663	34.3
399.872	132.61
400.081	-20.99
400.29	148.99
400.499	103.93
400.708	171.52
400.917	118.27
401.127	122.37
401.336	99.84
401.545	77.31
401.754	105.98
401.963	87.55
402.172	159.23
402.381	128.51
402.59	155.13
402.799	130.56
403.008	89.6
403.217	105.98
403.426	124.41
403.635	54.78
403.844	95.74
404.053	198.14
404.262	95.74
404.471	159.23
404.68	130.56
404.888	198.14
405.097	110.08
405.306	99.84
405.515	185.85
405.724	157.18
405.933	146.94
406.142	198.14
406.35	134.65
406.559	99.84
406.768	157.18
406.977	181.76
407.185	142.85
407.394	228.86
407.603	183.81
407.812	140.8
408.02	265.72
408.229	206.33
408.438	183.81
408.646	146.94
408.855	235
409.064	210.43
409.272	239.1
409.481	273.92
409.69	302.59
409.898	269.82
410.107	212.48
410.315	280.06
410.524	345.59
410.733	368.12
410.941	198.14
411.15	345.59
411.358	318.97
411.567	398.84
411.775	433.66
411.984	372.22
412.192	435.71
412.401	388.6
412.609	472.57
412.818	402.94
413.026	417.27
413.234	474.62
413.443	445.95
413.651	513.53
413.86	476.66
414.068	570.87
414.276	572.92
414.485	675.32
414.693	601.59
414.901	626.17
415.11	665.08
415.318	687.61
415.526	572.92
415.734	740.85
415.943	755.19
416.151	769.52
416.359	757.24
416.567	916.98
416.776	843.25
416.984	962.03
417.192	951.79
417.4	894.45
417.608	951.79
417.817	964.08
418.025	1046
418.233	1095.15
418.441	1115.63
418.649	1146.35
418.857	1156.59
419.065	1234.41
419.273	1129.97
419.481	1244.65
419.689	1342.96
419.897	1398.25
420.105	1367.53
420.313	1490.41
420.521	1506.79
420.729	1594.86
420.937	1629.67
421.145	1553.9
421.353	1697.25
421.561	1785.32
421.769	1830.37
421.977	1930.72
422.185	1867.24
422.393	2080.22
422.601	2065.89
422.809	2127.33
423.017	2176.48
423.224	2278.88
423.432	2393.56
423.64	2233.82
423.848	2483.67
424.056	2504.15
424.263	2639.32
424.471	2627.03
424.679	2698.71
424.887	2854.36
425.094	2874.84
425.302	3001.81
425.51	2993.62
425.718	3143.12
425.925	3227.09
426.133	3333.58
426.341	3485.13
426.548	3675.59
426.756	3679.69
426.964	3845.57
427.171	3921.35
427.379	4027.84
427.586	4058.56
427.794	4134.34
428.001	4482.49
428.209	4537.79
428.417	4591.03
428.624	4842.93
428.832	4982.2
429.039	4789.69
429.247	4832.69
429.454	5367.21
429.662	5578.15
429.869	5336.49
430.076	5588.39
430.284	5590.44
430.491	5864.87
430.699	6176.16
430.906	5979.56
431.114	6063.52
431.321	6346.14
431.528	6522.27
431.736	6884.76
431.943	7353.74
432.15	6970.77
432.358	7017.88
432.565	7564.68
432.772	7226.77
432.979	7845.26
433.187	7964.04
433.394	8181.12
433.601	8562.05
433.808	8641.92
434.016	8605.05
434.223	9080.18
434.43	9586.03
434.637	9145.72
434.844	9948.52
435.052	9964.9
435.259	9858.41
435.466	10063.21
435.673	9839.98
435.88	10718.56
436.087	11218.26
436.294	11236.69
436.501	10958.17
436.708	11230.55
436.915	11705.68
437.122	12035.4
437.329	11957.58
437.537	12496.19
437.743	12604.74
437.95	12385.6
438.157	13116.73
438.364	13759.79
438.571	13389.11
438.778	13425.97
438.985	14957.85
439.192	14454.05
439.399	14800.16
439.606	14476.58
439.813	15293.72
440.02	16471.3
440.227	15983.88
440.433	15914.25
440.64	16422.15
440.847	16215.3
441.054	16540.93
441.261	17595.64
441.467	17306.87
441.674	18054.38
441.881	18554.08
442.088	18486.5
442.294	18140.4
442.501	18896.1
442.708	19131.61
442.914	19963.09
443.121	20671.68
443.328	20210.89
443.534	21587.13
443.741	21025.98
443.948	20665.54
444.154	22529.19
444.361	22103.21
444.568	22113.45
444.774	22418.6
444.981	22619.3
445.187	23260.32
445.394	24196.24
445.6	23745.69
445.807	25967.73
446.013	24859.78
446.22	25345.15
446.426	26350.7
446.633	26649.71
446.839	27509.85
447.046	26330.22
447.252	28142.67
447.459	27939.93
447.665	27628.63
447.871	28943.43
448.078	29873.21
448.284	29068.36
448.491	29500.48
448.697	30829.61
448.903	30821.42
449.11	31290.4
449.316	30581.81
449.522	31228.96
449.728	32267.28
449.935	32494.61
450.141	32396.31
450.347	32951.31
450.553	32273.43
450.76	32412.69
450.966	33399.81
451.172	33246.21
451.378	34044.92
451.584	33475.59
451.791	33692.67
451.997	33696.77
452.203	34546.67
452.409	34339.83
452.615	34196.47
452.821	33008.65
453.027	32943.11
453.233	34206.71
453.44	32797.71
453.646	33498.11
453.852	33514.5
454.058	33760.25
454.264	32824.33
454.47	33580.03
454.676	32914.44
454.882	33893.37
455.088	30762.03
455.294	31007.78
455.5	31829.02
455.705	32115.73
455.911	30659.63
456.117	30331.95
456.323	29662.27
456.529	27903.06
456.735	29668.41
456.941	28615.76
457.147	28118.1
457.352	27509.85
457.558	27124.83
457.764	27171.94
457.97	26641.51
458.176	25918.58
458.381	26258.54
458.587	24716.42
458.793	24626.31
458.999	23483.55
459.204	25437.31
459.41	24444.04
459.616	23100.58
459.821	23102.62
460.027	22594.73
460.233	22254.76
460.438	21451.96
460.644	21269.69
460.85	20600.01
461.055	20266.19
461.261	20141.26
461.466	18902.24
461.672	18218.22
461.878	19477.72
462.083	18382.06
462.289	17911.02
462.494	17708.27
462.7	17134.84
462.905	16422.15
463.111	17069.31
463.316	17091.84
463.522	16610.56
463.727	16760.06
463.932	16514.31
464.138	16416.01
464.343	16616.71
464.549	16241.93
464.754	16813.31
464.959	16383.24
465.165	16196.87
465.37	15940.88
465.575	15373.59
465.781	16307.46
465.986	16252.17
466.191	15455.51
466.397	15265.05
466.602	14519.59
466.807	15131.93
467.012	14978.33
467.218	14703.9
467.423	14621.98
467.628	14730.53
467.833	15410.45
468.038	15064.35
