Data from USB4F104151__188__11-09-42-442.txt Node

Date: Wed Mar 12 11:09:42 EDT 2025
User: louis
Spectrometer: USB4F10415
Trigger mode: 4
Integration Time (sec): 2.000000E-2
Scans to average: 1
Electric dark correction enabled: true
Nonlinearity correction enabled: false
Boxcar width: 0
XAxis mode: Wavelengths
Number of Pixels in Spectrum: 3648
>>>>>Begin Spectral Data<<<<<
178.204	-56.83
178.424	-56.83
178.644	-56.83
178.864	-62.98
179.084	-58.88
179.304	-54.78
179.524	-58.88
179.744	12.8
179.964	31.23
180.184	10.75
180.404	-60.93
180.624	-36.35
180.844	53.76
181.064	-17.92
181.283	80.38
181.503	-11.78
181.723	51.71
181.943	-19.97
182.163	88.57
182.383	4.61
182.602	4.61
182.822	20.99
183.042	45.57
183.262	-17.92
183.482	104.96
183.701	10.75
183.921	23.04
184.141	12.8
184.361	0.51
184.58	14.85
184.8	-62.98
185.02	35.33
185.239	14.85
185.459	6.66
185.679	6.66
185.898	39.42
186.118	8.7
186.338	-11.78
186.557	33.28
186.777	-30.21
186.997	-46.59
187.216	-103.93
187.436	70.14
187.655	45.57
187.875	18.94
188.095	49.66
188.314	27.14
188.534	16.9
188.753	8.7
188.973	25.09
189.192	104.96
189.412	-26.11
189.631	33.28
189.851	47.62
190.07	41.47
190.29	-13.82
190.509	43.52
190.729	27.14
190.948	-69.12
191.168	57.86
191.387	-11.78
191.607	-60.93
191.826	25.09
192.045	61.95
192.265	45.57
192.484	-17.92
192.704	-1.54
192.923	8.7
193.142	35.33
193.362	23.04
193.581	98.81
193.8	-22.02
194.02	4.61
194.239	-54.78
194.458	68.09
194.678	68.09
194.897	43.52
195.116	-28.16
195.335	66.05
195.555	0.51
195.774	0.51
195.993	35.33
196.212	16.9
196.432	29.18
196.651	23.04
196.87	6.66
197.089	47.62
197.308	109.05
197.528	23.04
197.747	23.04
197.966	66.05
198.185	6.66
198.404	61.95
198.623	-19.97
198.842	37.38
199.062	59.9
199.281	25.09
199.5	-50.69
199.719	-7.68
199.938	76.29
200.157	-11.78
200.376	12.8
200.595	68.09
200.814	45.57
201.033	98.81
201.252	33.28
201.471	27.14
201.69	59.9
201.909	41.47
202.128	14.85
202.347	-11.78
202.566	6.66
202.785	29.18
203.004	-46.59
203.223	23.04
203.442	16.9
203.661	31.23
203.879	-26.11
204.098	59.9
204.317	-44.54
204.536	86.53
204.755	25.09
204.974	33.28
205.193	33.28
205.411	31.23
205.63	6.66
205.849	74.24
206.068	43.52
206.287	-60.93
206.505	18.94
206.724	47.62
206.943	-9.73
207.162	45.57
207.381	29.18
207.599	-56.83
207.818	-42.5
208.037	-54.78
208.255	14.85
208.474	20.99
208.693	0.51
208.911	6.66
209.13	66.05
209.349	-7.68
209.567	14.85
209.786	0.51
210.005	-13.82
210.223	29.18
210.442	12.8
210.661	-58.88
210.879	53.76
211.098	2.56
211.316	51.71
211.535	43.52
211.753	14.85
211.972	-5.63
212.191	-28.16
212.409	-3.58
212.628	45.57
212.846	45.57
213.065	25.09
213.283	-3.58
213.502	27.14
213.72	-44.54
213.938	12.8
214.157	-42.5
214.375	41.47
214.594	23.04
214.812	49.66
215.031	-19.97
215.249	-17.92
215.467	2.56
215.686	0.51
215.904	53.76
216.122	35.33
216.341	-1.54
216.559	47.62
216.778	-32.26
216.996	100.86
217.214	55.81
217.432	-3.58
217.651	-24.06
217.869	82.43
218.087	-42.5
218.306	80.38
218.524	35.33
218.742	-48.64
218.96	33.28
219.179	-42.5
219.397	66.05
219.615	-11.78
219.833	33.28
220.051	-3.58
220.27	31.23
220.488	39.42
220.706	12.8
220.924	66.05
221.142	-15.87
221.36	-15.87
221.578	4.61
221.796	16.9
222.015	29.18
222.233	-34.3
222.451	12.8
222.669	16.9
222.887	29.18
223.105	43.52
223.323	14.85
223.541	-3.58
223.759	29.18
223.977	51.71
224.195	82.43
224.413	-26.11
224.631	61.95
224.849	6.66
225.067	70.14
225.285	90.62
225.503	-32.26
225.721	35.33
225.939	10.75
226.157	20.99
226.375	135.68
226.592	31.23
226.81	53.76
227.028	74.24
227.246	16.9
227.464	-5.63
227.682	0.51
227.9	33.28
228.117	8.7
228.335	47.62
228.553	-54.78
228.771	8.7
228.989	4.61
229.206	-3.58
229.424	0.51
229.642	4.61
229.86	-5.63
230.077	-36.35
230.295	25.09
230.513	49.66
230.731	29.18
230.948	31.23
231.166	27.14
231.384	20.99
231.601	64
231.819	64
232.037	-7.68
232.254	80.38
232.472	45.57
232.689	-30.21
232.907	0.51
233.125	-26.11
233.342	4.61
233.56	16.9
233.777	39.42
233.995	20.99
234.213	133.63
234.43	33.28
234.648	-28.16
234.865	8.7
235.083	43.52
235.3	74.24
235.518	10.75
235.735	94.72
235.953	53.76
236.17	10.75
236.388	41.47
236.605	0.51
236.822	47.62
237.04	53.76
237.257	0.51
237.475	23.04
237.692	18.94
237.909	18.94
238.127	-7.68
238.344	-17.92
238.562	53.76
238.779	37.38
238.996	-13.82
239.214	47.62
239.431	29.18
239.648	39.42
239.865	8.7
240.083	33.28
240.3	39.42
240.517	43.52
240.735	45.57
240.952	45.57
241.169	57.86
241.386	-30.21
241.603	35.33
241.821	-22.02
242.038	100.86
242.255	51.71
242.472	-62.98
242.689	-24.06
242.907	20.99
243.124	-42.5
243.341	25.09
243.558	-38.4
243.775	37.38
243.992	-22.02
244.209	-44.54
244.426	29.18
244.643	-3.58
244.86	0.51
245.078	23.04
245.295	33.28
245.512	-28.16
245.729	-1.54
245.946	33.28
246.163	-11.78
246.38	-24.06
246.597	37.38
246.814	-22.02
247.031	-17.92
247.248	68.09
247.464	-15.87
247.681	31.23
247.898	18.94
248.115	111.1
248.332	86.53
248.549	25.09
248.766	104.96
248.983	10.75
249.2	111.1
249.417	10.75
249.633	6.66
249.85	37.38
250.067	-62.98
250.284	25.09
250.501	20.99
250.717	61.95
250.934	53.76
251.151	-28.16
251.368	-1.54
251.585	43.52
251.801	-36.35
252.018	29.18
252.235	25.09
252.451	-19.97
252.668	2.56
252.885	47.62
253.102	-15.87
253.318	16.9
253.535	-40.45
253.752	23.04
253.968	29.18
254.185	8.7
254.401	29.18
254.618	35.33
254.835	-34.3
255.051	-5.63
255.268	14.85
255.484	78.33
255.701	-11.78
255.917	31.23
256.134	2.56
256.351	-17.92
256.567	2.56
256.784	12.8
257	-5.63
257.217	35.33
257.433	37.38
257.65	25.09
257.866	82.43
258.082	8.7
258.299	-65.02
258.515	18.94
258.732	14.85
258.948	74.24
259.165	-22.02
259.381	-65.02
259.597	8.7
259.814	0.51
260.03	51.71
260.246	-1.54
260.463	20.99
260.679	-17.92
260.895	55.81
261.112	25.09
261.328	-11.78
261.544	-46.59
261.761	27.14
261.977	49.66
262.193	6.66
262.409	45.57
262.626	-28.16
262.842	33.28
263.058	-28.16
263.274	14.85
263.49	35.33
263.707	16.9
263.923	29.18
264.139	41.47
264.355	61.95
264.571	45.57
264.787	8.7
265.004	6.66
265.22	47.62
265.436	-79.36
265.652	-1.54
265.868	-11.78
266.084	-36.35
266.3	0.51
266.516	-42.5
266.732	39.42
266.948	-56.83
267.164	111.1
267.38	14.85
267.596	37.38
267.812	113.15
268.028	68.09
268.244	35.33
268.46	47.62
268.676	-32.26
268.892	80.38
269.108	-3.58
269.324	-36.35
269.54	14.85
269.756	90.62
269.972	43.52
270.188	-15.87
270.403	49.66
270.619	27.14
270.835	-44.54
271.051	68.09
271.267	-13.82
271.483	-7.68
271.698	-38.4
271.914	41.47
272.13	0.51
272.346	0.51
272.562	16.9
272.777	61.95
272.993	-15.87
273.209	-22.02
273.425	-7.68
273.64	57.86
273.856	-38.4
274.072	10.75
274.287	35.33
274.503	39.42
274.719	37.38
274.934	-19.97
275.15	39.42
275.366	55.81
275.581	47.62
275.797	23.04
276.012	-1.54
276.228	4.61
276.444	70.14
276.659	-15.87
276.875	12.8
277.09	-44.54
277.306	55.81
277.521	37.38
277.737	-40.45
277.952	37.38
278.168	80.38
278.383	-11.78
278.599	-1.54
278.814	35.33
279.03	35.33
279.245	27.14
279.461	20.99
279.676	74.24
279.892	39.42
280.107	4.61
280.322	12.8
280.538	41.47
280.753	-42.5
280.969	-32.26
281.184	10.75
281.399	35.33
281.615	-22.02
281.83	12.8
282.045	-48.64
282.26	4.61
282.476	33.28
282.691	35.33
282.906	35.33
283.122	57.86
283.337	-40.45
283.552	23.04
283.767	8.7
283.983	72.19
284.198	18.94
284.413	43.52
284.628	16.9
284.843	47.62
285.058	84.48
285.274	66.05
285.489	10.75
285.704	18.94
285.919	61.95
286.134	35.33
286.349	47.62
286.564	0.51
286.779	125.44
286.995	8.7
287.21	53.76
287.425	-1.54
287.64	86.53
287.855	80.38
288.07	53.76
288.285	14.85
288.5	-7.68
288.715	23.04
288.93	-17.92
289.145	10.75
289.36	16.9
289.575	29.18
289.79	25.09
290.004	41.47
290.219	74.24
290.434	109.05
290.649	-130.56
290.864	-17.92
291.079	72.19
291.294	98.81
291.509	29.18
291.724	23.04
291.938	-32.26
292.153	61.95
292.368	27.14
292.583	4.61
292.798	-52.74
293.012	37.38
293.227	14.85
293.442	-7.68
293.657	8.7
293.871	68.09
294.086	29.18
294.301	27.14
294.516	53.76
294.73	68.09
294.945	12.8
295.16	43.52
295.374	35.33
295.589	20.99
295.804	8.7
296.018	57.86
296.233	-15.87
296.447	96.77
296.662	-26.11
296.877	10.75
297.091	102.91
297.306	20.99
297.52	-1.54
297.735	20.99
297.949	-1.54
298.164	33.28
298.378	-5.63
298.593	8.7
298.807	20.99
299.022	43.52
299.236	20.99
299.451	25.09
299.665	25.09
299.88	55.81
300.094	55.81
300.309	72.19
300.523	70.14
300.737	10.75
300.952	29.18
301.166	-7.68
301.381	-13.82
301.595	-13.82
301.809	43.52
302.024	0.51
302.238	18.94
302.452	29.18
302.667	92.67
302.881	94.72
303.095	66.05
303.309	76.29
303.524	-13.82
303.738	53.76
303.952	16.9
304.166	12.8
304.381	29.18
304.595	8.7
304.809	-62.98
305.023	37.38
305.237	-44.54
305.452	-1.54
305.666	31.23
305.88	37.38
306.094	-9.73
306.308	-13.82
306.522	39.42
306.736	-19.97
306.95	2.56
307.164	-3.58
307.379	-58.88
307.593	49.66
307.807	0.51
308.021	20.99
308.235	45.57
308.449	10.75
308.663	-28.16
308.877	53.76
309.091	-54.78
309.305	27.14
309.519	76.29
309.733	82.43
309.947	2.56
310.161	59.9
310.374	-1.54
310.588	66.05
310.802	10.75
311.016	-13.82
311.23	49.66
311.444	-46.59
311.658	33.28
311.872	25.09
312.085	98.81
312.299	117.25
312.513	31.23
312.727	45.57
312.941	-22.02
313.154	-17.92
313.368	20.99
313.582	-1.54
313.796	47.62
314.009	41.47
314.223	80.38
314.437	29.18
314.651	33.28
314.864	18.94
315.078	-19.97
315.292	4.61
315.505	39.42
315.719	8.7
315.933	-11.78
316.146	-5.63
316.36	-26.11
316.573	25.09
316.787	-15.87
317.001	0.51
317.214	0.51
317.428	-36.35
317.641	27.14
317.855	14.85
318.068	29.18
318.282	-11.78
318.495	14.85
318.709	43.52
318.922	59.9
319.136	-5.63
319.349	29.18
319.563	68.09
319.776	8.7
319.99	20.99
320.203	70.14
320.417	20.99
320.63	55.81
320.843	37.38
321.057	55.81
321.27	78.33
321.483	51.71
321.697	45.57
321.91	-46.59
322.124	78.33
322.337	-17.92
322.55	20.99
322.763	-15.87
322.977	68.09
323.19	47.62
323.403	-1.54
323.617	-28.16
323.83	61.95
324.043	-26.11
324.256	-19.97
324.469	4.61
324.683	33.28
324.896	-83.45
325.109	64
325.322	-85.5
325.535	68.09
325.748	43.52
325.962	16.9
326.175	-42.5
326.388	29.18
326.601	-60.93
326.814	37.38
327.027	-7.68
327.24	70.14
327.453	14.85
327.666	66.05
327.879	39.42
328.092	12.8
328.305	29.18
328.518	12.8
328.731	-52.74
328.944	70.14
329.157	16.9
329.37	35.33
329.583	35.33
329.796	45.57
330.009	-32.26
330.222	47.62
330.435	31.23
330.648	39.42
330.861	4.61
331.073	2.56
331.286	-34.3
331.499	74.24
331.712	-15.87
331.925	12.8
332.138	2.56
332.35	55.81
332.563	-7.68
332.776	78.33
332.989	16.9
333.202	-65.02
333.414	-30.21
333.627	33.28
333.84	-28.16
334.053	72.19
334.265	57.86
334.478	-34.3
334.691	20.99
334.903	-5.63
335.116	-11.78
335.329	33.28
335.541	8.7
335.754	133.63
335.966	-48.64
336.179	45.57
336.392	66.05
336.604	37.38
336.817	27.14
337.029	33.28
337.242	2.56
337.454	29.18
337.667	6.66
337.88	33.28
338.092	39.42
338.305	2.56
338.517	-1.54
338.729	31.23
338.942	-38.4
339.154	39.42
339.367	10.75
339.579	66.05
339.792	51.71
340.004	-3.58
340.217	12.8
340.429	6.66
340.641	-65.02
340.854	-5.63
341.066	16.9
341.278	80.38
341.491	109.05
341.703	-40.45
341.915	-24.06
342.128	68.09
342.34	6.66
342.552	-34.3
342.764	16.9
342.977	78.33
343.189	78.33
343.401	25.09
343.613	-65.02
343.826	0.51
344.038	10.75
344.25	49.66
344.462	-7.68
344.674	8.7
344.886	0.51
345.099	80.38
345.311	27.14
345.523	86.53
345.735	12.8
345.947	27.14
346.159	-13.82
346.371	25.09
346.583	6.66
346.795	33.28
347.007	-15.87
347.219	61.95
347.431	14.85
347.643	64
347.855	72.19
348.067	94.72
348.279	-99.84
348.491	92.67
348.703	2.56
348.915	-15.87
349.127	-9.73
349.339	51.71
349.551	43.52
349.763	78.33
349.975	35.33
350.187	2.56
350.399	51.71
350.61	-13.82
350.822	23.04
351.034	82.43
351.246	47.62
351.458	61.95
351.669	27.14
351.881	10.75
352.093	117.25
352.305	14.85
352.517	8.7
352.728	70.14
352.94	4.61
353.152	23.04
353.363	31.23
353.575	86.53
353.787	23.04
353.999	78.33
354.21	-19.97
354.422	29.18
354.633	-11.78
354.845	10.75
355.057	23.04
355.268	-9.73
355.48	61.95
355.692	-5.63
355.903	45.57
356.115	-30.21
356.326	-48.64
356.538	82.43
356.749	59.9
356.961	35.33
357.172	-3.58
357.384	0.51
357.595	31.23
357.807	29.18
358.018	74.24
358.23	27.14
358.441	35.33
358.653	49.66
358.864	23.04
359.075	55.81
359.287	-11.78
359.498	-34.3
359.709	-19.97
359.921	84.48
360.132	-81.41
360.344	4.61
360.555	-19.97
360.766	33.28
360.977	-81.41
361.189	84.48
361.4	18.94
361.611	23.04
361.823	49.66
362.034	-1.54
362.245	49.66
362.456	16.9
362.667	51.71
362.879	-11.78
363.09	-7.68
363.301	-15.87
363.512	70.14
363.723	27.14
363.935	12.8
364.146	35.33
364.357	14.85
364.568	-3.58
364.779	51.71
364.99	53.76
365.201	-22.02
365.412	72.19
365.623	-24.06
365.834	64
366.045	4.61
366.256	23.04
366.467	20.99
366.678	14.85
366.889	-19.97
367.1	-5.63
367.311	33.28
367.522	4.61
367.733	4.61
367.944	10.75
368.155	27.14
368.366	78.33
368.577	20.99
368.788	117.25
368.999	-3.58
369.209	16.9
369.42	45.57
369.631	8.7
369.842	55.81
370.053	25.09
370.264	84.48
370.474	61.95
370.685	70.14
370.896	31.23
371.107	18.94
371.317	66.05
371.528	29.18
371.739	45.57
371.95	6.66
372.16	-15.87
372.371	-73.21
372.582	-38.4
372.792	66.05
373.003	51.71
373.214	-48.64
373.424	10.75
373.635	2.56
373.846	33.28
374.056	33.28
374.267	-1.54
374.477	-52.74
374.688	18.94
374.898	-7.68
375.109	-13.82
375.319	96.77
375.53	64
375.74	31.23
375.951	10.75
376.161	-26.11
376.372	18.94
376.582	-9.73
376.793	37.38
377.003	-56.83
377.214	-9.73
377.424	-5.63
377.635	-7.68
377.845	-42.5
378.055	29.18
378.266	2.56
378.476	80.38
378.686	-15.87
378.897	-26.11
379.107	35.33
379.317	8.7
379.528	61.95
379.738	125.44
379.948	45.57
380.158	53.76
380.369	33.28
380.579	59.9
380.789	-1.54
380.999	78.33
381.21	33.28
381.42	82.43
381.63	20.99
381.84	33.28
382.05	-9.73
382.261	78.33
382.471	64
382.681	-24.06
382.891	47.62
383.101	6.66
383.311	-67.07
383.521	-9.73
383.731	78.33
383.941	59.9
384.151	12.8
384.361	98.81
384.571	-3.58
384.781	14.85
384.991	72.19
385.201	45.57
385.411	16.9
385.621	-5.63
385.831	6.66
386.041	61.95
386.251	121.34
386.461	61.95
386.671	-24.06
386.881	88.57
387.091	86.53
387.301	-3.58
387.511	-36.35
387.72	-1.54
387.93	98.81
388.14	20.99
388.35	123.39
388.56	64
388.769	-58.88
388.979	90.62
389.189	-28.16
389.399	35.33
389.609	66.05
389.818	78.33
390.028	18.94
390.238	129.53
390.447	-1.54
390.657	64
390.867	39.42
391.076	45.57
391.286	100.86
391.496	98.81
391.705	23.04
391.915	72.19
392.125	76.29
392.334	14.85
392.544	74.24
392.753	49.66
392.963	39.42
393.172	55.81
393.382	20.99
393.591	-30.21
393.801	14.85
394.01	-19.97
394.22	-19.97
394.429	-13.82
394.639	14.85
394.848	59.9
395.058	82.43
395.267	6.66
395.477	41.47
395.686	82.43
395.895	33.28
396.105	131.58
396.314	25.09
396.524	31.23
396.733	12.8
396.942	-13.82
397.152	76.29
397.361	84.48
397.57	78.33
397.78	47.62
397.989	66.05
398.198	98.81
398.407	78.33
398.617	20.99
398.826	64
399.035	78.33
399.244	78.33
399.453	96.77
399.663	127.49
399.872	33.28
400.081	64
400.29	53.76
400.499	102.91
400.708	68.09
400.917	29.18
401.127	37.38
401.336	2.56
401.545	61.95
401.754	98.81
401.963	139.77
402.172	197.12
402.381	23.04
402.59	78.33
402.799	76.29
403.008	61.95
403.217	100.86
403.426	37.38
403.635	100.86
403.844	90.62
404.053	98.81
404.262	-11.78
404.471	152.06
404.68	96.77
404.888	84.48
405.097	121.34
405.306	45.57
405.515	162.3
405.724	168.45
405.933	100.86
406.142	47.62
406.35	80.38
406.559	129.53
406.768	123.39
406.977	236.03
407.185	123.39
407.394	135.68
407.603	125.44
407.812	98.81
408.02	176.64
408.229	137.73
408.438	162.3
408.646	133.63
408.855	127.49
409.064	203.26
409.272	117.25
409.481	141.82
409.69	158.21
409.898	205.31
410.107	221.69
410.315	186.88
410.524	115.2
410.733	225.79
410.941	217.6
411.15	279.04
411.358	215.55
411.567	211.45
411.775	236.03
411.984	193.02
412.192	264.7
412.401	221.69
412.609	217.6
412.818	246.27
413.026	270.84
413.234	330.23
413.443	375.29
413.651	305.66
413.86	254.46
414.068	406.01
414.276	328.19
414.485	356.86
414.693	338.43
414.901	344.57
415.11	354.81
415.318	432.63
415.526	432.63
415.734	481.78
415.943	408.06
416.151	483.83
416.359	414.2
416.567	485.88
416.776	446.97
416.984	506.36
417.192	518.65
417.4	526.84
417.608	530.94
417.817	596.47
418.025	590.33
418.233	606.71
418.441	653.81
418.649	649.72
418.857	682.49
419.065	680.44
419.273	662.01
419.481	700.92
419.689	885.23
419.897	795.12
420.105	840.18
420.313	766.45
420.521	997.87
420.729	905.71
420.937	938.48
421.145	920.05
421.353	1006.06
421.561	1038.83
421.769	1184.24
421.977	1110.51
422.185	1165.81
422.393	1139.18
422.601	1262.06
422.809	1296.88
423.017	1245.68
423.224	1313.26
423.432	1346.03
423.64	1417.71
423.848	1473
424.056	1479.15
424.263	1618.41
424.471	1614.31
424.679	1659.37
424.887	1677.8
425.094	1790.44
425.302	1722.85
425.51	1851.88
425.718	1827.3
425.925	1941.99
426.133	1917.41
426.341	2071.01
426.548	2136.54
426.756	2105.82
426.964	2144.74
427.171	2306.52
427.379	2384.35
427.586	2413.02
427.794	2546.14
428.001	2568.66
428.209	2619.86
428.417	2494.94
428.624	2957.78
428.832	2879.96
429.039	2849.24
429.247	2912.72
429.454	3158.48
429.662	3299.79
429.869	3031.51
430.076	3322.32
430.284	3181.01
430.491	3172.82
430.699	3570.12
430.906	3553.74
431.114	3686.86
431.321	3795.4
431.528	3842.5
431.736	4035.01
431.943	4100.55
432.15	4082.11
432.358	4149.7
432.565	4286.91
432.772	4415.93
432.979	4561.34
433.187	4671.93
433.394	4700.6
433.601	5018.04
433.808	4954.55
434.016	4921.78
434.223	5118.39
434.43	5491.12
434.637	5409.2
434.844	5874.09
435.052	5716.39
435.259	5857.7
435.466	5882.28
435.673	5767.59
435.88	6277.54
436.087	6574.49
436.294	6406.56
436.501	6255.01
436.708	6330.78
436.915	6721.95
437.122	6984.09
437.329	6982.04
437.537	7129.49
437.743	7109.01
437.95	7139.73
438.157	7704.97
438.364	7936.39
438.571	7741.83
438.778	7698.83
438.985	8702.33
439.192	8253.83
439.399	8546.69
439.606	8280.45
439.813	8798.59
440.02	9386.35
440.227	9275.76
440.433	9128.31
440.64	9318.77
440.847	9345.39
441.054	9427.31
441.261	10053.99
441.467	10318.18
441.674	10217.83
441.881	10568.03
442.088	10482.02
442.294	10455.39
442.501	10746.2
442.708	10844.51
442.914	11243.86
443.121	11946.31
443.328	11475.28
443.534	12271.94
443.741	11991.37
443.948	11790.67
444.154	12673.34
444.361	12611.9
444.568	12558.66
444.774	12720.45
444.981	12865.85
445.187	13316.4
445.394	13742.38
445.6	13545.78
445.807	15159.58
446.013	14201.13
446.22	14553.38
446.426	14872.86
446.633	15112.47
446.839	15800.59
447.046	15309.08
447.252	15714.58
447.459	15929.61
447.665	15726.86
447.871	16574.72
448.078	16969.98
448.284	16294.15
448.491	16703.75
448.697	17490.17
448.903	17991.92
449.11	17975.53
449.316	17508.6
449.522	17668.34
449.728	18528.49
449.935	18479.33
450.141	18583.78
450.347	19136.73
450.553	18104.56
450.76	18489.57
450.966	19048.67
451.172	19003.61
451.378	19151.07
451.584	18809.06
451.791	19398.87
451.997	19364.06
452.203	19558.61
452.409	19339.48
452.615	19417.3
452.821	18612.45
453.027	18569.44
453.233	19577.05
453.44	18876.64
453.646	19085.53
453.852	19036.38
454.058	19599.57
454.264	18540.77
454.47	18927.84
454.676	18753.76
454.882	19325.15
455.088	17547.51
455.294	17910
455.5	18157.8
455.705	18333.93
455.911	17645.81
456.117	17361.14
456.323	17070.33
456.529	16089.35
456.735	16828.67
456.941	16431.37
457.147	16021.77
457.352	15622.42
457.558	15300.89
457.764	15278.36
457.97	15116.57
458.176	14580
458.381	14711.07
458.587	13922.6
458.793	14055.72
458.999	13359.41
459.204	14446.88
459.41	13730.09
459.616	13007.16
459.821	12771.65
460.027	12908.86
460.233	12544.32
460.438	12071.24
460.644	11985.23
460.85	11632.97
461.055	11413.84
461.261	11381.07
461.466	10529.12
461.672	10041.7
461.878	10789.21
462.083	10051.94
462.289	10060.13
462.494	9879.91
462.7	9314.67
462.905	9406.83
463.111	9478.51
463.316	9562.48
463.522	9269.62
463.727	9296.24
463.932	9404.78
464.138	9384.3
464.343	9152.88
464.549	9097.59
464.754	9208.18
464.959	9212.28
465.165	9171.32
465.37	8876.41
465.575	8526.21
465.781	8763.77
465.986	9128.31
466.191	8667.52
466.397	8450.43
466.602	7885.19
466.807	8380.8
467.012	8460.67
467.218	8262.02
467.423	8245.63
467.628	8118.66
467.833	8706.43
468.038	8354.18
468.244	8083.84
468.449	8296.83
468.654	8059.27
468.859	8044.93
469.064	8067.46
