Data from USB4F104151__80__11-06-26-103.txt Node

Date: Wed Mar 12 11:06:26 EDT 2025
User: louis
Spectrometer: USB4F10415
Trigger mode: 4
Integration Time (sec): 2.000000E-2
Scans to average: 1
Electric dark correction enabled: true
Nonlinearity correction enabled: false
Boxcar width: 0
XAxis mode: Wavelengths
Number of Pixels in Spectrum: 3648
>>>>>Begin Spectral Data<<<<<
178.204	-38.4
178.424	-38.4
178.644	-38.4
178.864	-60.93
179.084	-11.78
179.304	0.51
179.524	18.94
179.744	20.99
179.964	33.28
180.184	-48.64
180.404	2.56
180.624	-11.78
180.844	-52.74
181.064	-22.02
181.283	25.09
181.503	-5.63
181.723	39.42
181.943	25.09
182.163	133.63
182.383	29.18
182.602	80.38
182.822	8.7
183.042	100.86
183.262	14.85
183.482	49.66
183.701	0.51
183.921	18.94
184.141	-13.82
184.361	33.28
184.58	-3.58
184.8	33.28
185.02	41.47
185.239	-24.06
185.459	-3.58
185.679	29.18
185.898	-56.83
186.118	82.43
186.338	-11.78
186.557	10.75
186.777	12.8
186.997	25.09
187.216	72.19
187.436	49.66
187.655	78.33
187.875	12.8
188.095	76.29
188.314	115.2
188.534	84.48
188.753	-22.02
188.973	43.52
189.192	10.75
189.412	66.05
189.631	53.76
189.851	51.71
190.07	90.62
190.29	59.9
190.509	16.9
190.729	57.86
190.948	74.24
191.168	74.24
191.387	51.71
191.607	27.14
191.826	88.57
192.045	8.7
192.265	70.14
192.484	39.42
192.704	61.95
192.923	23.04
193.142	49.66
193.362	74.24
193.581	80.38
193.8	-89.6
194.02	147.97
194.239	57.86
194.458	49.66
194.678	-7.68
194.897	-17.92
195.116	66.05
195.335	-34.3
195.555	25.09
195.774	66.05
195.993	68.09
196.212	31.23
196.432	0.51
196.651	25.09
196.87	78.33
197.089	41.47
197.308	70.14
197.528	64
197.747	4.61
197.966	25.09
198.185	41.47
198.404	39.42
198.623	78.33
198.842	104.96
199.062	123.39
199.281	96.77
199.5	45.57
199.719	66.05
199.938	31.23
200.157	31.23
200.376	92.67
200.595	53.76
200.814	45.57
201.033	78.33
201.252	72.19
201.471	61.95
201.69	47.62
201.909	72.19
202.128	78.33
202.347	45.57
202.566	61.95
202.785	80.38
203.004	29.18
203.223	70.14
203.442	84.48
203.661	72.19
203.879	20.99
204.098	100.86
204.317	35.33
204.536	33.28
204.755	78.33
204.974	-38.4
205.193	72.19
205.411	100.86
205.63	25.09
205.849	64
206.068	98.81
206.287	90.62
206.505	-3.58
206.724	-3.58
206.943	84.48
207.162	51.71
207.381	43.52
207.599	-1.54
207.818	20.99
208.037	49.66
208.255	31.23
208.474	61.95
208.693	59.9
208.911	4.61
209.13	12.8
209.349	12.8
209.567	-5.63
209.786	113.15
210.005	109.05
210.223	111.1
210.442	-15.87
210.661	70.14
210.879	-15.87
211.098	2.56
211.316	39.42
211.535	135.68
211.753	45.57
211.972	51.71
212.191	49.66
212.409	102.91
212.628	72.19
212.846	-11.78
213.065	12.8
213.283	35.33
213.502	53.76
213.72	53.76
213.938	57.86
214.157	31.23
214.375	86.53
214.594	18.94
214.812	2.56
215.031	39.42
215.249	8.7
215.467	102.91
215.686	33.28
215.904	88.57
216.122	27.14
216.341	70.14
216.559	53.76
216.778	23.04
216.996	78.33
217.214	-24.06
217.432	4.61
217.651	-15.87
217.869	27.14
218.087	39.42
218.306	57.86
218.524	64
218.742	27.14
218.96	-13.82
219.179	6.66
219.397	70.14
219.615	57.86
219.833	35.33
220.051	-15.87
220.27	88.57
220.488	59.9
220.706	100.86
220.924	70.14
221.142	119.29
221.36	45.57
221.578	72.19
221.796	29.18
222.015	-1.54
222.233	88.57
222.451	55.81
222.669	86.53
222.887	61.95
223.105	53.76
223.323	27.14
223.541	33.28
223.759	8.7
223.977	-11.78
224.195	66.05
224.413	82.43
224.631	29.18
224.849	-3.58
225.067	45.57
225.285	47.62
225.503	41.47
225.721	29.18
225.939	78.33
226.157	-5.63
226.375	31.23
226.592	18.94
226.81	16.9
227.028	14.85
227.246	107.01
227.464	-7.68
227.682	20.99
227.9	64
228.117	72.19
228.335	47.62
228.553	45.57
228.771	20.99
228.989	76.29
229.206	35.33
229.424	4.61
229.642	68.09
229.86	41.47
230.077	37.38
230.295	39.42
230.513	49.66
230.731	-26.11
230.948	41.47
231.166	121.34
231.384	39.42
231.601	100.86
231.819	41.47
232.037	43.52
232.254	14.85
232.472	61.95
232.689	-30.21
232.907	53.76
233.125	53.76
233.342	64
233.56	-3.58
233.777	16.9
233.995	61.95
234.213	74.24
234.43	23.04
234.648	59.9
234.865	61.95
235.083	16.9
235.3	20.99
235.518	47.62
235.735	25.09
235.953	74.24
236.17	39.42
236.388	20.99
236.605	41.47
236.822	47.62
237.04	109.05
237.257	141.82
237.475	51.71
237.692	35.33
237.909	66.05
238.127	2.56
238.344	25.09
238.562	51.71
238.779	45.57
238.996	6.66
239.214	41.47
239.431	78.33
239.648	-34.3
239.865	39.42
240.083	57.86
240.3	72.19
240.517	27.14
240.735	66.05
240.952	37.38
241.169	84.48
241.386	74.24
241.603	66.05
241.821	-13.82
242.038	74.24
242.255	92.67
242.472	-15.87
242.689	51.71
242.907	14.85
243.124	111.1
243.341	70.14
243.558	29.18
243.775	94.72
243.992	-19.97
244.209	74.24
244.426	51.71
244.643	59.9
244.86	49.66
245.078	121.34
245.295	68.09
245.512	31.23
245.729	49.66
245.946	68.09
246.163	23.04
246.38	23.04
246.597	80.38
246.814	-17.92
247.031	23.04
247.248	94.72
247.464	25.09
247.681	14.85
247.898	61.95
248.115	72.19
248.332	78.33
248.549	-9.73
248.766	59.9
248.983	68.09
249.2	20.99
249.417	104.96
249.633	82.43
249.85	86.53
250.067	33.28
250.284	18.94
250.501	37.38
250.717	86.53
250.934	16.9
251.151	25.09
251.368	-1.54
251.585	-26.11
251.801	70.14
252.018	-9.73
252.235	76.29
252.451	94.72
252.668	23.04
252.885	41.47
253.102	-3.58
253.318	129.53
253.535	55.81
253.752	-24.06
253.968	117.25
254.185	98.81
254.401	29.18
254.618	-11.78
254.835	33.28
255.051	59.9
255.268	78.33
255.484	61.95
255.701	64
255.917	61.95
256.134	35.33
256.351	0.51
256.567	76.29
256.784	100.86
257	59.9
257.217	94.72
257.433	53.76
257.65	35.33
257.866	123.39
258.082	64
258.299	39.42
258.515	68.09
258.732	16.9
258.948	20.99
259.165	-11.78
259.381	82.43
259.597	8.7
259.814	102.91
260.03	61.95
260.246	43.52
260.463	107.01
260.679	35.33
260.895	59.9
261.112	72.19
261.328	-7.68
261.544	20.99
261.761	125.44
261.977	37.38
262.193	-5.63
262.409	76.29
262.626	147.97
262.842	113.15
263.058	37.38
263.274	35.33
263.49	35.33
263.707	70.14
263.923	29.18
264.139	55.81
264.355	20.99
264.571	82.43
264.787	31.23
265.004	111.1
265.22	16.9
265.436	41.47
265.652	2.56
265.868	70.14
266.084	117.25
266.3	27.14
266.516	39.42
266.732	107.01
266.948	16.9
267.164	115.2
267.38	59.9
267.596	90.62
267.812	100.86
268.028	94.72
268.244	78.33
268.46	76.29
268.676	-5.63
268.892	49.66
269.108	25.09
269.324	20.99
269.54	-48.64
269.756	31.23
269.972	-26.11
270.188	23.04
270.403	66.05
270.619	70.14
270.835	49.66
271.051	33.28
271.267	18.94
271.483	2.56
271.698	37.38
271.914	41.47
272.13	78.33
272.346	76.29
272.562	92.67
272.777	94.72
272.993	59.9
273.209	-11.78
273.425	29.18
273.64	6.66
273.856	100.86
274.072	143.87
274.287	41.47
274.503	51.71
274.719	-3.58
274.934	16.9
275.15	16.9
275.366	51.71
275.581	43.52
275.797	61.95
276.012	18.94
276.228	57.86
276.444	61.95
276.659	111.1
276.875	96.77
277.09	70.14
277.306	107.01
277.521	84.48
277.737	84.48
277.952	76.29
278.168	31.23
278.383	68.09
278.599	59.9
278.814	139.77
279.03	37.38
279.245	139.77
279.461	92.67
279.676	104.96
279.892	27.14
280.107	82.43
280.322	25.09
280.538	35.33
280.753	92.67
280.969	16.9
281.184	45.57
281.399	127.49
281.615	47.62
281.83	84.48
282.045	115.2
282.26	57.86
282.476	-32.26
282.691	104.96
282.906	82.43
283.122	80.38
283.337	39.42
283.552	-11.78
283.767	92.67
283.983	29.18
284.198	47.62
284.413	104.96
284.628	-38.4
284.843	82.43
285.058	39.42
285.274	-9.73
285.489	33.28
285.704	55.81
285.919	29.18
286.134	53.76
286.349	-38.4
286.564	-48.64
286.779	90.62
286.995	107.01
287.21	-13.82
287.425	82.43
287.64	102.91
287.855	131.58
288.07	-9.73
288.285	70.14
288.5	23.04
288.715	94.72
288.93	-7.68
289.145	104.96
289.36	14.85
289.575	35.33
289.79	55.81
290.004	0.51
290.219	109.05
290.434	37.38
290.649	2.56
290.864	-24.06
291.079	-26.11
291.294	70.14
291.509	111.1
291.724	37.38
291.938	82.43
292.153	109.05
292.368	104.96
292.583	61.95
292.798	37.38
293.012	104.96
293.227	53.76
293.442	92.67
293.657	70.14
293.871	64
294.086	84.48
294.301	-22.02
294.516	49.66
294.73	86.53
294.945	88.57
295.16	33.28
295.374	109.05
295.589	4.61
295.804	47.62
296.018	61.95
296.233	82.43
296.447	82.43
296.662	80.38
296.877	2.56
297.091	64
297.306	74.24
297.52	14.85
297.735	100.86
297.949	76.29
298.164	80.38
298.378	74.24
298.593	12.8
298.807	43.52
299.022	104.96
299.236	8.7
299.451	104.96
299.665	33.28
299.88	51.71
300.094	66.05
300.309	20.99
300.523	41.47
300.737	45.57
300.952	61.95
301.166	135.68
301.381	55.81
301.595	113.15
301.809	115.2
302.024	64
302.238	51.71
302.452	86.53
302.667	8.7
302.881	72.19
303.095	27.14
303.309	109.05
303.524	100.86
303.738	70.14
303.952	-11.78
304.166	115.2
304.381	-11.78
304.595	72.19
304.809	8.7
305.023	35.33
305.237	18.94
305.452	74.24
305.666	107.01
305.88	90.62
306.094	92.67
306.308	86.53
306.522	131.58
306.736	76.29
306.95	55.81
307.164	33.28
307.379	-13.82
307.593	98.81
307.807	98.81
308.021	84.48
308.235	80.38
308.449	-28.16
308.663	4.61
308.877	47.62
309.091	119.29
309.305	98.81
309.519	-3.58
309.733	145.92
309.947	-7.68
310.161	111.1
310.374	88.57
310.588	80.38
310.802	78.33
311.016	29.18
311.23	55.81
311.444	70.14
311.658	23.04
311.872	86.53
312.085	4.61
312.299	119.29
312.513	84.48
312.727	82.43
312.941	37.38
313.154	61.95
313.368	0.51
313.582	76.29
313.796	94.72
314.009	92.67
314.223	57.86
314.437	109.05
314.651	47.62
314.864	29.18
315.078	43.52
315.292	4.61
315.505	57.86
315.719	35.33
315.933	76.29
316.146	59.9
316.36	86.53
316.573	25.09
316.787	86.53
317.001	92.67
317.214	10.75
317.428	102.91
317.641	27.14
317.855	53.76
318.068	49.66
318.282	92.67
318.495	59.9
318.709	-46.59
318.922	96.77
319.136	59.9
319.349	115.2
319.563	86.53
319.776	86.53
319.99	31.23
320.203	131.58
320.417	78.33
320.63	35.33
320.843	68.09
321.057	88.57
321.27	25.09
321.483	31.23
321.697	98.81
321.91	45.57
322.124	72.19
322.337	31.23
322.55	49.66
322.763	64
322.977	53.76
323.19	33.28
323.403	23.04
323.617	119.29
323.83	72.19
324.043	76.29
324.256	70.14
324.469	55.81
324.683	70.14
324.896	80.38
325.109	25.09
325.322	20.99
325.535	45.57
325.748	90.62
325.962	57.86
326.175	59.9
326.388	-1.54
326.601	59.9
326.814	16.9
327.027	35.33
327.24	70.14
327.453	20.99
327.666	82.43
327.879	8.7
328.092	84.48
328.305	137.73
328.518	29.18
328.731	12.8
328.944	31.23
329.157	2.56
329.37	0.51
329.583	37.38
329.796	123.39
330.009	0.51
330.222	72.19
330.435	10.75
330.648	94.72
330.861	82.43
331.073	80.38
331.286	55.81
331.499	29.18
331.712	47.62
331.925	37.38
332.138	16.9
332.35	43.52
332.563	0.51
332.776	68.09
332.989	4.61
333.202	45.57
333.414	41.47
333.627	82.43
333.84	29.18
334.053	86.53
334.265	74.24
334.478	25.09
334.691	86.53
334.903	39.42
335.116	39.42
335.329	59.9
335.541	80.38
335.754	109.05
335.966	160.25
336.179	41.47
336.392	90.62
336.604	31.23
336.817	47.62
337.029	115.2
337.242	59.9
337.454	49.66
337.667	20.99
337.88	90.62
338.092	90.62
338.305	125.44
338.517	14.85
338.729	18.94
338.942	135.68
339.154	33.28
339.367	61.95
339.579	51.71
339.792	39.42
340.004	47.62
340.217	31.23
340.429	51.71
340.641	2.56
340.854	-3.58
341.066	20.99
341.278	80.38
341.491	39.42
341.703	84.48
341.915	6.66
342.128	107.01
342.34	66.05
342.552	55.81
342.764	51.71
342.977	88.57
343.189	72.19
343.401	82.43
343.613	-1.54
343.826	90.62
344.038	64
344.25	59.9
344.462	76.29
344.674	25.09
344.886	43.52
345.099	2.56
345.311	109.05
345.523	100.86
345.735	29.18
345.947	72.19
346.159	61.95
346.371	68.09
346.583	76.29
346.795	96.77
347.007	-3.58
347.219	45.57
347.431	33.28
347.643	74.24
347.855	0.51
348.067	51.71
348.279	41.47
348.491	53.76
348.703	12.8
348.915	41.47
349.127	109.05
349.339	74.24
349.551	74.24
349.763	35.33
349.975	57.86
350.187	61.95
350.399	107.01
350.61	64
350.822	35.33
351.034	84.48
351.246	64
351.458	33.28
351.669	29.18
351.881	41.47
352.093	76.29
352.305	104.96
352.517	20.99
352.728	100.86
352.94	35.33
353.152	51.71
353.363	-11.78
353.575	31.23
353.787	78.33
353.999	115.2
354.21	53.76
354.422	55.81
354.633	25.09
354.845	92.67
355.057	100.86
355.268	88.57
355.48	47.62
355.692	33.28
355.903	55.81
356.115	68.09
356.326	104.96
356.538	115.2
356.749	29.18
356.961	100.86
357.172	111.1
357.384	88.57
357.595	86.53
357.807	104.96
358.018	-24.06
358.23	80.38
358.441	90.62
358.653	14.85
358.864	2.56
359.075	55.81
359.287	35.33
359.498	43.52
359.709	104.96
359.921	147.97
360.132	76.29
360.344	125.44
360.555	96.77
360.766	20.99
360.977	-3.58
361.189	127.49
361.4	121.34
361.611	61.95
361.823	92.67
362.034	57.86
362.245	47.62
362.456	41.47
362.667	61.95
362.879	147.97
363.09	66.05
363.301	100.86
363.512	92.67
363.723	49.66
363.935	43.52
364.146	61.95
364.357	104.96
364.568	98.81
364.779	35.33
364.99	68.09
365.201	6.66
365.412	127.49
365.623	76.29
365.834	127.49
366.045	154.11
366.256	109.05
366.467	27.14
366.678	90.62
366.889	55.81
367.1	47.62
367.311	70.14
367.522	74.24
367.733	68.09
367.944	113.15
368.155	98.81
368.366	51.71
368.577	102.91
368.788	123.39
368.999	66.05
369.209	64
369.42	94.72
369.631	10.75
369.842	109.05
370.053	55.81
370.264	139.77
370.474	-5.63
370.685	96.77
370.896	39.42
371.107	37.38
371.317	84.48
371.528	123.39
371.739	88.57
371.95	12.8
372.16	135.68
372.371	92.67
372.582	68.09
372.792	92.67
373.003	-42.5
373.214	57.86
373.424	107.01
373.635	80.38
373.846	39.42
374.056	107.01
374.267	80.38
374.477	29.18
374.688	182.78
374.898	14.85
375.109	57.86
375.319	39.42
375.53	45.57
375.74	125.44
375.951	100.86
376.161	98.81
376.372	90.62
376.582	129.53
376.793	119.29
377.003	51.71
377.214	111.1
377.424	68.09
377.635	-48.64
377.845	55.81
378.055	96.77
378.266	43.52
378.476	43.52
378.686	74.24
378.897	-3.58
379.107	127.49
379.317	131.58
379.528	61.95
379.738	53.76
379.948	53.76
380.158	162.3
380.369	102.91
380.579	86.53
380.789	78.33
380.999	113.15
381.21	141.82
381.42	47.62
381.63	64
381.84	170.49
382.05	147.97
382.261	72.19
382.471	8.7
382.681	113.15
382.891	39.42
383.101	113.15
383.311	111.1
383.521	88.57
383.731	57.86
383.941	37.38
384.151	16.9
384.361	160.25
384.571	41.47
384.781	102.91
384.991	94.72
385.201	94.72
385.411	66.05
385.621	49.66
385.831	45.57
386.041	59.9
386.251	98.81
386.461	78.33
386.671	23.04
386.881	102.91
387.091	27.14
387.301	127.49
387.511	37.38
387.72	121.34
387.93	90.62
388.14	102.91
388.35	18.94
388.56	168.45
388.769	94.72
388.979	145.92
389.189	47.62
389.399	119.29
389.609	109.05
389.818	174.59
390.028	129.53
390.238	127.49
390.447	18.94
390.657	125.44
390.867	137.73
391.076	102.91
391.286	143.87
391.496	154.11
391.705	68.09
391.915	162.3
392.125	59.9
392.334	74.24
392.544	127.49
392.753	80.38
392.963	57.86
393.172	88.57
393.382	125.44
393.591	74.24
393.801	84.48
394.01	135.68
394.22	135.68
394.429	131.58
394.639	59.9
394.848	74.24
395.058	131.58
395.267	158.21
395.477	127.49
395.686	102.91
395.895	139.77
396.105	217.6
396.314	107.01
396.524	76.29
396.733	166.4
396.942	80.38
397.152	150.01
397.361	107.01
397.57	193.02
397.78	156.16
397.989	104.96
398.198	98.81
398.407	104.96
398.617	135.68
398.826	168.45
399.035	160.25
399.244	127.49
399.453	76.29
399.663	76.29
399.872	225.79
400.081	100.86
400.29	180.73
400.499	86.53
400.708	174.59
400.917	205.31
401.127	107.01
401.336	121.34
401.545	156.16
401.754	262.65
401.963	221.69
402.172	172.54
402.381	113.15
402.59	154.11
402.799	152.06
403.008	156.16
403.217	180.73
403.426	225.79
403.635	225.79
403.844	137.73
404.053	209.4
404.262	158.21
404.471	190.97
404.68	141.82
404.888	174.59
405.097	199.16
405.306	209.4
405.515	172.54
405.724	182.78
405.933	244.22
406.142	190.97
406.35	207.36
406.559	182.78
406.768	166.4
406.977	172.54
407.185	283.13
407.394	256.51
407.603	262.65
407.812	176.64
408.02	281.08
408.229	242.17
408.438	178.69
408.646	219.64
408.855	313.85
409.064	291.32
409.272	317.95
409.481	270.84
409.69	358.91
409.898	328.19
410.107	328.19
410.315	264.7
410.524	385.53
410.733	311.8
410.941	305.66
411.15	408.06
411.358	434.68
411.567	422.39
411.775	410.11
411.984	436.73
412.192	446.97
412.401	397.82
412.609	446.97
412.818	520.7
413.026	481.78
413.234	553.46
413.443	485.88
413.651	549.37
413.86	543.22
414.068	662.01
414.276	713.21
414.485	604.66
414.693	719.35
414.901	664.05
415.11	670.2
415.318	823.8
415.526	811.51
415.734	776.69
415.943	797.17
416.151	809.46
416.359	782.84
416.567	887.28
416.776	969.2
416.984	934.39
417.192	1008.11
417.4	1020.4
417.608	993.78
417.817	1182.19
418.025	1016.3
418.233	1296.88
418.441	1180.14
418.649	1284.59
418.857	1384.94
419.065	1309.16
419.273	1305.07
419.481	1298.92
419.689	1567.21
419.897	1524.2
420.105	1624.55
420.313	1563.11
420.521	1663.46
420.729	1700.33
420.937	1761.77
421.145	1886.69
421.353	1919.46
421.561	1982.95
421.769	2097.63
421.977	2169.31
422.185	2109.92
422.393	2232.8
422.601	2490.84
422.809	2408.92
423.017	2290.14
423.224	2460.12
423.432	2587.1
423.64	2671.06
423.848	2783.7
424.056	2859.48
424.263	2972.11
424.471	3060.18
424.679	2908.63
424.887	3203.54
425.094	3371.47
425.302	3256.78
425.51	3586.51
425.718	3551.69
425.925	3715.53
426.133	3867.08
426.341	4053.44
426.548	4166.08
426.756	4166.08
426.964	3981.76
427.171	4448.7
427.379	4628.92
427.586	4587.96
427.794	4759.99
428.001	4895.16
428.209	5122.48
428.417	5040.56
428.624	5331.37
428.832	5423.53
429.039	5310.89
429.247	5327.28
429.454	5841.32
429.662	6283.68
429.869	5970.34
430.076	6336.93
430.284	6072.74
430.491	6482.33
430.699	6730.14
430.906	6775.19
431.114	7076.24
431.321	7356.82
431.528	7199.12
431.736	7913.86
431.943	8110.47
432.15	7995.78
432.358	8092.04
432.565	8464.77
432.772	8362.37
432.979	8888.7
433.187	8974.71
433.394	9021.81
433.601	9537.9
433.808	9822.57
434.016	9576.81
434.223	10101.09
434.43	10426.72
434.637	10385.76
434.844	10821.98
435.052	11211.09
435.259	11059.54
435.466	11276.63
435.673	11276.63
435.88	12147.01
436.087	12595.52
436.294	12663.1
436.501	12276.04
436.708	12355.91
436.915	12945.72
437.122	13637.94
437.329	13488.43
437.537	13793.58
437.743	14205.22
437.95	14002.47
438.157	14733.6
438.364	15458.58
438.571	15321.37
438.778	15638.8
438.985	16851.2
439.192	16247.05
439.399	16521.48
439.606	16187.66
439.813	17191.16
440.02	18309.35
440.227	17953.01
440.433	17594.61
440.64	18403.56
440.847	17983.73
441.054	18594.02
441.261	20168.91
441.467	19710.16
441.674	20304.07
441.881	20721.86
442.088	20625.61
442.294	20576.45
442.501	21362.87
442.708	21846.19
442.914	22587.56
443.121	23543.96
443.328	22950.05
443.534	24688.78
443.741	23857.3
443.948	23183.52
444.154	25301.12
444.361	25030.79
444.568	25362.56
444.774	25313.41
444.981	25307.26
445.187	26151.02
445.394	27342.94
445.6	26800.23
445.807	29702.2
446.013	28432.46
446.22	28614.73
446.426	30111.8
446.633	30457.9
446.839	30775.34
447.046	29896.76
447.252	31479.84
447.459	31299.62
447.665	31541.28
447.871	32868.36
448.078	33974.27
448.284	32688.14
448.491	33488.9
448.697	34689.01
448.903	35282.92
449.11	35393.51
449.316	34738.16
449.522	35534.82
449.728	36067.29
449.935	36388.82
450.141	36155.35
450.347	37318.6
450.553	36341.72
450.76	36536.27
450.966	37887.93
451.172	37126.09
451.378	37961.66
451.584	37394.37
451.791	38451.13
451.997	38176.7
452.203	38836.14
452.409	38823.86
452.615	38719.41
452.821	37058.51
453.027	36777.93
453.233	38821.81
453.44	36794.32
453.646	37513.16
453.852	37615.55
454.058	38430.65
454.264	37009.36
454.47	37765.06
454.676	36716.5
454.882	38082.49
455.088	34838.51
455.294	35504.1
455.5	35444.71
455.705	36323.29
455.911	34736.11
456.117	33726.46
456.323	33564.67
456.529	31590.43
456.735	33247.24
456.941	32501.78
457.147	31715.36
457.352	30918.7
457.558	30484.53
457.764	30488.62
457.97	29859.9
458.176	29403.2
458.381	29048.9
458.587	27506.78
458.793	27476.06
458.999	26181.74
459.204	28239.95
459.41	27433.05
459.616	25698.42
459.821	25591.93
460.027	25362.56
460.233	24758.41
460.438	23918.74
460.644	24213.65
460.85	22956.19
461.055	22950.05
461.261	22534.31
461.466	20986.05
461.672	20488.39
461.878	21883.06
462.083	20261.07
462.289	19744.98
462.494	19804.37
462.7	18917.6
462.905	18405.61
463.111	19353.82
463.316	19286.23
463.522	18839.78
463.727	18796.77
463.932	18503.91
464.138	18637.03
464.343	18637.03
464.549	17981.68
464.754	18610.4
464.959	18559.2
465.165	18493.67
465.37	17383.67
465.575	17314.04
465.781	17912.05
465.986	18131.18
466.191	17148.15
466.397	16863.49
466.602	16019.72
466.807	16650.5
467.012	16943.36
467.218	16941.31
