Data from USB4F104151__220__11-10-46-914.txt Node

Date: Wed Mar 12 11:10:46 EDT 2025
User: louis
Spectrometer: USB4F10415
Trigger mode: 4
Integration Time (sec): 2.000000E-2
Scans to average: 1
Electric dark correction enabled: true
Nonlinearity correction enabled: false
Boxcar width: 0
XAxis mode: Wavelengths
Number of Pixels in Spectrum: 3648
>>>>>Begin Spectral Data<<<<<
178.204	-71.68
178.424	-71.68
178.644	-71.68
178.864	-75.77
179.084	-75.77
179.304	-47.1
179.524	-24.58
179.744	-26.62
179.964	-6.14
180.184	45.06
180.404	-24.58
180.624	45.06
180.844	30.72
181.064	-34.82
181.283	67.58
181.503	0
181.723	-24.58
181.943	-28.67
182.163	100.35
182.383	-63.49
182.602	36.86
182.822	6.14
183.042	-8.19
183.262	22.53
183.482	49.15
183.701	47.1
183.921	47.1
184.141	43.01
184.361	-16.38
184.58	20.48
184.8	24.58
185.02	0
185.239	-10.24
185.459	67.58
185.679	83.97
185.898	4.1
186.118	59.39
186.338	6.14
186.557	65.54
186.777	-30.72
186.997	20.48
187.216	49.15
187.436	104.45
187.655	38.91
187.875	77.82
188.095	28.67
188.314	16.38
188.534	45.06
188.753	77.82
188.973	12.29
189.192	90.11
189.412	20.48
189.631	71.68
189.851	51.2
190.07	69.63
190.29	-6.14
190.509	-61.44
190.729	26.62
190.948	73.73
191.168	122.88
191.387	55.3
191.607	-4.1
191.826	67.58
192.045	40.96
192.265	-4.1
192.484	4.1
192.704	-12.29
192.923	104.45
193.142	114.69
193.362	59.39
193.581	51.2
193.8	-22.53
194.02	131.07
194.239	-8.19
194.458	90.11
194.678	18.43
194.897	69.63
195.116	69.63
195.335	55.3
195.555	32.77
195.774	6.14
195.993	53.25
196.212	-18.43
196.432	6.14
196.651	47.1
196.87	53.25
197.089	32.77
197.308	59.39
197.528	36.86
197.747	86.01
197.966	36.86
198.185	16.38
198.404	26.62
198.623	57.34
198.842	34.82
199.062	14.34
199.281	32.77
199.5	57.34
199.719	-14.34
199.938	55.3
200.157	53.25
200.376	-45.06
200.595	65.54
200.814	61.44
201.033	47.1
201.252	10.24
201.471	57.34
201.69	32.77
201.909	59.39
202.128	36.86
202.347	6.14
202.566	57.34
202.785	45.06
203.004	26.62
203.223	86.01
203.442	-24.58
203.661	14.34
203.879	-10.24
204.098	69.63
204.317	40.96
204.536	77.82
204.755	28.67
204.974	40.96
205.193	20.48
205.411	94.21
205.63	102.4
205.849	-26.62
206.068	110.59
206.287	94.21
206.505	-2.05
206.724	38.91
206.943	28.67
207.162	22.53
207.381	-24.58
207.599	-20.48
207.818	55.3
208.037	45.06
208.255	2.05
208.474	36.86
208.693	53.25
208.911	-14.34
209.13	-34.82
209.349	-6.14
209.567	57.34
209.786	81.92
210.005	38.91
210.223	-36.86
210.442	-22.53
210.661	-10.24
210.879	34.82
211.098	-24.58
211.316	28.67
211.535	-10.24
211.753	79.87
211.972	129.02
212.191	22.53
212.409	28.67
212.628	-4.1
212.846	69.63
213.065	83.97
213.283	63.49
213.502	45.06
213.72	16.38
213.938	53.25
214.157	90.11
214.375	38.91
214.594	-47.1
214.812	8.19
215.031	2.05
215.249	49.15
215.467	83.97
215.686	77.82
215.904	4.1
216.122	96.25
216.341	90.11
216.559	-4.1
216.778	43.01
216.996	30.72
217.214	90.11
217.432	22.53
217.651	49.15
217.869	69.63
218.087	96.25
218.306	26.62
218.524	77.82
218.742	34.82
218.96	90.11
219.179	-16.38
219.397	77.82
219.615	30.72
219.833	79.87
220.051	38.91
220.27	43.01
220.488	90.11
220.706	-6.14
220.924	88.06
221.142	12.29
221.36	38.91
221.578	-57.34
221.796	40.96
222.015	-14.34
222.233	14.34
222.451	69.63
222.669	32.77
222.887	51.2
223.105	-65.53
223.323	36.86
223.541	26.62
223.759	32.77
223.977	-8.19
224.195	86.01
224.413	67.58
224.631	96.25
224.849	4.1
225.067	96.25
225.285	16.38
225.503	59.39
225.721	-22.53
225.939	0
226.157	18.43
226.375	98.3
226.592	59.39
226.81	38.91
227.028	57.34
227.246	59.39
227.464	-16.38
227.682	47.1
227.9	40.96
228.117	32.77
228.335	-10.24
228.553	36.86
228.771	59.39
228.989	65.54
229.206	16.38
229.424	-14.34
229.642	-47.1
229.86	57.34
230.077	47.1
230.295	71.68
230.513	61.44
230.731	69.63
230.948	28.67
231.166	34.82
231.384	53.25
231.601	67.58
231.819	73.73
232.037	6.14
232.254	-57.34
232.472	28.67
232.689	69.63
232.907	77.82
233.125	14.34
233.342	14.34
233.56	-28.67
233.777	53.25
233.995	12.29
234.213	81.92
234.43	40.96
234.648	36.86
234.865	55.3
235.083	102.4
235.3	155.65
235.518	22.53
235.735	63.49
235.953	81.92
236.17	28.67
236.388	8.19
236.605	47.1
236.822	83.97
237.04	0
237.257	47.1
237.475	-20.48
237.692	22.53
237.909	57.34
238.127	86.01
238.344	96.25
238.562	145.41
238.779	-49.15
238.996	59.39
239.214	-28.67
239.431	79.87
239.648	-71.68
239.865	-20.48
240.083	-38.91
240.3	38.91
240.517	45.06
240.735	8.19
240.952	49.15
241.169	77.82
241.386	73.73
241.603	24.58
241.821	98.3
242.038	8.19
242.255	90.11
242.472	-24.58
242.689	43.01
242.907	53.25
243.124	45.06
243.341	47.1
243.558	-20.48
243.775	28.67
243.992	16.38
244.209	14.34
244.426	73.73
244.643	81.92
244.86	-36.86
245.078	100.35
245.295	4.1
245.512	40.96
245.729	20.48
245.946	22.53
246.163	6.14
246.38	59.39
246.597	18.43
246.814	18.43
247.031	51.2
247.248	77.82
247.464	73.73
247.681	112.64
247.898	28.67
248.115	22.53
248.332	0
248.549	139.26
248.766	-2.05
248.983	38.91
249.2	83.97
249.417	69.63
249.633	-32.77
249.85	28.67
250.067	28.67
250.284	18.43
250.501	86.01
250.717	96.25
250.934	4.1
251.151	47.1
251.368	83.97
251.585	43.01
251.801	16.38
252.018	129.02
252.235	65.54
252.451	6.14
252.668	63.49
252.885	-45.06
253.102	32.77
253.318	53.25
253.535	4.1
253.752	32.77
253.968	67.58
254.185	16.38
254.401	-20.48
254.618	98.3
254.835	-6.14
255.051	24.58
255.268	26.62
255.484	61.44
255.701	81.92
255.917	86.01
256.134	65.54
256.351	12.29
256.567	55.3
256.784	30.72
257	49.15
257.217	61.44
257.433	122.88
257.65	65.54
257.866	-4.1
258.082	32.77
258.299	55.3
258.515	77.82
258.732	8.19
258.948	71.68
259.165	61.44
259.381	47.1
259.597	83.97
259.814	30.72
260.03	92.16
260.246	63.49
260.463	110.59
260.679	94.21
260.895	100.35
261.112	71.68
261.328	59.39
261.544	-2.05
261.761	28.67
261.977	6.14
262.193	49.15
262.409	-4.1
262.626	40.96
262.842	-2.05
263.058	32.77
263.274	65.54
263.49	6.14
263.707	43.01
263.923	43.01
264.139	83.97
264.355	92.16
264.571	61.44
264.787	24.58
265.004	75.77
265.22	4.1
265.436	133.12
265.652	-40.96
265.868	81.92
266.084	8.19
266.3	38.91
266.516	6.14
266.732	4.1
266.948	43.01
267.164	4.1
267.38	61.44
267.596	118.78
267.812	75.77
268.028	14.34
268.244	2.05
268.46	-2.05
268.676	-67.58
268.892	28.67
269.108	131.07
269.324	43.01
269.54	4.1
269.756	81.92
269.972	-43.01
270.188	24.58
270.403	14.34
270.619	16.38
270.835	-43.01
271.051	6.14
271.267	32.77
271.483	10.24
271.698	75.77
271.914	47.1
272.13	36.86
272.346	104.45
272.562	-8.19
272.777	40.96
272.993	45.06
273.209	98.3
273.425	12.29
273.64	34.82
273.856	102.4
274.072	-6.14
274.287	49.15
274.503	120.83
274.719	32.77
274.934	65.54
275.15	-30.72
275.366	-40.96
275.581	55.3
275.797	20.48
276.012	12.29
276.228	-4.1
276.444	102.4
276.659	161.79
276.875	-10.24
277.09	43.01
277.306	18.43
277.521	36.86
277.737	34.82
277.952	71.68
278.168	16.38
278.383	-6.14
278.599	-28.67
278.814	32.77
279.03	-16.38
279.245	67.58
279.461	32.77
279.676	90.11
279.892	0
280.107	18.43
280.322	-6.14
280.538	49.15
280.753	14.34
280.969	-2.05
281.184	32.77
281.399	96.25
281.615	30.72
281.83	22.53
282.045	49.15
282.26	20.48
282.476	12.29
282.691	45.06
282.906	59.39
283.122	83.97
283.337	45.06
283.552	20.48
283.767	69.63
283.983	-6.14
284.198	43.01
284.413	32.77
284.628	16.38
284.843	28.67
285.058	51.2
285.274	129.02
285.489	26.62
285.704	6.14
285.919	8.19
286.134	36.86
286.349	2.05
286.564	16.38
286.779	22.53
286.995	10.24
287.21	32.77
287.425	98.3
287.64	32.77
287.855	71.68
288.07	18.43
288.285	69.63
288.5	88.06
288.715	32.77
288.93	6.14
289.145	69.63
289.36	57.34
289.575	26.62
289.79	12.29
290.004	73.73
290.219	65.54
290.434	20.48
290.649	38.91
290.864	18.43
291.079	47.1
291.294	67.58
291.509	14.34
291.724	53.25
291.938	30.72
292.153	83.97
292.368	-12.29
292.583	8.19
292.798	18.43
293.012	24.58
293.227	-20.48
293.442	30.72
293.657	53.25
293.871	79.87
294.086	59.39
294.301	4.1
294.516	30.72
294.73	49.15
294.945	14.34
295.16	32.77
295.374	135.17
295.589	-10.24
295.804	38.91
296.018	90.11
296.233	34.82
296.447	71.68
296.662	47.1
296.877	12.29
297.091	24.58
297.306	16.38
297.52	0
297.735	32.77
297.949	28.67
298.164	24.58
298.378	-65.53
298.593	-14.34
298.807	18.43
299.022	4.1
299.236	-8.19
299.451	71.68
299.665	24.58
299.88	98.3
300.094	53.25
300.309	18.43
300.523	-22.53
300.737	65.54
300.952	90.11
301.166	45.06
301.381	-22.53
301.595	32.77
301.809	-18.43
302.024	112.64
302.238	-49.15
302.452	47.1
302.667	102.4
302.881	47.1
303.095	67.58
303.309	12.29
303.524	71.68
303.738	67.58
303.952	12.29
304.166	28.67
304.381	57.34
304.595	47.1
304.809	45.06
305.023	98.3
305.237	49.15
305.452	-18.43
305.666	63.49
305.88	26.62
306.094	8.19
306.308	43.01
306.522	-6.14
306.736	69.63
306.95	88.06
307.164	12.29
307.379	18.43
307.593	73.73
307.807	79.87
308.021	24.58
308.235	-4.1
308.449	34.82
308.663	6.14
308.877	100.35
309.091	30.72
309.305	143.36
309.519	36.86
309.733	163.84
309.947	-63.49
310.161	49.15
310.374	69.63
310.588	75.77
310.802	81.92
311.016	32.77
311.23	40.96
311.444	45.06
311.658	45.06
311.872	69.63
312.085	135.17
312.299	49.15
312.513	20.48
312.727	26.62
312.941	63.49
313.154	32.77
313.368	90.11
313.582	86.01
313.796	-12.29
314.009	20.48
314.223	108.54
314.437	81.92
314.651	49.15
314.864	98.3
315.078	26.62
315.292	61.44
315.505	10.24
315.719	14.34
315.933	38.91
316.146	0
316.36	0
316.573	83.97
316.787	-45.06
317.001	6.14
317.214	-6.14
317.428	36.86
317.641	34.82
317.855	55.3
318.068	28.67
318.282	71.68
318.495	202.75
318.709	118.78
318.922	36.86
319.136	20.48
319.349	71.68
319.563	-14.34
319.776	36.86
319.99	-22.53
320.203	73.73
320.417	59.39
320.63	34.82
320.843	38.91
321.057	81.92
321.27	83.97
321.483	28.67
321.697	67.58
321.91	86.01
322.124	26.62
322.337	30.72
322.55	69.63
322.763	36.86
322.977	71.68
323.19	-16.38
323.403	8.19
323.617	36.86
323.83	51.2
324.043	40.96
324.256	96.25
324.469	34.82
324.683	53.25
324.896	45.06
325.109	28.67
325.322	32.77
325.535	81.92
325.748	51.2
325.962	34.82
326.175	51.2
326.388	81.92
326.601	67.58
326.814	32.77
327.027	20.48
327.24	104.45
327.453	65.54
327.666	-81.92
327.879	18.43
328.092	73.73
328.305	20.48
328.518	14.34
328.731	34.82
328.944	65.54
329.157	20.48
329.37	-14.34
329.583	88.06
329.796	40.96
330.009	-30.72
330.222	-6.14
330.435	65.54
330.648	81.92
330.861	61.44
331.073	73.73
331.286	94.21
331.499	6.14
331.712	32.77
331.925	34.82
332.138	40.96
332.35	30.72
332.563	36.86
332.776	67.58
332.989	51.2
333.202	49.15
333.414	34.82
333.627	73.73
333.84	6.14
334.053	59.39
334.265	18.43
334.478	14.34
334.691	49.15
334.903	43.01
335.116	45.06
335.329	77.82
335.541	36.86
335.754	120.83
335.966	61.44
336.179	8.19
336.392	-16.38
336.604	96.25
336.817	-28.67
337.029	-55.3
337.242	18.43
337.454	22.53
337.667	12.29
337.88	86.01
338.092	90.11
338.305	20.48
338.517	22.53
338.729	40.96
338.942	38.91
339.154	-12.29
339.367	12.29
339.579	47.1
339.792	63.49
340.004	102.4
340.217	118.78
340.429	71.68
340.641	77.82
340.854	24.58
341.066	28.67
341.278	40.96
341.491	77.82
341.703	8.19
341.915	38.91
342.128	88.06
342.34	6.14
342.552	59.39
342.764	53.25
342.977	92.16
343.189	73.73
343.401	75.77
343.613	73.73
343.826	22.53
344.038	61.44
344.25	47.1
344.462	69.63
344.674	126.97
344.886	57.34
345.099	-8.19
345.311	86.01
345.523	77.82
345.735	-4.1
345.947	45.06
346.159	12.29
346.371	79.87
346.583	2.05
346.795	69.63
347.007	-28.67
347.219	88.06
347.431	-47.1
347.643	75.77
347.855	38.91
348.067	65.54
348.279	67.58
348.491	28.67
348.703	86.01
348.915	55.3
349.127	79.87
349.339	28.67
349.551	18.43
349.763	36.86
349.975	-12.29
350.187	-18.43
350.399	71.68
350.61	149.5
350.822	36.86
351.034	-6.14
351.246	92.16
351.458	83.97
351.669	49.15
351.881	2.05
352.093	32.77
352.305	20.48
352.517	63.49
352.728	61.44
352.94	53.25
353.152	57.34
353.363	30.72
353.575	100.35
353.787	4.1
353.999	61.44
354.21	67.58
354.422	30.72
354.633	-18.43
354.845	116.73
355.057	8.19
355.268	96.25
355.48	-8.19
355.692	-32.77
355.903	73.73
356.115	-28.67
356.326	53.25
356.538	55.3
356.749	61.44
356.961	47.1
357.172	20.48
357.384	20.48
357.595	40.96
357.807	49.15
358.018	12.29
358.23	73.73
358.441	96.25
358.653	100.35
358.864	28.67
359.075	47.1
359.287	28.67
359.498	34.82
359.709	40.96
359.921	26.62
360.132	65.54
360.344	114.69
360.555	4.1
360.766	67.58
360.977	67.58
361.189	67.58
361.4	18.43
361.611	88.06
361.823	49.15
362.034	49.15
362.245	0
362.456	124.93
362.667	-4.1
362.879	26.62
363.09	45.06
363.301	49.15
363.512	57.34
363.723	40.96
363.935	59.39
364.146	79.87
364.357	45.06
364.568	67.58
364.779	-16.38
364.99	77.82
365.201	57.34
365.412	22.53
365.623	26.62
365.834	71.68
366.045	22.53
366.256	106.49
366.467	143.36
366.678	57.34
366.889	14.34
367.1	59.39
367.311	159.74
367.522	28.67
367.733	81.92
367.944	79.87
368.155	2.05
368.366	149.5
368.577	40.96
368.788	100.35
368.999	28.67
369.209	114.69
369.42	14.34
369.631	47.1
369.842	88.06
370.053	47.1
370.264	135.17
370.474	96.25
370.685	-20.48
370.896	71.68
371.107	24.58
371.317	24.58
371.528	112.64
371.739	102.4
371.95	67.58
372.16	79.87
372.371	53.25
372.582	79.87
372.792	47.1
373.003	32.77
373.214	96.25
373.424	110.59
373.635	28.67
373.846	6.14
374.056	73.73
374.267	49.15
374.477	83.97
374.688	38.91
374.898	98.3
375.109	47.1
375.319	20.48
375.53	18.43
375.74	55.3
375.951	43.01
376.161	65.54
376.372	-12.29
376.582	34.82
376.793	96.25
377.003	20.48
377.214	20.48
377.424	61.44
377.635	59.39
377.845	30.72
378.055	55.3
378.266	20.48
378.476	20.48
378.686	102.4
378.897	75.77
379.107	77.82
379.317	40.96
379.528	36.86
379.738	75.77
379.948	120.83
380.158	24.58
380.369	83.97
380.579	79.87
380.789	98.3
380.999	28.67
381.21	43.01
381.42	83.97
381.63	124.93
381.84	4.1
382.05	106.49
382.261	51.2
382.471	49.15
382.681	32.77
382.891	114.69
383.101	24.58
383.311	65.54
383.521	-4.1
383.731	90.11
383.941	81.92
384.151	151.55
384.361	61.44
384.571	88.06
384.781	18.43
384.991	61.44
385.201	139.26
385.411	112.64
385.621	73.73
385.831	79.87
386.041	53.25
386.251	36.86
386.461	108.54
386.671	-20.48
386.881	86.01
387.091	73.73
387.301	53.25
387.511	40.96
387.72	135.17
387.93	131.07
388.14	81.92
388.35	8.19
388.56	49.15
388.769	86.01
388.979	110.59
389.189	-4.1
389.399	69.63
389.609	-20.48
389.818	88.06
390.028	51.2
390.238	92.16
390.447	94.21
390.657	81.92
390.867	-12.29
391.076	47.1
391.286	22.53
391.496	73.73
391.705	49.15
391.915	100.35
392.125	75.77
392.334	36.86
392.544	124.93
392.753	59.39
392.963	59.39
393.172	139.26
393.382	94.21
393.591	126.97
393.801	30.72
394.01	63.49
394.22	110.59
394.429	98.3
394.639	137.21
394.848	57.34
395.058	86.01
395.267	106.49
395.477	36.86
395.686	122.88
395.895	67.58
396.105	229.37
396.314	143.36
396.524	151.55
396.733	18.43
396.942	153.6
397.152	180.22
397.361	102.4
397.57	114.69
397.78	118.78
397.989	61.44
398.198	165.89
398.407	77.82
398.617	180.22
398.826	83.97
399.035	98.3
399.244	51.2
399.453	153.6
399.663	112.64
399.872	133.12
400.081	49.15
400.29	157.69
400.499	18.43
400.708	108.54
400.917	139.26
401.127	88.06
401.336	71.68
401.545	145.41
401.754	112.64
401.963	135.17
402.172	73.73
402.381	155.65
402.59	190.46
402.799	96.25
403.008	69.63
403.217	167.93
403.426	165.89
403.635	137.21
403.844	47.1
404.053	182.27
404.262	186.37
404.471	145.41
404.68	174.08
404.888	174.08
405.097	223.23
405.306	167.93
405.515	176.13
405.724	135.17
405.933	157.69
406.142	202.75
406.35	202.75
406.559	143.36
406.768	161.79
406.977	258.04
407.185	178.17
407.394	194.56
407.603	145.41
407.812	149.5
408.02	161.79
408.229	229.37
408.438	143.36
408.646	196.61
408.855	217.08
409.064	237.56
409.272	167.93
409.481	251.9
409.69	249.85
409.898	241.66
410.107	299
410.315	280.57
410.524	317.44
410.733	327.67
410.941	290.81
411.15	253.95
411.358	382.97
411.567	329.72
411.775	337.91
411.984	348.15
412.192	413.69
412.401	415.74
412.609	442.36
412.818	423.93
413.026	401.4
413.234	440.31
413.443	458.75
413.651	571.38
413.86	473.08
414.068	550.9
414.276	616.44
414.485	532.47
414.693	520.18
414.901	681.97
415.11	591.86
415.318	598.01
415.526	565.24
415.734	661.49
415.943	745.46
416.151	679.93
416.359	710.65
416.567	743.41
416.776	911.35
416.984	858.1
417.192	829.43
417.4	905.2
417.608	858.1
417.817	985.07
418.025	995.31
418.233	897.01
418.441	1079.28
418.649	991.22
418.857	1142.77
419.065	1167.34
419.273	1165.29
419.481	1171.44
419.689	1257.45
419.897	1415.15
420.105	1306.6
420.313	1443.82
420.521	1492.97
420.729	1513.45
420.937	1509.35
421.145	1495.02
421.353	1605.61
421.561	1822.69
421.769	1849.32
421.977	1877.99
422.185	1929.19
422.393	1918.95
422.601	2027.49
422.809	1986.53
423.017	1953.76
423.224	2068.45
423.432	2252.77
423.64	2217.95
423.848	2506.71
424.056	2308.06
424.263	2508.76
424.471	2516.95
424.679	2533.34
424.887	2672.6
425.094	2781.14
425.302	2844.63
425.51	2895.83
425.718	3022.8
425.925	2967.51
426.133	3131.34
426.341	3164.11
426.548	3368.91
426.756	3463.12
426.964	3547.08
427.171	3653.58
427.379	3774.41
427.586	3870.66
427.794	4136.9
428.001	4100.03
428.209	4356.03
428.417	4208.58
428.624	4601.79
428.832	4695.99
429.039	4421.56
429.247	4652.98
429.454	5099.44
429.662	5361.58
429.869	5109.68
430.076	5517.23
430.284	5261.23
430.491	5404.59
430.699	5834.66
430.906	5742.5
431.114	5699.5
431.321	5965.73
431.528	6283.17
431.736	6475.68
431.943	6805.4
432.15	6694.81
432.358	6737.82
432.565	6999.96
432.772	6944.66
432.979	7520.14
433.187	7673.74
433.394	7554.96
433.601	7937.93
433.808	8101.76
434.016	7972.74
434.223	8372.1
434.43	8847.22
434.637	8695.68
434.844	9361.27
435.052	9383.79
435.259	9242.48
435.466	9564.01
435.673	9449.33
435.88	9914.22
436.087	10487.65
436.294	10610.53
436.501	10282.85
436.708	10540.9
436.915	10833.75
437.122	11231.06
437.329	11300.69
437.537	11618.13
437.743	11710.29
437.95	11657.04
438.157	12220.23
438.364	12642.11
438.571	12750.65
438.778	12750.65
438.985	14108.46
439.192	13434.67
439.399	13791.02
439.606	13315.89
439.813	14176.04
440.02	15073.05
440.227	14595.87
440.433	14698.27
440.64	15136.54
440.847	15064.86
441.054	15427.35
441.261	16428.81
441.467	16412.42
441.674	16523.01
441.881	17231.61
442.088	17090.3
442.294	16758.53
442.501	17346.3
442.708	17661.68
442.914	18245.35
443.121	19224.28
443.328	18792.16
443.534	20289.23
443.741	19457.75
443.948	19214.04
444.154	20661.96
444.361	20338.38
444.568	20369.1
444.774	20774.6
444.981	21282.49
445.187	21628.6
445.394	22292.14
445.6	22222.51
445.807	23862.93
446.013	23045.79
446.22	23688.85
446.426	24313.49
446.633	24753.8
446.839	25527.93
447.046	24299.15
447.252	25788.02
447.459	25650.81
447.665	25646.71
447.871	26812.01
448.078	27991.64
448.284	26472.04
448.491	27543.13
448.697	28339.79
448.903	28870.22
449.11	28667.47
449.316	28442.19
449.522	29005.38
449.728	29578.81
449.935	29926.97
450.141	29804.09
450.347	30572.08
450.553	29451.84
450.76	29877.82
450.966	30889.51
451.172	30721.58
451.378	31229.48
451.584	30692.91
451.791	31290.91
451.997	31243.81
452.203	31831.58
452.409	31798.81
452.615	31530.53
452.821	30277.17
453.027	30268.98
453.233	31424.03
453.44	30383.66
453.646	30838.31
453.852	30883.37
454.058	31149.6
454.264	30058.04
454.47	31125.03
454.676	30099
454.882	30991.91
455.088	28579.4
455.294	28878.41
455.5	29279.81
455.705	29496.89
455.911	28571.21
456.117	27762.26
456.323	27655.77
456.529	25595.51
456.735	26971.75
456.941	26334.83
457.147	25988.72
457.352	25497.21
457.558	24604.3
457.764	24794.76
457.97	24585.86
458.176	23494.3
458.381	23807.64
458.587	22609.58
458.793	22732.45
458.999	21290.68
459.204	23266.97
459.41	22296.24
459.616	20811.46
459.821	20725.44
460.027	20711.11
460.233	20432.58
460.438	19582.68
460.644	19742.42
460.85	18845.41
461.055	18431.72
461.261	18226.92
461.466	17051.39
461.672	16498.44
461.878	17774.32
462.083	16496.39
462.289	16160.52
462.494	16121.61
462.7	15353.62
462.905	14815.01
463.111	15671.06
463.316	15591.19
463.522	15120.15
463.727	15230.74
463.932	15257.37
464.138	15036.19
464.343	14831.39
464.549	14618.4
464.754	15085.34
464.959	15163.16
465.165	14898.97
465.37	14282.53
465.575	14061.35
465.781	14491.43
465.986	14577.44
466.191	14051.11
466.397	13868.84
466.602	13043.51
466.807	13483.83
467.012	13692.72
467.218	13373.24
467.423	13248.31
467.628	13625.14
467.833	14145.32
468.038	13449.01
468.244	13264.69
