Data from USB4F104151__214__11-10-36-456.txt Node

Date: Wed Mar 12 11:10:36 EDT 2025
User: louis
Spectrometer: USB4F10415
Trigger mode: 4
Integration Time (sec): 2.000000E-2
Scans to average: 1
Electric dark correction enabled: true
Nonlinearity correction enabled: false
Boxcar width: 0
XAxis mode: Wavelengths
Number of Pixels in Spectrum: 3648
>>>>>Begin Spectral Data<<<<<
178.204	-16.21
178.424	-16.21
178.644	-16.21
178.864	-28.5
179.084	-38.74
179.304	12.46
179.524	-51.03
179.744	-26.45
179.964	30.89
180.184	18.6
180.404	2.22
180.624	-5.97
180.844	18.6
181.064	45.23
181.283	55.47
181.503	-69.46
181.723	-30.55
181.943	-3.93
182.163	65.71
182.383	82.09
182.602	32.94
182.822	0.17
183.042	-40.79
183.262	-12.12
183.482	2.22
183.701	43.18
183.921	34.99
184.141	24.75
184.361	63.66
184.58	24.75
184.8	-20.31
185.02	2.22
185.239	-22.36
185.459	75.95
185.679	77.99
185.898	18.6
186.118	-3.93
186.338	137.38
186.557	-1.88
186.777	-26.45
186.997	37.03
187.216	4.27
187.436	127.14
187.655	55.47
187.875	18.6
188.095	-20.31
188.314	77.99
188.534	94.38
188.753	-38.74
188.973	-77.65
189.192	6.31
189.412	61.61
189.631	49.32
189.851	-22.36
190.07	73.9
190.29	-73.56
190.509	16.55
190.729	22.7
190.948	22.7
191.168	82.09
191.387	20.65
191.607	84.14
191.826	22.7
192.045	-8.02
192.265	-104.28
192.484	-5.97
192.704	20.65
192.923	-22.36
193.142	34.99
193.362	69.8
193.581	-5.97
193.8	-16.21
194.02	-8.02
194.239	2.22
194.458	32.94
194.678	-30.55
194.897	37.03
195.116	-3.93
195.335	20.65
195.555	59.56
195.774	41.13
195.993	-40.79
196.212	45.23
196.432	82.09
196.651	47.27
196.87	24.75
197.089	77.99
197.308	0.17
197.528	43.18
197.747	-69.46
197.966	-1.88
198.185	45.23
198.404	18.6
198.623	2.22
198.842	84.14
199.062	26.79
199.281	57.51
199.5	51.37
199.719	86.19
199.938	-3.93
200.157	96.43
200.376	26.79
200.595	65.71
200.814	30.89
201.033	8.36
201.252	151.72
201.471	75.95
201.69	24.75
201.909	82.09
202.128	-8.02
202.347	59.56
202.566	34.99
202.785	-32.6
203.004	-12.12
203.223	102.57
203.442	26.79
203.661	49.32
203.879	34.99
204.098	32.94
204.317	37.03
204.536	63.66
204.755	49.32
204.974	4.27
205.193	88.23
205.411	32.94
205.63	53.42
205.849	16.55
206.068	10.41
206.287	51.37
206.505	28.84
206.724	-12.12
206.943	51.37
207.162	4.27
207.381	2.22
207.599	41.13
207.818	-20.31
208.037	-16.21
208.255	-32.6
208.474	53.42
208.693	28.84
208.911	8.36
209.13	43.18
209.349	59.56
209.567	26.79
209.786	-16.21
210.005	-44.88
210.223	45.23
210.442	-3.93
210.661	8.36
210.879	-16.21
211.098	73.9
211.316	69.8
211.535	55.47
211.753	-3.93
211.972	32.94
212.191	6.31
212.409	51.37
212.628	34.99
212.846	12.46
213.065	22.7
213.283	-57.17
213.502	90.28
213.72	6.31
213.938	30.89
214.157	8.36
214.375	0.17
214.594	-1.88
214.812	30.89
215.031	2.22
215.249	-10.07
215.467	16.55
215.686	16.55
215.904	-26.45
216.122	-22.36
216.341	-12.12
216.559	34.99
216.778	77.99
216.996	90.28
217.214	94.38
217.432	24.75
217.651	26.79
217.869	45.23
218.087	-102.23
218.306	0.17
218.524	32.94
218.742	-42.84
218.96	-12.12
219.179	-30.55
219.397	59.56
219.615	-14.17
219.833	59.56
220.051	39.08
220.27	71.85
220.488	-28.5
220.706	4.27
220.924	51.37
221.142	28.84
221.36	10.41
221.578	51.37
221.796	-28.5
222.015	20.65
222.233	65.71
222.451	114.86
222.669	-12.12
222.887	39.08
223.105	2.22
223.323	61.61
223.541	-8.02
223.759	49.32
223.977	59.56
224.195	102.57
224.413	37.03
224.631	80.04
224.849	10.41
225.067	96.43
225.285	59.56
225.503	12.46
225.721	-26.45
225.939	-14.17
226.157	4.27
226.375	114.86
226.592	2.22
226.81	-26.45
227.028	-3.93
227.246	94.38
227.464	22.7
227.682	77.99
227.9	28.84
228.117	94.38
228.335	30.89
228.553	24.75
228.771	6.31
228.989	10.41
229.206	47.27
229.424	-5.97
229.642	8.36
229.86	53.42
230.077	90.28
230.295	22.7
230.513	125.1
230.731	6.31
230.948	-46.93
231.166	32.94
231.384	16.55
231.601	-8.02
231.819	37.03
232.037	75.95
232.254	6.31
232.472	-8.02
232.689	6.31
232.907	65.71
233.125	55.47
233.342	-26.45
233.56	55.47
233.777	16.55
233.995	59.56
234.213	45.23
234.43	-32.6
234.648	-12.12
234.865	53.42
235.083	106.67
235.3	-12.12
235.518	69.8
235.735	37.03
235.953	14.51
236.17	49.32
236.388	-5.97
236.605	65.71
236.822	34.99
237.04	16.55
237.257	6.31
237.475	10.41
237.692	96.43
237.909	100.52
238.127	-3.93
238.344	-57.17
238.562	6.31
238.779	16.55
238.996	22.7
239.214	-26.45
239.431	41.13
239.648	0.17
239.865	94.38
240.083	65.71
240.3	-42.84
240.517	4.27
240.735	0.17
240.952	57.51
241.169	45.23
241.386	-1.88
241.603	53.42
241.821	77.99
242.038	14.51
242.255	106.67
242.472	26.79
242.689	73.9
242.907	55.47
243.124	2.22
243.341	34.99
243.558	55.47
243.775	22.7
243.992	16.55
244.209	39.08
244.426	92.33
244.643	45.23
244.86	32.94
245.078	37.03
245.295	67.75
245.512	28.84
245.729	12.46
245.946	57.51
246.163	69.8
246.38	53.42
246.597	4.27
246.814	-3.93
247.031	28.84
247.248	-1.88
247.464	8.36
247.681	39.08
247.898	16.55
248.115	20.65
248.332	-20.31
248.549	43.18
248.766	-3.93
248.983	92.33
249.2	34.99
249.417	41.13
249.633	71.85
249.85	41.13
250.067	47.27
250.284	51.37
250.501	12.46
250.717	63.66
250.934	2.22
251.151	28.84
251.368	45.23
251.585	-3.93
251.801	51.37
252.018	-22.36
252.235	14.51
252.451	51.37
252.668	26.79
252.885	127.14
253.102	-10.07
253.318	82.09
253.535	-69.46
253.752	-57.17
253.968	28.84
254.185	0.17
254.401	24.75
254.618	18.6
254.835	20.65
255.051	82.09
255.268	61.61
255.484	8.36
255.701	69.8
255.917	-36.69
256.134	49.32
256.351	41.13
256.567	32.94
256.784	32.94
257	-16.21
257.217	24.75
257.433	24.75
257.65	16.55
257.866	-1.88
258.082	-63.32
258.299	12.46
258.515	98.47
258.732	59.56
258.948	20.65
259.165	-32.6
259.381	69.8
259.597	14.51
259.814	24.75
260.03	8.36
260.246	49.32
260.463	-22.36
260.679	49.32
260.895	59.56
261.112	37.03
261.328	-30.55
261.544	-16.21
261.761	30.89
261.977	14.51
262.193	-3.93
262.409	96.43
262.626	-18.26
262.842	49.32
263.058	55.47
263.274	28.84
263.49	69.8
263.707	10.41
263.923	10.41
264.139	92.33
264.355	114.86
264.571	82.09
264.787	20.65
265.004	75.95
265.22	20.65
265.436	-3.93
265.652	43.18
265.868	77.99
266.084	6.31
266.3	4.27
266.516	32.94
266.732	37.03
266.948	24.75
267.164	-44.88
267.38	77.99
267.596	26.79
267.812	47.27
268.028	82.09
268.244	0.17
268.46	-14.17
268.676	8.36
268.892	43.18
269.108	-5.97
269.324	61.61
269.54	-26.45
269.756	4.27
269.972	69.8
270.188	-28.5
270.403	-5.97
270.619	12.46
270.835	-3.93
271.051	-3.93
271.267	-46.93
271.483	47.27
271.698	2.22
271.914	49.32
272.13	-59.22
272.346	73.9
272.562	90.28
272.777	102.57
272.993	59.56
273.209	41.13
273.425	-16.21
273.64	14.51
273.856	143.53
274.072	-63.32
274.287	123.05
274.503	8.36
274.719	2.22
274.934	65.71
275.15	26.79
275.366	-3.93
275.581	24.75
275.797	6.31
276.012	80.04
276.228	10.41
276.444	34.99
276.659	8.36
276.875	12.46
277.09	16.55
277.306	24.75
277.521	73.9
277.737	102.57
277.952	86.19
278.168	-55.12
278.383	32.94
278.599	-3.93
278.814	22.7
279.03	-3.93
279.245	49.32
279.461	53.42
279.676	69.8
279.892	102.57
280.107	80.04
280.322	10.41
280.538	30.89
280.753	61.61
280.969	67.75
281.184	26.79
281.399	18.6
281.615	4.27
281.83	32.94
282.045	-51.03
282.26	67.75
282.476	14.51
282.691	75.95
282.906	-36.69
283.122	20.65
283.337	-3.93
283.552	39.08
283.767	51.37
283.983	69.8
284.198	-32.6
284.413	94.38
284.628	-77.65
284.843	90.28
285.058	12.46
285.274	41.13
285.489	63.66
285.704	2.22
285.919	37.03
286.134	45.23
286.349	73.9
286.564	53.42
286.779	28.84
286.995	-5.97
287.21	-40.79
287.425	14.51
287.64	80.04
287.855	6.31
288.07	-63.32
288.285	-3.93
288.5	47.27
288.715	16.55
288.93	-1.88
289.145	82.09
289.36	20.65
289.575	32.94
289.79	30.89
290.004	8.36
290.219	80.04
290.434	77.99
290.649	67.75
290.864	39.08
291.079	-3.93
291.294	22.7
291.509	57.51
291.724	8.36
291.938	28.84
292.153	80.04
292.368	20.65
292.583	51.37
292.798	41.13
293.012	55.47
293.227	41.13
293.442	18.6
293.657	-46.93
293.871	118.95
294.086	63.66
294.301	92.33
294.516	49.32
294.73	-30.55
294.945	-28.5
295.16	-26.45
295.374	4.27
295.589	92.33
295.804	53.42
296.018	71.85
296.233	69.8
296.447	-8.02
296.662	32.94
296.877	116.9
297.091	8.36
297.306	88.23
297.52	80.04
297.735	71.85
297.949	39.08
298.164	61.61
298.378	24.75
298.593	-14.17
298.807	41.13
299.022	53.42
299.236	26.79
299.451	30.89
299.665	-1.88
299.88	143.53
300.094	30.89
300.309	8.36
300.523	-12.12
300.737	-12.12
300.952	14.51
301.166	104.62
301.381	2.22
301.595	-42.84
301.809	-12.12
302.024	-1.88
302.238	-16.21
302.452	12.46
302.667	0.17
302.881	69.8
303.095	-48.98
303.309	34.99
303.524	-67.41
303.738	90.28
303.952	51.37
304.166	106.67
304.381	37.03
304.595	141.48
304.809	-5.97
305.023	32.94
305.237	-8.02
305.452	-26.45
305.666	121
305.88	39.08
306.094	90.28
306.308	37.03
306.522	90.28
306.736	43.18
306.95	-3.93
307.164	34.99
307.379	69.8
307.593	110.76
307.807	69.8
308.021	-22.36
308.235	45.23
308.449	10.41
308.663	-46.93
308.877	69.8
309.091	6.31
309.305	73.9
309.519	26.79
309.733	39.08
309.947	45.23
310.161	86.19
310.374	14.51
310.588	94.38
310.802	-53.08
311.016	100.52
311.23	37.03
311.444	47.27
311.658	-20.31
311.872	-26.45
312.085	75.95
312.299	-8.02
312.513	32.94
312.727	20.65
312.941	49.32
313.154	22.7
313.368	59.56
313.582	106.67
313.796	75.95
314.009	71.85
314.223	16.55
314.437	-8.02
314.651	26.79
314.864	28.84
315.078	65.71
315.292	47.27
315.505	28.84
315.719	100.52
315.933	82.09
316.146	-3.93
316.36	0.17
316.573	43.18
316.787	-1.88
317.001	41.13
317.214	24.75
317.428	39.08
317.641	53.42
317.855	12.46
318.068	-10.07
318.282	82.09
318.495	8.36
318.709	-8.02
318.922	37.03
319.136	73.9
319.349	43.18
319.563	14.51
319.776	92.33
319.99	92.33
320.203	53.42
320.417	45.23
320.63	65.71
320.843	26.79
321.057	80.04
321.27	37.03
321.483	53.42
321.697	-3.93
321.91	39.08
322.124	59.56
322.337	28.84
322.55	-14.17
322.763	8.36
322.977	12.46
323.19	37.03
323.403	63.66
323.617	22.7
323.83	84.14
324.043	30.89
324.256	18.6
324.469	39.08
324.683	22.7
324.896	16.55
325.109	73.9
325.322	12.46
325.535	63.66
325.748	-12.12
325.962	-5.97
326.175	34.99
326.388	73.9
326.601	104.62
326.814	34.99
327.027	65.71
327.24	37.03
327.453	0.17
327.666	28.84
327.879	75.95
328.092	77.99
328.305	-22.36
328.518	-10.07
328.731	-20.31
328.944	28.84
329.157	45.23
329.37	18.6
329.583	10.41
329.796	82.09
330.009	14.51
330.222	112.81
330.435	39.08
330.648	90.28
330.861	53.42
331.073	26.79
331.286	65.71
331.499	45.23
331.712	59.56
331.925	22.7
332.138	67.75
332.35	65.71
332.563	10.41
332.776	86.19
332.989	4.27
333.202	77.99
333.414	4.27
333.627	59.56
333.84	-28.5
334.053	133.29
334.265	-14.17
334.478	-18.26
334.691	100.52
334.903	0.17
335.116	-3.93
335.329	73.9
335.541	12.46
335.754	-3.93
335.966	57.51
336.179	24.75
336.392	49.32
336.604	71.85
336.817	90.28
337.029	0.17
337.242	30.89
337.454	67.75
337.667	24.75
337.88	92.33
338.092	98.47
338.305	45.23
338.517	-5.97
338.729	24.75
338.942	133.29
339.154	37.03
339.367	18.6
339.579	49.32
339.792	14.51
340.004	135.34
340.217	37.03
340.429	-8.02
340.641	-3.93
340.854	47.27
341.066	2.22
341.278	77.99
341.491	94.38
341.703	-12.12
341.915	47.27
342.128	24.75
342.34	-8.02
342.552	10.41
342.764	47.27
342.977	28.84
343.189	51.37
343.401	26.79
343.613	55.47
343.826	51.37
344.038	6.31
344.25	30.89
344.462	8.36
344.674	67.75
344.886	73.9
345.099	12.46
345.311	-16.21
345.523	55.47
345.735	59.56
345.947	61.61
346.159	67.75
346.371	61.61
346.583	4.27
346.795	57.51
347.007	-24.4
347.219	4.27
347.431	63.66
347.643	106.67
347.855	24.75
348.067	8.36
348.279	102.57
348.491	24.75
348.703	82.09
348.915	-18.26
349.127	45.23
349.339	82.09
349.551	8.36
349.763	92.33
349.975	73.9
350.187	80.04
350.399	4.27
350.61	131.24
350.822	24.75
351.034	-14.17
351.246	67.75
351.458	100.52
351.669	59.56
351.881	45.23
352.093	41.13
352.305	22.7
352.517	82.09
352.728	24.75
352.94	-20.31
353.152	86.19
353.363	80.04
353.575	10.41
353.787	114.86
353.999	2.22
354.21	63.66
354.422	-3.93
354.633	14.51
354.845	24.75
355.057	0.17
355.268	51.37
355.48	43.18
355.692	28.84
355.903	69.8
356.115	82.09
356.326	16.55
356.538	-12.12
356.749	65.71
356.961	108.71
357.172	4.27
357.384	98.47
357.595	47.27
357.807	43.18
358.018	16.55
358.23	77.99
358.441	37.03
358.653	22.7
358.864	71.85
359.075	20.65
359.287	37.03
359.498	28.84
359.709	63.66
359.921	75.95
360.132	49.32
360.344	67.75
360.555	47.27
360.766	-18.26
360.977	41.13
361.189	67.75
361.4	34.99
361.611	86.19
361.823	51.37
362.034	37.03
362.245	47.27
362.456	8.36
362.667	12.46
362.879	-26.45
363.09	22.7
363.301	133.29
363.512	-16.21
363.723	61.61
363.935	96.43
364.146	-3.93
364.357	18.6
364.568	0.17
364.779	41.13
364.99	55.47
365.201	55.47
365.412	92.33
365.623	43.18
365.834	16.55
366.045	-14.17
366.256	133.29
366.467	8.36
366.678	39.08
366.889	37.03
367.1	6.31
367.311	149.67
367.522	12.46
367.733	57.51
367.944	88.23
368.155	-3.93
368.366	69.8
368.577	65.71
368.788	65.71
368.999	55.47
369.209	59.56
369.42	63.66
369.631	110.76
369.842	10.41
370.053	20.65
370.264	-16.21
370.474	37.03
370.685	39.08
370.896	43.18
371.107	47.27
371.317	82.09
371.528	32.94
371.739	39.08
371.95	18.6
372.16	24.75
372.371	-12.12
372.582	-3.93
372.792	6.31
373.003	84.14
373.214	127.14
373.424	26.79
373.635	-16.21
373.846	61.61
374.056	26.79
374.267	34.99
374.477	116.9
374.688	69.8
374.898	37.03
375.109	30.89
375.319	8.36
375.53	69.8
375.74	57.51
375.951	24.75
376.161	65.71
376.372	65.71
376.582	14.51
376.793	59.56
377.003	-38.74
377.214	24.75
377.424	37.03
377.635	14.51
377.845	67.75
378.055	75.95
378.266	-12.12
378.476	65.71
378.686	10.41
378.897	125.1
379.107	153.77
379.317	102.57
379.528	20.65
379.738	20.65
379.948	37.03
380.158	86.19
380.369	47.27
380.579	77.99
380.789	92.33
380.999	65.71
381.21	53.42
381.42	80.04
381.63	10.41
381.84	67.75
382.05	28.84
382.261	180.39
382.471	67.75
382.681	32.94
382.891	55.47
383.101	80.04
383.311	-44.88
383.521	75.95
383.731	30.89
383.941	75.95
384.151	63.66
384.361	41.13
384.571	71.85
384.781	37.03
384.991	88.23
385.201	67.75
385.411	49.32
385.621	18.6
385.831	45.23
386.041	26.79
386.251	30.89
386.461	75.95
386.671	-5.97
386.881	-8.02
387.091	-3.93
387.301	26.79
387.511	37.03
387.72	69.8
387.93	45.23
388.14	104.62
388.35	92.33
388.56	49.32
388.769	90.28
388.979	45.23
389.189	45.23
389.399	43.18
389.609	59.56
389.818	84.14
390.028	8.36
390.238	30.89
390.447	49.32
390.657	198.82
390.867	57.51
391.076	0.17
391.286	55.47
391.496	96.43
391.705	45.23
391.915	131.24
392.125	28.84
392.334	77.99
392.544	59.56
392.753	28.84
392.963	92.33
393.172	137.38
393.382	49.32
393.591	71.85
393.801	86.19
394.01	123.05
394.22	30.89
394.429	65.71
394.639	51.37
394.848	69.8
395.058	75.95
395.267	69.8
395.477	57.51
395.686	137.38
395.895	127.14
396.105	125.1
396.314	88.23
396.524	114.86
396.733	73.9
396.942	28.84
397.152	84.14
397.361	94.38
397.57	88.23
397.78	65.71
397.989	53.42
398.198	26.79
398.407	45.23
398.617	37.03
398.826	106.67
399.035	114.86
399.244	139.43
399.453	82.09
399.663	82.09
399.872	102.57
400.081	137.38
400.29	174.25
400.499	49.32
400.708	127.14
400.917	94.38
401.127	75.95
401.336	90.28
401.545	194.73
401.754	110.76
401.963	141.48
402.172	100.52
402.381	53.42
402.59	135.34
402.799	80.04
403.008	51.37
403.217	102.57
403.426	141.48
403.635	59.56
403.844	116.9
404.053	143.53
404.262	34.99
404.471	110.76
404.68	110.76
404.888	104.62
405.097	112.81
405.306	145.58
405.515	219.3
405.724	92.33
405.933	143.53
406.142	147.62
406.35	157.86
406.559	131.24
406.768	114.86
406.977	161.96
407.185	176.3
407.394	241.83
407.603	127.14
407.812	172.2
408.02	241.83
408.229	184.49
408.438	200.87
408.646	190.63
408.855	168.1
409.064	270.5
409.272	233.64
409.481	237.74
409.69	164.01
409.898	270.5
410.107	239.78
410.315	352.42
410.524	254.12
410.733	356.52
410.941	286.89
411.15	377
411.358	362.66
411.567	346.28
411.775	362.66
411.984	350.37
412.192	422.05
412.401	360.61
412.609	276.65
412.818	420
413.026	389.28
413.234	436.39
413.443	413.86
413.651	401.57
413.86	503.97
414.068	503.97
414.276	530.59
414.485	563.36
414.693	569.51
414.901	704.67
415.11	559.27
415.318	567.46
415.526	592.03
415.734	637.09
415.943	735.39
416.151	690.34
416.359	704.67
416.567	823.45
416.776	788.64
416.984	743.58
417.192	835.74
417.4	905.37
417.608	811.17
417.817	917.66
418.025	975
418.233	966.81
418.441	1011.87
418.649	1075.35
418.857	1085.59
419.065	1089.69
419.273	1204.38
419.481	1056.92
419.689	1292.44
419.897	1294.49
420.105	1323.16
420.313	1321.11
420.521	1411.22
420.729	1443.99
420.937	1523.86
421.145	1476.76
421.353	1587.35
421.561	1618.07
421.769	1704.08
421.977	1829.01
422.185	1710.22
422.393	1921.17
422.601	1988.75
422.809	2001.04
423.017	1927.31
423.224	2013.32
423.432	2181.26
423.64	2136.2
423.848	2363.53
424.056	2267.27
424.263	2439.3
424.471	2519.17
424.679	2486.4
424.887	2564.23
425.094	2748.54
425.302	2812.03
425.51	2918.53
425.718	2855.04
425.925	3047.55
426.133	3084.41
426.341	3270.78
426.548	3340.41
426.756	3510.39
426.964	3539.06
427.171	3528.82
427.379	3727.47
427.586	3866.74
427.794	3836.02
428.001	4100.2
428.209	4094.06
428.417	4051.05
428.624	4546.66
428.832	4526.18
429.039	4515.94
429.247	4593.76
429.454	4874.34
429.662	5146.72
429.869	4814.95
430.076	5224.54
430.284	5066.85
430.491	5345.37
430.699	5820.5
430.906	5630.04
431.114	5570.65
431.321	5902.42
431.528	6103.12
431.736	6324.3
431.943	6590.53
432.15	6400.07
432.358	6641.73
432.565	6850.63
432.772	6977.6
432.979	7329.85
433.187	7508.02
433.394	7397.43
433.601	7989.3
433.808	7909.43
434.016	7815.22
434.223	8187.95
434.43	8894.5
434.637	8513.58
434.844	9213.98
435.052	9304.09
435.259	9267.23
435.466	9328.67
435.673	8980.51
435.88	9840.66
436.087	10453
436.294	10287.12
436.501	10047.51
436.708	10293.26
436.915	10795.01
437.122	11278.33
437.329	11186.18
437.537	11462.65
437.743	11761.66
437.95	11612.15
438.157	12161.01
438.364	12574.7
438.571	12498.92
438.778	12451.82
438.985	13739.99
439.192	13371.36
439.399	13576.16
439.606	13244.38
439.813	14086.1
440.02	14979.01
440.227	14675.91
440.433	14526.41
440.64	15005.64
440.847	15048.65
441.054	15290.31
441.261	16441.26
441.467	16199.6
441.674	16396.21
441.881	17147.81
442.088	16914.34
442.294	16949.16
442.501	17434.53
442.708	17479.58
442.914	18263.96
443.121	19169.16
443.328	18405.27
443.534	19810.17
443.741	19451.78
443.948	19054.47
444.154	20545.39
444.361	20453.23
444.568	20594.54
444.774	20481.91
444.981	20580.21
445.187	21458.79
445.394	21976.92
445.6	22011.74
445.807	23965.5
446.013	22781.78
446.22	23412.55
446.426	24280.89
446.633	24604.47
446.839	25366.31
447.046	24246.07
447.252	25808.67
447.459	25431.85
447.665	25513.77
447.871	26677.01
448.078	27576.07
448.284	26480.41
448.491	26908.43
448.697	28053.25
448.903	28641.01
449.11	28944.11
449.316	28075.77
449.522	28874.48
449.728	29808.36
449.935	29456.11
450.141	29794.02
450.347	30367.45
450.553	29310.7
450.76	29347.56
450.966	30645.98
451.172	30299.87
451.378	31178.45
451.584	30299.87
451.791	31153.87
451.997	31227.6
452.203	31737.54
452.409	31364.81
452.615	31737.54
452.821	30295.77
453.027	29736.68
453.233	31416.01
453.44	30252.77
453.646	30338.78
453.852	30570.2
454.058	31129.3
454.264	29652.71
454.47	30828.24
454.676	29908.71
454.882	31114.96
455.088	27905.79
455.294	28962.54
455.5	29097.71
455.705	29363.95
455.911	28227.32
456.117	27701
456.323	27557.64
456.529	25892.64
456.735	26855.18
456.941	26023.71
457.147	25843.49
457.352	24932.14
457.558	24774.45
457.764	24846.13
457.97	24141.63
458.176	23582.53
458.381	23801.66
458.587	22581.07
458.793	22519.64
458.999	21585.76
459.204	23023.44
459.41	22257.5
459.616	20383.6
459.821	20762.48
460.027	20492.15
460.233	20418.42
460.438	19402.63
460.644	19748.73
460.85	18595.73
461.055	18552.72
461.261	18231.19
461.466	17002.41
461.672	16281.52
461.878	17594.27
462.083	16654.25
462.289	16039.86
462.494	16056.25
462.7	15386.56
462.905	14940.1
463.111	15472.57
463.316	15372.22
463.522	15292.35
463.727	15308.74
463.932	14966.73
464.138	14829.51
464.343	15128.52
464.549	14372.82
464.754	15103.94
464.959	14897.1
465.165	14835.66
465.37	14184.4
465.575	13975.51
465.781	14426.06
465.986	14761.93
466.191	14047.19
466.397	13791.19
466.602	12990.44
466.807	13774.81
467.012	13690.84
467.218	13727.71
467.423	13316.06
467.628	13412.32
467.833	13922.26
468.038	13527
