Data from USB4F104151__24__11-05-05-032.txt Node

Date: Wed Mar 12 11:05:05 EDT 2025
User: louis
Spectrometer: USB4F10415
Trigger mode: 4
Integration Time (sec): 2.000000E-2
Scans to average: 1
Electric dark correction enabled: true
Nonlinearity correction enabled: false
Boxcar width: 0
XAxis mode: Wavelengths
Number of Pixels in Spectrum: 3648
>>>>>Begin Spectral Data<<<<<
178.204	-54.78
178.424	-54.78
178.644	-54.78
178.864	-85.5
179.084	-48.64
179.304	94.72
179.524	27.14
179.744	0.51
179.964	8.7
180.184	23.04
180.404	-13.82
180.624	-52.74
180.844	-93.69
181.064	18.94
181.283	35.33
181.503	-38.4
181.723	-9.73
181.943	-15.87
182.163	51.71
182.383	37.38
182.602	-3.58
182.822	25.09
183.042	-17.92
183.262	64
183.482	10.75
183.701	-22.02
183.921	-54.78
184.141	-19.97
184.361	29.18
184.58	41.47
184.8	39.42
185.02	8.7
185.239	37.38
185.459	61.95
185.679	55.81
185.898	66.05
186.118	18.94
186.338	37.38
186.557	37.38
186.777	-11.78
186.997	-5.63
187.216	20.99
187.436	94.72
187.655	-9.73
187.875	35.33
188.095	90.62
188.314	43.52
188.534	84.48
188.753	-7.68
188.973	18.94
189.192	-11.78
189.412	39.42
189.631	27.14
189.851	6.66
190.07	109.05
190.29	-15.87
190.509	27.14
190.729	86.53
190.948	31.23
191.168	66.05
191.387	137.73
191.607	29.18
191.826	72.19
192.045	41.47
192.265	-3.58
192.484	16.9
192.704	-19.97
192.923	-17.92
193.142	51.71
193.362	129.53
193.581	66.05
193.8	6.66
194.02	31.23
194.239	20.99
194.458	29.18
194.678	-22.02
194.897	20.99
195.116	51.71
195.335	41.47
195.555	20.99
195.774	76.29
195.993	14.85
196.212	-81.41
196.432	4.61
196.651	51.71
196.87	-11.78
197.089	68.09
197.308	66.05
197.528	-19.97
197.747	57.86
197.966	53.76
198.185	53.76
198.404	-13.82
198.623	33.28
198.842	45.57
199.062	76.29
199.281	2.56
199.5	4.61
199.719	14.85
199.938	70.14
200.157	-24.06
200.376	78.33
200.595	66.05
200.814	-50.69
201.033	27.14
201.252	25.09
201.471	0.51
201.69	84.48
201.909	51.71
202.128	25.09
202.347	37.38
202.566	-7.68
202.785	45.57
203.004	88.57
203.223	107.01
203.442	88.57
203.661	-13.82
203.879	29.18
204.098	-28.16
204.317	16.9
204.536	98.81
204.755	-52.74
204.974	90.62
205.193	49.66
205.411	10.75
205.63	72.19
205.849	-1.54
206.068	68.09
206.287	39.42
206.505	90.62
206.724	20.99
206.943	0.51
207.162	18.94
207.381	-7.68
207.599	2.56
207.818	27.14
208.037	37.38
208.255	33.28
208.474	47.62
208.693	70.14
208.911	4.61
209.13	-38.4
209.349	107.01
209.567	57.86
209.786	66.05
210.005	-7.68
210.223	-3.58
210.442	-11.78
210.661	-32.26
210.879	10.75
211.098	-30.21
211.316	76.29
211.535	-7.68
211.753	12.8
211.972	20.99
212.191	12.8
212.409	-11.78
212.628	-3.58
212.846	90.62
213.065	111.1
213.283	10.75
213.502	-44.54
213.72	14.85
213.938	43.52
214.157	10.75
214.375	29.18
214.594	-13.82
214.812	57.86
215.031	14.85
215.249	94.72
215.467	-24.06
215.686	74.24
215.904	18.94
216.122	-22.02
216.341	53.76
216.559	-32.26
216.778	107.01
216.996	53.76
217.214	72.19
217.432	70.14
217.651	29.18
217.869	53.76
218.087	14.85
218.306	20.99
218.524	-42.5
218.742	8.7
218.96	39.42
219.179	16.9
219.397	6.66
219.615	68.09
219.833	27.14
220.051	20.99
220.27	41.47
220.488	61.95
220.706	78.33
220.924	64
221.142	57.86
221.36	23.04
221.578	12.8
221.796	27.14
222.015	45.57
222.233	31.23
222.451	59.9
222.669	29.18
222.887	78.33
223.105	-7.68
223.323	96.77
223.541	29.18
223.759	33.28
223.977	23.04
224.195	-30.21
224.413	72.19
224.631	76.29
224.849	23.04
225.067	14.85
225.285	-15.87
225.503	-3.58
225.721	43.52
225.939	41.47
226.157	57.86
226.375	102.91
226.592	41.47
226.81	0.51
227.028	-3.58
227.246	-28.16
227.464	72.19
227.682	-17.92
227.9	33.28
228.117	35.33
228.335	41.47
228.553	68.09
228.771	12.8
228.989	-19.97
229.206	31.23
229.424	29.18
229.642	61.95
229.86	51.71
230.077	12.8
230.295	139.77
230.513	57.86
230.731	23.04
230.948	53.76
231.166	72.19
231.384	27.14
231.601	-17.92
231.819	55.81
232.037	20.99
232.254	72.19
232.472	53.76
232.689	37.38
232.907	-17.92
233.125	66.05
233.342	6.66
233.56	-24.06
233.777	47.62
233.995	39.42
234.213	33.28
234.43	29.18
234.648	78.33
234.865	-5.63
235.083	107.01
235.3	57.86
235.518	45.57
235.735	47.62
235.953	35.33
236.17	-1.54
236.388	10.75
236.605	37.38
236.822	70.14
237.04	78.33
237.257	25.09
237.475	-11.78
237.692	4.61
237.909	-9.73
238.127	96.77
238.344	2.56
238.562	74.24
238.779	10.75
238.996	23.04
239.214	0.51
239.431	41.47
239.648	20.99
239.865	43.52
240.083	-40.45
240.3	76.29
240.517	-36.35
240.735	10.75
240.952	86.53
241.169	78.33
241.386	70.14
241.603	92.67
241.821	51.71
242.038	-42.5
242.255	-32.26
242.472	27.14
242.689	66.05
242.907	27.14
243.124	-19.97
243.341	23.04
243.558	12.8
243.775	-17.92
243.992	-24.06
244.209	27.14
244.426	72.19
244.643	27.14
244.86	4.61
245.078	55.81
245.295	47.62
245.512	-5.63
245.729	72.19
245.946	37.38
246.163	-9.73
246.38	59.9
246.597	-36.35
246.814	-83.45
247.031	64
247.248	33.28
247.464	47.62
247.681	47.62
247.898	57.86
248.115	39.42
248.332	-11.78
248.549	-11.78
248.766	29.18
248.983	29.18
249.2	29.18
249.417	98.81
249.633	29.18
249.85	64
250.067	96.77
250.284	78.33
250.501	94.72
250.717	10.75
250.934	-52.74
251.151	2.56
251.368	33.28
251.585	78.33
251.801	43.52
252.018	12.8
252.235	64
252.451	0.51
252.668	39.42
252.885	43.52
253.102	68.09
253.318	8.7
253.535	-48.64
253.752	72.19
253.968	-28.16
254.185	12.8
254.401	80.38
254.618	16.9
254.835	6.66
255.051	45.57
255.268	35.33
255.484	-11.78
255.701	-24.06
255.917	-3.58
256.134	23.04
256.351	94.72
256.567	0.51
256.784	2.56
257	31.23
257.217	31.23
257.433	43.52
257.65	61.95
257.866	-5.63
258.082	0.51
258.299	16.9
258.515	37.38
258.732	4.61
258.948	14.85
259.165	27.14
259.381	-28.16
259.597	61.95
259.814	-24.06
260.03	-50.69
260.246	137.73
260.463	-40.45
260.679	-1.54
260.895	82.43
261.112	53.76
261.328	25.09
261.544	35.33
261.761	102.91
261.977	27.14
262.193	4.61
262.409	64
262.626	49.66
262.842	98.81
263.058	6.66
263.274	-26.11
263.49	88.57
263.707	-19.97
263.923	31.23
264.139	37.38
264.355	72.19
264.571	51.71
264.787	10.75
265.004	49.66
265.22	18.94
265.436	-38.4
265.652	20.99
265.868	47.62
266.084	8.7
266.3	37.38
266.516	80.38
266.732	18.94
266.948	88.57
267.164	0.51
267.38	16.9
267.596	-17.92
267.812	49.66
268.028	39.42
268.244	68.09
268.46	68.09
268.676	80.38
268.892	12.8
269.108	18.94
269.324	61.95
269.54	-3.58
269.756	20.99
269.972	14.85
270.188	57.86
270.403	20.99
270.619	8.7
270.835	-36.35
271.051	68.09
271.267	33.28
271.483	135.68
271.698	-17.92
271.914	35.33
272.13	18.94
272.346	133.63
272.562	49.66
272.777	51.71
272.993	53.76
273.209	94.72
273.425	16.9
273.64	55.81
273.856	4.61
274.072	82.43
274.287	41.47
274.503	78.33
274.719	27.14
274.934	0.51
275.15	0.51
275.366	-19.97
275.581	-50.69
275.797	57.86
276.012	35.33
276.228	55.81
276.444	49.66
276.659	84.48
276.875	-3.58
277.09	94.72
277.306	-36.35
277.521	51.71
277.737	47.62
277.952	72.19
278.168	12.8
278.383	20.99
278.599	-17.92
278.814	74.24
279.03	84.48
279.245	59.9
279.461	59.9
279.676	18.94
279.892	33.28
280.107	-11.78
280.322	33.28
280.538	35.33
280.753	107.01
280.969	59.9
281.184	37.38
281.399	61.95
281.615	66.05
281.83	121.34
282.045	41.47
282.26	6.66
282.476	14.85
282.691	25.09
282.906	70.14
283.122	45.57
283.337	53.76
283.552	59.9
283.767	-1.54
283.983	41.47
284.198	29.18
284.413	10.75
284.628	14.85
284.843	-30.21
285.058	41.47
285.274	55.81
285.489	-13.82
285.704	55.81
285.919	59.9
286.134	-60.93
286.349	33.28
286.564	14.85
286.779	49.66
286.995	31.23
287.21	10.75
287.425	-5.63
287.64	53.76
287.855	55.81
288.07	25.09
288.285	51.71
288.5	68.09
288.715	61.95
288.93	12.8
289.145	-13.82
289.36	59.9
289.575	23.04
289.79	37.38
290.004	-26.11
290.219	-19.97
290.434	16.9
290.649	53.76
290.864	51.71
291.079	88.57
291.294	61.95
291.509	-11.78
291.724	41.47
291.938	6.66
292.153	27.14
292.368	-19.97
292.583	-73.21
292.798	49.66
293.012	68.09
293.227	16.9
293.442	20.99
293.657	6.66
293.871	61.95
294.086	14.85
294.301	57.86
294.516	16.9
294.73	74.24
294.945	4.61
295.16	111.1
295.374	0.51
295.589	145.92
295.804	4.61
296.018	25.09
296.233	123.39
296.447	76.29
296.662	41.47
296.877	-19.97
297.091	92.67
297.306	33.28
297.52	31.23
297.735	0.51
297.949	-1.54
298.164	6.66
298.378	-40.45
298.593	39.42
298.807	53.76
299.022	66.05
299.236	86.53
299.451	76.29
299.665	-7.68
299.88	78.33
300.094	68.09
300.309	115.2
300.523	88.57
300.737	35.33
300.952	61.95
301.166	-5.63
301.381	27.14
301.595	45.57
301.809	-17.92
302.024	31.23
302.238	41.47
302.452	29.18
302.667	-11.78
302.881	43.52
303.095	25.09
303.309	-5.63
303.524	14.85
303.738	68.09
303.952	25.09
304.166	70.14
304.381	4.61
304.595	100.86
304.809	4.61
305.023	51.71
305.237	27.14
305.452	33.28
305.666	18.94
305.88	68.09
306.094	20.99
306.308	104.96
306.522	-3.58
306.736	49.66
306.95	127.49
307.164	102.91
307.379	35.33
307.593	57.86
307.807	76.29
308.021	84.48
308.235	-1.54
308.449	23.04
308.663	53.76
308.877	78.33
309.091	-30.21
309.305	64
309.519	49.66
309.733	51.71
309.947	66.05
310.161	-11.78
310.374	39.42
310.588	96.77
310.802	33.28
311.016	12.8
311.23	-73.21
311.444	-30.21
311.658	57.86
311.872	150.01
312.085	31.23
312.299	102.91
312.513	102.91
312.727	37.38
312.941	39.42
313.154	41.47
313.368	35.33
313.582	61.95
313.796	4.61
314.009	12.8
314.223	14.85
314.437	27.14
314.651	64
314.864	53.76
315.078	74.24
315.292	29.18
315.505	8.7
315.719	29.18
315.933	14.85
316.146	-1.54
316.36	-3.58
316.573	135.68
316.787	76.29
317.001	115.2
317.214	45.57
317.428	92.67
317.641	-56.83
317.855	129.53
318.068	-9.73
318.282	-22.02
318.495	14.85
318.709	94.72
318.922	92.67
319.136	113.15
319.349	8.7
319.563	-11.78
319.776	115.2
319.99	-30.21
320.203	-17.92
320.417	45.57
320.63	-28.16
320.843	119.29
321.057	33.28
321.27	41.47
321.483	41.47
321.697	109.05
321.91	-5.63
322.124	27.14
322.337	43.52
322.55	-30.21
322.763	43.52
322.977	68.09
323.19	66.05
323.403	16.9
323.617	20.99
323.83	109.05
324.043	33.28
324.256	-11.78
324.469	-7.68
324.683	64
324.896	76.29
325.109	109.05
325.322	27.14
325.535	53.76
325.748	6.66
325.962	-40.45
326.175	49.66
326.388	86.53
326.601	78.33
326.814	33.28
327.027	61.95
327.24	74.24
327.453	66.05
327.666	90.62
327.879	-3.58
328.092	59.9
328.305	29.18
328.518	35.33
328.731	68.09
328.944	25.09
329.157	47.62
329.37	31.23
329.583	86.53
329.796	98.81
330.009	12.8
330.222	20.99
330.435	-24.06
330.648	121.34
330.861	43.52
331.073	20.99
331.286	86.53
331.499	47.62
331.712	66.05
331.925	29.18
332.138	45.57
332.35	86.53
332.563	-15.87
332.776	-13.82
332.989	68.09
333.202	14.85
333.414	37.38
333.627	39.42
333.84	18.94
334.053	49.66
334.265	2.56
334.478	8.7
334.691	6.66
334.903	18.94
335.116	23.04
335.329	0.51
335.541	74.24
335.754	68.09
335.966	10.75
336.179	111.1
336.392	-22.02
336.604	8.7
336.817	45.57
337.029	37.38
337.242	2.56
337.454	0.51
337.667	111.1
337.88	57.86
338.092	-32.26
338.305	70.14
338.517	33.28
338.729	61.95
338.942	10.75
339.154	29.18
339.367	39.42
339.579	78.33
339.792	-56.83
340.004	88.57
340.217	16.9
340.429	4.61
340.641	70.14
340.854	35.33
341.066	43.52
341.278	55.81
341.491	117.25
341.703	18.94
341.915	51.71
342.128	123.39
342.34	72.19
342.552	12.8
342.764	-3.58
342.977	-3.58
343.189	70.14
343.401	86.53
343.613	33.28
343.826	0.51
344.038	70.14
344.25	102.91
344.462	86.53
344.674	41.47
344.886	18.94
345.099	64
345.311	41.47
345.523	20.99
345.735	20.99
345.947	20.99
346.159	16.9
346.371	16.9
346.583	-38.4
346.795	57.86
347.007	74.24
347.219	37.38
347.431	4.61
347.643	98.81
347.855	-5.63
348.067	59.9
348.279	29.18
348.491	45.57
348.703	57.86
348.915	29.18
349.127	96.77
349.339	98.81
349.551	-5.63
349.763	84.48
349.975	8.7
350.187	98.81
350.399	47.62
350.61	47.62
350.822	6.66
351.034	12.8
351.246	49.66
351.458	45.57
351.669	109.05
351.881	43.52
352.093	84.48
352.305	-13.82
352.517	100.86
352.728	51.71
352.94	78.33
353.152	8.7
353.363	12.8
353.575	-24.06
353.787	23.04
353.999	29.18
354.21	70.14
354.422	-9.73
354.633	61.95
354.845	-26.11
355.057	41.47
355.268	61.95
355.48	-3.58
355.692	23.04
355.903	12.8
356.115	14.85
356.326	18.94
356.538	47.62
356.749	92.67
356.961	66.05
357.172	18.94
357.384	59.9
357.595	66.05
357.807	37.38
358.018	-24.06
358.23	47.62
358.441	-1.54
358.653	53.76
358.864	68.09
359.075	68.09
359.287	-11.78
359.498	61.95
359.709	82.43
359.921	66.05
360.132	-28.16
360.344	113.15
360.555	31.23
360.766	61.95
360.977	23.04
361.189	45.57
361.4	-5.63
361.611	80.38
361.823	84.48
362.034	31.23
362.245	41.47
362.456	29.18
362.667	123.39
362.879	31.23
363.09	33.28
363.301	2.56
363.512	41.47
363.723	31.23
363.935	37.38
364.146	90.62
364.357	39.42
364.568	16.9
364.779	74.24
364.99	47.62
365.201	49.66
365.412	78.33
365.623	-15.87
365.834	47.62
366.045	-7.68
366.256	-9.73
366.467	35.33
366.678	107.01
366.889	66.05
367.1	43.52
367.311	78.33
367.522	31.23
367.733	0.51
367.944	59.9
368.155	-56.83
368.366	59.9
368.577	49.66
368.788	72.19
368.999	35.33
369.209	-5.63
369.42	68.09
369.631	201.21
369.842	23.04
370.053	14.85
370.264	-13.82
370.474	45.57
370.685	86.53
370.896	12.8
371.107	72.19
371.317	41.47
371.528	84.48
371.739	8.7
371.95	98.81
372.16	78.33
372.371	10.75
372.582	100.86
372.792	78.33
373.003	57.86
373.214	-11.78
373.424	61.95
373.635	23.04
373.846	117.25
374.056	41.47
374.267	84.48
374.477	12.8
374.688	80.38
374.898	37.38
375.109	49.66
375.319	25.09
375.53	20.99
375.74	25.09
375.951	37.38
376.161	86.53
376.372	74.24
376.582	12.8
376.793	47.62
377.003	49.66
377.214	0.51
377.424	29.18
377.635	-40.45
377.845	4.61
378.055	109.05
378.266	37.38
378.476	29.18
378.686	53.76
378.897	-5.63
379.107	53.76
379.317	-28.16
379.528	-1.54
379.738	121.34
379.948	61.95
380.158	-22.02
380.369	123.39
380.579	49.66
380.789	57.86
380.999	76.29
381.21	49.66
381.42	41.47
381.63	43.52
381.84	84.48
382.05	16.9
382.261	61.95
382.471	98.81
382.681	51.71
382.891	72.19
383.101	47.62
383.311	78.33
383.521	-19.97
383.731	-22.02
383.941	119.29
384.151	82.43
384.361	107.01
384.571	88.57
384.781	61.95
384.991	152.06
385.201	115.2
385.411	61.95
385.621	53.76
385.831	18.94
386.041	94.72
386.251	27.14
386.461	61.95
386.671	70.14
386.881	84.48
387.091	-11.78
387.301	59.9
387.511	74.24
387.72	125.44
387.93	59.9
388.14	61.95
388.35	31.23
388.56	119.29
388.769	139.77
388.979	123.39
389.189	20.99
389.399	-11.78
389.609	92.67
389.818	59.9
390.028	23.04
390.238	78.33
390.447	53.76
390.657	88.57
390.867	117.25
391.076	64
391.286	49.66
391.496	82.43
391.705	84.48
391.915	39.42
392.125	164.35
392.334	10.75
392.544	49.66
392.753	137.73
392.963	4.61
393.172	82.43
393.382	66.05
393.591	41.47
393.801	92.67
394.01	98.81
394.22	92.67
394.429	84.48
394.639	61.95
394.848	53.76
395.058	57.86
395.267	8.7
395.477	45.57
395.686	90.62
395.895	176.64
396.105	164.35
396.314	166.4
396.524	111.1
396.733	88.57
396.942	166.4
397.152	41.47
397.361	145.92
397.57	102.91
397.78	162.3
397.989	125.44
398.198	29.18
398.407	82.43
398.617	76.29
398.826	45.57
399.035	72.19
399.244	84.48
399.453	133.63
399.663	27.14
399.872	115.2
400.081	88.57
400.29	152.06
400.499	117.25
400.708	129.53
400.917	43.52
401.127	96.77
401.336	33.28
401.545	154.11
401.754	152.06
401.963	102.91
402.172	61.95
402.381	86.53
402.59	72.19
402.799	78.33
403.008	137.73
403.217	180.73
403.426	180.73
403.635	111.1
403.844	113.15
404.053	184.83
404.262	190.97
404.471	156.16
404.68	94.72
404.888	225.79
405.097	156.16
405.306	129.53
405.515	100.86
405.724	94.72
405.933	158.21
406.142	127.49
406.35	233.98
406.559	203.26
406.768	184.83
406.977	236.03
407.185	168.45
407.394	203.26
407.603	158.21
407.812	242.17
408.02	248.32
408.229	227.84
408.438	276.99
408.646	223.74
408.855	242.17
409.064	231.93
409.272	246.27
409.481	170.49
409.69	250.36
409.898	225.79
410.107	248.32
410.315	313.85
410.524	274.94
410.733	293.37
410.941	313.85
411.15	436.73
411.358	340.47
411.567	350.71
411.775	313.85
411.984	410.11
412.192	408.06
412.401	524.79
412.609	401.91
412.818	420.35
413.026	426.49
413.234	418.3
413.443	457.21
413.651	483.83
413.86	502.26
414.068	510.46
414.276	545.27
414.485	487.93
414.693	526.84
414.901	600.57
415.11	606.71
415.318	594.42
415.526	643.57
415.734	643.57
415.943	659.96
416.151	713.21
416.359	713.21
416.567	664.05
416.776	741.88
416.984	825.84
417.192	872.95
417.4	954.87
417.608	772.6
417.817	870.9
418.025	1001.97
418.233	975.35
418.441	952.82
418.649	1034.74
418.857	1067.5
419.065	1180.14
419.273	1090.03
419.481	1106.42
419.689	1229.29
419.897	1331.69
420.105	1356.27
420.313	1481.19
420.521	1444.33
420.729	1231.34
420.937	1483.24
421.145	1548.78
421.353	1657.32
421.561	1692.13
421.769	1712.61
421.977	1737.19
422.185	1708.52
422.393	1896.93
422.601	1968.61
422.809	1966.56
423.017	1929.7
423.224	2105.82
423.432	2134.5
423.64	2247.13
423.848	2386.4
424.056	2308.57
424.263	2408.92
424.471	2550.23
424.679	2539.99
424.887	2683.35
425.094	2748.89
425.302	2789.85
425.51	2871.76
425.718	2992.59
425.925	3045.84
426.133	3121.62
426.341	3199.44
426.548	3285.45
426.756	3592.65
426.964	3375.56
427.171	3434.96
427.379	3682.76
427.586	3832.26
427.794	3844.55
428.001	4168.13
428.209	4161.98
428.417	4239.81
428.624	4614.59
428.832	4514.24
429.039	4405.69
429.247	4413.88
429.454	4907.45
429.662	5278.13
429.869	4860.34
430.076	5343.66
430.284	5157.3
430.491	5274.03
430.699	5484.97
430.906	5570.99
431.114	5722.54
431.321	5872.04
431.528	6130.08
431.736	6406.56
431.943	6486.43
432.15	6500.76
432.358	6498.72
432.565	6848.92
432.772	6936.98
432.979	7401.87
433.187	7385.49
433.394	7399.82
433.601	7856.52
433.808	7946.63
434.016	7760.27
434.223	8296.83
434.43	8825.21
434.637	8601.98
434.844	9214.32
435.052	9318.77
435.259	9136.5
435.466	9286
435.673	9138.55
435.88	10027.37
436.087	10248.55
436.294	10473.82
436.501	10090.85
436.708	10297.7
436.915	10852.7
437.122	11260.24
437.329	11118.93
437.537	11534.67
437.743	11614.54
437.95	11495.76
438.157	12228.93
438.364	12677.44
438.571	12511.55
438.778	12613.95
438.985	13891.88
439.192	13107.51
439.399	13783.34
439.606	13308.21
439.813	14227.75
440.02	14930.2
440.227	14743.84
440.433	14657.82
440.64	15411.48
440.847	15302.93
441.054	15653.14
441.261	16474.37
441.467	16210.18
441.674	16617.73
441.881	17338.62
442.088	17144.06
442.294	16933.12
442.501	17647.86
442.708	17658.1
442.914	18612.45
443.121	19273.95
443.328	18632.93
443.534	20043.98
443.741	19697.88
443.948	19347.67
444.154	20650.18
444.361	20527.3
444.568	20510.92
444.774	20654.28
444.981	20879.55
445.187	21446.84
445.394	22765.73
445.6	22466.73
445.807	24385.68
446.013	23310.49
446.22	23640.22
446.426	24262.8
446.633	24412.3
446.839	25489.53
447.046	24486.03
447.252	25690.23
447.459	25841.78
447.665	25798.77
447.871	26996.84
448.078	28141.65
448.284	26349.68
448.491	27557.98
448.697	28473.42
448.903	28891.21
449.11	28604.49
449.316	28416.08
449.522	28596.3
449.728	29716.54
449.935	29571.13
450.141	29728.83
450.347	30193.72
450.553	29892.66
450.76	30031.93
450.966	30677.04
451.172	30230.58
451.378	30994.47
451.584	30400.56
451.791	31305.76
451.997	31105.06
452.203	31610.91
452.409	31393.82
452.615	31313.95
452.821	30244.91
453.027	29671.48
453.233	31332.39
453.44	30025.78
453.646	30359.6
453.852	30384.18
454.058	31004.71
454.264	29358.14
454.47	30562.35
454.676	29573.18
454.882	30840.87
455.088	27861.08
455.294	28440.65
455.5	28424.27
455.705	28911.69
455.911	27959.38
456.117	27134.05
456.323	26976.36
456.529	25464.96
456.735	26466.41
456.941	25421.95
457.147	25374.84
457.352	24529.03
457.558	24344.72
457.764	24314
457.97	23879.83
458.176	23124.13
458.381	23320.73
458.587	22040.75
458.793	21711.03
458.999	20793.54
459.204	22540.46
459.41	21815.48
459.616	20412.62
459.821	20529.35
460.027	19908.82
460.233	19636.44
460.438	18989.28
460.644	18987.23
460.85	18309.35
461.055	17852.66
461.261	18188.52
461.466	16322.82
461.672	15968.52
461.878	17180.92
462.083	15958.28
462.289	15761.68
462.494	15710.48
462.7	14784.8
462.905	14782.75
463.111	15042.84
463.316	14954.78
463.522	14616.86
463.727	14618.91
463.932	14498.08
464.138	14541.09
464.343	14577.95
464.549	14289.19
464.754	14899.48
464.959	14696.74
465.165	14371.11
465.37	13973.8
465.575	13562.16
465.781	14276.9
465.986	14209.32
466.191	13791.53
466.397	13570.35
466.602	12669.25
466.807	13338.93
467.012	13203.77
467.218	13127.99
467.423	13162.81
467.628	13140.28
467.833	13650.22
468.038	13019.45
