Data from USB4F104151__215__11-10-37-116.txt Node

Date: Wed Mar 12 11:10:37 EDT 2025
User: louis
Spectrometer: USB4F10415
Trigger mode: 4
Integration Time (sec): 2.000000E-2
Scans to average: 1
Electric dark correction enabled: true
Nonlinearity correction enabled: false
Boxcar width: 0
XAxis mode: Wavelengths
Number of Pixels in Spectrum: 3648
>>>>>Begin Spectral Data<<<<<
178.204	-46.25
178.424	-46.25
178.644	-46.25
178.864	-70.83
179.084	-81.07
179.304	-44.2
179.524	-50.35
179.744	-23.72
179.964	-27.82
180.184	56.15
180.404	23.38
180.624	50
180.844	-15.53
181.064	2.9
181.283	23.38
181.503	-33.96
181.723	39.76
181.943	-33.96
182.163	72.53
182.383	15.19
182.602	2.9
182.822	23.38
183.042	54.1
183.262	-1.19
183.482	-21.67
183.701	-93.35
183.921	-19.63
184.141	29.52
184.361	-13.48
184.58	2.9
184.8	33.62
185.02	35.67
185.239	19.29
185.459	17.24
185.679	15.19
185.898	-3.24
186.118	43.86
186.338	-19.63
186.557	27.48
186.777	68.44
186.997	19.29
187.216	33.62
187.436	64.34
187.655	9.05
187.875	19.29
188.095	41.81
188.314	-9.39
188.534	-7.34
188.753	7
188.973	-17.58
189.192	-27.82
189.412	-9.39
189.631	11.09
189.851	-42.15
190.07	84.82
190.29	-27.82
190.509	21.33
190.729	56.15
190.948	19.29
191.168	111.44
191.387	66.39
191.607	52.05
191.826	7
192.045	41.81
192.265	-27.82
192.484	27.48
192.704	56.15
192.923	-13.48
193.142	56.15
193.362	27.48
193.581	-25.77
193.8	-17.58
194.02	41.81
194.239	17.24
194.458	-40.11
194.678	-7.34
194.897	25.43
195.116	21.33
195.335	23.38
195.555	2.9
195.774	9.05
195.993	43.86
196.212	27.48
196.432	21.33
196.651	-25.77
196.87	2.9
197.089	35.67
197.308	0.85
197.528	41.81
197.747	15.19
197.966	29.52
198.185	62.29
198.404	23.38
198.623	52.05
198.842	54.1
199.062	-13.48
199.281	21.33
199.5	-5.29
199.719	62.29
199.938	-9.39
200.157	0.85
200.376	15.19
200.595	37.72
200.814	9.05
201.033	-11.43
201.252	-19.63
201.471	-3.24
201.69	0.85
201.909	-17.58
202.128	43.86
202.347	35.67
202.566	-5.29
202.785	-60.59
203.004	-33.96
203.223	56.15
203.442	-29.87
203.661	-21.67
203.879	58.2
204.098	80.72
204.317	7
204.536	39.76
204.755	-5.29
204.974	80.72
205.193	-7.34
205.411	66.39
205.63	23.38
205.849	23.38
206.068	27.48
206.287	-38.06
206.505	101.2
206.724	-27.82
206.943	23.38
207.162	-46.25
207.381	4.95
207.599	-9.39
207.818	80.72
208.037	-33.96
208.255	-58.54
208.474	97.11
208.693	11.09
208.911	13.14
209.13	37.72
209.349	-42.15
209.567	-27.82
209.786	117.59
210.005	13.14
210.223	15.19
210.442	90.96
210.661	9.05
210.879	-44.2
211.098	35.67
211.316	11.09
211.535	68.44
211.753	15.19
211.972	-13.48
212.191	27.48
212.409	72.53
212.628	31.57
212.846	-42.15
213.065	39.76
213.283	-25.77
213.502	33.62
213.72	37.72
213.938	-19.63
214.157	-25.77
214.375	-54.44
214.594	-21.67
214.812	23.38
215.031	101.2
215.249	-3.24
215.467	9.05
215.686	23.38
215.904	60.24
216.122	-1.19
216.341	-21.67
216.559	-21.67
216.778	76.63
216.996	25.43
217.214	2.9
217.432	-13.48
217.651	13.14
217.869	84.82
218.087	54.1
218.306	21.33
218.524	17.24
218.742	-17.58
218.96	11.09
219.179	15.19
219.397	-29.87
219.615	23.38
219.833	43.86
220.051	-5.29
220.27	99.16
220.488	37.72
220.706	-11.43
220.924	-1.19
221.142	82.77
221.36	-29.87
221.578	50
221.796	60.24
222.015	37.72
222.233	19.29
222.451	107.35
222.669	-11.43
222.887	17.24
223.105	-13.48
223.323	27.48
223.541	-72.87
223.759	78.68
223.977	-54.44
224.195	-9.39
224.413	86.87
224.631	-44.2
224.849	27.48
225.067	43.86
225.285	29.52
225.503	39.76
225.721	9.05
225.939	-1.19
226.157	4.95
226.375	56.15
226.592	-33.96
226.81	4.95
227.028	2.9
227.246	109.4
227.464	25.43
227.682	-7.34
227.9	-19.63
228.117	9.05
228.335	39.76
228.553	0.85
228.771	52.05
228.989	7
229.206	21.33
229.424	-3.24
229.642	11.09
229.86	52.05
230.077	54.1
230.295	58.2
230.513	33.62
230.731	-5.29
230.948	-44.2
231.166	121.68
231.384	-21.67
231.601	17.24
231.819	60.24
232.037	-17.58
232.254	2.9
232.472	31.57
232.689	-9.39
232.907	72.53
233.125	-19.63
233.342	39.76
233.56	13.14
233.777	-48.3
233.995	101.2
234.213	80.72
234.43	0.85
234.648	21.33
234.865	-33.96
235.083	64.34
235.3	0.85
235.518	17.24
235.735	39.76
235.953	109.4
236.17	39.76
236.388	13.14
236.605	19.29
236.822	21.33
237.04	58.2
237.257	-40.11
237.475	-5.29
237.692	4.95
237.909	-15.53
238.127	7
238.344	29.52
238.562	19.29
238.779	-70.83
238.996	31.57
239.214	64.34
239.431	4.95
239.648	39.76
239.865	47.96
240.083	29.52
240.3	21.33
240.517	-27.82
240.735	39.76
240.952	13.14
241.169	31.57
241.386	31.57
241.603	-42.15
241.821	-17.58
242.038	66.39
242.255	39.76
242.472	-38.06
242.689	39.76
242.907	21.33
243.124	2.9
243.341	-9.39
243.558	9.05
243.775	31.57
243.992	0.85
244.209	27.48
244.426	60.24
244.643	41.81
244.86	-38.06
245.078	52.05
245.295	31.57
245.512	35.67
245.729	9.05
245.946	-5.29
246.163	19.29
246.38	-1.19
246.597	-29.87
246.814	7
247.031	97.11
247.248	2.9
247.464	-25.77
247.681	37.72
247.898	4.95
248.115	35.67
248.332	-70.83
248.549	-9.39
248.766	2.9
248.983	2.9
249.2	78.68
249.417	56.15
249.633	72.53
249.85	-25.77
250.067	60.24
250.284	43.86
250.501	54.1
250.717	17.24
250.934	72.53
251.151	31.57
251.368	-36.01
251.585	17.24
251.801	21.33
252.018	-3.24
252.235	47.96
252.451	-50.35
252.668	-23.72
252.885	68.44
253.102	-5.29
253.318	-5.29
253.535	-52.39
253.752	-23.72
253.968	21.33
254.185	39.76
254.401	7
254.618	19.29
254.835	33.62
255.051	7
255.268	33.62
255.484	19.29
255.701	-40.11
255.917	23.38
256.134	56.15
256.351	-60.59
256.567	-17.58
256.784	-7.34
257	35.67
257.217	11.09
257.433	-31.91
257.65	-7.34
257.866	0.85
258.082	33.62
258.299	-44.2
258.515	58.2
258.732	0.85
258.948	-38.06
259.165	-36.01
259.381	29.52
259.597	-17.58
259.814	45.91
260.03	66.39
260.246	-19.63
260.463	54.1
260.679	-9.39
260.895	-11.43
261.112	0.85
261.328	-5.29
261.544	-33.96
261.761	129.88
261.977	2.9
262.193	7
262.409	23.38
262.626	19.29
262.842	23.38
263.058	66.39
263.274	58.2
263.49	-19.63
263.707	72.53
263.923	35.67
264.139	7
264.355	-40.11
264.571	-7.34
264.787	31.57
265.004	82.77
265.22	56.15
265.436	-9.39
265.652	31.57
265.868	7
266.084	-33.96
266.3	35.67
266.516	-48.3
266.732	35.67
266.948	66.39
267.164	-15.53
267.38	-9.39
267.596	58.2
267.812	68.44
268.028	-7.34
268.244	19.29
268.46	33.62
268.676	17.24
268.892	27.48
269.108	-23.72
269.324	-21.67
269.54	-62.63
269.756	80.72
269.972	29.52
270.188	35.67
270.403	-83.11
270.619	-19.63
270.835	47.96
271.051	11.09
271.267	-5.29
271.483	27.48
271.698	60.24
271.914	-5.29
272.13	-27.82
272.346	17.24
272.562	80.72
272.777	11.09
272.993	64.34
273.209	88.92
273.425	41.81
273.64	-13.48
273.856	25.43
274.072	37.72
274.287	19.29
274.503	29.52
274.719	33.62
274.934	23.38
275.15	-1.19
275.366	-50.35
275.581	19.29
275.797	33.62
276.012	-5.29
276.228	76.63
276.444	0.85
276.659	-42.15
276.875	-38.06
277.09	-17.58
277.306	-23.72
277.521	33.62
277.737	-21.67
277.952	-40.11
278.168	-46.25
278.383	29.52
278.599	60.24
278.814	-1.19
279.03	-5.29
279.245	2.9
279.461	-1.19
279.676	7
279.892	41.81
280.107	15.19
280.322	-31.91
280.538	56.15
280.753	-17.58
280.969	56.15
281.184	33.62
281.399	-3.24
281.615	-1.19
281.83	2.9
282.045	11.09
282.26	70.48
282.476	21.33
282.691	17.24
282.906	25.43
283.122	86.87
283.337	4.95
283.552	82.77
283.767	27.48
283.983	15.19
284.198	15.19
284.413	-66.73
284.628	37.72
284.843	-21.67
285.058	2.9
285.274	-17.58
285.489	-46.25
285.704	-5.29
285.919	109.4
286.134	-54.44
286.349	11.09
286.564	33.62
286.779	142.16
286.995	43.86
287.21	33.62
287.425	29.52
287.64	74.58
287.855	43.86
288.07	23.38
288.285	35.67
288.5	13.14
288.715	-44.2
288.93	35.67
289.145	15.19
289.36	105.3
289.575	-29.87
289.79	47.96
290.004	-15.53
290.219	62.29
290.434	27.48
290.649	88.92
290.864	-29.87
291.079	15.19
291.294	0.85
291.509	39.76
291.724	-1.19
291.938	-13.48
292.153	15.19
292.368	21.33
292.583	4.95
292.798	-62.63
293.012	-1.19
293.227	-7.34
293.442	-25.77
293.657	58.2
293.871	35.67
294.086	50
294.301	27.48
294.516	0.85
294.73	99.16
294.945	11.09
295.16	74.58
295.374	101.2
295.589	-7.34
295.804	-70.83
296.018	7
296.233	39.76
296.447	-54.44
296.662	-19.63
296.877	19.29
297.091	45.91
297.306	-89.26
297.52	52.05
297.735	29.52
297.949	50
298.164	80.72
298.378	70.48
298.593	0.85
298.807	17.24
299.022	72.53
299.236	-40.11
299.451	15.19
299.665	-5.29
299.88	84.82
300.094	35.67
300.309	21.33
300.523	-25.77
300.737	115.54
300.952	11.09
301.166	101.2
301.381	21.33
301.595	74.58
301.809	60.24
302.024	90.96
302.238	19.29
302.452	39.76
302.667	21.33
302.881	39.76
303.095	-58.54
303.309	86.87
303.524	19.29
303.738	52.05
303.952	31.57
304.166	54.1
304.381	0.85
304.595	29.52
304.809	2.9
305.023	50
305.237	78.68
305.452	9.05
305.666	-13.48
305.88	-33.96
306.094	47.96
306.308	11.09
306.522	97.11
306.736	50
306.95	-7.34
307.164	25.43
307.379	-42.15
307.593	2.9
307.807	25.43
308.021	-21.67
308.235	-40.11
308.449	-33.96
308.663	-36.01
308.877	41.81
309.091	7
309.305	80.72
309.519	4.95
309.733	-25.77
309.947	-44.2
310.161	64.34
310.374	25.43
310.588	-33.96
310.802	11.09
311.016	27.48
311.23	-29.87
311.444	33.62
311.658	39.76
311.872	60.24
312.085	25.43
312.299	17.24
312.513	-1.19
312.727	31.57
312.941	52.05
313.154	76.63
313.368	52.05
313.582	35.67
313.796	45.91
314.009	62.29
314.223	68.44
314.437	56.15
314.651	64.34
314.864	70.48
315.078	4.95
315.292	68.44
315.505	-48.3
315.719	-5.29
315.933	52.05
316.146	-15.53
316.36	58.2
316.573	70.48
316.787	15.19
317.001	-9.39
317.214	-11.43
317.428	15.19
317.641	-13.48
317.855	-81.07
318.068	4.95
318.282	72.53
318.495	43.86
318.709	37.72
318.922	-25.77
319.136	62.29
319.349	52.05
319.563	-17.58
319.776	50
319.99	-13.48
320.203	-1.19
320.417	52.05
320.63	9.05
320.843	131.92
321.057	9.05
321.27	52.05
321.483	17.24
321.697	41.81
321.91	86.87
322.124	41.81
322.337	78.68
322.55	-27.82
322.763	-44.2
322.977	74.58
323.19	-5.29
323.403	43.86
323.617	70.48
323.83	88.92
324.043	39.76
324.256	31.57
324.469	54.1
324.683	47.96
324.896	21.33
325.109	27.48
325.322	35.67
325.535	52.05
325.748	11.09
325.962	23.38
326.175	58.2
326.388	78.68
326.601	-38.06
326.814	19.29
327.027	74.58
327.24	129.88
327.453	50
327.666	-21.67
327.879	-17.58
328.092	39.76
328.305	58.2
328.518	27.48
328.731	29.52
328.944	70.48
329.157	21.33
329.37	52.05
329.583	52.05
329.796	-1.19
330.009	-3.24
330.222	4.95
330.435	-25.77
330.648	80.72
330.861	64.34
331.073	7
331.286	72.53
331.499	25.43
331.712	0.85
331.925	-1.19
332.138	11.09
332.35	23.38
332.563	52.05
332.776	0.85
332.989	64.34
333.202	37.72
333.414	-9.39
333.627	-25.77
333.84	88.92
334.053	19.29
334.265	-1.19
334.478	47.96
334.691	21.33
334.903	86.87
335.116	56.15
335.329	29.52
335.541	35.67
335.754	2.9
335.966	15.19
336.179	31.57
336.392	66.39
336.604	31.57
336.817	19.29
337.029	9.05
337.242	33.62
337.454	66.39
337.667	-9.39
337.88	60.24
338.092	25.43
338.305	62.29
338.517	35.67
338.729	-3.24
338.942	31.57
339.154	-3.24
339.367	2.9
339.579	4.95
339.792	-13.48
340.004	7
340.217	2.9
340.429	29.52
340.641	7
340.854	-58.54
341.066	60.24
341.278	0.85
341.491	60.24
341.703	13.14
341.915	19.29
342.128	0.85
342.34	-15.53
342.552	-5.29
342.764	-13.48
342.977	60.24
343.189	-13.48
343.401	56.15
343.613	-17.58
343.826	29.52
344.038	-3.24
344.25	78.68
344.462	-11.43
344.674	25.43
344.886	45.91
345.099	52.05
345.311	-9.39
345.523	2.9
345.735	21.33
345.947	76.63
346.159	70.48
346.371	35.67
346.583	-70.83
346.795	88.92
347.007	23.38
347.219	43.86
347.431	-21.67
347.643	101.2
347.855	-31.91
348.067	82.77
348.279	64.34
348.491	88.92
348.703	68.44
348.915	-9.39
349.127	2.9
349.339	45.91
349.551	47.96
349.763	0.85
349.975	39.76
350.187	68.44
350.399	39.76
350.61	13.14
350.822	4.95
351.034	62.29
351.246	21.33
351.458	64.34
351.669	23.38
351.881	25.43
352.093	56.15
352.305	74.58
352.517	66.39
352.728	19.29
352.94	82.77
353.152	9.05
353.363	19.29
353.575	52.05
353.787	66.39
353.999	4.95
354.21	52.05
354.422	31.57
354.633	-1.19
354.845	23.38
355.057	31.57
355.268	41.81
355.48	66.39
355.692	47.96
355.903	43.86
356.115	-11.43
356.326	-1.19
356.538	54.1
356.749	64.34
356.961	15.19
357.172	-1.19
357.384	41.81
357.595	125.78
357.807	2.9
358.018	-1.19
358.23	19.29
358.441	33.62
358.653	11.09
358.864	27.48
359.075	45.91
359.287	62.29
359.498	121.68
359.709	-38.06
359.921	56.15
360.132	-29.87
360.344	82.77
360.555	-25.77
360.766	84.82
360.977	29.52
361.189	33.62
361.4	-13.48
361.611	93.01
361.823	78.68
362.034	-15.53
362.245	35.67
362.456	41.81
362.667	66.39
362.879	19.29
363.09	43.86
363.301	9.05
363.512	27.48
363.723	72.53
363.935	19.29
364.146	52.05
364.357	-31.91
364.568	43.86
364.779	13.14
364.99	78.68
365.201	58.2
365.412	82.77
365.623	-85.16
365.834	68.44
366.045	52.05
366.256	47.96
366.467	117.59
366.678	37.72
366.889	2.9
367.1	56.15
367.311	-9.39
367.522	33.62
367.733	72.53
367.944	-13.48
368.155	15.19
368.366	23.38
368.577	17.24
368.788	11.09
368.999	17.24
369.209	150.36
369.42	115.54
369.631	95.06
369.842	15.19
370.053	31.57
370.264	-3.24
370.474	-23.72
370.685	11.09
370.896	-17.58
371.107	31.57
371.317	33.62
371.528	17.24
371.739	50
371.95	64.34
372.16	70.48
372.371	35.67
372.582	-46.25
372.792	78.68
373.003	9.05
373.214	-3.24
373.424	76.63
373.635	4.95
373.846	109.4
374.056	4.95
374.267	33.62
374.477	58.2
374.688	7
374.898	39.76
375.109	-9.39
375.319	19.29
375.53	35.67
375.74	86.87
375.951	4.95
376.161	15.19
376.372	45.91
376.582	39.76
376.793	7
377.003	15.19
377.214	-5.29
377.424	15.19
377.635	56.15
377.845	0.85
378.055	78.68
378.266	21.33
378.476	-19.63
378.686	64.34
378.897	54.1
379.107	33.62
379.317	78.68
379.528	27.48
379.738	99.16
379.948	21.33
380.158	88.92
380.369	29.52
380.579	17.24
380.789	11.09
380.999	80.72
381.21	84.82
381.42	19.29
381.63	7
381.84	43.86
382.05	45.91
382.261	78.68
382.471	43.86
382.681	50
382.891	29.52
383.101	86.87
383.311	68.44
383.521	19.29
383.731	109.4
383.941	105.3
384.151	58.2
384.361	4.95
384.571	2.9
384.781	33.62
384.991	72.53
385.201	70.48
385.411	27.48
385.621	31.57
385.831	86.87
386.041	25.43
386.251	4.95
386.461	31.57
386.671	11.09
386.881	68.44
387.091	113.49
387.301	25.43
387.511	19.29
387.72	23.38
387.93	0.85
388.14	4.95
388.35	-9.39
388.56	27.48
388.769	23.38
388.979	27.48
389.189	-36.01
389.399	84.82
389.609	119.64
389.818	72.53
390.028	84.82
390.238	66.39
390.447	2.9
390.657	39.76
390.867	62.29
391.076	7
391.286	50
391.496	52.05
391.705	60.24
391.915	78.68
392.125	78.68
392.334	58.2
392.544	68.44
392.753	52.05
392.963	54.1
393.172	56.15
393.382	86.87
393.591	64.34
393.801	0.85
394.01	105.3
394.22	27.48
394.429	37.72
394.639	41.81
394.848	111.44
395.058	107.35
395.267	101.2
395.477	101.2
395.686	66.39
395.895	64.34
396.105	113.49
396.314	88.92
396.524	95.06
396.733	76.63
396.942	33.62
397.152	88.92
397.361	140.12
397.57	76.63
397.78	74.58
397.989	72.53
398.198	119.64
398.407	189.27
398.617	93.01
398.826	93.01
399.035	88.92
399.244	97.11
399.453	140.12
399.663	117.59
399.872	13.14
400.081	76.63
400.29	133.97
400.499	95.06
400.708	-3.24
400.917	84.82
401.127	115.54
401.336	23.38
401.545	129.88
401.754	142.16
401.963	82.77
402.172	95.06
402.381	133.97
402.59	45.91
402.799	97.11
403.008	86.87
403.217	78.68
403.426	64.34
403.635	152.4
403.844	47.96
404.053	93.01
404.262	80.72
404.471	181.07
404.68	131.92
404.888	111.44
405.097	88.92
405.306	138.07
405.515	152.4
405.724	133.97
405.933	68.44
406.142	136.02
406.35	209.75
406.559	76.63
406.768	103.25
406.977	183.12
407.185	168.79
407.394	222.03
407.603	193.36
407.812	127.83
408.02	232.27
408.229	217.94
408.438	174.93
408.646	187.22
408.855	205.65
409.064	228.18
409.272	262.99
409.481	205.65
409.69	228.18
409.898	250.71
410.107	236.37
410.315	293.71
410.524	260.95
410.733	260.95
410.941	262.99
411.15	242.51
411.358	371.54
411.567	328.53
411.775	271.19
411.984	379.73
412.192	369.49
412.401	346.96
412.609	406.35
412.818	424.78
413.026	465.74
413.234	422.73
413.443	408.4
413.651	394.06
413.86	549.71
414.068	600.91
414.276	502.61
414.485	537.42
414.693	570.19
414.901	551.76
415.11	643.92
415.318	631.63
415.526	602.96
415.734	676.68
415.943	758.6
416.151	654.16
416.359	682.83
416.567	719.69
416.776	709.45
416.984	791.37
417.192	731.98
417.4	777.03
417.608	871.24
417.817	944.97
418.025	891.72
418.233	955.21
418.441	1000.26
418.649	971.59
418.857	1141.57
419.065	1045.32
419.273	1102.66
419.481	1153.86
419.689	1321.79
419.897	1286.98
420.105	1336.13
420.313	1370.94
420.521	1479.49
420.729	1463.1
420.937	1461.06
421.145	1485.63
421.353	1579.84
421.561	1561.41
421.769	1770.3
421.977	1880.89
422.185	1743.67
422.393	1774.39
422.601	2026.29
422.809	1944.38
423.017	1987.38
423.224	2112.31
423.432	2218.8
423.64	2124.6
423.848	2329.39
424.056	2276.15
424.263	2507.57
424.471	2366.26
424.679	2450.22
424.887	2683.69
425.094	2839.34
425.302	2726.7
425.51	2874.15
425.718	2964.26
425.925	2951.98
426.133	3111.72
426.341	3255.08
426.548	3443.49
426.756	3343.14
426.964	3463.97
427.171	3640.09
427.379	3611.42
427.586	3646.24
427.794	3767.07
428.001	4195.09
428.209	4293.4
428.417	4311.83
428.624	4414.23
428.832	4506.38
429.039	4440.85
429.247	4446.99
429.454	4954.89
429.662	5141.25
429.869	4979.47
430.076	5126.92
430.284	5020.42
430.491	5528.32
430.699	5655.3
430.906	5378.82
431.114	5716.73
431.321	5989.11
431.528	6038.27
431.736	6245.11
431.943	6572.79
432.15	6406.9
432.358	6384.37
432.565	6949.61
432.772	6726.38
432.979	7164.65
433.187	7385.83
433.394	7465.7
433.601	7885.53
433.808	8116.95
434.016	7783.13
434.223	8207.06
434.43	8819.41
434.637	8651.47
434.844	9013.96
435.052	9306.82
435.259	9472.71
435.466	9286.34
435.673	9296.58
435.88	9910.97
436.087	10257.08
436.294	10377.91
436.501	10212.03
436.708	10209.98
436.915	10668.72
437.122	11090.6
437.329	11051.69
437.537	11412.14
437.743	11514.53
437.95	11426.47
438.157	12118.68
438.364	12526.23
438.571	12554.9
438.778	12817.04
438.985	13810.31
439.192	13075.09
439.399	13787.78
439.606	13417.1
439.813	14105.21
440.02	14996.08
440.227	14649.97
440.433	14516.86
440.64	14955.12
440.847	14973.55
441.054	15456.87
441.261	16364.12
441.467	16081.5
441.674	16417.37
441.881	17252.94
442.088	16908.88
442.294	16941.65
442.501	17207.89
442.708	17664.58
442.914	18203.2
443.121	19196.46
443.328	18717.24
443.534	19970.6
443.741	19284.53
443.948	19006
444.154	20601.37
444.361	20529.69
444.568	20451.87
444.774	20511.26
444.981	20521.5
445.187	21387.79
445.394	22364.67
445.6	21668.36
445.807	23902.7
446.013	23052.79
446.22	23427.57
446.426	24328.67
446.633	24553.95
446.839	25233.88
447.046	24451.55
447.252	25653.71
447.459	25668.05
447.665	25622.99
447.871	26649.02
448.078	27836.84
448.284	26503.62
448.491	27464.11
448.697	28576.16
448.903	28783.01
449.11	28627.36
449.316	28488.1
449.522	29039
449.728	29610.39
449.935	29776.27
450.141	29606.29
450.347	30380.42
450.553	29534.61
450.76	29905.29
450.966	30867.84
451.172	30701.95
451.378	31295.86
451.584	30546.31
451.791	31193.47
451.997	31529.33
452.203	31701.36
452.409	31539.57
452.615	31412.6
452.821	30267.78
453.027	29972.88
453.233	31631.73
453.44	30280.07
453.646	30361.99
453.852	30380.42
454.058	31324.54
454.264	29946.25
454.47	30931.33
454.676	30386.57
454.882	31195.51
455.088	28623.26
455.294	28727.71
455.5	29131.16
455.705	29426.07
455.911	28285.35
456.117	27951.53
456.323	27308.47
456.529	26005.96
456.735	26839.48
456.941	26110.41
457.147	25786.83
457.352	25082.33
457.558	24908.25
457.764	24820.19
457.97	24271.33
458.176	23591.41
458.381	23689.71
458.587	22493.69
458.793	22678.01
458.999	21592.59
459.204	22852.09
459.41	22407.68
459.616	20947.48
459.821	20894.23
460.027	20877.85
460.233	20625.95
460.438	19694.12
460.644	19563.05
460.85	18614.84
461.055	18711.1
461.261	18373.18
461.466	16972.37
461.672	16620.12
461.878	17588.81
462.083	16837.2
462.289	16091.74
462.494	16241.25
462.7	15456.87
462.905	15024.75
463.111	15503.98
463.316	15739.49
463.522	15383.15
463.727	15260.27
463.932	15229.55
464.138	15157.87
464.343	15078
464.549	14523
464.754	15147.63
464.959	15067.76
465.165	15047.28
465.37	14213.76
465.575	14099.07
465.781	14500.47
465.986	14596.73
466.191	13927.04
466.397	13845.12
466.602	13161.1
466.807	13400.71
467.012	13650.57
467.218	13369.99
467.423	13283.98
467.628	13474.44
467.833	14164.61
468.038	13513.35
468.244	12913.3
468.449	13533.83
468.654	13144.72
468.859	13062.8
469.064	12767.89
