Data from USB4F104151__136__11-07-56-753.txt Node

Date: Wed Mar 12 11:07:56 EDT 2025
User: louis
Spectrometer: USB4F10415
Trigger mode: 4
Integration Time (sec): 2.000000E-2
Scans to average: 1
Electric dark correction enabled: true
Nonlinearity correction enabled: false
Boxcar width: 0
XAxis mode: Wavelengths
Number of Pixels in Spectrum: 3648
>>>>>Begin Spectral Data<<<<<
178.204	-60.59
178.424	-60.59
178.644	-60.59
178.864	-72.87
179.084	-68.78
179.304	-44.2
179.524	-21.67
179.744	-7.34
179.964	11.09
180.184	50
180.404	41.81
180.624	-19.63
180.844	74.58
181.064	-54.44
181.283	23.38
181.503	-58.54
181.723	4.95
181.943	-101.55
182.163	7
182.383	-9.39
182.602	43.86
182.822	-1.19
183.042	9.05
183.262	7
183.482	37.72
183.701	37.72
183.921	19.29
184.141	-29.87
184.361	97.11
184.58	-1.19
184.8	31.57
185.02	58.2
185.239	17.24
185.459	33.62
185.679	39.76
185.898	-60.59
186.118	56.15
186.338	11.09
186.557	60.24
186.777	39.76
186.997	-70.83
187.216	-27.82
187.436	37.72
187.655	0.85
187.875	56.15
188.095	-11.43
188.314	76.63
188.534	62.29
188.753	56.15
188.973	-19.63
189.192	21.33
189.412	-1.19
189.631	-50.35
189.851	33.62
190.07	29.52
190.29	11.09
190.509	-40.11
190.729	-25.77
190.948	29.52
191.168	115.54
191.387	58.2
191.607	11.09
191.826	-1.19
192.045	-64.68
192.265	19.29
192.484	-11.43
192.704	-29.87
192.923	29.52
193.142	43.86
193.362	29.52
193.581	43.86
193.8	7
194.02	52.05
194.239	33.62
194.458	13.14
194.678	17.24
194.897	23.38
195.116	72.53
195.335	45.91
195.555	41.81
195.774	54.1
195.993	17.24
196.212	-23.72
196.432	-5.29
196.651	56.15
196.87	45.91
197.089	70.48
197.308	37.72
197.528	-19.63
197.747	37.72
197.966	-31.91
198.185	-17.58
198.404	-36.01
198.623	45.91
198.842	9.05
199.062	11.09
199.281	9.05
199.5	31.57
199.719	21.33
199.938	58.2
200.157	54.1
200.376	39.76
200.595	-13.48
200.814	-85.16
201.033	-7.34
201.252	50
201.471	86.87
201.69	19.29
201.909	15.19
202.128	47.96
202.347	66.39
202.566	19.29
202.785	41.81
203.004	-5.29
203.223	78.68
203.442	13.14
203.661	41.81
203.879	52.05
204.098	74.58
204.317	-3.24
204.536	78.68
204.755	64.34
204.974	37.72
205.193	-40.11
205.411	97.11
205.63	19.29
205.849	62.29
206.068	39.76
206.287	54.1
206.505	29.52
206.724	80.72
206.943	-5.29
207.162	-31.91
207.381	-83.11
207.599	45.91
207.818	45.91
208.037	29.52
208.255	-23.72
208.474	111.44
208.693	4.95
208.911	4.95
209.13	78.68
209.349	25.43
209.567	17.24
209.786	66.39
210.005	-36.01
210.223	56.15
210.442	-74.92
210.661	39.76
210.879	54.1
211.098	47.96
211.316	60.24
211.535	-23.72
211.753	37.72
211.972	41.81
212.191	11.09
212.409	-9.39
212.628	86.87
212.846	43.86
213.065	43.86
213.283	29.52
213.502	-19.63
213.72	54.1
213.938	25.43
214.157	45.91
214.375	-19.63
214.594	-48.3
214.812	35.67
215.031	43.86
215.249	-48.3
215.467	-27.82
215.686	82.77
215.904	54.1
216.122	21.33
216.341	-11.43
216.559	39.76
216.778	84.82
216.996	7
217.214	45.91
217.432	37.72
217.651	0.85
217.869	-7.34
218.087	-40.11
218.306	-48.3
218.524	103.25
218.742	58.2
218.96	-5.29
219.179	-42.15
219.397	4.95
219.615	27.48
219.833	0.85
220.051	64.34
220.27	86.87
220.488	17.24
220.706	70.48
220.924	-5.29
221.142	66.39
221.36	17.24
221.578	-3.24
221.796	66.39
222.015	13.14
222.233	39.76
222.451	70.48
222.669	-19.63
222.887	-38.06
223.105	2.9
223.323	-15.53
223.541	9.05
223.759	45.91
223.977	17.24
224.195	72.53
224.413	29.52
224.631	-19.63
224.849	-21.67
225.067	129.88
225.285	-40.11
225.503	54.1
225.721	9.05
225.939	41.81
226.157	-3.24
226.375	-13.48
226.592	-19.63
226.81	19.29
227.028	21.33
227.246	47.96
227.464	-27.82
227.682	97.11
227.9	-29.87
228.117	35.67
228.335	17.24
228.553	54.1
228.771	25.43
228.989	66.39
229.206	45.91
229.424	-62.63
229.642	37.72
229.86	-48.3
230.077	95.06
230.295	19.29
230.513	31.57
230.731	25.43
230.948	-3.24
231.166	107.35
231.384	7
231.601	-3.24
231.819	62.29
232.037	-5.29
232.254	9.05
232.472	39.76
232.689	33.62
232.907	72.53
233.125	33.62
233.342	13.14
233.56	11.09
233.777	17.24
233.995	37.72
234.213	41.81
234.43	-81.07
234.648	80.72
234.865	35.67
235.083	23.38
235.3	23.38
235.518	64.34
235.735	-38.06
235.953	9.05
236.17	35.67
236.388	37.72
236.605	35.67
236.822	99.16
237.04	-1.19
237.257	58.2
237.475	-17.58
237.692	-7.34
237.909	9.05
238.127	39.76
238.344	33.62
238.562	41.81
238.779	52.05
238.996	-42.15
239.214	-36.01
239.431	31.57
239.648	66.39
239.865	23.38
240.083	13.14
240.3	66.39
240.517	-7.34
240.735	-52.39
240.952	64.34
241.169	82.77
241.386	-25.77
241.603	-15.53
241.821	7
242.038	-23.72
242.255	-11.43
242.472	19.29
242.689	82.77
242.907	47.96
243.124	35.67
243.341	72.53
243.558	-40.11
243.775	19.29
243.992	9.05
244.209	9.05
244.426	88.92
244.643	107.35
244.86	25.43
245.078	86.87
245.295	43.86
245.512	70.48
245.729	17.24
245.946	37.72
246.163	47.96
246.38	23.38
246.597	66.39
246.814	45.91
247.031	105.3
247.248	88.92
247.464	29.52
247.681	15.19
247.898	0.85
248.115	52.05
248.332	66.39
248.549	-29.87
248.766	72.53
248.983	-1.19
249.2	35.67
249.417	35.67
249.633	35.67
249.85	-27.82
250.067	-23.72
250.284	60.24
250.501	23.38
250.717	117.59
250.934	27.48
251.151	-17.58
251.368	-3.24
251.585	66.39
251.801	15.19
252.018	58.2
252.235	66.39
252.451	-21.67
252.668	-52.39
252.885	-11.43
253.102	-5.29
253.318	90.96
253.535	9.05
253.752	-44.2
253.968	41.81
254.185	111.44
254.401	-64.68
254.618	21.33
254.835	-17.58
255.051	66.39
255.268	33.62
255.484	37.72
255.701	13.14
255.917	86.87
256.134	25.43
256.351	54.1
256.567	17.24
256.784	11.09
257	-3.24
257.217	52.05
257.433	15.19
257.65	15.19
257.866	4.95
258.082	-11.43
258.299	29.52
258.515	4.95
258.732	39.76
258.948	17.24
259.165	39.76
259.381	76.63
259.597	37.72
259.814	0.85
260.03	-36.01
260.246	45.91
260.463	31.57
260.679	-52.39
260.895	33.62
261.112	-5.29
261.328	50
261.544	-13.48
261.761	33.62
261.977	11.09
262.193	-3.24
262.409	121.68
262.626	95.06
262.842	35.67
263.058	15.19
263.274	58.2
263.49	-5.29
263.707	47.96
263.923	58.2
264.139	25.43
264.355	43.86
264.571	-21.67
264.787	97.11
265.004	15.19
265.22	37.72
265.436	9.05
265.652	37.72
265.868	82.77
266.084	56.15
266.3	37.72
266.516	17.24
266.732	70.48
266.948	43.86
267.164	93.01
267.38	-7.34
267.596	54.1
267.812	76.63
268.028	13.14
268.244	29.52
268.46	66.39
268.676	76.63
268.892	47.96
269.108	15.19
269.324	-1.19
269.54	68.44
269.756	66.39
269.972	-54.44
270.188	29.52
270.403	41.81
270.619	43.86
270.835	70.48
271.051	39.76
271.267	-54.44
271.483	-27.82
271.698	27.48
271.914	58.2
272.13	37.72
272.346	9.05
272.562	11.09
272.777	103.25
272.993	23.38
273.209	-52.39
273.425	27.48
273.64	39.76
273.856	-13.48
274.072	21.33
274.287	29.52
274.503	11.09
274.719	54.1
274.934	17.24
275.15	13.14
275.366	50
275.581	-83.11
275.797	-36.01
276.012	21.33
276.228	-15.53
276.444	-23.72
276.659	56.15
276.875	37.72
277.09	0.85
277.306	-42.15
277.521	-21.67
277.737	39.76
277.952	-33.96
278.168	-13.48
278.383	-7.34
278.599	-5.29
278.814	88.92
279.03	-23.72
279.245	19.29
279.461	41.81
279.676	47.96
279.892	-23.72
280.107	27.48
280.322	-46.25
280.538	-27.82
280.753	-21.67
280.969	21.33
281.184	-54.44
281.399	39.76
281.615	47.96
281.83	31.57
282.045	54.1
282.26	31.57
282.476	62.29
282.691	13.14
282.906	15.19
283.122	133.97
283.337	9.05
283.552	60.24
283.767	-9.39
283.983	-1.19
284.198	25.43
284.413	-5.29
284.628	-19.63
284.843	-21.67
285.058	-52.39
285.274	64.34
285.489	58.2
285.704	-21.67
285.919	23.38
286.134	13.14
286.349	-36.01
286.564	23.38
286.779	64.34
286.995	131.92
287.21	39.76
287.425	66.39
287.64	41.81
287.855	45.91
288.07	35.67
288.285	109.4
288.5	23.38
288.715	-3.24
288.93	-5.29
289.145	39.76
289.36	19.29
289.575	35.67
289.79	66.39
290.004	41.81
290.219	99.16
290.434	72.53
290.649	4.95
290.864	56.15
291.079	17.24
291.294	68.44
291.509	19.29
291.724	21.33
291.938	-3.24
292.153	70.48
292.368	-13.48
292.583	-31.91
292.798	-29.87
293.012	25.43
293.227	21.33
293.442	-3.24
293.657	66.39
293.871	54.1
294.086	-29.87
294.301	136.02
294.516	17.24
294.73	11.09
294.945	56.15
295.16	-9.39
295.374	60.24
295.589	101.2
295.804	95.06
296.018	-50.35
296.233	45.91
296.447	-19.63
296.662	15.19
296.877	25.43
297.091	-36.01
297.306	25.43
297.52	4.95
297.735	27.48
297.949	-1.19
298.164	64.34
298.378	11.09
298.593	33.62
298.807	80.72
299.022	17.24
299.236	47.96
299.451	84.82
299.665	52.05
299.88	4.95
300.094	-17.58
300.309	111.44
300.523	50
300.737	15.19
300.952	60.24
301.166	-19.63
301.381	4.95
301.595	-36.01
301.809	45.91
302.024	7
302.238	-1.19
302.452	41.81
302.667	68.44
302.881	78.68
303.095	-11.43
303.309	-31.91
303.524	4.95
303.738	33.62
303.952	-25.77
304.166	21.33
304.381	-33.96
304.595	99.16
304.809	86.87
305.023	58.2
305.237	43.86
305.452	39.76
305.666	47.96
305.88	68.44
306.094	54.1
306.308	76.63
306.522	45.91
306.736	54.1
306.95	0.85
307.164	41.81
307.379	62.29
307.593	47.96
307.807	82.77
308.021	41.81
308.235	74.58
308.449	58.2
308.663	17.24
308.877	33.62
309.091	21.33
309.305	113.49
309.519	86.87
309.733	74.58
309.947	56.15
310.161	23.38
310.374	41.81
310.588	84.82
310.802	13.14
311.016	82.77
311.23	97.11
311.444	19.29
311.658	74.58
311.872	21.33
312.085	35.67
312.299	21.33
312.513	56.15
312.727	-44.2
312.941	33.62
313.154	37.72
313.368	9.05
313.582	15.19
313.796	-31.91
314.009	58.2
314.223	29.52
314.437	39.76
314.651	62.29
314.864	-15.53
315.078	29.52
315.292	-31.91
315.505	-46.25
315.719	82.77
315.933	84.82
316.146	-13.48
316.36	-9.39
316.573	54.1
316.787	-56.49
317.001	39.76
317.214	-15.53
317.428	37.72
317.641	80.72
317.855	33.62
318.068	56.15
318.282	33.62
318.495	82.77
318.709	37.72
318.922	47.96
319.136	60.24
319.349	19.29
319.563	97.11
319.776	23.38
319.99	37.72
320.203	9.05
320.417	13.14
320.63	15.19
320.843	123.73
321.057	60.24
321.27	-40.11
321.483	74.58
321.697	101.2
321.91	72.53
322.124	13.14
322.337	-17.58
322.55	52.05
322.763	31.57
322.977	19.29
323.19	2.9
323.403	-11.43
323.617	90.96
323.83	70.48
324.043	9.05
324.256	27.48
324.469	-17.58
324.683	68.44
324.896	21.33
325.109	88.92
325.322	-15.53
325.535	129.88
325.748	58.2
325.962	4.95
326.175	43.86
326.388	113.49
326.601	82.77
326.814	21.33
327.027	19.29
327.24	56.15
327.453	64.34
327.666	23.38
327.879	21.33
328.092	80.72
328.305	117.59
328.518	31.57
328.731	29.52
328.944	37.72
329.157	37.72
329.37	19.29
329.583	78.68
329.796	95.06
330.009	29.52
330.222	78.68
330.435	29.52
330.648	82.77
330.861	-15.53
331.073	58.2
331.286	76.63
331.499	76.63
331.712	84.82
331.925	29.52
332.138	35.67
332.35	50
332.563	-21.67
332.776	4.95
332.989	-44.2
333.202	43.86
333.414	39.76
333.627	-17.58
333.84	78.68
334.053	31.57
334.265	-21.67
334.478	50
334.691	31.57
334.903	76.63
335.116	11.09
335.329	39.76
335.541	4.95
335.754	68.44
335.966	45.91
336.179	-5.29
336.392	47.96
336.604	-27.82
336.817	25.43
337.029	37.72
337.242	25.43
337.454	76.63
337.667	4.95
337.88	37.72
338.092	-62.63
338.305	21.33
338.517	-33.96
338.729	68.44
338.942	66.39
339.154	-66.73
339.367	-38.06
339.579	72.53
339.792	-9.39
340.004	29.52
340.217	25.43
340.429	2.9
340.641	35.67
340.854	60.24
341.066	39.76
341.278	33.62
341.491	115.54
341.703	60.24
341.915	-38.06
342.128	4.95
342.34	-7.34
342.552	23.38
342.764	-3.24
342.977	-48.3
343.189	41.81
343.401	-9.39
343.613	4.95
343.826	27.48
344.038	15.19
344.25	0.85
344.462	-15.53
344.674	-42.15
344.886	21.33
345.099	84.82
345.311	64.34
345.523	64.34
345.735	-9.39
345.947	27.48
346.159	-25.77
346.371	78.68
346.583	9.05
346.795	58.2
347.007	2.9
347.219	-31.91
347.431	13.14
347.643	41.81
347.855	84.82
348.067	86.87
348.279	2.9
348.491	58.2
348.703	7
348.915	64.34
349.127	0.85
349.339	37.72
349.551	95.06
349.763	23.38
349.975	13.14
350.187	33.62
350.399	76.63
350.61	41.81
350.822	25.43
351.034	33.62
351.246	7
351.458	39.76
351.669	45.91
351.881	76.63
352.093	21.33
352.305	47.96
352.517	11.09
352.728	33.62
352.94	111.44
353.152	19.29
353.363	4.95
353.575	41.81
353.787	37.72
353.999	33.62
354.21	7
354.422	27.48
354.633	-15.53
354.845	-36.01
355.057	68.44
355.268	27.48
355.48	43.86
355.692	64.34
355.903	29.52
356.115	58.2
356.326	4.95
356.538	66.39
356.749	70.48
356.961	17.24
357.172	45.91
357.384	0.85
357.595	66.39
357.807	-15.53
358.018	9.05
358.23	17.24
358.441	93.01
358.653	76.63
358.864	11.09
359.075	23.38
359.287	19.29
359.498	15.19
359.709	-15.53
359.921	-17.58
360.132	29.52
360.344	127.83
360.555	33.62
360.766	68.44
360.977	-7.34
361.189	62.29
361.4	88.92
361.611	52.05
361.823	4.95
362.034	47.96
362.245	-68.78
362.456	76.63
362.667	68.44
362.879	62.29
363.09	68.44
363.301	-11.43
363.512	72.53
363.723	58.2
363.935	103.25
364.146	113.49
364.357	-27.82
364.568	-21.67
364.779	23.38
364.99	52.05
365.201	-9.39
365.412	78.68
365.623	7
365.834	72.53
366.045	70.48
366.256	11.09
366.467	43.86
366.678	7
366.889	4.95
367.1	50
367.311	15.19
367.522	-58.54
367.733	19.29
367.944	60.24
368.155	54.1
368.366	58.2
368.577	78.68
368.788	66.39
368.999	25.43
369.209	52.05
369.42	86.87
369.631	66.39
369.842	109.4
370.053	-29.87
370.264	41.81
370.474	-11.43
370.685	17.24
370.896	-9.39
371.107	-17.58
371.317	82.77
371.528	23.38
371.739	11.09
371.95	-44.2
372.16	37.72
372.371	15.19
372.582	103.25
372.792	78.68
373.003	43.86
373.214	66.39
373.424	54.1
373.635	-21.67
373.846	80.72
374.056	27.48
374.267	60.24
374.477	70.48
374.688	0.85
374.898	25.43
375.109	15.19
375.319	-9.39
375.53	29.52
375.74	76.63
375.951	62.29
376.161	-9.39
376.372	62.29
376.582	13.14
376.793	13.14
377.003	41.81
377.214	-3.24
377.424	93.01
377.635	-3.24
377.845	15.19
378.055	39.76
378.266	43.86
378.476	31.57
378.686	62.29
378.897	50
379.107	54.1
379.317	62.29
379.528	72.53
379.738	99.16
379.948	62.29
380.158	64.34
380.369	101.2
380.579	113.49
380.789	37.72
380.999	56.15
381.21	-1.19
381.42	82.77
381.63	25.43
381.84	43.86
382.05	66.39
382.261	29.52
382.471	27.48
382.681	45.91
382.891	60.24
383.101	70.48
383.311	62.29
383.521	82.77
383.731	-13.48
383.941	27.48
384.151	33.62
384.361	41.81
384.571	-7.34
384.781	64.34
384.991	41.81
385.201	144.21
385.411	70.48
385.621	117.59
385.831	90.96
386.041	74.58
386.251	35.67
386.461	129.88
386.671	31.57
386.881	64.34
387.091	-33.96
387.301	56.15
387.511	13.14
387.72	21.33
387.93	115.54
388.14	21.33
388.35	97.11
388.56	93.01
388.769	23.38
388.979	-1.19
389.189	80.72
389.399	111.44
389.609	129.88
389.818	56.15
390.028	33.62
390.238	47.96
390.447	35.67
390.657	123.73
390.867	93.01
391.076	27.48
391.286	105.3
391.496	29.52
391.705	43.86
391.915	70.48
392.125	31.57
392.334	119.64
392.544	66.39
392.753	23.38
392.963	50
393.172	76.63
393.382	37.72
393.591	125.78
393.801	95.06
394.01	105.3
394.22	142.16
394.429	47.96
394.639	9.05
394.848	27.48
395.058	68.44
395.267	105.3
395.477	72.53
395.686	21.33
395.895	33.62
396.105	107.35
396.314	39.76
396.524	7
396.733	70.48
396.942	15.19
397.152	41.81
397.361	56.15
397.57	109.4
397.78	13.14
397.989	144.21
398.198	138.07
398.407	97.11
398.617	117.59
398.826	68.44
399.035	86.87
399.244	136.02
399.453	19.29
399.663	31.57
399.872	70.48
400.081	62.29
400.29	115.54
400.499	140.12
400.708	148.31
400.917	82.77
401.127	66.39
401.336	90.96
401.545	111.44
401.754	127.83
401.963	93.01
402.172	127.83
402.381	121.68
402.59	37.72
402.799	115.54
403.008	111.44
403.217	148.31
403.426	52.05
403.635	140.12
403.844	50
404.053	154.45
404.262	107.35
404.471	123.73
404.68	162.64
404.888	121.68
405.097	121.68
405.306	45.91
405.515	181.07
405.724	191.31
405.933	160.59
406.142	179.03
406.35	144.21
406.559	109.4
406.768	158.55
406.977	193.36
407.185	152.4
407.394	183.12
407.603	158.55
407.812	189.27
408.02	230.23
408.229	140.12
408.438	158.55
408.646	174.93
408.855	201.55
409.064	172.88
409.272	269.14
409.481	197.46
409.69	226.13
409.898	238.42
410.107	166.74
410.315	242.51
410.524	232.27
410.733	271.19
410.941	308.05
411.15	338.77
411.358	371.54
411.567	381.78
411.775	312.14
411.984	310.1
412.192	291.66
412.401	301.9
412.609	394.06
412.818	475.98
413.026	373.58
413.234	478.03
413.443	451.41
413.651	291.66
413.86	469.84
414.068	471.89
414.276	500.56
414.485	525.13
414.693	508.75
414.901	553.8
415.11	506.7
415.318	574.28
415.526	594.76
415.734	596.81
415.943	584.52
416.151	611.15
416.359	686.92
416.567	662.35
416.776	707.4
416.984	729.93
417.192	795.47
417.4	713.55
417.608	779.08
417.817	826.18
418.025	830.28
418.233	959.3
418.441	799.56
418.649	934.73
418.857	1000.26
419.065	1039.17
419.273	973.64
419.481	1045.32
419.689	1256.26
419.897	1192.77
420.105	1143.62
420.313	1270.59
420.521	1256.26
420.729	1278.79
420.937	1332.03
421.145	1366.85
421.353	1438.53
421.561	1528.64
421.769	1569.6
421.977	1639.23
422.185	1545.02
422.393	1700.67
422.601	1809.21
422.809	1846.07
423.017	1764.15
423.224	1956.66
423.432	1938.23
423.64	1966.9
423.848	2208.56
424.056	1968.95
424.263	2210.61
424.471	2296.63
424.679	2376.5
424.887	2368.31
425.094	2417.46
425.302	2478.9
425.51	2515.76
425.718	2603.82
425.925	2669.36
426.133	2732.84
426.341	3011.37
426.548	3060.52
426.756	2919.21
426.964	3134.25
427.171	3285.8
427.379	3451.68
427.586	3453.73
427.794	3466.02
428.001	3681.05
428.209	3783.45
428.417	3758.88
428.624	4004.63
428.832	4094.74
429.039	4074.26
429.247	3965.72
429.454	4571.92
429.662	4657.93
429.869	4412.18
430.076	4719.37
430.284	4631.31
430.491	4903.69
430.699	5057.29
430.906	4842.25
431.114	5085.96
431.321	5464.83
431.528	5536.51
431.736	5710.59
431.943	5999.35
432.15	5694.21
432.358	5919.48
432.565	6111.99
432.772	6296.31
432.979	6560.5
433.187	6609.65
433.394	6648.56
433.601	7105.26
433.808	7187.18
434.016	7095.02
434.223	7559.91
434.43	7922.4
434.637	7729.89
434.844	7965.4
435.052	8477.4
435.259	8250.07
435.466	8467.16
435.673	8155.86
435.88	8833.74
436.087	9302.73
436.294	9333.45
436.501	9208.52
436.708	9329.35
436.915	9685.7
437.122	9913.02
437.329	9941.69
437.537	10429.11
437.743	10472.12
437.95	10298.04
438.157	10894
438.364	11305.64
438.571	11342.5
438.778	11264.68
438.985	12745.36
439.192	11983.52
439.399	12278.43
439.606	12204.7
439.813	12685.97
440.02	13632.13
440.227	13333.13
440.433	13220.49
440.64	13705.86
440.847	13488.78
441.054	13826.69
441.261	14600.82
441.467	14346.87
441.674	15092.34
441.881	15446.63
442.088	15295.08
442.294	15190.64
442.501	15645.29
442.708	16067.17
442.914	16382.56
443.121	17226.32
443.328	16677.46
443.534	18008.64
443.741	17513.03
443.948	17582.67
444.154	18747.96
444.361	18260.54
444.568	18487.87
444.774	18514.49
444.981	18745.91
445.187	19380.78
445.394	20107.81
445.6	19671.59
445.807	22018.57
446.013	20744.73
446.22	21176.85
446.426	22161.92
446.633	22112.77
446.839	22913.53
447.046	22032.9
447.252	23417.33
447.459	23575.02
447.665	23323.12
447.871	24312.29
448.078	24738.27
448.284	23937.51
448.491	24824.28
448.697	25627.09
448.903	26288.58
449.11	26071.5
449.316	25842.12
449.522	26259.91
449.728	26827.2
449.935	27208.12
450.141	26632.64
450.347	27836.84
450.553	26671.55
450.76	27263.41
450.966	27974.06
451.172	27404.72
451.378	28252.58
451.584	27650.48
451.791	28672.42
451.997	28453.28
452.203	28762.53
452.409	28649.89
452.615	28649.89
452.821	27345.33
453.027	27189.69
453.233	28770.72
453.44	27560.37
453.646	27804.08
453.852	28148.14
454.058	28049.83
454.264	27523.51
454.47	28021.16
454.676	27386.29
454.882	28264.87
455.088	25977.29
455.294	26200.52
455.5	26642.88
455.705	26821.05
455.911	25801.16
456.117	25338.32
456.323	24861.15
456.529	23632.36
456.735	24603.1
456.941	23919.08
457.147	23271.92
457.352	22729.21
457.558	22419.97
457.764	22465.02
457.97	22254.08
458.176	21473.81
458.381	21508.62
458.587	20736.54
458.793	20720.15
458.999	19665.45
459.204	20972.05
459.41	20118.05
459.616	18967.09
459.821	19055.15
460.027	18727.48
460.233	18696.76
460.438	17601.1
460.644	17914.44
460.85	17138.26
461.055	16888.4
461.261	16673.37
461.466	15407.72
461.672	15049.33
461.878	16241.25
462.083	15133.29
462.289	14676.6
462.494	14637.69
462.7	14107.26
462.905	13830.79
463.111	14160.51
463.316	14029.44
463.522	13900.42
463.727	14002.82
463.932	13841.03
464.138	13773.44
464.343	13437.58
464.549	13453.96
464.754	13886.08
464.959	13812.35
465.165	13728.39
465.37	13107.85
465.575	12755.6
465.781	13314.7
465.986	13193.87
466.191	12829.33
466.397	12477.08
466.602	12071.58
466.807	12573.33
467.012	12419.74
467.218	12239.51
467.423	12083.87
467.628	12403.35
467.833	12835.47
468.038	12333.72
