Data from USB4F104151__270__11-12-06-746.txt Node

Date: Wed Mar 12 11:12:06 EDT 2025
User: louis
Spectrometer: USB4F10415
Trigger mode: 4
Integration Time (sec): 2.000000E-2
Scans to average: 1
Electric dark correction enabled: true
Nonlinearity correction enabled: false
Boxcar width: 0
XAxis mode: Wavelengths
Number of Pixels in Spectrum: 3648
>>>>>Begin Spectral Data<<<<<
178.204	-56.83
178.424	-56.83
178.644	-56.83
178.864	-60.93
179.084	-48.64
179.304	-5.63
179.524	-22.02
179.744	33.28
179.964	96.77
180.184	-126.46
180.404	72.19
180.624	-30.21
180.844	55.81
181.064	-24.06
181.283	6.66
181.503	10.75
181.723	-67.07
181.943	-89.6
182.163	-11.78
182.383	27.14
182.602	35.33
182.822	-32.26
183.042	47.62
183.262	-1.54
183.482	64
183.701	-24.06
183.921	-19.97
184.141	-5.63
184.361	2.56
184.58	-5.63
184.8	27.14
185.02	10.75
185.239	8.7
185.459	-36.35
185.679	43.52
185.898	-52.74
186.118	0.51
186.338	45.57
186.557	49.66
186.777	61.95
186.997	-9.73
187.216	-44.54
187.436	27.14
187.655	8.7
187.875	-7.68
188.095	31.23
188.314	74.24
188.534	55.81
188.753	-11.78
188.973	29.18
189.192	47.62
189.412	-67.07
189.631	-28.16
189.851	-30.21
190.07	27.14
190.29	18.94
190.509	4.61
190.729	12.8
190.948	8.7
191.168	102.91
191.387	78.33
191.607	-3.58
191.826	6.66
192.045	10.75
192.265	23.04
192.484	-24.06
192.704	39.42
192.923	45.57
193.142	102.91
193.362	-30.21
193.581	84.48
193.8	-15.87
194.02	-7.68
194.239	84.48
194.458	14.85
194.678	16.9
194.897	-3.58
195.116	-22.02
195.335	25.09
195.555	10.75
195.774	64
195.993	66.05
196.212	27.14
196.432	35.33
196.651	18.94
196.87	20.99
197.089	135.68
197.308	0.51
197.528	29.18
197.747	-1.54
197.966	-22.02
198.185	16.9
198.404	10.75
198.623	-11.78
198.842	-1.54
199.062	78.33
199.281	27.14
199.5	20.99
199.719	51.71
199.938	43.52
200.157	41.47
200.376	-26.11
200.595	119.29
200.814	-58.88
201.033	-13.82
201.252	-11.78
201.471	43.52
201.69	-13.82
201.909	23.04
202.128	31.23
202.347	68.09
202.566	-1.54
202.785	12.8
203.004	23.04
203.223	53.76
203.442	-3.58
203.661	-22.02
203.879	-79.36
204.098	-24.06
204.317	-22.02
204.536	84.48
204.755	12.8
204.974	41.47
205.193	-17.92
205.411	47.62
205.63	33.28
205.849	64
206.068	-38.4
206.287	31.23
206.505	43.52
206.724	-54.78
206.943	-9.73
207.162	90.62
207.381	8.7
207.599	0.51
207.818	-7.68
208.037	-15.87
208.255	20.99
208.474	76.29
208.693	27.14
208.911	-36.35
209.13	25.09
209.349	12.8
209.567	14.85
209.786	147.97
210.005	82.43
210.223	94.72
210.442	8.7
210.661	-7.68
210.879	43.52
211.098	-11.78
211.316	12.8
211.535	18.94
211.753	-42.5
211.972	39.42
212.191	92.67
212.409	37.38
212.628	12.8
212.846	-7.68
213.065	66.05
213.283	29.18
213.502	14.85
213.72	23.04
213.938	-42.5
214.157	25.09
214.375	47.62
214.594	-1.54
214.812	23.04
215.031	43.52
215.249	10.75
215.467	55.81
215.686	-38.4
215.904	72.19
216.122	-46.59
216.341	18.94
216.559	25.09
216.778	12.8
216.996	84.48
217.214	39.42
217.432	0.51
217.651	8.7
217.869	8.7
218.087	80.38
218.306	18.94
218.524	39.42
218.742	8.7
218.96	43.52
219.179	-38.4
219.397	-46.59
219.615	39.42
219.833	-24.06
220.051	-38.4
220.27	55.81
220.488	37.38
220.706	4.61
220.924	27.14
221.142	23.04
221.36	8.7
221.578	27.14
221.796	-42.5
222.015	18.94
222.233	-32.26
222.451	49.66
222.669	47.62
222.887	20.99
223.105	35.33
223.323	18.94
223.541	29.18
223.759	68.09
223.977	-46.59
224.195	35.33
224.413	59.9
224.631	25.09
224.849	31.23
225.067	4.61
225.285	37.38
225.503	27.14
225.721	64
225.939	47.62
226.157	35.33
226.375	96.77
226.592	-67.07
226.81	-7.68
227.028	43.52
227.246	82.43
227.464	-28.16
227.682	57.86
227.9	6.66
228.117	25.09
228.335	-1.54
228.553	8.7
228.771	-5.63
228.989	-26.11
229.206	-30.21
229.424	31.23
229.642	-5.63
229.86	49.66
230.077	-5.63
230.295	0.51
230.513	4.61
230.731	125.44
230.948	154.11
231.166	57.86
231.384	-40.45
231.601	33.28
231.819	23.04
232.037	2.56
232.254	-67.07
232.472	47.62
232.689	8.7
232.907	14.85
233.125	23.04
233.342	90.62
233.56	-13.82
233.777	43.52
233.995	59.9
234.213	111.1
234.43	-1.54
234.648	-34.3
234.865	57.86
235.083	8.7
235.3	57.86
235.518	16.9
235.735	51.71
235.953	41.47
236.17	55.81
236.388	86.53
236.605	2.56
236.822	10.75
237.04	-30.21
237.257	-42.5
237.475	-13.82
237.692	20.99
237.909	-5.63
238.127	-15.87
238.344	-24.06
238.562	16.9
238.779	35.33
238.996	53.76
239.214	94.72
239.431	27.14
239.648	-13.82
239.865	27.14
240.083	23.04
240.3	-1.54
240.517	4.61
240.735	-32.26
240.952	33.28
241.169	18.94
241.386	23.04
241.603	72.19
241.821	-22.02
242.038	53.76
242.255	-56.83
242.472	-48.64
242.689	70.14
242.907	29.18
243.124	-58.88
243.341	-9.73
243.558	33.28
243.775	23.04
243.992	55.81
244.209	6.66
244.426	59.9
244.643	78.33
244.86	33.28
245.078	10.75
245.295	-24.06
245.512	2.56
245.729	-13.82
245.946	33.28
246.163	-9.73
246.38	57.86
246.597	33.28
246.814	-5.63
247.031	10.75
247.248	72.19
247.464	18.94
247.681	0.51
247.898	-13.82
248.115	-24.06
248.332	18.94
248.549	23.04
248.766	4.61
248.983	-42.5
249.2	43.52
249.417	-44.54
249.633	-17.92
249.85	18.94
250.067	51.71
250.284	27.14
250.501	-9.73
250.717	84.48
250.934	-52.74
251.151	-11.78
251.368	23.04
251.585	6.66
251.801	20.99
252.018	0.51
252.235	4.61
252.451	8.7
252.668	-108.03
252.885	104.96
253.102	-1.54
253.318	74.24
253.535	8.7
253.752	16.9
253.968	49.66
254.185	18.94
254.401	25.09
254.618	68.09
254.835	-19.97
255.051	8.7
255.268	51.71
255.484	57.86
255.701	61.95
255.917	35.33
256.134	8.7
256.351	8.7
256.567	27.14
256.784	64
257	12.8
257.217	8.7
257.433	43.52
257.65	-40.45
257.866	74.24
258.082	-1.54
258.299	12.8
258.515	35.33
258.732	-38.4
258.948	-19.97
259.165	51.71
259.381	96.77
259.597	14.85
259.814	-5.63
260.03	43.52
260.246	10.75
260.463	41.47
260.679	-17.92
260.895	-42.5
261.112	43.52
261.328	-75.26
261.544	47.62
261.761	82.43
261.977	-1.54
262.193	59.9
262.409	27.14
262.626	33.28
262.842	4.61
263.058	14.85
263.274	33.28
263.49	41.47
263.707	68.09
263.923	-58.88
264.139	14.85
264.355	37.38
264.571	0.51
264.787	23.04
265.004	-15.87
265.22	27.14
265.436	70.14
265.652	-36.35
265.868	102.91
266.084	64
266.3	18.94
266.516	-9.73
266.732	27.14
266.948	14.85
267.164	-28.16
267.38	57.86
267.596	33.28
267.812	53.76
268.028	45.57
268.244	-30.21
268.46	-44.54
268.676	23.04
268.892	57.86
269.108	49.66
269.324	-69.12
269.54	35.33
269.756	4.61
269.972	8.7
270.188	41.47
270.403	10.75
270.619	20.99
270.835	-34.3
271.051	29.18
271.267	-19.97
271.483	14.85
271.698	82.43
271.914	33.28
272.13	-1.54
272.346	33.28
272.562	68.09
272.777	25.09
272.993	8.7
273.209	37.38
273.425	104.96
273.64	61.95
273.856	-24.06
274.072	-36.35
274.287	-1.54
274.503	10.75
274.719	0.51
274.934	-9.73
275.15	-42.5
275.366	-34.3
275.581	35.33
275.797	53.76
276.012	2.56
276.228	20.99
276.444	-5.63
276.659	66.05
276.875	-40.45
277.09	20.99
277.306	76.29
277.521	45.57
277.737	-11.78
277.952	-7.68
278.168	55.81
278.383	2.56
278.599	-13.82
278.814	39.42
279.03	35.33
279.245	47.62
279.461	18.94
279.676	29.18
279.892	98.81
280.107	16.9
280.322	-5.63
280.538	18.94
280.753	0.51
280.969	51.71
281.184	41.47
281.399	61.95
281.615	35.33
281.83	10.75
282.045	64
282.26	-77.31
282.476	68.09
282.691	68.09
282.906	49.66
283.122	84.48
283.337	23.04
283.552	-7.68
283.767	0.51
283.983	68.09
284.198	29.18
284.413	-34.3
284.628	35.33
284.843	20.99
285.058	31.23
285.274	16.9
285.489	33.28
285.704	74.24
285.919	25.09
286.134	76.29
286.349	14.85
286.564	47.62
286.779	111.1
286.995	-56.83
287.21	-1.54
287.425	92.67
287.64	-9.73
287.855	53.76
288.07	-3.58
288.285	10.75
288.5	16.9
288.715	45.57
288.93	47.62
289.145	25.09
289.36	8.7
289.575	61.95
289.79	64
290.004	8.7
290.219	8.7
290.434	31.23
290.649	-48.64
290.864	18.94
291.079	35.33
291.294	-34.3
291.509	6.66
291.724	68.09
291.938	-79.36
292.153	39.42
292.368	47.62
292.583	12.8
292.798	53.76
293.012	-42.5
293.227	14.85
293.442	6.66
293.657	10.75
293.871	59.9
294.086	53.76
294.301	53.76
294.516	82.43
294.73	49.66
294.945	29.18
295.16	90.62
295.374	33.28
295.589	43.52
295.804	35.33
296.018	55.81
296.233	80.38
296.447	25.09
296.662	53.76
296.877	2.56
297.091	31.23
297.306	-11.78
297.52	64
297.735	6.66
297.949	14.85
298.164	16.9
298.378	-26.11
298.593	33.28
298.807	-32.26
299.022	55.81
299.236	51.71
299.451	18.94
299.665	14.85
299.88	25.09
300.094	57.86
300.309	2.56
300.523	27.14
300.737	-28.16
300.952	-17.92
301.166	2.56
301.381	39.42
301.595	-26.11
301.809	61.95
302.024	53.76
302.238	-48.64
302.452	12.8
302.667	0.51
302.881	-3.58
303.095	49.66
303.309	59.9
303.524	16.9
303.738	61.95
303.952	14.85
304.166	43.52
304.381	-32.26
304.595	74.24
304.809	8.7
305.023	14.85
305.237	10.75
305.452	25.09
305.666	0.51
305.88	-22.02
306.094	16.9
306.308	-11.78
306.522	33.28
306.736	27.14
306.95	72.19
307.164	-19.97
307.379	29.18
307.593	64
307.807	68.09
308.021	59.9
308.235	-22.02
308.449	41.47
308.663	2.56
308.877	121.34
309.091	39.42
309.305	86.53
309.519	-24.06
309.733	78.33
309.947	-26.11
310.161	70.14
310.374	84.48
310.588	49.66
310.802	-19.97
311.016	16.9
311.23	57.86
311.444	16.9
311.658	66.05
311.872	-15.87
312.085	-19.97
312.299	-1.54
312.513	59.9
312.727	102.91
312.941	-38.4
313.154	39.42
313.368	49.66
313.582	-42.5
313.796	-5.63
314.009	82.43
314.223	16.9
314.437	39.42
314.651	35.33
314.864	29.18
315.078	-30.21
315.292	25.09
315.505	37.38
315.719	98.81
315.933	-52.74
316.146	14.85
316.36	-44.54
316.573	23.04
316.787	35.33
317.001	53.76
317.214	12.8
317.428	-13.82
317.641	10.75
317.855	29.18
318.068	-3.58
318.282	16.9
318.495	92.67
318.709	-67.07
318.922	16.9
319.136	72.19
319.349	16.9
319.563	-1.54
319.776	33.28
319.99	51.71
320.203	25.09
320.417	-15.87
320.63	29.18
320.843	-15.87
321.057	61.95
321.27	29.18
321.483	57.86
321.697	23.04
321.91	55.81
322.124	78.33
322.337	-15.87
322.55	10.75
322.763	59.9
322.977	-22.02
323.19	14.85
323.403	-5.63
323.617	68.09
323.83	78.33
324.043	12.8
324.256	49.66
324.469	39.42
324.683	139.77
324.896	2.56
325.109	27.14
325.322	80.38
325.535	78.33
325.748	53.76
325.962	-15.87
326.175	0.51
326.388	68.09
326.601	16.9
326.814	14.85
327.027	-24.06
327.24	78.33
327.453	-5.63
327.666	25.09
327.879	10.75
328.092	72.19
328.305	14.85
328.518	-13.82
328.731	55.81
328.944	90.62
329.157	70.14
329.37	53.76
329.583	-5.63
329.796	133.63
330.009	10.75
330.222	47.62
330.435	27.14
330.648	-13.82
330.861	35.33
331.073	-15.87
331.286	76.29
331.499	37.38
331.712	-9.73
331.925	53.76
332.138	-5.63
332.35	59.9
332.563	53.76
332.776	104.96
332.989	-73.21
333.202	10.75
333.414	-13.82
333.627	41.47
333.84	49.66
334.053	-19.97
334.265	10.75
334.478	88.57
334.691	31.23
334.903	84.48
335.116	-13.82
335.329	4.61
335.541	-17.92
335.754	16.9
335.966	25.09
336.179	-30.21
336.392	88.57
336.604	43.52
336.817	33.28
337.029	31.23
337.242	68.09
337.454	18.94
337.667	51.71
337.88	168.45
338.092	6.66
338.305	-7.68
338.517	37.38
338.729	55.81
338.942	27.14
339.154	55.81
339.367	23.04
339.579	-1.54
339.792	37.38
340.004	57.86
340.217	55.81
340.429	61.95
340.641	0.51
340.854	59.9
341.066	-9.73
341.278	53.76
341.491	18.94
341.703	39.42
341.915	10.75
342.128	119.29
342.34	-24.06
342.552	39.42
342.764	25.09
342.977	29.18
343.189	49.66
343.401	137.73
343.613	-36.35
343.826	-11.78
344.038	10.75
344.25	66.05
344.462	-89.6
344.674	55.81
344.886	33.28
345.099	98.81
345.311	70.14
345.523	-11.78
345.735	64
345.947	84.48
346.159	-15.87
346.371	39.42
346.583	84.48
346.795	102.91
347.007	-56.83
347.219	78.33
347.431	80.38
347.643	-15.87
347.855	6.66
348.067	82.43
348.279	-22.02
348.491	16.9
348.703	12.8
348.915	43.52
349.127	-17.92
349.339	51.71
349.551	0.51
349.763	-15.87
349.975	2.56
350.187	68.09
350.399	137.73
350.61	37.38
350.822	-15.87
351.034	-3.58
351.246	117.25
351.458	-1.54
351.669	20.99
351.881	68.09
352.093	18.94
352.305	49.66
352.517	-3.58
352.728	80.38
352.94	84.48
353.152	18.94
353.363	-40.45
353.575	-1.54
353.787	43.52
353.999	59.9
354.21	29.18
354.422	49.66
354.633	-26.11
354.845	6.66
355.057	45.57
355.268	57.86
355.48	4.61
355.692	-112.13
355.903	14.85
356.115	12.8
356.326	-46.59
356.538	23.04
356.749	6.66
356.961	98.81
357.172	78.33
357.384	-62.98
357.595	25.09
357.807	68.09
358.018	35.33
358.23	10.75
358.441	100.86
358.653	70.14
358.864	29.18
359.075	27.14
359.287	49.66
359.498	78.33
359.709	-13.82
359.921	4.61
360.132	-19.97
360.344	12.8
360.555	37.38
360.766	10.75
360.977	82.43
361.189	47.62
361.4	41.47
361.611	92.67
361.823	31.23
362.034	33.28
362.245	18.94
362.456	98.81
362.667	-3.58
362.879	96.77
363.09	37.38
363.301	31.23
363.512	66.05
363.723	41.47
363.935	57.86
364.146	80.38
364.357	-52.74
364.568	86.53
364.779	-77.31
364.99	100.86
365.201	33.28
365.412	10.75
365.623	-5.63
365.834	86.53
366.045	64
366.256	117.25
366.467	2.56
366.678	66.05
366.889	23.04
367.1	115.2
367.311	72.19
367.522	-26.11
367.733	23.04
367.944	10.75
368.155	16.9
368.366	31.23
368.577	33.28
368.788	64
368.999	59.9
369.209	90.62
369.42	33.28
369.631	43.52
369.842	35.33
370.053	4.61
370.264	51.71
370.474	-3.58
370.685	18.94
370.896	82.43
371.107	14.85
371.317	94.72
371.528	37.38
371.739	-11.78
371.95	37.38
372.16	39.42
372.371	8.7
372.582	27.14
372.792	84.48
373.003	16.9
373.214	-36.35
373.424	10.75
373.635	-22.02
373.846	-11.78
374.056	66.05
374.267	82.43
374.477	64
374.688	16.9
374.898	4.61
375.109	-9.73
375.319	51.71
375.53	78.33
375.74	100.86
375.951	59.9
376.161	41.47
376.372	35.33
376.582	12.8
376.793	14.85
377.003	16.9
377.214	68.09
377.424	66.05
377.635	53.76
377.845	76.29
378.055	43.52
378.266	76.29
378.476	111.1
378.686	49.66
378.897	37.38
379.107	72.19
379.317	-7.68
379.528	80.38
379.738	90.62
379.948	12.8
380.158	8.7
380.369	10.75
380.579	49.66
380.789	33.28
380.999	109.05
381.21	31.23
381.42	27.14
381.63	-19.97
381.84	2.56
382.05	-3.58
382.261	35.33
382.471	41.47
382.681	-34.3
382.891	72.19
383.101	88.57
383.311	37.38
383.521	-19.97
383.731	90.62
383.941	55.81
384.151	49.66
384.361	66.05
384.571	-67.07
384.781	51.71
384.991	94.72
385.201	90.62
385.411	-38.4
385.621	57.86
385.831	4.61
386.041	-22.02
386.251	43.52
386.461	31.23
386.671	43.52
386.881	45.57
387.091	12.8
387.301	43.52
387.511	37.38
387.72	41.47
387.93	18.94
388.14	64
388.35	33.28
388.56	59.9
388.769	57.86
388.979	72.19
389.189	6.66
389.399	59.9
389.609	90.62
389.818	119.29
390.028	14.85
390.238	-62.98
390.447	39.42
390.657	41.47
390.867	88.57
391.076	61.95
391.286	88.57
391.496	20.99
391.705	98.81
391.915	104.96
392.125	-9.73
392.334	88.57
392.544	23.04
392.753	119.29
392.963	-7.68
393.172	92.67
393.382	80.38
393.591	100.86
393.801	20.99
394.01	90.62
394.22	113.15
394.429	20.99
394.639	84.48
394.848	154.11
395.058	64
395.267	68.09
395.477	102.91
395.686	104.96
395.895	41.47
396.105	31.23
396.314	80.38
396.524	66.05
396.733	20.99
396.942	119.29
397.152	64
397.361	86.53
397.57	113.15
397.78	92.67
397.989	76.29
398.198	213.5
398.407	25.09
398.617	123.39
398.826	113.15
399.035	129.53
399.244	111.1
399.453	72.19
399.663	94.72
399.872	96.77
400.081	92.67
400.29	121.34
400.499	145.92
400.708	86.53
400.917	23.04
401.127	152.06
401.336	162.3
401.545	129.53
401.754	84.48
401.963	143.87
402.172	119.29
402.381	68.09
402.59	8.7
402.799	82.43
403.008	84.48
403.217	98.81
403.426	143.87
403.635	53.76
403.844	125.44
404.053	109.05
404.262	139.77
404.471	125.44
404.68	174.59
404.888	135.68
405.097	61.95
405.306	150.01
405.515	104.96
405.724	66.05
405.933	125.44
406.142	98.81
406.35	135.68
406.559	53.76
406.768	137.73
406.977	211.45
407.185	199.16
407.394	262.65
407.603	180.73
407.812	164.35
408.02	238.08
408.229	182.78
408.438	182.78
408.646	141.82
408.855	158.21
409.064	156.16
409.272	219.64
409.481	244.22
409.69	158.21
409.898	248.32
410.107	289.28
410.315	346.62
410.524	248.32
410.733	338.43
410.941	236.03
411.15	287.23
411.358	268.8
411.567	293.37
411.775	340.47
411.984	365.05
412.192	395.77
412.401	336.38
412.609	383.48
412.818	461.3
413.026	436.73
413.234	373.24
413.443	432.63
413.651	391.67
413.86	473.59
414.068	528.89
414.276	592.37
414.485	528.89
414.693	598.52
414.901	592.37
415.11	596.47
415.318	573.94
415.526	604.66
415.734	670.2
415.943	752.12
416.151	793.08
416.359	780.79
416.567	700.92
416.776	852.47
416.984	807.41
417.192	836.08
417.4	821.75
417.608	877.04
417.817	868.85
418.025	1079.79
418.233	1075.7
418.441	893.43
418.649	1047.02
418.857	1174
419.065	1141.23
419.273	1159.66
419.481	1126.89
419.689	1251.82
419.897	1317.36
420.105	1262.06
420.313	1286.64
420.521	1475.05
420.729	1528.3
420.937	1415.66
421.145	1634.79
421.353	1563.11
421.561	1685.99
421.769	1657.32
421.977	1726.95
422.185	1792.48
422.393	1960.42
422.601	1915.36
422.809	1935.84
423.017	1972.71
423.224	1956.32
423.432	2114.02
423.64	2148.83
423.848	2431.45
424.056	2304.48
424.263	2466.27
424.471	2367.96
424.679	2394.59
424.887	2716.12
425.094	2812.37
425.302	2673.11
425.51	2949.59
425.718	2896.34
425.925	2912.72
426.133	3051.99
426.341	3287.5
426.548	3410.38
426.756	3402.19
426.964	3408.33
427.171	3649.99
427.379	3791.3
427.586	3738.05
427.794	3824.07
428.001	3889.6
428.209	4219.33
428.417	4092.35
428.624	4534.71
428.832	4491.71
429.039	4327.87
429.247	4399.55
429.454	4766.14
429.662	5163.44
429.869	4893.11
430.076	5251.5
430.284	4884.92
430.491	5247.41
430.699	5484.97
430.906	5523.88
431.114	5628.33
431.321	5869.99
431.528	5915.05
431.736	6275.49
431.943	6517.15
432.15	6498.72
432.358	6519.2
432.565	6898.07
432.772	6814.1
432.979	7047.57
433.187	7307.66
433.394	7391.63
433.601	7948.68
433.808	7909.77
434.016	7909.77
434.223	8089.99
434.43	8542.59
434.637	8401.28
434.844	8991.09
435.052	9206.13
435.259	9197.94
435.466	9075.06
435.673	9251.19
435.88	9644.4
436.087	10178.92
436.294	9992.55
436.501	9841
436.708	10234.21
436.915	10275.17
437.122	11002.2
437.329	10723.68
437.537	11360.59
437.743	11141.46
437.95	11280.72
438.157	11860.3
438.364	12278.08
438.571	12255.56
438.778	12398.91
438.985	13623.6
439.192	12980.54
439.399	13322.55
439.606	13230.39
439.813	13867.31
440.02	14645.54
440.227	14209.32
440.433	14041.39
440.64	14866.72
440.847	14711.07
441.054	15057.18
441.261	15843.6
441.467	15603.99
441.674	16261.38
441.881	16648.45
442.088	16582.91
442.294	16591.11
442.501	16959.74
442.708	17135.87
442.914	17959.15
443.121	18657.51
443.328	18143.47
443.534	19558.61
443.741	19241.18
443.948	18444.52
444.154	20142.28
444.361	20005.07
444.568	19976.4
444.774	20127.95
444.981	20074.7
445.187	20775.11
445.394	21792.95
445.6	21264.57
445.807	23591.06
446.013	22446.25
446.22	22904.99
446.426	23859.35
446.633	24049.81
446.839	24670.34
447.046	23683.22
447.252	25084.03
447.459	25301.12
447.665	24782.98
447.871	26126.45
448.078	27013.22
448.284	25786.49
448.491	26355.82
448.697	27428.96
448.903	27967.57
449.11	28330.06
449.316	27586.65
449.522	27943
449.728	28887.11
449.935	29143.11
450.141	28870.73
450.347	29685.82
450.553	28991.56
450.76	28993.61
450.966	30208.05
451.172	29558.84
451.378	30226.48
451.584	29915.19
451.791	30496.81
451.997	30525.49
452.203	30883.88
452.409	30763.05
452.615	30582.83
452.821	29691.96
453.027	29106.24
453.233	30844.97
453.44	29231.17
453.646	30081.08
453.852	30134.32
454.058	30623.79
454.264	29771.83
454.47	30521.39
454.676	29564.99
454.882	30339.12
455.088	27582.56
455.294	28266.58
455.5	28489.81
455.705	28790.86
455.911	27611.23
456.117	27123.81
456.323	26865.77
456.529	25198.72
456.735	26345.58
456.941	25555.07
457.147	25145.47
457.352	24606.86
457.558	23863.44
457.764	24381.58
457.97	24125.58
458.176	23263.39
458.381	23398.55
458.587	22370.47
458.793	21907.63
458.999	21039.29
459.204	22708.39
459.41	22001.84
459.616	20785.35
459.821	20648.13
460.027	20183.24
460.233	19857.62
460.438	19079.39
460.644	19042.53
460.85	18557.16
461.055	18067.69
461.261	18118.89
461.466	16976.12
461.672	16136.46
461.878	17299.7
462.083	16163.08
462.289	16062.73
462.494	15755.54
462.7	15063.32
462.905	14653.73
463.111	15104.28
463.316	15184.15
463.522	14995.74
463.727	14993.69
463.932	14973.21
464.138	14831.9
464.343	14723.36
464.549	14262.57
464.754	14813.47
464.959	14682.4
465.165	14696.74
465.37	14221.61
465.575	13551.92
465.781	14235.94
465.986	14309.67
466.191	13881.64
466.397	13418.8
466.602	12992.83
466.807	13547.83
467.012	13383.99
467.218	13216.05
467.423	12996.92
467.628	13406.52
467.833	13549.87
468.038	13181.24
468.244	12859.71
468.449	13371.7
