Data from USB4F104151__277__11-12-48-701.txt Node

Date: Wed Mar 12 11:12:48 EDT 2025
User: louis
Spectrometer: USB4F10415
Trigger mode: 4
Integration Time (sec): 2.000000E-2
Scans to average: 1
Electric dark correction enabled: true
Nonlinearity correction enabled: false
Boxcar width: 0
XAxis mode: Wavelengths
Number of Pixels in Spectrum: 3648
>>>>>Begin Spectral Data<<<<<
178.204	-116.9
178.424	-116.9
178.644	-116.9
178.864	-51.37
179.084	-59.56
179.304	-8.36
179.524	-20.65
179.744	-18.6
179.964	-24.75
180.184	67.41
180.404	18.26
180.624	20.31
180.844	-16.55
181.064	8.02
181.283	-22.7
181.503	-51.37
181.723	48.98
181.943	-26.79
182.163	-4.27
182.383	20.31
182.602	-12.46
182.822	-45.23
183.042	1.88
183.262	59.22
183.482	30.55
183.701	40.79
183.921	8.02
184.141	24.4
184.361	-43.18
184.58	-16.55
184.8	51.03
185.02	-32.94
185.239	65.36
185.459	48.98
185.679	-39.08
185.898	-32.94
186.118	24.4
186.338	8.02
186.557	83.8
186.777	46.93
186.997	46.93
187.216	8.02
187.436	10.07
187.655	16.21
187.875	69.46
188.095	18.26
188.314	44.88
188.534	24.4
188.753	32.6
188.973	-16.55
189.192	32.6
189.412	-26.79
189.631	87.89
189.851	32.6
190.07	53.08
190.29	75.6
190.509	-4.27
190.729	-6.31
190.948	46.93
191.168	124.76
191.387	85.84
191.607	48.98
191.826	30.55
192.045	51.03
192.265	12.12
192.484	40.79
192.704	10.07
192.923	-28.84
193.142	53.08
193.362	85.84
193.581	40.79
193.8	3.93
194.02	94.04
194.239	8.02
194.458	128.85
194.678	5.97
194.897	-22.7
195.116	-0.17
195.335	-18.6
195.555	30.55
195.774	30.55
195.993	12.12
196.212	20.31
196.432	20.31
196.651	48.98
196.87	87.89
197.089	20.31
197.308	-2.22
197.528	67.41
197.747	-16.55
197.966	-90.28
198.185	59.22
198.404	3.93
198.623	61.27
198.842	16.21
199.062	40.79
199.281	38.74
199.5	-45.23
199.719	8.02
199.938	10.07
200.157	-0.17
200.376	14.17
200.595	34.64
200.814	-10.41
201.033	8.02
201.252	34.64
201.471	63.32
201.69	36.69
201.909	-2.22
202.128	42.84
202.347	91.99
202.566	26.45
202.785	10.07
203.004	24.4
203.223	63.32
203.442	-2.22
203.661	40.79
203.879	40.79
204.098	-0.17
204.317	12.12
204.536	67.41
204.755	55.12
204.974	98.13
205.193	32.6
205.411	-0.17
205.63	-12.46
205.849	24.4
206.068	102.23
206.287	46.93
206.505	-4.27
206.724	46.93
206.943	-6.31
207.162	5.97
207.381	77.65
207.599	53.08
207.818	-32.94
208.037	8.02
208.255	-0.17
208.474	-4.27
208.693	36.69
208.911	51.03
209.13	-37.03
209.349	1.88
209.567	48.98
209.786	-53.42
210.005	-20.65
210.223	14.17
210.442	-69.8
210.661	65.36
210.879	-2.22
211.098	-12.46
211.316	30.55
211.535	-12.46
211.753	-16.55
211.972	28.5
212.191	16.21
212.409	67.41
212.628	22.36
212.846	-28.84
213.065	-2.22
213.283	32.6
213.502	75.6
213.72	28.5
213.938	-80.04
214.157	16.21
214.375	57.17
214.594	-4.27
214.812	12.12
215.031	102.23
215.249	16.21
215.467	-57.51
215.686	1.88
215.904	44.88
216.122	20.31
216.341	24.4
216.559	63.32
216.778	98.13
216.996	20.31
217.214	26.45
217.432	46.93
217.651	48.98
217.869	55.12
218.087	8.02
218.306	8.02
218.524	26.45
218.742	-12.46
218.96	85.84
219.179	53.08
219.397	63.32
219.615	61.27
219.833	22.36
220.051	65.36
220.27	36.69
220.488	94.04
220.706	40.79
220.924	24.4
221.142	-0.17
221.36	-10.41
221.578	73.56
221.796	22.36
222.015	89.94
222.233	59.22
222.451	48.98
222.669	-65.71
222.887	34.64
223.105	26.45
223.323	12.12
223.541	20.31
223.759	110.42
223.977	-14.51
224.195	42.84
224.413	69.46
224.631	73.56
224.849	16.21
225.067	75.6
225.285	-41.13
225.503	8.02
225.721	-4.27
225.939	12.12
226.157	16.21
226.375	44.88
226.592	30.55
226.81	38.74
227.028	38.74
227.246	98.13
227.464	24.4
227.682	51.03
227.9	73.56
228.117	-32.94
228.335	38.74
228.553	48.98
228.771	24.4
228.989	36.69
229.206	38.74
229.424	-24.75
229.642	48.98
229.86	-75.95
230.077	24.4
230.295	59.22
230.513	-4.27
230.731	46.93
230.948	110.42
231.166	40.79
231.384	-77.99
231.601	-2.22
231.819	44.88
232.037	36.69
232.254	-18.6
232.472	24.4
232.689	55.12
232.907	16.21
233.125	10.07
233.342	65.36
233.56	-2.22
233.777	5.97
233.995	28.5
234.213	85.84
234.43	36.69
234.648	-8.36
234.865	16.21
235.083	53.08
235.3	44.88
235.518	1.88
235.735	89.94
235.953	20.31
236.17	55.12
236.388	8.02
236.605	3.93
236.822	89.94
237.04	16.21
237.257	61.27
237.475	61.27
237.692	55.12
237.909	-18.6
238.127	42.84
238.344	26.45
238.562	85.84
238.779	-65.71
238.996	-12.46
239.214	8.02
239.431	89.94
239.648	-55.47
239.865	40.79
240.083	26.45
240.3	16.21
240.517	81.75
240.735	65.36
240.952	3.93
241.169	38.74
241.386	-14.51
241.603	10.07
241.821	-8.36
242.038	59.22
242.255	59.22
242.472	91.99
242.689	55.12
242.907	55.12
243.124	83.8
243.341	48.98
243.558	-20.65
243.775	-14.51
243.992	12.12
244.209	-53.42
244.426	112.47
244.643	51.03
244.86	14.17
245.078	36.69
245.295	-6.31
245.512	40.79
245.729	-41.13
245.946	61.27
246.163	18.26
246.38	-45.23
246.597	-49.32
246.814	110.42
247.031	-28.84
247.248	-32.94
247.464	-28.84
247.681	28.5
247.898	-26.79
248.115	-28.84
248.332	-32.94
248.549	53.08
248.766	91.99
248.983	85.84
249.2	44.88
249.417	40.79
249.633	-22.7
249.85	46.93
250.067	12.12
250.284	59.22
250.501	71.51
250.717	16.21
250.934	26.45
251.151	98.13
251.368	73.56
251.585	34.64
251.801	10.07
252.018	14.17
252.235	61.27
252.451	24.4
252.668	34.64
252.885	22.36
253.102	12.12
253.318	-10.41
253.535	36.69
253.752	24.4
253.968	-47.27
254.185	38.74
254.401	-12.46
254.618	36.69
254.835	20.31
255.051	85.84
255.268	8.02
255.484	18.26
255.701	-6.31
255.917	91.99
256.134	5.97
256.351	42.84
256.567	-45.23
256.784	18.26
257	-28.84
257.217	-10.41
257.433	63.32
257.65	5.97
257.866	30.55
258.082	1.88
258.299	-4.27
258.515	-14.51
258.732	14.17
258.948	26.45
259.165	5.97
259.381	63.32
259.597	-32.94
259.814	24.4
260.03	18.26
260.246	67.41
260.463	44.88
260.679	10.07
260.895	53.08
261.112	89.94
261.328	100.18
261.544	-8.36
261.761	44.88
261.977	10.07
262.193	67.41
262.409	53.08
262.626	16.21
262.842	-4.27
263.058	20.31
263.274	10.07
263.49	61.27
263.707	20.31
263.923	12.12
264.139	-32.94
264.355	5.97
264.571	135
264.787	20.31
265.004	46.93
265.22	20.31
265.436	-14.51
265.652	53.08
265.868	67.41
266.084	-59.56
266.3	98.13
266.516	-0.17
266.732	46.93
266.948	16.21
267.164	22.36
267.38	26.45
267.596	102.23
267.812	53.08
268.028	44.88
268.244	5.97
268.46	30.55
268.676	-14.51
268.892	20.31
269.108	-2.22
269.324	-6.31
269.54	-41.13
269.756	81.75
269.972	-34.99
270.188	65.36
270.403	32.6
270.619	-39.08
270.835	53.08
271.051	73.56
271.267	24.4
271.483	10.07
271.698	12.12
271.914	34.64
272.13	-10.41
272.346	-4.27
272.562	36.69
272.777	73.56
272.993	10.07
273.209	-0.17
273.425	44.88
273.64	1.88
273.856	44.88
274.072	-10.41
274.287	24.4
274.503	98.13
274.719	69.46
274.934	46.93
275.15	24.4
275.366	69.46
275.581	67.41
275.797	-14.51
276.012	12.12
276.228	155.47
276.444	71.51
276.659	46.93
276.875	12.12
277.09	-41.13
277.306	-24.75
277.521	-12.46
277.737	57.17
277.952	53.08
278.168	18.26
278.383	-18.6
278.599	44.88
278.814	53.08
279.03	18.26
279.245	55.12
279.461	8.02
279.676	-57.51
279.892	10.07
280.107	12.12
280.322	10.07
280.538	46.93
280.753	3.93
280.969	1.88
281.184	61.27
281.399	44.88
281.615	26.45
281.83	57.17
282.045	40.79
282.26	12.12
282.476	126.8
282.691	85.84
282.906	-6.31
283.122	48.98
283.337	-47.27
283.552	8.02
283.767	51.03
283.983	36.69
284.198	12.12
284.413	34.64
284.628	-18.6
284.843	51.03
285.058	79.7
285.274	24.4
285.489	55.12
285.704	65.36
285.919	53.08
286.134	-12.46
286.349	30.55
286.564	16.21
286.779	98.13
286.995	-2.22
287.21	14.17
287.425	10.07
287.64	-14.51
287.855	69.46
288.07	59.22
288.285	65.36
288.5	-22.7
288.715	5.97
288.93	65.36
289.145	73.56
289.36	75.6
289.575	83.8
289.79	53.08
290.004	61.27
290.219	48.98
290.434	-6.31
290.649	51.03
290.864	42.84
291.079	-37.03
291.294	42.84
291.509	32.6
291.724	16.21
291.938	-45.23
292.153	91.99
292.368	61.27
292.583	14.17
292.798	30.55
293.012	71.51
293.227	63.32
293.442	48.98
293.657	30.55
293.871	1.88
294.086	34.64
294.301	36.69
294.516	106.32
294.73	12.12
294.945	-12.46
295.16	-18.6
295.374	65.36
295.589	118.61
295.804	10.07
296.018	-16.55
296.233	94.04
296.447	16.21
296.662	67.41
296.877	79.7
297.091	67.41
297.306	1.88
297.52	28.5
297.735	94.04
297.949	26.45
298.164	63.32
298.378	3.93
298.593	22.36
298.807	-2.22
299.022	-41.13
299.236	8.02
299.451	87.89
299.665	3.93
299.88	20.31
300.094	22.36
300.309	65.36
300.523	102.23
300.737	87.89
300.952	-4.27
301.166	83.8
301.381	-4.27
301.595	8.02
301.809	5.97
302.024	57.17
302.238	34.64
302.452	67.41
302.667	63.32
302.881	77.65
303.095	53.08
303.309	44.88
303.524	8.02
303.738	18.26
303.952	20.31
304.166	63.32
304.381	-4.27
304.595	32.6
304.809	-53.42
305.023	10.07
305.237	79.7
305.452	-18.6
305.666	110.42
305.88	16.21
306.094	32.6
306.308	87.89
306.522	5.97
306.736	57.17
306.95	-30.89
307.164	36.69
307.379	20.31
307.593	18.26
307.807	28.5
308.021	77.65
308.235	32.6
308.449	5.97
308.663	51.03
308.877	32.6
309.091	20.31
309.305	75.6
309.519	10.07
309.733	63.32
309.947	-37.03
310.161	65.36
310.374	14.17
310.588	14.17
310.802	10.07
311.016	-69.8
311.23	116.56
311.444	26.45
311.658	26.45
311.872	36.69
312.085	30.55
312.299	73.56
312.513	53.08
312.727	-28.84
312.941	8.02
313.154	22.36
313.368	40.79
313.582	22.36
313.796	67.41
314.009	51.03
314.223	116.56
314.437	26.45
314.651	-12.46
314.864	24.4
315.078	85.84
315.292	59.22
315.505	-73.9
315.719	65.36
315.933	3.93
316.146	-30.89
316.36	-8.36
316.573	87.89
316.787	-12.46
317.001	-24.75
317.214	18.26
317.428	51.03
317.641	34.64
317.855	22.36
318.068	30.55
318.282	1.88
318.495	108.37
318.709	51.03
318.922	48.98
319.136	149.33
319.349	28.5
319.563	12.12
319.776	63.32
319.99	-45.23
320.203	24.4
320.417	10.07
320.63	44.88
320.843	118.61
321.057	-2.22
321.27	38.74
321.483	85.84
321.697	73.56
321.91	28.5
322.124	-6.31
322.337	28.5
322.55	81.75
322.763	24.4
322.977	32.6
323.19	-71.85
323.403	34.64
323.617	36.69
323.83	55.12
324.043	-8.36
324.256	10.07
324.469	67.41
324.683	122.71
324.896	96.08
325.109	28.5
325.322	44.88
325.535	137.04
325.748	94.04
325.962	3.93
326.175	-6.31
326.388	16.21
326.601	44.88
326.814	34.64
327.027	77.65
327.24	114.52
327.453	28.5
327.666	69.46
327.879	14.17
328.092	51.03
328.305	30.55
328.518	16.21
328.731	24.4
328.944	48.98
329.157	81.75
329.37	1.88
329.583	89.94
329.796	65.36
330.009	-16.55
330.222	71.51
330.435	42.84
330.648	-16.55
330.861	108.37
331.073	18.26
331.286	67.41
331.499	98.13
331.712	20.31
331.925	-4.27
332.138	51.03
332.35	38.74
332.563	20.31
332.776	51.03
332.989	40.79
333.202	65.36
333.414	141.14
333.627	120.66
333.84	65.36
334.053	71.51
334.265	69.46
334.478	-20.65
334.691	46.93
334.903	14.17
335.116	-8.36
335.329	40.79
335.541	22.36
335.754	116.56
335.966	3.93
336.179	-4.27
336.392	10.07
336.604	26.45
336.817	110.42
337.029	12.12
337.242	30.55
337.454	116.56
337.667	-32.94
337.88	112.47
338.092	122.71
338.305	59.22
338.517	83.8
338.729	48.98
338.942	85.84
339.154	98.13
339.367	-41.13
339.579	73.56
339.792	5.97
340.004	63.32
340.217	42.84
340.429	28.5
340.641	122.71
340.854	-26.79
341.066	20.31
341.278	14.17
341.491	26.45
341.703	16.21
341.915	34.64
342.128	79.7
342.34	87.89
342.552	42.84
342.764	32.6
342.977	40.79
343.189	8.02
343.401	12.12
343.613	12.12
343.826	22.36
344.038	-8.36
344.25	75.6
344.462	91.99
344.674	53.08
344.886	69.46
345.099	44.88
345.311	32.6
345.523	59.22
345.735	30.55
345.947	36.69
346.159	75.6
346.371	69.46
346.583	36.69
346.795	61.27
347.007	-20.65
347.219	28.5
347.431	8.02
347.643	102.23
347.855	46.93
348.067	3.93
348.279	-14.51
348.491	122.71
348.703	135
348.915	53.08
349.127	36.69
349.339	8.02
349.551	-8.36
349.763	-14.51
349.975	24.4
350.187	44.88
350.399	85.84
350.61	120.66
350.822	73.56
351.034	-0.17
351.246	51.03
351.458	-4.27
351.669	34.64
351.881	85.84
352.093	89.94
352.305	12.12
352.517	16.21
352.728	3.93
352.94	71.51
353.152	100.18
353.363	22.36
353.575	46.93
353.787	48.98
353.999	46.93
354.21	61.27
354.422	73.56
354.633	61.27
354.845	22.36
355.057	16.21
355.268	77.65
355.48	14.17
355.692	22.36
355.903	87.89
356.115	75.6
356.326	28.5
356.538	102.23
356.749	-20.65
356.961	118.61
357.172	1.88
357.384	36.69
357.595	100.18
357.807	-12.46
358.018	44.88
358.23	73.56
358.441	3.93
358.653	40.79
358.864	28.5
359.075	16.21
359.287	36.69
359.498	114.52
359.709	128.85
359.921	46.93
360.132	-6.31
360.344	3.93
360.555	-24.75
360.766	18.26
360.977	40.79
361.189	-18.6
361.4	44.88
361.611	61.27
361.823	44.88
362.034	28.5
362.245	28.5
362.456	36.69
362.667	79.7
362.879	-0.17
363.09	12.12
363.301	48.98
363.512	-45.23
363.723	83.8
363.935	98.13
364.146	53.08
364.357	151.38
364.568	71.51
364.779	44.88
364.99	30.55
365.201	28.5
365.412	67.41
365.623	71.51
365.834	40.79
366.045	32.6
366.256	100.18
366.467	30.55
366.678	1.88
366.889	26.45
367.1	59.22
367.311	42.84
367.522	46.93
367.733	48.98
367.944	63.32
368.155	63.32
368.366	1.88
368.577	-2.22
368.788	63.32
368.999	32.6
369.209	46.93
369.42	42.84
369.631	75.6
369.842	32.6
370.053	67.41
370.264	71.51
370.474	32.6
370.685	94.04
370.896	24.4
371.107	165.71
371.317	-28.84
371.528	100.18
371.739	26.45
371.95	61.27
372.16	55.12
372.371	44.88
372.582	61.27
372.792	42.84
373.003	57.17
373.214	91.99
373.424	106.32
373.635	3.93
373.846	55.12
374.056	67.41
374.267	46.93
374.477	30.55
374.688	-28.84
374.898	85.84
375.109	20.31
375.319	28.5
375.53	81.75
375.74	143.19
375.951	-12.46
376.161	22.36
376.372	24.4
376.582	61.27
376.793	126.8
377.003	57.17
377.214	75.6
377.424	44.88
377.635	94.04
377.845	94.04
378.055	53.08
378.266	-22.7
378.476	1.88
378.686	108.37
378.897	34.64
379.107	30.55
379.317	67.41
379.528	69.46
379.738	59.22
379.948	40.79
380.158	63.32
380.369	28.5
380.579	42.84
380.789	42.84
380.999	20.31
381.21	65.36
381.42	30.55
381.63	87.89
381.84	69.46
382.05	71.51
382.261	71.51
382.471	118.61
382.681	46.93
382.891	48.98
383.101	22.36
383.311	28.5
383.521	57.17
383.731	77.65
383.941	87.89
384.151	53.08
384.361	63.32
384.571	26.45
384.781	81.75
384.991	65.36
385.201	94.04
385.411	20.31
385.621	51.03
385.831	81.75
386.041	110.42
386.251	65.36
386.461	1.88
386.671	36.69
386.881	116.56
387.091	67.41
387.301	73.56
387.511	65.36
387.72	12.12
387.93	30.55
388.14	48.98
388.35	55.12
388.56	61.27
388.769	22.36
388.979	124.76
389.189	53.08
389.399	16.21
389.609	165.71
389.818	122.71
390.028	44.88
390.238	153.43
390.447	77.65
390.657	106.32
390.867	-12.46
391.076	42.84
391.286	71.51
391.496	114.52
391.705	51.03
391.915	73.56
392.125	83.8
392.334	-14.51
392.544	116.56
392.753	63.32
392.963	65.36
393.172	96.08
393.382	75.6
393.591	24.4
393.801	26.45
394.01	83.8
394.22	38.74
394.429	106.32
394.639	71.51
394.848	81.75
395.058	104.28
395.267	81.75
395.477	51.03
395.686	145.24
395.895	143.19
396.105	155.47
396.314	98.13
396.524	61.27
396.733	126.8
396.942	106.32
397.152	94.04
397.361	98.13
397.57	108.37
397.78	145.24
397.989	159.57
398.198	169.81
398.407	130.9
398.617	110.42
398.826	122.71
399.035	130.9
399.244	89.94
399.453	94.04
399.663	163.67
399.872	130.9
400.081	69.46
400.29	118.61
400.499	139.09
400.708	143.19
400.917	81.75
401.127	182.1
401.336	75.6
401.545	212.82
401.754	106.32
401.963	126.8
402.172	196.43
402.381	114.52
402.59	173.91
402.799	159.57
403.008	194.39
403.217	165.71
403.426	112.47
403.635	83.8
403.844	108.37
404.053	100.18
404.262	120.66
404.471	210.77
404.68	155.47
404.888	241.49
405.097	87.89
405.306	182.1
405.515	153.43
405.724	182.1
405.933	163.67
406.142	175.95
406.35	153.43
406.559	198.48
406.768	184.15
406.977	190.29
407.185	188.24
407.394	159.57
407.603	145.24
407.812	231.25
408.02	241.49
408.229	204.63
408.438	268.11
408.646	296.78
408.855	247.63
409.064	292.69
409.272	386.9
409.481	358.22
409.69	327.5
409.898	272.21
410.107	343.89
410.315	347.98
410.524	307.02
410.733	347.98
410.941	364.37
411.15	470.86
411.358	438.09
411.567	411.47
411.775	431.95
411.984	468.81
412.192	485.2
412.401	501.58
412.609	454.48
412.818	591.69
413.026	540.49
413.234	569.16
413.443	628.56
413.651	575.31
413.86	685.9
414.068	585.55
414.276	765.77
414.485	681.8
414.693	784.2
414.901	753.48
415.11	782.15
415.318	794.44
415.526	868.17
415.734	890.7
415.943	943.94
416.151	1003.33
416.359	935.75
416.567	917.32
416.776	1105.73
416.984	1044.29
417.192	1087.3
417.4	1144.64
417.608	1154.88
417.817	1085.25
418.025	1322.82
418.233	1316.67
418.441	1308.48
418.649	1365.82
418.857	1482.56
419.065	1472.32
419.273	1554.24
419.481	1474.37
419.689	1630.01
419.897	1644.35
420.105	1771.32
420.313	1748.79
420.521	1929.02
420.729	1847.1
420.937	1986.36
421.145	2027.32
421.353	2101.05
421.561	2131.76
421.769	2338.61
421.977	2391.86
422.185	2273.07
422.393	2490.16
422.601	2543.41
422.809	2567.98
423.017	2576.17
423.224	2621.23
423.432	2860.84
423.64	2764.59
423.848	3143.46
424.056	3108.65
424.263	3223.33
424.471	3209
424.679	3378.98
424.887	3528.48
425.094	3618.59
425.302	3700.51
425.51	3720.99
425.718	3817.24
425.925	3878.68
426.133	4149.01
426.341	4136.73
426.548	4445.97
426.756	4484.88
426.964	4618
427.171	4845.32
427.379	4812.56
427.586	5033.74
427.794	5197.57
428.001	5373.7
428.209	5676.8
428.417	5560.06
428.624	5934.84
428.832	6029.05
429.039	5846.78
429.247	5943.03
429.454	6557.43
429.662	6948.59
429.869	6440.69
430.076	6774.51
430.284	6735.6
430.491	7096.04
430.699	7464.68
430.906	7247.59
431.114	7530.21
431.321	7763.68
431.528	7825.12
431.736	8494.8
431.943	8818.38
432.15	8662.74
432.358	8541.91
432.565	9135.82
432.772	9154.25
432.979	9524.93
433.187	9518.79
433.394	9754.3
433.601	10768.05
433.808	10669.75
434.016	10249.91
434.223	10790.58
434.43	11581.09
434.637	11130.54
434.844	11894.43
435.052	12439.19
435.259	12175
435.466	12408.47
435.673	12218.01
435.88	12795.54
436.087	13670.02
436.294	13717.12
436.501	13328.01
436.708	13735.56
436.915	14065.28
437.122	14528.12
437.329	14653.05
437.537	15240.81
437.743	15400.55
437.95	15173.23
438.157	16103.01
438.364	16715.35
438.571	16440.92
438.778	16744.02
438.985	18138.69
439.192	17538.63
439.399	18058.82
439.606	17426
439.813	18411.07
440.02	19725.86
440.227	19420.72
440.433	19148.34
440.64	20043.3
440.847	19977.76
441.054	20393.5
441.261	21194.26
441.467	21235.22
441.674	21765.64
441.881	22103.56
442.088	22740.47
442.294	22275.59
442.501	23100.92
442.708	23238.13
442.914	24069.61
443.121	24925.66
443.328	24645.09
443.534	26222.02
443.741	25198.04
443.948	24849.88
444.154	27164.09
444.361	27016.63
444.568	27086.26
444.774	26645.95
444.981	27264.44
445.187	28114.34
445.394	29805.97
445.6	28945.82
445.807	31835.5
446.013	30655.87
446.22	30555.52
446.426	32034.16
446.633	32443.75
446.839	33066.33
447.046	31722.87
447.252	33963.34
447.459	33707.35
447.665	33869.14
447.871	35190.08
448.078	36246.83
448.284	34565.45
448.491	35839.28
448.697	37514.52
448.903	37883.16
449.11	37309.72
449.316	37451.03
449.522	37926.16
449.728	38780.17
449.935	39077.12
450.141	38997.25
450.347	39677.18
450.553	38696.2
450.76	38911.24
450.966	40387.82
451.172	39769.33
451.378	40692.97
451.584	40006.9
451.791	41153.76
451.997	40914.15
452.203	41338.08
452.409	41796.82
452.615	41256.16
452.821	39759.09
453.027	39394.56
453.233	41563.36
453.44	39687.42
453.646	40310
453.852	40537.32
454.058	40783.08
454.264	39761.14
454.47	40637.67
454.676	39437.56
454.882	40762.6
455.088	37391.64
455.294	37578.01
455.5	38436.11
455.705	38864.13
455.911	37141.79
456.117	36265.26
456.323	36238.64
456.529	34118.99
456.735	35781.94
456.941	34762.05
457.147	33969.49
457.352	33394.01
457.558	32585.06
457.764	33158.49
457.97	32214.38
458.176	31272.31
458.381	31530.36
458.587	29844.88
458.793	29869.45
458.999	28536.23
459.204	30500.23
459.41	29789.58
459.616	27739.57
459.821	27905.45
460.027	27690.41
460.233	26961.34
460.438	25742.8
460.644	26256.84
460.85	24808.92
461.055	24425.95
461.261	24405.47
461.466	22590.97
461.672	21696.01
461.878	23420.4
462.083	21661.19
462.289	21736.97
462.494	21274.13
462.7	20581.92
462.905	19879.46
463.111	20721.18
463.316	20491.8
463.522	20076.07
463.727	20317.73
463.932	20137.51
464.138	20092.45
464.343	20270.62
464.549	19394.09
464.754	20246.05
464.959	19809.83
465.165	19922.47
465.37	18982.45
465.575	18703.93
465.781	19306.03
465.986	19394.09
466.191	18691.64
466.397	18046.53
466.602	17346.12
466.807	18105.92
467.012	18189.89
467.218	17915.46
467.423	17757.77
467.628	18085.44
