Data from USB4F104151__109__11-07-14-498.txt Node

Date: Wed Mar 12 11:07:14 EDT 2025
User: louis
Spectrometer: USB4F10415
Trigger mode: 4
Integration Time (sec): 2.000000E-2
Scans to average: 1
Electric dark correction enabled: true
Nonlinearity correction enabled: false
Boxcar width: 0
XAxis mode: Wavelengths
Number of Pixels in Spectrum: 3648
>>>>>Begin Spectral Data<<<<<
178.204	-116.05
178.424	-116.05
178.644	-116.05
178.864	-103.76
179.084	-85.33
179.304	4.78
179.524	62.12
179.744	62.12
179.964	8.87
180.184	-66.9
180.404	8.87
180.624	62.12
180.844	-40.28
181.064	-36.18
181.283	-19.8
181.503	-5.46
181.723	-40.28
181.943	-17.75
182.163	-5.46
182.383	10.92
182.602	37.55
182.822	-11.61
183.042	2.73
183.262	47.79
183.482	8.87
183.701	21.16
183.921	29.35
184.141	12.97
184.361	10.92
184.58	21.16
184.8	76.46
185.02	15.02
185.239	23.21
185.459	55.98
185.679	21.16
185.898	-13.65
186.118	49.83
186.338	0.68
186.557	64.17
186.777	4.78
186.997	-36.18
187.216	25.26
187.436	98.99
187.655	39.59
187.875	58.03
188.095	-19.8
188.314	33.45
188.534	15.02
188.753	39.59
188.973	111.27
189.192	4.78
189.412	58.03
189.631	-13.65
189.851	-7.51
190.07	45.74
190.29	-48.47
190.509	25.26
190.729	-56.66
190.948	62.12
191.168	86.7
191.387	53.93
191.607	4.78
191.826	21.16
192.045	-66.9
192.265	-11.61
192.484	25.26
192.704	-13.65
192.923	-1.37
193.142	8.87
193.362	-66.9
193.581	144.04
193.8	-1.37
194.02	60.07
194.239	-3.41
194.458	-7.51
194.678	49.83
194.897	-25.94
195.116	45.74
195.335	60.07
195.555	41.64
195.774	-11.61
195.993	37.55
196.212	25.26
196.432	-58.71
196.651	-5.46
196.87	60.07
197.089	58.03
197.308	15.02
197.528	70.31
197.747	-44.37
197.966	29.35
198.185	66.22
198.404	84.65
198.623	4.78
198.842	86.7
199.062	-3.41
199.281	12.97
199.5	-9.56
199.719	41.64
199.938	15.02
200.157	33.45
200.376	43.69
200.595	12.97
200.814	0.68
201.033	39.59
201.252	33.45
201.471	23.21
201.69	72.36
201.909	64.17
202.128	25.26
202.347	17.07
202.566	-27.99
202.785	90.79
203.004	-11.61
203.223	117.42
203.442	35.5
203.661	-42.32
203.879	33.45
204.098	10.92
204.317	17.07
204.536	17.07
204.755	0.68
204.974	84.65
205.193	-11.61
205.411	51.88
205.63	-5.46
205.849	19.11
206.068	64.17
206.287	-32.08
206.505	2.73
206.724	62.12
206.943	21.16
207.162	31.4
207.381	12.97
207.599	64.17
207.818	62.12
208.037	-40.28
208.255	51.88
208.474	-1.37
208.693	31.4
208.911	-3.41
209.13	55.98
209.349	64.17
209.567	53.93
209.786	12.97
210.005	-27.99
210.223	27.31
210.442	-27.99
210.661	12.97
210.879	-44.37
211.098	31.4
211.316	51.88
211.535	72.36
211.753	-7.51
211.972	-64.85
212.191	25.26
212.409	47.79
212.628	17.07
212.846	4.78
213.065	2.73
213.283	107.18
213.502	33.45
213.72	10.92
213.938	41.64
214.157	19.11
214.375	78.51
214.594	27.31
214.812	62.12
215.031	-9.56
215.249	-38.23
215.467	-3.41
215.686	49.83
215.904	25.26
216.122	4.78
216.341	-27.99
216.559	27.31
216.778	6.83
216.996	25.26
217.214	10.92
217.432	64.17
217.651	8.87
217.869	-17.75
218.087	8.87
218.306	10.92
218.524	60.07
218.742	82.6
218.96	39.59
219.179	41.64
219.397	41.64
219.615	29.35
219.833	58.03
220.051	86.7
220.27	-15.7
220.488	-30.04
220.706	10.92
220.924	12.97
221.142	-15.7
221.36	-38.23
221.578	53.93
221.796	55.98
222.015	35.5
222.233	-19.8
222.451	51.88
222.669	23.21
222.887	31.4
223.105	37.55
223.323	70.31
223.541	2.73
223.759	60.07
223.977	-17.75
224.195	25.26
224.413	49.83
224.631	37.55
224.849	-38.23
225.067	98.99
225.285	4.78
225.503	-5.46
225.721	0.68
225.939	82.6
226.157	31.4
226.375	45.74
226.592	0.68
226.81	19.11
227.028	21.16
227.246	17.07
227.464	10.92
227.682	62.12
227.9	31.4
228.117	8.87
228.335	-5.46
228.553	78.51
228.771	4.78
228.989	17.07
229.206	-64.85
229.424	82.6
229.642	41.64
229.86	-11.61
230.077	58.03
230.295	31.4
230.513	41.64
230.731	55.98
230.948	39.59
231.166	39.59
231.384	-11.61
231.601	74.41
231.819	96.94
232.037	-25.94
232.254	-23.89
232.472	33.45
232.689	-66.9
232.907	43.69
233.125	37.55
233.342	92.84
233.56	-1.37
233.777	-54.61
233.995	64.17
234.213	-7.51
234.43	-9.56
234.648	-32.08
234.865	68.27
235.083	19.11
235.3	21.16
235.518	-64.85
235.735	64.17
235.953	64.17
236.17	-3.41
236.388	35.5
236.605	19.11
236.822	62.12
237.04	62.12
237.257	-7.51
237.475	31.4
237.692	17.07
237.909	82.6
238.127	-48.47
238.344	90.79
238.562	47.79
238.779	12.97
238.996	-1.37
239.214	-40.28
239.431	47.79
239.648	41.64
239.865	31.4
240.083	43.69
240.3	39.59
240.517	-21.85
240.735	45.74
240.952	51.88
241.169	6.83
241.386	53.93
241.603	25.26
241.821	31.4
242.038	64.17
242.255	47.79
242.472	-64.85
242.689	82.6
242.907	78.51
243.124	17.07
243.341	72.36
243.558	-23.89
243.775	47.79
243.992	41.64
244.209	8.87
244.426	-32.08
244.643	45.74
244.86	19.11
245.078	21.16
245.295	0.68
245.512	-1.37
245.729	-64.85
245.946	49.83
246.163	55.98
246.38	0.68
246.597	-30.04
246.814	47.79
247.031	47.79
247.248	45.74
247.464	43.69
247.681	21.16
247.898	39.59
248.115	-1.37
248.332	10.92
248.549	-7.51
248.766	64.17
248.983	43.69
249.2	-1.37
249.417	86.7
249.633	25.26
249.85	29.35
250.067	21.16
250.284	45.74
250.501	35.5
250.717	10.92
250.934	0.68
251.151	41.64
251.368	-21.85
251.585	17.07
251.801	-48.47
252.018	-23.89
252.235	115.37
252.451	31.4
252.668	12.97
252.885	27.31
253.102	37.55
253.318	68.27
253.535	-60.76
253.752	23.21
253.968	25.26
254.185	43.69
254.401	47.79
254.618	41.64
254.835	62.12
255.051	66.22
255.268	84.65
255.484	58.03
255.701	27.31
255.917	33.45
256.134	41.64
256.351	-46.42
256.567	-9.56
256.784	41.64
257	-19.8
257.217	96.94
257.433	6.83
257.65	10.92
257.866	-19.8
258.082	78.51
258.299	-13.65
258.515	45.74
258.732	6.83
258.948	74.41
259.165	0.68
259.381	25.26
259.597	-42.32
259.814	68.27
260.03	60.07
260.246	25.26
260.463	8.87
260.679	8.87
260.895	-11.61
261.112	23.21
261.328	96.94
261.544	90.79
261.761	41.64
261.977	0.68
262.193	-27.99
262.409	70.31
262.626	76.46
262.842	43.69
263.058	29.35
263.274	82.6
263.49	64.17
263.707	0.68
263.923	58.03
264.139	74.41
264.355	2.73
264.571	111.27
264.787	94.89
265.004	119.46
265.22	109.22
265.436	47.79
265.652	49.83
265.868	49.83
266.084	0.68
266.3	62.12
266.516	51.88
266.732	47.79
266.948	12.97
267.164	-9.56
267.38	41.64
267.596	29.35
267.812	27.31
268.028	47.79
268.244	-23.89
268.46	-54.61
268.676	33.45
268.892	78.51
269.108	37.55
269.324	88.75
269.54	-11.61
269.756	51.88
269.972	-5.46
270.188	8.87
270.403	98.99
270.619	-21.85
270.835	29.35
271.051	25.26
271.267	33.45
271.483	-1.37
271.698	-50.52
271.914	43.69
272.13	15.02
272.346	6.83
272.562	-1.37
272.777	29.35
272.993	35.5
273.209	23.21
273.425	10.92
273.64	41.64
273.856	41.64
274.072	-11.61
274.287	111.27
274.503	92.84
274.719	72.36
274.934	121.51
275.15	15.02
275.366	-27.99
275.581	39.59
275.797	10.92
276.012	-23.89
276.228	-7.51
276.444	-42.32
276.659	78.51
276.875	37.55
277.09	62.12
277.306	-7.51
277.521	4.78
277.737	70.31
277.952	58.03
278.168	58.03
278.383	-17.75
278.599	-13.65
278.814	41.64
279.03	39.59
279.245	51.88
279.461	35.5
279.676	109.22
279.892	53.93
280.107	-34.13
280.322	43.69
280.538	80.55
280.753	41.64
280.969	70.31
281.184	55.98
281.399	82.6
281.615	49.83
281.83	-19.8
282.045	-40.28
282.26	25.26
282.476	33.45
282.691	15.02
282.906	62.12
283.122	-27.99
283.337	27.31
283.552	55.98
283.767	35.5
283.983	58.03
284.198	51.88
284.413	60.07
284.628	17.07
284.843	-1.37
285.058	49.83
285.274	-1.37
285.489	21.16
285.704	55.98
285.919	29.35
286.134	72.36
286.349	27.31
286.564	76.46
286.779	41.64
286.995	39.59
287.21	-11.61
287.425	4.78
287.64	21.16
287.855	55.98
288.07	55.98
288.285	53.93
288.5	33.45
288.715	129.7
288.93	-30.04
289.145	21.16
289.36	21.16
289.575	80.55
289.79	8.87
290.004	111.27
290.219	49.83
290.434	-17.75
290.649	8.87
290.864	31.4
291.079	25.26
291.294	66.22
291.509	66.22
291.724	31.4
291.938	58.03
292.153	123.56
292.368	27.31
292.583	21.16
292.798	19.11
293.012	51.88
293.227	62.12
293.442	-32.08
293.657	-30.04
293.871	70.31
294.086	37.55
294.301	29.35
294.516	88.75
294.73	17.07
294.945	55.98
295.16	15.02
295.374	6.83
295.589	64.17
295.804	-19.8
296.018	35.5
296.233	-21.85
296.447	10.92
296.662	-9.56
296.877	33.45
297.091	148.14
297.306	-7.51
297.52	19.11
297.735	80.55
297.949	64.17
298.164	37.55
298.378	17.07
298.593	60.07
298.807	31.4
299.022	12.97
299.236	-34.13
299.451	-7.51
299.665	70.31
299.88	51.88
300.094	31.4
300.309	98.99
300.523	96.94
300.737	27.31
300.952	41.64
301.166	92.84
301.381	-11.61
301.595	12.97
301.809	35.5
302.024	82.6
302.238	33.45
302.452	12.97
302.667	31.4
302.881	10.92
303.095	74.41
303.309	15.02
303.524	23.21
303.738	43.69
303.952	31.4
304.166	19.11
304.381	27.31
304.595	76.46
304.809	-11.61
305.023	-5.46
305.237	-13.65
305.452	-17.75
305.666	92.84
305.88	113.32
306.094	33.45
306.308	49.83
306.522	139.94
306.736	19.11
306.95	82.6
307.164	66.22
307.379	66.22
307.593	49.83
307.807	66.22
308.021	4.78
308.235	103.08
308.449	51.88
308.663	88.75
308.877	76.46
309.091	-5.46
309.305	49.83
309.519	-36.18
309.733	101.03
309.947	37.55
310.161	129.7
310.374	21.16
310.588	92.84
310.802	-11.61
311.016	25.26
311.23	47.79
311.444	-68.95
311.658	25.26
311.872	72.36
312.085	107.18
312.299	62.12
312.513	37.55
312.727	62.12
312.941	25.26
313.154	8.87
313.368	45.74
313.582	70.31
313.796	70.31
314.009	4.78
314.223	33.45
314.437	0.68
314.651	8.87
314.864	-15.7
315.078	33.45
315.292	109.22
315.505	35.5
315.719	113.32
315.933	35.5
316.146	21.16
316.36	15.02
316.573	21.16
316.787	21.16
317.001	84.65
317.214	-21.85
317.428	12.97
317.641	-13.65
317.855	66.22
318.068	80.55
318.282	39.59
318.495	74.41
318.709	45.74
318.922	94.89
319.136	23.21
319.349	62.12
319.563	74.41
319.776	76.46
319.99	-5.46
320.203	47.79
320.417	41.64
320.63	-3.41
320.843	0.68
321.057	47.79
321.27	25.26
321.483	-32.08
321.697	92.84
321.91	31.4
322.124	31.4
322.337	2.73
322.55	-38.23
322.763	27.31
322.977	109.22
323.19	10.92
323.403	-40.28
323.617	21.16
323.83	47.79
324.043	-36.18
324.256	82.6
324.469	62.12
324.683	25.26
324.896	-34.13
325.109	39.59
325.322	45.74
325.535	117.42
325.748	41.64
325.962	-36.18
326.175	27.31
326.388	66.22
326.601	68.27
326.814	74.41
327.027	25.26
327.24	131.75
327.453	51.88
327.666	55.98
327.879	12.97
328.092	49.83
328.305	55.98
328.518	12.97
328.731	8.87
328.944	-3.41
329.157	58.03
329.37	76.46
329.583	82.6
329.796	25.26
330.009	-91.48
330.222	-27.99
330.435	41.64
330.648	-56.66
330.861	43.69
331.073	88.75
331.286	27.31
331.499	45.74
331.712	29.35
331.925	76.46
332.138	17.07
332.35	31.4
332.563	4.78
332.776	23.21
332.989	37.55
333.202	45.74
333.414	43.69
333.627	25.26
333.84	21.16
334.053	45.74
334.265	-13.65
334.478	92.84
334.691	41.64
334.903	64.17
335.116	43.69
335.329	68.27
335.541	66.22
335.754	76.46
335.966	62.12
336.179	25.26
336.392	33.45
336.604	55.98
336.817	23.21
337.029	82.6
337.242	12.97
337.454	25.26
337.667	-15.7
337.88	27.31
338.092	35.5
338.305	39.59
338.517	10.92
338.729	33.45
338.942	10.92
339.154	37.55
339.367	94.89
339.579	78.51
339.792	33.45
340.004	10.92
340.217	-77.14
340.429	12.97
340.641	43.69
340.854	82.6
341.066	29.35
341.278	66.22
341.491	60.07
341.703	47.79
341.915	-13.65
342.128	31.4
342.34	64.17
342.552	39.59
342.764	47.79
342.977	-1.37
343.189	76.46
343.401	6.83
343.613	8.87
343.826	62.12
344.038	35.5
344.25	45.74
344.462	82.6
344.674	70.31
344.886	119.46
345.099	55.98
345.311	2.73
345.523	51.88
345.735	68.27
345.947	60.07
346.159	-48.47
346.371	78.51
346.583	31.4
346.795	58.03
347.007	117.42
347.219	84.65
347.431	41.64
347.643	41.64
347.855	41.64
348.067	51.88
348.279	27.31
348.491	12.97
348.703	45.74
348.915	-3.41
349.127	-21.85
349.339	82.6
349.551	70.31
349.763	17.07
349.975	19.11
350.187	80.55
350.399	78.51
350.61	64.17
350.822	76.46
351.034	78.51
351.246	74.41
351.458	4.78
351.669	72.36
351.881	68.27
352.093	-15.7
352.305	2.73
352.517	66.22
352.728	-11.61
352.94	55.98
353.152	82.6
353.363	-27.99
353.575	78.51
353.787	103.08
353.999	74.41
354.21	55.98
354.422	74.41
354.633	8.87
354.845	27.31
355.057	70.31
355.268	60.07
355.48	-11.61
355.692	-11.61
355.903	25.26
356.115	37.55
356.326	6.83
356.538	86.7
356.749	33.45
356.961	45.74
357.172	25.26
357.384	123.56
357.595	33.45
357.807	35.5
358.018	-42.32
358.23	88.75
358.441	39.59
358.653	-56.66
358.864	92.84
359.075	55.98
359.287	21.16
359.498	80.55
359.709	66.22
359.921	37.55
360.132	-7.51
360.344	47.79
360.555	-3.41
360.766	62.12
360.977	76.46
361.189	70.31
361.4	53.93
361.611	10.92
361.823	86.7
362.034	43.69
362.245	68.27
362.456	53.93
362.667	60.07
362.879	53.93
363.09	60.07
363.301	-3.41
363.512	80.55
363.723	6.83
363.935	-5.46
364.146	-36.18
364.357	55.98
364.568	49.83
364.779	51.88
364.99	103.08
365.201	10.92
365.412	43.69
365.623	31.4
365.834	148.14
366.045	43.69
366.256	49.83
366.467	8.87
366.678	23.21
366.889	66.22
367.1	39.59
367.311	133.8
367.522	68.27
367.733	53.93
367.944	55.98
368.155	41.64
368.366	121.51
368.577	25.26
368.788	51.88
368.999	6.83
369.209	60.07
369.42	74.41
369.631	92.84
369.842	39.59
370.053	31.4
370.264	43.69
370.474	94.89
370.685	25.26
370.896	47.79
371.107	131.75
371.317	133.8
371.528	101.03
371.739	78.51
371.95	33.45
372.16	86.7
372.371	41.64
372.582	94.89
372.792	58.03
373.003	49.83
373.214	58.03
373.424	107.18
373.635	33.45
373.846	76.46
374.056	51.88
374.267	76.46
374.477	62.12
374.688	78.51
374.898	121.51
375.109	96.94
375.319	96.94
375.53	-9.56
375.74	92.84
375.951	90.79
376.161	76.46
376.372	82.6
376.582	66.22
376.793	41.64
377.003	6.83
377.214	39.59
377.424	88.75
377.635	64.17
377.845	-7.51
378.055	45.74
378.266	62.12
378.476	47.79
378.686	2.73
378.897	53.93
379.107	84.65
379.317	47.79
379.528	31.4
379.738	90.79
379.948	76.46
380.158	150.18
380.369	25.26
380.579	8.87
380.789	49.83
380.999	58.03
381.21	105.13
381.42	66.22
381.63	43.69
381.84	94.89
382.05	53.93
382.261	-5.46
382.471	115.37
382.681	74.41
382.891	51.88
383.101	62.12
383.311	31.4
383.521	55.98
383.731	70.31
383.941	127.66
384.151	86.7
384.361	84.65
384.571	35.5
384.781	6.83
384.991	41.64
385.201	121.51
385.411	41.64
385.621	66.22
385.831	96.94
386.041	-9.56
386.251	45.74
386.461	31.4
386.671	64.17
386.881	76.46
387.091	-1.37
387.301	117.42
387.511	-17.75
387.72	96.94
387.93	74.41
388.14	39.59
388.35	45.74
388.56	43.69
388.769	80.55
388.979	72.36
389.189	39.59
389.399	88.75
389.609	66.22
389.818	105.13
390.028	58.03
390.238	76.46
390.447	105.13
390.657	144.04
390.867	103.08
391.076	37.55
391.286	90.79
391.496	51.88
391.705	123.56
391.915	109.22
392.125	66.22
392.334	60.07
392.544	27.31
392.753	88.75
392.963	113.32
393.172	41.64
393.382	39.59
393.591	76.46
393.801	74.41
394.01	131.75
394.22	139.94
394.429	82.6
394.639	49.83
394.848	76.46
395.058	82.6
395.267	21.16
395.477	101.03
395.686	107.18
395.895	53.93
396.105	90.79
396.314	86.7
396.524	66.22
396.733	146.09
396.942	98.99
397.152	158.38
397.361	125.61
397.57	121.51
397.78	139.94
397.989	82.6
398.198	166.57
398.407	156.33
398.617	139.94
398.826	103.08
399.035	152.23
399.244	78.51
399.453	154.28
399.663	168.62
399.872	166.57
400.081	76.46
400.29	117.42
400.499	125.61
400.708	189.1
400.917	101.03
401.127	53.93
401.336	82.6
401.545	209.58
401.754	191.14
401.963	225.96
402.172	129.7
402.381	144.04
402.59	125.61
402.799	166.57
403.008	223.91
403.217	158.38
403.426	154.28
403.635	113.32
403.844	238.25
404.053	148.14
404.262	172.71
404.471	209.58
404.68	119.46
404.888	119.46
405.097	172.71
405.306	223.91
405.515	166.57
405.724	193.19
405.933	201.38
406.142	260.77
406.35	240.29
406.559	234.15
406.768	223.91
406.977	266.92
407.185	271.01
407.394	236.2
407.603	215.72
407.812	248.49
408.02	291.49
408.229	279.21
408.438	277.16
408.646	330.41
408.855	277.16
409.064	373.41
409.272	307.88
409.481	354.98
409.69	324.26
409.898	387.75
410.107	352.93
410.315	410.28
410.524	400.04
410.733	438.95
410.941	492.2
411.15	434.85
411.358	445.09
411.567	522.91
411.775	531.11
411.984	506.53
412.192	529.06
412.401	557.73
412.609	613.03
412.818	672.42
413.026	719.52
413.234	658.08
413.443	680.61
413.651	676.51
413.86	766.62
414.068	813.73
414.276	762.53
414.485	811.68
414.693	809.63
414.901	836.25
415.11	856.73
415.318	928.41
415.526	893.6
415.734	942.75
415.943	1039
416.151	1079.96
416.359	952.99
416.567	1112.73
416.776	1141.4
416.984	1161.88
417.192	1297.05
417.4	1239.7
417.608	1338.01
417.817	1370.77
418.025	1514.13
418.233	1497.75
418.441	1413.78
418.649	1632.91
418.857	1710.74
419.065	1757.84
419.273	1530.52
419.481	1745.55
419.689	1874.57
419.897	1929.87
420.105	2026.12
420.313	2060.94
420.521	2144.91
420.729	2052.75
420.937	2163.34
421.145	2292.36
421.353	2507.4
421.561	2632.32
421.769	2529.92
421.977	2658.95
422.185	2595.46
422.393	2828.93
422.601	3031.68
422.809	3060.35
423.017	3152.51
423.224	3127.93
423.432	3295.86
423.64	3281.53
423.848	3582.58
424.056	3641.97
424.263	3705.46
424.471	3695.22
424.679	3826.29
424.887	4063.85
425.094	4137.58
425.302	4076.14
425.51	4446.82
425.718	4473.45
425.925	4438.63
426.133	4663.91
426.341	5130.84
426.548	5126.75
426.756	5165.66
426.964	5315.16
427.171	5552.73
427.379	5749.33
427.586	5732.95
427.794	5886.54
428.001	6261.32
428.209	6525.51
428.417	6586.95
428.624	6730.31
428.832	6937.15
429.039	6699.59
429.247	6840.9
429.454	7459.38
429.662	7954.99
429.869	7404.09
430.076	7922.23
430.284	7721.52
430.491	8157.74
430.699	8667.69
430.906	8462.89
431.114	8737.32
431.321	8978.98
431.528	9429.53
431.736	9861.65
431.943	10068.5
432.15	9806.36
432.358	10088.98
432.565	10670.6
432.772	10541.58
432.979	11209.22
433.187	11391.48
433.394	11551.23
433.601	11983.35
433.808	12194.29
434.016	12282.35
434.223	12571.11
434.43	13494.75
434.637	12913.13
434.844	13865.43
435.052	14279.12
435.259	14082.52
435.466	14162.39
435.673	14119.38
435.88	14838.22
436.087	15999.41
436.294	15780.28
436.501	15714.75
436.708	15643.07
436.915	16222.64
437.122	17050.02
437.329	17125.8
437.537	17353.12
437.743	17732
437.95	17602.97
438.157	18553.23
438.364	19384.71
438.571	19116.42
438.778	19220.87
438.985	21109.1
439.192	20218.23
439.399	20996.46
439.606	20519.28
439.813	21610.85
440.02	22944.08
440.227	22528.34
440.433	22442.32
440.64	23417.16
440.847	22923.6
441.054	23675.2
441.261	25010.48
441.467	24592.69
441.674	25336.1
441.881	26132.76
442.088	26013.98
442.294	25956.64
442.501	26568.98
442.708	26913.04
442.914	28170.49
443.121	29233.39
443.328	28588.28
443.534	30810.32
443.741	29581.54
443.948	29128.94
444.154	31342.8
444.361	31054.03
444.568	31434.96
444.774	31340.75
444.981	31590.6
445.187	32907.44
445.394	33939.62
445.6	33904.81
445.807	36984.95
446.013	35256.46
446.22	35731.59
446.426	37343.34
446.633	37709.93
446.839	39069.78
447.046	36710.52
447.252	39450.7
447.459	39358.55
447.665	39008.34
447.871	40810.56
448.078	42653.73
448.284	40345.67
448.491	41652.27
448.697	43517.97
448.903	43735.06
449.11	43939.85
449.316	43216.92
449.522	43614.23
449.728	44990.46
449.935	45289.46
450.141	45039.61
450.347	46180.33
450.553	44853.25
450.76	45389.81
450.966	46821.34
451.172	46303.21
451.378	47493.08
451.584	46239.72
451.791	47058.91
451.997	47345.62
452.203	48132.04
452.409	48158.67
452.615	47910.86
452.821	46108.65
453.027	45662.19
453.233	47908.82
453.44	45860.85
453.646	46438.37
453.852	46985.18
454.058	47341.53
454.264	45916.14
454.47	46745.57
454.676	45473.78
454.882	47196.12
455.088	43288.6
455.294	43782.16
455.5	44439.56
455.705	44621.83
455.911	42936.35
456.117	42027.05
456.323	41580.59
456.529	39516.24
456.735	40796.22
456.941	39387.22
457.147	39094.36
457.352	38312.03
457.558	37521.52
457.764	37529.71
457.97	37169.27
458.176	36638.84
458.381	36489.34
458.587	34646.17
458.793	34140.32
458.999	32508.09
459.204	34859.16
459.41	34326.69
459.616	31914.18
459.821	31738.05
460.027	31578.31
460.233	30951.63
460.438	29599.97
460.644	29741.28
460.85	28338.43
461.055	28156.16
461.261	28012.8
461.466	26112.28
461.672	25377.06
461.878	26997.01
462.083	25235.75
462.289	24604.98
462.494	24598.84
462.7	23736.64
462.905	22708.56
463.111	23640.39
463.316	23673.15
463.522	23492.93
463.727	23675.2
463.932	22956.36
464.138	23028.04
464.343	23175.5
464.549	22335.83
464.754	23378.25
464.959	23241.03
465.165	22739.28
465.37	21983.58
465.575	21492.07
465.781	22290.77
465.986	22464.85
466.191	21737.82
466.397	21008.75
466.602	20476.27
466.807	20707.69
467.012	20947.31
467.218	20736.37
