Data from USB4F104151__118__11-07-24-797.txt Node

Date: Wed Mar 12 11:07:24 EDT 2025
User: louis
Spectrometer: USB4F10415
Trigger mode: 4
Integration Time (sec): 2.000000E-2
Scans to average: 1
Electric dark correction enabled: true
Nonlinearity correction enabled: false
Boxcar width: 0
XAxis mode: Wavelengths
Number of Pixels in Spectrum: 3648
>>>>>Begin Spectral Data<<<<<
178.204	-101.72
178.424	-101.72
178.644	-101.72
178.864	-77.14
179.084	-60.76
179.304	35.5
179.524	-56.66
179.744	-13.65
179.964	41.64
180.184	-25.94
180.404	-19.8
180.624	31.4
180.844	25.26
181.064	-9.56
181.283	-3.41
181.503	-23.89
181.723	19.11
181.943	-48.47
182.163	31.4
182.383	-21.85
182.602	-7.51
182.822	23.21
183.042	29.35
183.262	25.26
183.482	-15.7
183.701	-60.76
183.921	17.07
184.141	-13.65
184.361	74.41
184.58	74.41
184.8	92.84
185.02	41.64
185.239	72.36
185.459	35.5
185.679	10.92
185.898	15.02
186.118	-1.37
186.338	0.68
186.557	23.21
186.777	-42.32
186.997	19.11
187.216	6.83
187.436	82.6
187.655	-40.28
187.875	29.35
188.095	25.26
188.314	-60.76
188.534	37.55
188.753	-42.32
188.973	4.78
189.192	49.83
189.412	-30.04
189.631	-5.46
189.851	39.59
190.07	80.55
190.29	-7.51
190.509	-5.46
190.729	35.5
190.948	-44.37
191.168	105.13
191.387	-9.56
191.607	43.69
191.826	41.64
192.045	39.59
192.265	47.79
192.484	62.12
192.704	10.92
192.923	-7.51
193.142	88.75
193.362	74.41
193.581	88.75
193.8	41.64
194.02	29.35
194.239	15.02
194.458	-32.08
194.678	45.74
194.897	17.07
195.116	-48.47
195.335	12.97
195.555	-64.85
195.774	41.64
195.993	15.02
196.212	78.51
196.432	-21.85
196.651	-5.46
196.87	-5.46
197.089	68.27
197.308	31.4
197.528	76.46
197.747	-15.7
197.966	74.41
198.185	51.88
198.404	10.92
198.623	68.27
198.842	115.37
199.062	4.78
199.281	10.92
199.5	-1.37
199.719	37.55
199.938	17.07
200.157	88.75
200.376	49.83
200.595	-58.71
200.814	-83.28
201.033	-25.94
201.252	-15.7
201.471	21.16
201.69	72.36
201.909	10.92
202.128	19.11
202.347	47.79
202.566	2.73
202.785	-25.94
203.004	101.03
203.223	72.36
203.442	2.73
203.661	-25.94
203.879	55.98
204.098	0.68
204.317	6.83
204.536	51.88
204.755	41.64
204.974	17.07
205.193	35.5
205.411	31.4
205.63	72.36
205.849	12.97
206.068	-44.37
206.287	6.83
206.505	39.59
206.724	-27.99
206.943	-27.99
207.162	2.73
207.381	96.94
207.599	27.31
207.818	45.74
208.037	-38.23
208.255	21.16
208.474	39.59
208.693	-15.7
208.911	-1.37
209.13	45.74
209.349	76.46
209.567	55.98
209.786	-30.04
210.005	10.92
210.223	43.69
210.442	10.92
210.661	60.07
210.879	60.07
211.098	-36.18
211.316	-5.46
211.535	23.21
211.753	-7.51
211.972	72.36
212.191	-7.51
212.409	23.21
212.628	-1.37
212.846	43.69
213.065	12.97
213.283	29.35
213.502	58.03
213.72	23.21
213.938	12.97
214.157	-56.66
214.375	27.31
214.594	39.59
214.812	6.83
215.031	103.08
215.249	-32.08
215.467	-7.51
215.686	51.88
215.904	-25.94
216.122	55.98
216.341	19.11
216.559	82.6
216.778	-17.75
216.996	10.92
217.214	80.55
217.432	10.92
217.651	37.55
217.869	80.55
218.087	41.64
218.306	47.79
218.524	45.74
218.742	4.78
218.96	45.74
219.179	51.88
219.397	-3.41
219.615	72.36
219.833	47.79
220.051	45.74
220.27	86.7
220.488	53.93
220.706	8.87
220.924	37.55
221.142	80.55
221.36	-25.94
221.578	33.45
221.796	4.78
222.015	49.83
222.233	19.11
222.451	6.83
222.669	0.68
222.887	92.84
223.105	43.69
223.323	31.4
223.541	17.07
223.759	49.83
223.977	25.26
224.195	-3.41
224.413	72.36
224.631	17.07
224.849	10.92
225.067	127.66
225.285	35.5
225.503	43.69
225.721	-3.41
225.939	12.97
226.157	41.64
226.375	39.59
226.592	-38.23
226.81	43.69
227.028	33.45
227.246	47.79
227.464	21.16
227.682	60.07
227.9	86.7
228.117	-40.28
228.335	-13.65
228.553	-7.51
228.771	90.79
228.989	23.21
229.206	51.88
229.424	10.92
229.642	51.88
229.86	2.73
230.077	29.35
230.295	21.16
230.513	21.16
230.731	55.98
230.948	51.88
231.166	-48.47
231.384	19.11
231.601	6.83
231.819	55.98
232.037	-7.51
232.254	17.07
232.472	43.69
232.689	33.45
232.907	92.84
233.125	2.73
233.342	29.35
233.56	43.69
233.777	25.26
233.995	55.98
234.213	51.88
234.43	-36.18
234.648	-17.75
234.865	49.83
235.083	66.22
235.3	0.68
235.518	76.46
235.735	17.07
235.953	94.89
236.17	55.98
236.388	2.73
236.605	76.46
236.822	4.78
237.04	66.22
237.257	0.68
237.475	29.35
237.692	35.5
237.909	-1.37
238.127	105.13
238.344	-7.51
238.562	-7.51
238.779	29.35
238.996	2.73
239.214	19.11
239.431	80.55
239.648	25.26
239.865	98.99
240.083	15.02
240.3	39.59
240.517	60.07
240.735	43.69
240.952	10.92
241.169	0.68
241.386	12.97
241.603	21.16
241.821	-5.46
242.038	86.7
242.255	33.45
242.472	-15.7
242.689	78.51
242.907	37.55
243.124	-42.32
243.341	82.6
243.558	15.02
243.775	-1.37
243.992	0.68
244.209	55.98
244.426	82.6
244.643	80.55
244.86	62.12
245.078	23.21
245.295	-23.89
245.512	43.69
245.729	76.46
245.946	94.89
246.163	15.02
246.38	29.35
246.597	-17.75
246.814	21.16
247.031	23.21
247.248	45.74
247.464	41.64
247.681	35.5
247.898	43.69
248.115	60.07
248.332	-9.56
248.549	41.64
248.766	-15.7
248.983	4.78
249.2	-25.94
249.417	43.69
249.633	19.11
249.85	47.79
250.067	-62.8
250.284	90.79
250.501	80.55
250.717	60.07
250.934	-11.61
251.151	76.46
251.368	27.31
251.585	43.69
251.801	45.74
252.018	2.73
252.235	74.41
252.451	17.07
252.668	23.21
252.885	-1.37
253.102	39.59
253.318	72.36
253.535	58.03
253.752	10.92
253.968	8.87
254.185	-15.7
254.401	2.73
254.618	64.17
254.835	-5.46
255.051	58.03
255.268	10.92
255.484	64.17
255.701	-9.56
255.917	45.74
256.134	68.27
256.351	58.03
256.567	-13.65
256.784	-42.32
257	-17.75
257.217	19.11
257.433	17.07
257.65	96.94
257.866	62.12
258.082	76.46
258.299	12.97
258.515	41.64
258.732	68.27
258.948	-13.65
259.165	37.55
259.381	45.74
259.597	21.16
259.814	-3.41
260.03	12.97
260.246	58.03
260.463	33.45
260.679	88.75
260.895	66.22
261.112	27.31
261.328	58.03
261.544	43.69
261.761	58.03
261.977	-7.51
262.193	8.87
262.409	-44.37
262.626	66.22
262.842	49.83
263.058	-3.41
263.274	29.35
263.49	17.07
263.707	27.31
263.923	2.73
264.139	-71
264.355	98.99
264.571	76.46
264.787	41.64
265.004	45.74
265.22	103.08
265.436	-9.56
265.652	37.55
265.868	58.03
266.084	47.79
266.3	23.21
266.516	29.35
266.732	88.75
266.948	41.64
267.164	-17.75
267.38	82.6
267.596	101.03
267.812	60.07
268.028	-68.95
268.244	-7.51
268.46	74.41
268.676	8.87
268.892	25.26
269.108	-5.46
269.324	19.11
269.54	-1.37
269.756	139.94
269.972	10.92
270.188	8.87
270.403	0.68
270.619	80.55
270.835	66.22
271.051	23.21
271.267	-23.89
271.483	12.97
271.698	2.73
271.914	43.69
272.13	74.41
272.346	78.51
272.562	41.64
272.777	62.12
272.993	17.07
273.209	51.88
273.425	12.97
273.64	-30.04
273.856	-21.85
274.072	15.02
274.287	41.64
274.503	49.83
274.719	78.51
274.934	49.83
275.15	19.11
275.366	4.78
275.581	29.35
275.797	25.26
276.012	10.92
276.228	-48.47
276.444	10.92
276.659	74.41
276.875	58.03
277.09	0.68
277.306	39.59
277.521	-17.75
277.737	6.83
277.952	117.42
278.168	60.07
278.383	43.69
278.599	-21.85
278.814	125.61
279.03	27.31
279.245	31.4
279.461	8.87
279.676	82.6
279.892	-5.46
280.107	15.02
280.322	-25.94
280.538	-36.18
280.753	49.83
280.969	64.17
281.184	-5.46
281.399	82.6
281.615	35.5
281.83	4.78
282.045	-60.76
282.26	33.45
282.476	66.22
282.691	90.79
282.906	-23.89
283.122	19.11
283.337	-30.04
283.552	19.11
283.767	35.5
283.983	6.83
284.198	15.02
284.413	113.32
284.628	60.07
284.843	25.26
285.058	51.88
285.274	80.55
285.489	82.6
285.704	53.93
285.919	-56.66
286.134	78.51
286.349	82.6
286.564	15.02
286.779	72.36
286.995	45.74
287.21	19.11
287.425	51.88
287.64	53.93
287.855	55.98
288.07	-38.23
288.285	80.55
288.5	-25.94
288.715	96.94
288.93	64.17
289.145	37.55
289.36	82.6
289.575	21.16
289.79	66.22
290.004	25.26
290.219	15.02
290.434	29.35
290.649	-3.41
290.864	39.59
291.079	2.73
291.294	-9.56
291.509	8.87
291.724	107.18
291.938	-9.56
292.153	43.69
292.368	29.35
292.583	60.07
292.798	51.88
293.012	74.41
293.227	51.88
293.442	58.03
293.657	39.59
293.871	62.12
294.086	4.78
294.301	80.55
294.516	49.83
294.73	51.88
294.945	78.51
295.16	-17.75
295.374	131.75
295.589	55.98
295.804	55.98
296.018	49.83
296.233	82.6
296.447	98.99
296.662	66.22
296.877	29.35
297.091	6.83
297.306	49.83
297.52	53.93
297.735	8.87
297.949	64.17
298.164	23.21
298.378	-44.37
298.593	96.94
298.807	39.59
299.022	15.02
299.236	10.92
299.451	37.55
299.665	-56.66
299.88	82.6
300.094	45.74
300.309	72.36
300.523	-32.08
300.737	29.35
300.952	19.11
301.166	92.84
301.381	25.26
301.595	78.51
301.809	15.02
302.024	49.83
302.238	-9.56
302.452	66.22
302.667	49.83
302.881	68.27
303.095	82.6
303.309	-5.46
303.524	-13.65
303.738	12.97
303.952	23.21
304.166	88.75
304.381	27.31
304.595	64.17
304.809	33.45
305.023	12.97
305.237	51.88
305.452	8.87
305.666	72.36
305.88	62.12
306.094	6.83
306.308	37.55
306.522	41.64
306.736	2.73
306.95	0.68
307.164	78.51
307.379	58.03
307.593	29.35
307.807	117.42
308.021	31.4
308.235	107.18
308.449	-25.94
308.663	86.7
308.877	187.05
309.091	29.35
309.305	45.74
309.519	29.35
309.733	74.41
309.947	82.6
310.161	55.98
310.374	98.99
310.588	88.75
310.802	35.5
311.016	8.87
311.23	2.73
311.444	6.83
311.658	98.99
311.872	86.7
312.085	72.36
312.299	64.17
312.513	27.31
312.727	53.93
312.941	37.55
313.154	90.79
313.368	80.55
313.582	47.79
313.796	70.31
314.009	60.07
314.223	10.92
314.437	62.12
314.651	88.75
314.864	0.68
315.078	39.59
315.292	37.55
315.505	66.22
315.719	19.11
315.933	19.11
316.146	47.79
316.36	49.83
316.573	72.36
316.787	92.84
317.001	29.35
317.214	-25.94
317.428	33.45
317.641	39.59
317.855	90.79
318.068	66.22
318.282	66.22
318.495	62.12
318.709	27.31
318.922	-30.04
319.136	-19.8
319.349	94.89
319.563	0.68
319.776	41.64
319.99	21.16
320.203	15.02
320.417	90.79
320.63	43.69
320.843	78.51
321.057	6.83
321.27	58.03
321.483	76.46
321.697	154.28
321.91	43.69
322.124	12.97
322.337	109.22
322.55	35.5
322.763	2.73
322.977	31.4
323.19	82.6
323.403	-5.46
323.617	2.73
323.83	113.32
324.043	86.7
324.256	60.07
324.469	64.17
324.683	0.68
324.896	66.22
325.109	33.45
325.322	25.26
325.535	53.93
325.748	123.56
325.962	53.93
326.175	29.35
326.388	119.46
326.601	60.07
326.814	78.51
327.027	-19.8
327.24	58.03
327.453	92.84
327.666	-11.61
327.879	92.84
328.092	60.07
328.305	23.21
328.518	33.45
328.731	45.74
328.944	25.26
329.157	-30.04
329.37	33.45
329.583	70.31
329.796	125.61
330.009	-17.75
330.222	49.83
330.435	88.75
330.648	35.5
330.861	19.11
331.073	-50.52
331.286	76.46
331.499	27.31
331.712	51.88
331.925	72.36
332.138	6.83
332.35	78.51
332.563	10.92
332.776	109.22
332.989	15.02
333.202	10.92
333.414	27.31
333.627	86.7
333.84	-30.04
334.053	51.88
334.265	86.7
334.478	45.74
334.691	49.83
334.903	51.88
335.116	-3.41
335.329	64.17
335.541	19.11
335.754	103.08
335.966	-3.41
336.179	78.51
336.392	78.51
336.604	-13.65
336.817	35.5
337.029	92.84
337.242	92.84
337.454	84.65
337.667	31.4
337.88	70.31
338.092	-42.32
338.305	58.03
338.517	6.83
338.729	49.83
338.942	82.6
339.154	-34.13
339.367	25.26
339.579	66.22
339.792	-52.56
340.004	160.42
340.217	41.64
340.429	4.78
340.641	72.36
340.854	41.64
341.066	10.92
341.278	31.4
341.491	107.18
341.703	64.17
341.915	51.88
342.128	37.55
342.34	84.65
342.552	68.27
342.764	66.22
342.977	66.22
343.189	55.98
343.401	29.35
343.613	-15.7
343.826	53.93
344.038	-9.56
344.25	-17.75
344.462	25.26
344.674	84.65
344.886	31.4
345.099	-23.89
345.311	78.51
345.523	88.75
345.735	-7.51
345.947	72.36
346.159	-15.7
346.371	0.68
346.583	88.75
346.795	86.7
347.007	35.5
347.219	19.11
347.431	37.55
347.643	94.89
347.855	76.46
348.067	135.85
348.279	35.5
348.491	82.6
348.703	51.88
348.915	-34.13
349.127	76.46
349.339	-15.7
349.551	70.31
349.763	113.32
349.975	78.51
350.187	111.27
350.399	74.41
350.61	33.45
350.822	72.36
351.034	-23.89
351.246	82.6
351.458	60.07
351.669	80.55
351.881	123.56
352.093	109.22
352.305	62.12
352.517	58.03
352.728	43.69
352.94	27.31
353.152	137.9
353.363	-64.85
353.575	-38.23
353.787	78.51
353.999	60.07
354.21	68.27
354.422	47.79
354.633	62.12
354.845	64.17
355.057	-21.85
355.268	109.22
355.48	51.88
355.692	25.26
355.903	6.83
356.115	47.79
356.326	60.07
356.538	68.27
356.749	-11.61
356.961	41.64
357.172	84.65
357.384	103.08
357.595	107.18
357.807	103.08
358.018	10.92
358.23	-1.37
358.441	197.29
358.653	35.5
358.864	111.27
359.075	64.17
359.287	84.65
359.498	2.73
359.709	-5.46
359.921	41.64
360.132	101.03
360.344	74.41
360.555	43.69
360.766	86.7
360.977	123.56
361.189	96.94
361.4	86.7
361.611	27.31
361.823	62.12
362.034	101.03
362.245	84.65
362.456	29.35
362.667	66.22
362.879	76.46
363.09	107.18
363.301	37.55
363.512	49.83
363.723	2.73
363.935	41.64
364.146	47.79
364.357	60.07
364.568	86.7
364.779	-9.56
364.99	72.36
365.201	-15.7
365.412	105.13
365.623	41.64
365.834	19.11
366.045	21.16
366.256	90.79
366.467	47.79
366.678	86.7
366.889	68.27
367.1	105.13
367.311	60.07
367.522	23.21
367.733	68.27
367.944	62.12
368.155	51.88
368.366	64.17
368.577	33.45
368.788	86.7
368.999	-34.13
369.209	111.27
369.42	141.99
369.631	29.35
369.842	84.65
370.053	72.36
370.264	60.07
370.474	92.84
370.685	8.87
370.896	96.94
371.107	123.56
371.317	53.93
371.528	72.36
371.739	105.13
371.95	72.36
372.16	64.17
372.371	-27.99
372.582	47.79
372.792	74.41
373.003	109.22
373.214	35.5
373.424	94.89
373.635	68.27
373.846	178.86
374.056	84.65
374.267	41.64
374.477	109.22
374.688	37.55
374.898	103.08
375.109	41.64
375.319	45.74
375.53	70.31
375.74	66.22
375.951	41.64
376.161	74.41
376.372	133.8
376.582	51.88
376.793	84.65
377.003	60.07
377.214	72.36
377.424	58.03
377.635	60.07
377.845	12.97
378.055	113.32
378.266	55.98
378.476	29.35
378.686	35.5
378.897	94.89
379.107	92.84
379.317	53.93
379.528	4.78
379.738	101.03
379.948	137.9
380.158	31.4
380.369	94.89
380.579	193.19
380.789	29.35
380.999	115.37
381.21	101.03
381.42	133.8
381.63	0.68
381.84	94.89
382.05	80.55
382.261	86.7
382.471	51.88
382.681	90.79
382.891	62.12
383.101	53.93
383.311	96.94
383.521	43.69
383.731	66.22
383.941	41.64
384.151	-1.37
384.361	8.87
384.571	141.99
384.781	23.21
384.991	19.11
385.201	135.85
385.411	80.55
385.621	70.31
385.831	84.65
386.041	74.41
386.251	70.31
386.461	129.7
386.671	19.11
386.881	58.03
387.091	25.26
387.301	125.61
387.511	96.94
387.72	107.18
387.93	115.37
388.14	113.32
388.35	105.13
388.56	98.99
388.769	150.18
388.979	64.17
389.189	86.7
389.399	-23.89
389.609	64.17
389.818	58.03
390.028	55.98
390.238	58.03
390.447	78.51
390.657	137.9
390.867	105.13
391.076	164.52
391.286	68.27
391.496	0.68
391.705	90.79
391.915	41.64
392.125	137.9
392.334	109.22
392.544	107.18
392.753	135.85
392.963	98.99
393.172	172.71
393.382	53.93
393.591	131.75
393.801	88.75
394.01	105.13
394.22	154.28
394.429	51.88
394.639	68.27
394.848	201.38
395.058	152.23
395.267	82.6
395.477	98.99
395.686	117.42
395.895	115.37
396.105	191.14
396.314	49.83
396.524	105.13
396.733	113.32
396.942	129.7
397.152	113.32
397.361	137.9
397.57	127.66
397.78	174.76
397.989	232.1
398.198	125.61
398.407	58.03
398.617	131.75
398.826	123.56
399.035	96.94
399.244	195.24
399.453	176.81
399.663	129.7
399.872	168.62
400.081	51.88
400.29	170.66
400.499	88.75
400.708	119.46
400.917	187.05
401.127	150.18
401.336	160.42
401.545	170.66
401.754	213.67
401.963	123.56
402.172	205.48
402.381	154.28
402.59	238.25
402.799	154.28
403.008	205.48
403.217	176.81
403.426	35.5
403.635	135.85
403.844	160.42
404.053	201.38
404.262	176.81
404.471	209.58
404.68	158.38
404.888	211.62
405.097	215.72
405.306	213.67
405.515	215.72
405.724	242.34
405.933	297.64
406.142	219.82
406.35	250.53
406.559	281.25
406.768	205.48
406.977	268.97
407.185	219.82
407.394	248.49
407.603	340.65
407.812	252.58
408.02	293.54
408.229	266.92
408.438	277.16
408.646	342.69
408.855	371.37
409.064	303.78
409.272	393.89
409.481	410.28
409.69	365.22
409.898	359.08
410.107	477.86
410.315	436.9
410.524	453.28
410.733	449.19
410.941	496.29
411.15	539.3
411.358	518.82
411.567	549.54
411.775	559.78
411.984	594.59
412.192	656.03
412.401	670.37
412.609	637.6
412.818	733.86
413.026	715.42
413.234	826.01
413.443	733.86
413.651	809.63
413.86	821.92
414.068	914.08
414.276	883.36
414.485	912.03
414.693	940.7
414.901	1016.48
415.11	969.37
415.318	1024.67
415.526	1182.36
415.734	1047.19
415.943	1155.74
416.151	1153.69
416.359	1206.94
416.567	1237.66
416.776	1340.05
416.984	1338.01
417.192	1378.97
417.4	1383.06
417.608	1567.38
417.817	1575.57
418.025	1573.52
418.233	1739.41
418.441	1698.45
418.649	1587.86
418.857	1917.58
419.065	1909.39
419.273	1868.43
419.481	2132.62
419.689	2060.94
419.897	2216.58
420.105	2271.88
420.313	2296.46
420.521	2331.27
420.729	2417.29
420.937	2554.5
421.145	2730.62
421.353	2669.19
421.561	2873.98
421.769	2955.9
421.977	2984.57
422.185	3017.34
422.393	3181.18
422.601	3431.03
422.809	3390.07
423.017	3471.99
423.224	3465.85
423.432	3961.45
423.64	3867.25
423.848	4024.94
424.056	3908.21
424.263	4268.65
424.471	4102.76
424.679	4360.81
424.887	4594.28
425.094	4934.24
425.302	4792.93
425.51	4864.61
425.718	5093.98
425.925	5220.95
426.133	5313.11
426.341	5759.57
426.548	5976.66
426.756	5823.06
426.964	5982.8
427.171	6269.51
427.379	6283.85
427.586	6636.1
427.794	6744.64
428.001	7189.05
428.209	7268.92
428.417	7328.31
428.624	7752.24
428.832	7842.35
429.039	7582.26
429.247	7752.24
429.454	8501.8
429.662	9013.79
429.869	8563.24
430.076	9320.99
430.284	8882.72
430.491	9275.93
430.699	9761.3
430.906	9740.82
431.114	9695.77
431.321	10197.52
431.528	10365.45
431.736	10889.73
431.943	11504.12
432.15	11305.47
432.358	11471.36
432.565	12163.57
432.772	12104.18
432.979	12554.73
433.187	12671.47
433.394	13177.31
433.601	13937.11
433.808	13734.36
434.016	13918.68
434.223	14129.62
434.43	15223.23
434.637	15088.07
434.844	15737.27
435.052	16204.21
435.259	16169.4
435.466	16050.61
435.673	15925.69
435.88	16888.23
436.087	18117.01
436.294	17891.74
436.501	17564.06
436.708	18006.42
436.915	18698.64
437.122	19372.42
437.329	19405.19
437.537	19960.19
437.743	20463.99
437.95	20050.3
438.157	21014.89
438.364	22219.1
438.571	21866.85
438.778	21844.32
438.985	23767.36
439.192	23144.78
439.399	24291.64
439.606	23216.46
439.813	24727.86
440.02	26485.01
440.227	25381.16
440.433	25375.02
440.64	26163.48
440.847	25874.72
441.054	26790.16
441.261	28528.89
441.467	28039.42
441.674	28819.7
441.881	29767.91
442.088	29518.06
442.294	29366.51
442.501	30200.03
442.708	30556.38
442.914	31961.28
443.121	33503.4
443.328	32487.61
443.534	34885.78
443.741	33495.21
443.948	33552.55
444.154	35627.15
444.361	35659.91
444.568	36034.69
444.774	36167.81
444.981	36206.72
445.187	36892.79
445.394	38692.96
445.6	38211.68
445.807	42055.72
446.013	40230.98
446.22	40661.05
446.426	42176.55
446.633	42414.12
446.839	43878.41
447.046	42377.25
447.252	44351.49
447.459	44496.9
447.665	44027.91
447.871	46499.81
448.078	48302.03
448.284	46077.93
448.491	47273.95
448.697	49004.48
448.903	49600.44
449.11	49751.99
449.316	48654.28
449.522	50089.9
449.728	50984.86
449.935	51670.93
450.141	51031.97
450.347	52780.93
450.553	50751.4
450.76	51482.52
450.966	52809.6
451.172	52346.76
451.378	53284.73
451.584	52506.51
451.791	53522.3
451.997	53440.38
452.203	54628.2
452.409	54339.44
452.615	54294.38
452.821	52113.3
453.027	51759
453.233	54325.1
453.44	51875.73
453.646	52703.11
453.852	52961.15
454.058	53573.5
454.264	51732.37
454.47	52928.39
454.676	51670.93
454.882	53155.71
455.088	48132.04
455.294	49831.86
455.5	50145.2
455.705	50708.39
455.911	48666.56
456.117	47466.45
456.323	46845.92
456.529	44525.57
456.735	46362.6
456.941	45445.11
457.147	44429.32
457.352	43020.31
457.558	42807.33
457.764	42915.87
457.97	41820.2
458.176	41048.12
458.381	41015.35
458.587	39012.44
458.793	39293.01
458.999	37249.14
459.204	39743.56
459.41	38920.28
459.616	36141.19
459.821	36282.5
460.027	36006.02
460.233	35309.71
460.438	33661.1
460.644	34113.7
460.85	32598.2
461.055	31885.51
461.261	31848.64
461.466	29602.02
461.672	28649.72
461.878	30738.65
462.083	28858.61
462.289	28221.69
462.494	28027.14
462.7	26505.49
462.905	26155.29
463.111	26874.13
463.316	26695.96
463.522	26595.6
463.727	26538.26
463.932	26251.55
464.138	25997.6
464.343	26091.8
464.549	25340.2
464.754	26179.87
464.959	25975.07
465.165	25915.68
465.37	24721.71
465.575	24107.32
465.781	25276.71
465.986	25542.95
466.191	24332.6
466.397	24056.12
466.602	22554.96
466.807	23982.4
467.012	23583.04
