Data from USB4F104151__282__11-12-53-989.txt Node

Date: Wed Mar 12 11:12:54 EDT 2025
User: louis
Spectrometer: USB4F10415
Trigger mode: 4
Integration Time (sec): 2.000000E-2
Scans to average: 1
Electric dark correction enabled: true
Nonlinearity correction enabled: false
Boxcar width: 0
XAxis mode: Wavelengths
Number of Pixels in Spectrum: 3648
>>>>>Begin Spectral Data<<<<<
178.204	-46.42
178.424	-46.42
178.644	-46.42
178.864	-19.8
179.084	-34.13
179.304	-48.47
179.524	-5.46
179.744	43.69
179.964	2.73
180.184	60.07
180.404	17.07
180.624	-7.51
180.844	-30.04
181.064	88.75
181.283	6.83
181.503	-46.42
181.723	-81.24
181.943	17.07
182.163	72.36
182.383	35.5
182.602	105.13
182.822	45.74
183.042	76.46
183.262	-27.99
183.482	66.22
183.701	-42.32
183.921	84.65
184.141	19.11
184.361	121.51
184.58	8.87
184.8	62.12
185.02	-9.56
185.239	35.5
185.459	58.03
185.679	72.36
185.898	0.68
186.118	76.46
186.338	49.83
186.557	31.4
186.777	21.16
186.997	64.17
187.216	8.87
187.436	43.69
187.655	154.28
187.875	60.07
188.095	23.21
188.314	15.02
188.534	51.88
188.753	55.98
188.973	17.07
189.192	4.78
189.412	96.94
189.631	6.83
189.851	72.36
190.07	78.51
190.29	39.59
190.509	64.17
190.729	45.74
190.948	88.75
191.168	121.51
191.387	6.83
191.607	12.97
191.826	25.26
192.045	47.79
192.265	19.11
192.484	33.45
192.704	74.41
192.923	43.69
193.142	35.5
193.362	17.07
193.581	80.55
193.8	53.93
194.02	88.75
194.239	31.4
194.458	23.21
194.678	78.51
194.897	35.5
195.116	51.88
195.335	17.07
195.555	109.22
195.774	19.11
195.993	8.87
196.212	4.78
196.432	96.94
196.651	39.59
196.87	96.94
197.089	90.79
197.308	33.45
197.528	86.7
197.747	39.59
197.966	27.31
198.185	86.7
198.404	74.41
198.623	70.31
198.842	55.98
199.062	109.22
199.281	76.46
199.5	10.92
199.719	70.31
199.938	94.89
200.157	90.79
200.376	72.36
200.595	58.03
200.814	60.07
201.033	62.12
201.252	21.16
201.471	39.59
201.69	70.31
201.909	58.03
202.128	43.69
202.347	129.7
202.566	27.31
202.785	90.79
203.004	-3.41
203.223	123.56
203.442	58.03
203.661	29.35
203.879	12.97
204.098	31.4
204.317	60.07
204.536	49.83
204.755	70.31
204.974	68.27
205.193	84.65
205.411	64.17
205.63	90.79
205.849	103.08
206.068	-40.28
206.287	15.02
206.505	68.27
206.724	53.93
206.943	47.79
207.162	68.27
207.381	31.4
207.599	15.02
207.818	62.12
208.037	33.45
208.255	-81.24
208.474	55.98
208.693	66.22
208.911	60.07
209.13	17.07
209.349	101.03
209.567	21.16
209.786	135.85
210.005	23.21
210.223	-11.61
210.442	47.79
210.661	60.07
210.879	109.22
211.098	35.5
211.316	144.04
211.535	107.18
211.753	31.4
211.972	74.41
212.191	74.41
212.409	43.69
212.628	107.18
212.846	35.5
213.065	96.94
213.283	92.84
213.502	58.03
213.72	45.74
213.938	2.73
214.157	53.93
214.375	19.11
214.594	45.74
214.812	74.41
215.031	31.4
215.249	37.55
215.467	70.31
215.686	19.11
215.904	88.75
216.122	74.41
216.341	35.5
216.559	68.27
216.778	12.97
216.996	51.88
217.214	6.83
217.432	27.31
217.651	70.31
217.869	-50.52
218.087	64.17
218.306	84.65
218.524	43.69
218.742	80.55
218.96	47.79
219.179	29.35
219.397	31.4
219.615	92.84
219.833	25.26
220.051	4.78
220.27	37.55
220.488	64.17
220.706	51.88
220.924	10.92
221.142	23.21
221.36	35.5
221.578	45.74
221.796	82.6
222.015	53.93
222.233	58.03
222.451	64.17
222.669	109.22
222.887	58.03
223.105	55.98
223.323	41.64
223.541	39.59
223.759	37.55
223.977	55.98
224.195	86.7
224.413	74.41
224.631	45.74
224.849	98.99
225.067	115.37
225.285	101.03
225.503	90.79
225.721	-21.85
225.939	58.03
226.157	19.11
226.375	113.32
226.592	76.46
226.81	62.12
227.028	98.99
227.246	66.22
227.464	4.78
227.682	41.64
227.9	47.79
228.117	39.59
228.335	105.13
228.553	43.69
228.771	74.41
228.989	45.74
229.206	47.79
229.424	35.5
229.642	53.93
229.86	25.26
230.077	15.02
230.295	53.93
230.513	51.88
230.731	10.92
230.948	70.31
231.166	107.18
231.384	-5.46
231.601	72.36
231.819	84.65
232.037	21.16
232.254	0.68
232.472	31.4
232.689	117.42
232.907	23.21
233.125	68.27
233.342	-1.37
233.56	98.99
233.777	49.83
233.995	-1.37
234.213	96.94
234.43	74.41
234.648	39.59
234.865	105.13
235.083	94.89
235.3	90.79
235.518	60.07
235.735	129.7
235.953	-11.61
236.17	64.17
236.388	94.89
236.605	33.45
236.822	84.65
237.04	84.65
237.257	103.08
237.475	-9.56
237.692	96.94
237.909	51.88
238.127	74.41
238.344	98.99
238.562	115.37
238.779	19.11
238.996	-13.65
239.214	45.74
239.431	68.27
239.648	35.5
239.865	86.7
240.083	43.69
240.3	111.27
240.517	49.83
240.735	43.69
240.952	101.03
241.169	72.36
241.386	84.65
241.603	76.46
241.821	37.55
242.038	15.02
242.255	70.31
242.472	41.64
242.689	68.27
242.907	55.98
243.124	53.93
243.341	31.4
243.558	111.27
243.775	29.35
243.992	15.02
244.209	109.22
244.426	35.5
244.643	37.55
244.86	62.12
245.078	88.75
245.295	60.07
245.512	137.9
245.729	41.64
245.946	80.55
246.163	60.07
246.38	-17.75
246.597	66.22
246.814	86.7
247.031	53.93
247.248	60.07
247.464	84.65
247.681	80.55
247.898	74.41
248.115	17.07
248.332	27.31
248.549	64.17
248.766	105.13
248.983	21.16
249.2	58.03
249.417	49.83
249.633	53.93
249.85	58.03
250.067	29.35
250.284	148.14
250.501	119.46
250.717	84.65
250.934	84.65
251.151	43.69
251.368	78.51
251.585	109.22
251.801	43.69
252.018	74.41
252.235	115.37
252.451	64.17
252.668	39.59
252.885	86.7
253.102	55.98
253.318	182.95
253.535	55.98
253.752	58.03
253.968	49.83
254.185	90.79
254.401	49.83
254.618	111.27
254.835	98.99
255.051	68.27
255.268	107.18
255.484	4.78
255.701	43.69
255.917	64.17
256.134	64.17
256.351	29.35
256.567	35.5
256.784	41.64
257	58.03
257.217	-3.41
257.433	21.16
257.65	105.13
257.866	43.69
258.082	96.94
258.299	55.98
258.515	43.69
258.732	113.32
258.948	64.17
259.165	109.22
259.381	-3.41
259.597	-17.75
259.814	60.07
260.03	47.79
260.246	111.27
260.463	43.69
260.679	84.65
260.895	115.37
261.112	105.13
261.328	90.79
261.544	70.31
261.761	121.51
261.977	98.99
262.193	-40.28
262.409	90.79
262.626	41.64
262.842	49.83
263.058	27.31
263.274	101.03
263.49	41.64
263.707	88.75
263.923	86.7
264.139	64.17
264.355	72.36
264.571	43.69
264.787	101.03
265.004	47.79
265.22	60.07
265.436	90.79
265.652	66.22
265.868	94.89
266.084	-25.94
266.3	84.65
266.516	49.83
266.732	64.17
266.948	166.57
267.164	-1.37
267.38	19.11
267.596	74.41
267.812	19.11
268.028	62.12
268.244	55.98
268.46	103.08
268.676	21.16
268.892	6.83
269.108	12.97
269.324	33.45
269.54	41.64
269.756	111.27
269.972	92.84
270.188	78.51
270.403	88.75
270.619	80.55
270.835	66.22
271.051	45.74
271.267	27.31
271.483	-7.51
271.698	60.07
271.914	146.09
272.13	94.89
272.346	105.13
272.562	15.02
272.777	113.32
272.993	25.26
273.209	162.47
273.425	68.27
273.64	35.5
273.856	72.36
274.072	80.55
274.287	84.65
274.503	96.94
274.719	96.94
274.934	49.83
275.15	23.21
275.366	68.27
275.581	58.03
275.797	88.75
276.012	92.84
276.228	31.4
276.444	17.07
276.659	82.6
276.875	82.6
277.09	90.79
277.306	41.64
277.521	123.56
277.737	105.13
277.952	178.86
278.168	23.21
278.383	107.18
278.599	66.22
278.814	82.6
279.03	88.75
279.245	168.62
279.461	68.27
279.676	68.27
279.892	39.59
280.107	72.36
280.322	29.35
280.538	74.41
280.753	76.46
280.969	55.98
281.184	66.22
281.399	170.66
281.615	78.51
281.83	60.07
282.045	74.41
282.26	111.27
282.476	84.65
282.691	66.22
282.906	33.45
283.122	74.41
283.337	35.5
283.552	78.51
283.767	60.07
283.983	10.92
284.198	86.7
284.413	45.74
284.628	6.83
284.843	72.36
285.058	45.74
285.274	80.55
285.489	58.03
285.704	76.46
285.919	41.64
286.134	105.13
286.349	35.5
286.564	105.13
286.779	90.79
286.995	113.32
287.21	35.5
287.425	72.36
287.64	64.17
287.855	43.69
288.07	66.22
288.285	72.36
288.5	101.03
288.715	103.08
288.93	103.08
289.145	-27.99
289.36	55.98
289.575	43.69
289.79	117.42
290.004	60.07
290.219	51.88
290.434	4.78
290.649	115.37
290.864	64.17
291.079	10.92
291.294	119.46
291.509	51.88
291.724	103.08
291.938	41.64
292.153	78.51
292.368	96.94
292.583	74.41
292.798	127.66
293.012	70.31
293.227	51.88
293.442	88.75
293.657	78.51
293.871	64.17
294.086	55.98
294.301	127.66
294.516	70.31
294.73	41.64
294.945	35.5
295.16	90.79
295.374	0.68
295.589	64.17
295.804	19.11
296.018	8.87
296.233	51.88
296.447	27.31
296.662	66.22
296.877	86.7
297.091	98.99
297.306	15.02
297.52	47.79
297.735	76.46
297.949	66.22
298.164	-5.46
298.378	19.11
298.593	84.65
298.807	125.61
299.022	62.12
299.236	45.74
299.451	84.65
299.665	55.98
299.88	78.51
300.094	60.07
300.309	60.07
300.523	101.03
300.737	62.12
300.952	103.08
301.166	84.65
301.381	25.26
301.595	58.03
301.809	84.65
302.024	10.92
302.238	90.79
302.452	125.61
302.667	70.31
302.881	109.22
303.095	64.17
303.309	70.31
303.524	0.68
303.738	27.31
303.952	27.31
304.166	135.85
304.381	47.79
304.595	125.61
304.809	84.65
305.023	76.46
305.237	51.88
305.452	51.88
305.666	31.4
305.88	19.11
306.094	101.03
306.308	78.51
306.522	101.03
306.736	78.51
306.95	90.79
307.164	84.65
307.379	19.11
307.593	15.02
307.807	51.88
308.021	39.59
308.235	86.7
308.449	35.5
308.663	84.65
308.877	45.74
309.091	82.6
309.305	37.55
309.519	72.36
309.733	96.94
309.947	121.51
310.161	90.79
310.374	107.18
310.588	82.6
310.802	82.6
311.016	84.65
311.23	90.79
311.444	72.36
311.658	19.11
311.872	127.66
312.085	17.07
312.299	76.46
312.513	64.17
312.727	146.09
312.941	29.35
313.154	76.46
313.368	62.12
313.582	64.17
313.796	129.7
314.009	64.17
314.223	58.03
314.437	19.11
314.651	39.59
314.864	90.79
315.078	60.07
315.292	66.22
315.505	62.12
315.719	49.83
315.933	86.7
316.146	51.88
316.36	-1.37
316.573	119.46
316.787	33.45
317.001	101.03
317.214	125.61
317.428	96.94
317.641	131.75
317.855	84.65
318.068	168.62
318.282	160.42
318.495	80.55
318.709	72.36
318.922	76.46
319.136	148.14
319.349	127.66
319.563	92.84
319.776	64.17
319.99	129.7
320.203	94.89
320.417	80.55
320.63	86.7
320.843	105.13
321.057	84.65
321.27	53.93
321.483	33.45
321.697	37.55
321.91	55.98
322.124	119.46
322.337	94.89
322.55	53.93
322.763	55.98
322.977	31.4
323.19	39.59
323.403	70.31
323.617	121.51
323.83	80.55
324.043	58.03
324.256	27.31
324.469	92.84
324.683	23.21
324.896	68.27
325.109	113.32
325.322	6.83
325.535	111.27
325.748	68.27
325.962	74.41
326.175	55.98
326.388	98.99
326.601	80.55
326.814	58.03
327.027	55.98
327.24	137.9
327.453	51.88
327.666	78.51
327.879	98.99
328.092	107.18
328.305	43.69
328.518	33.45
328.731	96.94
328.944	119.46
329.157	109.22
329.37	119.46
329.583	109.22
329.796	58.03
330.009	15.02
330.222	92.84
330.435	76.46
330.648	45.74
330.861	66.22
331.073	133.8
331.286	129.7
331.499	49.83
331.712	80.55
331.925	96.94
332.138	109.22
332.35	88.75
332.563	62.12
332.776	137.9
332.989	15.02
333.202	68.27
333.414	66.22
333.627	37.55
333.84	21.16
334.053	88.75
334.265	84.65
334.478	25.26
334.691	47.79
334.903	121.51
335.116	27.31
335.329	58.03
335.541	78.51
335.754	103.08
335.966	94.89
336.179	41.64
336.392	41.64
336.604	68.27
336.817	29.35
337.029	72.36
337.242	72.36
337.454	31.4
337.667	139.94
337.88	123.56
338.092	156.33
338.305	41.64
338.517	158.38
338.729	62.12
338.942	66.22
339.154	107.18
339.367	17.07
339.579	135.85
339.792	164.52
340.004	64.17
340.217	76.46
340.429	80.55
340.641	101.03
340.854	160.42
341.066	55.98
341.278	82.6
341.491	84.65
341.703	144.04
341.915	90.79
342.128	21.16
342.34	127.66
342.552	70.31
342.764	115.37
342.977	148.14
343.189	25.26
343.401	105.13
343.613	19.11
343.826	64.17
344.038	49.83
344.25	60.07
344.462	68.27
344.674	27.31
344.886	129.7
345.099	78.51
345.311	47.79
345.523	47.79
345.735	51.88
345.947	105.13
346.159	90.79
346.371	55.98
346.583	125.61
346.795	90.79
347.007	144.04
347.219	74.41
347.431	47.79
347.643	76.46
347.855	0.68
348.067	55.98
348.279	94.89
348.491	78.51
348.703	103.08
348.915	123.56
349.127	41.64
349.339	109.22
349.551	31.4
349.763	115.37
349.975	37.55
350.187	84.65
350.399	137.9
350.61	58.03
350.822	86.7
351.034	43.69
351.246	90.79
351.458	111.27
351.669	98.99
351.881	27.31
352.093	92.84
352.305	139.94
352.517	82.6
352.728	19.11
352.94	94.89
353.152	98.99
353.363	55.98
353.575	66.22
353.787	84.65
353.999	53.93
354.21	164.52
354.422	58.03
354.633	-13.65
354.845	109.22
355.057	101.03
355.268	72.36
355.48	119.46
355.692	55.98
355.903	41.64
356.115	146.09
356.326	53.93
356.538	113.32
356.749	72.36
356.961	109.22
357.172	76.46
357.384	86.7
357.595	33.45
357.807	39.59
358.018	150.18
358.23	113.32
358.441	70.31
358.653	88.75
358.864	27.31
359.075	78.51
359.287	84.65
359.498	131.75
359.709	17.07
359.921	27.31
360.132	64.17
360.344	137.9
360.555	107.18
360.766	37.55
360.977	51.88
361.189	101.03
361.4	78.51
361.611	68.27
361.823	105.13
362.034	150.18
362.245	62.12
362.456	92.84
362.667	58.03
362.879	115.37
363.09	39.59
363.301	94.89
363.512	150.18
363.723	35.5
363.935	133.8
364.146	166.57
364.357	109.22
364.568	103.08
364.779	80.55
364.99	166.57
365.201	70.31
365.412	103.08
365.623	21.16
365.834	115.37
366.045	21.16
366.256	141.99
366.467	113.32
366.678	45.74
366.889	82.6
367.1	160.42
367.311	62.12
367.522	49.83
367.733	60.07
367.944	74.41
368.155	86.7
368.366	98.99
368.577	156.33
368.788	37.55
368.999	51.88
369.209	152.23
369.42	117.42
369.631	111.27
369.842	90.79
370.053	135.85
370.264	76.46
370.474	53.93
370.685	129.7
370.896	70.31
371.107	58.03
371.317	117.42
371.528	109.22
371.739	135.85
371.95	125.61
372.16	35.5
372.371	58.03
372.582	158.38
372.792	84.65
373.003	117.42
373.214	98.99
373.424	80.55
373.635	74.41
373.846	164.52
374.056	78.51
374.267	109.22
374.477	0.68
374.688	70.31
374.898	127.66
375.109	31.4
375.319	82.6
375.53	127.66
375.74	107.18
375.951	76.46
376.161	15.02
376.372	160.42
376.582	8.87
376.793	113.32
377.003	80.55
377.214	-5.46
377.424	58.03
377.635	10.92
377.845	92.84
378.055	94.89
378.266	64.17
378.476	94.89
378.686	86.7
378.897	96.94
379.107	92.84
379.317	53.93
379.528	41.64
379.738	92.84
379.948	41.64
380.158	98.99
380.369	78.51
380.579	82.6
380.789	51.88
380.999	96.94
381.21	74.41
381.42	119.46
381.63	82.6
381.84	131.75
382.05	96.94
382.261	70.31
382.471	90.79
382.681	86.7
382.891	121.51
383.101	162.47
383.311	90.79
383.521	101.03
383.731	103.08
383.941	70.31
384.151	53.93
384.361	150.18
384.571	41.64
384.781	55.98
384.991	90.79
385.201	146.09
385.411	113.32
385.621	150.18
385.831	219.82
386.041	119.46
386.251	68.27
386.461	92.84
386.671	90.79
386.881	144.04
387.091	80.55
387.301	33.45
387.511	96.94
387.72	109.22
387.93	150.18
388.14	121.51
388.35	53.93
388.56	154.28
388.769	150.18
388.979	74.41
389.189	78.51
389.399	82.6
389.609	68.27
389.818	174.76
390.028	74.41
390.238	131.75
390.447	78.51
390.657	84.65
390.867	172.71
391.076	92.84
391.286	96.94
391.496	123.56
391.705	129.7
391.915	86.7
392.125	109.22
392.334	109.22
392.544	92.84
392.753	139.94
392.963	135.85
393.172	90.79
393.382	66.22
393.591	223.91
393.801	72.36
394.01	111.27
394.22	115.37
394.429	154.28
394.639	88.75
394.848	107.18
395.058	84.65
395.267	162.47
395.477	164.52
395.686	103.08
395.895	219.82
396.105	152.23
396.314	189.1
396.524	160.42
396.733	103.08
396.942	135.85
397.152	133.8
397.361	133.8
397.57	109.22
397.78	189.1
397.989	139.94
398.198	164.52
398.407	168.62
398.617	105.13
398.826	166.57
399.035	162.47
399.244	170.66
399.453	195.24
399.663	60.07
399.872	139.94
400.081	162.47
400.29	131.75
400.499	94.89
400.708	127.66
400.917	131.75
401.127	141.99
401.336	119.46
401.545	185
401.754	176.81
401.963	160.42
402.172	172.71
402.381	162.47
402.59	172.71
402.799	187.05
403.008	137.9
403.217	113.32
403.426	107.18
403.635	193.19
403.844	146.09
404.053	221.86
404.262	172.71
404.471	148.14
404.68	160.42
404.888	271.01
405.097	178.86
405.306	182.95
405.515	297.64
405.724	205.48
405.933	201.38
406.142	150.18
406.35	119.46
406.559	189.1
406.768	213.67
406.977	240.29
407.185	232.1
407.394	193.19
407.603	244.39
407.812	236.2
408.02	334.5
408.229	320.17
408.438	273.06
408.646	240.29
408.855	225.96
409.064	271.01
409.272	334.5
409.481	348.84
409.69	281.25
409.898	334.5
410.107	393.89
410.315	340.65
410.524	477.86
410.733	397.99
410.941	412.32
411.15	363.17
411.358	424.61
411.567	420.52
411.775	457.38
411.984	428.71
412.192	527.01
412.401	436.9
412.609	547.49
412.818	514.72
413.026	547.49
413.234	578.21
413.443	576.16
413.651	686.75
413.86	656.03
414.068	692.9
414.276	637.6
414.485	711.33
414.693	696.99
414.901	737.95
415.11	686.75
415.318	717.47
415.526	815.77
415.734	783.01
415.943	893.6
416.151	932.51
416.359	938.65
416.567	961.18
416.776	955.04
416.984	989.85
417.192	1053.34
417.4	1067.67
417.608	1127.07
417.817	1071.77
418.025	1100.44
418.233	1219.22
418.441	1239.7
418.649	1311.38
418.857	1301.14
419.065	1419.92
419.273	1247.9
419.481	1370.77
419.689	1477.27
419.897	1524.37
420.105	1688.21
420.313	1751.7
420.521	1708.69
420.729	1706.64
420.937	1735.31
421.145	1839.76
421.353	1919.63
421.561	1903.25
421.769	2042.51
421.977	2091.66
422.185	2149
422.393	2259.59
422.601	2316.94
422.809	2400.9
423.017	2425.48
423.224	2429.57
423.432	2536.07
423.64	2642.56
423.848	2701.95
424.056	2763.39
424.263	2964.09
424.471	2962.05
424.679	3086.97
424.887	3299.96
425.094	3336.82
425.302	3304.06
425.51	3574.39
425.718	3459.7
425.925	3496.57
426.133	3697.27
426.341	3865.2
426.548	4192.87
426.756	4000.37
426.964	4049.52
427.171	4487.78
427.379	4463.21
427.586	4678.24
427.794	4588.13
428.001	4909.66
428.209	5257.82
428.417	5003.87
428.624	5298.78
428.832	5425.75
429.039	5354.07
429.247	5419.61
429.454	5909.07
429.662	6267.47
429.869	5950.03
430.076	6318.67
430.284	6251.08
430.491	6349.39
430.699	6748.74
430.906	6570.57
431.114	6900.29
431.321	7090.75
431.528	7180.86
431.736	7504.44
431.943	8041.01
432.15	7672.37
432.358	7871.03
432.565	8290.86
432.772	8284.72
432.979	8731.17
433.187	8847.91
433.394	8880.68
433.601	9515.55
433.808	9509.4
434.016	9474.59
434.223	10019.35
434.43	10582.54
434.637	10199.57
434.844	10856.97
435.052	11110.91
435.259	10965.51
435.466	11119.1
435.673	11059.71
435.88	11909.62
436.087	12311.02
436.294	12470.76
436.501	12157.43
436.708	12057.07
436.915	12591.59
437.122	13072.87
437.329	13208.03
437.537	13468.13
437.743	13851.1
437.95	13679.07
438.157	14461.39
438.364	15049.16
438.571	14969.29
438.778	15102.4
438.985	16460.21
439.192	16089.53
439.399	16523.69
439.606	15999.41
439.813	16798.12
440.02	18157.97
440.227	17486.24
440.433	17222.05
440.64	17924.51
440.847	17576.35
441.054	18499.98
441.261	19538.3
441.467	19216.77
441.674	19652.99
441.881	19992.95
442.088	19882.36
442.294	20253.05
442.501	20402.55
442.708	20937.07
442.914	21729.63
443.121	22548.82
443.328	22249.82
443.534	23779.65
443.741	22948.17
443.948	22901.07
444.154	24400.18
444.361	24099.13
444.568	24383.8
444.774	24768.82
444.981	24641.84
445.187	25397.54
445.394	26390.81
445.6	26276.12
445.807	28684.53
446.013	27382.02
446.22	27650.31
446.426	29110.51
446.633	29075.69
446.839	30007.52
447.046	28662.01
447.252	30583
447.459	30314.72
447.665	30300.38
447.871	31785.16
448.078	32993.46
448.284	31322.32
448.491	32325.82
448.697	33454.25
448.903	34039.97
449.11	34320.54
449.316	33149.1
449.522	34238.62
449.728	35061.91
449.935	35229.84
450.141	35180.69
450.347	36415.61
450.553	34885.78
450.76	35371.15
450.966	36268.16
451.172	36153.47
451.378	36980.85
451.584	36208.77
451.791	36896.89
451.997	36849.78
452.203	37572.72
452.409	37720.17
452.615	37488.75
452.821	35833.99
453.027	35739.79
453.233	37701.74
453.44	35930.25
453.646	36094.08
453.852	36759.67
454.058	37003.38
454.264	35784.84
454.47	36608.12
454.676	35668.11
454.882	36860.02
455.088	33968.29
455.294	34308.26
455.5	34648.22
455.705	35238.03
455.911	33814.69
456.117	33083.57
456.323	32442.56
456.529	30920.91
456.735	32178.37
456.941	31232.21
457.147	30839
457.352	29731.04
457.558	29864.16
457.764	29700.33
457.97	29210.86
458.176	28545.27
458.381	28543.22
458.587	27136.27
458.793	27044.11
458.999	25973.02
459.204	27672.84
459.41	27029.77
459.616	24713.52
459.821	25018.67
460.027	25088.3
460.233	24523.06
460.438	23157.07
460.644	23556.42
460.85	22471
461.055	22077.79
461.261	22258.01
461.466	20468.08
461.672	19810.68
461.878	21379.43
462.083	19841.4
462.289	19485.06
462.494	19394.95
462.7	18352.53
462.905	17969.56
463.111	18643.34
463.316	18682.25
463.522	18215.32
463.727	18291.09
463.932	18110.87
464.138	17822.11
464.343	18194.84
464.549	17676.7
464.754	17955.22
464.959	18131.35
465.165	17934.74
465.37	17127.85
465.575	16691.63
465.781	17480.1
465.986	17562.01
466.191	16826.79
