Data from USB4F104151__256__11-11-48-535.txt Node

Date: Wed Mar 12 11:11:48 EDT 2025
User: louis
Spectrometer: USB4F10415
Trigger mode: 4
Integration Time (sec): 2.000000E-2
Scans to average: 1
Electric dark correction enabled: true
Nonlinearity correction enabled: false
Boxcar width: 0
XAxis mode: Wavelengths
Number of Pixels in Spectrum: 3648
>>>>>Begin Spectral Data<<<<<
178.204	-59.05
178.424	-59.05
178.644	-59.05
178.864	-95.91
179.084	-104.11
179.304	2.39
179.524	20.82
179.744	-30.38
179.964	20.82
180.184	-22.19
180.404	-22.19
180.624	8.53
180.844	-5.8
181.064	-28.33
181.283	20.82
181.503	26.96
181.723	8.53
181.943	-30.38
182.163	63.83
182.383	12.63
182.602	20.82
182.822	18.77
183.042	22.87
183.262	26.96
183.482	18.77
183.701	-30.38
183.921	53.59
184.141	-16.04
184.361	55.64
184.58	-42.67
184.8	63.83
185.02	4.44
185.239	29.01
185.459	29.01
185.679	45.4
185.898	-59.05
186.118	45.4
186.338	-3.75
186.557	72.02
186.777	-3.75
186.997	37.2
187.216	6.49
187.436	69.97
187.655	-40.62
187.875	-52.91
188.095	31.06
188.314	31.06
188.534	37.2
188.753	31.06
188.973	123.22
189.192	63.83
189.412	29.01
189.631	-48.81
189.851	20.82
190.07	100.69
190.29	-18.09
190.509	59.73
190.729	82.26
190.948	106.84
191.168	102.74
191.387	86.36
191.607	-1.71
191.826	20.82
192.045	-7.85
192.265	59.73
192.484	53.59
192.704	-11.95
192.923	57.68
193.142	69.97
193.362	72.02
193.581	-1.71
193.8	29.01
194.02	96.6
194.239	31.06
194.458	22.87
194.678	88.4
194.897	6.49
195.116	22.87
195.335	8.53
195.555	69.97
195.774	22.87
195.993	108.88
196.212	-32.43
196.432	12.63
196.651	47.44
196.87	10.58
197.089	112.98
197.308	12.63
197.528	69.97
197.747	-40.62
197.966	18.77
198.185	98.64
198.404	74.07
198.623	43.35
198.842	33.11
199.062	115.03
199.281	39.25
199.5	98.64
199.719	31.06
199.938	29.01
200.157	102.74
200.376	18.77
200.595	86.36
200.814	0.34
201.033	45.4
201.252	65.88
201.471	31.06
201.69	59.73
201.909	92.5
202.128	20.82
202.347	59.73
202.566	24.92
202.785	22.87
203.004	16.73
203.223	92.5
203.442	31.06
203.661	31.06
203.879	-16.04
204.098	94.55
204.317	2.39
204.536	39.25
204.755	14.68
204.974	84.31
205.193	31.06
205.411	12.63
205.63	92.5
205.849	131.41
206.068	-42.67
206.287	12.63
206.505	57.68
206.724	37.2
206.943	2.39
207.162	-13.99
207.381	16.73
207.599	-1.71
207.818	14.68
208.037	39.25
208.255	-5.8
208.474	10.58
208.693	67.92
208.911	92.5
209.13	24.92
209.349	59.73
209.567	10.58
209.786	51.54
210.005	-30.38
210.223	20.82
210.442	47.44
210.661	26.96
210.879	6.49
211.098	63.83
211.316	22.87
211.535	-11.95
211.753	51.54
211.972	82.26
212.191	-18.09
212.409	47.44
212.628	-11.95
212.846	69.97
213.065	35.16
213.283	45.4
213.502	22.87
213.72	35.16
213.938	24.92
214.157	18.77
214.375	55.64
214.594	61.78
214.812	39.25
215.031	100.69
215.249	47.44
215.467	45.4
215.686	33.11
215.904	59.73
216.122	33.11
216.341	55.64
216.559	20.82
216.778	59.73
216.996	67.92
217.214	43.35
217.432	-32.43
217.651	45.4
217.869	-38.57
218.087	51.54
218.306	61.78
218.524	65.88
218.742	-42.67
218.96	51.54
219.179	-22.19
219.397	43.35
219.615	72.02
219.833	6.49
220.051	90.45
220.27	69.97
220.488	47.44
220.706	33.11
220.924	67.92
221.142	8.53
221.36	14.68
221.578	37.2
221.796	69.97
222.015	63.83
222.233	26.96
222.451	16.73
222.669	14.68
222.887	61.78
223.105	39.25
223.323	12.63
223.541	82.26
223.759	78.16
223.977	31.06
224.195	31.06
224.413	86.36
224.631	-50.86
224.849	22.87
225.067	92.5
225.285	39.25
225.503	37.2
225.721	18.77
225.939	8.53
226.157	24.92
226.375	145.75
226.592	35.16
226.81	39.25
227.028	76.12
227.246	92.5
227.464	57.68
227.682	6.49
227.9	43.35
228.117	55.64
228.335	-24.23
228.553	78.16
228.771	16.73
228.989	8.53
229.206	65.88
229.424	22.87
229.642	35.16
229.86	-36.52
230.077	55.64
230.295	20.82
230.513	26.96
230.731	86.36
230.948	69.97
231.166	65.88
231.384	-28.33
231.601	20.82
231.819	47.44
232.037	33.11
232.254	84.31
232.472	26.96
232.689	4.44
232.907	33.11
233.125	57.68
233.342	-16.04
233.56	10.58
233.777	45.4
233.995	45.4
234.213	0.34
234.43	47.44
234.648	35.16
234.865	12.63
235.083	22.87
235.3	-22.19
235.518	63.83
235.735	72.02
235.953	72.02
236.17	4.44
236.388	61.78
236.605	12.63
236.822	65.88
237.04	39.25
237.257	24.92
237.475	53.59
237.692	96.6
237.909	72.02
238.127	20.82
238.344	80.21
238.562	104.79
238.779	47.44
238.996	-3.75
239.214	-16.04
239.431	94.55
239.648	-61.1
239.865	29.01
240.083	4.44
240.3	65.88
240.517	-38.57
240.735	24.92
240.952	51.54
241.169	12.63
241.386	22.87
241.603	12.63
241.821	63.83
242.038	55.64
242.255	20.82
242.472	-7.85
242.689	55.64
242.907	65.88
243.124	33.11
243.341	49.49
243.558	39.25
243.775	20.82
243.992	-46.76
244.209	53.59
244.426	84.31
244.643	37.2
244.86	53.59
245.078	26.96
245.295	-24.23
245.512	16.73
245.729	10.58
245.946	16.73
246.163	55.64
246.38	16.73
246.597	61.78
246.814	24.92
247.031	26.96
247.248	72.02
247.464	74.07
247.681	6.49
247.898	35.16
248.115	18.77
248.332	4.44
248.549	29.01
248.766	35.16
248.983	-7.85
249.2	55.64
249.417	35.16
249.633	0.34
249.85	12.63
250.067	76.12
250.284	33.11
250.501	94.55
250.717	59.73
250.934	-22.19
251.151	16.73
251.368	82.26
251.585	6.49
251.801	20.82
252.018	20.82
252.235	94.55
252.451	-9.9
252.668	33.11
252.885	100.69
253.102	69.97
253.318	90.45
253.535	37.2
253.752	55.64
253.968	26.96
254.185	41.3
254.401	31.06
254.618	47.44
254.835	49.49
255.051	67.92
255.268	29.01
255.484	-1.71
255.701	69.97
255.917	51.54
256.134	6.49
256.351	22.87
256.567	92.5
256.784	67.92
257	-5.8
257.217	74.07
257.433	31.06
257.65	43.35
257.866	29.01
258.082	86.36
258.299	24.92
258.515	72.02
258.732	-24.23
258.948	59.73
259.165	22.87
259.381	55.64
259.597	-1.71
259.814	39.25
260.03	102.74
260.246	41.3
260.463	45.4
260.679	55.64
260.895	16.73
261.112	76.12
261.328	39.25
261.544	14.68
261.761	61.78
261.977	33.11
262.193	-9.9
262.409	14.68
262.626	12.63
262.842	53.59
263.058	61.78
263.274	16.73
263.49	-18.09
263.707	12.63
263.923	39.25
264.139	-5.8
264.355	74.07
264.571	26.96
264.787	115.03
265.004	-1.71
265.22	37.2
265.436	72.02
265.652	69.97
265.868	-16.04
266.084	123.22
266.3	-13.99
266.516	-1.71
266.732	74.07
266.948	6.49
267.164	96.6
267.38	41.3
267.596	86.36
267.812	57.68
268.028	102.74
268.244	12.63
268.46	39.25
268.676	-5.8
268.892	88.4
269.108	55.64
269.324	69.97
269.54	16.73
269.756	63.83
269.972	39.25
270.188	20.82
270.403	31.06
270.619	37.2
270.835	26.96
271.051	14.68
271.267	10.58
271.483	41.3
271.698	69.97
271.914	26.96
272.13	41.3
272.346	20.82
272.562	74.07
272.777	10.58
272.993	49.49
273.209	39.25
273.425	6.49
273.64	-16.04
273.856	33.11
274.072	14.68
274.287	61.78
274.503	-52.91
274.719	72.02
274.934	24.92
275.15	35.16
275.366	-1.71
275.581	18.77
275.797	29.01
276.012	-22.19
276.228	49.49
276.444	84.31
276.659	22.87
276.875	47.44
277.09	-20.14
277.306	-24.23
277.521	86.36
277.737	10.58
277.952	6.49
278.168	26.96
278.383	39.25
278.599	47.44
278.814	37.2
279.03	59.73
279.245	29.01
279.461	20.82
279.676	72.02
279.892	67.92
280.107	-20.14
280.322	31.06
280.538	115.03
280.753	24.92
280.969	80.21
281.184	-9.9
281.399	119.12
281.615	0.34
281.83	-1.71
282.045	16.73
282.26	45.4
282.476	37.2
282.691	-5.8
282.906	22.87
283.122	53.59
283.337	10.58
283.552	2.39
283.767	43.35
283.983	108.88
284.198	-1.71
284.413	63.83
284.628	0.34
284.843	31.06
285.058	29.01
285.274	31.06
285.489	0.34
285.704	51.54
285.919	29.01
286.134	-7.85
286.349	-3.75
286.564	51.54
286.779	-1.71
286.995	88.4
287.21	-9.9
287.425	55.64
287.64	31.06
287.855	4.44
288.07	-7.85
288.285	76.12
288.5	-13.99
288.715	18.77
288.93	22.87
289.145	35.16
289.36	20.82
289.575	31.06
289.79	115.03
290.004	-7.85
290.219	-22.19
290.434	80.21
290.649	12.63
290.864	18.77
291.079	-5.8
291.294	57.68
291.509	63.83
291.724	39.25
291.938	6.49
292.153	45.4
292.368	26.96
292.583	24.92
292.798	33.11
293.012	57.68
293.227	86.36
293.442	8.53
293.657	2.39
293.871	49.49
294.086	100.69
294.301	37.2
294.516	24.92
294.73	67.92
294.945	86.36
295.16	61.78
295.374	-30.38
295.589	57.68
295.804	-5.8
296.018	39.25
296.233	41.3
296.447	0.34
296.662	4.44
296.877	102.74
297.091	24.92
297.306	45.4
297.52	0.34
297.735	39.25
297.949	12.63
298.164	14.68
298.378	16.73
298.593	29.01
298.807	24.92
299.022	76.12
299.236	63.83
299.451	18.77
299.665	8.53
299.88	102.74
300.094	49.49
300.309	-11.95
300.523	86.36
300.737	74.07
300.952	55.64
301.166	92.5
301.381	6.49
301.595	45.4
301.809	6.49
302.024	24.92
302.238	43.35
302.452	26.96
302.667	14.68
302.881	16.73
303.095	92.5
303.309	63.83
303.524	67.92
303.738	16.73
303.952	59.73
304.166	6.49
304.381	-3.75
304.595	43.35
304.809	61.78
305.023	31.06
305.237	0.34
305.452	53.59
305.666	57.68
305.88	72.02
306.094	43.35
306.308	63.83
306.522	112.98
306.736	141.65
306.95	63.83
307.164	-54.95
307.379	98.64
307.593	104.79
307.807	59.73
308.021	18.77
308.235	20.82
308.449	37.2
308.663	47.44
308.877	8.53
309.091	16.73
309.305	2.39
309.519	14.68
309.733	90.45
309.947	-13.99
310.161	61.78
310.374	125.27
310.588	37.2
310.802	14.68
311.016	-38.57
311.23	-9.9
311.444	24.92
311.658	14.68
311.872	26.96
312.085	76.12
312.299	80.21
312.513	18.77
312.727	76.12
312.941	-11.95
313.154	96.6
313.368	49.49
313.582	16.73
313.796	2.39
314.009	35.16
314.223	47.44
314.437	69.97
314.651	123.22
314.864	6.49
315.078	74.07
315.292	26.96
315.505	0.34
315.719	18.77
315.933	-9.9
316.146	-20.14
316.36	57.68
316.573	39.25
316.787	29.01
317.001	47.44
317.214	20.82
317.428	29.01
317.641	10.58
317.855	63.83
318.068	108.88
318.282	57.68
318.495	43.35
318.709	72.02
318.922	26.96
319.136	49.49
319.349	39.25
319.563	-34.47
319.776	29.01
319.99	-5.8
320.203	12.63
320.417	72.02
320.63	37.2
320.843	31.06
321.057	59.73
321.27	88.4
321.483	47.44
321.697	63.83
321.91	100.69
322.124	51.54
322.337	4.44
322.55	-5.8
322.763	61.78
322.977	-16.04
323.19	59.73
323.403	61.78
323.617	18.77
323.83	100.69
324.043	-54.95
324.256	63.83
324.469	-11.95
324.683	76.12
324.896	-24.23
325.109	63.83
325.322	39.25
325.535	96.6
325.748	65.88
325.962	35.16
326.175	39.25
326.388	22.87
326.601	47.44
326.814	123.22
327.027	57.68
327.24	67.92
327.453	47.44
327.666	63.83
327.879	43.35
328.092	74.07
328.305	47.44
328.518	39.25
328.731	8.53
328.944	45.4
329.157	8.53
329.37	63.83
329.583	59.73
329.796	18.77
330.009	-5.8
330.222	102.74
330.435	55.64
330.648	127.32
330.861	51.54
331.073	43.35
331.286	61.78
331.499	49.49
331.712	-38.57
331.925	26.96
332.138	26.96
332.35	80.21
332.563	41.3
332.776	55.64
332.989	-67.24
333.202	94.55
333.414	31.06
333.627	33.11
333.84	14.68
334.053	61.78
334.265	-28.33
334.478	39.25
334.691	31.06
334.903	-1.71
335.116	-7.85
335.329	14.68
335.541	-18.09
335.754	69.97
335.966	-11.95
336.179	29.01
336.392	53.59
336.604	74.07
336.817	94.55
337.029	22.87
337.242	29.01
337.454	22.87
337.667	26.96
337.88	78.16
338.092	65.88
338.305	69.97
338.517	12.63
338.729	47.44
338.942	18.77
339.154	55.64
339.367	22.87
339.579	57.68
339.792	37.2
340.004	-5.8
340.217	65.88
340.429	41.3
340.641	39.25
340.854	67.92
341.066	96.6
341.278	57.68
341.491	18.77
341.703	24.92
341.915	69.97
342.128	53.59
342.34	22.87
342.552	55.64
342.764	20.82
342.977	4.44
343.189	106.84
343.401	-11.95
343.613	14.68
343.826	76.12
344.038	-16.04
344.25	14.68
344.462	35.16
344.674	129.36
344.886	112.98
345.099	6.49
345.311	61.78
345.523	63.83
345.735	96.6
345.947	43.35
346.159	-40.62
346.371	47.44
346.583	-5.8
346.795	98.64
347.007	0.34
347.219	82.26
347.431	96.6
347.643	72.02
347.855	2.39
348.067	0.34
348.279	26.96
348.491	84.31
348.703	53.59
348.915	164.18
349.127	18.77
349.339	88.4
349.551	18.77
349.763	10.58
349.975	-11.95
350.187	106.84
350.399	139.6
350.61	-11.95
350.822	14.68
351.034	67.92
351.246	-22.19
351.458	133.46
351.669	110.93
351.881	84.31
352.093	45.4
352.305	51.54
352.517	61.78
352.728	18.77
352.94	31.06
353.152	72.02
353.363	-11.95
353.575	69.97
353.787	51.54
353.999	-13.99
354.21	61.78
354.422	74.07
354.633	57.68
354.845	51.54
355.057	131.41
355.268	57.68
355.48	96.6
355.692	10.58
355.903	-11.95
356.115	2.39
356.326	29.01
356.538	147.8
356.749	55.64
356.961	-1.71
357.172	10.58
357.384	37.2
357.595	45.4
357.807	8.53
358.018	33.11
358.23	-20.14
358.441	84.31
358.653	0.34
358.864	-1.71
359.075	61.78
359.287	80.21
359.498	123.22
359.709	4.44
359.921	96.6
360.132	67.92
360.344	39.25
360.555	-13.99
360.766	47.44
360.977	59.73
361.189	37.2
361.4	-16.04
361.611	125.27
361.823	82.26
362.034	121.17
362.245	94.55
362.456	41.3
362.667	119.12
362.879	4.44
363.09	61.78
363.301	-7.85
363.512	37.2
363.723	20.82
363.935	22.87
364.146	96.6
364.357	55.64
364.568	43.35
364.779	-16.04
364.99	-3.75
365.201	45.4
365.412	57.68
365.623	-26.28
365.834	31.06
366.045	43.35
366.256	-3.75
366.467	6.49
366.678	108.88
366.889	29.01
367.1	72.02
367.311	47.44
367.522	-5.8
367.733	49.49
367.944	82.26
368.155	37.2
368.366	65.88
368.577	110.93
368.788	92.5
368.999	80.21
369.209	115.03
369.42	10.58
369.631	86.36
369.842	-5.8
370.053	31.06
370.264	41.3
370.474	84.31
370.685	108.88
370.896	69.97
371.107	14.68
371.317	33.11
371.528	108.88
371.739	59.73
371.95	47.44
372.16	76.12
372.371	78.16
372.582	88.4
372.792	55.64
373.003	96.6
373.214	45.4
373.424	90.45
373.635	45.4
373.846	94.55
374.056	78.16
374.267	59.73
374.477	43.35
374.688	63.83
374.898	22.87
375.109	59.73
375.319	20.82
375.53	53.59
375.74	129.36
375.951	84.31
376.161	-18.09
376.372	24.92
376.582	53.59
376.793	78.16
377.003	92.5
377.214	-7.85
377.424	18.77
377.635	94.55
377.845	41.3
378.055	57.68
378.266	96.6
378.476	76.12
378.686	43.35
378.897	39.25
379.107	61.78
379.317	69.97
379.528	96.6
379.738	80.21
379.948	24.92
380.158	55.64
380.369	31.06
380.579	59.73
380.789	0.34
380.999	104.79
381.21	63.83
381.42	112.98
381.63	18.77
381.84	49.49
382.05	26.96
382.261	14.68
382.471	59.73
382.681	51.54
382.891	53.59
383.101	78.16
383.311	-1.71
383.521	18.77
383.731	63.83
383.941	78.16
384.151	67.92
384.361	59.73
384.571	18.77
384.781	-13.99
384.991	31.06
385.201	108.88
385.411	20.82
385.621	41.3
385.831	-1.71
386.041	69.97
386.251	24.92
386.461	86.36
386.671	88.4
386.881	45.4
387.091	55.64
387.301	31.06
387.511	55.64
387.72	82.26
387.93	47.44
388.14	10.58
388.35	39.25
388.56	59.73
388.769	80.21
388.979	26.96
389.189	98.64
389.399	37.2
389.609	90.45
389.818	57.68
390.028	35.16
390.238	-1.71
390.447	35.16
390.657	76.12
390.867	43.35
391.076	137.56
391.286	100.69
391.496	33.11
391.705	43.35
391.915	106.84
392.125	84.31
392.334	4.44
392.544	53.59
392.753	104.79
392.963	80.21
393.172	12.63
393.382	20.82
393.591	49.49
393.801	63.83
394.01	57.68
394.22	123.22
394.429	63.83
394.639	151.89
394.848	76.12
395.058	43.35
395.267	61.78
395.477	61.78
395.686	96.6
395.895	96.6
396.105	39.25
396.314	102.74
396.524	86.36
396.733	31.06
396.942	139.6
397.152	102.74
397.361	94.55
397.57	49.49
397.78	119.12
397.989	69.97
398.198	123.22
398.407	41.3
398.617	84.31
398.826	55.64
399.035	67.92
399.244	127.32
399.453	65.88
399.663	45.4
399.872	14.68
400.081	31.06
400.29	112.98
400.499	117.08
400.708	92.5
400.917	110.93
401.127	135.51
401.336	82.26
401.545	106.84
401.754	108.88
401.963	88.4
402.172	22.87
402.381	74.07
402.59	104.79
402.799	84.31
403.008	72.02
403.217	123.22
403.426	84.31
403.635	8.53
403.844	131.41
404.053	135.51
404.262	43.35
404.471	178.51
404.68	100.69
404.888	57.68
405.097	94.55
405.306	108.88
405.515	123.22
405.724	96.6
405.933	149.84
406.142	194.9
406.35	143.7
406.559	92.5
406.768	80.21
406.977	168.27
407.185	139.6
407.394	250.19
407.603	139.6
407.812	174.42
408.02	176.47
408.229	158.03
408.438	137.56
408.646	225.62
408.855	137.56
409.064	207.19
409.272	207.19
409.481	168.27
409.69	203.09
409.898	215.38
410.107	190.8
410.315	184.66
410.524	301.39
410.733	229.71
410.941	160.08
411.15	299.34
411.358	297.3
411.567	235.86
411.775	301.39
411.984	321.87
412.192	270.67
412.401	301.39
412.609	235.86
412.818	293.2
413.026	364.88
413.234	420.17
413.443	272.72
413.651	387.41
413.86	424.27
414.068	411.98
414.276	475.47
414.485	362.83
414.693	457.04
414.901	479.57
415.11	467.28
415.318	450.89
415.526	557.39
415.734	518.48
415.943	577.87
416.151	608.59
416.359	584.01
416.567	549.2
416.776	604.49
416.984	612.68
417.192	676.17
417.4	637.26
417.608	620.88
417.817	713.03
418.025	762.19
418.233	743.75
418.441	725.32
418.649	766.28
418.857	862.54
419.065	788.81
419.273	858.44
419.481	940.36
419.689	1046.85
419.897	932.17
420.105	1001.8
420.313	987.46
420.521	1093.96
420.729	1042.76
420.937	1104.2
421.145	1163.59
421.353	1216.83
421.561	1190.21
421.769	1268.03
421.977	1378.62
422.185	1337.66
422.393	1409.34
422.601	1493.31
422.809	1501.5
423.017	1577.28
423.224	1517.89
423.432	1704.25
423.64	1624.38
423.848	1861.94
424.056	1833.27
424.263	1833.27
424.471	1917.24
424.679	1833.27
424.887	2027.83
425.094	2156.85
425.302	2089.27
425.51	2101.56
425.718	2185.52
425.925	2373.94
426.133	2253.11
426.341	2457.9
426.548	2558.25
426.756	2593.07
426.964	2580.78
427.171	2779.43
427.379	2818.35
427.586	2859.31
427.794	2953.51
428.001	3062.05
428.209	3264.8
428.417	3072.29
428.624	3387.68
428.832	3289.38
429.039	3369.25
429.247	3496.22
429.454	3629.34
429.662	3952.92
429.869	3623.2
430.076	3965.21
430.284	3739.93
430.491	3918.11
430.699	4270.36
430.906	4120.85
431.114	4239.64
431.321	4528.4
431.528	4757.77
431.736	4835.6
431.943	5075.21
432.15	4868.36
432.358	4882.7
432.565	5204.23
432.772	5189.89
432.979	5495.04
433.187	5509.38
433.394	5540.1
433.601	5888.25
433.808	6021.37
434.016	5898.49
434.223	6129.91
434.43	6441.2
434.637	6414.58
434.844	6799.6
435.052	6818.03
435.259	6807.79
435.466	6836.46
435.673	6932.72
435.88	7237.86
436.087	7719.14
436.294	7790.81
436.501	7397.6
436.708	7788.77
436.915	8007.9
437.122	8151.26
437.329	8300.76
437.537	8462.55
437.743	8603.86
437.95	8722.64
438.157	8949.96
438.364	9324.74
438.571	9228.49
438.778	9398.47
438.985	10141.88
439.192	9806.02
439.399	10352.82
439.606	9840.83
439.813	10637.49
440.02	10881.2
440.227	11020.46
440.433	10838.19
440.64	11153.58
440.847	11266.22
441.054	11298.98
441.261	11915.42
441.467	11940
441.674	12294.3
441.881	12634.26
442.088	12572.82
442.294	12556.44
442.501	12787.86
442.708	12998.8
442.914	13496.46
443.121	14178.43
443.328	13817.99
443.534	14942.32
443.741	14356.6
443.948	14166.14
444.154	15229.04
444.361	15026.29
444.568	15126.64
444.774	15032.43
444.981	15321.2
445.187	15884.39
445.394	16506.97
445.6	16269.41
445.807	17850.44
446.013	16908.37
446.22	16947.28
446.426	17850.44
446.633	18063.43
446.839	18524.22
447.046	17918.02
447.252	18933.81
447.459	18960.44
447.665	18835.51
447.871	19865.64
448.078	20547.61
448.284	19329.07
448.491	20176.93
448.697	20803.61
448.903	21020.69
449.11	21170.19
449.316	20942.87
449.522	21002.26
449.728	21936.13
449.935	21905.42
450.141	21868.55
450.347	22321.15
450.553	21848.07
450.76	21985.29
450.966	22652.92
451.172	22411.26
451.378	22650.88
451.584	22374.4
451.791	23236.59
451.997	23035.89
452.203	23388.14
452.409	23183.35
452.615	23263.22
452.821	22163.46
453.027	21944.33
453.233	23160.82
453.44	22286.34
453.646	22280.19
453.852	22499.33
454.058	22990.84
454.264	21927.94
454.47	22685.69
454.676	22042.63
454.882	22798.33
455.088	20654.11
455.294	21090.32
455.5	21446.67
455.705	21590.03
455.911	20897.81
456.117	20690.97
456.323	20324.38
456.529	19124.27
456.735	19632.17
456.941	19271.73
457.147	19017.78
457.352	18503.74
457.558	18024.51
457.764	18339.9
457.97	17920.07
458.176	17324.11
458.381	17397.84
458.587	16658.52
458.793	16545.88
458.999	15876.2
459.204	16973.91
459.41	16687.19
459.616	15347.82
459.821	15315.05
460.027	15259.76
460.233	15026.29
460.438	14315.64
460.644	14354.55
460.85	13699.2
461.055	13627.53
461.261	13463.69
461.466	12538.01
461.672	12218.52
461.878	12998.8
462.083	12159.13
462.289	11614.37
462.494	11817.12
462.7	11442.34
462.905	10823.86
463.111	11120.81
463.316	11335.85
463.522	11106.48
463.727	11016.37
463.932	11286.7
464.138	10950.83
464.343	11102.38
464.549	10672.31
464.754	10928.3
464.959	11049.13
465.165	11042.99
465.37	10502.33
465.575	10203.32
465.781	10555.57
465.986	10541.24
466.191	10248.38
466.397	9982.14
466.602	9539.78
466.807	9859.26
467.012	9969.85
467.218	9709.76
467.423	9869.5
467.628	9986.24
467.833	10135.74
468.038	9687.23
468.244	9908.41
468.449	10012.86
468.654	9500.87
468.859	9523.4
469.064	9642.18
