Data from USB4F104151__125__11-07-31-936.txt Node

Date: Wed Mar 12 11:07:31 EDT 2025
User: louis
Spectrometer: USB4F10415
Trigger mode: 4
Integration Time (sec): 2.000000E-2
Scans to average: 1
Electric dark correction enabled: true
Nonlinearity correction enabled: false
Boxcar width: 0
XAxis mode: Wavelengths
Number of Pixels in Spectrum: 3648
>>>>>Begin Spectral Data<<<<<
178.204	-96.08
178.424	-96.08
178.644	-96.08
178.864	-57.17
179.084	-63.32
179.304	8.36
179.524	-12.12
179.744	-44.88
179.964	32.94
180.184	2.22
180.404	2.22
180.624	65.71
180.844	20.65
181.064	-20.31
181.283	-30.55
181.503	-44.88
181.723	20.65
181.943	6.31
182.163	71.85
182.383	-14.17
182.602	69.8
182.822	34.99
183.042	-1.88
183.262	24.75
183.482	-26.45
183.701	-20.31
183.921	53.42
184.141	32.94
184.361	161.96
184.58	12.46
184.8	92.33
185.02	22.7
185.239	63.66
185.459	-12.12
185.679	-26.45
185.898	-14.17
186.118	55.47
186.338	49.32
186.557	55.47
186.777	-48.98
186.997	22.7
187.216	59.56
187.436	6.31
187.655	164.01
187.875	82.09
188.095	114.86
188.314	-32.6
188.534	34.99
188.753	10.41
188.973	55.47
189.192	80.04
189.412	47.27
189.631	-8.02
189.851	6.31
190.07	12.46
190.29	-20.31
190.509	-1.88
190.729	53.42
190.948	71.85
191.168	143.53
191.387	67.75
191.607	-38.74
191.826	24.75
192.045	39.08
192.265	0.17
192.484	51.37
192.704	55.47
192.923	75.95
193.142	43.18
193.362	32.94
193.581	28.84
193.8	22.7
194.02	53.42
194.239	-22.36
194.458	0.17
194.678	-22.36
194.897	67.75
195.116	16.55
195.335	55.47
195.555	47.27
195.774	43.18
195.993	110.76
196.212	39.08
196.432	4.27
196.651	59.56
196.87	-36.69
197.089	112.81
197.308	-5.97
197.528	59.56
197.747	6.31
197.966	77.99
198.185	37.03
198.404	30.89
198.623	37.03
198.842	77.99
199.062	71.85
199.281	71.85
199.5	-36.69
199.719	71.85
199.938	32.94
200.157	24.75
200.376	-20.31
200.595	67.75
200.814	86.19
201.033	8.36
201.252	75.95
201.471	-5.97
201.69	53.42
201.909	102.57
202.128	47.27
202.347	49.32
202.566	10.41
202.785	65.71
203.004	10.41
203.223	94.38
203.442	63.66
203.661	37.03
203.879	14.51
204.098	32.94
204.317	-16.21
204.536	49.32
204.755	-48.98
204.974	65.71
205.193	2.22
205.411	28.84
205.63	-61.27
205.849	32.94
206.068	26.79
206.287	65.71
206.505	18.6
206.724	6.31
206.943	59.56
207.162	14.51
207.381	67.75
207.599	10.41
207.818	37.03
208.037	30.89
208.255	43.18
208.474	65.71
208.693	57.51
208.911	24.75
209.13	6.31
209.349	-10.07
209.567	118.95
209.786	92.33
210.005	51.37
210.223	-69.46
210.442	41.13
210.661	22.7
210.879	37.03
211.098	39.08
211.316	47.27
211.535	108.71
211.753	18.6
211.972	26.79
212.191	75.95
212.409	47.27
212.628	57.51
212.846	-16.21
213.065	108.71
213.283	112.81
213.502	-14.17
213.72	30.89
213.938	26.79
214.157	24.75
214.375	-5.97
214.594	-46.93
214.812	30.89
215.031	53.42
215.249	55.47
215.467	41.13
215.686	10.41
215.904	49.32
216.122	59.56
216.341	47.27
216.559	43.18
216.778	34.99
216.996	108.71
217.214	77.99
217.432	30.89
217.651	-1.88
217.869	39.08
218.087	16.55
218.306	61.61
218.524	84.14
218.742	12.46
218.96	61.61
219.179	-1.88
219.397	73.9
219.615	100.52
219.833	32.94
220.051	-32.6
220.27	65.71
220.488	129.19
220.706	82.09
220.924	12.46
221.142	-1.88
221.36	98.47
221.578	90.28
221.796	71.85
222.015	94.38
222.233	94.38
222.451	114.86
222.669	28.84
222.887	59.56
223.105	10.41
223.323	6.31
223.541	10.41
223.759	43.18
223.977	12.46
224.195	-10.07
224.413	53.42
224.631	63.66
224.849	26.79
225.067	75.95
225.285	69.8
225.503	71.85
225.721	18.6
225.939	55.47
226.157	-5.97
226.375	88.23
226.592	-30.55
226.81	32.94
227.028	2.22
227.246	59.56
227.464	47.27
227.682	96.43
227.9	45.23
228.117	67.75
228.335	67.75
228.553	92.33
228.771	-34.64
228.989	108.71
229.206	4.27
229.424	43.18
229.642	39.08
229.86	-16.21
230.077	57.51
230.295	18.6
230.513	22.7
230.731	16.55
230.948	-20.31
231.166	39.08
231.384	2.22
231.601	125.1
231.819	69.8
232.037	53.42
232.254	20.65
232.472	57.51
232.689	45.23
232.907	73.9
233.125	94.38
233.342	65.71
233.56	37.03
233.777	-12.12
233.995	110.76
234.213	51.37
234.43	12.46
234.648	53.42
234.865	55.47
235.083	59.56
235.3	-5.97
235.518	6.31
235.735	30.89
235.953	49.32
236.17	22.7
236.388	22.7
236.605	82.09
236.822	39.08
237.04	22.7
237.257	-10.07
237.475	61.61
237.692	82.09
237.909	28.84
238.127	63.66
238.344	24.75
238.562	80.04
238.779	6.31
238.996	-36.69
239.214	-44.88
239.431	18.6
239.648	39.08
239.865	34.99
240.083	61.61
240.3	-5.97
240.517	61.61
240.735	26.79
240.952	73.9
241.169	67.75
241.386	22.7
241.603	-46.93
241.821	-46.93
242.038	24.75
242.255	41.13
242.472	43.18
242.689	43.18
242.907	26.79
243.124	139.43
243.341	14.51
243.558	-1.88
243.775	-16.21
243.992	-8.02
244.209	75.95
244.426	61.61
244.643	92.33
244.86	-24.4
245.078	92.33
245.295	-18.26
245.512	53.42
245.729	92.33
245.946	94.38
246.163	59.56
246.38	80.04
246.597	88.23
246.814	61.61
247.031	65.71
247.248	28.84
247.464	75.95
247.681	14.51
247.898	92.33
248.115	96.43
248.332	84.14
248.549	80.04
248.766	57.51
248.983	55.47
249.2	20.65
249.417	75.95
249.633	67.75
249.85	86.19
250.067	10.41
250.284	59.56
250.501	45.23
250.717	133.29
250.934	-40.79
251.151	34.99
251.368	26.79
251.585	84.14
251.801	53.42
252.018	114.86
252.235	-1.88
252.451	22.7
252.668	-14.17
252.885	30.89
253.102	67.75
253.318	61.61
253.535	75.95
253.752	84.14
253.968	32.94
254.185	6.31
254.401	43.18
254.618	43.18
254.835	39.08
255.051	104.62
255.268	28.84
255.484	26.79
255.701	-10.07
255.917	26.79
256.134	45.23
256.351	22.7
256.567	77.99
256.784	129.19
257	30.89
257.217	-5.97
257.433	10.41
257.65	141.48
257.866	75.95
258.082	-59.22
258.299	6.31
258.515	26.79
258.732	20.65
258.948	92.33
259.165	-26.45
259.381	102.57
259.597	100.52
259.814	67.75
260.03	12.46
260.246	114.86
260.463	26.79
260.679	86.19
260.895	20.65
261.112	88.23
261.328	141.48
261.544	73.9
261.761	-22.36
261.977	16.55
262.193	26.79
262.409	69.8
262.626	2.22
262.842	82.09
263.058	0.17
263.274	-3.93
263.49	47.27
263.707	34.99
263.923	20.65
264.139	118.95
264.355	41.13
264.571	43.18
264.787	43.18
265.004	53.42
265.22	37.03
265.436	55.47
265.652	63.66
265.868	20.65
266.084	-1.88
266.3	6.31
266.516	53.42
266.732	22.7
266.948	30.89
267.164	47.27
267.38	43.18
267.596	34.99
267.812	118.95
268.028	114.86
268.244	112.81
268.46	118.95
268.676	-69.46
268.892	30.89
269.108	24.75
269.324	41.13
269.54	49.32
269.756	73.9
269.972	30.89
270.188	6.31
270.403	14.51
270.619	104.62
270.835	65.71
271.051	67.75
271.267	8.36
271.483	98.47
271.698	67.75
271.914	77.99
272.13	-14.17
272.346	20.65
272.562	6.31
272.777	86.19
272.993	47.27
273.209	77.99
273.425	65.71
273.64	22.7
273.856	51.37
274.072	2.22
274.287	88.23
274.503	34.99
274.719	47.27
274.934	28.84
275.15	100.52
275.366	43.18
275.581	43.18
275.797	86.19
276.012	65.71
276.228	80.04
276.444	20.65
276.659	20.65
276.875	24.75
277.09	71.85
277.306	39.08
277.521	114.86
277.737	57.51
277.952	112.81
278.168	-20.31
278.383	51.37
278.599	67.75
278.814	8.36
279.03	34.99
279.245	80.04
279.461	30.89
279.676	86.19
279.892	2.22
280.107	43.18
280.322	-20.31
280.538	45.23
280.753	57.51
280.969	39.08
281.184	59.56
281.399	22.7
281.615	12.46
281.83	37.03
282.045	20.65
282.26	102.57
282.476	41.13
282.691	-16.21
282.906	88.23
283.122	55.47
283.337	47.27
283.552	49.32
283.767	30.89
283.983	112.81
284.198	37.03
284.413	63.66
284.628	69.8
284.843	104.62
285.058	116.9
285.274	6.31
285.489	6.31
285.704	67.75
285.919	22.7
286.134	24.75
286.349	-3.93
286.564	49.32
286.779	69.8
286.995	47.27
287.21	37.03
287.425	57.51
287.64	-30.55
287.855	133.29
288.07	106.67
288.285	86.19
288.5	90.28
288.715	53.42
288.93	47.27
289.145	39.08
289.36	125.1
289.575	67.75
289.79	108.71
290.004	39.08
290.219	-22.36
290.434	39.08
290.649	16.55
290.864	98.47
291.079	22.7
291.294	77.99
291.509	22.7
291.724	59.56
291.938	39.08
292.153	75.95
292.368	-1.88
292.583	10.41
292.798	110.76
293.012	61.61
293.227	55.47
293.442	-18.26
293.657	22.7
293.871	88.23
294.086	4.27
294.301	65.71
294.516	71.85
294.73	39.08
294.945	37.03
295.16	47.27
295.374	92.33
295.589	80.04
295.804	73.9
296.018	90.28
296.233	43.18
296.447	84.14
296.662	43.18
296.877	28.84
297.091	73.9
297.306	84.14
297.52	6.31
297.735	47.27
297.949	90.28
298.164	100.52
298.378	71.85
298.593	51.37
298.807	41.13
299.022	-10.07
299.236	75.95
299.451	34.99
299.665	49.32
299.88	20.65
300.094	22.7
300.309	59.56
300.523	84.14
300.737	39.08
300.952	-22.36
301.166	67.75
301.381	73.9
301.595	59.56
301.809	84.14
302.024	32.94
302.238	-38.74
302.452	104.62
302.667	-32.6
302.881	90.28
303.095	51.37
303.309	114.86
303.524	49.32
303.738	30.89
303.952	39.08
304.166	94.38
304.381	-51.03
304.595	67.75
304.809	14.51
305.023	67.75
305.237	16.55
305.452	49.32
305.666	41.13
305.88	20.65
306.094	125.1
306.308	-12.12
306.522	59.56
306.736	86.19
306.95	131.24
307.164	39.08
307.379	100.52
307.593	8.36
307.807	28.84
308.021	22.7
308.235	82.09
308.449	-8.02
308.663	57.51
308.877	135.34
309.091	108.71
309.305	57.51
309.519	39.08
309.733	65.71
309.947	80.04
310.161	77.99
310.374	84.14
310.588	77.99
310.802	6.31
311.016	30.89
311.23	43.18
311.444	84.14
311.658	104.62
311.872	47.27
312.085	71.85
312.299	73.9
312.513	55.47
312.727	61.61
312.941	94.38
313.154	96.43
313.368	37.03
313.582	51.37
313.796	18.6
314.009	71.85
314.223	8.36
314.437	-18.26
314.651	77.99
314.864	114.86
315.078	45.23
315.292	51.37
315.505	47.27
315.719	47.27
315.933	75.95
316.146	45.23
316.36	-8.02
316.573	51.37
316.787	106.67
317.001	30.89
317.214	34.99
317.428	53.42
317.641	26.79
317.855	84.14
318.068	69.8
318.282	57.51
318.495	47.27
318.709	73.9
318.922	96.43
319.136	135.34
319.349	39.08
319.563	28.84
319.776	108.71
319.99	34.99
320.203	55.47
320.417	88.23
320.63	82.09
320.843	172.2
321.057	59.56
321.27	12.46
321.483	75.95
321.697	71.85
321.91	32.94
322.124	71.85
322.337	94.38
322.55	45.23
322.763	34.99
322.977	24.75
323.19	39.08
323.403	61.61
323.617	80.04
323.83	100.52
324.043	16.55
324.256	32.94
324.469	51.37
324.683	43.18
324.896	45.23
325.109	67.75
325.322	123.05
325.535	131.24
325.748	90.28
325.962	30.89
326.175	114.86
326.388	32.94
326.601	63.66
326.814	6.31
327.027	57.51
327.24	131.24
327.453	65.71
327.666	188.58
327.879	149.67
328.092	63.66
328.305	16.55
328.518	112.81
328.731	45.23
328.944	18.6
329.157	94.38
329.37	18.6
329.583	59.56
329.796	71.85
330.009	39.08
330.222	24.75
330.435	-16.21
330.648	69.8
330.861	84.14
331.073	71.85
331.286	18.6
331.499	96.43
331.712	53.42
331.925	47.27
332.138	41.13
332.35	49.32
332.563	-14.17
332.776	80.04
332.989	121
333.202	53.42
333.414	49.32
333.627	96.43
333.84	16.55
334.053	22.7
334.265	67.75
334.478	77.99
334.691	112.81
334.903	88.23
335.116	59.56
335.329	65.71
335.541	24.75
335.754	131.24
335.966	32.94
336.179	110.76
336.392	73.9
336.604	131.24
336.817	84.14
337.029	80.04
337.242	59.56
337.454	69.8
337.667	22.7
337.88	141.48
338.092	47.27
338.305	127.14
338.517	28.84
338.729	45.23
338.942	59.56
339.154	45.23
339.367	69.8
339.579	92.33
339.792	67.75
340.004	104.62
340.217	53.42
340.429	59.56
340.641	0.17
340.854	37.03
341.066	90.28
341.278	47.27
341.491	57.51
341.703	32.94
341.915	-46.93
342.128	80.04
342.34	80.04
342.552	75.95
342.764	20.65
342.977	30.89
343.189	45.23
343.401	47.27
343.613	69.8
343.826	24.75
344.038	121
344.25	39.08
344.462	51.37
344.674	84.14
344.886	57.51
345.099	63.66
345.311	16.55
345.523	110.76
345.735	-1.88
345.947	104.62
346.159	0.17
346.371	39.08
346.583	49.32
346.795	108.71
347.007	47.27
347.219	94.38
347.431	-1.88
347.643	39.08
347.855	88.23
348.067	116.9
348.279	92.33
348.491	51.37
348.703	59.56
348.915	98.47
349.127	51.37
349.339	90.28
349.551	67.75
349.763	-22.36
349.975	88.23
350.187	14.51
350.399	139.43
350.61	98.47
350.822	77.99
351.034	82.09
351.246	73.9
351.458	-1.88
351.669	108.71
351.881	55.47
352.093	90.28
352.305	45.23
352.517	41.13
352.728	49.32
352.94	133.29
353.152	77.99
353.363	92.33
353.575	47.27
353.787	121
353.999	118.95
354.21	63.66
354.422	30.89
354.633	55.47
354.845	100.52
355.057	43.18
355.268	6.31
355.48	104.62
355.692	10.41
355.903	55.47
356.115	0.17
356.326	26.79
356.538	39.08
356.749	-16.21
356.961	71.85
357.172	80.04
357.384	59.56
357.595	184.49
357.807	4.27
358.018	155.82
358.23	67.75
358.441	75.95
358.653	100.52
358.864	106.67
359.075	77.99
359.287	61.61
359.498	116.9
359.709	6.31
359.921	82.09
360.132	92.33
360.344	43.18
360.555	49.32
360.766	67.75
360.977	65.71
361.189	133.29
361.4	98.47
361.611	94.38
361.823	90.28
362.034	59.56
362.245	67.75
362.456	84.14
362.667	43.18
362.879	121
363.09	53.42
363.301	100.52
363.512	65.71
363.723	75.95
363.935	47.27
364.146	61.61
364.357	45.23
364.568	155.82
364.779	47.27
364.99	96.43
365.201	106.67
365.412	135.34
365.623	65.71
365.834	65.71
366.045	39.08
366.256	80.04
366.467	108.71
366.678	-36.69
366.889	100.52
367.1	28.84
367.311	82.09
367.522	24.75
367.733	149.67
367.944	71.85
368.155	18.6
368.366	164.01
368.577	49.32
368.788	108.71
368.999	53.42
369.209	133.29
369.42	80.04
369.631	123.05
369.842	51.37
370.053	102.57
370.264	47.27
370.474	55.47
370.685	37.03
370.896	59.56
371.107	96.43
371.317	161.96
371.528	6.31
371.739	98.47
371.95	100.52
372.16	141.48
372.371	67.75
372.582	71.85
372.792	73.9
373.003	41.13
373.214	131.24
373.424	28.84
373.635	43.18
373.846	147.62
374.056	80.04
374.267	135.34
374.477	43.18
374.688	90.28
374.898	20.65
375.109	90.28
375.319	65.71
375.53	112.81
375.74	116.9
375.951	170.15
376.161	121
376.372	43.18
376.582	22.7
376.793	37.03
377.003	55.47
377.214	22.7
377.424	43.18
377.635	34.99
377.845	104.62
378.055	49.32
378.266	98.47
378.476	125.1
378.686	137.38
378.897	184.49
379.107	92.33
379.317	123.05
379.528	47.27
379.738	65.71
379.948	94.38
380.158	26.79
380.369	88.23
380.579	92.33
380.789	10.41
380.999	51.37
381.21	96.43
381.42	157.86
381.63	96.43
381.84	106.67
382.05	12.46
382.261	80.04
382.471	104.62
382.681	55.47
382.891	88.23
383.101	86.19
383.311	65.71
383.521	116.9
383.731	118.95
383.941	129.19
384.151	16.55
384.361	96.43
384.571	20.65
384.781	80.04
384.991	182.44
385.201	57.51
385.411	170.15
385.621	116.9
385.831	116.9
386.041	104.62
386.251	73.9
386.461	88.23
386.671	39.08
386.881	86.19
387.091	43.18
387.301	166.06
387.511	92.33
387.72	145.58
387.93	53.42
388.14	47.27
388.35	127.14
388.56	30.89
388.769	125.1
388.979	6.31
389.189	65.71
389.399	59.56
389.609	110.76
389.818	26.79
390.028	129.19
390.238	104.62
390.447	116.9
390.657	51.37
390.867	84.14
391.076	67.75
391.286	67.75
391.496	75.95
391.705	112.81
391.915	90.28
392.125	133.29
392.334	67.75
392.544	63.66
392.753	59.56
392.963	77.99
393.172	55.47
393.382	22.7
393.591	137.38
393.801	92.33
394.01	110.76
394.22	137.38
394.429	135.34
394.639	112.81
394.848	114.86
395.058	65.71
395.267	90.28
395.477	98.47
395.686	110.76
395.895	139.43
396.105	164.01
396.314	145.58
396.524	125.1
396.733	116.9
396.942	161.96
397.152	80.04
397.361	178.34
397.57	172.2
397.78	106.67
397.989	116.9
398.198	139.43
398.407	166.06
398.617	104.62
398.826	131.24
399.035	135.34
399.244	104.62
399.453	139.43
399.663	96.43
399.872	164.01
400.081	118.95
400.29	209.06
400.499	178.34
400.708	198.82
400.917	145.58
401.127	159.91
401.336	198.82
401.545	223.4
401.754	204.97
401.963	178.34
402.172	192.68
402.381	200.87
402.59	153.77
402.799	176.3
403.008	194.73
403.217	168.1
403.426	125.1
403.635	161.96
403.844	229.54
404.053	241.83
404.262	127.14
404.471	221.35
404.68	200.87
404.888	129.19
405.097	295.08
405.306	270.5
405.515	123.05
405.724	243.88
405.933	297.13
406.142	264.36
406.35	245.93
406.559	176.3
406.768	227.5
406.977	303.27
407.185	293.03
407.394	256.17
407.603	264.36
407.812	299.17
408.02	303.27
408.229	354.47
408.438	356.52
408.646	350.37
408.855	293.03
409.064	420
409.272	344.23
409.481	374.95
409.69	405.67
409.898	424.1
410.107	405.67
410.315	465.06
410.524	495.78
410.733	442.53
410.941	428.2
411.15	542.88
411.358	573.6
411.567	499.88
411.775	573.6
411.984	583.84
412.192	665.76
412.401	637.09
412.609	686.24
412.818	614.56
413.026	626.85
413.234	692.38
413.443	682.14
413.651	710.82
413.86	719.01
414.068	817.31
414.276	792.73
414.485	843.93
414.693	870.56
414.901	909.47
415.11	948.38
415.318	999.58
415.526	997.53
415.734	999.58
415.943	993.44
416.151	1187.99
416.359	1108.12
416.567	1108.12
416.776	1224.86
416.984	1317.01
417.192	1327.25
417.4	1296.53
417.608	1390.74
417.817	1540.24
418.025	1433.75
418.233	1556.63
418.441	1525.91
418.649	1575.06
418.857	1687.7
419.065	1788.05
419.273	1722.51
419.481	1841.29
419.689	1960.08
419.897	1986.7
420.105	2130.06
420.313	2076.81
420.521	2078.86
420.729	2156.68
420.937	2287.75
421.145	2242.7
421.353	2562.18
421.561	2515.08
421.769	2549.89
421.977	2848.9
422.185	2711.68
422.393	2877.57
422.601	3129.47
422.809	3096.7
423.017	3176.57
423.224	3201.15
423.432	3397.75
423.64	3440.76
423.848	3557.49
424.056	3647.6
424.263	3864.69
424.471	3711.09
424.679	4112.49
424.887	4051.05
425.094	4388.97
425.302	4364.39
425.51	4483.17
425.718	4612.2
425.925	4591.72
426.133	4892.77
426.341	5052.51
426.548	5283.93
426.756	5341.27
426.964	5480.54
427.171	5726.29
427.379	5853.27
427.586	5949.52
427.794	6187.08
428.001	6682.69
428.209	6799.43
428.417	6578.25
428.624	7120.96
428.832	7010.37
429.039	7014.46
429.247	7006.27
429.454	7706.68
429.662	8198.19
429.869	7706.68
430.076	8405.03
430.284	7940.15
430.491	8243.24
430.699	8796.2
430.906	8874.02
431.114	8857.64
431.321	9164.83
431.528	9359.39
431.736	10199.06
431.943	10526.73
432.15	10270.73
432.358	10467.34
432.565	10801.16
432.772	10762.25
432.979	11411.45
433.187	11554.81
433.394	11593.72
433.601	12525.55
433.808	12595.18
434.016	12394.48
434.223	12849.13
434.43	13619.16
434.637	13500.38
434.844	14323.66
435.052	14452.69
435.259	14499.79
435.466	14493.65
435.673	14497.74
435.88	15304.64
436.087	16043.96
436.294	16488.37
436.501	15794.11
436.708	16242.61
436.915	16818.09
437.122	17418.14
437.329	17285.03
437.537	17983.38
437.743	18059.16
437.95	18200.47
438.157	19056.52
438.364	19513.22
438.571	19728.25
438.778	19605.38
438.985	21428.07
439.192	20795.25
439.399	21395.3
439.606	20838.25
439.813	21743.45
440.02	23301.96
440.227	22949.71
440.433	22882.13
440.64	23557.96
440.847	23476.04
441.054	24287.03
441.261	25542.44
441.467	25020.2
441.674	25804.58
441.881	26818.32
442.088	26642.2
442.294	26115.87
442.501	26949.39
442.708	27647.75
442.914	28651.25
443.121	30191.33
443.328	29191.92
443.534	30951.12
443.741	30260.96
443.948	29931.23
444.154	32114.37
444.361	31532.75
444.568	32120.51
444.774	31950.53
444.981	32444.09
445.187	33111.73
445.394	34733.72
445.6	34215.58
445.807	37336.69
446.013	35884.68
446.22	36828.79
446.426	37711.47
446.633	38076.01
446.839	39341.65
447.046	38024.81
447.252	39743.05
447.459	39937.61
447.665	39794.25
447.871	41387.57
448.078	43210.26
448.284	41567.79
448.491	42030.63
448.697	43626
448.903	44365.32
449.11	44744.19
449.316	43912.72
449.522	44535.3
449.728	45843.95
449.935	46015.98
450.141	46214.63
450.347	46880.22
450.553	45694.45
450.76	46147.05
450.966	47042.01
451.172	47035.87
451.378	47961.55
451.584	47205.85
451.791	48074.19
451.997	48186.83
452.203	48541.13
452.409	48649.67
452.615	48391.62
452.821	46736.87
453.027	46325.22
453.233	48872.9
453.44	46491.11
453.646	47361.5
453.852	47306.2
454.058	48125.39
454.264	46685.67
454.47	47597.01
454.676	46960.09
454.882	47885.78
455.088	43617.81
455.294	44488.2
455.5	44707.33
455.705	45792.75
455.911	43795.98
456.117	42890.78
456.323	41969.19
456.529	39992.9
456.735	41659.95
456.941	40676.93
457.147	40296
457.352	38706.78
457.558	38710.88
457.764	38495.84
457.97	37625.45
458.176	36966.01
458.381	37031.54
458.587	34887.32
458.793	34811.54
458.999	33062.58
459.204	35937.93
459.41	34588.31
459.616	32239.29
459.821	32046.79
460.027	32337.6
460.233	31395.53
460.438	29871.84
460.644	30410.46
460.85	29091.57
461.055	28561.14
461.261	28235.52
461.466	26398.49
461.672	25874.21
461.878	27731.72
462.083	25900.83
462.289	25061.16
462.494	24753.97
462.7	24069.95
462.905	23557.96
463.111	24014.65
463.316	23934.78
463.522	23359.3
463.727	23670.59
463.932	23377.73
464.138	23416.65
464.343	23435.08
464.549	22601.55
464.754	23818.05
464.959	23252.81
465.165	22962
465.37	22693.71
465.575	21669.73
465.781	22206.3
465.986	22847.31
466.191	21804.89
466.397	21442.4
466.602	20225.91
