Data from USB4F104151__119__11-07-25-397.txt Node

Date: Wed Mar 12 11:07:25 EDT 2025
User: louis
Spectrometer: USB4F10415
Trigger mode: 4
Integration Time (sec): 2.000000E-2
Scans to average: 1
Electric dark correction enabled: true
Nonlinearity correction enabled: false
Boxcar width: 0
XAxis mode: Wavelengths
Number of Pixels in Spectrum: 3648
>>>>>Begin Spectral Data<<<<<
178.204	-52.56
178.424	-52.56
178.644	-52.56
178.864	-81.24
179.084	-68.95
179.304	12.97
179.524	-7.51
179.744	-27.99
179.964	-9.56
180.184	27.31
180.404	15.02
180.624	35.5
180.844	-5.46
181.064	-19.8
181.283	-21.85
181.503	-50.52
181.723	51.88
181.943	-75.09
182.163	76.46
182.383	84.65
182.602	37.55
182.822	-1.37
183.042	12.97
183.262	15.02
183.482	-13.65
183.701	10.92
183.921	35.5
184.141	2.73
184.361	37.55
184.58	27.31
184.8	74.41
185.02	31.4
185.239	41.64
185.459	41.64
185.679	33.45
185.898	37.55
186.118	19.11
186.338	4.78
186.557	68.27
186.777	82.6
186.997	-13.65
187.216	123.56
187.436	98.99
187.655	41.64
187.875	98.99
188.095	62.12
188.314	25.26
188.534	72.36
188.753	80.55
188.973	94.89
189.192	39.59
189.412	39.59
189.631	84.65
189.851	15.02
190.07	60.07
190.29	29.35
190.509	53.93
190.729	45.74
190.948	37.55
191.168	117.42
191.387	80.55
191.607	-1.37
191.826	51.88
192.045	27.31
192.265	96.94
192.484	127.66
192.704	84.65
192.923	-11.61
193.142	62.12
193.362	86.7
193.581	98.99
193.8	109.22
194.02	55.98
194.239	27.31
194.458	31.4
194.678	37.55
194.897	12.97
195.116	43.69
195.335	55.98
195.555	-40.28
195.774	51.88
195.993	-44.37
196.212	45.74
196.432	8.87
196.651	35.5
196.87	41.64
197.089	41.64
197.308	15.02
197.528	49.83
197.747	27.31
197.966	33.45
198.185	62.12
198.404	2.73
198.623	10.92
198.842	125.61
199.062	31.4
199.281	139.94
199.5	35.5
199.719	35.5
199.938	41.64
200.157	109.22
200.376	43.69
200.595	113.32
200.814	39.59
201.033	29.35
201.252	88.75
201.471	98.99
201.69	31.4
201.909	37.55
202.128	37.55
202.347	62.12
202.566	4.78
202.785	6.83
203.004	41.64
203.223	19.11
203.442	29.35
203.661	27.31
203.879	113.32
204.098	-5.46
204.317	15.02
204.536	148.14
204.755	35.5
204.974	-30.04
205.193	43.69
205.411	101.03
205.63	47.79
205.849	76.46
206.068	78.51
206.287	68.27
206.505	0.68
206.724	72.36
206.943	21.16
207.162	27.31
207.381	33.45
207.599	53.93
207.818	109.22
208.037	12.97
208.255	33.45
208.474	47.79
208.693	43.69
208.911	43.69
209.13	66.22
209.349	39.59
209.567	15.02
209.786	80.55
210.005	15.02
210.223	37.55
210.442	6.83
210.661	41.64
210.879	-19.8
211.098	31.4
211.316	64.17
211.535	-30.04
211.753	45.74
211.972	47.79
212.191	58.03
212.409	33.45
212.628	29.35
212.846	23.21
213.065	72.36
213.283	39.59
213.502	49.83
213.72	-11.61
213.938	-44.37
214.157	131.75
214.375	43.69
214.594	41.64
214.812	119.46
215.031	80.55
215.249	-19.8
215.467	37.55
215.686	86.7
215.904	55.98
216.122	72.36
216.341	53.93
216.559	27.31
216.778	82.6
216.996	105.13
217.214	88.75
217.432	35.5
217.651	90.79
217.869	23.21
218.087	27.31
218.306	80.55
218.524	25.26
218.742	0.68
218.96	-13.65
219.179	68.27
219.397	72.36
219.615	62.12
219.833	53.93
220.051	25.26
220.27	47.79
220.488	109.22
220.706	62.12
220.924	15.02
221.142	51.88
221.36	55.98
221.578	80.55
221.796	43.69
222.015	115.37
222.233	25.26
222.451	37.55
222.669	53.93
222.887	-1.37
223.105	19.11
223.323	45.74
223.541	33.45
223.759	82.6
223.977	21.16
224.195	25.26
224.413	-3.41
224.631	98.99
224.849	-23.89
225.067	94.89
225.285	17.07
225.503	80.55
225.721	66.22
225.939	62.12
226.157	68.27
226.375	58.03
226.592	31.4
226.81	88.75
227.028	29.35
227.246	92.84
227.464	78.51
227.682	82.6
227.9	45.74
228.117	51.88
228.335	15.02
228.553	-36.18
228.771	123.56
228.989	92.84
229.206	29.35
229.424	0.68
229.642	-15.7
229.86	0.68
230.077	-1.37
230.295	39.59
230.513	47.79
230.731	80.55
230.948	37.55
231.166	125.61
231.384	55.98
231.601	47.79
231.819	84.65
232.037	58.03
232.254	39.59
232.472	10.92
232.689	-3.41
232.907	47.79
233.125	72.36
233.342	96.94
233.56	-32.08
233.777	88.75
233.995	51.88
234.213	98.99
234.43	105.13
234.648	92.84
234.865	39.59
235.083	82.6
235.3	47.79
235.518	51.88
235.735	29.35
235.953	39.59
236.17	101.03
236.388	47.79
236.605	43.69
236.822	62.12
237.04	15.02
237.257	64.17
237.475	19.11
237.692	131.75
237.909	64.17
238.127	33.45
238.344	96.94
238.562	80.55
238.779	64.17
238.996	76.46
239.214	78.51
239.431	98.99
239.648	53.93
239.865	92.84
240.083	101.03
240.3	94.89
240.517	-1.37
240.735	51.88
240.952	92.84
241.169	64.17
241.386	125.61
241.603	33.45
241.821	45.74
242.038	58.03
242.255	66.22
242.472	31.4
242.689	31.4
242.907	10.92
243.124	2.73
243.341	-85.33
243.558	23.21
243.775	4.78
243.992	37.55
244.209	31.4
244.426	121.51
244.643	62.12
244.86	27.31
245.078	47.79
245.295	31.4
245.512	60.07
245.729	37.55
245.946	55.98
246.163	72.36
246.38	80.55
246.597	43.69
246.814	43.69
247.031	43.69
247.248	105.13
247.464	19.11
247.681	47.79
247.898	51.88
248.115	43.69
248.332	17.07
248.549	51.88
248.766	139.94
248.983	74.41
249.2	10.92
249.417	51.88
249.633	53.93
249.85	25.26
250.067	17.07
250.284	92.84
250.501	82.6
250.717	37.55
250.934	0.68
251.151	27.31
251.368	31.4
251.585	164.52
251.801	21.16
252.018	68.27
252.235	109.22
252.451	62.12
252.668	27.31
252.885	21.16
253.102	82.6
253.318	23.21
253.535	-34.13
253.752	80.55
253.968	55.98
254.185	33.45
254.401	33.45
254.618	2.73
254.835	35.5
255.051	88.75
255.268	64.17
255.484	80.55
255.701	-1.37
255.917	103.08
256.134	43.69
256.351	70.31
256.567	94.89
256.784	15.02
257	-9.56
257.217	43.69
257.433	82.6
257.65	43.69
257.866	-40.28
258.082	-5.46
258.299	43.69
258.515	23.21
258.732	2.73
258.948	107.18
259.165	76.46
259.381	23.21
259.597	47.79
259.814	123.56
260.03	92.84
260.246	58.03
260.463	21.16
260.679	64.17
260.895	66.22
261.112	-46.42
261.328	25.26
261.544	17.07
261.761	25.26
261.977	-17.75
262.193	33.45
262.409	70.31
262.626	62.12
262.842	135.85
263.058	-7.51
263.274	72.36
263.49	43.69
263.707	107.18
263.923	6.83
264.139	70.31
264.355	58.03
264.571	86.7
264.787	119.46
265.004	23.21
265.22	53.93
265.436	90.79
265.652	45.74
265.868	84.65
266.084	49.83
266.3	70.31
266.516	64.17
266.732	66.22
266.948	70.31
267.164	98.99
267.38	80.55
267.596	55.98
267.812	31.4
268.028	17.07
268.244	47.79
268.46	88.75
268.676	96.94
268.892	58.03
269.108	53.93
269.324	8.87
269.54	51.88
269.756	90.79
269.972	74.41
270.188	37.55
270.403	-3.41
270.619	45.74
270.835	98.99
271.051	76.46
271.267	39.59
271.483	53.93
271.698	68.27
271.914	29.35
272.13	60.07
272.346	-9.56
272.562	35.5
272.777	62.12
272.993	33.45
273.209	64.17
273.425	35.5
273.64	53.93
273.856	53.93
274.072	19.11
274.287	70.31
274.503	39.59
274.719	86.7
274.934	55.98
275.15	37.55
275.366	101.03
275.581	6.83
275.797	94.89
276.012	12.97
276.228	39.59
276.444	-7.51
276.659	-1.37
276.875	64.17
277.09	84.65
277.306	94.89
277.521	33.45
277.737	25.26
277.952	92.84
278.168	72.36
278.383	8.87
278.599	66.22
278.814	6.83
279.03	25.26
279.245	119.46
279.461	115.37
279.676	72.36
279.892	4.78
280.107	41.64
280.322	-21.85
280.538	41.64
280.753	51.88
280.969	33.45
281.184	84.65
281.399	103.08
281.615	94.89
281.83	35.5
282.045	15.02
282.26	76.46
282.476	37.55
282.691	51.88
282.906	-19.8
283.122	10.92
283.337	-13.65
283.552	43.69
283.767	115.37
283.983	123.56
284.198	72.36
284.413	82.6
284.628	45.74
284.843	109.22
285.058	82.6
285.274	35.5
285.489	21.16
285.704	84.65
285.919	33.45
286.134	74.41
286.349	21.16
286.564	92.84
286.779	158.38
286.995	27.31
287.21	19.11
287.425	53.93
287.64	82.6
287.855	17.07
288.07	-15.7
288.285	86.7
288.5	125.61
288.715	70.31
288.93	53.93
289.145	66.22
289.36	37.55
289.575	90.79
289.79	55.98
290.004	-50.52
290.219	94.89
290.434	41.64
290.649	19.11
290.864	131.75
291.079	53.93
291.294	64.17
291.509	96.94
291.724	70.31
291.938	37.55
292.153	21.16
292.368	33.45
292.583	113.32
292.798	41.64
293.012	39.59
293.227	96.94
293.442	29.35
293.657	6.83
293.871	94.89
294.086	39.59
294.301	70.31
294.516	78.51
294.73	-9.56
294.945	-3.41
295.16	51.88
295.374	158.38
295.589	82.6
295.804	53.93
296.018	43.69
296.233	70.31
296.447	41.64
296.662	17.07
296.877	25.26
297.091	8.87
297.306	58.03
297.52	27.31
297.735	109.22
297.949	78.51
298.164	39.59
298.378	88.75
298.593	55.98
298.807	17.07
299.022	78.51
299.236	133.8
299.451	23.21
299.665	43.69
299.88	80.55
300.094	-7.51
300.309	45.74
300.523	64.17
300.737	43.69
300.952	25.26
301.166	90.79
301.381	66.22
301.595	31.4
301.809	-1.37
302.024	21.16
302.238	109.22
302.452	37.55
302.667	-5.46
302.881	115.37
303.095	43.69
303.309	90.79
303.524	88.75
303.738	29.35
303.952	68.27
304.166	-7.51
304.381	31.4
304.595	125.61
304.809	123.56
305.023	39.59
305.237	64.17
305.452	88.75
305.666	47.79
305.88	84.65
306.094	27.31
306.308	60.07
306.522	94.89
306.736	92.84
306.95	76.46
307.164	117.42
307.379	21.16
307.593	137.9
307.807	109.22
308.021	58.03
308.235	39.59
308.449	35.5
308.663	27.31
308.877	119.46
309.091	66.22
309.305	35.5
309.519	74.41
309.733	17.07
309.947	21.16
310.161	154.28
310.374	-7.51
310.588	84.65
310.802	92.84
311.016	55.98
311.23	37.55
311.444	76.46
311.658	94.89
311.872	37.55
312.085	58.03
312.299	76.46
312.513	125.61
312.727	92.84
312.941	19.11
313.154	72.36
313.368	94.89
313.582	66.22
313.796	70.31
314.009	64.17
314.223	96.94
314.437	84.65
314.651	51.88
314.864	53.93
315.078	78.51
315.292	55.98
315.505	49.83
315.719	76.46
315.933	58.03
316.146	74.41
316.36	-21.85
316.573	-23.89
316.787	43.69
317.001	111.27
317.214	78.51
317.428	12.97
317.641	64.17
317.855	90.79
318.068	60.07
318.282	62.12
318.495	68.27
318.709	113.32
318.922	82.6
319.136	78.51
319.349	88.75
319.563	72.36
319.776	41.64
319.99	41.64
320.203	47.79
320.417	2.73
320.63	74.41
320.843	74.41
321.057	78.51
321.27	150.18
321.483	129.7
321.697	58.03
321.91	113.32
322.124	51.88
322.337	92.84
322.55	74.41
322.763	60.07
322.977	66.22
323.19	-9.56
323.403	66.22
323.617	51.88
323.83	125.61
324.043	25.26
324.256	76.46
324.469	27.31
324.683	70.31
324.896	98.99
325.109	8.87
325.322	33.45
325.535	84.65
325.748	92.84
325.962	68.27
326.175	-40.28
326.388	43.69
326.601	113.32
326.814	62.12
327.027	58.03
327.24	162.47
327.453	94.89
327.666	64.17
327.879	86.7
328.092	43.69
328.305	70.31
328.518	64.17
328.731	68.27
328.944	86.7
329.157	39.59
329.37	58.03
329.583	72.36
329.796	8.87
330.009	72.36
330.222	55.98
330.435	64.17
330.648	70.31
330.861	19.11
331.073	146.09
331.286	115.37
331.499	105.13
331.712	53.93
331.925	35.5
332.138	17.07
332.35	109.22
332.563	21.16
332.776	86.7
332.989	21.16
333.202	72.36
333.414	27.31
333.627	10.92
333.84	23.21
334.053	41.64
334.265	4.78
334.478	129.7
334.691	31.4
334.903	31.4
335.116	47.79
335.329	37.55
335.541	107.18
335.754	98.99
335.966	-11.61
336.179	62.12
336.392	139.94
336.604	105.13
336.817	45.74
337.029	45.74
337.242	66.22
337.454	139.94
337.667	60.07
337.88	84.65
338.092	109.22
338.305	105.13
338.517	96.94
338.729	86.7
338.942	53.93
339.154	109.22
339.367	21.16
339.579	-11.61
339.792	-15.7
340.004	101.03
340.217	86.7
340.429	92.84
340.641	92.84
340.854	105.13
341.066	92.84
341.278	80.55
341.491	141.99
341.703	74.41
341.915	4.78
342.128	127.66
342.34	74.41
342.552	45.74
342.764	21.16
342.977	84.65
343.189	107.18
343.401	80.55
343.613	21.16
343.826	55.98
344.038	76.46
344.25	109.22
344.462	115.37
344.674	105.13
344.886	80.55
345.099	109.22
345.311	86.7
345.523	64.17
345.735	66.22
345.947	105.13
346.159	113.32
346.371	74.41
346.583	33.45
346.795	-9.56
347.007	107.18
347.219	141.99
347.431	92.84
347.643	72.36
347.855	82.6
348.067	139.94
348.279	64.17
348.491	105.13
348.703	103.08
348.915	64.17
349.127	80.55
349.339	47.79
349.551	15.02
349.763	92.84
349.975	60.07
350.187	45.74
350.399	82.6
350.61	125.61
350.822	74.41
351.034	121.51
351.246	78.51
351.458	25.26
351.669	84.65
351.881	113.32
352.093	82.6
352.305	86.7
352.517	15.02
352.728	113.32
352.94	72.36
353.152	74.41
353.363	74.41
353.575	150.18
353.787	90.79
353.999	96.94
354.21	144.04
354.422	51.88
354.633	96.94
354.845	103.08
355.057	70.31
355.268	72.36
355.48	137.9
355.692	47.79
355.903	72.36
356.115	60.07
356.326	68.27
356.538	84.65
356.749	92.84
356.961	96.94
357.172	62.12
357.384	66.22
357.595	105.13
357.807	82.6
358.018	113.32
358.23	107.18
358.441	103.08
358.653	111.27
358.864	60.07
359.075	109.22
359.287	76.46
359.498	98.99
359.709	55.98
359.921	72.36
360.132	64.17
360.344	80.55
360.555	86.7
360.766	74.41
360.977	129.7
361.189	74.41
361.4	117.42
361.611	123.56
361.823	107.18
362.034	154.28
362.245	72.36
362.456	64.17
362.667	137.9
362.879	101.03
363.09	119.46
363.301	103.08
363.512	103.08
363.723	39.59
363.935	27.31
364.146	74.41
364.357	96.94
364.568	60.07
364.779	-48.47
364.99	84.65
365.201	135.85
365.412	127.66
365.623	80.55
365.834	109.22
366.045	19.11
366.256	84.65
366.467	121.51
366.678	135.85
366.889	152.23
367.1	17.07
367.311	70.31
367.522	64.17
367.733	84.65
367.944	107.18
368.155	60.07
368.366	82.6
368.577	121.51
368.788	88.75
368.999	35.5
369.209	43.69
369.42	123.56
369.631	121.51
369.842	55.98
370.053	113.32
370.264	119.46
370.474	6.83
370.685	148.14
370.896	47.79
371.107	86.7
371.317	115.37
371.528	119.46
371.739	92.84
371.95	146.09
372.16	49.83
372.371	80.55
372.582	96.94
372.792	27.31
373.003	131.75
373.214	72.36
373.424	15.02
373.635	39.59
373.846	174.76
374.056	47.79
374.267	94.89
374.477	113.32
374.688	72.36
374.898	45.74
375.109	-13.65
375.319	80.55
375.53	78.51
375.74	137.9
375.951	123.56
376.161	195.24
376.372	141.99
376.582	92.84
376.793	215.72
377.003	70.31
377.214	66.22
377.424	60.07
377.635	37.55
377.845	68.27
378.055	80.55
378.266	86.7
378.476	64.17
378.686	129.7
378.897	92.84
379.107	70.31
379.317	62.12
379.528	101.03
379.738	160.42
379.948	39.59
380.158	139.94
380.369	64.17
380.579	76.46
380.789	68.27
380.999	131.75
381.21	64.17
381.42	166.57
381.63	39.59
381.84	105.13
382.05	76.46
382.261	107.18
382.471	47.79
382.681	47.79
382.891	137.9
383.101	62.12
383.311	35.5
383.521	76.46
383.731	35.5
383.941	84.65
384.151	129.7
384.361	160.42
384.571	88.75
384.781	103.08
384.991	25.26
385.201	123.56
385.411	123.56
385.621	203.43
385.831	68.27
386.041	131.75
386.251	125.61
386.461	47.79
386.671	92.84
386.881	58.03
387.091	158.38
387.301	150.18
387.511	103.08
387.72	92.84
387.93	105.13
388.14	125.61
388.35	123.56
388.56	156.33
388.769	156.33
388.979	68.27
389.189	98.99
389.399	164.52
389.609	144.04
389.818	125.61
390.028	113.32
390.238	125.61
390.447	109.22
390.657	189.1
390.867	70.31
391.076	96.94
391.286	156.33
391.496	105.13
391.705	137.9
391.915	207.53
392.125	135.85
392.334	119.46
392.544	103.08
392.753	121.51
392.963	115.37
393.172	113.32
393.382	121.51
393.591	160.42
393.801	86.7
394.01	189.1
394.22	201.38
394.429	105.13
394.639	53.93
394.848	119.46
395.058	101.03
395.267	240.29
395.477	105.13
395.686	121.51
395.895	162.47
396.105	182.95
396.314	103.08
396.524	154.28
396.733	146.09
396.942	82.6
397.152	156.33
397.361	172.71
397.57	160.42
397.78	123.56
397.989	207.53
398.198	182.95
398.407	111.27
398.617	170.66
398.826	219.82
399.035	187.05
399.244	146.09
399.453	162.47
399.663	174.76
399.872	211.62
400.081	193.19
400.29	164.52
400.499	158.38
400.708	211.62
400.917	172.71
401.127	250.53
401.336	160.42
401.545	238.25
401.754	180.9
401.963	197.29
402.172	205.48
402.381	266.92
402.59	201.38
402.799	209.58
403.008	148.14
403.217	96.94
403.426	160.42
403.635	209.58
403.844	203.43
404.053	254.63
404.262	217.77
404.471	287.4
404.68	217.77
404.888	238.25
405.097	295.59
405.306	207.53
405.515	199.34
405.724	303.78
405.933	301.73
406.142	275.11
406.35	252.58
406.559	277.16
406.768	266.92
406.977	303.78
407.185	273.06
407.394	281.25
407.603	316.07
407.812	373.41
408.02	361.13
408.229	363.17
408.438	414.37
408.646	352.93
408.855	305.83
409.064	430.76
409.272	443.04
409.481	477.86
409.69	363.17
409.898	375.46
410.107	490.15
410.315	469.67
410.524	477.86
410.733	539.3
410.941	512.67
411.15	461.48
411.358	586.4
411.567	592.55
411.775	617.12
411.984	565.92
412.192	613.03
412.401	668.32
412.609	686.75
412.818	787.1
413.026	744.1
413.234	740
413.443	875.17
413.651	823.97
413.86	959.13
414.068	942.75
414.276	942.75
414.485	930.46
414.693	932.51
414.901	1098.39
415.11	1075.87
415.318	1065.63
415.526	1165.98
415.734	1188.5
415.943	1139.35
416.151	1239.7
416.359	1231.51
416.567	1256.09
416.776	1282.71
416.984	1307.29
417.192	1440.4
417.4	1462.93
417.608	1417.88
417.817	1464.98
418.025	1643.15
418.233	1661.59
418.441	1763.98
418.649	1792.66
418.857	2042.51
419.065	1944.2
419.273	1913.49
419.481	2091.66
419.689	2118.28
419.897	2271.88
420.105	2304.65
420.313	2349.7
420.521	2392.71
420.729	2380.42
420.937	2531.97
421.145	2665.09
421.353	2775.68
421.561	2986.62
421.769	2982.53
421.977	3054.2
422.185	3064.44
422.393	3183.23
422.601	3613.3
422.809	3426.93
423.017	3390.07
423.224	3527.28
423.432	3648.11
423.64	3744.37
423.848	4008.56
424.056	3998.32
424.263	4264.55
424.471	4264.55
424.679	4219.5
424.887	4686.44
425.094	4723.3
425.302	4792.93
425.51	4938.34
425.718	5087.84
425.925	5167.71
426.133	5382.74
426.341	5530.2
426.548	5935.7
426.756	5730.9
426.964	6003.28
427.171	6394.44
427.379	6488.65
427.586	6722.12
427.794	6853.19
428.001	6994.5
428.209	7381.56
428.417	7334.46
428.624	7582.26
428.832	7744.05
429.039	7735.86
429.247	7795.25
429.454	8399.4
429.662	9146.91
429.869	8417.83
430.076	8940.07
430.284	8874.53
430.491	9064.99
430.699	9663
430.906	9794.07
431.114	9804.31
431.321	10310.16
431.528	10353.16
431.736	11028.99
431.943	11610.62
432.15	11190.78
432.358	11495.93
432.565	11792.89
432.772	12143.09
432.979	12646.89
433.187	12997.09
433.394	12960.23
433.601	13728.22
433.808	13715.93
434.016	13838.81
434.223	14481.87
434.43	15122.88
434.637	14707.15
434.844	15653.31
435.052	16179.64
435.259	16032.18
435.466	16052.66
435.673	16067
435.88	17144.23
436.087	18059.67
436.294	18022.81
436.501	17643.93
436.708	17897.88
436.915	18379.15
437.122	19315.08
437.329	19251.59
437.537	20064.63
437.743	20111.74
437.95	20136.31
438.157	21006.7
438.364	21844.32
438.571	21885.28
438.778	21709.15
438.985	23947.58
439.192	22964.56
439.399	23566.66
439.606	23331.14
439.813	24690.99
440.02	25921.82
440.227	25571.62
440.433	25450.79
440.64	25895.2
440.847	25925.92
441.054	26507.54
441.261	28438.78
441.467	28229.88
441.674	28721.4
441.881	29520.1
442.088	29583.59
442.294	29348.07
442.501	30200.03
442.708	30501.08
442.914	31869.12
443.121	32917.68
443.328	32575.67
443.534	34887.83
443.741	33878.18
443.948	32776.37
444.154	36006.02
444.361	35309.71
444.568	35330.19
444.774	35627.15
444.981	36216.96
445.187	37124.21
445.394	38510.69
445.6	37779.56
445.807	41261.11
446.013	39780.43
446.22	40366.15
446.426	42082.34
446.633	42070.06
446.839	43786.25
447.046	42133.54
447.252	44584.96
447.459	44408.84
447.665	44179.46
447.871	45866.99
448.078	47314.9
448.284	45498.36
448.491	46909.41
448.697	48635.84
448.903	49291.19
449.11	49344.44
449.316	48586.69
449.522	49418.17
449.728	50884.51
449.935	50864.03
450.141	50763.68
450.347	51939.22
450.553	50448.3
450.76	50847.65
450.966	52557.7
451.172	52123.54
451.378	52856.71
451.584	51861.4
451.791	53301.12
451.997	53120.9
452.203	54220.66
452.409	53874.55
452.615	53772.15
452.821	51709.85
453.027	51103.65
453.233	53802.87
453.44	51548.06
453.646	51992.47
453.852	52529.03
454.058	53370.75
454.264	51228.57
454.47	52733.83
454.676	51210.14
454.882	52991.87
455.088	48353.22
455.294	49426.36
455.5	49799.09
455.705	50358.19
455.911	48369.61
456.117	47292.38
456.323	46342.12
456.529	44154.89
456.735	46272.49
456.941	44832.77
457.147	43991.05
457.352	42786.85
457.558	42266.66
457.764	42377.25
457.97	41726
458.176	40880.19
458.381	41408.56
458.587	38432.86
458.793	38608.99
458.999	37068.92
459.204	39422.03
459.41	38201.44
459.616	35651.72
459.821	35594.38
460.027	35573.9
460.233	34898.07
460.438	32862.39
460.644	33593.51
460.85	31873.22
461.055	31320.27
461.261	31596.74
461.466	29239.53
461.672	28123.39
461.878	30425.31
462.083	28602.61
462.289	28174.59
462.494	27570.44
462.7	26276.12
462.905	25960.73
463.111	26804.5
463.316	26722.58
463.522	26360.09
463.727	26491.16
463.932	26024.22
464.138	26255.64
464.343	26048.8
464.549	25356.58
464.754	26308.89
464.959	25884.96
465.165	25743.65
465.37	24856.88
465.575	23972.16
465.781	25057.58
465.986	25166.12
