Data from USB4F104151__35__11-05-16-531.txt Node

Date: Wed Mar 12 11:05:16 EDT 2025
User: louis
Spectrometer: USB4F10415
Trigger mode: 4
Integration Time (sec): 2.000000E-2
Scans to average: 1
Electric dark correction enabled: true
Nonlinearity correction enabled: false
Boxcar width: 0
XAxis mode: Wavelengths
Number of Pixels in Spectrum: 3648
>>>>>Begin Spectral Data<<<<<
178.204	3.24
178.424	3.24
178.644	3.24
178.864	-107.35
179.084	-2.9
179.304	5.29
179.524	9.39
179.744	-17.24
179.964	68.78
180.184	-58.2
180.404	-54.1
180.624	3.24
180.844	-25.43
181.064	-54.1
181.283	66.73
181.503	25.77
181.723	29.87
181.943	52.39
182.163	29.87
182.383	17.58
182.602	70.83
182.822	33.96
183.042	-33.62
183.262	66.73
183.482	19.63
183.701	-11.09
183.921	-15.19
184.141	13.48
184.361	-2.9
184.58	87.21
184.8	124.07
185.02	-50
185.239	70.83
185.459	3.24
185.679	9.39
185.898	-7
186.118	-0.85
186.338	60.59
186.557	-2.9
186.777	-23.38
186.997	19.63
187.216	-35.67
187.436	-17.24
187.655	-0.85
187.875	44.2
188.095	-11.09
188.314	44.2
188.534	7.34
188.753	-33.62
188.973	46.25
189.192	66.73
189.412	19.63
189.631	103.59
189.851	46.25
190.07	85.16
190.29	-39.76
190.509	40.11
190.729	19.63
190.948	113.83
191.168	167.08
191.387	56.49
191.607	11.43
191.826	40.11
192.045	29.87
192.265	74.92
192.484	68.78
192.704	-11.09
192.923	-31.57
193.142	81.07
193.362	81.07
193.581	48.3
193.8	44.2
194.02	72.87
194.239	-0.85
194.458	117.93
194.678	13.48
194.897	81.07
195.116	3.24
195.335	31.91
195.555	-2.9
195.774	103.59
195.993	60.59
196.212	50.35
196.432	21.67
196.651	33.96
196.87	36.01
197.089	103.59
197.308	7.34
197.528	64.68
197.747	-50
197.966	-41.81
198.185	-2.9
198.404	79.02
198.623	21.67
198.842	23.72
199.062	-56.15
199.281	42.15
199.5	72.87
199.719	38.06
199.938	25.77
200.157	56.49
200.376	15.53
200.595	89.26
200.814	56.49
201.033	-25.43
201.252	15.53
201.471	9.39
201.69	-19.29
201.909	40.11
202.128	13.48
202.347	27.82
202.566	15.53
202.785	27.82
203.004	-60.24
203.223	128.17
203.442	17.58
203.661	85.16
203.879	-0.85
204.098	58.54
204.317	-7
204.536	-13.14
204.755	5.29
204.974	62.63
205.193	62.63
205.411	60.59
205.63	70.83
205.849	7.34
206.068	52.39
206.287	70.83
206.505	68.78
206.724	-2.9
206.943	-4.95
207.162	42.15
207.381	29.87
207.599	23.72
207.818	-23.38
208.037	-0.85
208.255	5.29
208.474	89.26
208.693	56.49
208.911	52.39
209.13	62.63
209.349	40.11
209.567	-2.9
209.786	44.2
210.005	-9.05
210.223	1.19
210.442	-50
210.661	52.39
210.879	27.82
211.098	31.91
211.316	50.35
211.535	42.15
211.753	-50
211.972	48.3
212.191	62.63
212.409	60.59
212.628	-13.14
212.846	101.55
213.065	7.34
213.283	56.49
213.502	17.58
213.72	-27.48
213.938	33.96
214.157	42.15
214.375	44.2
214.594	31.91
214.812	117.93
215.031	64.68
215.249	-45.91
215.467	97.45
215.686	13.48
215.904	103.59
216.122	54.44
216.341	54.44
216.559	-0.85
216.778	64.68
216.996	-21.33
217.214	38.06
217.432	38.06
217.651	50.35
217.869	-25.43
218.087	-21.33
218.306	5.29
218.524	23.72
218.742	11.43
218.96	25.77
219.179	-7
219.397	25.77
219.615	13.48
219.833	130.22
220.051	44.2
220.27	113.83
220.488	126.12
220.706	-70.48
220.924	64.68
221.142	7.34
221.36	36.01
221.578	62.63
221.796	46.25
222.015	9.39
222.233	38.06
222.451	-43.86
222.669	74.92
222.887	42.15
223.105	62.63
223.323	-11.09
223.541	66.73
223.759	-7
223.977	25.77
224.195	107.69
224.413	15.53
224.631	58.54
224.849	-4.95
225.067	83.11
225.285	-17.24
225.503	15.53
225.721	-23.38
225.939	40.11
226.157	46.25
226.375	52.39
226.592	48.3
226.81	89.26
227.028	15.53
227.246	-0.85
227.464	19.63
227.682	23.72
227.9	1.19
228.117	29.87
228.335	15.53
228.553	21.67
228.771	13.48
228.989	25.77
229.206	68.78
229.424	-56.15
229.642	17.58
229.86	46.25
230.077	99.5
230.295	9.39
230.513	38.06
230.731	23.72
230.948	117.93
231.166	1.19
231.384	15.53
231.601	-43.86
231.819	60.59
232.037	29.87
232.254	68.78
232.472	54.44
232.689	58.54
232.907	27.82
233.125	13.48
233.342	38.06
233.56	-0.85
233.777	36.01
233.995	-15.19
234.213	17.58
234.43	21.67
234.648	66.73
234.865	-0.85
235.083	52.39
235.3	-50
235.518	70.83
235.735	72.87
235.953	31.91
236.17	103.59
236.388	25.77
236.605	7.34
236.822	87.21
237.04	-13.14
237.257	-64.34
237.475	-45.91
237.692	36.01
237.909	-9.05
238.127	19.63
238.344	11.43
238.562	23.72
238.779	33.96
238.996	3.24
239.214	46.25
239.431	81.07
239.648	7.34
239.865	27.82
240.083	15.53
240.3	44.2
240.517	11.43
240.735	29.87
240.952	-9.05
241.169	44.2
241.386	13.48
241.603	33.96
241.821	68.78
242.038	40.11
242.255	44.2
242.472	72.87
242.689	66.73
242.907	-15.19
243.124	-58.2
243.341	31.91
243.558	21.67
243.775	15.53
243.992	5.29
244.209	48.3
244.426	76.97
244.643	46.25
244.86	36.01
245.078	52.39
245.295	17.58
245.512	68.78
245.729	29.87
245.946	19.63
246.163	52.39
246.38	85.16
246.597	-9.05
246.814	60.59
247.031	68.78
247.248	-19.29
247.464	15.53
247.681	29.87
247.898	66.73
248.115	25.77
248.332	21.67
248.549	-11.09
248.766	60.59
248.983	103.59
249.2	52.39
249.417	81.07
249.633	23.72
249.85	64.68
250.067	1.19
250.284	68.78
250.501	38.06
250.717	9.39
250.934	58.54
251.151	-21.33
251.368	-11.09
251.585	38.06
251.801	-15.19
252.018	9.39
252.235	27.82
252.451	19.63
252.668	15.53
252.885	38.06
253.102	21.67
253.318	-21.33
253.535	48.3
253.752	-17.24
253.968	40.11
254.185	9.39
254.401	-2.9
254.618	111.78
254.835	-25.43
255.051	54.44
255.268	66.73
255.484	66.73
255.701	52.39
255.917	109.74
256.134	5.29
256.351	29.87
256.567	31.91
256.784	60.59
257	-17.24
257.217	89.26
257.433	76.97
257.65	-13.14
257.866	60.59
258.082	36.01
258.299	-0.85
258.515	115.88
258.732	36.01
258.948	15.53
259.165	52.39
259.381	11.43
259.597	74.92
259.814	38.06
260.03	3.24
260.246	40.11
260.463	23.72
260.679	74.92
260.895	70.83
261.112	79.02
261.328	-0.85
261.544	-15.19
261.761	38.06
261.977	48.3
262.193	13.48
262.409	68.78
262.626	107.69
262.842	40.11
263.058	33.96
263.274	142.5
263.49	21.67
263.707	17.58
263.923	31.91
264.139	38.06
264.355	9.39
264.571	50.35
264.787	68.78
265.004	56.49
265.22	62.63
265.436	3.24
265.652	40.11
265.868	29.87
266.084	60.59
266.3	29.87
266.516	36.01
266.732	72.87
266.948	85.16
267.164	99.5
267.38	5.29
267.596	56.49
267.812	52.39
268.028	31.91
268.244	66.73
268.46	85.16
268.676	38.06
268.892	-11.09
269.108	-4.95
269.324	107.69
269.54	-9.05
269.756	46.25
269.972	19.63
270.188	-19.29
270.403	62.63
270.619	60.59
270.835	105.64
271.051	81.07
271.267	19.63
271.483	76.97
271.698	-7
271.914	5.29
272.13	40.11
272.346	42.15
272.562	52.39
272.777	60.59
272.993	66.73
273.209	54.44
273.425	44.2
273.64	50.35
273.856	76.97
274.072	17.58
274.287	-2.9
274.503	23.72
274.719	19.63
274.934	81.07
275.15	19.63
275.366	117.93
275.581	42.15
275.797	23.72
276.012	-0.85
276.228	15.53
276.444	-0.85
276.659	44.2
276.875	11.43
277.09	79.02
277.306	66.73
277.521	-86.87
277.737	97.45
277.952	31.91
278.168	38.06
278.383	126.12
278.599	-11.09
278.814	-11.09
279.03	-21.33
279.245	-9.05
279.461	66.73
279.676	62.63
279.892	5.29
280.107	-9.05
280.322	13.48
280.538	33.96
280.753	29.87
280.969	46.25
281.184	-7
281.399	-0.85
281.615	60.59
281.83	66.73
282.045	23.72
282.26	11.43
282.476	27.82
282.691	70.83
282.906	-23.38
283.122	44.2
283.337	-15.19
283.552	23.72
283.767	38.06
283.983	31.91
284.198	95.4
284.413	19.63
284.628	40.11
284.843	50.35
285.058	11.43
285.274	-27.48
285.489	-21.33
285.704	62.63
285.919	-11.09
286.134	-11.09
286.349	105.64
286.564	105.64
286.779	7.34
286.995	33.96
287.21	-17.24
287.425	13.48
287.64	60.59
287.855	62.63
288.07	13.48
288.285	72.87
288.5	15.53
288.715	-0.85
288.93	-15.19
289.145	36.01
289.36	-19.29
289.575	89.26
289.79	19.63
290.004	56.49
290.219	105.64
290.434	-27.48
290.649	29.87
290.864	44.2
291.079	25.77
291.294	44.2
291.509	40.11
291.724	52.39
291.938	15.53
292.153	44.2
292.368	42.15
292.583	27.82
292.798	52.39
293.012	-9.05
293.227	-0.85
293.442	-17.24
293.657	150.7
293.871	89.26
294.086	-0.85
294.301	115.88
294.516	-0.85
294.73	38.06
294.945	15.53
295.16	19.63
295.374	19.63
295.589	64.68
295.804	50.35
296.018	1.19
296.233	27.82
296.447	9.39
296.662	15.53
296.877	56.49
297.091	21.67
297.306	74.92
297.52	23.72
297.735	-7
297.949	1.19
298.164	74.92
298.378	36.01
298.593	-15.19
298.807	-47.96
299.022	33.96
299.236	83.11
299.451	79.02
299.665	-9.05
299.88	21.67
300.094	9.39
300.309	72.87
300.523	19.63
300.737	64.68
300.952	-23.38
301.166	66.73
301.381	-23.38
301.595	74.92
301.809	52.39
302.024	46.25
302.238	44.2
302.452	117.93
302.667	40.11
302.881	66.73
303.095	42.15
303.309	64.68
303.524	58.54
303.738	-0.85
303.952	19.63
304.166	99.5
304.381	-11.09
304.595	48.3
304.809	79.02
305.023	64.68
305.237	-17.24
305.452	70.83
305.666	31.91
305.88	40.11
306.094	27.82
306.308	76.97
306.522	56.49
306.736	-0.85
306.95	111.78
307.164	25.77
307.379	-9.05
307.593	56.49
307.807	48.3
308.021	70.83
308.235	21.67
308.449	-66.39
308.663	15.53
308.877	7.34
309.091	38.06
309.305	-7
309.519	13.48
309.733	33.96
309.947	72.87
310.161	13.48
310.374	27.82
310.588	119.98
310.802	-41.81
311.016	36.01
311.23	85.16
311.444	87.21
311.658	31.91
311.872	62.63
312.085	-25.43
312.299	56.49
312.513	-27.48
312.727	15.53
312.941	-4.95
313.154	72.87
313.368	-2.9
313.582	27.82
313.796	-11.09
314.009	31.91
314.223	72.87
314.437	44.2
314.651	44.2
314.864	46.25
315.078	1.19
315.292	-47.96
315.505	-15.19
315.719	-2.9
315.933	126.12
316.146	76.97
316.36	13.48
316.573	48.3
316.787	17.58
317.001	97.45
317.214	-23.38
317.428	29.87
317.641	13.48
317.855	31.91
318.068	46.25
318.282	-9.05
318.495	122.02
318.709	91.31
318.922	-78.68
319.136	-13.14
319.349	44.2
319.563	50.35
319.776	36.01
319.99	99.5
320.203	97.45
320.417	74.92
320.63	60.59
320.843	70.83
321.057	5.29
321.27	38.06
321.483	17.58
321.697	72.87
321.91	52.39
322.124	33.96
322.337	-17.24
322.55	-9.05
322.763	33.96
322.977	21.67
323.19	38.06
323.403	23.72
323.617	56.49
323.83	76.97
324.043	27.82
324.256	74.92
324.469	27.82
324.683	50.35
324.896	-13.14
325.109	31.91
325.322	15.53
325.535	89.26
325.748	76.97
325.962	66.73
326.175	52.39
326.388	128.17
326.601	62.63
326.814	99.5
327.027	79.02
327.24	93.35
327.453	-29.52
327.666	42.15
327.879	52.39
328.092	31.91
328.305	13.48
328.518	5.29
328.731	27.82
328.944	-47.96
329.157	-23.38
329.37	40.11
329.583	42.15
329.796	87.21
330.009	-17.24
330.222	62.63
330.435	17.58
330.648	64.68
330.861	-33.62
331.073	11.43
331.286	33.96
331.499	31.91
331.712	-19.29
331.925	15.53
332.138	62.63
332.35	13.48
332.563	25.77
332.776	3.24
332.989	40.11
333.202	38.06
333.414	-9.05
333.627	40.11
333.84	52.39
334.053	7.34
334.265	23.72
334.478	72.87
334.691	68.78
334.903	68.78
335.116	-9.05
335.329	27.82
335.541	13.48
335.754	83.11
335.966	-27.48
336.179	27.82
336.392	7.34
336.604	17.58
336.817	46.25
337.029	74.92
337.242	11.43
337.454	25.77
337.667	25.77
337.88	58.54
338.092	29.87
338.305	52.39
338.517	64.68
338.729	27.82
338.942	40.11
339.154	36.01
339.367	5.29
339.579	46.25
339.792	-19.29
340.004	85.16
340.217	33.96
340.429	60.59
340.641	-4.95
340.854	-17.24
341.066	23.72
341.278	13.48
341.491	101.55
341.703	-9.05
341.915	-23.38
342.128	9.39
342.34	3.24
342.552	-4.95
342.764	27.82
342.977	40.11
343.189	27.82
343.401	91.31
343.613	13.48
343.826	56.49
344.038	3.24
344.25	11.43
344.462	36.01
344.674	33.96
344.886	111.78
345.099	-0.85
345.311	21.67
345.523	11.43
345.735	31.91
345.947	60.59
346.159	93.35
346.371	42.15
346.583	-13.14
346.795	81.07
347.007	50.35
347.219	29.87
347.431	60.59
347.643	115.88
347.855	33.96
348.067	109.74
348.279	23.72
348.491	56.49
348.703	89.26
348.915	23.72
349.127	-37.72
349.339	101.55
349.551	5.29
349.763	-13.14
349.975	-29.52
350.187	9.39
350.399	13.48
350.61	81.07
350.822	-25.43
351.034	-4.95
351.246	-0.85
351.458	9.39
351.669	-11.09
351.881	64.68
352.093	74.92
352.305	-7
352.517	40.11
352.728	50.35
352.94	21.67
353.152	107.69
353.363	81.07
353.575	1.19
353.787	52.39
353.999	103.59
354.21	-13.14
354.422	31.91
354.633	11.43
354.845	60.59
355.057	9.39
355.268	99.5
355.48	93.35
355.692	-13.14
355.903	-4.95
356.115	11.43
356.326	7.34
356.538	105.64
356.749	5.29
356.961	44.2
357.172	68.78
357.384	54.44
357.595	81.07
357.807	-21.33
358.018	70.83
358.23	9.39
358.441	113.83
358.653	76.97
358.864	42.15
359.075	-2.9
359.287	-33.62
359.498	85.16
359.709	7.34
359.921	-13.14
360.132	19.63
360.344	33.96
360.555	58.54
360.766	42.15
360.977	105.64
361.189	58.54
361.4	74.92
361.611	15.53
361.823	33.96
362.034	60.59
362.245	-33.62
362.456	25.77
362.667	119.98
362.879	29.87
363.09	42.15
363.301	64.68
363.512	-11.09
363.723	-35.67
363.935	52.39
364.146	146.6
364.357	93.35
364.568	46.25
364.779	52.39
364.99	70.83
365.201	1.19
365.412	74.92
365.623	31.91
365.834	-2.9
366.045	17.58
366.256	58.54
366.467	60.59
366.678	36.01
366.889	-13.14
367.1	19.63
367.311	33.96
367.522	15.53
367.733	91.31
367.944	68.78
368.155	60.59
368.366	76.97
368.577	27.82
368.788	119.98
368.999	-45.91
369.209	33.96
369.42	87.21
369.631	136.36
369.842	21.67
370.053	21.67
370.264	95.4
370.474	105.64
370.685	38.06
370.896	-27.48
371.107	85.16
371.317	44.2
371.528	25.77
371.739	40.11
371.95	40.11
372.16	89.26
372.371	5.29
372.582	36.01
372.792	29.87
373.003	9.39
373.214	52.39
373.424	79.02
373.635	36.01
373.846	23.72
374.056	33.96
374.267	103.59
374.477	27.82
374.688	27.82
374.898	54.44
375.109	23.72
375.319	27.82
375.53	25.77
375.74	-2.9
375.951	-9.05
376.161	25.77
376.372	68.78
376.582	-66.39
376.793	-23.38
377.003	-11.09
377.214	107.69
377.424	58.54
377.635	13.48
377.845	-0.85
378.055	89.26
378.266	-43.86
378.476	66.73
378.686	31.91
378.897	124.07
379.107	-23.38
379.317	111.78
379.528	38.06
379.738	7.34
379.948	1.19
380.158	66.73
380.369	60.59
380.579	5.29
380.789	-35.67
380.999	44.2
381.21	46.25
381.42	58.54
381.63	40.11
381.84	60.59
382.05	60.59
382.261	31.91
382.471	79.02
382.681	38.06
382.891	-35.67
383.101	52.39
383.311	25.77
383.521	29.87
383.731	60.59
383.941	74.92
384.151	103.59
384.361	76.97
384.571	79.02
384.781	27.82
384.991	54.44
385.201	101.55
385.411	79.02
385.621	60.59
385.831	42.15
386.041	-4.95
386.251	31.91
386.461	-0.85
386.671	97.45
386.881	-7
387.091	46.25
387.301	76.97
387.511	56.49
387.72	60.59
387.93	27.82
388.14	52.39
388.35	62.63
388.56	-0.85
388.769	-15.19
388.979	-9.05
389.189	5.29
389.399	-7
389.609	40.11
389.818	48.3
390.028	64.68
390.238	62.63
390.447	81.07
390.657	72.87
390.867	-4.95
391.076	48.3
391.286	101.55
391.496	64.68
391.705	-0.85
391.915	56.49
392.125	27.82
392.334	-17.24
392.544	76.97
392.753	44.2
392.963	66.73
393.172	5.29
393.382	5.29
393.591	74.92
393.801	21.67
394.01	42.15
394.22	-13.14
394.429	130.22
394.639	7.34
394.848	85.16
395.058	27.82
395.267	40.11
395.477	11.43
395.686	109.74
395.895	70.83
396.105	154.79
396.314	64.68
396.524	62.63
396.733	-37.72
396.942	5.29
397.152	70.83
397.361	70.83
397.57	60.59
397.78	13.48
397.989	72.87
398.198	81.07
398.407	40.11
398.617	50.35
398.826	60.59
399.035	44.2
399.244	99.5
399.453	68.78
399.663	101.55
399.872	36.01
400.081	81.07
400.29	101.55
400.499	-21.33
400.708	97.45
400.917	5.29
401.127	11.43
401.336	40.11
401.545	169.13
401.754	115.88
401.963	101.55
402.172	91.31
402.381	74.92
402.59	111.78
402.799	36.01
403.008	142.5
403.217	64.68
403.426	95.4
403.635	23.72
403.844	79.02
404.053	58.54
404.262	33.96
404.471	83.11
404.68	99.5
404.888	91.31
405.097	52.39
405.306	46.25
405.515	128.17
405.724	187.56
405.933	83.11
406.142	70.83
406.35	128.17
406.559	111.78
406.768	70.83
406.977	130.22
407.185	103.59
407.394	181.42
407.603	105.64
407.812	183.46
408.02	212.14
408.229	79.02
408.438	140.46
408.646	72.87
408.855	111.78
409.064	156.84
409.272	83.11
409.481	165.03
409.69	191.66
409.898	142.5
410.107	183.46
410.315	130.22
410.524	154.79
410.733	175.27
410.941	259.24
411.15	210.09
411.358	224.42
411.567	189.61
411.775	251.05
411.984	205.99
412.192	302.25
412.401	216.23
412.609	308.39
412.818	277.67
413.026	380.07
413.234	232.62
413.443	271.53
413.651	236.71
413.86	339.11
414.068	353.45
414.276	324.77
414.485	349.35
414.693	404.64
414.901	349.35
415.11	373.92
415.318	443.56
415.526	453.8
415.734	502.95
415.943	464.04
416.151	529.57
416.359	535.71
416.567	554.15
416.776	603.3
416.984	613.54
417.192	601.25
417.4	613.54
417.608	576.67
417.817	656.54
418.025	597.15
418.233	691.36
418.441	638.11
418.649	742.56
418.857	769.18
419.065	787.61
419.273	849.05
419.481	973.98
419.689	838.81
419.897	920.73
420.105	990.36
420.313	1002.65
420.521	984.22
420.729	1010.84
420.937	1090.71
421.145	1105.05
421.353	1170.58
421.561	1207.45
421.769	1229.98
421.977	1307.8
422.185	1379.48
422.393	1381.53
422.601	1477.78
422.809	1420.44
423.017	1438.87
423.224	1664.15
423.432	1608.85
423.64	1600.66
423.848	1801.36
424.056	1748.11
424.263	1928.33
424.471	1795.22
424.679	1893.52
424.887	2045.07
425.094	2094.22
425.302	2180.23
425.51	2126.99
425.718	2331.78
425.925	2206.86
426.133	2292.87
426.341	2559.11
426.548	2589.83
426.756	2589.83
426.964	2608.26
427.171	2763.9
427.379	2802.82
427.586	2905.21
427.794	2952.32
428.001	3026.04
428.209	3234.94
428.417	3101.82
428.624	3433.59
428.832	3404.92
429.039	3429.49
429.247	3460.21
429.454	3773.55
429.662	4029.55
429.869	3710.07
430.076	4023.41
430.284	3910.77
430.491	4166.76
430.699	4277.35
430.906	4265.07
431.114	4392.04
431.321	4574.31
431.528	4662.37
431.736	4744.29
431.943	5141.6
432.15	5074.01
432.358	5164.12
432.565	5295.19
432.772	5207.13
432.979	5534.81
433.187	5819.47
433.394	5706.84
433.601	6147.15
433.808	6206.54
434.016	6202.44
434.223	6319.18
434.43	6771.78
434.637	6413.38
434.844	6896.71
435.052	7052.35
435.259	7158.85
435.466	7054.4
435.673	7167.04
435.88	7437.37
436.087	7918.64
436.294	7945.27
436.501	7633.97
436.708	8135.73
436.915	8188.97
437.122	8590.38
437.329	8307.76
437.537	8760.36
437.743	8909.86
437.95	8760.36
438.157	9413.66
438.364	9651.22
438.571	9546.78
438.778	9569.3
438.985	10552.33
439.192	10212.37
439.399	10476.55
439.606	10157.07
439.813	10767.37
440.02	11430.91
440.227	11250.69
440.433	11015.17
440.64	11392
440.847	11676.66
441.054	11928.56
441.261	12383.21
441.467	12131.31
441.674	12397.55
441.881	13120.48
442.088	12923.88
442.294	13034.47
442.501	13308.9
442.708	13442.01
442.914	14007.25
443.121	14777.29
443.328	14205.91
443.534	15260.61
443.741	14781.39
443.948	14728.14
444.154	15842.23
444.361	15483.84
444.568	15831.99
444.774	15541.18
444.981	15848.38
445.187	16268.21
445.394	17187.75
445.6	16464.82
445.807	18430.87
446.013	17560.48
446.22	17906.59
446.426	18764.68
446.633	18729.87
446.839	19491.71
447.046	18500.5
447.252	19520.38
447.459	19514.24
447.665	19530.62
447.871	20370.29
448.078	21212.01
448.284	20050.81
448.491	20659.06
448.697	21468
448.903	21967.71
449.11	21877.6
449.316	21599.07
449.522	21910.36
449.728	23028.56
449.935	23057.23
450.141	22723.41
450.347	23284.55
450.553	22461.27
450.76	22534.99
450.966	23563.08
451.172	23190.34
451.378	23911.23
451.584	23317.32
451.791	23749.44
451.997	23712.58
452.203	24267.58
452.409	24331.06
452.615	23794.5
452.821	22967.12
453.027	22717.26
453.233	24148.79
453.44	23038.8
453.646	22838.09
453.852	23171.91
454.058	23409.48
454.264	22686.54
454.47	23382.85
454.676	22721.36
454.882	23501.64
455.088	21631.84
455.294	21908.32
455.5	21963.61
455.705	21953.37
455.911	21332.84
456.117	20939.63
456.323	20691.82
456.529	19344.26
456.735	20231.03
456.941	19510.14
457.147	19307.4
457.352	18729.87
457.558	18443.15
457.764	18686.86
457.97	18271.12
458.176	17865.63
458.381	17785.76
458.587	16761.77
458.793	16905.13
458.999	16184.24
459.204	17345.44
459.41	16815.02
459.616	15864.76
459.821	15623.1
460.027	15485.89
460.233	15072.2
460.438	14377.94
460.644	14781.39
460.85	14070.74
461.055	13710.3
461.261	13638.62
461.466	12575.72
461.672	12184.56
461.878	13364.19
462.083	12424.17
462.289	12166.13
462.494	11944.95
462.7	11557.88
462.905	11183.1
463.111	11508.73
463.316	11473.92
463.522	11336.7
463.727	11273.21
463.932	11254.78
464.138	11228.16
464.343	11258.88
464.549	10925.06
464.754	11203.58
464.959	11246.59
465.165	11037.7
465.37	10800.13
465.575	10249.23
465.781	10728.45
465.986	10791.94
466.191	10419.21
466.397	10343.44
466.602	9747.48
466.807	9948.18
467.012	10202.13
467.218	10023.95
467.423	9987.09
467.628	9980.95
467.833	10316.81
468.038	10054.67
468.244	9683.99
468.449	10050.58
468.654	9821.2
