Data from USB4F104151__175__11-09-24-104.txt Node

Date: Wed Mar 12 11:09:24 EDT 2025
User: louis
Spectrometer: USB4F10415
Trigger mode: 4
Integration Time (sec): 2.000000E-2
Scans to average: 1
Electric dark correction enabled: true
Nonlinearity correction enabled: false
Boxcar width: 0
XAxis mode: Wavelengths
Number of Pixels in Spectrum: 3648
>>>>>Begin Spectral Data<<<<<
178.204	-87.38
178.424	-87.38
178.644	-87.38
178.864	-52.56
179.084	-85.33
179.304	-11.61
179.524	-17.75
179.744	-3.41
179.964	72.36
180.184	-87.38
180.404	-13.65
180.624	-38.23
180.844	12.97
181.064	49.83
181.283	-5.46
181.503	2.73
181.723	39.59
181.943	-38.23
182.163	35.5
182.383	0.68
182.602	-3.41
182.822	-62.8
183.042	12.97
183.262	-64.85
183.482	-13.65
183.701	10.92
183.921	12.97
184.141	-17.75
184.361	-3.41
184.58	17.07
184.8	72.36
185.02	92.84
185.239	133.8
185.459	-19.8
185.679	23.21
185.898	-42.32
186.118	17.07
186.338	-19.8
186.557	-5.46
186.777	-11.61
186.997	0.68
187.216	-3.41
187.436	84.65
187.655	-15.7
187.875	53.93
188.095	0.68
188.314	35.5
188.534	21.16
188.753	0.68
188.973	15.02
189.192	47.79
189.412	-3.41
189.631	-23.89
189.851	43.69
190.07	8.87
190.29	-48.47
190.509	-11.61
190.729	-56.66
190.948	-11.61
191.168	43.69
191.387	10.92
191.607	-44.37
191.826	29.35
192.045	-19.8
192.265	-27.99
192.484	31.4
192.704	-56.66
192.923	-36.18
193.142	19.11
193.362	0.68
193.581	-11.61
193.8	-1.37
194.02	4.78
194.239	-62.8
194.458	21.16
194.678	74.41
194.897	62.12
195.116	10.92
195.335	41.64
195.555	-5.46
195.774	-19.8
195.993	-19.8
196.212	17.07
196.432	-36.18
196.651	17.07
196.87	-46.42
197.089	88.75
197.308	43.69
197.528	82.6
197.747	-52.56
197.966	-42.32
198.185	41.64
198.404	58.03
198.623	8.87
198.842	107.18
199.062	62.12
199.281	27.31
199.5	-17.75
199.719	-38.23
199.938	76.46
200.157	45.74
200.376	37.55
200.595	-3.41
200.814	6.83
201.033	-48.47
201.252	8.87
201.471	78.51
201.69	33.45
201.909	-11.61
202.128	58.03
202.347	17.07
202.566	4.78
202.785	-30.04
203.004	0.68
203.223	76.46
203.442	-79.19
203.661	8.87
203.879	17.07
204.098	105.13
204.317	-23.89
204.536	80.55
204.755	51.88
204.974	23.21
205.193	0.68
205.411	-9.56
205.63	64.17
205.849	2.73
206.068	66.22
206.287	-9.56
206.505	-19.8
206.724	31.4
206.943	43.69
207.162	-52.56
207.381	-11.61
207.599	-87.38
207.818	4.78
208.037	-9.56
208.255	10.92
208.474	31.4
208.693	-5.46
208.911	33.45
209.13	17.07
209.349	-42.32
209.567	60.07
209.786	37.55
210.005	-23.89
210.223	-30.04
210.442	-19.8
210.661	-7.51
210.879	-30.04
211.098	-32.08
211.316	4.78
211.535	-5.46
211.753	0.68
211.972	21.16
212.191	-81.24
212.409	-11.61
212.628	-7.51
212.846	-40.28
213.065	-44.37
213.283	76.46
213.502	19.11
213.72	12.97
213.938	43.69
214.157	-50.52
214.375	-27.99
214.594	45.74
214.812	-32.08
215.031	41.64
215.249	0.68
215.467	19.11
215.686	15.02
215.904	45.74
216.122	12.97
216.341	0.68
216.559	62.12
216.778	84.65
216.996	29.35
217.214	-9.56
217.432	-5.46
217.651	101.03
217.869	-9.56
218.087	-15.7
218.306	-17.75
218.524	10.92
218.742	-9.56
218.96	33.45
219.179	15.02
219.397	-30.04
219.615	17.07
219.833	72.36
220.051	-13.65
220.27	88.75
220.488	27.31
220.706	35.5
220.924	-17.75
221.142	4.78
221.36	51.88
221.578	-44.37
221.796	66.22
222.015	-21.85
222.233	-34.13
222.451	37.55
222.669	-11.61
222.887	21.16
223.105	-13.65
223.323	-15.7
223.541	-7.51
223.759	29.35
223.977	35.5
224.195	41.64
224.413	21.16
224.631	-46.42
224.849	66.22
225.067	60.07
225.285	-11.61
225.503	12.97
225.721	27.31
225.939	47.79
226.157	-17.75
226.375	58.03
226.592	-54.61
226.81	43.69
227.028	-17.75
227.246	-3.41
227.464	-1.37
227.682	47.79
227.9	23.21
228.117	43.69
228.335	-27.99
228.553	-15.7
228.771	6.83
228.989	0.68
229.206	-15.7
229.424	25.26
229.642	80.55
229.86	-7.51
230.077	-36.18
230.295	86.7
230.513	-68.95
230.731	72.36
230.948	-5.46
231.166	-36.18
231.384	-7.51
231.601	47.79
231.819	62.12
232.037	-93.52
232.254	94.89
232.472	-21.85
232.689	33.45
232.907	49.83
233.125	15.02
233.342	-21.85
233.56	-32.08
233.777	25.26
233.995	-7.51
234.213	53.93
234.43	10.92
234.648	-46.42
234.865	-7.51
235.083	74.41
235.3	-21.85
235.518	-52.56
235.735	37.55
235.953	17.07
236.17	12.97
236.388	29.35
236.605	35.5
236.822	55.98
237.04	53.93
237.257	109.22
237.475	-13.65
237.692	19.11
237.909	6.83
238.127	8.87
238.344	55.98
238.562	29.35
238.779	31.4
238.996	-11.61
239.214	-11.61
239.431	23.21
239.648	-32.08
239.865	33.45
240.083	8.87
240.3	-73.04
240.517	21.16
240.735	45.74
240.952	84.65
241.169	68.27
241.386	-11.61
241.603	-23.89
241.821	45.74
242.038	-3.41
242.255	37.55
242.472	39.59
242.689	66.22
242.907	12.97
243.124	27.31
243.341	6.83
243.558	-48.47
243.775	55.98
243.992	-50.52
244.209	-1.37
244.426	0.68
244.643	55.98
244.86	8.87
245.078	0.68
245.295	-7.51
245.512	49.83
245.729	-36.18
245.946	-27.99
246.163	-32.08
246.38	-1.37
246.597	-44.37
246.814	33.45
247.031	53.93
247.248	94.89
247.464	4.78
247.681	27.31
247.898	49.83
248.115	62.12
248.332	-71
248.549	55.98
248.766	41.64
248.983	-23.89
249.2	-44.37
249.417	8.87
249.633	17.07
249.85	-32.08
250.067	-11.61
250.284	-1.37
250.501	45.74
250.717	29.35
250.934	-46.42
251.151	-15.7
251.368	-13.65
251.585	51.88
251.801	41.64
252.018	-36.18
252.235	-15.7
252.451	-15.7
252.668	33.45
252.885	109.22
253.102	-25.94
253.318	2.73
253.535	-7.51
253.752	-15.7
253.968	6.83
254.185	-3.41
254.401	23.21
254.618	-30.04
254.835	-60.76
255.051	43.69
255.268	-23.89
255.484	-40.28
255.701	-1.37
255.917	4.78
256.134	-17.75
256.351	-32.08
256.567	-27.99
256.784	-64.85
257	-5.46
257.217	19.11
257.433	-40.28
257.65	43.69
257.866	37.55
258.082	72.36
258.299	-21.85
258.515	-19.8
258.732	15.02
258.948	-75.09
259.165	12.97
259.381	-50.52
259.597	66.22
259.814	72.36
260.03	39.59
260.246	-91.48
260.463	45.74
260.679	33.45
260.895	-15.7
261.112	-34.13
261.328	8.87
261.544	-32.08
261.761	60.07
261.977	43.69
262.193	-34.13
262.409	-46.42
262.626	68.27
262.842	-11.61
263.058	-3.41
263.274	31.4
263.49	68.27
263.707	4.78
263.923	-52.56
264.139	-11.61
264.355	29.35
264.571	25.26
264.787	43.69
265.004	-23.89
265.22	-3.41
265.436	-3.41
265.652	2.73
265.868	4.78
266.084	-11.61
266.3	-62.8
266.516	23.21
266.732	33.45
266.948	58.03
267.164	4.78
267.38	-13.65
267.596	8.87
267.812	12.97
268.028	25.26
268.244	64.17
268.46	8.87
268.676	8.87
268.892	31.4
269.108	-5.46
269.324	-3.41
269.54	35.5
269.756	66.22
269.972	0.68
270.188	0.68
270.403	121.51
270.619	-48.47
270.835	2.73
271.051	39.59
271.267	-85.33
271.483	49.83
271.698	-38.23
271.914	0.68
272.13	-25.94
272.346	-3.41
272.562	-1.37
272.777	-11.61
272.993	53.93
273.209	33.45
273.425	76.46
273.64	-48.47
273.856	2.73
274.072	15.02
274.287	-36.18
274.503	29.35
274.719	49.83
274.934	60.07
275.15	-25.94
275.366	66.22
275.581	15.02
275.797	29.35
276.012	-42.32
276.228	-38.23
276.444	-11.61
276.659	64.17
276.875	-30.04
277.09	53.93
277.306	51.88
277.521	64.17
277.737	-42.32
277.952	58.03
278.168	-13.65
278.383	10.92
278.599	8.87
278.814	25.26
279.03	-21.85
279.245	51.88
279.461	-15.7
279.676	-1.37
279.892	-58.71
280.107	58.03
280.322	-21.85
280.538	12.97
280.753	8.87
280.969	62.12
281.184	-34.13
281.399	86.7
281.615	-52.56
281.83	43.69
282.045	-93.52
282.26	17.07
282.476	-13.65
282.691	-50.52
282.906	-19.8
283.122	-15.7
283.337	6.83
283.552	37.55
283.767	-23.89
283.983	21.16
284.198	-5.46
284.413	66.22
284.628	-42.32
284.843	29.35
285.058	33.45
285.274	-5.46
285.489	-42.32
285.704	8.87
285.919	-36.18
286.134	-9.56
286.349	-27.99
286.564	29.35
286.779	-23.89
286.995	-50.52
287.21	-17.75
287.425	-11.61
287.64	-15.7
287.855	58.03
288.07	35.5
288.285	-1.37
288.5	19.11
288.715	12.97
288.93	-66.9
289.145	39.59
289.36	-21.85
289.575	15.02
289.79	39.59
290.004	-27.99
290.219	21.16
290.434	12.97
290.649	-27.99
290.864	21.16
291.079	4.78
291.294	-23.89
291.509	4.78
291.724	0.68
291.938	43.69
292.153	2.73
292.368	25.26
292.583	-3.41
292.798	23.21
293.012	-25.94
293.227	21.16
293.442	70.31
293.657	-32.08
293.871	64.17
294.086	70.31
294.301	58.03
294.516	111.27
294.73	-7.51
294.945	29.35
295.16	21.16
295.374	58.03
295.589	31.4
295.804	-36.18
296.018	51.88
296.233	29.35
296.447	-34.13
296.662	-1.37
296.877	-40.28
297.091	60.07
297.306	41.64
297.52	-30.04
297.735	-30.04
297.949	33.45
298.164	8.87
298.378	6.83
298.593	47.79
298.807	19.11
299.022	17.07
299.236	4.78
299.451	12.97
299.665	4.78
299.88	72.36
300.094	-21.85
300.309	62.12
300.523	55.98
300.737	31.4
300.952	47.79
301.166	27.31
301.381	4.78
301.595	64.17
301.809	33.45
302.024	-1.37
302.238	-38.23
302.452	33.45
302.667	-19.8
302.881	70.31
303.095	84.65
303.309	41.64
303.524	-38.23
303.738	-19.8
303.952	-13.65
304.166	68.27
304.381	-81.24
304.595	19.11
304.809	-91.48
305.023	-13.65
305.237	-21.85
305.452	72.36
305.666	-5.46
305.88	45.74
306.094	-1.37
306.308	-5.46
306.522	-13.65
306.736	70.31
306.95	27.31
307.164	-56.66
307.379	10.92
307.593	78.51
307.807	53.93
308.021	-3.41
308.235	21.16
308.449	49.83
308.663	-19.8
308.877	37.55
309.091	-23.89
309.305	25.26
309.519	8.87
309.733	98.99
309.947	-1.37
310.161	37.55
310.374	21.16
310.588	-66.9
310.802	27.31
311.016	96.94
311.23	25.26
311.444	-73.04
311.658	70.31
311.872	2.73
312.085	39.59
312.299	-27.99
312.513	27.31
312.727	-1.37
312.941	-15.7
313.154	-36.18
313.368	-19.8
313.582	21.16
313.796	-13.65
314.009	10.92
314.223	35.5
314.437	33.45
314.651	88.75
314.864	-7.51
315.078	17.07
315.292	8.87
315.505	29.35
315.719	-9.56
315.933	15.02
316.146	86.7
316.36	-42.32
316.573	-1.37
316.787	55.98
317.001	43.69
317.214	2.73
317.428	60.07
317.641	37.55
317.855	-3.41
318.068	41.64
318.282	4.78
318.495	78.51
318.709	53.93
318.922	-38.23
319.136	51.88
319.349	-23.89
319.563	45.74
319.776	27.31
319.99	-25.94
320.203	-3.41
320.417	58.03
320.63	23.21
320.843	10.92
321.057	6.83
321.27	31.4
321.483	58.03
321.697	62.12
321.91	49.83
322.124	17.07
322.337	47.79
322.55	0.68
322.763	-9.56
322.977	27.31
323.19	33.45
323.403	0.68
323.617	-30.04
323.83	-15.7
324.043	-9.56
324.256	27.31
324.469	-23.89
324.683	94.89
324.896	70.31
325.109	-3.41
325.322	-7.51
325.535	58.03
325.748	27.31
325.962	29.35
326.175	43.69
326.388	37.55
326.601	-25.94
326.814	92.84
327.027	-30.04
327.24	58.03
327.453	-62.8
327.666	-34.13
327.879	21.16
328.092	58.03
328.305	-13.65
328.518	58.03
328.731	-1.37
328.944	-30.04
329.157	33.45
329.37	10.92
329.583	-11.61
329.796	10.92
330.009	-54.61
330.222	15.02
330.435	47.79
330.648	45.74
330.861	17.07
331.073	-32.08
331.286	-3.41
331.499	33.45
331.712	39.59
331.925	-15.7
332.138	86.7
332.35	15.02
332.563	37.55
332.776	70.31
332.989	-23.89
333.202	2.73
333.414	4.78
333.627	-32.08
333.84	37.55
334.053	49.83
334.265	23.21
334.478	58.03
334.691	15.02
334.903	6.83
335.116	6.83
335.329	-40.28
335.541	45.74
335.754	115.37
335.966	-38.23
336.179	-3.41
336.392	-32.08
336.604	84.65
336.817	78.51
337.029	-9.56
337.242	-66.9
337.454	39.59
337.667	-73.04
337.88	37.55
338.092	70.31
338.305	31.4
338.517	2.73
338.729	4.78
338.942	19.11
339.154	-60.76
339.367	-42.32
339.579	37.55
339.792	4.78
340.004	-27.99
340.217	6.83
340.429	17.07
340.641	53.93
340.854	-25.94
341.066	8.87
341.278	117.42
341.491	66.22
341.703	51.88
341.915	-15.7
342.128	-9.56
342.34	15.02
342.552	-32.08
342.764	41.64
342.977	15.02
343.189	-48.47
343.401	92.84
343.613	12.97
343.826	8.87
344.038	53.93
344.25	0.68
344.462	-11.61
344.674	45.74
344.886	15.02
345.099	12.97
345.311	21.16
345.523	12.97
345.735	-44.37
345.947	12.97
346.159	43.69
346.371	37.55
346.583	-23.89
346.795	6.83
347.007	0.68
347.219	12.97
347.431	49.83
347.643	-19.8
347.855	29.35
348.067	70.31
348.279	4.78
348.491	-52.56
348.703	70.31
348.915	49.83
349.127	-52.56
349.339	6.83
349.551	-60.76
349.763	58.03
349.975	74.41
350.187	137.9
350.399	-27.99
350.61	-7.51
350.822	-3.41
351.034	-1.37
351.246	-25.94
351.458	51.88
351.669	-1.37
351.881	68.27
352.093	-19.8
352.305	-21.85
352.517	60.07
352.728	39.59
352.94	6.83
353.152	60.07
353.363	74.41
353.575	29.35
353.787	-19.8
353.999	39.59
354.21	70.31
354.422	23.21
354.633	12.97
354.845	12.97
355.057	25.26
355.268	27.31
355.48	15.02
355.692	41.64
355.903	23.21
356.115	82.6
356.326	-36.18
356.538	76.46
356.749	58.03
356.961	141.99
357.172	-17.75
357.384	64.17
357.595	72.36
357.807	10.92
358.018	64.17
358.23	15.02
358.441	58.03
358.653	33.45
358.864	-3.41
359.075	-9.56
359.287	-46.42
359.498	-19.8
359.709	15.02
359.921	33.45
360.132	6.83
360.344	6.83
360.555	21.16
360.766	25.26
360.977	15.02
361.189	43.69
361.4	-34.13
361.611	37.55
361.823	-27.99
362.034	29.35
362.245	15.02
362.456	60.07
362.667	8.87
362.879	-40.28
363.09	78.51
363.301	39.59
363.512	29.35
363.723	53.93
363.935	-19.8
364.146	62.12
364.357	12.97
364.568	-15.7
364.779	-77.14
364.99	58.03
365.201	-9.56
365.412	-1.37
365.623	17.07
365.834	49.83
366.045	12.97
366.256	21.16
366.467	-3.41
366.678	62.12
366.889	-27.99
367.1	-17.75
367.311	115.37
367.522	23.21
367.733	41.64
367.944	-44.37
368.155	-27.99
368.366	15.02
368.577	-44.37
368.788	94.89
368.999	29.35
369.209	41.64
369.42	68.27
369.631	12.97
369.842	-13.65
370.053	76.46
370.264	12.97
370.474	25.26
370.685	25.26
370.896	41.64
371.107	33.45
371.317	-27.99
371.528	-87.38
371.739	47.79
371.95	80.55
372.16	45.74
372.371	62.12
372.582	10.92
372.792	31.4
373.003	-23.89
373.214	-11.61
373.424	-13.65
373.635	68.27
373.846	129.7
374.056	94.89
374.267	86.7
374.477	72.36
374.688	31.4
374.898	119.46
375.109	4.78
375.319	64.17
375.53	15.02
375.74	-3.41
375.951	49.83
376.161	66.22
376.372	82.6
376.582	-13.65
376.793	21.16
377.003	0.68
377.214	8.87
377.424	-42.32
377.635	53.93
377.845	12.97
378.055	8.87
378.266	-30.04
378.476	76.46
378.686	-15.7
378.897	17.07
379.107	37.55
379.317	35.5
379.528	17.07
379.738	62.12
379.948	-40.28
380.158	27.31
380.369	-15.7
380.579	8.87
380.789	90.79
380.999	47.79
381.21	88.75
381.42	72.36
381.63	45.74
381.84	70.31
382.05	17.07
382.261	121.51
382.471	55.98
382.681	-11.61
382.891	29.35
383.101	53.93
383.311	25.26
383.521	-11.61
383.731	51.88
383.941	10.92
384.151	-30.04
384.361	-32.08
384.571	23.21
384.781	80.55
384.991	10.92
385.201	113.32
385.411	6.83
385.621	119.46
385.831	23.21
386.041	-30.04
386.251	94.89
386.461	76.46
386.671	53.93
386.881	35.5
387.091	-54.61
387.301	74.41
387.511	58.03
387.72	64.17
387.93	-5.46
388.14	25.26
388.35	45.74
388.56	43.69
388.769	74.41
388.979	23.21
389.189	6.83
389.399	47.79
389.609	-19.8
389.818	43.69
390.028	0.68
390.238	37.55
390.447	29.35
390.657	29.35
390.867	10.92
391.076	96.94
391.286	41.64
391.496	76.46
391.705	78.51
391.915	35.5
392.125	84.65
392.334	27.31
392.544	35.5
392.753	60.07
392.963	12.97
393.172	90.79
393.382	80.55
393.591	17.07
393.801	76.46
394.01	53.93
394.22	60.07
394.429	45.74
394.639	19.11
394.848	80.55
395.058	53.93
395.267	66.22
395.477	66.22
395.686	60.07
395.895	21.16
396.105	127.66
396.314	41.64
396.524	-15.7
396.733	45.74
396.942	62.12
397.152	15.02
397.361	21.16
397.57	51.88
397.78	-19.8
397.989	70.31
398.198	146.09
398.407	66.22
398.617	-52.56
398.826	90.79
399.035	17.07
399.244	45.74
399.453	51.88
399.663	-17.75
399.872	74.41
400.081	37.55
400.29	131.75
400.499	43.69
400.708	55.98
400.917	92.84
401.127	19.11
401.336	51.88
401.545	125.61
401.754	72.36
401.963	88.75
402.172	53.93
402.381	78.51
402.59	78.51
402.799	41.64
403.008	111.27
403.217	58.03
403.426	62.12
403.635	80.55
403.844	55.98
404.053	164.52
404.262	53.93
404.471	135.85
404.68	135.85
404.888	111.27
405.097	133.8
405.306	98.99
405.515	123.56
405.724	150.18
405.933	62.12
406.142	115.37
406.35	129.7
406.559	150.18
406.768	121.51
406.977	94.89
407.185	191.14
407.394	197.29
407.603	115.37
407.812	221.86
408.02	160.42
408.229	180.9
408.438	101.03
408.646	154.28
408.855	131.75
409.064	164.52
409.272	197.29
409.481	207.53
409.69	195.24
409.898	189.1
410.107	215.72
410.315	246.44
410.524	217.77
410.733	236.2
410.941	228.01
411.15	180.9
411.358	256.68
411.567	301.73
411.775	311.97
411.984	293.54
412.192	303.78
412.401	336.55
412.609	418.47
412.818	289.45
413.026	340.65
413.234	395.94
413.443	357.03
413.651	318.12
413.86	418.47
414.068	428.71
414.276	402.08
414.485	449.19
414.693	453.28
414.901	469.67
415.11	455.33
415.318	551.59
415.526	545.44
415.734	578.21
415.943	602.79
416.151	621.22
416.359	584.35
416.567	621.22
416.776	676.51
416.984	613.03
417.192	633.5
417.4	783.01
417.608	635.55
417.817	672.42
418.025	811.68
418.233	866.97
418.441	832.16
418.649	838.3
418.857	1012.38
419.065	877.21
419.273	893.6
419.481	971.42
419.689	1010.33
419.897	1051.29
420.105	1108.63
420.313	1194.65
420.521	1147.55
420.729	1165.98
420.937	1225.37
421.145	1319.57
421.353	1348.25
421.561	1477.27
421.769	1426.07
421.977	1510.04
422.185	1507.99
422.393	1602.19
422.601	1733.26
422.809	1620.63
423.017	1733.26
423.224	1823.37
423.432	1874.57
423.64	1843.85
423.848	1938.06
424.056	2042.51
424.263	2083.47
424.471	2101.9
424.679	2155.15
424.887	2298.5
425.094	2372.23
425.302	2278.02
425.51	2583.17
425.718	2472.58
425.925	2511.49
426.133	2724.48
426.341	2812.54
426.548	2900.61
426.756	2839.17
426.964	3033.72
427.171	3144.31
427.379	3189.37
427.586	3160.7
427.794	3277.43
428.001	3332.73
428.209	3537.52
428.417	3680.88
428.624	3811.95
428.832	3895.92
429.039	3693.17
429.247	3887.73
429.454	4047.47
429.662	4371.05
429.869	4272.75
430.076	4295.27
430.284	4459.11
430.491	4557.41
430.699	4860.51
430.906	4719.2
431.114	4786.79
431.321	5073.5
431.528	5114.46
431.736	5450.33
431.943	5526.1
432.15	5632.6
432.358	5536.34
432.565	5921.36
432.772	5747.28
432.979	6083.15
433.187	6439.5
433.394	6361.67
433.601	6539.85
433.808	6890.05
434.016	6646.34
434.223	6943.3
434.43	7375.42
434.637	7408.19
434.844	7514.68
435.052	7928.37
435.259	7803.44
435.466	7965.23
435.673	7797.3
435.88	8403.5
436.087	8761.89
436.294	8827.43
436.501	8405.55
436.708	8806.95
436.915	9052.7
437.122	9472.54
437.329	9587.22
437.537	9759.25
437.743	10007.06
437.95	9794.07
438.157	10205.71
438.364	10643.98
438.571	10721.8
438.778	10709.51
438.985	11733.5
439.192	10889.73
439.399	11739.64
439.606	11506.17
439.813	12063.22
440.02	12612.07
440.227	12378.61
440.433	12337.65
440.64	12884.45
440.847	12521.96
441.054	13079.01
441.261	14082.52
441.467	13605.34
441.674	14137.81
441.881	14481.87
442.088	14109.14
442.294	14076.37
442.501	14807.5
442.708	14850.5
442.914	15479.23
443.121	16306.61
443.328	15753.66
443.534	16984.49
443.741	16396.72
443.948	16230.84
444.154	17303.97
444.361	17361.31
444.568	17523.1
444.774	17486.24
444.981	17392.03
445.187	17908.12
445.394	18768.27
445.6	18809.23
445.807	20347.25
446.013	19038.6
446.22	19921.27
446.426	20586.86
446.633	20588.91
446.839	21152.1
447.046	20609.39
447.252	21559.65
447.459	21952.86
447.665	21850.46
447.871	22505.81
448.078	23599.43
448.284	22540.63
448.491	23206.22
448.697	24004.92
448.903	24324.41
449.11	23953.73
449.316	23996.73
449.522	24480.05
449.728	25133.36
449.935	25121.07
450.141	25135.4
450.347	26073.37
450.553	25090.35
450.76	25149.74
450.966	26034.46
451.172	25903.39
451.378	26415.38
451.584	25932.06
451.791	26368.28
451.997	26143
452.203	26657.04
452.409	26577.17
452.615	26757.39
452.821	25573.67
453.027	25641.25
453.233	26562.84
453.44	25835.81
453.646	26181.92
453.852	25954.59
454.058	26652.95
454.264	25352.49
454.47	26202.39
454.676	25854.24
454.882	26118.43
455.088	24277.3
455.294	24590.64
455.5	24805.68
455.705	25000.24
455.911	24025.4
456.117	23755.07
456.323	22978.89
456.529	22202.71
456.735	23054.67
456.941	22133.08
457.147	21961.05
457.352	21436.77
457.558	21160.3
457.764	21135.72
457.97	20816.24
458.176	20207.99
458.381	20320.63
458.587	19446.15
458.793	19423.62
458.999	18127.25
459.204	19624.32
459.41	19259.78
459.616	18020.76
459.821	17629.6
460.027	17940.89
460.233	17568.16
460.438	16708.01
460.644	17031.59
460.85	16380.34
461.055	15847.86
461.261	15757.75
461.466	14670.28
461.672	14113.24
461.878	15194.56
462.083	14100.95
462.289	13787.61
462.494	13758.94
462.7	13046.24
462.905	12866.02
463.111	13056.48
463.316	13296.1
463.522	13138.4
463.727	13212.13
463.932	13093.35
464.138	12700.14
464.343	12993
464.549	12446.19
464.754	12796.39
464.959	12589.55
465.165	12716.52
465.37	12210.67
465.575	11844.09
465.781	12354.03
465.986	12300.78
466.191	11770.36
466.397	11911.67
466.602	11272.7
466.807	11760.12
467.012	11670.01
