Data from USB4F104151__52__11-05-42-928.txt Node

Date: Wed Mar 12 11:05:42 EDT 2025
User: louis
Spectrometer: USB4F10415
Trigger mode: 4
Integration Time (sec): 2.000000E-2
Scans to average: 1
Electric dark correction enabled: true
Nonlinearity correction enabled: false
Boxcar width: 0
XAxis mode: Wavelengths
Number of Pixels in Spectrum: 3648
>>>>>Begin Spectral Data<<<<<
178.204	-72.7
178.424	-72.7
178.644	-72.7
178.864	-101.37
179.084	-93.18
179.304	37.89
179.524	-48.13
179.744	3.07
179.964	46.08
180.184	-33.79
180.404	1.02
180.624	15.36
180.844	-23.55
181.064	35.84
181.283	19.46
181.503	-76.8
181.723	23.55
181.943	-5.12
182.163	70.65
182.383	-33.79
182.602	70.65
182.822	23.55
183.042	21.5
183.262	-13.31
183.482	25.6
183.701	64.51
183.921	-17.41
184.141	23.55
184.361	25.6
184.58	44.03
184.8	-19.46
185.02	-27.65
185.239	13.31
185.459	74.75
185.679	37.89
185.898	-17.41
186.118	41.98
186.338	-9.22
186.557	37.89
186.777	-39.94
186.997	3.07
187.216	37.89
187.436	62.46
187.655	23.55
187.875	72.7
188.095	11.26
188.314	58.37
188.534	84.99
188.753	-41.98
188.973	37.89
189.192	62.46
189.412	31.74
189.631	-23.55
189.851	23.55
190.07	39.94
190.29	-21.5
190.509	39.94
190.729	-76.8
190.948	62.46
191.168	37.89
191.387	84.99
191.607	-33.79
191.826	5.12
192.045	72.7
192.265	-60.42
192.484	76.8
192.704	-1.02
192.923	33.79
193.142	150.53
193.362	58.37
193.581	54.27
193.8	109.57
194.02	58.37
194.239	7.17
194.458	48.13
194.678	60.42
194.897	-31.74
195.116	17.41
195.335	-13.31
195.555	56.32
195.774	-5.12
195.993	1.02
196.212	56.32
196.432	33.79
196.651	-3.07
196.87	3.07
197.089	78.85
197.308	-25.6
197.528	35.84
197.747	-13.31
197.966	-3.07
198.185	99.33
198.404	9.22
198.623	-19.46
198.842	7.17
199.062	41.98
199.281	64.51
199.5	-50.18
199.719	13.31
199.938	44.03
200.157	21.5
200.376	35.84
200.595	-27.65
200.814	29.7
201.033	-3.07
201.252	-1.02
201.471	46.08
201.69	-11.26
201.909	-33.79
202.128	60.42
202.347	46.08
202.566	25.6
202.785	25.6
203.004	62.46
203.223	-13.31
203.442	33.79
203.661	-27.65
203.879	56.32
204.098	82.94
204.317	31.74
204.536	46.08
204.755	-41.98
204.974	68.61
205.193	56.32
205.411	80.89
205.63	78.85
205.849	78.85
206.068	3.07
206.287	-7.17
206.505	64.51
206.724	-54.27
206.943	31.74
207.162	89.09
207.381	60.42
207.599	82.94
207.818	60.42
208.037	95.23
208.255	23.55
208.474	9.22
208.693	-15.36
208.911	39.94
209.13	-1.02
209.349	21.5
209.567	15.36
209.786	54.27
210.005	37.89
210.223	25.6
210.442	82.94
210.661	19.46
210.879	58.37
211.098	37.89
211.316	13.31
211.535	74.75
211.753	15.36
211.972	17.41
212.191	-33.79
212.409	-23.55
212.628	17.41
212.846	25.6
213.065	3.07
213.283	70.65
213.502	27.65
213.72	27.65
213.938	29.7
214.157	37.89
214.375	-13.31
214.594	7.17
214.812	-60.42
215.031	3.07
215.249	60.42
215.467	-3.07
215.686	7.17
215.904	60.42
216.122	7.17
216.341	27.65
216.559	29.7
216.778	48.13
216.996	25.6
217.214	-33.79
217.432	-7.17
217.651	21.5
217.869	-15.36
218.087	21.5
218.306	111.61
218.524	115.71
218.742	-74.75
218.96	44.03
219.179	27.65
219.397	9.22
219.615	62.46
219.833	58.37
220.051	-5.12
220.27	7.17
220.488	33.79
220.706	-5.12
220.924	15.36
221.142	-3.07
221.36	13.31
221.578	66.56
221.796	7.17
222.015	9.22
222.233	23.55
222.451	48.13
222.669	41.98
222.887	37.89
223.105	1.02
223.323	-25.6
223.541	-23.55
223.759	-41.98
223.977	54.27
224.195	68.61
224.413	27.65
224.631	39.94
224.849	58.37
225.067	87.04
225.285	7.17
225.503	39.94
225.721	23.55
225.939	15.36
226.157	46.08
226.375	9.22
226.592	27.65
226.81	41.98
227.028	-13.31
227.246	41.98
227.464	39.94
227.682	-17.41
227.9	33.79
228.117	-7.17
228.335	-17.41
228.553	-25.6
228.771	-15.36
228.989	19.46
229.206	-48.13
229.424	72.7
229.642	37.89
229.86	70.65
230.077	66.56
230.295	31.74
230.513	25.6
230.731	21.5
230.948	19.46
231.166	35.84
231.384	-41.98
231.601	25.6
231.819	23.55
232.037	-7.17
232.254	7.17
232.472	5.12
232.689	-31.74
232.907	44.03
233.125	27.65
233.342	-109.57
233.56	27.65
233.777	76.8
233.995	62.46
234.213	50.18
234.43	-56.32
234.648	70.65
234.865	13.31
235.083	25.6
235.3	54.27
235.518	37.89
235.735	41.98
235.953	74.75
236.17	19.46
236.388	9.22
236.605	5.12
236.822	54.27
237.04	82.94
237.257	-19.46
237.475	82.94
237.692	91.13
237.909	5.12
238.127	41.98
238.344	54.27
238.562	41.98
238.779	44.03
238.996	95.23
239.214	41.98
239.431	72.7
239.648	-19.46
239.865	60.42
240.083	13.31
240.3	-11.26
240.517	29.7
240.735	37.89
240.952	13.31
241.169	84.99
241.386	3.07
241.603	80.89
241.821	21.5
242.038	-46.08
242.255	105.47
242.472	74.75
242.689	15.36
242.907	41.98
243.124	7.17
243.341	23.55
243.558	-3.07
243.775	-48.13
243.992	-29.7
244.209	70.65
244.426	50.18
244.643	66.56
244.86	39.94
245.078	-74.75
245.295	84.99
245.512	35.84
245.729	15.36
245.946	25.6
246.163	7.17
246.38	97.28
246.597	17.41
246.814	-9.22
247.031	46.08
247.248	68.61
247.464	46.08
247.681	-7.17
247.898	23.55
248.115	17.41
248.332	-9.22
248.549	23.55
248.766	15.36
248.983	76.8
249.2	5.12
249.417	-23.55
249.633	21.5
249.85	52.22
250.067	-23.55
250.284	56.32
250.501	17.41
250.717	80.89
250.934	39.94
251.151	-21.5
251.368	13.31
251.585	60.42
251.801	25.6
252.018	-11.26
252.235	-23.55
252.451	48.13
252.668	66.56
252.885	21.5
253.102	56.32
253.318	-7.17
253.535	50.18
253.752	48.13
253.968	-41.98
254.185	-11.26
254.401	15.36
254.618	17.41
254.835	3.07
255.051	25.6
255.268	13.31
255.484	9.22
255.701	-27.65
255.917	25.6
256.134	13.31
256.351	87.04
256.567	95.23
256.784	9.22
257	-5.12
257.217	-17.41
257.433	74.75
257.65	17.41
257.866	19.46
258.082	13.31
258.299	50.18
258.515	39.94
258.732	29.7
258.948	15.36
259.165	-15.36
259.381	11.26
259.597	1.02
259.814	27.65
260.03	23.55
260.246	64.51
260.463	33.79
260.679	-3.07
260.895	78.85
261.112	-27.65
261.328	-70.65
261.544	37.89
261.761	82.94
261.977	7.17
262.193	-64.51
262.409	1.02
262.626	19.46
262.842	-35.84
263.058	-3.07
263.274	39.94
263.49	66.56
263.707	21.5
263.923	-25.6
264.139	-25.6
264.355	17.41
264.571	103.42
264.787	19.46
265.004	68.61
265.22	29.7
265.436	13.31
265.652	-13.31
265.868	-33.79
266.084	-23.55
266.3	-35.84
266.516	-11.26
266.732	39.94
266.948	3.07
267.164	60.42
267.38	15.36
267.596	-9.22
267.812	5.12
268.028	-15.36
268.244	13.31
268.46	33.79
268.676	-7.17
268.892	37.89
269.108	121.85
269.324	13.31
269.54	25.6
269.756	5.12
269.972	-52.22
270.188	-9.22
270.403	37.89
270.619	-15.36
270.835	39.94
271.051	41.98
271.267	9.22
271.483	-50.18
271.698	11.26
271.914	91.13
272.13	70.65
272.346	41.98
272.562	-9.22
272.777	41.98
272.993	37.89
273.209	78.85
273.425	82.94
273.64	-50.18
273.856	11.26
274.072	21.5
274.287	1.02
274.503	109.57
274.719	66.56
274.934	105.47
275.15	-39.94
275.366	13.31
275.581	-64.51
275.797	70.65
276.012	-50.18
276.228	-37.89
276.444	46.08
276.659	60.42
276.875	-27.65
277.09	21.5
277.306	19.46
277.521	89.09
277.737	58.37
277.952	58.37
278.168	9.22
278.383	39.94
278.599	19.46
278.814	64.51
279.03	70.65
279.245	107.52
279.461	-9.22
279.676	54.27
279.892	48.13
280.107	21.5
280.322	82.94
280.538	23.55
280.753	33.79
280.969	25.6
281.184	25.6
281.399	23.55
281.615	66.56
281.83	5.12
282.045	-5.12
282.26	33.79
282.476	50.18
282.691	87.04
282.906	29.7
283.122	-21.5
283.337	17.41
283.552	25.6
283.767	21.5
283.983	-5.12
284.198	50.18
284.413	-19.46
284.628	1.02
284.843	15.36
285.058	44.03
285.274	11.26
285.489	64.51
285.704	64.51
285.919	13.31
286.134	-3.07
286.349	9.22
286.564	29.7
286.779	134.14
286.995	37.89
287.21	15.36
287.425	13.31
287.64	25.6
287.855	46.08
288.07	44.03
288.285	31.74
288.5	62.46
288.715	87.04
288.93	3.07
289.145	62.46
289.36	48.13
289.575	76.8
289.79	23.55
290.004	3.07
290.219	48.13
290.434	35.84
290.649	103.42
290.864	35.84
291.079	19.46
291.294	46.08
291.509	78.85
291.724	78.85
291.938	3.07
292.153	56.32
292.368	44.03
292.583	5.12
292.798	78.85
293.012	-48.13
293.227	23.55
293.442	29.7
293.657	-3.07
293.871	54.27
294.086	39.94
294.301	33.79
294.516	25.6
294.73	9.22
294.945	1.02
295.16	-35.84
295.374	-3.07
295.589	-3.07
295.804	-9.22
296.018	-25.6
296.233	103.42
296.447	50.18
296.662	31.74
296.877	25.6
297.091	46.08
297.306	-13.31
297.52	84.99
297.735	21.5
297.949	56.32
298.164	80.89
298.378	66.56
298.593	-3.07
298.807	-31.74
299.022	68.61
299.236	52.22
299.451	25.6
299.665	-15.36
299.88	87.04
300.094	121.85
300.309	76.8
300.523	54.27
300.737	37.89
300.952	-11.26
301.166	17.41
301.381	52.22
301.595	37.89
301.809	25.6
302.024	74.75
302.238	17.41
302.452	5.12
302.667	50.18
302.881	13.31
303.095	76.8
303.309	-9.22
303.524	21.5
303.738	-19.46
303.952	50.18
304.166	115.71
304.381	-52.22
304.595	35.84
304.809	-35.84
305.023	72.7
305.237	103.42
305.452	-15.36
305.666	-21.5
305.88	82.94
306.094	64.51
306.308	11.26
306.522	54.27
306.736	25.6
306.95	72.7
307.164	58.37
307.379	76.8
307.593	50.18
307.807	-3.07
308.021	93.18
308.235	72.7
308.449	56.32
308.663	54.27
308.877	87.04
309.091	78.85
309.305	72.7
309.519	-17.41
309.733	95.23
309.947	41.98
310.161	25.6
310.374	82.94
310.588	39.94
310.802	37.89
311.016	56.32
311.23	56.32
311.444	62.46
311.658	58.37
311.872	46.08
312.085	46.08
312.299	154.62
312.513	25.6
312.727	21.5
312.941	3.07
313.154	138.24
313.368	31.74
313.582	-13.31
313.796	1.02
314.009	54.27
314.223	150.53
314.437	46.08
314.651	-5.12
314.864	29.7
315.078	46.08
315.292	87.04
315.505	-13.31
315.719	3.07
315.933	1.02
316.146	48.13
316.36	13.31
316.573	54.27
316.787	48.13
317.001	23.55
317.214	-41.98
317.428	52.22
317.641	48.13
317.855	39.94
318.068	15.36
318.282	41.98
318.495	58.37
318.709	113.66
318.922	134.14
319.136	54.27
319.349	37.89
319.563	-46.08
319.776	70.65
319.99	60.42
320.203	7.17
320.417	87.04
320.63	35.84
320.843	103.42
321.057	-9.22
321.27	101.37
321.483	-1.02
321.697	58.37
321.91	17.41
322.124	35.84
322.337	-3.07
322.55	-13.31
322.763	15.36
322.977	-39.94
323.19	27.65
323.403	13.31
323.617	-11.26
323.83	62.46
324.043	64.51
324.256	17.41
324.469	31.74
324.683	91.13
324.896	99.33
325.109	15.36
325.322	15.36
325.535	125.95
325.748	17.41
325.962	31.74
326.175	-1.02
326.388	-7.17
326.601	46.08
326.814	76.8
327.027	33.79
327.24	-15.36
327.453	29.7
327.666	-5.12
327.879	46.08
328.092	78.85
328.305	74.75
328.518	27.65
328.731	25.6
328.944	82.94
329.157	-5.12
329.37	13.31
329.583	58.37
329.796	99.33
330.009	-7.17
330.222	15.36
330.435	46.08
330.648	7.17
330.861	-35.84
331.073	9.22
331.286	93.18
331.499	-13.31
331.712	9.22
331.925	76.8
332.138	82.94
332.35	103.42
332.563	80.89
332.776	-9.22
332.989	7.17
333.202	37.89
333.414	-23.55
333.627	23.55
333.84	74.75
334.053	113.66
334.265	-39.94
334.478	15.36
334.691	11.26
334.903	-9.22
335.116	54.27
335.329	46.08
335.541	15.36
335.754	144.38
335.966	48.13
336.179	97.28
336.392	19.46
336.604	41.98
336.817	15.36
337.029	17.41
337.242	-27.65
337.454	56.32
337.667	19.46
337.88	-33.79
338.092	33.79
338.305	82.94
338.517	62.46
338.729	-11.26
338.942	56.32
339.154	1.02
339.367	58.37
339.579	-1.02
339.792	15.36
340.004	99.33
340.217	3.07
340.429	-15.36
340.641	19.46
340.854	7.17
341.066	74.75
341.278	64.51
341.491	25.6
341.703	66.56
341.915	93.18
342.128	80.89
342.34	58.37
342.552	41.98
342.764	68.61
342.977	13.31
343.189	21.5
343.401	64.51
343.613	99.33
343.826	48.13
344.038	15.36
344.25	97.28
344.462	-52.22
344.674	91.13
344.886	17.41
345.099	99.33
345.311	46.08
345.523	60.42
345.735	52.22
345.947	56.32
346.159	-27.65
346.371	19.46
346.583	52.22
346.795	46.08
347.007	78.85
347.219	21.5
347.431	41.98
347.643	39.94
347.855	56.32
348.067	66.56
348.279	9.22
348.491	64.51
348.703	64.51
348.915	5.12
349.127	33.79
349.339	52.22
349.551	-7.17
349.763	23.55
349.975	41.98
350.187	54.27
350.399	91.13
350.61	66.56
350.822	52.22
351.034	56.32
351.246	46.08
351.458	70.65
351.669	21.5
351.881	37.89
352.093	35.84
352.305	29.7
352.517	-27.65
352.728	121.85
352.94	25.6
353.152	44.03
353.363	29.7
353.575	109.57
353.787	99.33
353.999	-35.84
354.21	58.37
354.422	9.22
354.633	-56.32
354.845	62.46
355.057	27.65
355.268	41.98
355.48	56.32
355.692	-46.08
355.903	82.94
356.115	84.99
356.326	21.5
356.538	121.85
356.749	87.04
356.961	9.22
357.172	72.7
357.384	50.18
357.595	50.18
357.807	101.37
358.018	48.13
358.23	25.6
358.441	60.42
358.653	89.09
358.864	29.7
359.075	29.7
359.287	80.89
359.498	25.6
359.709	56.32
359.921	78.85
360.132	-29.7
360.344	76.8
360.555	29.7
360.766	76.8
360.977	29.7
361.189	66.56
361.4	7.17
361.611	76.8
361.823	64.51
362.034	39.94
362.245	33.79
362.456	17.41
362.667	-17.41
362.879	15.36
363.09	39.94
363.301	70.65
363.512	60.42
363.723	95.23
363.935	62.46
364.146	9.22
364.357	5.12
364.568	101.37
364.779	48.13
364.99	93.18
365.201	17.41
365.412	54.27
365.623	-13.31
365.834	68.61
366.045	-11.26
366.256	84.99
366.467	25.6
366.678	31.74
366.889	115.71
367.1	29.7
367.311	31.74
367.522	97.28
367.733	46.08
367.944	70.65
368.155	-7.17
368.366	82.94
368.577	64.51
368.788	84.99
368.999	50.18
369.209	74.75
369.42	70.65
369.631	56.32
369.842	74.75
370.053	-15.36
370.264	21.5
370.474	-27.65
370.685	95.23
370.896	105.47
371.107	117.76
371.317	41.98
371.528	33.79
371.739	82.94
371.95	23.55
372.16	107.52
372.371	80.89
372.582	74.75
372.792	78.85
373.003	56.32
373.214	44.03
373.424	31.74
373.635	37.89
373.846	140.29
374.056	13.31
374.267	62.46
374.477	58.37
374.688	64.51
374.898	52.22
375.109	99.33
375.319	39.94
375.53	37.89
375.74	82.94
375.951	74.75
376.161	84.99
376.372	72.7
376.582	27.65
376.793	103.42
377.003	21.5
377.214	72.7
377.424	-37.89
377.635	74.75
377.845	80.89
378.055	105.47
378.266	35.84
378.476	5.12
378.686	52.22
378.897	70.65
379.107	103.42
379.317	50.18
379.528	64.51
379.738	70.65
379.948	58.37
380.158	103.42
380.369	31.74
380.579	50.18
380.789	54.27
380.999	56.32
381.21	62.46
381.42	105.47
381.63	13.31
381.84	66.56
382.05	95.23
382.261	125.95
382.471	76.8
382.681	3.07
382.891	146.43
383.101	25.6
383.311	-3.07
383.521	27.65
383.731	72.7
383.941	111.61
384.151	44.03
384.361	19.46
384.571	123.9
384.781	72.7
384.991	62.46
385.201	134.14
385.411	123.9
385.621	60.42
385.831	-11.26
386.041	89.09
386.251	64.51
386.461	105.47
386.671	70.65
386.881	27.65
387.091	84.99
387.301	128
387.511	-5.12
387.72	44.03
387.93	101.37
388.14	11.26
388.35	68.61
388.56	50.18
388.769	101.37
388.979	15.36
389.189	-13.31
389.399	-15.36
389.609	54.27
389.818	68.61
390.028	52.22
390.238	54.27
390.447	109.57
390.657	-3.07
390.867	41.98
391.076	-19.46
391.286	58.37
391.496	64.51
391.705	25.6
391.915	113.66
392.125	82.94
392.334	29.7
392.544	101.37
392.753	41.98
392.963	87.04
393.172	54.27
393.382	29.7
393.591	128
393.801	113.66
394.01	76.8
394.22	97.28
394.429	144.38
394.639	66.56
394.848	82.94
395.058	54.27
395.267	48.13
395.477	80.89
395.686	158.72
395.895	74.75
396.105	19.46
396.314	39.94
396.524	99.33
396.733	87.04
396.942	78.85
397.152	105.47
397.361	93.18
397.57	123.9
397.78	78.85
397.989	66.56
398.198	140.29
398.407	97.28
398.617	132.09
398.826	107.52
399.035	119.81
399.244	66.56
399.453	66.56
399.663	48.13
399.872	107.52
400.081	93.18
400.29	158.72
400.499	72.7
400.708	91.13
400.917	113.66
401.127	95.23
401.336	134.14
401.545	173.05
401.754	171.01
401.963	148.48
402.172	70.65
402.381	56.32
402.59	105.47
402.799	109.57
403.008	185.34
403.217	25.6
403.426	158.72
403.635	121.85
403.844	150.53
404.053	168.96
404.262	146.43
404.471	267.26
404.68	150.53
404.888	152.57
405.097	103.42
405.306	195.58
405.515	164.86
405.724	179.2
405.933	121.85
406.142	228.35
406.35	209.92
406.559	136.19
406.768	95.23
406.977	254.97
407.185	226.3
407.394	254.97
407.603	136.19
407.812	193.53
408.02	324.6
408.229	279.55
408.438	222.2
408.646	287.74
408.855	236.54
409.064	267.26
409.272	224.25
409.481	238.59
409.69	308.22
409.898	318.46
410.107	353.27
410.315	330.75
410.524	326.65
410.733	287.74
410.941	343.03
411.15	427
411.358	349.18
411.567	406.52
411.775	381.95
411.984	447.48
412.192	439.29
412.401	457.72
412.609	533.5
412.818	498.68
413.026	506.87
413.234	506.87
413.443	578.55
413.651	560.12
413.86	533.5
414.068	596.98
414.276	611.32
414.485	574.46
414.693	613.37
414.901	793.59
415.11	705.53
415.318	732.15
415.526	723.96
415.734	773.11
415.943	828.4
416.151	842.74
416.359	895.99
416.567	881.65
416.776	967.67
416.984	1051.63
417.192	990.19
417.4	996.34
417.608	1053.68
417.817	1035.25
418.025	1141.74
418.233	1201.13
418.441	1188.85
418.649	1145.84
418.857	1252.33
419.065	1297.39
419.273	1371.12
419.481	1487.85
419.689	1467.37
419.897	1557.48
420.105	1643.49
420.313	1594.34
420.521	1711.08
420.729	1706.98
420.937	1739.75
421.145	1817.57
421.353	1844.2
421.561	2014.18
421.769	1993.7
421.977	2110.43
422.185	2124.77
422.393	2331.61
422.601	2489.31
422.809	2311.13
423.017	2431.96
423.224	2438.11
423.432	2587.61
423.64	2728.92
423.848	2763.73
424.056	2769.88
424.263	2964.43
424.471	3038.16
424.679	2995.15
424.887	3224.53
425.094	3275.73
425.302	3285.97
425.51	3578.83
425.718	3503.05
425.925	3670.98
426.133	3773.38
426.341	4047.81
426.548	4131.78
426.756	4293.57
426.964	4236.22
427.171	4441.02
427.379	4512.7
427.586	4570.04
427.794	4850.61
428.001	4950.96
428.209	5190.58
428.417	4977.59
428.624	5401.52
428.832	5587.88
429.039	5440.43
429.247	5434.29
429.454	5936.04
429.662	6503.32
429.869	5893.03
430.076	6325.15
430.284	6200.23
430.491	6460.32
430.699	6894.49
430.906	6843.29
431.114	6927.25
431.321	7267.22
431.528	7347.09
431.736	7842.7
431.943	8270.72
432.15	8010.63
432.358	8024.97
432.565	8387.46
432.772	8334.21
432.979	8854.39
433.187	9253.75
433.394	9159.54
433.601	9679.72
433.808	9749.36
434.016	9528.17
434.223	10179.43
434.43	10621.79
434.637	10244.96
434.844	11096.92
435.052	11367.25
435.259	11217.75
435.466	11348.82
435.673	11156.31
435.88	11940.68
436.087	12636.99
436.294	12612.42
436.501	12299.08
436.708	12501.83
436.915	12923.71
437.122	13689.65
437.329	13630.26
437.537	14089
437.743	14068.52
437.95	14097.19
438.157	14908.19
438.364	15199
438.571	15424.28
438.778	15301.4
438.985	16741.12
439.192	16444.17
439.399	16706.31
439.606	16063.24
439.813	17109.75
440.02	18197.23
440.227	17853.17
440.433	18133.74
440.64	18404.07
440.847	18273
441.054	18803.43
441.261	20052.69
441.467	19782.35
441.674	20101.84
441.881	20910.78
442.088	20611.78
442.294	20583.11
442.501	20937.41
442.708	21506.74
442.914	22319.79
443.121	23370.4
443.328	22760.1
443.534	24236.69
443.741	23763.61
443.948	23202.46
444.154	25369.21
444.361	24894.08
444.568	25119.36
444.774	24855.17
444.981	25465.47
445.187	26235.5
445.394	27316.83
445.6	26901.09
445.807	29528.64
446.013	28138.07
446.22	28555.85
446.426	30011.96
446.633	30231.09
446.839	30980.65
447.046	29874.74
447.252	31582.75
447.459	31521.31
447.665	31212.07
447.871	32713.23
448.078	33923.58
448.284	32352.79
448.491	32999.94
448.697	34435.57
448.903	35006.95
449.11	35379.68
449.316	34376.18
449.522	35414.5
449.728	35748.32
449.935	36383.19
450.141	36346.33
450.347	37044.68
450.553	36139.48
450.76	35957.21
450.966	37466.56
451.172	36694.48
451.378	37757.38
451.584	37079.5
451.791	37960.12
451.997	37745.09
452.203	38470.07
452.409	38343.09
452.615	37968.32
452.821	36710.86
453.027	36325.85
453.233	37956.03
453.44	36700.62
453.646	37263.82
453.852	37214.66
454.058	37814.72
454.264	36628.95
454.47	37362.12
454.676	35883.48
454.882	37128.65
455.088	34103.8
455.294	34314.74
455.5	34953.71
455.705	35346.92
455.911	34318.84
456.117	33464.83
456.323	32926.22
456.529	31134.24
456.735	32098.84
456.941	31582.75
457.147	31267.36
457.352	29755.96
457.558	29854.26
457.764	30136.88
457.97	29186.63
458.176	28351.06
458.381	28858.95
458.587	27081.31
458.793	26823.27
458.999	25897.59
459.204	27781.72
459.41	26667.63
459.616	24898.18
459.821	25023.11
460.027	24906.37
460.233	24345.23
460.438	22940.32
460.644	23487.13
460.85	22241.96
461.055	22256.3
461.261	21740.21
461.466	20501.19
461.672	19507.93
461.878	21353.15
462.083	19911.38
462.289	19403.48
462.494	19284.7
462.7	18469.61
462.905	17914.61
463.111	18473.7
463.316	18510.57
463.522	18291.43
463.727	18508.52
463.932	18256.62
464.138	17955.57
464.343	18057.96
464.549	17462.01
464.754	17847.02
464.959	17935.09
465.165	17654.51
465.37	17296.12
465.575	16851.71
465.781	17261.3
465.986	17443.57
466.191	16614.15
466.397	16102.15
466.602	15733.52
466.807	16284.42
467.012	16171.79
467.218	16091.91
467.423	16030.48
467.628	16114.44
467.833	16855.81
468.038	15926.03
