Data from USB4F104151__160__11-08-34-369.txt Node

Date: Wed Mar 12 11:08:34 EDT 2025
User: louis
Spectrometer: USB4F10415
Trigger mode: 4
Integration Time (sec): 2.000000E-2
Scans to average: 1
Electric dark correction enabled: true
Nonlinearity correction enabled: false
Boxcar width: 0
XAxis mode: Wavelengths
Number of Pixels in Spectrum: 3648
>>>>>Begin Spectral Data<<<<<
178.204	-51.54
178.424	-51.54
178.644	-51.54
178.864	-108.88
179.084	-49.49
179.304	7.85
179.524	26.28
179.744	-2.39
179.964	11.95
180.184	-33.11
180.404	1.71
180.624	34.47
180.844	-92.5
181.064	-16.73
181.283	59.05
181.503	1.71
181.723	1.71
181.943	13.99
182.163	59.05
182.383	3.75
182.602	28.33
182.822	44.71
183.042	-14.68
183.262	52.91
183.482	34.47
183.701	75.43
183.921	26.28
184.141	-2.39
184.361	34.47
184.58	100.01
184.8	65.19
185.02	7.85
185.239	-16.73
185.459	18.09
185.679	57
185.898	54.95
186.118	26.28
186.338	48.81
186.557	61.1
186.777	26.28
186.997	20.14
187.216	40.62
187.436	36.52
187.655	91.82
187.875	16.04
188.095	32.43
188.314	42.67
188.534	34.47
188.753	-41.3
188.973	1.71
189.192	20.14
189.412	-2.39
189.631	79.53
189.851	1.71
190.07	48.81
190.29	-108.88
190.509	-45.4
190.729	-4.44
190.948	73.39
191.168	89.77
191.387	-8.53
191.607	28.33
191.826	36.52
192.045	7.85
192.265	34.47
192.484	48.81
192.704	57
192.923	32.43
193.142	108.2
193.362	73.39
193.581	79.53
193.8	79.53
194.02	75.43
194.239	32.43
194.458	38.57
194.678	3.75
194.897	75.43
195.116	67.24
195.335	13.99
195.555	13.99
195.774	13.99
195.993	40.62
196.212	-18.77
196.432	16.04
196.651	-10.58
196.87	89.77
197.089	93.87
197.308	130.73
197.528	18.09
197.747	-20.82
197.966	28.33
198.185	93.87
198.404	16.04
198.623	11.95
198.842	13.99
199.062	73.39
199.281	-6.49
199.5	50.86
199.719	24.23
199.938	22.19
200.157	34.47
200.376	40.62
200.595	11.95
200.814	71.34
201.033	71.34
201.252	50.86
201.471	34.47
201.69	18.09
201.909	69.29
202.128	120.49
202.347	38.57
202.566	13.99
202.785	-16.73
203.004	-16.73
203.223	59.05
203.442	22.19
203.661	16.04
203.879	-45.4
204.098	69.29
204.317	-53.59
204.536	93.87
204.755	52.91
204.974	24.23
205.193	65.19
205.411	57
205.63	7.85
205.849	110.25
206.068	-43.35
206.287	48.81
206.505	5.8
206.724	67.24
206.943	-16.73
207.162	69.29
207.381	-22.87
207.599	79.53
207.818	46.76
208.037	81.58
208.255	95.91
208.474	-16.73
208.693	26.28
208.911	-20.82
209.13	-18.77
209.349	30.38
209.567	7.85
209.786	155.3
210.005	28.33
210.223	52.91
210.442	-6.49
210.661	79.53
210.879	46.76
211.098	-4.44
211.316	28.33
211.535	26.28
211.753	36.52
211.972	36.52
212.191	44.71
212.409	22.19
212.628	69.29
212.846	77.48
213.065	44.71
213.283	114.34
213.502	50.86
213.72	38.57
213.938	34.47
214.157	13.99
214.375	52.91
214.594	1.71
214.812	9.9
215.031	1.71
215.249	50.86
215.467	-2.39
215.686	7.85
215.904	30.38
216.122	108.2
216.341	73.39
216.559	18.09
216.778	9.9
216.996	36.52
217.214	5.8
217.432	67.24
217.651	95.91
217.869	44.71
218.087	9.9
218.306	57
218.524	104.11
218.742	20.14
218.96	11.95
219.179	18.09
219.397	46.76
219.615	-14.68
219.833	63.15
220.051	87.72
220.27	54.95
220.488	46.76
220.706	-0.34
220.924	16.04
221.142	-37.2
221.36	-39.25
221.578	54.95
221.796	42.67
222.015	40.62
222.233	83.63
222.451	91.82
222.669	7.85
222.887	38.57
223.105	63.15
223.323	40.62
223.541	44.71
223.759	59.05
223.977	7.85
224.195	65.19
224.413	71.34
224.631	89.77
224.849	7.85
225.067	54.95
225.285	59.05
225.503	44.71
225.721	18.09
225.939	-12.63
226.157	11.95
226.375	108.2
226.592	-8.53
226.81	36.52
227.028	9.9
227.246	36.52
227.464	57
227.682	73.39
227.9	93.87
228.117	89.77
228.335	36.52
228.553	-47.44
228.771	57
228.989	118.44
229.206	20.14
229.424	22.19
229.642	57
229.86	36.52
230.077	18.09
230.295	100.01
230.513	1.71
230.731	116.39
230.948	104.11
231.166	63.15
231.384	34.47
231.601	-33.11
231.819	71.34
232.037	22.19
232.254	34.47
232.472	34.47
232.689	-57.68
232.907	67.24
233.125	-29.01
233.342	65.19
233.56	30.38
233.777	20.14
233.995	85.67
234.213	63.15
234.43	-31.06
234.648	75.43
234.865	67.24
235.083	32.43
235.3	97.96
235.518	-43.35
235.735	83.63
235.953	34.47
236.17	93.87
236.388	34.47
236.605	50.86
236.822	110.25
237.04	22.19
237.257	7.85
237.475	91.82
237.692	46.76
237.909	30.38
238.127	26.28
238.344	-26.96
238.562	71.34
238.779	-4.44
238.996	59.05
239.214	18.09
239.431	9.9
239.648	-6.49
239.865	-26.96
240.083	91.82
240.3	54.95
240.517	69.29
240.735	46.76
240.952	61.1
241.169	134.82
241.386	30.38
241.603	65.19
241.821	59.05
242.038	73.39
242.255	22.19
242.472	9.9
242.689	59.05
242.907	48.81
243.124	24.23
243.341	65.19
243.558	18.09
243.775	3.75
243.992	-22.87
244.209	30.38
244.426	48.81
244.643	13.99
244.86	44.71
245.078	9.9
245.295	67.24
245.512	24.23
245.729	1.71
245.946	9.9
246.163	38.57
246.38	75.43
246.597	13.99
246.814	50.86
247.031	-59.73
247.248	61.1
247.464	34.47
247.681	28.33
247.898	26.28
248.115	104.11
248.332	18.09
248.549	18.09
248.766	-49.49
248.983	112.3
249.2	30.38
249.417	57
249.633	91.82
249.85	7.85
250.067	9.9
250.284	67.24
250.501	102.06
250.717	44.71
250.934	44.71
251.151	34.47
251.368	26.28
251.585	-10.58
251.801	-0.34
252.018	3.75
252.235	54.95
252.451	26.28
252.668	97.96
252.885	59.05
253.102	46.76
253.318	102.06
253.535	44.71
253.752	81.58
253.968	13.99
254.185	-10.58
254.401	3.75
254.618	-10.58
254.835	38.57
255.051	69.29
255.268	26.28
255.484	97.96
255.701	24.23
255.917	16.04
256.134	-8.53
256.351	59.05
256.567	-31.06
256.784	-22.87
257	11.95
257.217	24.23
257.433	93.87
257.65	57
257.866	50.86
258.082	3.75
258.299	34.47
258.515	48.81
258.732	77.48
258.948	22.19
259.165	42.67
259.381	52.91
259.597	54.95
259.814	114.34
260.03	32.43
260.246	44.71
260.463	24.23
260.679	44.71
260.895	61.1
261.112	77.48
261.328	5.8
261.544	-37.2
261.761	67.24
261.977	48.81
262.193	13.99
262.409	-2.39
262.626	54.95
262.842	16.04
263.058	-10.58
263.274	140.97
263.49	13.99
263.707	42.67
263.923	16.04
264.139	65.19
264.355	22.19
264.571	69.29
264.787	48.81
265.004	112.3
265.22	34.47
265.436	59.05
265.652	-4.44
265.868	36.52
266.084	1.71
266.3	32.43
266.516	46.76
266.732	52.91
266.948	38.57
267.164	26.28
267.38	73.39
267.596	57
267.812	42.67
268.028	34.47
268.244	57
268.46	13.99
268.676	54.95
268.892	83.63
269.108	140.97
269.324	34.47
269.54	-37.2
269.756	50.86
269.972	-22.87
270.188	9.9
270.403	34.47
270.619	95.91
270.835	57
271.051	13.99
271.267	30.38
271.483	-18.77
271.698	65.19
271.914	11.95
272.13	59.05
272.346	65.19
272.562	-16.73
272.777	67.24
272.993	40.62
273.209	18.09
273.425	81.58
273.64	46.76
273.856	-0.34
274.072	7.85
274.287	65.19
274.503	71.34
274.719	63.15
274.934	38.57
275.15	20.14
275.366	91.82
275.581	24.23
275.797	-37.2
276.012	-33.11
276.228	18.09
276.444	61.1
276.659	18.09
276.875	1.71
277.09	28.33
277.306	13.99
277.521	85.67
277.737	85.67
277.952	57
278.168	28.33
278.383	57
278.599	20.14
278.814	5.8
279.03	-37.2
279.245	85.67
279.461	9.9
279.676	97.96
279.892	46.76
280.107	38.57
280.322	63.15
280.538	24.23
280.753	42.67
280.969	81.58
281.184	5.8
281.399	61.1
281.615	91.82
281.83	-0.34
282.045	-18.77
282.26	20.14
282.476	20.14
282.691	100.01
282.906	85.67
283.122	85.67
283.337	63.15
283.552	28.33
283.767	-16.73
283.983	42.67
284.198	46.76
284.413	38.57
284.628	-12.63
284.843	50.86
285.058	104.11
285.274	102.06
285.489	-37.2
285.704	-10.58
285.919	-12.63
286.134	69.29
286.349	-4.44
286.564	38.57
286.779	65.19
286.995	9.9
287.21	-8.53
287.425	38.57
287.64	-35.16
287.855	87.72
288.07	-14.68
288.285	40.62
288.5	106.15
288.715	85.67
288.93	42.67
289.145	28.33
289.36	59.05
289.575	-18.77
289.79	79.53
290.004	16.04
290.219	36.52
290.434	44.71
290.649	69.29
290.864	36.52
291.079	5.8
291.294	85.67
291.509	71.34
291.724	67.24
291.938	-35.16
292.153	147.11
292.368	44.71
292.583	112.3
292.798	81.58
293.012	102.06
293.227	106.15
293.442	85.67
293.657	54.95
293.871	61.1
294.086	57
294.301	24.23
294.516	112.3
294.73	-14.68
294.945	77.48
295.16	3.75
295.374	38.57
295.589	50.86
295.804	77.48
296.018	112.3
296.233	69.29
296.447	18.09
296.662	40.62
296.877	42.67
297.091	83.63
297.306	46.76
297.52	-29.01
297.735	20.14
297.949	36.52
298.164	50.86
298.378	22.19
298.593	57
298.807	-6.49
299.022	87.72
299.236	30.38
299.451	67.24
299.665	42.67
299.88	11.95
300.094	71.34
300.309	-0.34
300.523	59.05
300.737	67.24
300.952	50.86
301.166	50.86
301.381	118.44
301.595	46.76
301.809	-4.44
302.024	71.34
302.238	40.62
302.452	69.29
302.667	63.15
302.881	85.67
303.095	89.77
303.309	77.48
303.524	73.39
303.738	18.09
303.952	46.76
304.166	28.33
304.381	-80.21
304.595	126.63
304.809	-14.68
305.023	24.23
305.237	-31.06
305.452	13.99
305.666	42.67
305.88	63.15
306.094	-31.06
306.308	22.19
306.522	73.39
306.736	97.96
306.95	93.87
307.164	1.71
307.379	-0.34
307.593	106.15
307.807	61.1
308.021	32.43
308.235	22.19
308.449	61.1
308.663	34.47
308.877	54.95
309.091	1.71
309.305	65.19
309.519	42.67
309.733	34.47
309.947	-16.73
310.161	91.82
310.374	50.86
310.588	106.15
310.802	34.47
311.016	-65.88
311.23	-4.44
311.444	28.33
311.658	44.71
311.872	102.06
312.085	3.75
312.299	83.63
312.513	85.67
312.727	87.72
312.941	71.34
313.154	26.28
313.368	59.05
313.582	71.34
313.796	69.29
314.009	34.47
314.223	-0.34
314.437	100.01
314.651	42.67
314.864	-74.07
315.078	-18.77
315.292	54.95
315.505	26.28
315.719	81.58
315.933	46.76
316.146	5.8
316.36	104.11
316.573	110.25
316.787	7.85
317.001	87.72
317.214	-31.06
317.428	16.04
317.641	1.71
317.855	34.47
318.068	48.81
318.282	97.96
318.495	145.06
318.709	89.77
318.922	97.96
319.136	52.91
319.349	71.34
319.563	-12.63
319.776	-14.68
319.99	38.57
320.203	83.63
320.417	20.14
320.63	32.43
320.843	165.54
321.057	59.05
321.27	16.04
321.483	106.15
321.697	87.72
321.91	104.11
322.124	18.09
322.337	120.49
322.55	38.57
322.763	32.43
322.977	59.05
323.19	83.63
323.403	87.72
323.617	52.91
323.83	83.63
324.043	42.67
324.256	13.99
324.469	63.15
324.683	97.96
324.896	116.39
325.109	87.72
325.322	7.85
325.535	75.43
325.748	30.38
325.962	24.23
326.175	40.62
326.388	79.53
326.601	71.34
326.814	57
327.027	28.33
327.24	87.72
327.453	108.2
327.666	65.19
327.879	97.96
328.092	-8.53
328.305	40.62
328.518	26.28
328.731	63.15
328.944	36.52
329.157	71.34
329.37	18.09
329.583	120.49
329.796	63.15
330.009	61.1
330.222	46.76
330.435	13.99
330.648	106.15
330.861	18.09
331.073	87.72
331.286	34.47
331.499	143.02
331.712	24.23
331.925	13.99
332.138	48.81
332.35	95.91
332.563	-2.39
332.776	52.91
332.989	28.33
333.202	57
333.414	61.1
333.627	91.82
333.84	-31.06
334.053	26.28
334.265	73.39
334.478	97.96
334.691	124.58
334.903	11.95
335.116	-18.77
335.329	54.95
335.541	24.23
335.754	79.53
335.966	44.71
336.179	114.34
336.392	95.91
336.604	57
336.817	48.81
337.029	159.4
337.242	61.1
337.454	40.62
337.667	-6.49
337.88	46.76
338.092	36.52
338.305	140.97
338.517	52.91
338.729	120.49
338.942	28.33
339.154	61.1
339.367	54.95
339.579	77.48
339.792	59.05
340.004	65.19
340.217	-2.39
340.429	5.8
340.641	79.53
340.854	18.09
341.066	89.77
341.278	40.62
341.491	30.38
341.703	97.96
341.915	28.33
342.128	67.24
342.34	79.53
342.552	63.15
342.764	26.28
342.977	-18.77
343.189	52.91
343.401	52.91
343.613	16.04
343.826	63.15
344.038	38.57
344.25	81.58
344.462	30.38
344.674	46.76
344.886	87.72
345.099	104.11
345.311	73.39
345.523	5.8
345.735	50.86
345.947	85.67
346.159	69.29
346.371	48.81
346.583	-37.2
346.795	122.54
347.007	65.19
347.219	71.34
347.431	34.47
347.643	46.76
347.855	59.05
348.067	73.39
348.279	30.38
348.491	95.91
348.703	89.77
348.915	122.54
349.127	65.19
349.339	145.06
349.551	32.43
349.763	69.29
349.975	81.58
350.187	-0.34
350.399	20.14
350.61	24.23
350.822	38.57
351.034	50.86
351.246	48.81
351.458	97.96
351.669	75.43
351.881	91.82
352.093	134.82
352.305	120.49
352.517	-43.35
352.728	95.91
352.94	69.29
353.152	57
353.363	28.33
353.575	54.95
353.787	34.47
353.999	-0.34
354.21	48.81
354.422	136.87
354.633	38.57
354.845	75.43
355.057	28.33
355.268	65.19
355.48	73.39
355.692	-4.44
355.903	65.19
356.115	52.91
356.326	36.52
356.538	71.34
356.749	81.58
356.961	59.05
357.172	89.77
357.384	81.58
357.595	65.19
357.807	83.63
358.018	30.38
358.23	71.34
358.441	122.54
358.653	59.05
358.864	-0.34
359.075	108.2
359.287	26.28
359.498	100.01
359.709	130.73
359.921	52.91
360.132	155.3
360.344	22.19
360.555	30.38
360.766	44.71
360.977	7.85
361.189	69.29
361.4	75.43
361.611	69.29
361.823	50.86
362.034	40.62
362.245	26.28
362.456	114.34
362.667	155.3
362.879	-14.68
363.09	106.15
363.301	11.95
363.512	26.28
363.723	36.52
363.935	65.19
364.146	128.68
364.357	108.2
364.568	95.91
364.779	28.33
364.99	38.57
365.201	50.86
365.412	50.86
365.623	61.1
365.834	65.19
366.045	-0.34
366.256	79.53
366.467	7.85
366.678	93.87
366.889	59.05
367.1	40.62
367.311	50.86
367.522	20.14
367.733	85.67
367.944	54.95
368.155	5.8
368.366	93.87
368.577	18.09
368.788	67.24
368.999	26.28
369.209	38.57
369.42	112.3
369.631	100.01
369.842	3.75
370.053	77.48
370.264	104.11
370.474	61.1
370.685	91.82
370.896	140.97
371.107	89.77
371.317	40.62
371.528	132.78
371.739	83.63
371.95	102.06
372.16	104.11
372.371	-4.44
372.582	118.44
372.792	93.87
373.003	48.81
373.214	81.58
373.424	130.73
373.635	93.87
373.846	77.48
374.056	52.91
374.267	-8.53
374.477	110.25
374.688	95.91
374.898	100.01
375.109	-41.3
375.319	79.53
375.53	85.67
375.74	89.77
375.951	73.39
376.161	59.05
376.372	13.99
376.582	104.11
376.793	77.48
377.003	97.96
377.214	1.71
377.424	54.95
377.635	38.57
377.845	65.19
378.055	122.54
378.266	28.33
378.476	85.67
378.686	85.67
378.897	-6.49
379.107	130.73
379.317	145.06
379.528	108.2
379.738	65.19
379.948	112.3
380.158	54.95
380.369	73.39
380.579	75.43
380.789	112.3
380.999	120.49
381.21	81.58
381.42	77.48
381.63	67.24
381.84	95.91
382.05	63.15
382.261	79.53
382.471	91.82
382.681	85.67
382.891	67.24
383.101	65.19
383.311	9.9
383.521	83.63
383.731	24.23
383.941	114.34
384.151	30.38
384.361	102.06
384.571	65.19
384.781	138.92
384.991	44.71
385.201	89.77
385.411	136.87
385.621	71.34
385.831	13.99
386.041	40.62
386.251	54.95
386.461	-4.44
386.671	59.05
386.881	79.53
387.091	28.33
387.301	28.33
387.511	52.91
387.72	42.67
387.93	69.29
388.14	71.34
388.35	57
388.56	52.91
388.769	145.06
388.979	61.1
389.189	71.34
389.399	36.52
389.609	147.11
389.818	161.45
390.028	77.48
390.238	20.14
390.447	112.3
390.657	104.11
390.867	40.62
391.076	75.43
391.286	69.29
391.496	65.19
391.705	149.16
391.915	91.82
392.125	83.63
392.334	16.04
392.544	16.04
392.753	75.43
392.963	36.52
393.172	61.1
393.382	50.86
393.591	114.34
393.801	22.19
394.01	97.96
394.22	57
394.429	18.09
394.639	30.38
394.848	112.3
395.058	11.95
395.267	77.48
395.477	79.53
395.686	100.01
395.895	73.39
396.105	75.43
396.314	97.96
396.524	54.95
396.733	112.3
396.942	183.98
397.152	124.58
397.361	89.77
397.57	77.48
397.78	112.3
397.989	106.15
398.198	202.41
398.407	87.72
398.617	140.97
398.826	161.45
399.035	147.11
399.244	87.72
399.453	163.5
399.663	126.63
399.872	167.59
400.081	167.59
400.29	206.5
400.499	132.78
400.708	153.26
400.917	157.35
401.127	24.23
401.336	85.67
401.545	208.55
401.754	87.72
401.963	149.16
402.172	190.12
402.381	65.19
402.59	179.88
402.799	169.64
403.008	196.26
403.217	138.92
403.426	159.4
403.635	134.82
403.844	188.07
404.053	208.55
404.262	149.16
404.471	245.41
404.68	231.08
404.888	153.26
405.097	261.8
405.306	231.08
405.515	196.26
405.724	194.22
405.933	181.93
406.142	167.59
406.35	267.94
406.559	177.83
406.768	151.21
406.977	245.41
407.185	186.02
407.394	267.94
407.603	202.41
407.812	222.89
408.02	276.13
408.229	302.76
408.438	224.94
408.646	325.29
408.855	306.85
409.064	396.96
409.272	267.94
409.481	335.53
409.69	323.24
409.898	407.2
410.107	370.34
410.315	466.6
410.524	417.44
410.733	419.49
410.941	362.15
411.15	482.98
411.358	452.26
411.567	460.45
411.775	501.41
411.984	538.27
412.192	489.12
412.401	435.88
412.609	538.27
412.818	472.74
413.026	607.91
413.234	605.86
413.443	636.58
413.651	722.59
413.86	642.72
414.068	724.64
414.276	738.98
414.485	798.37
414.693	827.04
414.901	786.08
415.11	806.56
415.318	865.95
415.526	878.24
415.734	892.57
415.943	956.06
416.151	962.2
416.359	884.38
416.567	1046.17
416.776	1040.03
416.984	1142.43
417.192	1199.77
417.4	1259.16
417.608	1146.52
417.817	1279.64
418.025	1341.08
418.233	1339.03
418.441	1336.98
418.649	1377.94
418.857	1554.07
419.065	1527.44
419.273	1607.31
419.481	1644.18
419.689	1734.29
419.897	1672.85
420.105	1826.45
420.313	1779.34
420.521	1891.98
420.729	1953.42
420.937	1941.13
421.145	2111.11
421.353	2150.03
421.561	2279.05
421.769	2369.16
421.977	2446.98
422.185	2360.97
422.393	2508.42
422.601	2786.94
422.809	2657.92
423.017	2821.76
423.224	2840.19
423.432	2934.4
423.64	2979.45
423.848	3245.69
424.056	2975.36
424.263	3362.42
424.471	3327.61
424.679	3440.25
424.887	3634.8
425.094	3847.79
425.302	3831.41
425.51	3888.75
425.718	4021.87
425.925	4105.84
426.133	4304.49
426.341	4456.04
426.548	4712.03
426.756	4755.04
426.964	4662.88
427.171	4986.46
427.379	5129.82
427.586	5101.15
427.794	5303.9
428.001	5607
428.209	5779.03
428.417	5774.93
428.624	6178.38
428.832	6303.31
429.039	6202.96
429.247	6182.48
429.454	6755.91
429.662	7165.5
429.869	6749.76
430.076	7284.28
430.284	6815.3
430.491	7253.56
430.699	7806.52
430.906	7550.52
431.114	7802.42
431.321	8144.43
431.528	8326.7
431.736	8750.63
431.943	9055.78
432.15	8926.75
432.358	8959.52
432.565	9502.23
432.772	9293.34
432.979	9815.57
433.187	10057.23
433.394	10192.4
433.601	10690.06
433.808	10978.82
434.016	10636.81
434.223	11388.41
434.43	11798.01
434.637	11785.72
434.844	12588.52
435.052	12803.56
435.259	12398.06
435.466	12682.73
435.673	12469.74
435.88	13737.43
436.087	14144.98
436.294	14061.01
436.501	13675.99
436.708	13970.9
436.915	14478.8
437.122	15320.51
437.329	15230.4
437.537	15678.91
437.743	15912.38
437.95	15723.96
438.157	16471.47
438.364	17159.59
438.571	16985.51
438.778	17235.36
438.985	18750.86
439.192	17829.27
439.399	18777.48
439.606	18163.09
439.813	19334.53
440.02	20190.58
440.227	19819.9
440.433	19758.46
440.64	20426.1
440.847	20413.81
441.054	20893.04
441.261	22218.07
441.467	21996.89
441.674	22242.65
441.881	23299.4
442.088	22900.05
442.294	22736.21
442.501	23602.5
442.708	23721.28
442.914	25267.5
443.121	26041.63
443.328	25351.46
443.534	26981.65
443.741	26215.71
443.948	26113.31
444.154	27864.32
444.361	27542.79
444.568	28314.87
444.774	28069.12
444.981	28042.49
445.187	29156.59
445.394	29820.13
445.6	29734.12
445.807	32603.32
446.013	30805.2
446.22	31753.41
446.426	32922.8
446.633	33348.78
446.839	34380.96
447.046	32939.19
447.252	34657.43
447.459	34749.59
447.665	34536.6
447.871	36326.53
448.078	37852.27
448.284	35974.28
448.491	36775.03
448.697	38108.26
448.903	38696.03
449.11	38745.18
449.316	38181.99
449.522	38974.55
449.728	40031.3
449.935	40313.92
450.141	39795.79
450.347	40746.04
450.553	39466.06
450.76	40430.66
450.966	41397.3
451.172	40688.7
451.378	41892.91
451.584	41266.23
451.791	41829.42
451.997	41380.92
452.203	42359.84
452.409	42490.91
452.615	41870.38
452.821	40619.07
453.027	40260.68
453.233	42308.65
453.44	40098.89
453.646	41282.61
453.852	41372.72
454.058	41925.67
454.264	40285.25
454.47	41276.47
454.676	40272.96
454.882	41677.87
455.088	37678.19
455.294	38403.17
455.5	38673.5
455.705	39328.85
455.911	37823.59
456.117	36686.97
456.323	36295.81
456.529	34602.14
456.735	36064.39
456.941	35200.15
457.147	34532.51
457.352	33367.21
457.558	32963.76
457.764	33002.68
457.97	32324.8
458.176	31689.93
458.381	31685.83
458.587	29809.89
458.793	30069.98
458.999	28566.77
459.204	30383.32
459.41	29889.76
459.616	27634.95
459.821	27704.58
460.027	27475.21
460.233	27118.86
460.438	25488.68
460.644	26215.71
460.85	25040.17
461.055	24718.64
461.261	24202.55
461.466	22156.63
461.672	21675.36
461.878	23471.43
462.083	21966.17
462.289	21640.54
462.494	21298.53
462.7	20319.6
462.905	19563.9
463.111	20688.24
463.316	20841.84
463.522	20256.12
463.727	20430.19
463.932	20186.49
464.138	19844.48
464.343	19981.69
464.549	19600.77
464.754	20118.9
464.959	20086.14
465.165	19758.46
465.37	18890.12
465.575	18816.4
465.781	19252.61
465.986	19477.89
466.191	18881.93
466.397	18273.68
466.602	17413.54
466.807	18290.07
467.012	18159
467.218	17939.86
467.423	17681.82
467.628	17894.81
467.833	18754.96
