Data from USB4F104151__124__11-07-31-343.txt Node

Date: Wed Mar 12 11:07:31 EDT 2025
User: louis
Spectrometer: USB4F10415
Trigger mode: 4
Integration Time (sec): 2.000000E-2
Scans to average: 1
Electric dark correction enabled: true
Nonlinearity correction enabled: false
Boxcar width: 0
XAxis mode: Wavelengths
Number of Pixels in Spectrum: 3648
>>>>>Begin Spectral Data<<<<<
178.204	-44.2
178.424	-44.2
178.644	-44.2
178.864	-40.11
179.084	-126.12
179.304	-13.48
179.524	27.48
179.744	15.19
179.964	25.43
180.184	70.48
180.404	13.14
180.624	-50.35
180.844	17.24
181.064	-11.43
181.283	-36.01
181.503	-36.01
181.723	-21.67
181.943	-56.49
182.163	9.05
182.383	2.9
182.602	-9.39
182.822	-17.58
183.042	-15.53
183.262	-27.82
183.482	25.43
183.701	35.67
183.921	17.24
184.141	-48.3
184.361	21.33
184.58	-66.73
184.8	56.15
185.02	45.91
185.239	82.77
185.459	39.76
185.679	50
185.898	31.57
186.118	25.43
186.338	72.53
186.557	60.24
186.777	76.63
186.997	19.29
187.216	19.29
187.436	82.77
187.655	4.95
187.875	60.24
188.095	35.67
188.314	13.14
188.534	21.33
188.753	35.67
188.973	9.05
189.192	15.19
189.412	-19.63
189.631	7
189.851	2.9
190.07	31.57
190.29	7
190.509	-33.96
190.729	70.48
190.948	52.05
191.168	99.16
191.387	-9.39
191.607	-29.87
191.826	25.43
192.045	13.14
192.265	35.67
192.484	-25.77
192.704	11.09
192.923	54.1
193.142	74.58
193.362	74.58
193.581	17.24
193.8	60.24
194.02	11.09
194.239	119.64
194.458	-81.07
194.678	31.57
194.897	90.96
195.116	54.1
195.335	-64.68
195.555	82.77
195.774	23.38
195.993	64.34
196.212	43.86
196.432	39.76
196.651	117.59
196.87	29.52
197.089	7
197.308	17.24
197.528	2.9
197.747	37.72
197.966	-27.82
198.185	17.24
198.404	-11.43
198.623	84.82
198.842	-23.72
199.062	-15.53
199.281	39.76
199.5	21.33
199.719	2.9
199.938	88.92
200.157	25.43
200.376	11.09
200.595	56.15
200.814	0.85
201.033	33.62
201.252	52.05
201.471	-1.19
201.69	123.73
201.909	95.06
202.128	60.24
202.347	50
202.566	76.63
202.785	84.82
203.004	11.09
203.223	113.49
203.442	13.14
203.661	43.86
203.879	-31.91
204.098	103.25
204.317	21.33
204.536	97.11
204.755	7
204.974	52.05
205.193	-40.11
205.411	88.92
205.63	-15.53
205.849	19.29
206.068	64.34
206.287	54.1
206.505	33.62
206.724	-60.59
206.943	29.52
207.162	54.1
207.381	21.33
207.599	47.96
207.818	4.95
208.037	35.67
208.255	58.2
208.474	21.33
208.693	31.57
208.911	33.62
209.13	11.09
209.349	-11.43
209.567	4.95
209.786	-38.06
210.005	15.19
210.223	64.34
210.442	23.38
210.661	88.92
210.879	101.2
211.098	-5.29
211.316	78.68
211.535	11.09
211.753	17.24
211.972	52.05
212.191	74.58
212.409	2.9
212.628	47.96
212.846	-1.19
213.065	-25.77
213.283	64.34
213.502	68.44
213.72	68.44
213.938	37.72
214.157	-46.25
214.375	52.05
214.594	-42.15
214.812	95.06
215.031	19.29
215.249	13.14
215.467	35.67
215.686	-66.73
215.904	29.52
216.122	37.72
216.341	56.15
216.559	17.24
216.778	54.1
216.996	-3.24
217.214	43.86
217.432	-21.67
217.651	-66.73
217.869	35.67
218.087	13.14
218.306	-33.96
218.524	70.48
218.742	47.96
218.96	56.15
219.179	-36.01
219.397	62.29
219.615	58.2
219.833	29.52
220.051	-1.19
220.27	115.54
220.488	70.48
220.706	-15.53
220.924	19.29
221.142	82.77
221.36	4.95
221.578	31.57
221.796	17.24
222.015	56.15
222.233	37.72
222.451	80.72
222.669	-5.29
222.887	9.05
223.105	-29.87
223.323	43.86
223.541	-27.82
223.759	21.33
223.977	27.48
224.195	54.1
224.413	35.67
224.631	-33.96
224.849	74.58
225.067	64.34
225.285	25.43
225.503	43.86
225.721	-23.72
225.939	39.76
226.157	19.29
226.375	68.44
226.592	-27.82
226.81	-21.67
227.028	66.39
227.246	56.15
227.464	52.05
227.682	-13.48
227.9	88.92
228.117	50
228.335	64.34
228.553	-38.06
228.771	21.33
228.989	74.58
229.206	39.76
229.424	29.52
229.642	37.72
229.86	29.52
230.077	82.77
230.295	-33.96
230.513	105.3
230.731	37.72
230.948	-3.24
231.166	9.05
231.384	4.95
231.601	-25.77
231.819	72.53
232.037	29.52
232.254	4.95
232.472	31.57
232.689	-7.34
232.907	21.33
233.125	-36.01
233.342	-1.19
233.56	70.48
233.777	-38.06
233.995	27.48
234.213	88.92
234.43	-5.29
234.648	15.19
234.865	78.68
235.083	-15.53
235.3	2.9
235.518	27.48
235.735	52.05
235.953	70.48
236.17	4.95
236.388	54.1
236.605	13.14
236.822	80.72
237.04	64.34
237.257	17.24
237.475	35.67
237.692	31.57
237.909	58.2
238.127	47.96
238.344	58.2
238.562	15.19
238.779	-19.63
238.996	19.29
239.214	-36.01
239.431	86.87
239.648	13.14
239.865	-7.34
240.083	15.19
240.3	41.81
240.517	25.43
240.735	15.19
240.952	60.24
241.169	56.15
241.386	111.44
241.603	21.33
241.821	-7.34
242.038	47.96
242.255	37.72
242.472	-1.19
242.689	25.43
242.907	50
243.124	-1.19
243.341	-5.29
243.558	95.06
243.775	-33.96
243.992	35.67
244.209	72.53
244.426	74.58
244.643	47.96
244.86	37.72
245.078	64.34
245.295	37.72
245.512	72.53
245.729	-9.39
245.946	88.92
246.163	52.05
246.38	45.91
246.597	58.2
246.814	58.2
247.031	54.1
247.248	68.44
247.464	41.81
247.681	31.57
247.898	39.76
248.115	109.4
248.332	64.34
248.549	54.1
248.766	76.63
248.983	68.44
249.2	66.39
249.417	37.72
249.633	33.62
249.85	54.1
250.067	-13.48
250.284	33.62
250.501	47.96
250.717	11.09
250.934	15.19
251.151	-1.19
251.368	2.9
251.585	9.05
251.801	70.48
252.018	19.29
252.235	70.48
252.451	2.9
252.668	29.52
252.885	93.01
253.102	115.54
253.318	17.24
253.535	-33.96
253.752	2.9
253.968	13.14
254.185	-23.72
254.401	37.72
254.618	31.57
254.835	21.33
255.051	-11.43
255.268	47.96
255.484	45.91
255.701	15.19
255.917	17.24
256.134	15.19
256.351	76.63
256.567	-25.77
256.784	13.14
257	60.24
257.217	56.15
257.433	56.15
257.65	66.39
257.866	78.68
258.082	35.67
258.299	33.62
258.515	23.38
258.732	-25.77
258.948	-9.39
259.165	17.24
259.381	29.52
259.597	70.48
259.814	39.76
260.03	19.29
260.246	54.1
260.463	121.68
260.679	88.92
260.895	-1.19
261.112	93.01
261.328	7
261.544	-5.29
261.761	74.58
261.977	-17.58
262.193	70.48
262.409	45.91
262.626	41.81
262.842	56.15
263.058	64.34
263.274	17.24
263.49	-3.24
263.707	60.24
263.923	-13.48
264.139	37.72
264.355	29.52
264.571	25.43
264.787	-1.19
265.004	95.06
265.22	35.67
265.436	-3.24
265.652	43.86
265.868	-7.34
266.084	4.95
266.3	9.05
266.516	29.52
266.732	11.09
266.948	15.19
267.164	47.96
267.38	52.05
267.596	-13.48
267.812	90.96
268.028	97.11
268.244	62.29
268.46	109.4
268.676	-21.67
268.892	-13.48
269.108	-44.2
269.324	7
269.54	45.91
269.756	35.67
269.972	33.62
270.188	76.63
270.403	56.15
270.619	29.52
270.835	52.05
271.051	115.54
271.267	76.63
271.483	93.01
271.698	15.19
271.914	19.29
272.13	74.58
272.346	47.96
272.562	74.58
272.777	-11.43
272.993	62.29
273.209	138.07
273.425	45.91
273.64	39.76
273.856	23.38
274.072	39.76
274.287	33.62
274.503	103.25
274.719	78.68
274.934	54.1
275.15	-66.73
275.366	97.11
275.581	37.72
275.797	15.19
276.012	2.9
276.228	72.53
276.444	68.44
276.659	39.76
276.875	-11.43
277.09	31.57
277.306	33.62
277.521	31.57
277.737	76.63
277.952	66.39
278.168	60.24
278.383	43.86
278.599	47.96
278.814	17.24
279.03	21.33
279.245	103.25
279.461	-36.01
279.676	82.77
279.892	29.52
280.107	43.86
280.322	-48.3
280.538	37.72
280.753	33.62
280.969	58.2
281.184	101.2
281.399	93.01
281.615	80.72
281.83	50
282.045	-23.72
282.26	23.38
282.476	47.96
282.691	-15.53
282.906	-46.25
283.122	27.48
283.337	15.19
283.552	11.09
283.767	54.1
283.983	56.15
284.198	78.68
284.413	60.24
284.628	29.52
284.843	101.2
285.058	37.72
285.274	72.53
285.489	19.29
285.704	4.95
285.919	37.72
286.134	125.78
286.349	15.19
286.564	119.64
286.779	45.91
286.995	-3.24
287.21	43.86
287.425	54.1
287.64	9.05
287.855	99.16
288.07	-9.39
288.285	93.01
288.5	72.53
288.715	23.38
288.93	76.63
289.145	11.09
289.36	33.62
289.575	4.95
289.79	47.96
290.004	-31.91
290.219	76.63
290.434	43.86
290.649	39.76
290.864	27.48
291.079	50
291.294	97.11
291.509	60.24
291.724	43.86
291.938	74.58
292.153	37.72
292.368	33.62
292.583	41.81
292.798	64.34
293.012	33.62
293.227	54.1
293.442	15.19
293.657	64.34
293.871	43.86
294.086	52.05
294.301	84.82
294.516	82.77
294.73	13.14
294.945	-1.19
295.16	33.62
295.374	23.38
295.589	35.67
295.804	56.15
296.018	-9.39
296.233	37.72
296.447	88.92
296.662	-17.58
296.877	52.05
297.091	58.2
297.306	23.38
297.52	27.48
297.735	68.44
297.949	-9.39
298.164	58.2
298.378	9.05
298.593	119.64
298.807	74.58
299.022	80.72
299.236	-7.34
299.451	37.72
299.665	-31.91
299.88	121.68
300.094	23.38
300.309	39.76
300.523	-7.34
300.737	70.48
300.952	-25.77
301.166	72.53
301.381	45.91
301.595	82.77
301.809	9.05
302.024	50
302.238	-1.19
302.452	45.91
302.667	52.05
302.881	68.44
303.095	-5.29
303.309	-21.67
303.524	29.52
303.738	54.1
303.952	62.29
304.166	-17.58
304.381	43.86
304.595	90.96
304.809	41.81
305.023	21.33
305.237	-44.2
305.452	-29.87
305.666	58.2
305.88	47.96
306.094	23.38
306.308	60.24
306.522	111.44
306.736	0.85
306.95	80.72
307.164	60.24
307.379	72.53
307.593	99.16
307.807	-1.19
308.021	76.63
308.235	47.96
308.449	84.82
308.663	43.86
308.877	78.68
309.091	60.24
309.305	47.96
309.519	78.68
309.733	97.11
309.947	35.67
310.161	54.1
310.374	25.43
310.588	2.9
310.802	-9.39
311.016	72.53
311.23	72.53
311.444	-5.29
311.658	43.86
311.872	66.39
312.085	52.05
312.299	29.52
312.513	37.72
312.727	78.68
312.941	27.48
313.154	52.05
313.368	7
313.582	23.38
313.796	103.25
314.009	123.73
314.223	-19.63
314.437	68.44
314.651	56.15
314.864	54.1
315.078	78.68
315.292	37.72
315.505	-38.06
315.719	60.24
315.933	54.1
316.146	35.67
316.36	105.3
316.573	33.62
316.787	62.29
317.001	-1.19
317.214	9.05
317.428	43.86
317.641	-15.53
317.855	84.82
318.068	47.96
318.282	31.57
318.495	19.29
318.709	62.29
318.922	52.05
319.136	60.24
319.349	31.57
319.563	29.52
319.776	74.58
319.99	80.72
320.203	109.4
320.417	66.39
320.63	39.76
320.843	37.72
321.057	-21.67
321.27	31.57
321.483	9.05
321.697	121.68
321.91	103.25
322.124	138.07
322.337	58.2
322.55	45.91
322.763	56.15
322.977	47.96
323.19	-38.06
323.403	66.39
323.617	41.81
323.83	74.58
324.043	64.34
324.256	74.58
324.469	80.72
324.683	45.91
324.896	-79.02
325.109	11.09
325.322	7
325.535	97.11
325.748	21.33
325.962	35.67
326.175	37.72
326.388	76.63
326.601	25.43
326.814	2.9
327.027	52.05
327.24	115.54
327.453	-13.48
327.666	60.24
327.879	95.06
328.092	56.15
328.305	70.48
328.518	93.01
328.731	-15.53
328.944	107.35
329.157	15.19
329.37	2.9
329.583	-9.39
329.796	50
330.009	-42.15
330.222	82.77
330.435	60.24
330.648	7
330.861	47.96
331.073	138.07
331.286	117.59
331.499	68.44
331.712	43.86
331.925	93.01
332.138	27.48
332.35	39.76
332.563	-50.35
332.776	23.38
332.989	60.24
333.202	99.16
333.414	25.43
333.627	17.24
333.84	45.91
334.053	136.02
334.265	-58.54
334.478	76.63
334.691	105.3
334.903	68.44
335.116	84.82
335.329	-17.58
335.541	52.05
335.754	58.2
335.966	2.9
336.179	58.2
336.392	11.09
336.604	-5.29
336.817	39.76
337.029	43.86
337.242	35.67
337.454	76.63
337.667	78.68
337.88	70.48
338.092	127.83
338.305	33.62
338.517	-1.19
338.729	17.24
338.942	-19.63
339.154	125.78
339.367	13.14
339.579	117.59
339.792	60.24
340.004	97.11
340.217	15.19
340.429	2.9
340.641	66.39
340.854	66.39
341.066	125.78
341.278	144.21
341.491	23.38
341.703	23.38
341.915	17.24
342.128	56.15
342.34	-1.19
342.552	13.14
342.764	54.1
342.977	27.48
343.189	7
343.401	72.53
343.613	29.52
343.826	7
344.038	29.52
344.25	35.67
344.462	68.44
344.674	99.16
344.886	11.09
345.099	101.2
345.311	35.67
345.523	21.33
345.735	13.14
345.947	56.15
346.159	54.1
346.371	70.48
346.583	29.52
346.795	90.96
347.007	54.1
347.219	7
347.431	50
347.643	93.01
347.855	13.14
348.067	125.78
348.279	39.76
348.491	107.35
348.703	39.76
348.915	13.14
349.127	11.09
349.339	80.72
349.551	23.38
349.763	84.82
349.975	-21.67
350.187	95.06
350.399	54.1
350.61	-5.29
350.822	125.78
351.034	2.9
351.246	7
351.458	11.09
351.669	97.11
351.881	76.63
352.093	93.01
352.305	7
352.517	66.39
352.728	50
352.94	56.15
353.152	39.76
353.363	97.11
353.575	60.24
353.787	-17.58
353.999	43.86
354.21	35.67
354.422	60.24
354.633	72.53
354.845	21.33
355.057	29.52
355.268	-5.29
355.48	35.67
355.692	7
355.903	101.2
356.115	-9.39
356.326	-33.96
356.538	2.9
356.749	107.35
356.961	58.2
357.172	29.52
357.384	127.83
357.595	41.81
357.807	43.86
358.018	76.63
358.23	84.82
358.441	21.33
358.653	90.96
358.864	13.14
359.075	23.38
359.287	70.48
359.498	113.49
359.709	45.91
359.921	-40.11
360.132	80.72
360.344	29.52
360.555	86.87
360.766	86.87
360.977	88.92
361.189	111.44
361.4	39.76
361.611	74.58
361.823	93.01
362.034	70.48
362.245	93.01
362.456	88.92
362.667	62.29
362.879	99.16
363.09	97.11
363.301	4.95
363.512	138.07
363.723	68.44
363.935	52.05
364.146	103.25
364.357	43.86
364.568	76.63
364.779	-5.29
364.99	43.86
365.201	37.72
365.412	45.91
365.623	2.9
365.834	97.11
366.045	31.57
366.256	45.91
366.467	25.43
366.678	-27.82
366.889	33.62
367.1	95.06
367.311	66.39
367.522	107.35
367.733	72.53
367.944	95.06
368.155	37.72
368.366	54.1
368.577	56.15
368.788	99.16
368.999	11.09
369.209	19.29
369.42	136.02
369.631	146.26
369.842	29.52
370.053	99.16
370.264	72.53
370.474	25.43
370.685	7
370.896	33.62
371.107	111.44
371.317	76.63
371.528	54.1
371.739	27.48
371.95	60.24
372.16	68.44
372.371	-5.29
372.582	45.91
372.792	101.2
373.003	13.14
373.214	93.01
373.424	99.16
373.635	76.63
373.846	50
374.056	97.11
374.267	129.88
374.477	21.33
374.688	29.52
374.898	64.34
375.109	127.83
375.319	64.34
375.53	88.92
375.74	84.82
375.951	111.44
376.161	-33.96
376.372	-13.48
376.582	95.06
376.793	64.34
377.003	105.3
377.214	41.81
377.424	35.67
377.635	166.74
377.845	62.29
378.055	154.45
378.266	47.96
378.476	25.43
378.686	52.05
378.897	84.82
379.107	31.57
379.317	140.12
379.528	13.14
379.738	72.53
379.948	31.57
380.158	93.01
380.369	47.96
380.579	33.62
380.789	-3.24
380.999	60.24
381.21	207.7
381.42	70.48
381.63	52.05
381.84	97.11
382.05	125.78
382.261	109.4
382.471	93.01
382.681	31.57
382.891	37.72
383.101	88.92
383.311	105.3
383.521	97.11
383.731	82.77
383.941	136.02
384.151	19.29
384.361	86.87
384.571	146.26
384.781	76.63
384.991	88.92
385.201	103.25
385.411	84.82
385.621	111.44
385.831	115.54
386.041	23.38
386.251	11.09
386.461	117.59
386.671	21.33
386.881	13.14
387.091	37.72
387.301	105.3
387.511	54.1
387.72	74.58
387.93	115.54
388.14	103.25
388.35	52.05
388.56	84.82
388.769	74.58
388.979	70.48
389.189	45.91
389.399	64.34
389.609	43.86
389.818	140.12
390.028	50
390.238	131.92
390.447	64.34
390.657	148.31
390.867	76.63
391.076	97.11
391.286	78.68
391.496	127.83
391.705	50
391.915	60.24
392.125	101.2
392.334	86.87
392.544	138.07
392.753	160.59
392.963	43.86
393.172	117.59
393.382	88.92
393.591	125.78
393.801	47.96
394.01	88.92
394.22	105.3
394.429	125.78
394.639	156.5
394.848	88.92
395.058	113.49
395.267	138.07
395.477	160.59
395.686	133.97
395.895	142.16
396.105	107.35
396.314	127.83
396.524	181.07
396.733	111.44
396.942	181.07
397.152	117.59
397.361	105.3
397.57	123.73
397.78	93.01
397.989	154.45
398.198	197.46
398.407	150.36
398.617	129.88
398.826	111.44
399.035	154.45
399.244	144.21
399.453	107.35
399.663	193.36
399.872	133.97
400.081	43.86
400.29	201.55
400.499	117.59
400.708	142.16
400.917	80.72
401.127	109.4
401.336	183.12
401.545	154.45
401.754	213.84
401.963	195.41
402.172	105.3
402.381	125.78
402.59	144.21
402.799	164.69
403.008	146.26
403.217	176.98
403.426	222.03
403.635	152.4
403.844	215.89
404.053	181.07
404.262	164.69
404.471	209.75
404.68	252.75
404.888	226.13
405.097	103.25
405.306	262.99
405.515	199.51
405.724	158.55
405.933	224.08
406.142	236.37
406.35	230.23
406.559	258.9
406.768	224.08
406.977	267.09
407.185	250.71
407.394	252.75
407.603	234.32
407.812	387.92
408.02	357.2
408.229	299.86
408.438	273.23
408.646	344.91
408.855	248.66
409.064	338.77
409.272	375.63
409.481	306
409.69	408.4
409.898	404.3
410.107	355.15
410.315	432.97
410.524	385.87
410.733	539.47
410.941	545.61
411.15	453.45
411.358	516.94
411.567	494.41
411.775	535.37
411.984	510.8
412.192	605
412.401	551.76
412.609	590.67
412.818	680.78
413.026	664.4
413.234	738.12
413.443	662.35
413.651	746.31
413.86	756.55
414.068	826.18
414.276	858.95
414.485	852.81
414.693	828.23
414.901	1004.36
415.11	901.96
415.318	992.07
415.526	971.59
415.734	1073.99
415.943	996.17
416.151	1073.99
416.359	1168.2
416.567	1127.24
416.776	1213.25
416.984	1338.18
417.192	1305.41
417.4	1332.03
417.608	1315.65
417.817	1409.86
418.025	1534.78
418.233	1549.12
418.441	1469.25
418.649	1682.24
418.857	1733.43
419.065	1710.91
419.273	1708.86
419.481	1805.11
419.689	1987.38
419.897	1962.81
420.105	2057.01
420.313	2210.61
420.521	2239.28
420.729	2292.53
420.937	2288.43
421.145	2333.49
421.353	2569.01
421.561	2683.69
421.769	2771.76
421.977	2822.95
422.185	2753.32
422.393	3052.33
422.601	3158.82
422.809	3187.49
423.017	3347.23
423.224	3275.56
423.432	3451.68
423.64	3293.99
423.848	3695.39
424.056	3674.91
424.263	3898.14
424.471	3928.86
424.679	3937.05
424.887	4272.92
425.094	4338.45
425.302	4379.41
425.51	4393.75
425.718	4475.67
425.925	4805.39
426.133	4844.3
426.341	5200.65
426.548	5397.25
426.756	5249.8
426.964	5329.67
427.171	5817.08
427.379	6058.74
427.586	6005.5
427.794	6200.05
428.001	6468.34
428.209	6798.06
428.417	6540.02
428.624	7043.82
428.832	7281.38
429.039	6937.32
429.247	7035.63
429.454	7688.93
429.662	8270.55
429.869	7643.87
430.076	8366.81
430.284	8131.29
430.491	8354.52
430.699	8886.99
430.906	9110.22
431.114	8923.85
431.321	9448.13
431.528	9591.49
431.736	10113.72
431.943	10551.99
432.15	10478.26
432.358	10425.01
432.565	11203.24
432.772	10926.77
432.979	11410.09
433.187	11686.56
433.394	11852.45
433.601	12468.89
433.808	12567.19
434.016	12511.89
434.223	12817.04
434.43	13795.97
434.637	13550.21
434.844	14451.32
435.052	14703.22
435.259	14555.77
435.466	14779
435.673	14658.17
435.88	15600.23
436.087	16288.35
436.294	16415.32
436.501	15950.43
436.708	16306.78
436.915	17033.81
437.122	17613.38
437.329	17748.55
437.537	18117.18
437.743	18668.09
437.95	18336.32
438.157	19339.82
438.364	19847.72
438.571	19778.09
438.778	19913.25
438.985	22153.73
439.192	20869.65
439.399	21651.98
439.606	21262.86
439.813	22022.66
440.02	23861.74
440.227	23452.14
440.433	22938.1
440.64	23747.05
440.847	23814.63
441.054	24158.69
441.261	25696.72
441.467	25289.17
441.674	26044.87
441.881	27031.99
442.088	26618.3
442.294	26429.89
442.501	27423.15
442.708	27849.13
442.914	28991.9
443.121	30179.72
443.328	29446.55
443.534	31627.63
443.741	30708.1
443.948	30460.29
444.154	32434.53
444.361	32158.06
444.568	32350.57
444.774	32477.54
444.981	32639.33
445.187	33947.98
445.394	35240.25
445.6	35035.45
445.807	38023.44
446.013	36290.86
446.22	36792.61
446.426	38396.17
446.633	38748.42
446.839	39971.06
447.046	38371.6
447.252	40591.59
447.459	40526.06
447.665	40304.88
447.871	41965.78
448.078	43567.29
448.284	41685.21
448.491	42686.67
448.697	44214.45
448.903	44888.23
449.11	45273.25
449.316	44236.98
449.522	45301.92
449.728	46313.62
449.935	46659.73
450.141	46330
450.347	47337.6
450.553	46092.44
450.76	46475.41
450.966	47990.91
451.172	47558.78
451.378	48799.85
451.584	48369.78
451.791	49037.42
451.997	48752.75
452.203	49504.35
452.409	49209.45
452.615	49274.98
452.821	47093.89
453.027	46878.86
453.233	49193.06
453.44	47261.83
453.646	47665.28
453.852	48279.67
454.058	48500.85
454.264	46989.45
454.47	47947.9
454.676	46903.43
454.882	48511.09
455.088	43980.98
455.294	45256.87
455.5	45318.31
455.705	45944.98
455.911	44146.87
456.117	42938.57
456.323	42606.8
456.529	40628.46
456.735	42139.86
456.941	41246.94
457.147	40397.04
457.352	39409.92
457.558	38766.85
457.764	38758.66
457.97	37792.02
458.176	37349.66
458.381	37374.24
458.587	35664.18
458.793	35385.66
458.999	33696.08
459.204	35834.16
459.41	34928.96
459.616	32567.65
459.821	32706.91
460.027	32588.13
460.233	32026.99
460.438	30456.2
460.644	30593.41
460.85	29391.25
461.055	28836.25
461.261	28875.16
461.466	27013.56
461.672	25618.89
461.878	27642.29
462.083	25989.58
462.289	25709.01
462.494	25459.15
462.7	24146.4
462.905	23634.41
463.111	24152.55
463.316	24541.66
463.522	23757.29
463.727	23792.11
463.932	23824.87
464.138	23648.75
464.343	23861.74
464.549	23120.37
464.754	24146.4
464.959	23497.2
465.165	23151.09
465.37	22422.02
465.575	21783.05
465.781	22663.68
465.986	22944.25
466.191	22034.95
466.397	21668.36
466.602	20537.88
466.807	21363.22
467.012	21496.33
467.218	21084.69
467.423	20959.77
467.628	21049.88
467.833	21666.31
