Data from USB4F104151__163__11-08-47-548.txt Node

Date: Wed Mar 12 11:08:47 EDT 2025
User: louis
Spectrometer: USB4F10415
Trigger mode: 4
Integration Time (sec): 2.000000E-2
Scans to average: 1
Electric dark correction enabled: true
Nonlinearity correction enabled: false
Boxcar width: 0
XAxis mode: Wavelengths
Number of Pixels in Spectrum: 3648
>>>>>Begin Spectral Data<<<<<
178.204	-95.91
178.424	-95.91
178.644	-95.91
178.864	-11.95
179.084	-100.01
179.304	-5.8
179.524	-20.14
179.744	10.58
179.964	-24.23
180.184	22.87
180.404	-16.04
180.624	20.82
180.844	-20.14
181.064	14.68
181.283	-9.9
181.503	78.16
181.723	-50.86
181.943	-67.24
182.163	37.2
182.383	-16.04
182.602	14.68
182.822	29.01
183.042	45.4
183.262	35.16
183.482	49.49
183.701	-34.47
183.921	14.68
184.141	-38.57
184.361	65.88
184.58	-28.33
184.8	0.34
185.02	39.25
185.239	43.35
185.459	47.44
185.679	12.63
185.898	-5.8
186.118	92.5
186.338	-18.09
186.557	47.44
186.777	-1.71
186.997	10.58
187.216	6.49
187.436	104.79
187.655	4.44
187.875	22.87
188.095	55.64
188.314	72.02
188.534	-16.04
188.753	57.68
188.973	-1.71
189.192	110.93
189.412	18.77
189.631	10.58
189.851	-13.99
190.07	55.64
190.29	-5.8
190.509	4.44
190.729	33.11
190.948	47.44
191.168	84.31
191.387	78.16
191.607	24.92
191.826	76.12
192.045	92.5
192.265	63.83
192.484	2.39
192.704	26.96
192.923	0.34
193.142	104.79
193.362	72.02
193.581	22.87
193.8	4.44
194.02	63.83
194.239	-22.19
194.458	39.25
194.678	-3.75
194.897	-22.19
195.116	22.87
195.335	-16.04
195.555	39.25
195.774	-9.9
195.993	115.03
196.212	29.01
196.432	-22.19
196.651	55.64
196.87	-7.85
197.089	100.69
197.308	72.02
197.528	76.12
197.747	59.73
197.966	69.97
198.185	63.83
198.404	-44.71
198.623	26.96
198.842	86.36
199.062	-7.85
199.281	117.08
199.5	4.44
199.719	31.06
199.938	69.97
200.157	20.82
200.376	51.54
200.595	35.16
200.814	-9.9
201.033	18.77
201.252	51.54
201.471	-28.33
201.69	45.4
201.909	55.64
202.128	35.16
202.347	26.96
202.566	41.3
202.785	53.59
203.004	47.44
203.223	2.39
203.442	0.34
203.661	-54.95
203.879	6.49
204.098	51.54
204.317	6.49
204.536	14.68
204.755	18.77
204.974	39.25
205.193	10.58
205.411	63.83
205.63	4.44
205.849	-42.67
206.068	53.59
206.287	45.4
206.505	72.02
206.724	14.68
206.943	-13.99
207.162	4.44
207.381	37.2
207.599	74.07
207.818	22.87
208.037	35.16
208.255	-22.19
208.474	-22.19
208.693	39.25
208.911	-9.9
209.13	59.73
209.349	33.11
209.567	26.96
209.786	45.4
210.005	2.39
210.223	39.25
210.442	63.83
210.661	41.3
210.879	43.35
211.098	0.34
211.316	139.6
211.535	8.53
211.753	-38.57
211.972	-36.52
212.191	0.34
212.409	92.5
212.628	94.55
212.846	84.31
213.065	16.73
213.283	53.59
213.502	8.53
213.72	31.06
213.938	-1.71
214.157	-18.09
214.375	26.96
214.594	20.82
214.812	76.12
215.031	37.2
215.249	-20.14
215.467	14.68
215.686	10.58
215.904	24.92
216.122	6.49
216.341	59.73
216.559	10.58
216.778	18.77
216.996	49.49
217.214	8.53
217.432	39.25
217.651	59.73
217.869	20.82
218.087	18.77
218.306	26.96
218.524	53.59
218.742	29.01
218.96	18.77
219.179	29.01
219.397	26.96
219.615	-3.75
219.833	16.73
220.051	29.01
220.27	49.49
220.488	98.64
220.706	51.54
220.924	96.6
221.142	-1.71
221.36	74.07
221.578	63.83
221.796	12.63
222.015	65.88
222.233	6.49
222.451	26.96
222.669	37.2
222.887	59.73
223.105	49.49
223.323	-20.14
223.541	-75.43
223.759	69.97
223.977	-16.04
224.195	-3.75
224.413	29.01
224.631	102.74
224.849	-16.04
225.067	31.06
225.285	-1.71
225.503	-9.9
225.721	-44.71
225.939	-20.14
226.157	26.96
226.375	115.03
226.592	20.82
226.81	6.49
227.028	59.73
227.246	67.92
227.464	39.25
227.682	45.4
227.9	45.4
228.117	104.79
228.335	51.54
228.553	16.73
228.771	26.96
228.989	53.59
229.206	53.59
229.424	-5.8
229.642	14.68
229.86	12.63
230.077	104.79
230.295	-16.04
230.513	35.16
230.731	35.16
230.948	6.49
231.166	78.16
231.384	100.69
231.601	-18.09
231.819	76.12
232.037	12.63
232.254	55.64
232.472	117.08
232.689	49.49
232.907	-20.14
233.125	-48.81
233.342	92.5
233.56	78.16
233.777	18.77
233.995	147.8
234.213	82.26
234.43	14.68
234.648	8.53
234.865	92.5
235.083	-5.8
235.3	4.44
235.518	51.54
235.735	96.6
235.953	10.58
236.17	-16.04
236.388	121.17
236.605	74.07
236.822	110.93
237.04	18.77
237.257	94.55
237.475	-22.19
237.692	117.08
237.909	6.49
238.127	47.44
238.344	39.25
238.562	29.01
238.779	22.87
238.996	4.44
239.214	72.02
239.431	76.12
239.648	29.01
239.865	153.94
240.083	-32.43
240.3	-7.85
240.517	-5.8
240.735	4.44
240.952	86.36
241.169	61.78
241.386	18.77
241.603	67.92
241.821	14.68
242.038	43.35
242.255	72.02
242.472	117.08
242.689	12.63
242.907	47.44
243.124	33.11
243.341	78.16
243.558	39.25
243.775	24.92
243.992	12.63
244.209	100.69
244.426	119.12
244.643	22.87
244.86	-20.14
245.078	-22.19
245.295	45.4
245.512	31.06
245.729	4.44
245.946	108.88
246.163	33.11
246.38	-22.19
246.597	20.82
246.814	63.83
247.031	112.98
247.248	-16.04
247.464	39.25
247.681	96.6
247.898	63.83
248.115	104.79
248.332	-38.57
248.549	86.36
248.766	78.16
248.983	57.68
249.2	51.54
249.417	55.64
249.633	51.54
249.85	-13.99
250.067	-54.95
250.284	59.73
250.501	12.63
250.717	72.02
250.934	-5.8
251.151	61.78
251.368	69.97
251.585	80.21
251.801	102.74
252.018	39.25
252.235	24.92
252.451	8.53
252.668	26.96
252.885	12.63
253.102	39.25
253.318	33.11
253.535	35.16
253.752	53.59
253.968	-7.85
254.185	-22.19
254.401	29.01
254.618	78.16
254.835	31.06
255.051	59.73
255.268	14.68
255.484	-9.9
255.701	78.16
255.917	76.12
256.134	-42.67
256.351	-28.33
256.567	39.25
256.784	69.97
257	2.39
257.217	76.12
257.433	88.4
257.65	-9.9
257.866	76.12
258.082	26.96
258.299	-13.99
258.515	43.35
258.732	14.68
258.948	72.02
259.165	20.82
259.381	-38.57
259.597	35.16
259.814	26.96
260.03	-7.85
260.246	20.82
260.463	55.64
260.679	26.96
260.895	20.82
261.112	61.78
261.328	121.17
261.544	8.53
261.761	59.73
261.977	12.63
262.193	22.87
262.409	55.64
262.626	20.82
262.842	90.45
263.058	-54.95
263.274	139.6
263.49	67.92
263.707	-1.71
263.923	47.44
264.139	14.68
264.355	41.3
264.571	108.88
264.787	22.87
265.004	-20.14
265.22	82.26
265.436	2.39
265.652	-1.71
265.868	43.35
266.084	49.49
266.3	20.82
266.516	55.64
266.732	74.07
266.948	45.4
267.164	57.68
267.38	76.12
267.596	96.6
267.812	-5.8
268.028	55.64
268.244	-20.14
268.46	-38.57
268.676	57.68
268.892	6.49
269.108	-48.81
269.324	-22.19
269.54	69.97
269.756	88.4
269.972	6.49
270.188	67.92
270.403	96.6
270.619	-3.75
270.835	35.16
271.051	80.21
271.267	6.49
271.483	-5.8
271.698	-13.99
271.914	117.08
272.13	26.96
272.346	51.54
272.562	-26.28
272.777	47.44
272.993	26.96
273.209	41.3
273.425	31.06
273.64	2.39
273.856	108.88
274.072	39.25
274.287	8.53
274.503	59.73
274.719	39.25
274.934	43.35
275.15	18.77
275.366	53.59
275.581	-20.14
275.797	51.54
276.012	22.87
276.228	57.68
276.444	24.92
276.659	108.88
276.875	8.53
277.09	18.77
277.306	-34.47
277.521	47.44
277.737	-42.67
277.952	29.01
278.168	0.34
278.383	10.58
278.599	35.16
278.814	90.45
279.03	6.49
279.245	51.54
279.461	26.96
279.676	102.74
279.892	-16.04
280.107	35.16
280.322	-54.95
280.538	39.25
280.753	72.02
280.969	115.03
281.184	-5.8
281.399	76.12
281.615	39.25
281.83	2.39
282.045	-46.76
282.26	55.64
282.476	2.39
282.691	33.11
282.906	63.83
283.122	33.11
283.337	-5.8
283.552	45.4
283.767	31.06
283.983	80.21
284.198	35.16
284.413	98.64
284.628	6.49
284.843	39.25
285.058	10.58
285.274	63.83
285.489	4.44
285.704	24.92
285.919	53.59
286.134	55.64
286.349	-36.52
286.564	-34.47
286.779	65.88
286.995	53.59
287.21	-5.8
287.425	31.06
287.64	45.4
287.855	37.2
288.07	-32.43
288.285	18.77
288.5	55.64
288.715	49.49
288.93	-28.33
289.145	47.44
289.36	-7.85
289.575	67.92
289.79	47.44
290.004	41.3
290.219	47.44
290.434	51.54
290.649	-9.9
290.864	31.06
291.079	14.68
291.294	0.34
291.509	31.06
291.724	6.49
291.938	63.83
292.153	31.06
292.368	-1.71
292.583	84.31
292.798	67.92
293.012	59.73
293.227	-38.57
293.442	108.88
293.657	24.92
293.871	106.84
294.086	33.11
294.301	29.01
294.516	39.25
294.73	76.12
294.945	55.64
295.16	65.88
295.374	37.2
295.589	51.54
295.804	37.2
296.018	65.88
296.233	74.07
296.447	26.96
296.662	8.53
296.877	49.49
297.091	-9.9
297.306	14.68
297.52	51.54
297.735	14.68
297.949	2.39
298.164	-7.85
298.378	-9.9
298.593	-13.99
298.807	2.39
299.022	51.54
299.236	88.4
299.451	-13.99
299.665	74.07
299.88	14.68
300.094	26.96
300.309	43.35
300.523	-9.9
300.737	88.4
300.952	80.21
301.166	26.96
301.381	-9.9
301.595	16.73
301.809	49.49
302.024	18.77
302.238	61.78
302.452	84.31
302.667	37.2
302.881	82.26
303.095	18.77
303.309	0.34
303.524	-1.71
303.738	10.58
303.952	18.77
304.166	41.3
304.381	-26.28
304.595	69.97
304.809	80.21
305.023	45.4
305.237	33.11
305.452	4.44
305.666	49.49
305.88	45.4
306.094	61.78
306.308	53.59
306.522	47.44
306.736	55.64
306.95	12.63
307.164	69.97
307.379	39.25
307.593	65.88
307.807	125.27
308.021	22.87
308.235	10.58
308.449	-102.06
308.663	-13.99
308.877	96.6
309.091	115.03
309.305	6.49
309.519	6.49
309.733	6.49
309.947	88.4
310.161	57.68
310.374	49.49
310.588	88.4
310.802	-26.28
311.016	84.31
311.23	2.39
311.444	8.53
311.658	-9.9
311.872	61.78
312.085	43.35
312.299	74.07
312.513	47.44
312.727	24.92
312.941	12.63
313.154	59.73
313.368	18.77
313.582	43.35
313.796	90.45
314.009	4.44
314.223	47.44
314.437	65.88
314.651	61.78
314.864	100.69
315.078	20.82
315.292	80.21
315.505	-5.8
315.719	76.12
315.933	53.59
316.146	84.31
316.36	8.53
316.573	51.54
316.787	67.92
317.001	20.82
317.214	20.82
317.428	90.45
317.641	72.02
317.855	12.63
318.068	4.44
318.282	29.01
318.495	119.12
318.709	59.73
318.922	20.82
319.136	26.96
319.349	69.97
319.563	51.54
319.776	20.82
319.99	170.32
320.203	35.16
320.417	47.44
320.63	-7.85
320.843	96.6
321.057	47.44
321.27	69.97
321.483	45.4
321.697	49.49
321.91	45.4
322.124	106.84
322.337	63.83
322.55	-30.38
322.763	37.2
322.977	51.54
323.19	-22.19
323.403	78.16
323.617	51.54
323.83	41.3
324.043	65.88
324.256	-5.8
324.469	2.39
324.683	59.73
324.896	53.59
325.109	49.49
325.322	35.16
325.535	112.98
325.748	2.39
325.962	-16.04
326.175	43.35
326.388	76.12
326.601	-16.04
326.814	-11.95
327.027	72.02
327.24	102.74
327.453	47.44
327.666	98.64
327.879	18.77
328.092	37.2
328.305	119.12
328.518	63.83
328.731	14.68
328.944	61.78
329.157	10.58
329.37	45.4
329.583	110.93
329.796	78.16
330.009	10.58
330.222	45.4
330.435	22.87
330.648	0.34
330.861	41.3
331.073	76.12
331.286	35.16
331.499	67.92
331.712	61.78
331.925	49.49
332.138	-7.85
332.35	-18.09
332.563	47.44
332.776	-24.23
332.989	35.16
333.202	94.55
333.414	63.83
333.627	59.73
333.84	55.64
334.053	12.63
334.265	61.78
334.478	80.21
334.691	31.06
334.903	69.97
335.116	69.97
335.329	72.02
335.541	18.77
335.754	153.94
335.966	67.92
336.179	6.49
336.392	86.36
336.604	2.39
336.817	80.21
337.029	33.11
337.242	51.54
337.454	86.36
337.667	-22.19
337.88	22.87
338.092	8.53
338.305	18.77
338.517	45.4
338.729	59.73
338.942	98.64
339.154	26.96
339.367	-26.28
339.579	76.12
339.792	-3.75
340.004	35.16
340.217	-11.95
340.429	-3.75
340.641	65.88
340.854	121.17
341.066	59.73
341.278	164.18
341.491	86.36
341.703	57.68
341.915	-3.75
342.128	-1.71
342.34	45.4
342.552	29.01
342.764	80.21
342.977	45.4
343.189	53.59
343.401	90.45
343.613	22.87
343.826	47.44
344.038	22.87
344.25	129.36
344.462	26.96
344.674	80.21
344.886	61.78
345.099	41.3
345.311	53.59
345.523	61.78
345.735	-20.14
345.947	94.55
346.159	43.35
346.371	-1.71
346.583	-28.33
346.795	18.77
347.007	-20.14
347.219	47.44
347.431	63.83
347.643	55.64
347.855	39.25
348.067	67.92
348.279	14.68
348.491	92.5
348.703	-5.8
348.915	29.01
349.127	63.83
349.339	57.68
349.551	47.44
349.763	63.83
349.975	20.82
350.187	63.83
350.399	47.44
350.61	45.4
350.822	31.06
351.034	31.06
351.246	51.54
351.458	53.59
351.669	55.64
351.881	-5.8
352.093	125.27
352.305	55.64
352.517	18.77
352.728	69.97
352.94	10.58
353.152	74.07
353.363	45.4
353.575	59.73
353.787	16.73
353.999	37.2
354.21	86.36
354.422	51.54
354.633	6.49
354.845	39.25
355.057	88.4
355.268	41.3
355.48	43.35
355.692	29.01
355.903	29.01
356.115	72.02
356.326	51.54
356.538	78.16
356.749	49.49
356.961	65.88
357.172	117.08
357.384	35.16
357.595	55.64
357.807	35.16
358.018	31.06
358.23	41.3
358.441	35.16
358.653	88.4
358.864	45.4
359.075	41.3
359.287	129.36
359.498	76.12
359.709	78.16
359.921	45.4
360.132	92.5
360.344	-1.71
360.555	18.77
360.766	6.49
360.977	45.4
361.189	53.59
361.4	53.59
361.611	129.36
361.823	20.82
362.034	39.25
362.245	22.87
362.456	80.21
362.667	47.44
362.879	22.87
363.09	92.5
363.301	39.25
363.512	82.26
363.723	-20.14
363.935	20.82
364.146	86.36
364.357	33.11
364.568	67.92
364.779	-22.19
364.99	121.17
365.201	26.96
365.412	33.11
365.623	-40.62
365.834	61.78
366.045	72.02
366.256	33.11
366.467	14.68
366.678	18.77
366.889	6.49
367.1	104.79
367.311	49.49
367.522	16.73
367.733	53.59
367.944	72.02
368.155	29.01
368.366	22.87
368.577	39.25
368.788	82.26
368.999	43.35
369.209	47.44
369.42	69.97
369.631	108.88
369.842	29.01
370.053	74.07
370.264	47.44
370.474	51.54
370.685	74.07
370.896	14.68
371.107	63.83
371.317	16.73
371.528	100.69
371.739	88.4
371.95	72.02
372.16	47.44
372.371	31.06
372.582	16.73
372.792	29.01
373.003	76.12
373.214	26.96
373.424	43.35
373.635	61.78
373.846	41.3
374.056	106.84
374.267	37.2
374.477	78.16
374.688	63.83
374.898	41.3
375.109	43.35
375.319	29.01
375.53	53.59
375.74	53.59
375.951	141.65
376.161	-22.19
376.372	80.21
376.582	61.78
376.793	31.06
377.003	22.87
377.214	-28.33
377.424	76.12
377.635	102.74
377.845	57.68
378.055	94.55
378.266	39.25
378.476	29.01
378.686	35.16
378.897	61.78
379.107	31.06
379.317	12.63
379.528	133.46
379.738	94.55
379.948	31.06
380.158	61.78
380.369	55.64
380.579	53.59
380.789	18.77
380.999	61.78
381.21	78.16
381.42	112.98
381.63	110.93
381.84	82.26
382.05	0.34
382.261	123.22
382.471	43.35
382.681	78.16
382.891	69.97
383.101	47.44
383.311	33.11
383.521	31.06
383.731	22.87
383.941	41.3
384.151	53.59
384.361	45.4
384.571	37.2
384.781	129.36
384.991	98.64
385.201	12.63
385.411	98.64
385.621	98.64
385.831	39.25
386.041	104.79
386.251	10.58
386.461	-13.99
386.671	4.44
386.881	69.97
387.091	-11.95
387.301	24.92
387.511	67.92
387.72	82.26
387.93	22.87
388.14	20.82
388.35	65.88
388.56	115.03
388.769	121.17
388.979	86.36
389.189	29.01
389.399	6.49
389.609	96.6
389.818	98.64
390.028	121.17
390.238	137.56
390.447	29.01
390.657	82.26
390.867	47.44
391.076	45.4
391.286	-22.19
391.496	55.64
391.705	55.64
391.915	33.11
392.125	12.63
392.334	16.73
392.544	69.97
392.753	92.5
392.963	37.2
393.172	37.2
393.382	35.16
393.591	108.88
393.801	47.44
394.01	65.88
394.22	90.45
394.429	86.36
394.639	74.07
394.848	106.84
395.058	45.4
395.267	74.07
395.477	119.12
395.686	94.55
395.895	67.92
396.105	86.36
396.314	108.88
396.524	98.64
396.733	145.75
396.942	78.16
397.152	74.07
397.361	90.45
397.57	43.35
397.78	69.97
397.989	127.32
398.198	129.36
398.407	57.68
398.617	125.27
398.826	53.59
399.035	102.74
399.244	186.71
399.453	160.08
399.663	72.02
399.872	143.7
400.081	100.69
400.29	174.42
400.499	61.78
400.708	139.6
400.917	74.07
401.127	61.78
401.336	45.4
401.545	151.89
401.754	94.55
401.963	119.12
402.172	72.02
402.381	-20.14
402.59	72.02
402.799	94.55
403.008	145.75
403.217	33.11
403.426	110.93
403.635	37.2
403.844	78.16
404.053	123.22
404.262	110.93
404.471	194.9
404.68	39.25
404.888	149.84
405.097	110.93
405.306	63.83
405.515	143.7
405.724	125.27
405.933	170.32
406.142	170.32
406.35	274.77
406.559	184.66
406.768	143.7
406.977	215.38
407.185	194.9
407.394	215.38
407.603	76.12
407.812	184.66
408.02	137.56
408.229	178.51
408.438	239.95
408.646	164.18
408.855	153.94
409.064	176.47
409.272	198.99
409.481	246.1
409.69	168.27
409.898	227.67
410.107	246.1
410.315	239.95
410.524	223.57
410.733	309.58
410.941	291.15
411.15	229.71
411.358	317.78
411.567	299.34
411.775	387.41
411.984	274.77
412.192	287.06
412.401	385.36
412.609	368.98
412.818	383.31
413.026	399.7
413.234	405.84
413.443	438.61
413.651	350.54
413.86	504.14
414.068	506.19
414.276	524.62
414.485	495.95
414.693	569.68
414.901	600.4
415.11	567.63
415.318	579.92
415.526	584.01
415.734	588.11
415.943	588.11
416.151	641.36
416.359	678.22
416.567	733.51
416.776	704.84
416.984	758.09
417.192	776.52
417.4	772.43
417.608	803.15
417.817	753.99
418.025	850.25
418.233	966.98
418.441	907.59
418.649	944.45
418.857	1075.52
419.065	995.65
419.273	1018.18
419.481	1085.76
419.689	1159.49
419.897	1194.31
420.105	1204.55
420.313	1292.61
420.521	1265.99
420.729	1296.71
420.937	1331.52
421.145	1290.56
421.353	1454.4
421.561	1513.79
421.769	1532.22
421.977	1634.62
422.185	1636.67
422.393	1773.88
422.601	1788.22
422.809	1708.35
423.017	1806.65
423.224	1841.47
423.432	1980.73
423.64	1866.04
423.848	2052.41
424.056	2138.42
424.263	2079.03
424.471	2193.72
424.679	2320.69
424.887	2345.27
425.094	2527.53
425.302	2470.19
425.51	2615.6
425.718	2525.49
425.925	2660.65
426.133	2742.57
426.341	2980.14
426.548	3045.67
426.756	3115.3
426.964	3158.31
427.171	3295.52
427.379	3387.68
427.586	3461.41
427.794	3531.04
428.001	3670.3
428.209	3873.05
428.417	3926.3
428.624	3995.93
428.832	4004.12
429.039	3995.93
429.247	3954.97
429.454	4434.19
429.662	4755.72
429.869	4366.61
430.076	4710.67
430.284	4595.98
430.491	4722.96
430.699	5077.26
430.906	5034.25
431.114	5214.47
431.321	5374.21
431.528	5449.99
431.736	5785.85
431.943	6119.67
432.15	5785.85
432.358	6015.23
432.565	6111.48
432.772	6187.25
432.979	6580.46
433.187	6613.23
433.394	6682.86
433.601	7035.11
433.808	7131.37
434.016	7084.27
434.223	7450.85
434.43	7596.26
434.637	7790.81
434.844	8255.7
435.052	8128.73
435.259	8288.47
435.466	8190.17
435.673	8335.57
435.88	8825.04
436.087	9359.56
436.294	9310.41
436.501	9027.79
436.708	9195.72
436.915	9472.2
437.122	10008.76
437.329	9949.37
437.537	10178.75
437.743	10258.62
437.95	10381.49
438.157	11065.52
438.364	11530.41
438.571	11274.41
438.778	11229.35
438.985	12347.54
439.192	11868.32
439.399	12214.43
439.606	12050.59
439.813	12605.59
440.02	13424.78
440.227	13082.77
440.433	13117.58
440.64	13496.46
440.847	13285.51
441.054	13605
441.261	14813.3
441.467	14559.35
441.674	14618.74
441.881	15247.47
442.088	15085.68
442.294	14944.37
442.501	15425.64
442.708	16040.03
442.914	16418.91
443.121	17080.4
443.328	16726.1
443.534	17713.22
443.741	17311.82
443.948	16941.14
444.154	18358.33
444.361	18438.2
444.568	18300.99
444.774	18444.35
444.981	18473.02
445.187	19157.04
445.394	20017.19
445.6	19648.55
445.807	21522.44
446.013	20637.72
446.22	20983.83
446.426	21991.43
446.633	21950.47
446.839	22564.86
447.046	21694.47
447.252	22958.07
447.459	22988.79
447.665	22595.58
447.871	23887.85
448.078	24621.02
448.284	23752.68
448.491	24405.98
448.697	25239.51
448.903	25528.27
449.11	25565.14
449.316	25030.62
449.522	25731.02
449.728	26388.42
449.935	26599.36
450.141	26161.09
450.347	27211.7
450.553	26058.7
450.76	26513.34
450.966	27223.99
451.172	27340.72
451.378	27797.42
451.584	26953.66
451.791	28100.52
451.997	27887.53
452.203	28473.25
452.409	28080.04
452.615	28065.71
452.821	26736.57
453.027	26423.23
453.233	27905.96
453.44	26929.08
453.646	27029.43
453.852	27428.79
454.058	27678.64
454.264	26523.58
454.47	27840.43
454.676	26990.52
454.882	27883.44
455.088	25186.26
455.294	25561.04
455.5	25757.64
455.705	26200.01
455.911	25020.38
456.117	24737.76
456.323	24377.31
456.529	23099.38
456.735	23877.61
456.941	23130.1
457.147	23136.24
457.352	22392.83
457.558	21934.09
457.764	22024.2
457.97	21653.51
458.176	20977.69
458.381	20998.16
458.587	20095.01
458.793	19875.88
458.999	19349.55
459.204	20477.98
459.41	19882.02
459.616	18432.06
459.821	18606.14
460.027	18520.12
460.233	18047.04
460.438	17297.49
460.644	17625.16
460.85	16496.73
461.055	16429.15
461.261	16183.39
461.466	14876.79
461.672	14696.57
461.878	15583.34
462.083	14930.03
462.289	14481.53
462.494	14180.48
462.7	13787.27
462.905	13314.19
463.111	13707.4
463.316	13766.79
463.522	13334.67
463.727	13326.47
463.932	13535.37
464.138	13338.76
464.343	13330.57
464.549	12832.91
464.754	13475.98
464.959	13301.9
465.165	13002.89
465.37	12656.79
465.575	12269.72
465.781	12748.95
465.986	12898.45
466.191	12503.19
466.397	12236.95
466.602	11765.92
466.807	12048.54
467.012	12138.65
467.218	12009.63
467.423	11690.15
467.628	11876.51
467.833	12497.05
468.038	12097.69
468.244	11858.08
