Data from USB4F104151__267__11-12-04-892.txt Node

Date: Wed Mar 12 11:12:04 EDT 2025
User: louis
Spectrometer: USB4F10415
Trigger mode: 4
Integration Time (sec): 2.000000E-2
Scans to average: 1
Electric dark correction enabled: true
Nonlinearity correction enabled: false
Boxcar width: 0
XAxis mode: Wavelengths
Number of Pixels in Spectrum: 3648
>>>>>Begin Spectral Data<<<<<
178.204	-83.8
178.424	-83.8
178.644	-83.8
178.864	-53.08
179.084	-87.89
179.304	22.7
179.524	18.6
179.744	-3.93
179.964	-53.08
180.184	18.6
180.404	-3.93
180.624	2.22
180.844	10.41
181.064	-34.64
181.283	0.17
181.503	28.84
181.723	-5.97
181.943	12.46
182.163	53.42
182.383	26.79
182.602	92.33
182.822	34.99
183.042	16.55
183.262	-81.75
183.482	34.99
183.701	-30.55
183.921	41.13
184.141	69.8
184.361	28.84
184.58	-16.21
184.8	51.37
185.02	-30.55
185.239	45.23
185.459	24.75
185.679	59.56
185.898	6.31
186.118	49.32
186.338	24.75
186.557	39.08
186.777	0.17
186.997	-26.45
187.216	43.18
187.436	53.42
187.655	43.18
187.875	34.99
188.095	14.51
188.314	69.8
188.534	65.71
188.753	16.55
188.973	80.04
189.192	22.7
189.412	30.89
189.631	41.13
189.851	51.37
190.07	67.75
190.29	-42.84
190.509	57.51
190.729	-8.02
190.948	108.71
191.168	49.32
191.387	77.99
191.607	10.41
191.826	10.41
192.045	12.46
192.265	-16.21
192.484	49.32
192.704	47.27
192.923	-44.88
193.142	55.47
193.362	-57.17
193.581	26.79
193.8	-30.55
194.02	-12.12
194.239	73.9
194.458	37.03
194.678	32.94
194.897	86.19
195.116	-28.5
195.335	2.22
195.555	16.55
195.774	22.7
195.993	-8.02
196.212	28.84
196.432	37.03
196.651	41.13
196.87	-32.6
197.089	125.1
197.308	6.31
197.528	43.18
197.747	-5.97
197.966	49.32
198.185	57.51
198.404	14.51
198.623	108.71
198.842	-22.36
199.062	84.14
199.281	43.18
199.5	100.52
199.719	55.47
199.938	24.75
200.157	2.22
200.376	4.27
200.595	71.85
200.814	-26.45
201.033	61.61
201.252	-16.21
201.471	2.22
201.69	45.23
201.909	28.84
202.128	12.46
202.347	24.75
202.566	-40.79
202.785	12.46
203.004	10.41
203.223	118.95
203.442	37.03
203.661	0.17
203.879	30.89
204.098	12.46
204.317	-20.31
204.536	28.84
204.755	14.51
204.974	73.9
205.193	-20.31
205.411	-3.93
205.63	18.6
205.849	37.03
206.068	-3.93
206.287	26.79
206.505	-12.12
206.724	8.36
206.943	-28.5
207.162	16.55
207.381	-28.5
207.599	0.17
207.818	12.46
208.037	49.32
208.255	51.37
208.474	-22.36
208.693	-30.55
208.911	22.7
209.13	28.84
209.349	55.47
209.567	90.28
209.786	47.27
210.005	-24.4
210.223	61.61
210.442	0.17
210.661	47.27
210.879	47.27
211.098	43.18
211.316	73.9
211.535	55.47
211.753	16.55
211.972	32.94
212.191	-36.69
212.409	18.6
212.628	18.6
212.846	108.71
213.065	43.18
213.283	-16.21
213.502	20.65
213.72	-71.51
213.938	10.41
214.157	24.75
214.375	69.8
214.594	-34.64
214.812	24.75
215.031	71.85
215.249	71.85
215.467	34.99
215.686	39.08
215.904	-8.02
216.122	-8.02
216.341	77.99
216.559	45.23
216.778	0.17
216.996	10.41
217.214	82.09
217.432	28.84
217.651	6.31
217.869	2.22
218.087	20.65
218.306	30.89
218.524	-3.93
218.742	10.41
218.96	-5.97
219.179	24.75
219.397	41.13
219.615	-42.84
219.833	43.18
220.051	-38.74
220.27	80.04
220.488	45.23
220.706	4.27
220.924	51.37
221.142	61.61
221.36	43.18
221.578	86.19
221.796	10.41
222.015	73.9
222.233	28.84
222.451	94.38
222.669	108.71
222.887	4.27
223.105	96.43
223.323	-51.03
223.541	16.55
223.759	59.56
223.977	6.31
224.195	100.52
224.413	30.89
224.631	65.71
224.849	30.89
225.067	16.55
225.285	-18.26
225.503	12.46
225.721	-28.5
225.939	30.89
226.157	32.94
226.375	-1.88
226.592	30.89
226.81	51.37
227.028	24.75
227.246	86.19
227.464	49.32
227.682	71.85
227.9	0.17
228.117	18.6
228.335	53.42
228.553	45.23
228.771	34.99
228.989	-3.93
229.206	18.6
229.424	30.89
229.642	77.99
229.86	51.37
230.077	18.6
230.295	0.17
230.513	14.51
230.731	2.22
230.948	32.94
231.166	110.76
231.384	4.27
231.601	34.99
231.819	2.22
232.037	-12.12
232.254	112.81
232.472	-32.6
232.689	8.36
232.907	20.65
233.125	-14.17
233.342	51.37
233.56	-24.4
233.777	86.19
233.995	26.79
234.213	49.32
234.43	53.42
234.648	-8.02
234.865	22.7
235.083	-1.88
235.3	67.75
235.518	57.51
235.735	88.23
235.953	39.08
236.17	14.51
236.388	20.65
236.605	6.31
236.822	75.95
237.04	32.94
237.257	-24.4
237.475	-16.21
237.692	45.23
237.909	37.03
238.127	14.51
238.344	28.84
238.562	28.84
238.779	-20.31
238.996	26.79
239.214	-14.17
239.431	69.8
239.648	18.6
239.865	-22.36
240.083	16.55
240.3	30.89
240.517	49.32
240.735	53.42
240.952	53.42
241.169	118.95
241.386	20.65
241.603	49.32
241.821	45.23
242.038	39.08
242.255	55.47
242.472	24.75
242.689	12.46
242.907	45.23
243.124	49.32
243.341	2.22
243.558	4.27
243.775	37.03
243.992	-24.4
244.209	0.17
244.426	-12.12
244.643	108.71
244.86	16.55
245.078	90.28
245.295	49.32
245.512	59.56
245.729	57.51
245.946	55.47
246.163	110.76
246.38	53.42
246.597	32.94
246.814	-10.07
247.031	24.75
247.248	39.08
247.464	22.7
247.681	26.79
247.898	32.94
248.115	-16.21
248.332	10.41
248.549	-30.55
248.766	28.84
248.983	39.08
249.2	-3.93
249.417	47.27
249.633	-55.12
249.85	80.04
250.067	45.23
250.284	37.03
250.501	-5.97
250.717	32.94
250.934	34.99
251.151	41.13
251.368	34.99
251.585	28.84
251.801	-3.93
252.018	53.42
252.235	8.36
252.451	16.55
252.668	57.51
252.885	37.03
253.102	51.37
253.318	-40.79
253.535	-8.02
253.752	-10.07
253.968	39.08
254.185	63.66
254.401	0.17
254.618	53.42
254.835	28.84
255.051	73.9
255.268	28.84
255.484	34.99
255.701	53.42
255.917	59.56
256.134	12.46
256.351	116.9
256.567	37.03
256.784	30.89
257	-20.31
257.217	24.75
257.433	0.17
257.65	16.55
257.866	-38.74
258.082	-3.93
258.299	22.7
258.515	82.09
258.732	24.75
258.948	-71.51
259.165	-16.21
259.381	-34.64
259.597	43.18
259.814	39.08
260.03	12.46
260.246	88.23
260.463	20.65
260.679	34.99
260.895	51.37
261.112	18.6
261.328	41.13
261.544	4.27
261.761	39.08
261.977	39.08
262.193	-20.31
262.409	63.66
262.626	43.18
262.842	63.66
263.058	22.7
263.274	71.85
263.49	28.84
263.707	53.42
263.923	-28.5
264.139	-16.21
264.355	0.17
264.571	-10.07
264.787	75.95
265.004	65.71
265.22	24.75
265.436	-14.17
265.652	14.51
265.868	-10.07
266.084	-1.88
266.3	12.46
266.516	30.89
266.732	22.7
266.948	39.08
267.164	71.85
267.38	73.9
267.596	-8.02
267.812	55.47
268.028	49.32
268.244	8.36
268.46	30.89
268.676	-1.88
268.892	14.51
269.108	-73.56
269.324	47.27
269.54	98.47
269.756	18.6
269.972	-18.26
270.188	37.03
270.403	30.89
270.619	16.55
270.835	-1.88
271.051	73.9
271.267	-18.26
271.483	-14.17
271.698	47.27
271.914	30.89
272.13	112.81
272.346	2.22
272.562	24.75
272.777	110.76
272.993	37.03
273.209	-96.08
273.425	94.38
273.64	-28.5
273.856	53.42
274.072	47.27
274.287	-3.93
274.503	82.09
274.719	22.7
274.934	37.03
275.15	18.6
275.366	-22.36
275.581	-22.36
275.797	37.03
276.012	16.55
276.228	-20.31
276.444	6.31
276.659	147.62
276.875	32.94
277.09	37.03
277.306	43.18
277.521	45.23
277.737	59.56
277.952	82.09
278.168	10.41
278.383	84.14
278.599	61.61
278.814	39.08
279.03	24.75
279.245	20.65
279.461	61.61
279.676	41.13
279.892	22.7
280.107	20.65
280.322	-16.21
280.538	67.75
280.753	2.22
280.969	32.94
281.184	6.31
281.399	90.28
281.615	-22.36
281.83	59.56
282.045	26.79
282.26	0.17
282.476	53.42
282.691	45.23
282.906	28.84
283.122	59.56
283.337	106.67
283.552	61.61
283.767	65.71
283.983	12.46
284.198	4.27
284.413	39.08
284.628	-5.97
284.843	39.08
285.058	-8.02
285.274	41.13
285.489	24.75
285.704	49.32
285.919	-12.12
286.134	63.66
286.349	53.42
286.564	43.18
286.779	116.9
286.995	-8.02
287.21	39.08
287.425	110.76
287.64	-8.02
287.855	12.46
288.07	6.31
288.285	24.75
288.5	106.67
288.715	55.47
288.93	-3.93
289.145	39.08
289.36	6.31
289.575	20.65
289.79	32.94
290.004	-40.79
290.219	45.23
290.434	37.03
290.649	116.9
290.864	28.84
291.079	10.41
291.294	8.36
291.509	53.42
291.724	86.19
291.938	32.94
292.153	39.08
292.368	28.84
292.583	43.18
292.798	84.14
293.012	-22.36
293.227	4.27
293.442	-14.17
293.657	16.55
293.871	43.18
294.086	47.27
294.301	30.89
294.516	37.03
294.73	32.94
294.945	-30.55
295.16	-5.97
295.374	53.42
295.589	26.79
295.804	-28.5
296.018	0.17
296.233	63.66
296.447	14.51
296.662	-73.56
296.877	-3.93
297.091	43.18
297.306	-38.74
297.52	45.23
297.735	67.75
297.949	12.46
298.164	37.03
298.378	61.61
298.593	71.85
298.807	-3.93
299.022	63.66
299.236	26.79
299.451	41.13
299.665	45.23
299.88	-38.74
300.094	-18.26
300.309	30.89
300.523	20.65
300.737	-14.17
300.952	67.75
301.166	22.7
301.381	4.27
301.595	-8.02
301.809	-28.5
302.024	69.8
302.238	-1.88
302.452	30.89
302.667	2.22
302.881	53.42
303.095	6.31
303.309	-5.97
303.524	4.27
303.738	30.89
303.952	61.61
304.166	82.09
304.381	26.79
304.595	53.42
304.809	47.27
305.023	-34.64
305.237	47.27
305.452	-3.93
305.666	16.55
305.88	2.22
306.094	20.65
306.308	82.09
306.522	65.71
306.736	-40.79
306.95	-18.26
307.164	-8.02
307.379	55.47
307.593	20.65
307.807	57.51
308.021	26.79
308.235	118.95
308.449	55.47
308.663	-5.97
308.877	80.04
309.091	10.41
309.305	51.37
309.519	-57.17
309.733	82.09
309.947	57.51
310.161	53.42
310.374	114.86
310.588	32.94
310.802	26.79
311.016	43.18
311.23	61.61
311.444	6.31
311.658	47.27
311.872	24.75
312.085	106.67
312.299	0.17
312.513	98.47
312.727	69.8
312.941	69.8
313.154	26.79
313.368	75.95
313.582	34.99
313.796	53.42
314.009	73.9
314.223	77.99
314.437	59.56
314.651	30.89
314.864	8.36
315.078	2.22
315.292	-24.4
315.505	59.56
315.719	47.27
315.933	61.61
316.146	61.61
316.36	14.51
316.573	45.23
316.787	123.05
317.001	-5.97
317.214	-38.74
317.428	82.09
317.641	-57.17
317.855	6.31
318.068	-12.12
318.282	67.75
318.495	6.31
318.709	129.19
318.922	4.27
319.136	73.9
319.349	100.52
319.563	63.66
319.776	6.31
319.99	-26.45
320.203	32.94
320.417	8.36
320.63	49.32
320.843	102.57
321.057	59.56
321.27	37.03
321.483	28.84
321.697	61.61
321.91	69.8
322.124	49.32
322.337	100.52
322.55	24.75
322.763	57.51
322.977	-42.84
323.19	10.41
323.403	90.28
323.617	43.18
323.83	20.65
324.043	24.75
324.256	41.13
324.469	-3.93
324.683	80.04
324.896	45.23
325.109	71.85
325.322	-3.93
325.535	49.32
325.748	65.71
325.962	16.55
326.175	37.03
326.388	67.75
326.601	75.95
326.814	59.56
327.027	41.13
327.24	73.9
327.453	-16.21
327.666	65.71
327.879	67.75
328.092	84.14
328.305	129.19
328.518	32.94
328.731	82.09
328.944	73.9
329.157	28.84
329.37	61.61
329.583	39.08
329.796	118.95
330.009	10.41
330.222	-40.79
330.435	43.18
330.648	18.6
330.861	-36.69
331.073	20.65
331.286	12.46
331.499	30.89
331.712	104.62
331.925	16.55
332.138	80.04
332.35	129.19
332.563	24.75
332.776	16.55
332.989	-57.17
333.202	45.23
333.414	34.99
333.627	86.19
333.84	73.9
334.053	55.47
334.265	20.65
334.478	32.94
334.691	28.84
334.903	12.46
335.116	73.9
335.329	2.22
335.541	45.23
335.754	82.09
335.966	-38.74
336.179	26.79
336.392	55.47
336.604	-18.26
336.817	43.18
337.029	39.08
337.242	53.42
337.454	53.42
337.667	47.27
337.88	80.04
338.092	63.66
338.305	41.13
338.517	-12.12
338.729	67.75
338.942	71.85
339.154	49.32
339.367	104.62
339.579	4.27
339.792	63.66
340.004	12.46
340.217	55.47
340.429	82.09
340.641	43.18
340.854	4.27
341.066	28.84
341.278	98.47
341.491	53.42
341.703	18.6
341.915	32.94
342.128	37.03
342.34	55.47
342.552	61.61
342.764	43.18
342.977	-10.07
343.189	73.9
343.401	94.38
343.613	55.47
343.826	63.66
344.038	-20.31
344.25	92.33
344.462	110.76
344.674	80.04
344.886	-28.5
345.099	104.62
345.311	69.8
345.523	24.75
345.735	34.99
345.947	112.81
346.159	49.32
346.371	102.57
346.583	16.55
346.795	47.27
347.007	32.94
347.219	8.36
347.431	37.03
347.643	22.7
347.855	69.8
348.067	45.23
348.279	63.66
348.491	71.85
348.703	-14.17
348.915	53.42
349.127	0.17
349.339	16.55
349.551	59.56
349.763	-10.07
349.975	-18.26
350.187	47.27
350.399	55.47
350.61	86.19
350.822	65.71
351.034	-10.07
351.246	37.03
351.458	49.32
351.669	45.23
351.881	110.76
352.093	34.99
352.305	131.24
352.517	34.99
352.728	53.42
352.94	84.14
353.152	80.04
353.363	-26.45
353.575	86.19
353.787	20.65
353.999	26.79
354.21	26.79
354.422	14.51
354.633	8.36
354.845	30.89
355.057	57.51
355.268	28.84
355.48	37.03
355.692	32.94
355.903	45.23
356.115	0.17
356.326	4.27
356.538	67.75
356.749	67.75
356.961	37.03
357.172	4.27
357.384	4.27
357.595	43.18
357.807	37.03
358.018	10.41
358.23	65.71
358.441	102.57
358.653	49.32
358.864	98.47
359.075	75.95
359.287	82.09
359.498	90.28
359.709	-22.36
359.921	-10.07
360.132	55.47
360.344	51.37
360.555	-3.93
360.766	47.27
360.977	4.27
361.189	4.27
361.4	4.27
361.611	37.03
361.823	73.9
362.034	90.28
362.245	84.14
362.456	45.23
362.667	45.23
362.879	63.66
363.09	82.09
363.301	49.32
363.512	20.65
363.723	90.28
363.935	41.13
364.146	57.51
364.357	-3.93
364.568	34.99
364.779	-5.97
364.99	86.19
365.201	-87.89
365.412	96.43
365.623	-40.79
365.834	-22.36
366.045	30.89
366.256	0.17
366.467	30.89
366.678	53.42
366.889	55.47
367.1	71.85
367.311	53.42
367.522	20.65
367.733	147.62
367.944	57.51
368.155	104.62
368.366	90.28
368.577	51.37
368.788	94.38
368.999	10.41
369.209	49.32
369.42	77.99
369.631	145.58
369.842	75.95
370.053	53.42
370.264	-12.12
370.474	41.13
370.685	84.14
370.896	75.95
371.107	43.18
371.317	8.36
371.528	-94.04
371.739	71.85
371.95	-5.97
372.16	-5.97
372.371	8.36
372.582	80.04
372.792	-3.93
373.003	75.95
373.214	43.18
373.424	110.76
373.635	39.08
373.846	43.18
374.056	51.37
374.267	47.27
374.477	82.09
374.688	-32.6
374.898	34.99
375.109	73.9
375.319	102.57
375.53	67.75
375.74	61.61
375.951	-1.88
376.161	41.13
376.372	51.37
376.582	-42.84
376.793	-51.03
377.003	71.85
377.214	69.8
377.424	65.71
377.635	104.62
377.845	30.89
378.055	82.09
378.266	65.71
378.476	43.18
378.686	26.79
378.897	53.42
379.107	80.04
379.317	67.75
379.528	77.99
379.738	34.99
379.948	14.51
380.158	77.99
380.369	49.32
380.579	34.99
380.789	49.32
380.999	45.23
381.21	32.94
381.42	41.13
381.63	14.51
381.84	28.84
382.05	28.84
382.261	80.04
382.471	-8.02
382.681	37.03
382.891	47.27
383.101	86.19
383.311	-10.07
383.521	20.65
383.731	84.14
383.941	92.33
384.151	86.19
384.361	41.13
384.571	61.61
384.781	32.94
384.991	112.81
385.201	80.04
385.411	88.23
385.621	55.47
385.831	41.13
386.041	18.6
386.251	92.33
386.461	57.51
386.671	80.04
386.881	16.55
387.091	82.09
387.301	20.65
387.511	92.33
387.72	12.46
387.93	-3.93
388.14	-14.17
388.35	88.23
388.56	53.42
388.769	77.99
388.979	-12.12
389.189	118.95
389.399	112.81
389.609	108.71
389.818	8.36
390.028	-3.93
390.238	77.99
390.447	28.84
390.657	127.14
390.867	82.09
391.076	106.67
391.286	67.75
391.496	84.14
391.705	41.13
391.915	127.14
392.125	75.95
392.334	20.65
392.544	61.61
392.753	90.28
392.963	96.43
393.172	59.56
393.382	39.08
393.591	94.38
393.801	-22.36
394.01	147.62
394.22	88.23
394.429	37.03
394.639	71.85
394.848	67.75
395.058	22.7
395.267	30.89
395.477	69.8
395.686	45.23
395.895	88.23
396.105	168.1
396.314	41.13
396.524	151.72
396.733	53.42
396.942	96.43
397.152	121
397.361	127.14
397.57	123.05
397.78	49.32
397.989	73.9
398.198	166.06
398.407	135.34
398.617	55.47
398.826	61.61
399.035	24.75
399.244	43.18
399.453	98.47
399.663	100.52
399.872	137.38
400.081	161.96
400.29	86.19
400.499	80.04
400.708	73.9
400.917	104.62
401.127	102.57
401.336	61.61
401.545	88.23
401.754	110.76
401.963	84.14
402.172	116.9
402.381	51.37
402.59	96.43
402.799	102.57
403.008	69.8
403.217	143.53
403.426	143.53
403.635	86.19
403.844	92.33
404.053	155.82
404.262	77.99
404.471	151.72
404.68	88.23
404.888	108.71
405.097	94.38
405.306	116.9
405.515	166.06
405.724	145.58
405.933	239.78
406.142	157.86
406.35	155.82
406.559	143.53
406.768	166.06
406.977	172.2
407.185	225.45
407.394	172.2
407.603	112.81
407.812	200.87
408.02	186.54
408.229	184.49
408.438	229.54
408.646	155.82
408.855	209.06
409.064	254.12
409.272	172.2
409.481	260.26
409.69	235.69
409.898	258.21
410.107	209.06
410.315	278.69
410.524	262.31
410.733	286.89
410.941	303.27
411.15	299.17
411.358	368.81
411.567	413.86
411.775	299.17
411.984	389.28
412.192	358.57
412.401	356.52
412.609	370.85
412.818	473.25
413.026	426.15
413.234	452.77
413.443	454.82
413.651	491.68
413.86	536.74
414.068	536.74
414.276	618.66
414.485	553.12
414.693	594.08
414.901	647.33
415.11	602.27
415.318	565.41
415.526	577.7
415.734	635.04
415.943	721.06
416.151	749.73
416.359	712.86
416.567	725.15
416.776	815.26
416.984	854.17
417.192	874.65
417.4	800.93
417.608	870.56
417.817	831.65
418.025	946.33
418.233	1007.77
418.441	942.24
418.649	999.58
418.857	1048.73
419.065	1175.7
419.273	1165.46
419.481	1245.34
419.689	1239.19
419.897	1335.45
420.105	1333.4
420.313	1263.77
420.521	1380.5
420.729	1446.04
420.937	1429.65
421.145	1497.24
421.353	1644.69
421.561	1634.45
421.769	1663.12
421.977	1808.53
422.185	1763.47
422.393	1910.93
422.601	1888.4
422.809	2080.91
423.017	1988.75
423.224	2031.76
423.432	2271.37
423.64	2203.79
423.848	2367.62
424.056	2287.75
424.263	2490.5
424.471	2408.58
424.679	2508.93
424.887	2666.63
425.094	2584.71
425.302	2664.58
425.51	2820.22
425.718	2844.8
425.925	2961.53
426.133	3000.44
426.341	3188.86
426.548	3364.98
426.756	3354.74
426.964	3410.04
427.171	3747.95
427.379	3696.75
427.586	3805.3
427.794	3833.97
428.001	4034.67
428.209	4169.84
428.417	4157.55
428.624	4429.93
428.832	4448.36
429.039	4434.02
429.247	4526.18
429.454	4956.26
429.662	5154.91
429.869	4767.84
430.076	5324.89
430.284	5042.27
430.491	5193.82
430.699	5589.08
430.906	5490.77
431.114	5742.68
431.321	6027.34
431.528	5902.42
431.736	6221.9
431.943	6717.51
432.15	6481.99
432.358	6553.67
432.565	6711.36
432.772	6686.79
432.979	7301.18
433.187	7340.09
433.394	7288.89
433.601	7798.84
433.808	8054.83
434.016	7893.04
434.223	8013.87
434.43	8691.75
434.637	8523.82
434.844	8978.47
435.052	9107.49
435.259	9044
435.466	9220.13
435.673	8998.95
435.88	9803.8
436.087	10049.55
436.294	10076.18
436.501	9990.16
436.708	10237.97
436.915	10395.66
437.122	11089.92
437.329	10858.5
437.537	11266.05
437.743	11485.18
437.95	11356.16
438.157	12074.99
438.364	12265.46
438.571	12382.19
438.778	12398.57
438.985	13891.54
439.192	12992.48
439.399	13531.1
439.606	13131.75
439.813	13793.24
440.02	14888.9
440.227	14219.22
440.433	14249.94
440.64	14868.42
440.847	14727.11
441.054	14893
441.261	16048.05
441.467	15959.99
441.674	16465.84
441.881	16713.64
442.088	16705.45
442.294	16431.02
442.501	17094.57
442.708	17706.91
442.914	18036.63
443.121	18587.54
443.328	17856.41
443.534	19545.98
443.741	18886.54
443.948	18724.75
444.154	20207.48
444.361	19756.93
444.568	20160.38
444.774	20033.4
444.981	20152.18
445.187	21198.7
445.394	21780.32
445.6	21544.8
445.807	23797.57
446.013	22568.79
446.22	22916.94
446.426	23695.17
446.633	23832.38
446.839	24962.86
447.046	23680.83
447.252	25138.99
447.459	25024.3
447.665	24966.96
447.871	26068.76
448.078	27211.53
448.284	26019.61
448.491	26517.27
448.697	27639.56
448.903	28358.39
449.11	27940.61
449.316	27748.1
449.522	28063.49
449.728	28679.93
449.935	29169.39
450.141	29107.95
450.347	30037.73
450.553	28659.45
450.76	29099.76
450.966	29732.58
451.172	30002.91
451.378	30514.91
451.584	30023.39
451.791	30668.5
451.997	30285.53
452.203	30969.55
452.409	31190.73
452.615	30717.65
452.821	30117.6
453.027	29546.22
453.233	31037.14
453.44	29816.55
453.646	30074.59
453.852	30265.05
454.058	30957.27
454.264	29492.97
454.47	30078.69
454.676	29564.65
454.882	30674.65
455.088	28122.88
455.294	28428.02
455.5	28854
455.705	28784.37
455.911	27989.76
456.117	27158.28
456.323	26613.52
456.529	25356.07
456.735	26474.26
456.941	25845.54
457.147	25360.17
457.352	24547.12
457.558	24561.46
457.764	24596.28
457.97	24125.24
458.176	23365.45
458.381	23482.18
458.587	22556.5
458.793	22622.03
458.999	21217.13
459.204	22357.85
459.41	22081.37
459.616	20561.78
459.821	20621.17
460.027	20735.85
460.233	19945.34
460.438	18950.03
460.644	19376
460.85	18442.13
461.055	18116.5
461.261	18343.83
461.466	16881.58
461.672	16201.65
461.878	17485.73
462.083	16480.18
462.289	16093.11
462.494	15734.71
462.7	15138.76
462.905	14768.07
463.111	15130.56
463.316	15378.37
463.522	15083.46
463.727	15046.6
463.932	15128.52
464.138	14739.4
464.343	14827.46
464.549	14274.51
464.754	15138.76
464.959	14825.42
465.165	14555.08
465.37	14061.52
465.575	13713.37
465.781	14131.16
465.986	14342.1
466.191	13715.42
466.397	13469.66
466.602	12896.23
466.807	13627.35
467.012	13430.75
467.218	13412.32
467.423	13109.22
467.628	13244.38
467.833	13922.26
468.038	13346.78
