Data from USB4F104151__164__11-08-48-028.txt Node

Date: Wed Mar 12 11:08:48 EDT 2025
User: louis
Spectrometer: USB4F10415
Trigger mode: 4
Integration Time (sec): 2.000000E-2
Scans to average: 1
Electric dark correction enabled: true
Nonlinearity correction enabled: false
Boxcar width: 0
XAxis mode: Wavelengths
Number of Pixels in Spectrum: 3648
>>>>>Begin Spectral Data<<<<<
178.204	-45.4
178.424	-45.4
178.644	-45.4
178.864	-65.88
179.084	-100.69
179.304	3.75
179.524	-8.53
179.744	-41.3
179.964	13.99
180.184	34.47
180.404	-26.96
180.624	-4.44
180.844	-8.53
181.064	48.81
181.283	-2.39
181.503	-59.73
181.723	50.86
181.943	3.75
182.163	71.34
182.383	-29.01
182.602	102.06
182.822	36.52
183.042	-20.82
183.262	-8.53
183.482	-4.44
183.701	69.29
183.921	63.15
184.141	30.38
184.361	57
184.58	13.99
184.8	22.19
185.02	5.8
185.239	32.43
185.459	30.38
185.679	-29.01
185.898	-12.63
186.118	65.19
186.338	11.95
186.557	81.58
186.777	36.52
186.997	13.99
187.216	28.33
187.436	-4.44
187.655	-22.87
187.875	61.1
188.095	3.75
188.314	89.77
188.534	9.9
188.753	38.57
188.973	100.01
189.192	89.77
189.412	50.86
189.631	77.48
189.851	59.05
190.07	11.95
190.29	63.15
190.509	22.19
190.729	24.23
190.948	30.38
191.168	145.06
191.387	63.15
191.607	9.9
191.826	50.86
192.045	73.39
192.265	54.95
192.484	-8.53
192.704	50.86
192.923	5.8
193.142	7.85
193.362	30.38
193.581	87.72
193.8	34.47
194.02	16.04
194.239	32.43
194.458	54.95
194.678	1.71
194.897	40.62
195.116	28.33
195.335	93.87
195.555	110.25
195.774	59.05
195.993	44.71
196.212	20.14
196.432	7.85
196.651	20.14
196.87	63.15
197.089	24.23
197.308	-16.73
197.528	30.38
197.747	-31.06
197.966	20.14
198.185	46.76
198.404	36.52
198.623	18.09
198.842	95.91
199.062	-0.34
199.281	-18.77
199.5	28.33
199.719	13.99
199.938	16.04
200.157	20.14
200.376	61.1
200.595	44.71
200.814	-4.44
201.033	30.38
201.252	34.47
201.471	110.25
201.69	42.67
201.909	20.14
202.128	3.75
202.347	91.82
202.566	28.33
202.785	48.81
203.004	36.52
203.223	22.19
203.442	71.34
203.661	61.1
203.879	50.86
204.098	13.99
204.317	20.14
204.536	73.39
204.755	7.85
204.974	32.43
205.193	22.19
205.411	52.91
205.63	24.23
205.849	44.71
206.068	57
206.287	59.05
206.505	46.76
206.724	52.91
206.943	1.71
207.162	-0.34
207.381	42.67
207.599	28.33
207.818	26.28
208.037	-8.53
208.255	44.71
208.474	48.81
208.693	-4.44
208.911	73.39
209.13	22.19
209.349	-10.58
209.567	32.43
209.786	57
210.005	22.19
210.223	48.81
210.442	32.43
210.661	91.82
210.879	13.99
211.098	54.95
211.316	57
211.535	26.28
211.753	-8.53
211.972	65.19
212.191	-33.11
212.409	91.82
212.628	34.47
212.846	-2.39
213.065	30.38
213.283	52.91
213.502	59.05
213.72	32.43
213.938	-8.53
214.157	1.71
214.375	-29.01
214.594	28.33
214.812	102.06
215.031	118.44
215.249	46.76
215.467	42.67
215.686	-37.2
215.904	24.23
216.122	9.9
216.341	93.87
216.559	-10.58
216.778	112.3
216.996	9.9
217.214	79.53
217.432	79.53
217.651	73.39
217.869	42.67
218.087	-59.73
218.306	79.53
218.524	-35.16
218.742	18.09
218.96	20.14
219.179	-18.77
219.397	-35.16
219.615	106.15
219.833	52.91
220.051	-24.92
220.27	42.67
220.488	114.34
220.706	20.14
220.924	61.1
221.142	1.71
221.36	32.43
221.578	-2.39
221.796	61.1
222.015	75.43
222.233	48.81
222.451	61.1
222.669	-47.44
222.887	77.48
223.105	48.81
223.323	48.81
223.541	73.39
223.759	9.9
223.977	20.14
224.195	50.86
224.413	24.23
224.631	61.1
224.849	57
225.067	32.43
225.285	11.95
225.503	77.48
225.721	61.1
225.939	44.71
226.157	13.99
226.375	89.77
226.592	81.58
226.81	24.23
227.028	95.91
227.246	93.87
227.464	1.71
227.682	30.38
227.9	-2.39
228.117	-4.44
228.335	30.38
228.553	38.57
228.771	69.29
228.989	57
229.206	102.06
229.424	34.47
229.642	-57.68
229.86	5.8
230.077	44.71
230.295	46.76
230.513	22.19
230.731	75.43
230.948	26.28
231.166	75.43
231.384	-2.39
231.601	-4.44
231.819	7.85
232.037	59.05
232.254	57
232.472	28.33
232.689	-26.96
232.907	50.86
233.125	75.43
233.342	-20.82
233.56	54.95
233.777	-20.82
233.995	100.01
234.213	79.53
234.43	-6.49
234.648	-53.59
234.865	57
235.083	81.58
235.3	-80.21
235.518	104.11
235.735	108.2
235.953	93.87
236.17	61.1
236.388	28.33
236.605	-37.2
236.822	-16.73
237.04	40.62
237.257	-29.01
237.475	-61.78
237.692	110.25
237.909	57
238.127	-37.2
238.344	44.71
238.562	57
238.779	-4.44
238.996	20.14
239.214	-14.68
239.431	77.48
239.648	11.95
239.865	36.52
240.083	38.57
240.3	-20.82
240.517	-8.53
240.735	-20.82
240.952	81.58
241.169	163.5
241.386	81.58
241.603	-22.87
241.821	61.1
242.038	108.2
242.255	75.43
242.472	81.58
242.689	50.86
242.907	-4.44
243.124	30.38
243.341	44.71
243.558	24.23
243.775	67.24
243.992	16.04
244.209	-0.34
244.426	16.04
244.643	97.96
244.86	28.33
245.078	57
245.295	59.05
245.512	-18.77
245.729	-12.63
245.946	63.15
246.163	48.81
246.38	18.09
246.597	46.76
246.814	-4.44
247.031	34.47
247.248	75.43
247.464	50.86
247.681	-6.49
247.898	28.33
248.115	11.95
248.332	42.67
248.549	93.87
248.766	52.91
248.983	26.28
249.2	13.99
249.417	9.9
249.633	57
249.85	-0.34
250.067	13.99
250.284	52.91
250.501	40.62
250.717	59.05
250.934	54.95
251.151	-57.68
251.368	-10.58
251.585	44.71
251.801	52.91
252.018	22.19
252.235	69.29
252.451	5.8
252.668	89.77
252.885	46.76
253.102	46.76
253.318	50.86
253.535	30.38
253.752	67.24
253.968	81.58
254.185	71.34
254.401	9.9
254.618	50.86
254.835	67.24
255.051	59.05
255.268	89.77
255.484	83.63
255.701	-18.77
255.917	40.62
256.134	87.72
256.351	20.14
256.567	30.38
256.784	40.62
257	22.19
257.217	65.19
257.433	36.52
257.65	65.19
257.866	85.67
258.082	11.95
258.299	-31.06
258.515	69.29
258.732	-2.39
258.948	32.43
259.165	93.87
259.381	75.43
259.597	24.23
259.814	40.62
260.03	22.19
260.246	5.8
260.463	65.19
260.679	100.01
260.895	77.48
261.112	89.77
261.328	130.73
261.544	118.44
261.761	95.91
261.977	-35.16
262.193	59.05
262.409	65.19
262.626	24.23
262.842	-10.58
263.058	63.15
263.274	149.16
263.49	40.62
263.707	100.01
263.923	20.14
264.139	73.39
264.355	5.8
264.571	75.43
264.787	38.57
265.004	93.87
265.22	13.99
265.436	89.77
265.652	-0.34
265.868	16.04
266.084	-24.92
266.3	-45.4
266.516	48.81
266.732	59.05
266.948	20.14
267.164	57
267.38	16.04
267.596	93.87
267.812	57
268.028	57
268.244	13.99
268.46	63.15
268.676	-35.16
268.892	44.71
269.108	32.43
269.324	7.85
269.54	-0.34
269.756	73.39
269.972	16.04
270.188	20.14
270.403	1.71
270.619	44.71
270.835	38.57
271.051	16.04
271.267	-6.49
271.483	48.81
271.698	-12.63
271.914	63.15
272.13	26.28
272.346	-8.53
272.562	32.43
272.777	44.71
272.993	9.9
273.209	20.14
273.425	16.04
273.64	61.1
273.856	-29.01
274.072	-24.92
274.287	52.91
274.503	69.29
274.719	1.71
274.934	5.8
275.15	7.85
275.366	5.8
275.581	-51.54
275.797	71.34
276.012	-2.39
276.228	1.71
276.444	3.75
276.659	48.81
276.875	44.71
277.09	-4.44
277.306	-8.53
277.521	46.76
277.737	34.47
277.952	91.82
278.168	44.71
278.383	50.86
278.599	-2.39
278.814	28.33
279.03	34.47
279.245	-20.82
279.461	81.58
279.676	110.25
279.892	77.48
280.107	36.52
280.322	16.04
280.538	54.95
280.753	-6.49
280.969	16.04
281.184	97.96
281.399	7.85
281.615	13.99
281.83	59.05
282.045	-26.96
282.26	65.19
282.476	44.71
282.691	73.39
282.906	30.38
283.122	89.77
283.337	40.62
283.552	87.72
283.767	67.24
283.983	83.63
284.198	32.43
284.413	71.34
284.628	44.71
284.843	54.95
285.058	36.52
285.274	-24.92
285.489	22.19
285.704	-0.34
285.919	24.23
286.134	24.23
286.349	-29.01
286.564	11.95
286.779	16.04
286.995	48.81
287.21	1.71
287.425	63.15
287.64	18.09
287.855	77.48
288.07	-55.64
288.285	89.77
288.5	36.52
288.715	61.1
288.93	38.57
289.145	-14.68
289.36	42.67
289.575	44.71
289.79	75.43
290.004	77.48
290.219	1.71
290.434	93.87
290.649	71.34
290.864	38.57
291.079	13.99
291.294	95.91
291.509	110.25
291.724	48.81
291.938	-31.06
292.153	83.63
292.368	-37.2
292.583	38.57
292.798	75.43
293.012	93.87
293.227	-45.4
293.442	30.38
293.657	18.09
293.871	85.67
294.086	-20.82
294.301	20.14
294.516	11.95
294.73	20.14
294.945	46.76
295.16	20.14
295.374	-8.53
295.589	83.63
295.804	77.48
296.018	-8.53
296.233	73.39
296.447	32.43
296.662	69.29
296.877	71.34
297.091	83.63
297.306	28.33
297.52	54.95
297.735	71.34
297.949	89.77
298.164	36.52
298.378	32.43
298.593	-2.39
298.807	-24.92
299.022	-51.54
299.236	77.48
299.451	-2.39
299.665	81.58
299.88	38.57
300.094	-0.34
300.309	30.38
300.523	-12.63
300.737	-18.77
300.952	9.9
301.166	57
301.381	16.04
301.595	20.14
301.809	32.43
302.024	50.86
302.238	26.28
302.452	-0.34
302.667	16.04
302.881	50.86
303.095	5.8
303.309	-12.63
303.524	73.39
303.738	-2.39
303.952	-33.11
304.166	61.1
304.381	7.85
304.595	71.34
304.809	-18.77
305.023	11.95
305.237	73.39
305.452	54.95
305.666	20.14
305.88	34.47
306.094	32.43
306.308	61.1
306.522	11.95
306.736	69.29
306.95	65.19
307.164	59.05
307.379	16.04
307.593	102.06
307.807	40.62
308.021	54.95
308.235	59.05
308.449	140.97
308.663	1.71
308.877	93.87
309.091	71.34
309.305	44.71
309.519	50.86
309.733	67.24
309.947	34.47
310.161	110.25
310.374	95.91
310.588	-22.87
310.802	5.8
311.016	22.19
311.23	46.76
311.444	18.09
311.658	-2.39
311.872	77.48
312.085	91.82
312.299	79.53
312.513	50.86
312.727	-2.39
312.941	16.04
313.154	71.34
313.368	-8.53
313.582	57
313.796	52.91
314.009	5.8
314.223	28.33
314.437	24.23
314.651	24.23
314.864	36.52
315.078	-18.77
315.292	11.95
315.505	30.38
315.719	95.91
315.933	73.39
316.146	100.01
316.36	104.11
316.573	57
316.787	89.77
317.001	30.38
317.214	11.95
317.428	30.38
317.641	24.23
317.855	18.09
318.068	81.58
318.282	16.04
318.495	-31.06
318.709	128.68
318.922	75.43
319.136	91.82
319.349	120.49
319.563	20.14
319.776	20.14
319.99	28.33
320.203	7.85
320.417	52.91
320.63	7.85
320.843	81.58
321.057	-8.53
321.27	38.57
321.483	87.72
321.697	106.15
321.91	57
322.124	52.91
322.337	54.95
322.55	81.58
322.763	24.23
322.977	73.39
323.19	87.72
323.403	30.38
323.617	28.33
323.83	79.53
324.043	11.95
324.256	69.29
324.469	-0.34
324.683	118.44
324.896	71.34
325.109	-20.82
325.322	16.04
325.535	-0.34
325.748	89.77
325.962	34.47
326.175	89.77
326.388	5.8
326.601	65.19
326.814	9.9
327.027	54.95
327.24	-41.3
327.453	-8.53
327.666	50.86
327.879	-45.4
328.092	7.85
328.305	106.15
328.518	5.8
328.731	52.91
328.944	91.82
329.157	48.81
329.37	42.67
329.583	89.77
329.796	28.33
330.009	20.14
330.222	-16.73
330.435	-10.58
330.648	69.29
330.861	81.58
331.073	52.91
331.286	63.15
331.499	63.15
331.712	73.39
331.925	34.47
332.138	87.72
332.35	63.15
332.563	16.04
332.776	36.52
332.989	5.8
333.202	67.24
333.414	73.39
333.627	-72.02
333.84	-6.49
334.053	50.86
334.265	-26.96
334.478	175.78
334.691	54.95
334.903	73.39
335.116	16.04
335.329	22.19
335.541	69.29
335.754	22.19
335.966	57
336.179	34.47
336.392	57
336.604	-18.77
336.817	5.8
337.029	36.52
337.242	22.19
337.454	100.01
337.667	87.72
337.88	97.96
338.092	46.76
338.305	18.09
338.517	89.77
338.729	24.23
338.942	63.15
339.154	-0.34
339.367	38.57
339.579	149.16
339.792	69.29
340.004	20.14
340.217	71.34
340.429	30.38
340.641	44.71
340.854	-24.92
341.066	-29.01
341.278	65.19
341.491	100.01
341.703	32.43
341.915	32.43
342.128	75.43
342.34	97.96
342.552	46.76
342.764	-35.16
342.977	32.43
343.189	5.8
343.401	40.62
343.613	32.43
343.826	38.57
344.038	50.86
344.25	-47.44
344.462	34.47
344.674	65.19
344.886	65.19
345.099	46.76
345.311	22.19
345.523	57
345.735	1.71
345.947	30.38
346.159	83.63
346.371	28.33
346.583	28.33
346.795	81.58
347.007	-16.73
347.219	34.47
347.431	85.67
347.643	48.81
347.855	59.05
348.067	71.34
348.279	-2.39
348.491	22.19
348.703	87.72
348.915	30.38
349.127	16.04
349.339	42.67
349.551	13.99
349.763	13.99
349.975	81.58
350.187	104.11
350.399	36.52
350.61	1.71
350.822	1.71
351.034	81.58
351.246	83.63
351.458	46.76
351.669	89.77
351.881	114.34
352.093	11.95
352.305	85.67
352.517	73.39
352.728	65.19
352.94	7.85
353.152	71.34
353.363	16.04
353.575	-8.53
353.787	18.09
353.999	59.05
354.21	114.34
354.422	50.86
354.633	-26.96
354.845	38.57
355.057	11.95
355.268	95.91
355.48	22.19
355.692	40.62
355.903	-2.39
356.115	52.91
356.326	54.95
356.538	26.28
356.749	44.71
356.961	69.29
357.172	13.99
357.384	-0.34
357.595	106.15
357.807	63.15
358.018	46.76
358.23	89.77
358.441	91.82
358.653	42.67
358.864	100.01
359.075	-20.82
359.287	42.67
359.498	-8.53
359.709	67.24
359.921	-2.39
360.132	50.86
360.344	20.14
360.555	63.15
360.766	-0.34
360.977	20.14
361.189	75.43
361.4	42.67
361.611	132.78
361.823	32.43
362.034	13.99
362.245	18.09
362.456	65.19
362.667	42.67
362.879	69.29
363.09	54.95
363.301	52.91
363.512	22.19
363.723	18.09
363.935	26.28
364.146	9.9
364.357	28.33
364.568	50.86
364.779	-47.44
364.99	50.86
365.201	5.8
365.412	38.57
365.623	-35.16
365.834	106.15
366.045	104.11
366.256	81.58
366.467	20.14
366.678	50.86
366.889	65.19
367.1	18.09
367.311	118.44
367.522	83.63
367.733	48.81
367.944	134.82
368.155	18.09
368.366	85.67
368.577	-18.77
368.788	34.47
368.999	3.75
369.209	100.01
369.42	120.49
369.631	28.33
369.842	24.23
370.053	112.3
370.264	5.8
370.474	32.43
370.685	102.06
370.896	91.82
371.107	20.14
371.317	63.15
371.528	16.04
371.739	73.39
371.95	36.52
372.16	5.8
372.371	-12.63
372.582	77.48
372.792	100.01
373.003	42.67
373.214	46.76
373.424	26.28
373.635	5.8
373.846	65.19
374.056	50.86
374.267	24.23
374.477	3.75
374.688	52.91
374.898	93.87
375.109	50.86
375.319	89.77
375.53	126.63
375.74	106.15
375.951	24.23
376.161	65.19
376.372	102.06
376.582	-4.44
376.793	73.39
377.003	52.91
377.214	81.58
377.424	32.43
377.635	30.38
377.845	13.99
378.055	87.72
378.266	30.38
378.476	52.91
378.686	44.71
378.897	65.19
379.107	65.19
379.317	136.87
379.528	34.47
379.738	118.44
379.948	24.23
380.158	69.29
380.369	81.58
380.579	95.91
380.789	32.43
380.999	38.57
381.21	11.95
381.42	59.05
381.63	63.15
381.84	102.06
382.05	124.58
382.261	44.71
382.471	91.82
382.681	5.8
382.891	57
383.101	44.71
383.311	-8.53
383.521	40.62
383.731	61.1
383.941	122.54
384.151	7.85
384.361	44.71
384.571	59.05
384.781	73.39
384.991	32.43
385.201	32.43
385.411	69.29
385.621	83.63
385.831	34.47
386.041	-2.39
386.251	69.29
386.461	79.53
386.671	81.58
386.881	77.48
387.091	5.8
387.301	97.96
387.511	63.15
387.72	40.62
387.93	69.29
388.14	-16.73
388.35	-24.92
388.56	-12.63
388.769	69.29
388.979	40.62
389.189	59.05
389.399	34.47
389.609	28.33
389.818	140.97
390.028	128.68
390.238	11.95
390.447	7.85
390.657	128.68
390.867	-4.44
391.076	42.67
391.286	114.34
391.496	87.72
391.705	61.1
391.915	118.44
392.125	40.62
392.334	69.29
392.544	120.49
392.753	34.47
392.963	69.29
393.172	102.06
393.382	-2.39
393.591	147.11
393.801	136.87
394.01	63.15
394.22	93.87
394.429	71.34
394.639	79.53
394.848	85.67
395.058	116.39
395.267	81.58
395.477	130.73
395.686	40.62
395.895	75.43
396.105	102.06
396.314	138.92
396.524	116.39
396.733	65.19
396.942	110.25
397.152	36.52
397.361	57
397.57	81.58
397.78	46.76
397.989	192.17
398.198	100.01
398.407	65.19
398.617	85.67
398.826	-8.53
399.035	59.05
399.244	118.44
399.453	100.01
399.663	57
399.872	81.58
400.081	124.58
400.29	183.98
400.499	65.19
400.708	85.67
400.917	100.01
401.127	155.3
401.336	65.19
401.545	149.16
401.754	77.48
401.963	91.82
402.172	97.96
402.381	63.15
402.59	87.72
402.799	89.77
403.008	118.44
403.217	75.43
403.426	81.58
403.635	108.2
403.844	173.74
404.053	171.69
404.262	114.34
404.471	181.93
404.68	147.11
404.888	73.39
405.097	163.5
405.306	235.18
405.515	118.44
405.724	100.01
405.933	194.22
406.142	95.91
406.35	231.08
406.559	179.88
406.768	173.74
406.977	171.69
407.185	147.11
407.394	114.34
407.603	179.88
407.812	218.79
408.02	179.88
408.229	226.98
408.438	202.41
408.646	196.26
408.855	214.7
409.064	253.61
409.272	272.04
409.481	249.51
409.69	247.46
409.898	251.56
410.107	315.05
410.315	321.19
410.524	196.26
410.733	220.84
410.941	272.04
411.15	323.24
411.358	304.81
411.567	286.37
411.775	294.57
411.984	380.58
412.192	315.05
412.401	458.4
412.609	382.63
412.818	513.7
413.026	411.3
413.234	405.16
413.443	433.83
413.651	458.4
413.86	358.05
414.068	536.23
414.276	478.88
414.485	474.79
414.693	587.43
414.901	515.75
415.11	513.7
415.318	566.95
415.526	607.91
415.734	612
415.943	691.87
416.151	636.58
416.359	667.3
416.567	806.56
416.776	761.5
416.984	726.69
417.192	802.46
417.4	708.26
417.608	792.22
417.817	784.03
418.025	845.47
418.233	943.77
418.441	933.53
418.649	954.01
418.857	1011.36
419.065	1076.89
419.273	1044.12
419.481	1099.42
419.689	1089.18
419.897	1156.76
420.105	1203.86
420.313	1205.91
420.521	1285.78
420.729	1306.26
420.937	1406.61
421.145	1363.61
421.353	1474.2
421.561	1453.72
421.769	1578.64
421.977	1699.47
422.185	1576.59
422.393	1674.9
422.601	1826.45
422.809	1756.82
423.017	1752.72
423.224	1840.78
423.432	2006.67
423.64	1914.51
423.848	2193.03
424.056	1969.8
424.263	2221.7
424.471	2256.52
424.679	2164.36
424.887	2492.04
425.094	2510.47
425.302	2604.67
425.51	2649.73
425.718	2612.87
425.925	2619.01
426.133	2817.66
426.341	3038.84
426.548	3141.24
426.756	2940.54
426.964	3169.91
427.171	3280.5
427.379	3372.66
427.586	3462.77
427.794	3595.89
428.001	3774.07
428.209	3812.98
428.417	3882.61
428.624	4263.53
428.832	4208.23
429.039	4011.63
429.247	4052.59
429.454	4466.28
429.662	4691.56
429.869	4367.98
430.076	4808.29
430.284	4730.47
430.491	4699.75
430.699	5178.97
430.906	5049.95
431.114	5144.16
431.321	5437.02
431.528	5443.16
431.736	5797.46
431.943	6010.45
432.15	5891.66
432.358	5848.66
432.565	6303.31
432.772	6334.03
432.979	6692.42
433.187	6831.68
433.394	6725.19
433.601	7157.31
433.808	7202.36
434.016	7198.27
434.223	7296.57
434.43	8064.56
434.637	7667.25
434.844	8199.73
435.052	8449.58
435.259	8306.22
435.466	8474.15
435.673	8175.15
435.88	8949.28
436.087	9342.49
436.294	9426.46
436.501	9225.76
436.708	9420.31
436.915	9565.72
437.122	9901.59
437.329	9991.7
437.537	10194.45
437.743	10645
437.95	10567.18
438.157	10933.76
438.364	11441.66
438.571	11126.27
438.778	11312.64
438.985	12520.94
439.192	11900.41
439.399	12391.92
439.606	12084.72
439.813	12711.4
440.02	13532.64
440.227	13116.9
440.433	13014.5
440.64	13719
440.847	13589.98
441.054	13762.01
441.261	14554.57
441.467	14411.21
441.674	14996.93
441.881	15470.01
442.088	15281.6
442.294	15179.2
442.501	15404.48
442.708	16057.78
442.914	16776.62
443.121	17231.27
443.328	16821.67
443.534	17804.7
443.741	17288.61
443.948	17163.68
444.154	18636.17
444.361	18269.59
444.568	18638.22
444.774	18341.27
444.981	18515.34
445.187	19074.44
445.394	20024.7
445.6	19891.58
445.807	21607.78
446.013	20614.51
446.22	21163.37
446.426	21943.64
446.633	22039.9
446.839	22531.41
447.046	21792.09
447.252	23049.55
447.459	23260.49
447.665	23285.06
447.871	23663.94
448.078	24714.55
448.284	23493.96
448.491	24366.39
448.697	25273.64
448.903	25955.61
449.11	25605.41
449.316	25191.72
449.522	26088.73
449.728	26586.39
449.935	26805.52
450.141	26598.68
450.347	27161.87
450.553	26469.65
450.76	26494.23
450.966	27536.65
451.172	27297.03
451.378	28157.18
451.584	27499.78
451.791	28015.87
451.997	27888.9
452.203	28392.7
452.409	28273.92
452.615	28159.23
452.821	26821.91
453.027	27006.22
453.233	28255.48
453.44	27043.09
453.646	27671.81
453.852	27630.85
454.058	27905.28
454.264	26533.14
454.47	27553.03
454.676	26819.86
454.882	27819.27
455.088	25224.49
455.294	25816.35
455.5	25980.19
455.705	26389.78
455.911	25316.65
456.117	24782.13
456.323	24470.84
456.529	22992.2
456.735	23942.46
456.941	23053.64
457.147	22969.68
457.352	22097.24
457.558	22154.58
457.764	22230.36
457.97	21857.63
458.176	21253.48
458.381	21054.83
458.587	20188.53
458.793	20292.98
458.999	19047.82
459.204	20663.66
459.41	19914.11
459.616	18517.39
459.821	18421.14
460.027	18548.11
460.233	18017.69
460.438	17159.59
460.644	17548.7
460.85	16489.9
461.055	16571.82
461.261	16307.63
461.466	15187.39
461.672	14626.25
461.878	15728.06
462.083	14466.51
462.289	14409.17
462.494	14181.84
462.7	13665.75
462.905	13463.01
463.111	14007.76
463.316	14009.81
463.522	13526.49
463.727	13669.85
463.932	13467.1
464.138	13385.18
464.343	13350.37
464.549	13030.88
464.754	13524.44
464.959	13534.68
465.165	13092.32
465.37	12840.42
465.575	12447.21
465.781	12877.29
465.986	13053.41
466.191	12531.18
466.397	12260.85
466.602	11552.25
466.807	12154.35
467.012	12152.31
467.218	12088.82
467.423	11953.65
467.628	12113.39
467.833	12332.53
468.038	12080.63
468.244	11689.46
468.449	12201.46
468.654	11851.25
468.859	11746.81
