Data from USB4F104151__110__11-07-15-078.txt Node

Date: Wed Mar 12 11:07:15 EDT 2025
User: louis
Spectrometer: USB4F10415
Trigger mode: 4
Integration Time (sec): 2.000000E-2
Scans to average: 1
Electric dark correction enabled: true
Nonlinearity correction enabled: false
Boxcar width: 0
XAxis mode: Wavelengths
Number of Pixels in Spectrum: 3648
>>>>>Begin Spectral Data<<<<<
178.204	-102.23
178.424	-102.23
178.644	-102.23
178.864	-124.76
179.084	-51.03
179.304	-34.64
179.524	-40.79
179.744	30.89
179.964	34.99
180.184	-26.45
180.404	-5.97
180.624	-18.26
180.844	65.71
181.064	-14.17
181.283	0.17
181.503	12.46
181.723	-3.93
181.943	-34.64
182.163	-20.31
182.383	-20.31
182.602	45.23
182.822	10.41
183.042	41.13
183.262	32.94
183.482	-12.12
183.701	86.19
183.921	39.08
184.141	24.75
184.361	67.75
184.58	-1.88
184.8	18.6
185.02	2.22
185.239	0.17
185.459	22.7
185.679	51.37
185.898	26.79
186.118	71.85
186.338	24.75
186.557	30.89
186.777	-28.5
186.997	2.22
187.216	16.55
187.436	2.22
187.655	34.99
187.875	30.89
188.095	30.89
188.314	-24.4
188.534	59.56
188.753	80.04
188.973	37.03
189.192	47.27
189.412	8.36
189.631	43.18
189.851	-28.5
190.07	47.27
190.29	-38.74
190.509	16.55
190.729	51.37
190.948	43.18
191.168	28.84
191.387	-14.17
191.607	-42.84
191.826	47.27
192.045	67.75
192.265	18.6
192.484	80.04
192.704	-8.02
192.923	-85.84
193.142	164.01
193.362	34.99
193.581	98.47
193.8	28.84
194.02	63.66
194.239	8.36
194.458	30.89
194.678	61.61
194.897	-5.97
195.116	22.7
195.335	98.47
195.555	110.76
195.774	12.46
195.993	26.79
196.212	45.23
196.432	-14.17
196.651	14.51
196.87	24.75
197.089	96.43
197.308	90.28
197.528	26.79
197.747	10.41
197.966	12.46
198.185	110.76
198.404	34.99
198.623	49.32
198.842	-18.26
199.062	41.13
199.281	24.75
199.5	59.56
199.719	121
199.938	22.7
200.157	90.28
200.376	-22.36
200.595	-3.93
200.814	-8.02
201.033	-14.17
201.252	90.28
201.471	-20.31
201.69	18.6
201.909	22.7
202.128	71.85
202.347	0.17
202.566	-18.26
202.785	-34.64
203.004	-3.93
203.223	34.99
203.442	34.99
203.661	96.43
203.879	10.41
204.098	96.43
204.317	49.32
204.536	80.04
204.755	6.31
204.974	102.57
205.193	-1.88
205.411	125.1
205.63	6.31
205.849	51.37
206.068	-3.93
206.287	26.79
206.505	65.71
206.724	-20.31
206.943	43.18
207.162	80.04
207.381	22.7
207.599	2.22
207.818	61.61
208.037	16.55
208.255	12.46
208.474	59.56
208.693	6.31
208.911	67.75
209.13	20.65
209.349	34.99
209.567	73.9
209.786	53.42
210.005	-22.36
210.223	37.03
210.442	-14.17
210.661	28.84
210.879	39.08
211.098	-1.88
211.316	49.32
211.535	59.56
211.753	34.99
211.972	6.31
212.191	8.36
212.409	55.47
212.628	22.7
212.846	26.79
213.065	63.66
213.283	4.27
213.502	6.31
213.72	73.9
213.938	-40.79
214.157	6.31
214.375	-18.26
214.594	-10.07
214.812	90.28
215.031	39.08
215.249	73.9
215.467	49.32
215.686	75.95
215.904	71.85
216.122	88.23
216.341	39.08
216.559	-3.93
216.778	149.67
216.996	63.66
217.214	26.79
217.432	49.32
217.651	55.47
217.869	-3.93
218.087	110.76
218.306	26.79
218.524	30.89
218.742	-73.56
218.96	6.31
219.179	49.32
219.397	84.14
219.615	65.71
219.833	39.08
220.051	-10.07
220.27	71.85
220.488	73.9
220.706	53.42
220.924	14.51
221.142	28.84
221.36	18.6
221.578	86.19
221.796	-16.21
222.015	45.23
222.233	10.41
222.451	47.27
222.669	-48.98
222.887	71.85
223.105	14.51
223.323	37.03
223.541	37.03
223.759	32.94
223.977	69.8
224.195	26.79
224.413	24.75
224.631	63.66
224.849	47.27
225.067	59.56
225.285	57.51
225.503	-59.22
225.721	-16.21
225.939	90.28
226.157	-32.6
226.375	26.79
226.592	24.75
226.81	34.99
227.028	37.03
227.246	63.66
227.464	43.18
227.682	53.42
227.9	92.33
228.117	12.46
228.335	-8.02
228.553	55.47
228.771	-57.17
228.989	-8.02
229.206	-1.88
229.424	10.41
229.642	45.23
229.86	34.99
230.077	102.57
230.295	75.95
230.513	14.51
230.731	16.55
230.948	51.37
231.166	18.6
231.384	4.27
231.601	34.99
231.819	-3.93
232.037	-22.36
232.254	2.22
232.472	77.99
232.689	22.7
232.907	106.67
233.125	-24.4
233.342	-20.31
233.56	-12.12
233.777	-3.93
233.995	-18.26
234.213	63.66
234.43	39.08
234.648	96.43
234.865	26.79
235.083	20.65
235.3	-1.88
235.518	18.6
235.735	34.99
235.953	55.47
236.17	114.86
236.388	34.99
236.605	34.99
236.822	47.27
237.04	37.03
237.257	37.03
237.475	-63.32
237.692	37.03
237.909	43.18
238.127	22.7
238.344	-10.07
238.562	24.75
238.779	-40.79
238.996	2.22
239.214	10.41
239.431	57.51
239.648	-38.74
239.865	0.17
240.083	86.19
240.3	59.56
240.517	55.47
240.735	14.51
240.952	98.47
241.169	63.66
241.386	34.99
241.603	8.36
241.821	28.84
242.038	94.38
242.255	37.03
242.472	30.89
242.689	4.27
242.907	53.42
243.124	12.46
243.341	41.13
243.558	41.13
243.775	73.9
243.992	-18.26
244.209	63.66
244.426	118.95
244.643	63.66
244.86	41.13
245.078	0.17
245.295	4.27
245.512	34.99
245.729	26.79
245.946	20.65
246.163	41.13
246.38	86.19
246.597	37.03
246.814	6.31
247.031	86.19
247.248	43.18
247.464	43.18
247.681	14.51
247.898	51.37
248.115	63.66
248.332	34.99
248.549	-5.97
248.766	18.6
248.983	26.79
249.2	51.37
249.417	92.33
249.633	77.99
249.85	65.71
250.067	65.71
250.284	100.52
250.501	84.14
250.717	80.04
250.934	-20.31
251.151	43.18
251.368	24.75
251.585	30.89
251.801	2.22
252.018	18.6
252.235	71.85
252.451	82.09
252.668	-81.75
252.885	47.27
253.102	43.18
253.318	43.18
253.535	84.14
253.752	47.27
253.968	57.51
254.185	26.79
254.401	-10.07
254.618	-26.45
254.835	0.17
255.051	49.32
255.268	37.03
255.484	47.27
255.701	59.56
255.917	37.03
256.134	43.18
256.351	65.71
256.567	65.71
256.784	55.47
257	8.36
257.217	-10.07
257.433	100.52
257.65	30.89
257.866	57.51
258.082	63.66
258.299	-46.93
258.515	41.13
258.732	14.51
258.948	10.41
259.165	65.71
259.381	77.99
259.597	24.75
259.814	20.65
260.03	0.17
260.246	53.42
260.463	61.61
260.679	82.09
260.895	-8.02
261.112	61.61
261.328	34.99
261.544	14.51
261.761	86.19
261.977	16.55
262.193	-38.74
262.409	63.66
262.626	28.84
262.842	0.17
263.058	45.23
263.274	24.75
263.49	102.57
263.707	71.85
263.923	4.27
264.139	41.13
264.355	37.03
264.571	75.95
264.787	10.41
265.004	102.57
265.22	-3.93
265.436	39.08
265.652	92.33
265.868	26.79
266.084	-14.17
266.3	75.95
266.516	-38.74
266.732	-32.6
266.948	59.56
267.164	24.75
267.38	59.56
267.596	80.04
267.812	71.85
268.028	-5.97
268.244	49.32
268.46	-12.12
268.676	51.37
268.892	55.47
269.108	-59.22
269.324	-5.97
269.54	-67.41
269.756	-1.88
269.972	14.51
270.188	22.7
270.403	-24.4
270.619	-18.26
270.835	73.9
271.051	-38.74
271.267	75.95
271.483	53.42
271.698	116.9
271.914	41.13
272.13	-3.93
272.346	-48.98
272.562	39.08
272.777	14.51
272.993	32.94
273.209	18.6
273.425	12.46
273.64	30.89
273.856	16.55
274.072	63.66
274.287	6.31
274.503	67.75
274.719	37.03
274.934	75.95
275.15	24.75
275.366	12.46
275.581	-16.21
275.797	43.18
276.012	125.1
276.228	30.89
276.444	84.14
276.659	12.46
276.875	-1.88
277.09	96.43
277.306	8.36
277.521	137.38
277.737	-26.45
277.952	98.47
278.168	-3.93
278.383	69.8
278.599	41.13
278.814	43.18
279.03	30.89
279.245	18.6
279.461	77.99
279.676	14.51
279.892	-32.6
280.107	86.19
280.322	-28.5
280.538	37.03
280.753	20.65
280.969	10.41
281.184	39.08
281.399	90.28
281.615	43.18
281.83	26.79
282.045	63.66
282.26	75.95
282.476	-55.12
282.691	71.85
282.906	63.66
283.122	73.9
283.337	41.13
283.552	26.79
283.767	34.99
283.983	32.94
284.198	86.19
284.413	73.9
284.628	-26.45
284.843	75.95
285.058	90.28
285.274	65.71
285.489	22.7
285.704	80.04
285.919	16.55
286.134	84.14
286.349	4.27
286.564	4.27
286.779	-1.88
286.995	84.14
287.21	37.03
287.425	59.56
287.64	22.7
287.855	55.47
288.07	-22.36
288.285	34.99
288.5	-14.17
288.715	63.66
288.93	41.13
289.145	-12.12
289.36	63.66
289.575	41.13
289.79	-16.21
290.004	43.18
290.219	10.41
290.434	18.6
290.649	53.42
290.864	22.7
291.079	69.8
291.294	18.6
291.509	10.41
291.724	39.08
291.938	10.41
292.153	108.71
292.368	-1.88
292.583	55.47
292.798	57.51
293.012	26.79
293.227	37.03
293.442	71.85
293.657	94.38
293.871	43.18
294.086	65.71
294.301	59.56
294.516	92.33
294.73	82.09
294.945	75.95
295.16	30.89
295.374	30.89
295.589	71.85
295.804	8.36
296.018	26.79
296.233	6.31
296.447	61.61
296.662	51.37
296.877	102.57
297.091	41.13
297.306	-1.88
297.52	71.85
297.735	14.51
297.949	22.7
298.164	41.13
298.378	34.99
298.593	-10.07
298.807	73.9
299.022	51.37
299.236	63.66
299.451	75.95
299.665	-22.36
299.88	80.04
300.094	47.27
300.309	41.13
300.523	82.09
300.737	65.71
300.952	-12.12
301.166	84.14
301.381	32.94
301.595	37.03
301.809	51.37
302.024	37.03
302.238	-1.88
302.452	77.99
302.667	4.27
302.881	116.9
303.095	-5.97
303.309	20.65
303.524	-1.88
303.738	57.51
303.952	43.18
304.166	75.95
304.381	39.08
304.595	94.38
304.809	34.99
305.023	0.17
305.237	67.75
305.452	47.27
305.666	71.85
305.88	10.41
306.094	30.89
306.308	59.56
306.522	28.84
306.736	30.89
306.95	-12.12
307.164	59.56
307.379	-8.02
307.593	96.43
307.807	92.33
308.021	2.22
308.235	2.22
308.449	37.03
308.663	94.38
308.877	110.76
309.091	116.9
309.305	51.37
309.519	14.51
309.733	61.61
309.947	20.65
310.161	30.89
310.374	24.75
310.588	34.99
310.802	47.27
311.016	86.19
311.23	8.36
311.444	90.28
311.658	20.65
311.872	135.34
312.085	75.95
312.299	69.8
312.513	63.66
312.727	59.56
312.941	41.13
313.154	28.84
313.368	22.7
313.582	47.27
313.796	22.7
314.009	14.51
314.223	82.09
314.437	63.66
314.651	22.7
314.864	106.67
315.078	0.17
315.292	90.28
315.505	-18.26
315.719	90.28
315.933	71.85
316.146	-30.55
316.36	41.13
316.573	84.14
316.787	73.9
317.001	69.8
317.214	12.46
317.428	57.51
317.641	75.95
317.855	92.33
318.068	30.89
318.282	30.89
318.495	39.08
318.709	51.37
318.922	121
319.136	22.7
319.349	112.81
319.563	59.56
319.776	45.23
319.99	16.55
320.203	82.09
320.417	34.99
320.63	88.23
320.843	98.47
321.057	22.7
321.27	24.75
321.483	47.27
321.697	2.22
321.91	82.09
322.124	127.14
322.337	4.27
322.55	49.32
322.763	28.84
322.977	20.65
323.19	57.51
323.403	-12.12
323.617	32.94
323.83	-48.98
324.043	20.65
324.256	28.84
324.469	80.04
324.683	63.66
324.896	26.79
325.109	20.65
325.322	16.55
325.535	90.28
325.748	22.7
325.962	22.7
326.175	14.51
326.388	-8.02
326.601	26.79
326.814	82.09
327.027	-1.88
327.24	24.75
327.453	16.55
327.666	129.19
327.879	77.99
328.092	-1.88
328.305	2.22
328.518	32.94
328.731	65.71
328.944	151.72
329.157	108.71
329.37	77.99
329.583	59.56
329.796	39.08
330.009	49.32
330.222	86.19
330.435	75.95
330.648	14.51
330.861	63.66
331.073	-3.93
331.286	114.86
331.499	-1.88
331.712	-10.07
331.925	30.89
332.138	43.18
332.35	90.28
332.563	55.47
332.776	47.27
332.989	2.22
333.202	47.27
333.414	39.08
333.627	49.32
333.84	73.9
334.053	51.37
334.265	63.66
334.478	-22.36
334.691	-5.97
334.903	49.32
335.116	6.31
335.329	24.75
335.541	77.99
335.754	16.55
335.966	10.41
336.179	75.95
336.392	75.95
336.604	34.99
336.817	51.37
337.029	-14.17
337.242	20.65
337.454	61.61
337.667	30.89
337.88	75.95
338.092	-1.88
338.305	22.7
338.517	10.41
338.729	12.46
338.942	41.13
339.154	84.14
339.367	20.65
339.579	43.18
339.792	32.94
340.004	16.55
340.217	73.9
340.429	-8.02
340.641	-8.02
340.854	43.18
341.066	12.46
341.278	174.25
341.491	106.67
341.703	-1.88
341.915	73.9
342.128	63.66
342.34	75.95
342.552	73.9
342.764	49.32
342.977	24.75
343.189	28.84
343.401	41.13
343.613	73.9
343.826	75.95
344.038	16.55
344.25	110.76
344.462	45.23
344.674	92.33
344.886	32.94
345.099	53.42
345.311	57.51
345.523	16.55
345.735	51.37
345.947	73.9
346.159	49.32
346.371	71.85
346.583	28.84
346.795	102.57
347.007	47.27
347.219	18.6
347.431	55.47
347.643	69.8
347.855	14.51
348.067	28.84
348.279	53.42
348.491	86.19
348.703	49.32
348.915	104.62
349.127	118.95
349.339	26.79
349.551	71.85
349.763	57.51
349.975	22.7
350.187	28.84
350.399	34.99
350.61	53.42
350.822	123.05
351.034	45.23
351.246	65.71
351.458	22.7
351.669	37.03
351.881	22.7
352.093	47.27
352.305	8.36
352.517	63.66
352.728	51.37
352.94	39.08
353.152	80.04
353.363	106.67
353.575	39.08
353.787	92.33
353.999	49.32
354.21	77.99
354.422	61.61
354.633	2.22
354.845	12.46
355.057	28.84
355.268	57.51
355.48	30.89
355.692	22.7
355.903	2.22
356.115	51.37
356.326	-8.02
356.538	90.28
356.749	77.99
356.961	82.09
357.172	59.56
357.384	51.37
357.595	88.23
357.807	-16.21
358.018	26.79
358.23	73.9
358.441	55.47
358.653	71.85
358.864	-3.93
359.075	26.79
359.287	59.56
359.498	88.23
359.709	34.99
359.921	43.18
360.132	45.23
360.344	12.46
360.555	-30.55
360.766	-12.12
360.977	92.33
361.189	77.99
361.4	127.14
361.611	86.19
361.823	82.09
362.034	73.9
362.245	0.17
362.456	57.51
362.667	30.89
362.879	30.89
363.09	53.42
363.301	12.46
363.512	47.27
363.723	8.36
363.935	80.04
364.146	37.03
364.357	2.22
364.568	28.84
364.779	86.19
364.99	110.76
365.201	43.18
365.412	75.95
365.623	102.57
365.834	63.66
366.045	61.61
366.256	30.89
366.467	67.75
366.678	51.37
366.889	59.56
367.1	26.79
367.311	43.18
367.522	47.27
367.733	75.95
367.944	86.19
368.155	65.71
368.366	39.08
368.577	77.99
368.788	131.24
368.999	34.99
369.209	59.56
369.42	59.56
369.631	88.23
369.842	110.76
370.053	43.18
370.264	6.31
370.474	77.99
370.685	96.43
370.896	96.43
371.107	133.29
371.317	77.99
371.528	80.04
371.739	77.99
371.95	41.13
372.16	88.23
372.371	82.09
372.582	22.7
372.792	90.28
373.003	30.89
373.214	77.99
373.424	96.43
373.635	34.99
373.846	86.19
374.056	-55.12
374.267	116.9
374.477	-5.97
374.688	59.56
374.898	100.52
375.109	32.94
375.319	63.66
375.53	90.28
375.74	73.9
375.951	51.37
376.161	53.42
376.372	67.75
376.582	2.22
376.793	22.7
377.003	94.38
377.214	20.65
377.424	90.28
377.635	71.85
377.845	-18.26
378.055	49.32
378.266	10.41
378.476	67.75
378.686	24.75
378.897	53.42
379.107	67.75
379.317	90.28
379.528	51.37
379.738	123.05
379.948	-14.17
380.158	57.51
380.369	90.28
380.579	59.56
380.789	59.56
380.999	77.99
381.21	26.79
381.42	92.33
381.63	67.75
381.84	121
382.05	88.23
382.261	4.27
382.471	80.04
382.681	43.18
382.891	86.19
383.101	102.57
383.311	51.37
383.521	53.42
383.731	57.51
383.941	96.43
384.151	-8.02
384.361	24.75
384.571	88.23
384.781	69.8
384.991	94.38
385.201	166.06
385.411	32.94
385.621	53.42
385.831	94.38
386.041	22.7
386.251	61.61
386.461	114.86
386.671	47.27
386.881	26.79
387.091	55.47
387.301	94.38
387.511	65.71
387.72	116.9
387.93	73.9
388.14	-18.26
388.35	30.89
388.56	86.19
388.769	41.13
388.979	139.43
389.189	71.85
389.399	71.85
389.609	127.14
389.818	106.67
390.028	47.27
390.238	71.85
390.447	92.33
390.657	125.1
390.867	106.67
391.076	-48.98
391.286	123.05
391.496	47.27
391.705	43.18
391.915	123.05
392.125	106.67
392.334	75.95
392.544	88.23
392.753	104.62
392.963	71.85
393.172	47.27
393.382	45.23
393.591	118.95
393.801	84.14
394.01	92.33
394.22	84.14
394.429	80.04
394.639	41.13
394.848	53.42
395.058	92.33
395.267	90.28
395.477	16.55
395.686	116.9
395.895	104.62
396.105	118.95
396.314	37.03
396.524	49.32
396.733	80.04
396.942	141.48
397.152	141.48
397.361	135.34
397.57	100.52
397.78	123.05
397.989	65.71
398.198	151.72
398.407	59.56
398.617	106.67
398.826	137.38
399.035	129.19
399.244	143.53
399.453	131.24
399.663	53.42
399.872	131.24
400.081	104.62
400.29	157.86
400.499	94.38
400.708	135.34
400.917	182.44
401.127	133.29
401.336	133.29
401.545	192.68
401.754	123.05
401.963	149.67
402.172	108.71
402.381	141.48
402.59	90.28
402.799	121
403.008	86.19
403.217	71.85
403.426	202.92
403.635	178.34
403.844	135.34
404.053	186.54
404.262	123.05
404.471	147.62
404.68	178.34
404.888	166.06
405.097	139.43
405.306	204.97
405.515	239.78
405.724	258.21
405.933	204.97
406.142	159.91
406.35	243.88
406.559	223.4
406.768	161.96
406.977	250.02
407.185	204.97
407.394	141.48
407.603	159.91
407.812	190.63
408.02	258.21
408.229	229.54
408.438	313.51
408.646	274.6
408.855	338.09
409.064	301.22
409.272	338.09
409.481	315.56
409.69	342.18
409.898	327.85
410.107	333.99
410.315	309.41
410.524	465.06
410.733	374.95
410.941	454.82
411.15	444.58
411.358	522.4
411.567	522.4
411.775	506.02
411.984	493.73
412.192	501.92
412.401	495.78
412.609	532.64
412.818	645.28
413.026	577.7
413.234	557.22
413.443	616.61
413.651	602.27
413.86	641.18
414.068	686.24
414.276	784.54
414.485	749.73
414.693	755.87
414.901	759.97
415.11	788.64
415.318	794.78
415.526	794.78
415.734	913.56
415.943	858.27
416.151	956.57
416.359	960.67
416.567	1020.06
416.776	938.14
416.984	1024.16
417.192	1104.03
417.4	1087.64
417.608	983.2
417.817	1120.41
418.025	1271.96
418.233	1378.45
418.441	1329.3
418.649	1421.46
418.857	1435.8
419.065	1530
419.273	1470.61
419.481	1562.77
419.689	1665.17
419.897	1685.65
420.105	1630.35
420.313	1652.88
420.521	1843.34
420.729	1912.97
420.937	1910.93
421.145	1964.17
421.353	2062.48
421.561	2099.34
421.769	2168.97
421.977	2326.66
422.185	2179.21
422.393	2373.77
422.601	2717.83
422.809	2732.16
423.017	2543.75
423.224	2726.02
423.432	2775.17
423.64	2785.41
423.848	3072.12
424.056	2930.81
424.263	3166.33
424.471	3156.09
424.679	3115.13
424.887	3364.98
425.094	3532.92
425.302	3686.51
425.51	3635.32
425.718	3803.25
425.925	3815.54
426.133	4114.54
426.341	4173.93
426.548	4429.93
426.756	4434.02
426.964	4530.28
427.171	4782.18
427.379	4950.11
427.586	5011.55
427.794	5027.93
428.001	5283.93
428.209	5447.77
428.417	5531.73
428.624	5916.75
428.832	5908.56
429.039	5773.39
429.247	5863.51
429.454	6414.41
429.662	6832.19
429.869	6438.98
430.076	6846.53
430.284	6559.81
430.491	7090.24
430.699	7292.99
430.906	7424.06
431.114	7413.82
431.321	7452.73
431.528	7907.38
431.736	8265.77
431.943	8745
432.15	8591.4
432.358	8476.71
432.565	9082.91
432.772	9078.82
432.979	9338.91
433.187	9678.87
433.394	9787.41
433.601	10510.35
433.808	10471.43
434.016	10295.31
434.223	10764.29
434.43	11542.52
434.637	11032.58
434.844	11792.37
435.052	12453.87
435.259	12050.42
435.466	12074.99
435.673	11806.71
435.88	12752.87
436.087	13350.88
436.294	13555.68
436.501	13205.47
436.708	13465.57
436.915	13952.98
437.122	14325.71
437.329	14477.26
437.537	14981.06
437.743	15292.35
437.95	14956.49
438.157	15912.89
438.364	16711.6
438.571	16197.56
438.778	16318.39
438.985	18134.93
439.192	17235.88
439.399	17672.09
439.606	17409.95
439.813	18016.15
440.02	19324.8
440.227	18902.92
440.433	18786.19
440.64	19646.33
440.847	19302.28
441.054	20205.43
441.261	21141.35
441.467	21325.67
441.674	21229.41
441.881	22339.41
442.088	22021.98
442.294	21933.92
442.501	22689.62
442.708	23043.92
442.914	23949.12
443.121	24655.67
443.328	24514.36
443.534	25921.31
443.741	25358.12
443.948	25198.38
444.154	27002.64
444.361	26634
444.568	26679.06
444.774	26664.72
444.981	27275.02
445.187	27899.65
445.394	28800.76
445.6	28653.3
445.807	31403.72
446.013	30031.58
446.22	30772.95
446.426	31870.66
446.633	32011.97
446.839	32845.49
447.046	31581.9
447.252	33257.14
447.459	33515.18
447.665	33193.65
447.871	34870.93
448.078	36146.82
448.284	34352.8
448.491	35315.34
448.697	36564.6
448.903	37627.5
449.11	37500.53
449.316	36691.58
449.522	37777
449.728	38450.78
449.935	38846.04
450.141	38749.79
450.347	39599.69
450.553	38280.8
450.76	38653.53
450.966	39833.16
451.172	39599.69
451.378	40334.92
451.584	39575.12
451.791	40744.51
451.997	40287.81
452.203	41018.94
452.409	40992.31
452.615	40986.17
452.821	39585.36
453.027	39054.93
453.233	41088.57
453.44	39611.98
453.646	39597.65
453.852	39747.15
454.058	40777.28
454.264	39245.4
454.47	39888.46
454.676	39380.56
454.882	40517.18
455.088	37070.45
455.294	37195.38
455.5	38086.25
455.705	38366.82
455.911	36990.58
456.117	35853.96
456.323	35663.5
456.529	33760.94
456.735	35186.32
456.941	34014.88
457.147	33762.98
457.352	32736.95
457.558	32249.53
457.764	32296.64
457.97	31665.86
458.176	30936.79
458.381	31186.64
458.587	29308.65
458.793	29394.67
458.999	28202.75
459.204	30052.06
459.41	29320.94
459.616	27223.82
459.821	27283.21
460.027	27102.99
460.233	26591
460.438	25372.46
460.644	25782.05
460.85	24416.05
461.055	24088.38
461.261	24205.11
461.466	22085.47
461.672	21575.52
461.878	23222.09
462.083	21772.13
462.289	21245.8
462.494	21030.76
462.7	20094.84
462.905	19457.92
463.111	20252.53
463.316	20356.98
463.522	20406.13
463.727	20062.07
463.932	19588.99
464.138	19703.68
464.343	19908.47
464.549	18970.51
464.754	19787.64
464.959	19773.31
465.165	19793.79
465.37	18870.15
465.575	18306.96
465.781	19177.35
465.986	19177.35
466.191	18276.24
466.397	18182.04
466.602	17012.65
466.807	17682.33
467.012	17762.2
467.218	17704.86
467.423	17465.25
467.628	17438.62
