Data from USB4F104151__223__11-10-48-535.txt Node

Date: Wed Mar 12 11:10:48 EDT 2025
User: louis
Spectrometer: USB4F10415
Trigger mode: 4
Integration Time (sec): 2.000000E-2
Scans to average: 1
Electric dark correction enabled: true
Nonlinearity correction enabled: false
Boxcar width: 0
XAxis mode: Wavelengths
Number of Pixels in Spectrum: 3648
>>>>>Begin Spectral Data<<<<<
178.204	-119.46
178.424	-119.46
178.644	-119.46
178.864	-25.26
179.084	-47.79
179.304	13.65
179.524	-47.79
179.744	30.04
179.964	-4.78
180.184	-10.92
180.404	36.18
180.624	-53.93
180.844	-21.16
181.064	3.41
181.283	-8.87
181.503	-8.87
181.723	73.04
181.943	11.61
182.163	34.13
182.383	116.05
182.602	23.89
182.822	-29.35
183.042	42.32
183.262	-4.78
183.482	83.28
183.701	52.56
183.921	-2.73
184.141	44.37
184.361	73.04
184.58	21.85
184.8	103.76
185.02	27.99
185.239	54.61
185.459	-12.97
185.679	85.33
185.898	15.7
186.118	3.41
186.338	1.37
186.557	11.61
186.777	83.28
186.997	-21.16
187.216	38.23
187.436	54.61
187.655	48.47
187.875	42.32
188.095	21.85
188.314	-0.68
188.534	77.14
188.753	60.76
188.973	32.08
189.192	27.99
189.412	79.19
189.631	17.75
189.851	83.28
190.07	83.28
190.29	75.09
190.509	13.65
190.729	-35.5
190.948	46.42
191.168	73.04
191.387	60.76
191.607	11.61
191.826	40.28
192.045	7.51
192.265	48.47
192.484	81.24
192.704	27.99
192.923	87.38
193.142	44.37
193.362	68.95
193.581	36.18
193.8	-6.83
194.02	-17.07
194.239	116.05
194.458	30.04
194.678	21.85
194.897	62.8
195.116	-21.16
195.335	99.67
195.555	32.08
195.774	44.37
195.993	15.7
196.212	50.52
196.432	-76.46
196.651	-39.59
196.87	-12.97
197.089	40.28
197.308	30.04
197.528	36.18
197.747	-8.87
197.966	62.8
198.185	77.14
198.404	-27.31
198.623	23.89
198.842	13.65
199.062	44.37
199.281	60.76
199.5	32.08
199.719	73.04
199.938	85.33
200.157	23.89
200.376	38.23
200.595	62.8
200.814	-4.78
201.033	48.47
201.252	-45.74
201.471	-10.92
201.69	73.04
201.909	40.28
202.128	25.94
202.347	58.71
202.566	42.32
202.785	64.85
203.004	32.08
203.223	105.81
203.442	19.8
203.661	-8.87
203.879	64.85
204.098	21.85
204.317	15.7
204.536	30.04
204.755	52.56
204.974	73.04
205.193	77.14
205.411	111.96
205.63	19.8
205.849	73.04
206.068	17.75
206.287	30.04
206.505	56.66
206.724	7.51
206.943	-0.68
207.162	5.46
207.381	60.76
207.599	27.99
207.818	79.19
208.037	-12.97
208.255	54.61
208.474	73.04
208.693	15.7
208.911	101.72
209.13	34.13
209.349	99.67
209.567	1.37
209.786	79.19
210.005	36.18
210.223	46.42
210.442	-29.35
210.661	44.37
210.879	83.28
211.098	66.9
211.316	-10.92
211.535	114
211.753	62.8
211.972	64.85
212.191	73.04
212.409	89.43
212.628	38.23
212.846	38.23
213.065	46.42
213.283	58.71
213.502	-33.45
213.72	73.04
213.938	60.76
214.157	-10.92
214.375	-12.97
214.594	21.85
214.812	42.32
215.031	21.85
215.249	-15.02
215.467	-21.16
215.686	-51.88
215.904	44.37
216.122	-35.5
216.341	17.75
216.559	17.75
216.778	79.19
216.996	58.71
217.214	64.85
217.432	19.8
217.651	32.08
217.869	-37.55
218.087	52.56
218.306	7.51
218.524	54.61
218.742	48.47
218.96	140.63
219.179	54.61
219.397	62.8
219.615	79.19
219.833	87.38
220.051	-10.92
220.27	103.76
220.488	44.37
220.706	42.32
220.924	-58.03
221.142	27.99
221.36	89.43
221.578	58.71
221.796	105.81
222.015	107.86
222.233	64.85
222.451	66.9
222.669	25.94
222.887	-12.97
223.105	9.56
223.323	56.66
223.541	62.8
223.759	-39.59
223.977	44.37
224.195	27.99
224.413	25.94
224.631	-0.68
224.849	-8.87
225.067	93.52
225.285	-37.55
225.503	19.8
225.721	-55.98
225.939	19.8
226.157	40.28
226.375	40.28
226.592	25.94
226.81	58.71
227.028	144.72
227.246	50.52
227.464	-17.07
227.682	132.44
227.9	64.85
228.117	9.56
228.335	126.29
228.553	19.8
228.771	52.56
228.989	7.51
229.206	3.41
229.424	-53.93
229.642	-17.07
229.86	64.85
230.077	54.61
230.295	30.04
230.513	66.9
230.731	93.52
230.948	7.51
231.166	81.24
231.384	13.65
231.601	30.04
231.819	-25.26
232.037	-31.4
232.254	-29.35
232.472	1.37
232.689	36.18
232.907	48.47
233.125	60.76
233.342	-8.87
233.56	-12.97
233.777	89.43
233.995	-39.59
234.213	77.14
234.43	-6.83
234.648	50.52
234.865	93.52
235.083	120.15
235.3	46.42
235.518	46.42
235.735	126.29
235.953	62.8
236.17	-0.68
236.388	-45.74
236.605	19.8
236.822	89.43
237.04	-2.73
237.257	54.61
237.475	87.38
237.692	48.47
237.909	-17.07
238.127	5.46
238.344	23.89
238.562	101.72
238.779	46.42
238.996	21.85
239.214	15.7
239.431	15.7
239.648	-39.59
239.865	58.71
240.083	11.61
240.3	83.28
240.517	36.18
240.735	109.91
240.952	58.71
241.169	56.66
241.386	66.9
241.603	50.52
241.821	-12.97
242.038	66.9
242.255	-17.07
242.472	81.24
242.689	7.51
242.907	50.52
243.124	50.52
243.341	34.13
243.558	19.8
243.775	-21.16
243.992	-21.16
244.209	48.47
244.426	81.24
244.643	62.8
244.86	-15.02
245.078	48.47
245.295	56.66
245.512	68.95
245.729	73.04
245.946	50.52
246.163	81.24
246.38	-8.87
246.597	19.8
246.814	17.75
247.031	-8.87
247.248	40.28
247.464	83.28
247.681	130.39
247.898	1.37
248.115	7.51
248.332	-21.16
248.549	3.41
248.766	132.44
248.983	77.14
249.2	58.71
249.417	44.37
249.633	-43.69
249.85	144.72
250.067	89.43
250.284	44.37
250.501	114
250.717	40.28
250.934	50.52
251.151	19.8
251.368	1.37
251.585	85.33
251.801	23.89
252.018	-4.78
252.235	38.23
252.451	19.8
252.668	-10.92
252.885	-12.97
253.102	81.24
253.318	54.61
253.535	5.46
253.752	40.28
253.968	66.9
254.185	64.85
254.401	44.37
254.618	89.43
254.835	-35.5
255.051	85.33
255.268	38.23
255.484	77.14
255.701	7.51
255.917	11.61
256.134	3.41
256.351	-0.68
256.567	46.42
256.784	83.28
257	-29.35
257.217	79.19
257.433	91.48
257.65	42.32
257.866	27.99
258.082	50.52
258.299	79.19
258.515	-4.78
258.732	50.52
258.948	91.48
259.165	64.85
259.381	105.81
259.597	71
259.814	1.37
260.03	-4.78
260.246	32.08
260.463	73.04
260.679	71
260.895	38.23
261.112	40.28
261.328	52.56
261.544	19.8
261.761	48.47
261.977	46.42
262.193	44.37
262.409	73.04
262.626	56.66
262.842	101.72
263.058	-12.97
263.274	-0.68
263.49	36.18
263.707	97.62
263.923	73.04
264.139	87.38
264.355	11.61
264.571	27.99
264.787	75.09
265.004	46.42
265.22	77.14
265.436	42.32
265.652	-17.07
265.868	27.99
266.084	68.95
266.3	-29.35
266.516	44.37
266.732	44.37
266.948	7.51
267.164	58.71
267.38	48.47
267.596	-37.55
267.812	5.46
268.028	93.52
268.244	-37.55
268.46	68.95
268.676	91.48
268.892	21.85
269.108	40.28
269.324	32.08
269.54	21.85
269.756	95.57
269.972	-17.07
270.188	38.23
270.403	27.99
270.619	-12.97
270.835	36.18
271.051	44.37
271.267	-8.87
271.483	23.89
271.698	79.19
271.914	13.65
272.13	62.8
272.346	30.04
272.562	-4.78
272.777	30.04
272.993	-12.97
273.209	5.46
273.425	66.9
273.64	11.61
273.856	101.72
274.072	91.48
274.287	89.43
274.503	30.04
274.719	56.66
274.934	50.52
275.15	66.9
275.366	-0.68
275.581	21.85
275.797	40.28
276.012	46.42
276.228	27.99
276.444	77.14
276.659	58.71
276.875	-2.73
277.09	138.58
277.306	44.37
277.521	42.32
277.737	44.37
277.952	-4.78
278.168	105.81
278.383	11.61
278.599	116.05
278.814	58.71
279.03	25.94
279.245	46.42
279.461	21.85
279.676	85.33
279.892	-37.55
280.107	48.47
280.322	36.18
280.538	52.56
280.753	3.41
280.969	89.43
281.184	58.71
281.399	66.9
281.615	34.13
281.83	79.19
282.045	-47.79
282.26	-6.83
282.476	71
282.691	21.85
282.906	144.72
283.122	99.67
283.337	30.04
283.552	97.62
283.767	52.56
283.983	128.34
284.198	54.61
284.413	32.08
284.628	42.32
284.843	34.13
285.058	13.65
285.274	77.14
285.489	105.81
285.704	32.08
285.919	13.65
286.134	-4.78
286.349	23.89
286.564	40.28
286.779	-19.11
286.995	81.24
287.21	42.32
287.425	46.42
287.64	9.56
287.855	71
288.07	54.61
288.285	79.19
288.5	101.72
288.715	36.18
288.93	-47.79
289.145	103.76
289.36	89.43
289.575	50.52
289.79	-4.78
290.004	23.89
290.219	120.15
290.434	93.52
290.649	13.65
290.864	23.89
291.079	7.51
291.294	109.91
291.509	30.04
291.724	73.04
291.938	-10.92
292.153	87.38
292.368	79.19
292.583	36.18
292.798	75.09
293.012	-0.68
293.227	19.8
293.442	-6.83
293.657	111.96
293.871	21.85
294.086	58.71
294.301	27.99
294.516	54.61
294.73	58.71
294.945	-6.83
295.16	75.09
295.374	77.14
295.589	60.76
295.804	17.75
296.018	68.95
296.233	21.85
296.447	11.61
296.662	15.7
296.877	68.95
297.091	81.24
297.306	-12.97
297.52	73.04
297.735	64.85
297.949	99.67
298.164	11.61
298.378	23.89
298.593	-0.68
298.807	42.32
299.022	21.85
299.236	48.47
299.451	9.56
299.665	7.51
299.88	97.62
300.094	68.95
300.309	-4.78
300.523	44.37
300.737	124.24
300.952	77.14
301.166	9.56
301.381	13.65
301.595	64.85
301.809	13.65
302.024	64.85
302.238	5.46
302.452	120.15
302.667	21.85
302.881	52.56
303.095	-19.11
303.309	68.95
303.524	54.61
303.738	62.8
303.952	46.42
304.166	38.23
304.381	87.38
304.595	64.85
304.809	-2.73
305.023	85.33
305.237	34.13
305.452	-27.31
305.666	64.85
305.88	73.04
306.094	9.56
306.308	60.76
306.522	58.71
306.736	38.23
306.95	81.24
307.164	68.95
307.379	3.41
307.593	-10.92
307.807	42.32
308.021	60.76
308.235	48.47
308.449	58.71
308.663	46.42
308.877	130.39
309.091	81.24
309.305	50.52
309.519	114
309.733	54.61
309.947	5.46
310.161	-6.83
310.374	1.37
310.588	15.7
310.802	46.42
311.016	81.24
311.23	89.43
311.444	38.23
311.658	36.18
311.872	48.47
312.085	-41.64
312.299	-6.83
312.513	97.62
312.727	34.13
312.941	21.85
313.154	32.08
313.368	87.38
313.582	52.56
313.796	105.81
314.009	73.04
314.223	64.85
314.437	120.15
314.651	30.04
314.864	50.52
315.078	42.32
315.292	36.18
315.505	44.37
315.719	79.19
315.933	52.56
316.146	-27.31
316.36	83.28
316.573	54.61
316.787	-0.68
317.001	42.32
317.214	-51.88
317.428	58.71
317.641	-0.68
317.855	60.76
318.068	44.37
318.282	99.67
318.495	40.28
318.709	-15.02
318.922	46.42
319.136	136.53
319.349	40.28
319.563	3.41
319.776	5.46
319.99	40.28
320.203	-19.11
320.417	109.91
320.63	1.37
320.843	75.09
321.057	62.8
321.27	17.75
321.483	13.65
321.697	46.42
321.91	58.71
322.124	58.71
322.337	77.14
322.55	38.23
322.763	32.08
322.977	36.18
323.19	7.51
323.403	136.53
323.617	11.61
323.83	122.2
324.043	50.52
324.256	40.28
324.469	97.62
324.683	38.23
324.896	56.66
325.109	25.94
325.322	101.72
325.535	38.23
325.748	95.57
325.962	89.43
326.175	-49.83
326.388	99.67
326.601	68.95
326.814	34.13
327.027	7.51
327.24	9.56
327.453	73.04
327.666	-12.97
327.879	60.76
328.092	66.9
328.305	48.47
328.518	3.41
328.731	66.9
328.944	83.28
329.157	68.95
329.37	38.23
329.583	56.66
329.796	134.48
330.009	56.66
330.222	36.18
330.435	5.46
330.648	75.09
330.861	44.37
331.073	-0.68
331.286	116.05
331.499	81.24
331.712	23.89
331.925	-10.92
332.138	97.62
332.35	75.09
332.563	77.14
332.776	7.51
332.989	34.13
333.202	105.81
333.414	64.85
333.627	46.42
333.84	68.95
334.053	19.8
334.265	3.41
334.478	136.53
334.691	85.33
334.903	44.37
335.116	9.56
335.329	36.18
335.541	107.86
335.754	111.96
335.966	126.29
336.179	25.94
336.392	44.37
336.604	19.8
336.817	36.18
337.029	19.8
337.242	132.44
337.454	66.9
337.667	27.99
337.88	60.76
338.092	13.65
338.305	114
338.517	62.8
338.729	17.75
338.942	56.66
339.154	42.32
339.367	44.37
339.579	-31.4
339.792	66.9
340.004	97.62
340.217	32.08
340.429	34.13
340.641	15.7
340.854	58.71
341.066	3.41
341.278	42.32
341.491	152.91
341.703	56.66
341.915	-41.64
342.128	109.91
342.34	58.71
342.552	27.99
342.764	62.8
342.977	97.62
343.189	7.51
343.401	40.28
343.613	30.04
343.826	126.29
344.038	101.72
344.25	32.08
344.462	9.56
344.674	-6.83
344.886	32.08
345.099	19.8
345.311	-6.83
345.523	7.51
345.735	11.61
345.947	79.19
346.159	42.32
346.371	122.2
346.583	93.52
346.795	93.52
347.007	60.76
347.219	73.04
347.431	7.51
347.643	83.28
347.855	54.61
348.067	101.72
348.279	-2.73
348.491	34.13
348.703	44.37
348.915	25.94
349.127	-2.73
349.339	36.18
349.551	48.47
349.763	-15.02
349.975	-21.16
350.187	50.52
350.399	77.14
350.61	97.62
350.822	27.99
351.034	40.28
351.246	-17.07
351.458	19.8
351.669	64.85
351.881	46.42
352.093	77.14
352.305	30.04
352.517	54.61
352.728	42.32
352.94	71
353.152	68.95
353.363	25.94
353.575	105.81
353.787	27.99
353.999	85.33
354.21	54.61
354.422	79.19
354.633	-8.87
354.845	42.32
355.057	93.52
355.268	73.04
355.48	21.85
355.692	66.9
355.903	99.67
356.115	7.51
356.326	19.8
356.538	73.04
356.749	66.9
356.961	34.13
357.172	-0.68
357.384	34.13
357.595	132.44
357.807	97.62
358.018	81.24
358.23	71
358.441	27.99
358.653	165.2
358.864	15.7
359.075	5.46
359.287	146.77
359.498	58.71
359.709	85.33
359.921	85.33
360.132	-0.68
360.344	46.42
360.555	77.14
360.766	9.56
360.977	15.7
361.189	46.42
361.4	25.94
361.611	58.71
361.823	64.85
362.034	34.13
362.245	19.8
362.456	116.05
362.667	89.43
362.879	79.19
363.09	60.76
363.301	103.76
363.512	58.71
363.723	38.23
363.935	-4.78
364.146	77.14
364.357	25.94
364.568	13.65
364.779	5.46
364.99	77.14
365.201	-8.87
365.412	105.81
365.623	46.42
365.834	38.23
366.045	19.8
366.256	46.42
366.467	60.76
366.678	42.32
366.889	118.1
367.1	40.28
367.311	89.43
367.522	118.1
367.733	50.52
367.944	163.15
368.155	38.23
368.366	38.23
368.577	42.32
368.788	93.52
368.999	-10.92
369.209	52.56
369.42	81.24
369.631	93.52
369.842	58.71
370.053	91.48
370.264	105.81
370.474	93.52
370.685	54.61
370.896	62.8
371.107	114
371.317	130.39
371.528	77.14
371.739	130.39
371.95	27.99
372.16	116.05
372.371	-25.26
372.582	44.37
372.792	97.62
373.003	118.1
373.214	30.04
373.424	52.56
373.635	-23.21
373.846	140.63
374.056	71
374.267	138.58
374.477	73.04
374.688	75.09
374.898	42.32
375.109	111.96
375.319	83.28
375.53	44.37
375.74	109.91
375.951	23.89
376.161	58.71
376.372	93.52
376.582	7.51
376.793	27.99
377.003	81.24
377.214	15.7
377.424	27.99
377.635	134.48
377.845	64.85
378.055	46.42
378.266	15.7
378.476	83.28
378.686	64.85
378.897	46.42
379.107	68.95
379.317	118.1
379.528	40.28
379.738	138.58
379.948	44.37
380.158	85.33
380.369	73.04
380.579	52.56
380.789	62.8
380.999	101.72
381.21	130.39
381.42	48.47
381.63	126.29
381.84	17.75
382.05	77.14
382.261	134.48
382.471	101.72
382.681	40.28
382.891	40.28
383.101	142.68
383.311	23.89
383.521	40.28
383.731	13.65
383.941	142.68
384.151	79.19
384.361	93.52
384.571	-6.83
384.781	50.52
384.991	81.24
385.201	99.67
385.411	109.91
385.621	71
385.831	30.04
386.041	111.96
386.251	54.61
386.461	154.96
386.671	44.37
386.881	81.24
387.091	71
387.301	66.9
387.511	83.28
387.72	46.42
387.93	56.66
388.14	1.37
388.35	44.37
388.56	64.85
388.769	77.14
388.979	91.48
389.189	150.87
389.399	15.7
389.609	77.14
389.818	73.04
390.028	25.94
390.238	71
390.447	50.52
390.657	132.44
390.867	23.89
391.076	62.8
391.286	23.89
391.496	109.91
391.705	75.09
391.915	46.42
392.125	140.63
392.334	62.8
392.544	152.91
392.753	71
392.963	128.34
393.172	34.13
393.382	56.66
393.591	66.9
393.801	71
394.01	118.1
394.22	68.95
394.429	124.24
394.639	128.34
394.848	54.61
395.058	120.15
395.267	93.52
395.477	148.82
395.686	60.76
395.895	120.15
396.105	165.2
396.314	154.96
396.524	111.96
396.733	71
396.942	169.3
397.152	140.63
397.361	134.48
397.57	93.52
397.78	167.25
397.989	103.76
398.198	144.72
398.407	46.42
398.617	64.85
398.826	44.37
399.035	126.29
399.244	159.06
399.453	128.34
399.663	81.24
399.872	116.05
400.081	103.76
400.29	175.44
400.499	122.2
400.708	107.86
400.917	111.96
401.127	189.78
401.336	83.28
401.545	152.91
401.754	120.15
401.963	161.11
402.172	101.72
402.381	32.08
402.59	93.52
402.799	150.87
403.008	114
403.217	83.28
403.426	152.91
403.635	91.48
403.844	136.53
404.053	79.19
404.262	64.85
404.471	122.2
404.68	150.87
404.888	150.87
405.097	134.48
405.306	163.15
405.515	232.79
405.724	120.15
405.933	163.15
406.142	140.63
406.35	216.4
406.559	157.01
406.768	175.44
406.977	191.83
407.185	173.39
407.394	195.92
407.603	226.64
407.812	214.35
408.02	208.21
408.229	191.83
408.438	193.87
408.646	202.07
408.855	226.64
409.064	210.26
409.272	195.92
409.481	333.14
409.69	275.79
409.898	281.94
410.107	306.51
410.315	286.03
410.524	329.04
410.733	343.38
410.941	359.76
411.15	326.99
411.358	390.48
411.567	359.76
411.775	318.8
411.984	419.15
412.192	390.48
412.401	437.58
412.609	458.06
412.818	464.21
413.026	431.44
413.234	449.87
413.443	441.68
413.651	494.93
413.86	494.93
414.068	568.65
414.276	666.96
414.485	615.76
414.693	591.18
414.901	689.48
415.11	671.05
415.318	699.72
415.526	677.19
415.734	703.82
415.943	800.07
416.151	808.27
416.359	695.63
416.567	789.83
416.776	841.03
416.984	869.7
417.192	1008.97
417.4	963.91
417.608	853.32
417.817	949.57
418.025	992.58
418.233	1074.5
418.441	1037.64
418.649	1146.18
418.857	1181
419.065	1285.44
419.273	1103.17
419.481	1240.39
419.689	1353.02
419.897	1406.27
420.105	1463.62
420.313	1414.46
420.521	1500.48
420.729	1469.76
420.937	1551.68
421.145	1649.98
421.353	1754.43
421.561	1783.1
421.769	1762.62
421.977	1828.15
422.185	1918.26
422.393	1885.5
422.601	2129.2
422.809	2139.44
423.017	2075.96
423.224	2159.92
423.432	2188.6
423.64	2348.34
423.848	2508.08
424.056	2501.94
424.263	2528.56
424.471	2624.81
424.679	2659.63
424.887	2805.03
425.094	2876.71
425.302	2975.02
425.51	3071.27
425.718	3054.89
425.925	3075.37
426.133	3145
426.341	3333.41
426.548	3548.45
426.756	3595.55
426.964	3620.13
427.171	3839.26
427.379	3949.85
427.586	3902.75
427.794	4060.44
428.001	4281.62
428.209	4435.22
428.417	4381.97
428.624	4734.22
428.832	4756.75
429.039	4699.41
429.247	4637.97
429.454	5123.34
429.662	5377.28
429.869	5250.31
430.076	5438.72
430.284	5330.18
430.491	5520.64
430.699	5786.88
430.906	5770.49
431.114	5905.66
431.321	5940.47
431.528	6268.15
431.736	6700.27
431.943	6993.13
432.15	6823.15
432.358	6898.92
432.565	7281.89
432.772	7224.55
432.979	7605.47
433.187	7884
433.394	7726.3
433.601	8279.25
433.808	8320.21
434.016	8244.44
434.223	8838.35
434.43	9143.5
434.637	8871.12
434.844	9430.21
435.052	9725.12
435.259	9700.55
435.466	9727.17
435.673	9493.7
435.88	10222.78
436.087	10894.51
436.294	10738.87
436.501	10396.85
436.708	10728.63
436.915	11082.92
437.122	11500.71
437.329	11513
437.537	11807.91
437.743	11986.08
437.95	12117.15
438.157	12758.16
438.364	13110.41
438.571	12852.37
438.778	13073.55
438.985	14175.36
439.192	13681.8
439.399	14029.95
439.606	13870.21
439.813	14697.59
440.02	15594.6
440.227	15314.03
440.433	14842.99
440.64	15838.31
440.847	15455.34
441.054	15764.58
441.261	16862.29
441.467	16542.81
441.674	17224.78
441.881	17318.99
442.088	17198.16
442.294	17468.49
442.501	17886.28
442.708	18213.95
442.914	18654.26
443.121	19801.13
443.328	19168.3
443.534	20685.85
443.741	19921.96
443.948	19792.94
444.154	21167.12
444.361	20788.25
444.568	21267.47
444.774	20931.61
444.981	21447.69
445.187	21920.77
445.394	22754.3
445.6	22711.29
445.807	24880.09
446.013	23344.11
446.22	24302.56
446.426	25154.52
446.633	25275.35
446.839	26061.77
447.046	25242.58
447.252	26342.34
447.459	26584
447.665	26309.57
447.871	27530.16
448.078	28654.5
448.284	27327.41
448.491	28068.78
448.697	29129.62
448.903	29668.24
449.11	29504.4
449.316	28806.05
449.522	29760.4
449.728	30509.96
449.935	30524.29
450.141	31001.47
450.347	30985.08
450.553	30559.11
450.76	30837.63
450.966	31671.15
451.172	31341.43
451.378	31587.19
451.584	31611.76
451.791	32084.84
451.997	32050.03
452.203	32236.39
452.409	32557.92
452.615	32269.16
452.821	31011.71
453.027	30776.19
453.233	32465.77
453.44	30854.01
453.646	31273.85
453.852	31513.46
454.058	32107.37
454.264	31015.8
454.47	31685.49
454.676	30628.74
454.882	31785.84
455.088	29072.28
455.294	29535.12
455.5	29766.54
455.705	30077.83
455.911	28748.7
456.117	28580.77
456.323	28242.85
456.529	26586.05
456.735	27544.5
456.941	26923.96
457.147	26581.95
457.352	25744.33
457.558	25256.92
457.764	25443.28
457.97	24994.78
458.176	24366.05
458.381	24167.4
458.587	23432.18
458.793	23174.13
458.999	21840.9
459.204	23487.47
459.41	23014.39
459.616	21128.21
459.821	21709.83
460.027	21337.1
460.233	21060.63
460.438	20034.6
460.644	20370.46
460.85	19213.36
461.055	18906.16
461.261	18764.85
461.466	17443.92
461.672	17099.86
461.878	18275.39
462.083	17103.95
462.289	16772.18
462.494	16522.33
462.7	15828.07
462.905	15363.18
463.111	15930.47
463.316	15918.18
463.522	15473.77
463.727	15688.81
463.932	15514.73
464.138	15490.15
464.343	15377.51
464.549	14873.71
464.754	15780.96
464.959	15504.49
465.165	15117.42
465.37	14433.4
465.575	14494.84
465.781	14947.44
465.986	14945.39
466.191	14396.54
466.397	14322.81
466.602	13272.2
466.807	13921.41
467.012	14091.39
467.218	13993.09
467.423	13603.97
467.628	14048.38
467.833	14462.07
468.038	13542.53
