Data from USB4F104151__266__11-12-04-186.txt Node

Date: Wed Mar 12 11:12:04 EDT 2025
User: louis
Spectrometer: USB4F10415
Trigger mode: 4
Integration Time (sec): 2.000000E-2
Scans to average: 1
Electric dark correction enabled: true
Nonlinearity correction enabled: false
Boxcar width: 0
XAxis mode: Wavelengths
Number of Pixels in Spectrum: 3648
>>>>>Begin Spectral Data<<<<<
178.204	-177.66
178.424	-177.66
178.644	-177.66
178.864	-60.93
179.084	-87.55
179.304	6.66
179.524	-5.63
179.744	37.38
179.964	86.53
180.184	-13.82
180.404	16.9
180.624	-1.54
180.844	-1.54
181.064	-128.51
181.283	47.62
181.503	4.61
181.723	-48.64
181.943	-22.02
182.163	57.86
182.383	33.28
182.602	-1.54
182.822	49.66
183.042	23.04
183.262	45.57
183.482	59.9
183.701	-24.06
183.921	80.38
184.141	-17.92
184.361	27.14
184.58	14.85
184.8	-13.82
185.02	10.75
185.239	96.77
185.459	25.09
185.679	4.61
185.898	-17.92
186.118	102.91
186.338	29.18
186.557	51.71
186.777	8.7
186.997	117.25
187.216	43.52
187.436	-1.54
187.655	29.18
187.875	8.7
188.095	12.8
188.314	-28.16
188.534	33.28
188.753	55.81
188.973	2.56
189.192	41.47
189.412	-40.45
189.631	-15.87
189.851	98.81
190.07	31.23
190.29	35.33
190.509	61.95
190.729	-13.82
190.948	18.94
191.168	82.43
191.387	27.14
191.607	88.57
191.826	74.24
192.045	27.14
192.265	-1.54
192.484	74.24
192.704	-38.4
192.923	47.62
193.142	49.66
193.362	68.09
193.581	0.51
193.8	23.04
194.02	6.66
194.239	-60.93
194.458	27.14
194.678	-5.63
194.897	-19.97
195.116	-54.78
195.335	45.57
195.555	-24.06
195.774	-85.5
195.993	16.9
196.212	57.86
196.432	-1.54
196.651	27.14
196.87	-48.64
197.089	57.86
197.308	86.53
197.528	35.33
197.747	100.86
197.966	100.86
198.185	80.38
198.404	-7.68
198.623	0.51
198.842	90.62
199.062	51.71
199.281	31.23
199.5	66.05
199.719	12.8
199.938	10.75
200.157	39.42
200.376	37.38
200.595	53.76
200.814	41.47
201.033	4.61
201.252	4.61
201.471	-7.68
201.69	-30.21
201.909	10.75
202.128	-54.78
202.347	-50.69
202.566	-24.06
202.785	-26.11
203.004	45.57
203.223	68.09
203.442	-69.12
203.661	47.62
203.879	-24.06
204.098	12.8
204.317	23.04
204.536	-83.45
204.755	18.94
204.974	10.75
205.193	55.81
205.411	82.43
205.63	-73.21
205.849	-48.64
206.068	-26.11
206.287	-30.21
206.505	84.48
206.724	-7.68
206.943	0.51
207.162	0.51
207.381	-44.54
207.599	74.24
207.818	-13.82
208.037	-67.07
208.255	-54.78
208.474	4.61
208.693	-9.73
208.911	84.48
209.13	27.14
209.349	86.53
209.567	-44.54
209.786	35.33
210.005	55.81
210.223	-30.21
210.442	14.85
210.661	-19.97
210.879	33.28
211.098	-17.92
211.316	-28.16
211.535	43.52
211.753	45.57
211.972	-36.35
212.191	10.75
212.409	37.38
212.628	-40.45
212.846	-17.92
213.065	51.71
213.283	-5.63
213.502	23.04
213.72	-28.16
213.938	57.86
214.157	-17.92
214.375	-22.02
214.594	29.18
214.812	33.28
215.031	0.51
215.249	-26.11
215.467	-28.16
215.686	35.33
215.904	-3.58
216.122	29.18
216.341	80.38
216.559	39.42
216.778	41.47
216.996	37.38
217.214	-44.54
217.432	-22.02
217.651	2.56
217.869	8.7
218.087	72.19
218.306	84.48
218.524	-3.58
218.742	-15.87
218.96	-46.59
219.179	61.95
219.397	-7.68
219.615	45.57
219.833	0.51
220.051	0.51
220.27	23.04
220.488	94.72
220.706	82.43
220.924	-7.68
221.142	-9.73
221.36	-38.4
221.578	49.66
221.796	-5.63
222.015	-34.3
222.233	70.14
222.451	-3.58
222.669	66.05
222.887	47.62
223.105	-34.3
223.323	-34.3
223.541	16.9
223.759	94.72
223.977	84.48
224.195	45.57
224.413	-5.63
224.631	-1.54
224.849	-13.82
225.067	-7.68
225.285	-7.68
225.503	8.7
225.721	2.56
225.939	23.04
226.157	35.33
226.375	51.71
226.592	23.04
226.81	-19.97
227.028	43.52
227.246	-7.68
227.464	-44.54
227.682	12.8
227.9	-30.21
228.117	27.14
228.335	66.05
228.553	43.52
228.771	59.9
228.989	88.57
229.206	2.56
229.424	-19.97
229.642	-26.11
229.86	14.85
230.077	35.33
230.295	49.66
230.513	-11.78
230.731	41.47
230.948	-9.73
231.166	29.18
231.384	8.7
231.601	-11.78
231.819	57.86
232.037	72.19
232.254	-26.11
232.472	47.62
232.689	-26.11
232.907	29.18
233.125	29.18
233.342	2.56
233.56	80.38
233.777	18.94
233.995	20.99
234.213	55.81
234.43	25.09
234.648	27.14
234.865	20.99
235.083	20.99
235.3	96.77
235.518	25.09
235.735	14.85
235.953	35.33
236.17	78.33
236.388	12.8
236.605	84.48
236.822	-7.68
237.04	2.56
237.257	37.38
237.475	72.19
237.692	29.18
237.909	-71.17
238.127	35.33
238.344	27.14
238.562	-36.35
238.779	-30.21
238.996	4.61
239.214	-50.69
239.431	16.9
239.648	-38.4
239.865	4.61
240.083	-1.54
240.3	-7.68
240.517	43.52
240.735	23.04
240.952	68.09
241.169	-1.54
241.386	88.57
241.603	74.24
241.821	51.71
242.038	94.72
242.255	10.75
242.472	-9.73
242.689	-60.93
242.907	57.86
243.124	-99.84
243.341	45.57
243.558	8.7
243.775	76.29
243.992	-30.21
244.209	25.09
244.426	68.09
244.643	47.62
244.86	-24.06
245.078	-17.92
245.295	43.52
245.512	16.9
245.729	4.61
245.946	-7.68
246.163	72.19
246.38	76.29
246.597	25.09
246.814	39.42
247.031	37.38
247.248	-32.26
247.464	51.71
247.681	-1.54
247.898	51.71
248.115	51.71
248.332	-3.58
248.549	29.18
248.766	61.95
248.983	2.56
249.2	35.33
249.417	10.75
249.633	18.94
249.85	35.33
250.067	31.23
250.284	20.99
250.501	29.18
250.717	57.86
250.934	-46.59
251.151	-34.3
251.368	29.18
251.585	29.18
251.801	-5.63
252.018	104.96
252.235	39.42
252.451	-24.06
252.668	-11.78
252.885	35.33
253.102	51.71
253.318	-3.58
253.535	33.28
253.752	-36.35
253.968	-26.11
254.185	-3.58
254.401	43.52
254.618	8.7
254.835	68.09
255.051	-11.78
255.268	35.33
255.484	39.42
255.701	-9.73
255.917	76.29
256.134	43.52
256.351	61.95
256.567	-9.73
256.784	-44.54
257	16.9
257.217	43.52
257.433	-9.73
257.65	6.66
257.866	23.04
258.082	-7.68
258.299	-13.82
258.515	-7.68
258.732	49.66
258.948	-30.21
259.165	20.99
259.381	27.14
259.597	18.94
259.814	31.23
260.03	49.66
260.246	6.66
260.463	51.71
260.679	72.19
260.895	-22.02
261.112	10.75
261.328	-13.82
261.544	4.61
261.761	37.38
261.977	18.94
262.193	16.9
262.409	57.86
262.626	16.9
262.842	0.51
263.058	20.99
263.274	-22.02
263.49	-9.73
263.707	82.43
263.923	2.56
264.139	23.04
264.355	25.09
264.571	70.14
264.787	8.7
265.004	20.99
265.22	-42.5
265.436	-5.63
265.652	6.66
265.868	18.94
266.084	-24.06
266.3	18.94
266.516	0.51
266.732	20.99
266.948	-1.54
267.164	49.66
267.38	0.51
267.596	-3.58
267.812	6.66
268.028	98.81
268.244	68.09
268.46	-11.78
268.676	107.01
268.892	-24.06
269.108	74.24
269.324	-5.63
269.54	25.09
269.756	29.18
269.972	0.51
270.188	33.28
270.403	-15.87
270.619	31.23
270.835	-24.06
271.051	45.57
271.267	23.04
271.483	31.23
271.698	8.7
271.914	61.95
272.13	10.75
272.346	18.94
272.562	-13.82
272.777	18.94
272.993	78.33
273.209	88.57
273.425	-67.07
273.64	49.66
273.856	6.66
274.072	64
274.287	-9.73
274.503	35.33
274.719	64
274.934	-3.58
275.15	33.28
275.366	-46.59
275.581	61.95
275.797	33.28
276.012	20.99
276.228	-5.63
276.444	23.04
276.659	70.14
276.875	76.29
277.09	-34.3
277.306	25.09
277.521	66.05
277.737	35.33
277.952	115.2
278.168	27.14
278.383	10.75
278.599	55.81
278.814	29.18
279.03	31.23
279.245	20.99
279.461	4.61
279.676	29.18
279.892	-13.82
280.107	53.76
280.322	-15.87
280.538	-40.45
280.753	53.76
280.969	-22.02
281.184	31.23
281.399	-26.11
281.615	66.05
281.83	-44.54
282.045	14.85
282.26	51.71
282.476	12.8
282.691	86.53
282.906	49.66
283.122	47.62
283.337	35.33
283.552	10.75
283.767	-71.17
283.983	72.19
284.198	-17.92
284.413	6.66
284.628	39.42
284.843	68.09
285.058	-7.68
285.274	-1.54
285.489	-32.26
285.704	-34.3
285.919	-17.92
286.134	57.86
286.349	57.86
286.564	29.18
286.779	25.09
286.995	29.18
287.21	39.42
287.425	-1.54
287.64	12.8
287.855	86.53
288.07	45.57
288.285	35.33
288.5	18.94
288.715	12.8
288.93	23.04
289.145	2.56
289.36	41.47
289.575	27.14
289.79	94.72
290.004	4.61
290.219	55.81
290.434	35.33
290.649	104.96
290.864	-9.73
291.079	20.99
291.294	31.23
291.509	49.66
291.724	98.81
291.938	98.81
292.153	27.14
292.368	35.33
292.583	-24.06
292.798	8.7
293.012	16.9
293.227	82.43
293.442	39.42
293.657	23.04
293.871	39.42
294.086	98.81
294.301	-26.11
294.516	68.09
294.73	-17.92
294.945	-36.35
295.16	-13.82
295.374	8.7
295.589	43.52
295.804	6.66
296.018	64
296.233	115.2
296.447	23.04
296.662	51.71
296.877	-13.82
297.091	-24.06
297.306	-28.16
297.52	2.56
297.735	47.62
297.949	23.04
298.164	53.76
298.378	6.66
298.593	-38.4
298.807	-28.16
299.022	-13.82
299.236	-11.78
299.451	8.7
299.665	51.71
299.88	18.94
300.094	29.18
300.309	-5.63
300.523	2.56
300.737	-19.97
300.952	53.76
301.166	-26.11
301.381	-30.21
301.595	98.81
301.809	10.75
302.024	51.71
302.238	-105.98
302.452	-15.87
302.667	70.14
302.881	-48.64
303.095	6.66
303.309	76.29
303.524	51.71
303.738	-7.68
303.952	2.56
304.166	-1.54
304.381	-30.21
304.595	39.42
304.809	55.81
305.023	2.56
305.237	0.51
305.452	51.71
305.666	6.66
305.88	37.38
306.094	-15.87
306.308	49.66
306.522	45.57
306.736	14.85
306.95	51.71
307.164	29.18
307.379	-42.5
307.593	29.18
307.807	64
308.021	-15.87
308.235	23.04
308.449	-60.93
308.663	-5.63
308.877	43.52
309.091	66.05
309.305	66.05
309.519	-19.97
309.733	27.14
309.947	0.51
310.161	76.29
310.374	-32.26
310.588	64
310.802	-22.02
311.016	90.62
311.23	23.04
311.444	64
311.658	129.53
311.872	43.52
312.085	76.29
312.299	-24.06
312.513	27.14
312.727	14.85
312.941	-42.5
313.154	2.56
313.368	-24.06
313.582	104.96
313.796	41.47
314.009	61.95
314.223	35.33
314.437	47.62
314.651	41.47
314.864	-9.73
315.078	-24.06
315.292	-15.87
315.505	33.28
315.719	49.66
315.933	-7.68
316.146	59.9
316.36	-42.5
316.573	12.8
316.787	29.18
317.001	51.71
317.214	29.18
317.428	45.57
317.641	-42.5
317.855	68.09
318.068	20.99
318.282	55.81
318.495	29.18
318.709	23.04
318.922	0.51
319.136	59.9
319.349	39.42
319.563	-5.63
319.776	-58.88
319.99	10.75
320.203	-38.4
320.417	31.23
320.63	18.94
320.843	111.1
321.057	43.52
321.27	-36.35
321.483	31.23
321.697	78.33
321.91	88.57
322.124	61.95
322.337	-19.97
322.55	-44.54
322.763	-11.78
322.977	49.66
323.19	-36.35
323.403	4.61
323.617	8.7
323.83	57.86
324.043	-19.97
324.256	23.04
324.469	23.04
324.683	-7.68
324.896	2.56
325.109	4.61
325.322	-34.3
325.535	-30.21
325.748	-28.16
325.962	23.04
326.175	-3.58
326.388	88.57
326.601	61.95
326.814	33.28
327.027	18.94
327.24	51.71
327.453	-5.63
327.666	31.23
327.879	57.86
328.092	70.14
328.305	57.86
328.518	-15.87
328.731	29.18
328.944	-9.73
329.157	31.23
329.37	-13.82
329.583	125.44
329.796	31.23
330.009	72.19
330.222	16.9
330.435	68.09
330.648	45.57
330.861	25.09
331.073	18.94
331.286	88.57
331.499	53.76
331.712	-36.35
331.925	66.05
332.138	-1.54
332.35	51.71
332.563	-13.82
332.776	117.25
332.989	-50.69
333.202	72.19
333.414	-38.4
333.627	47.62
333.84	33.28
334.053	10.75
334.265	29.18
334.478	84.48
334.691	41.47
334.903	84.48
335.116	-13.82
335.329	90.62
335.541	10.75
335.754	82.43
335.966	96.77
336.179	-34.3
336.392	39.42
336.604	12.8
336.817	-1.54
337.029	45.57
337.242	2.56
337.454	2.56
337.667	-52.74
337.88	23.04
338.092	47.62
338.305	35.33
338.517	0.51
338.729	59.9
338.942	-5.63
339.154	8.7
339.367	2.56
339.579	27.14
339.792	-50.69
340.004	47.62
340.217	-34.3
340.429	6.66
340.641	90.62
340.854	6.66
341.066	-5.63
341.278	72.19
341.491	111.1
341.703	33.28
341.915	12.8
342.128	47.62
342.34	35.33
342.552	29.18
342.764	-26.11
342.977	25.09
343.189	2.56
343.401	31.23
343.613	-60.93
343.826	-13.82
344.038	-22.02
344.25	-1.54
344.462	-7.68
344.674	27.14
344.886	-1.54
345.099	72.19
345.311	18.94
345.523	-26.11
345.735	-48.64
345.947	12.8
346.159	23.04
346.371	-48.64
346.583	-46.59
346.795	16.9
347.007	-7.68
347.219	12.8
347.431	-13.82
347.643	47.62
347.855	6.66
348.067	66.05
348.279	57.86
348.491	18.94
348.703	0.51
348.915	-26.11
349.127	-7.68
349.339	92.67
349.551	-7.68
349.763	37.38
349.975	33.28
350.187	45.57
350.399	-44.54
350.61	74.24
350.822	18.94
351.034	31.23
351.246	10.75
351.458	94.72
351.669	6.66
351.881	41.47
352.093	33.28
352.305	84.48
352.517	64
352.728	55.81
352.94	-34.3
353.152	66.05
353.363	86.53
353.575	51.71
353.787	80.38
353.999	78.33
354.21	123.39
354.422	68.09
354.633	51.71
354.845	8.7
355.057	-17.92
355.268	115.2
355.48	35.33
355.692	53.76
355.903	92.67
356.115	72.19
356.326	-3.58
356.538	92.67
356.749	59.9
356.961	53.76
357.172	100.86
357.384	96.77
357.595	84.48
357.807	14.85
358.018	55.81
358.23	0.51
358.441	-7.68
358.653	57.86
358.864	55.81
359.075	31.23
359.287	57.86
359.498	29.18
359.709	82.43
359.921	-7.68
360.132	51.71
360.344	18.94
360.555	88.57
360.766	66.05
360.977	70.14
361.189	39.42
361.4	51.71
361.611	129.53
361.823	55.81
362.034	-11.78
362.245	-15.87
362.456	78.33
362.667	51.71
362.879	-1.54
363.09	90.62
363.301	72.19
363.512	100.86
363.723	-30.21
363.935	0.51
364.146	76.29
364.357	33.28
364.568	35.33
364.779	-136.7
364.99	117.25
365.201	-13.82
365.412	64
365.623	35.33
365.834	4.61
366.045	37.38
366.256	23.04
366.467	66.05
366.678	-13.82
366.889	20.99
367.1	76.29
367.311	57.86
367.522	74.24
367.733	49.66
367.944	10.75
368.155	-36.35
368.366	90.62
368.577	100.86
368.788	39.42
368.999	8.7
369.209	-17.92
369.42	35.33
369.631	6.66
369.842	51.71
370.053	18.94
370.264	14.85
370.474	10.75
370.685	84.48
370.896	4.61
371.107	90.62
371.317	59.9
371.528	20.99
371.739	49.66
371.95	37.38
372.16	25.09
372.371	25.09
372.582	8.7
372.792	49.66
373.003	25.09
373.214	84.48
373.424	10.75
373.635	16.9
373.846	86.53
374.056	10.75
374.267	0.51
374.477	14.85
374.688	80.38
374.898	66.05
375.109	-19.97
375.319	23.04
375.53	55.81
375.74	45.57
375.951	47.62
376.161	14.85
376.372	12.8
376.582	25.09
376.793	49.66
377.003	0.51
377.214	35.33
377.424	23.04
377.635	41.47
377.845	43.52
378.055	39.42
378.266	27.14
378.476	-5.63
378.686	23.04
378.897	33.28
379.107	70.14
379.317	37.38
379.528	37.38
379.738	129.53
379.948	-93.69
380.158	162.3
380.369	4.61
380.579	66.05
380.789	35.33
380.999	-3.58
381.21	53.76
381.42	172.54
381.63	23.04
381.84	135.68
382.05	-17.92
382.261	59.9
382.471	66.05
382.681	-5.63
382.891	-1.54
383.101	55.81
383.311	111.1
383.521	49.66
383.731	29.18
383.941	-7.68
384.151	29.18
384.361	-1.54
384.571	0.51
384.781	-22.02
384.991	100.86
385.201	102.91
385.411	51.71
385.621	94.72
385.831	20.99
386.041	51.71
386.251	8.7
386.461	90.62
386.671	-58.88
386.881	41.47
387.091	-3.58
387.301	64
387.511	35.33
387.72	129.53
387.93	16.9
388.14	14.85
388.35	18.94
388.56	10.75
388.769	104.96
388.979	47.62
389.189	25.09
389.399	88.57
389.609	123.39
389.818	94.72
390.028	92.67
390.238	64
390.447	-26.11
390.657	59.9
390.867	35.33
391.076	25.09
391.286	76.29
391.496	64
391.705	82.43
391.915	66.05
392.125	84.48
392.334	6.66
392.544	98.81
392.753	4.61
392.963	68.09
393.172	12.8
393.382	51.71
393.591	10.75
393.801	92.67
394.01	64
394.22	100.86
394.429	37.38
394.639	43.52
394.848	2.56
395.058	41.47
395.267	37.38
395.477	31.23
395.686	64
395.895	111.1
396.105	45.57
396.314	70.14
396.524	27.14
396.733	33.28
396.942	98.81
397.152	37.38
397.361	121.34
397.57	82.43
397.78	96.77
397.989	98.81
398.198	129.53
398.407	82.43
398.617	53.76
398.826	72.19
399.035	23.04
399.244	55.81
399.453	88.57
399.663	166.4
399.872	82.43
400.081	82.43
400.29	115.2
400.499	68.09
400.708	133.63
400.917	55.81
401.127	94.72
401.336	70.14
401.545	164.35
401.754	119.29
401.963	72.19
402.172	64
402.381	123.39
402.59	109.05
402.799	111.1
403.008	92.67
403.217	49.66
403.426	88.57
403.635	39.42
403.844	53.76
404.053	119.29
404.262	76.29
404.471	143.87
404.68	156.16
404.888	133.63
405.097	150.01
405.306	156.16
405.515	197.12
405.724	88.57
405.933	190.97
406.142	219.64
406.35	164.35
406.559	215.55
406.768	145.92
406.977	213.5
407.185	168.45
407.394	162.3
407.603	131.58
407.812	123.39
408.02	213.5
408.229	203.26
408.438	176.64
408.646	184.83
408.855	270.84
409.064	188.93
409.272	240.12
409.481	236.03
409.69	227.84
409.898	262.65
410.107	264.7
410.315	242.17
410.524	258.56
410.733	313.85
410.941	311.8
411.15	281.08
411.358	317.95
411.567	358.91
411.775	320
411.984	360.95
412.192	393.72
412.401	356.86
412.609	369.15
412.818	453.11
413.026	428.54
413.234	453.11
413.443	397.82
413.651	465.4
413.86	506.36
414.068	530.94
414.276	524.79
414.485	498.17
414.693	645.62
414.901	565.75
415.11	645.62
415.318	532.98
415.526	592.37
415.734	696.82
415.943	653.81
416.151	676.34
416.359	625.14
416.567	756.21
416.776	823.8
416.984	760.31
417.192	874.99
417.4	891.38
417.608	932.34
417.817	915.95
418.025	913.91
418.233	1018.35
418.441	944.63
418.649	950.77
418.857	1116.65
419.065	1114.61
419.273	1042.93
419.481	1098.22
419.689	1251.82
419.897	1307.12
420.105	1421.8
420.313	1415.66
420.521	1411.56
420.729	1491.43
420.937	1401.32
421.145	1413.61
421.353	1632.74
421.561	1653.22
421.769	1632.74
421.977	1753.57
422.185	1772
422.393	1812.96
422.601	2075.1
422.809	1980.9
423.017	1870.31
423.224	2089.44
423.432	2154.98
423.64	2036.19
423.848	2296.28
424.056	2359.77
424.263	2451.93
424.471	2537.95
424.679	2480.6
424.887	2650.58
425.094	2628.06
425.302	2910.68
425.51	2863.57
425.718	2953.68
425.925	2963.92
426.133	3082.7
426.341	3244.49
426.548	3334.61
426.756	3344.84
426.964	3447.24
427.171	3676.62
427.379	3779.01
427.586	3697.1
427.794	3852.74
428.001	3975.62
428.209	4094.4
428.417	4135.36
428.624	4477.37
428.832	4475.32
429.039	4526.52
429.247	4540.86
429.454	4925.88
429.662	5251.5
429.869	4858.29
430.076	5183.92
430.284	5022.13
430.491	5239.22
430.699	5460.4
430.906	5548.46
431.114	5634.47
431.321	5751.21
431.528	5923.24
431.736	6435.23
431.943	6590.88
432.15	6465.95
432.358	6545.82
432.565	7014.8
432.772	6992.28
432.979	7178.64
433.187	7424.4
433.394	7424.4
433.601	7936.39
433.808	7756.17
434.016	7975.3
434.223	8198.53
434.43	8591.74
434.637	8571.26
434.844	8939.9
435.052	9136.5
435.259	9066.87
435.466	9253.23
435.673	9226.61
435.88	9967.98
436.087	10314.08
436.294	10125.67
436.501	9896.3
436.708	10297.7
436.915	10570.08
437.122	11075.93
437.329	10793.31
437.537	11383.12
437.743	11694.41
437.95	11387.22
438.157	12034.38
438.364	12503.36
438.571	12495.17
438.778	12671.29
438.985	13547.83
439.192	12988.73
439.399	13556.02
439.606	13443.38
439.813	13990.19
440.02	14932.25
440.227	14598.43
440.433	14446.88
440.64	14967.07
440.847	14838.05
441.054	15173.91
441.261	16263.43
441.467	15913.23
441.674	16318.73
441.881	17035.52
442.088	16840.96
442.294	16572.68
442.501	17219.83
442.708	17377.53
442.914	18243.82
443.121	18688.23
443.328	18301.16
443.534	19531.99
443.741	19013.85
443.948	18628.84
444.154	20146.38
444.361	19921.1
444.568	20230.35
444.774	20240.59
444.981	20502.73
445.187	21192.89
445.394	22075.57
445.6	21549.24
445.807	23812.24
446.013	22898.85
446.22	23101.6
446.426	23978.13
446.633	24088.72
446.839	24881.28
447.046	24205.45
447.252	25192.58
447.459	25188.48
447.665	25229.44
447.871	26214.51
448.078	27265.12
448.284	26124.4
448.491	26755.18
448.697	27856.98
448.903	28483.66
449.11	28397.65
449.316	27674.71
449.522	28397.65
449.728	29349.95
449.935	29528.13
450.141	29364.29
450.347	29995.06
450.553	28889.16
450.76	29433.92
450.966	30171.19
451.172	30212.15
451.378	30615.6
451.584	30302.26
451.791	30806.06
451.997	30677.04
452.203	31391.78
452.409	31109.16
452.615	31266.85
452.821	29929.53
453.027	29411.39
453.233	31047.72
453.44	29782.07
453.646	29851.7
453.852	30423.09
454.058	30965.8
454.264	29792.31
454.47	30453.81
454.676	29612.09
454.882	30779.43
455.088	28160.08
455.294	28368.98
455.5	28866.63
455.705	29222.98
455.911	28151.89
456.117	27289.7
456.323	26759.27
456.529	25520.25
456.735	26628.2
456.941	26099.83
457.147	25927.8
457.352	25032.83
457.558	24606.86
457.764	24785.03
457.97	24336.52
458.176	23462.04
458.381	23703.7
458.587	22499.5
458.793	22462.63
458.999	21176.51
459.204	22491.3
459.41	22335.66
459.616	20613.32
459.821	20787.39
460.027	20463.82
460.233	20295.88
460.438	19468.5
460.644	19607.76
460.85	18483.43
461.055	18184.43
461.261	18352.36
461.466	16922.88
461.672	16582.91
461.878	17746.16
462.083	16605.44
462.289	16201.99
462.494	15810.83
462.7	15165.72
462.905	14881.05
463.111	15323.41
463.316	15556.88
463.522	15089.95
463.727	15233.3
463.932	15225.11
464.138	14883.1
464.343	14999.84
464.549	14457.12
464.754	15135
464.959	14805.28
465.165	14569.76
465.37	14375.2
465.575	13846.83
465.781	14346.53
465.986	14348.58
466.191	14104.87
466.397	13707.57
466.602	12992.83
466.807	13551.92
467.012	13465.91
467.218	13343.03
467.423	13277.49
467.628	13447.47
467.833	13924.65
468.038	13340.98
468.244	12861.76
