Data from USB4F104151__76__11-06-21-104.txt Node

Date: Wed Mar 12 11:06:21 EDT 2025
User: louis
Spectrometer: USB4F10415
Trigger mode: 4
Integration Time (sec): 2.000000E-2
Scans to average: 1
Electric dark correction enabled: true
Nonlinearity correction enabled: false
Boxcar width: 0
XAxis mode: Wavelengths
Number of Pixels in Spectrum: 3648
>>>>>Begin Spectral Data<<<<<
178.204	-72.87
178.424	-72.87
178.644	-72.87
178.864	-103.59
179.084	-89.26
179.304	4.95
179.524	-68.78
179.744	0.85
179.964	4.95
180.184	45.91
180.404	-23.72
180.624	-15.53
180.844	58.2
181.064	-23.72
181.283	17.24
181.503	-11.43
181.723	11.09
181.943	29.52
182.163	117.59
182.383	-15.53
182.602	15.19
182.822	52.05
183.042	105.3
183.262	111.44
183.482	33.62
183.701	78.68
183.921	74.58
184.141	93.01
184.361	62.29
184.58	25.43
184.8	62.29
185.02	119.64
185.239	78.68
185.459	119.64
185.679	86.87
185.898	117.59
186.118	70.48
186.338	119.64
186.557	115.54
186.777	35.67
186.997	50
187.216	35.67
187.436	7
187.655	37.72
187.875	101.2
188.095	78.68
188.314	78.68
188.534	99.16
188.753	11.09
188.973	78.68
189.192	93.01
189.412	25.43
189.631	66.39
189.851	58.2
190.07	56.15
190.29	-17.58
190.509	43.86
190.729	13.14
190.948	80.72
191.168	117.59
191.387	82.77
191.607	64.34
191.826	86.87
192.045	-33.96
192.265	13.14
192.484	21.33
192.704	21.33
192.923	13.14
193.142	131.92
193.362	-23.72
193.581	60.24
193.8	66.39
194.02	-9.39
194.239	35.67
194.458	47.96
194.678	127.83
194.897	62.29
195.116	93.01
195.335	95.06
195.555	76.63
195.774	64.34
195.993	58.2
196.212	88.92
196.432	70.48
196.651	50
196.87	21.33
197.089	82.77
197.308	70.48
197.528	56.15
197.747	33.62
197.966	19.29
198.185	47.96
198.404	68.44
198.623	84.82
198.842	58.2
199.062	82.77
199.281	152.4
199.5	27.48
199.719	21.33
199.938	109.4
200.157	80.72
200.376	66.39
200.595	127.83
200.814	41.81
201.033	13.14
201.252	82.77
201.471	41.81
201.69	-3.24
201.909	35.67
202.128	37.72
202.347	50
202.566	27.48
202.785	19.29
203.004	58.2
203.223	136.02
203.442	64.34
203.661	101.2
203.879	19.29
204.098	62.29
204.317	17.24
204.536	101.2
204.755	121.68
204.974	62.29
205.193	23.38
205.411	39.76
205.63	86.87
205.849	56.15
206.068	103.25
206.287	109.4
206.505	29.52
206.724	88.92
206.943	7
207.162	50
207.381	-21.67
207.599	60.24
207.818	19.29
208.037	60.24
208.255	99.16
208.474	43.86
208.693	35.67
208.911	78.68
209.13	70.48
209.349	0.85
209.567	93.01
209.786	56.15
210.005	15.19
210.223	-1.19
210.442	52.05
210.661	66.39
210.879	23.38
211.098	23.38
211.316	62.29
211.535	64.34
211.753	-15.53
211.972	35.67
212.191	-13.48
212.409	35.67
212.628	50
212.846	90.96
213.065	52.05
213.283	80.72
213.502	117.59
213.72	47.96
213.938	60.24
214.157	76.63
214.375	35.67
214.594	31.57
214.812	111.44
215.031	111.44
215.249	86.87
215.467	58.2
215.686	35.67
215.904	88.92
216.122	97.11
216.341	103.25
216.559	41.81
216.778	113.49
216.996	140.12
217.214	45.91
217.432	2.9
217.651	21.33
217.869	117.59
218.087	86.87
218.306	-36.01
218.524	56.15
218.742	2.9
218.96	95.06
219.179	-5.29
219.397	43.86
219.615	68.44
219.833	70.48
220.051	54.1
220.27	25.43
220.488	97.11
220.706	47.96
220.924	90.96
221.142	47.96
221.36	-7.34
221.578	43.86
221.796	66.39
222.015	9.05
222.233	54.1
222.451	78.68
222.669	-23.72
222.887	95.06
223.105	52.05
223.323	97.11
223.541	50
223.759	136.02
223.977	58.2
224.195	84.82
224.413	54.1
224.631	90.96
224.849	62.29
225.067	90.96
225.285	90.96
225.503	45.91
225.721	95.06
225.939	70.48
226.157	52.05
226.375	121.68
226.592	17.24
226.81	93.01
227.028	31.57
227.246	113.49
227.464	66.39
227.682	90.96
227.9	82.77
228.117	50
228.335	72.53
228.553	103.25
228.771	19.29
228.989	37.72
229.206	29.52
229.424	80.72
229.642	25.43
229.86	-3.24
230.077	136.02
230.295	101.2
230.513	-5.29
230.731	70.48
230.948	15.19
231.166	90.96
231.384	41.81
231.601	15.19
231.819	107.35
232.037	37.72
232.254	33.62
232.472	131.92
232.689	52.05
232.907	138.07
233.125	82.77
233.342	17.24
233.56	50
233.777	50
233.995	78.68
234.213	29.52
234.43	95.06
234.648	56.15
234.865	111.44
235.083	82.77
235.3	90.96
235.518	82.77
235.735	105.3
235.953	0.85
236.17	72.53
236.388	109.4
236.605	115.54
236.822	64.34
237.04	74.58
237.257	45.91
237.475	54.1
237.692	31.57
237.909	125.78
238.127	93.01
238.344	66.39
238.562	-3.24
238.779	39.76
238.996	64.34
239.214	31.57
239.431	54.1
239.648	58.2
239.865	37.72
240.083	27.48
240.3	54.1
240.517	50
240.735	27.48
240.952	72.53
241.169	97.11
241.386	97.11
241.603	82.77
241.821	76.63
242.038	27.48
242.255	39.76
242.472	25.43
242.689	31.57
242.907	113.49
243.124	31.57
243.341	66.39
243.558	103.25
243.775	37.72
243.992	68.44
244.209	90.96
244.426	66.39
244.643	131.92
244.86	45.91
245.078	125.78
245.295	56.15
245.512	52.05
245.729	50
245.946	95.06
246.163	15.19
246.38	58.2
246.597	93.01
246.814	62.29
247.031	43.86
247.248	113.49
247.464	119.64
247.681	103.25
247.898	80.72
248.115	101.2
248.332	99.16
248.549	70.48
248.766	150.36
248.983	93.01
249.2	43.86
249.417	144.21
249.633	9.05
249.85	101.2
250.067	52.05
250.284	58.2
250.501	31.57
250.717	58.2
250.934	90.96
251.151	39.76
251.368	68.44
251.585	25.43
251.801	109.4
252.018	103.25
252.235	21.33
252.451	15.19
252.668	56.15
252.885	9.05
253.102	119.64
253.318	78.68
253.535	105.3
253.752	54.1
253.968	80.72
254.185	21.33
254.401	4.95
254.618	119.64
254.835	43.86
255.051	107.35
255.268	58.2
255.484	131.92
255.701	78.68
255.917	4.95
256.134	-15.53
256.351	74.58
256.567	-21.67
256.784	80.72
257	33.62
257.217	78.68
257.433	109.4
257.65	45.91
257.866	29.52
258.082	66.39
258.299	72.53
258.515	154.45
258.732	-1.19
258.948	-1.19
259.165	-15.53
259.381	7
259.597	154.45
259.814	72.53
260.03	72.53
260.246	60.24
260.463	35.67
260.679	70.48
260.895	-15.53
261.112	29.52
261.328	105.3
261.544	68.44
261.761	144.21
261.977	88.92
262.193	21.33
262.409	33.62
262.626	41.81
262.842	82.77
263.058	41.81
263.274	0.85
263.49	78.68
263.707	52.05
263.923	58.2
264.139	68.44
264.355	107.35
264.571	103.25
264.787	64.34
265.004	127.83
265.22	29.52
265.436	33.62
265.652	39.76
265.868	95.06
266.084	52.05
266.3	107.35
266.516	-9.39
266.732	78.68
266.948	93.01
267.164	19.29
267.38	19.29
267.596	133.97
267.812	90.96
268.028	74.58
268.244	39.76
268.46	138.07
268.676	58.2
268.892	15.19
269.108	119.64
269.324	74.58
269.54	113.49
269.756	90.96
269.972	25.43
270.188	2.9
270.403	19.29
270.619	54.1
270.835	113.49
271.051	19.29
271.267	66.39
271.483	62.29
271.698	50
271.914	52.05
272.13	15.19
272.346	115.54
272.562	105.3
272.777	-17.58
272.993	90.96
273.209	47.96
273.425	123.73
273.64	37.72
273.856	7
274.072	111.44
274.287	37.72
274.503	33.62
274.719	50
274.934	54.1
275.15	-23.72
275.366	105.3
275.581	27.48
275.797	45.91
276.012	31.57
276.228	99.16
276.444	68.44
276.659	31.57
276.875	60.24
277.09	86.87
277.306	27.48
277.521	54.1
277.737	33.62
277.952	133.97
278.168	54.1
278.383	43.86
278.599	90.96
278.814	29.52
279.03	-3.24
279.245	93.01
279.461	84.82
279.676	80.72
279.892	35.67
280.107	56.15
280.322	86.87
280.538	37.72
280.753	88.92
280.969	47.96
281.184	0.85
281.399	86.87
281.615	52.05
281.83	70.48
282.045	109.4
282.26	68.44
282.476	76.63
282.691	78.68
282.906	109.4
283.122	37.72
283.337	23.38
283.552	93.01
283.767	60.24
283.983	99.16
284.198	52.05
284.413	76.63
284.628	99.16
284.843	41.81
285.058	76.63
285.274	72.53
285.489	78.68
285.704	68.44
285.919	23.38
286.134	101.2
286.349	43.86
286.564	101.2
286.779	4.95
286.995	76.63
287.21	99.16
287.425	119.64
287.64	129.88
287.855	-11.43
288.07	21.33
288.285	113.49
288.5	39.76
288.715	105.3
288.93	119.64
289.145	76.63
289.36	70.48
289.575	101.2
289.79	88.92
290.004	78.68
290.219	111.44
290.434	84.82
290.649	47.96
290.864	13.14
291.079	60.24
291.294	76.63
291.509	72.53
291.724	58.2
291.938	33.62
292.153	74.58
292.368	41.81
292.583	123.73
292.798	62.29
293.012	86.87
293.227	72.53
293.442	43.86
293.657	35.67
293.871	78.68
294.086	0.85
294.301	78.68
294.516	84.82
294.73	43.86
294.945	-15.53
295.16	41.81
295.374	84.82
295.589	152.4
295.804	97.11
296.018	62.29
296.233	58.2
296.447	168.79
296.662	33.62
296.877	52.05
297.091	93.01
297.306	125.78
297.52	82.77
297.735	23.38
297.949	58.2
298.164	162.64
298.378	64.34
298.593	50
298.807	78.68
299.022	25.43
299.236	-7.34
299.451	164.69
299.665	62.29
299.88	17.24
300.094	121.68
300.309	95.06
300.523	109.4
300.737	7
300.952	25.43
301.166	68.44
301.381	101.2
301.595	119.64
301.809	84.82
302.024	140.12
302.238	4.95
302.452	82.77
302.667	62.29
302.881	99.16
303.095	160.59
303.309	121.68
303.524	93.01
303.738	72.53
303.952	62.29
304.166	136.02
304.381	9.05
304.595	88.92
304.809	103.25
305.023	97.11
305.237	111.44
305.452	-7.34
305.666	95.06
305.88	68.44
306.094	58.2
306.308	27.48
306.522	66.39
306.736	95.06
306.95	37.72
307.164	78.68
307.379	58.2
307.593	148.31
307.807	78.68
308.021	131.92
308.235	45.91
308.449	43.86
308.663	107.35
308.877	156.5
309.091	148.31
309.305	93.01
309.519	62.29
309.733	121.68
309.947	-3.24
310.161	129.88
310.374	70.48
310.588	84.82
310.802	62.29
311.016	136.02
311.23	107.35
311.444	19.29
311.658	45.91
311.872	105.3
312.085	45.91
312.299	111.44
312.513	93.01
312.727	74.58
312.941	31.57
313.154	90.96
313.368	111.44
313.582	74.58
313.796	47.96
314.009	25.43
314.223	101.2
314.437	78.68
314.651	72.53
314.864	76.63
315.078	21.33
315.292	93.01
315.505	58.2
315.719	72.53
315.933	150.36
316.146	82.77
316.36	62.29
316.573	176.98
316.787	111.44
317.001	76.63
317.214	39.76
317.428	68.44
317.641	80.72
317.855	80.72
318.068	54.1
318.282	70.48
318.495	-3.24
318.709	25.43
318.922	58.2
319.136	117.59
319.349	86.87
319.563	68.44
319.776	62.29
319.99	72.53
320.203	123.73
320.417	21.33
320.63	103.25
320.843	90.96
321.057	90.96
321.27	97.11
321.483	45.91
321.697	115.54
321.91	70.48
322.124	15.19
322.337	58.2
322.55	43.86
322.763	74.58
322.977	105.3
323.19	88.92
323.403	58.2
323.617	76.63
323.83	90.96
324.043	41.81
324.256	93.01
324.469	90.96
324.683	146.26
324.896	62.29
325.109	39.76
325.322	47.96
325.535	121.68
325.748	78.68
325.962	43.86
326.175	109.4
326.388	66.39
326.601	133.97
326.814	78.68
327.027	56.15
327.24	84.82
327.453	109.4
327.666	138.07
327.879	39.76
328.092	99.16
328.305	86.87
328.518	-11.43
328.731	72.53
328.944	66.39
329.157	97.11
329.37	84.82
329.583	80.72
329.796	52.05
330.009	123.73
330.222	160.59
330.435	66.39
330.648	9.05
330.861	54.1
331.073	54.1
331.286	72.53
331.499	80.72
331.712	62.29
331.925	0.85
332.138	70.48
332.35	62.29
332.563	52.05
332.776	58.2
332.989	35.67
333.202	95.06
333.414	148.31
333.627	82.77
333.84	54.1
334.053	93.01
334.265	129.88
334.478	115.54
334.691	66.39
334.903	93.01
335.116	58.2
335.329	76.63
335.541	62.29
335.754	76.63
335.966	62.29
336.179	80.72
336.392	111.44
336.604	72.53
336.817	64.34
337.029	129.88
337.242	103.25
337.454	84.82
337.667	144.21
337.88	115.54
338.092	21.33
338.305	138.07
338.517	86.87
338.729	119.64
338.942	117.59
339.154	62.29
339.367	138.07
339.579	72.53
339.792	136.02
340.004	66.39
340.217	95.06
340.429	103.25
340.641	80.72
340.854	45.91
341.066	21.33
341.278	109.4
341.491	80.72
341.703	90.96
341.915	105.3
342.128	88.92
342.34	86.87
342.552	54.1
342.764	11.09
342.977	76.63
343.189	56.15
343.401	166.74
343.613	103.25
343.826	66.39
344.038	127.83
344.25	-5.29
344.462	56.15
344.674	99.16
344.886	68.44
345.099	95.06
345.311	76.63
345.523	117.59
345.735	117.59
345.947	84.82
346.159	93.01
346.371	52.05
346.583	109.4
346.795	66.39
347.007	9.05
347.219	78.68
347.431	93.01
347.643	76.63
347.855	70.48
348.067	115.54
348.279	78.68
348.491	39.76
348.703	70.48
348.915	58.2
349.127	105.3
349.339	56.15
349.551	115.54
349.763	72.53
349.975	23.38
350.187	129.88
350.399	127.83
350.61	54.1
350.822	17.24
351.034	37.72
351.246	66.39
351.458	35.67
351.669	68.44
351.881	62.29
352.093	78.68
352.305	84.82
352.517	115.54
352.728	129.88
352.94	109.4
353.152	117.59
353.363	111.44
353.575	50
353.787	27.48
353.999	140.12
354.21	107.35
354.422	70.48
354.633	154.45
354.845	45.91
355.057	76.63
355.268	127.83
355.48	78.68
355.692	74.58
355.903	78.68
356.115	62.29
356.326	86.87
356.538	105.3
356.749	129.88
356.961	45.91
357.172	62.29
357.384	86.87
357.595	68.44
357.807	66.39
358.018	27.48
358.23	58.2
358.441	131.92
358.653	144.21
358.864	35.67
359.075	74.58
359.287	68.44
359.498	166.74
359.709	11.09
359.921	99.16
360.132	50
360.344	117.59
360.555	76.63
360.766	107.35
360.977	39.76
361.189	99.16
361.4	88.92
361.611	127.83
361.823	131.92
362.034	140.12
362.245	146.26
362.456	70.48
362.667	-23.72
362.879	84.82
363.09	109.4
363.301	74.58
363.512	121.68
363.723	131.92
363.935	123.73
364.146	66.39
364.357	90.96
364.568	109.4
364.779	64.34
364.99	70.48
365.201	72.53
365.412	123.73
365.623	11.09
365.834	99.16
366.045	37.72
366.256	93.01
366.467	107.35
366.678	74.58
366.889	58.2
367.1	21.33
367.311	146.26
367.522	84.82
367.733	103.25
367.944	99.16
368.155	88.92
368.366	119.64
368.577	64.34
368.788	105.3
368.999	-3.24
369.209	41.81
369.42	164.69
369.631	174.93
369.842	95.06
370.053	138.07
370.264	164.69
370.474	68.44
370.685	62.29
370.896	68.44
371.107	119.64
371.317	88.92
371.528	162.64
371.739	35.67
371.95	66.39
372.16	88.92
372.371	119.64
372.582	9.05
372.792	27.48
373.003	115.54
373.214	80.72
373.424	142.16
373.635	107.35
373.846	84.82
374.056	117.59
374.267	80.72
374.477	70.48
374.688	78.68
374.898	-7.34
375.109	115.54
375.319	127.83
375.53	125.78
375.74	66.39
375.951	103.25
376.161	138.07
376.372	123.73
376.582	99.16
376.793	86.87
377.003	58.2
377.214	58.2
377.424	82.77
377.635	84.82
377.845	88.92
378.055	99.16
378.266	37.72
378.476	50
378.686	15.19
378.897	60.24
379.107	121.68
379.317	78.68
379.528	129.88
379.738	140.12
379.948	41.81
380.158	125.78
380.369	101.2
380.579	144.21
380.789	29.52
380.999	115.54
381.21	109.4
381.42	189.27
381.63	78.68
381.84	15.19
382.05	144.21
382.261	138.07
382.471	115.54
382.681	7
382.891	93.01
383.101	93.01
383.311	127.83
383.521	121.68
383.731	158.55
383.941	84.82
384.151	109.4
384.361	50
384.571	88.92
384.781	138.07
384.991	43.86
385.201	103.25
385.411	80.72
385.621	60.24
385.831	99.16
386.041	129.88
386.251	19.29
386.461	111.44
386.671	70.48
386.881	86.87
387.091	113.49
387.301	148.31
387.511	58.2
387.72	72.53
387.93	103.25
388.14	99.16
388.35	142.16
388.56	142.16
388.769	123.73
388.979	140.12
389.189	84.82
389.399	142.16
389.609	133.97
389.818	113.49
390.028	60.24
390.238	138.07
390.447	95.06
390.657	97.11
390.867	103.25
391.076	101.2
391.286	117.59
391.496	162.64
391.705	168.79
391.915	160.59
392.125	95.06
392.334	154.45
392.544	172.88
392.753	109.4
392.963	33.62
393.172	158.55
393.382	47.96
393.591	166.74
393.801	113.49
394.01	131.92
394.22	80.72
394.429	125.78
394.639	105.3
394.848	119.64
395.058	117.59
395.267	146.26
395.477	133.97
395.686	109.4
395.895	152.4
396.105	154.45
396.314	176.98
396.524	222.03
396.733	140.12
396.942	168.79
397.152	119.64
397.361	154.45
397.57	133.97
397.78	23.38
397.989	189.27
398.198	209.75
398.407	162.64
398.617	164.69
398.826	176.98
399.035	174.93
399.244	181.07
399.453	68.44
399.663	162.64
399.872	232.27
400.081	146.26
400.29	217.94
400.499	201.55
400.708	224.08
400.917	260.95
401.127	152.4
401.336	174.93
401.545	209.75
401.754	191.31
401.963	213.84
402.172	152.4
402.381	144.21
402.59	258.9
402.799	246.61
403.008	250.71
403.217	201.55
403.426	205.65
403.635	162.64
403.844	185.17
404.053	209.75
404.262	260.95
404.471	179.03
404.68	150.36
404.888	236.37
405.097	254.8
405.306	191.31
405.515	287.57
405.724	244.56
405.933	353.1
406.142	344.91
406.35	260.95
406.559	195.41
406.768	240.47
406.977	312.14
407.185	285.52
407.394	320.34
407.603	279.38
407.812	316.24
408.02	312.14
408.229	338.77
408.438	381.78
408.646	285.52
408.855	344.91
409.064	359.25
409.272	355.15
409.481	463.69
409.69	308.05
409.898	371.54
410.107	369.49
410.315	557.9
410.524	506.7
410.733	432.97
410.941	488.27
411.15	578.38
411.358	549.71
411.567	557.9
411.775	521.04
411.984	611.15
412.192	564.04
412.401	566.09
412.609	586.57
412.818	658.25
413.026	695.11
413.234	783.18
413.443	729.93
413.651	787.27
413.86	783.18
414.068	850.76
414.276	869.19
414.485	850.76
414.693	856.9
414.901	920.39
415.11	920.39
415.318	861
415.526	951.11
415.734	1067.85
415.943	1137.48
416.151	1172.29
416.359	1094.47
416.567	1102.66
416.776	1200.96
416.984	1207.11
417.192	1401.66
417.4	1348.42
417.608	1387.33
417.817	1356.61
418.025	1524.54
418.233	1616.7
418.441	1598.27
418.649	1706.81
418.857	1792.83
419.065	1829.69
419.273	1790.78
419.481	1860.41
419.689	2100.02
419.897	1971
420.105	2104.12
420.313	2155.32
420.521	2059.06
420.729	2337.59
420.937	2343.73
421.145	2450.22
421.353	2515.76
421.561	2706.22
421.769	2659.12
421.977	2700.08
422.185	2730.8
422.393	2876.2
422.601	3240.74
422.809	3117.86
423.017	3113.77
423.224	3207.97
423.432	3314.47
423.64	3478.3
423.848	3679.01
424.056	3693.34
424.263	3834.65
424.471	3857.18
424.679	4084.5
424.887	4295.44
425.094	4389.65
425.302	4297.49
425.51	4565.78
425.718	4778.76
425.925	4731.66
426.133	4924.17
426.341	5153.54
426.548	5417.73
426.756	5432.07
426.964	5421.83
427.171	5679.87
427.379	6025.98
427.586	6218.49
427.794	6279.93
428.001	6451.95
428.209	6703.86
428.417	6595.31
428.624	7254.76
428.832	7262.95
429.039	7037.67
429.247	7189.22
429.454	7633.63
429.662	8272.6
429.869	7719.65
430.076	8291.03
430.284	8075.99
430.491	8420.05
430.699	8839.89
430.906	9016.01
431.114	8891.09
431.321	9265.86
431.528	9573.06
431.736	9999.04
431.943	10582.71
432.15	10306.23
432.358	10539.7
432.565	11080.36
432.772	10848.94
432.979	11616.93
433.187	11625.12
433.394	11811.49
433.601	12780.18
433.808	12585.62
434.016	12395.16
434.223	13128.33
434.43	13834.88
434.637	13800.07
434.844	14307.96
435.052	14629.49
435.259	14572.15
435.466	14760.56
435.673	14621.3
435.88	15448.68
436.087	16296.54
436.294	16376.41
436.501	16001.63
436.708	16302.68
436.915	16814.68
437.122	17510.99
437.329	17392.2
437.537	18113.09
437.743	18643.51
437.95	18401.85
438.157	19483.18
438.364	20259.36
438.571	19919.4
438.778	19827.24
438.985	21924.36
439.192	21131.79
439.399	21959.17
439.606	21162.51
439.813	22575.61
440.02	23693.8
440.227	23114.23
440.433	23003.64
440.64	23964.14
440.847	23626.22
441.054	24381.92
441.261	25772.49
441.467	25590.22
441.674	26268.1
441.881	27175.35
442.088	26720.7
442.294	26644.93
442.501	27556.27
442.708	27931.05
442.914	29233.56
443.121	30093.71
443.328	29585.81
443.534	31779.18
443.741	30675.33
443.948	30122.38
444.154	32506.21
444.361	32196.97
444.568	32334.18
444.774	32850.27
444.981	33065.31
445.187	33714.51
445.394	35293.5
445.6	35246.4
445.807	37884.18
446.013	36581.67
446.22	37288.22
446.426	38437.13
446.633	39049.47
446.839	39907.57
447.046	38394.12
447.252	40671.46
447.459	40921.32
447.665	40286.45
447.871	42094.8
448.078	44071.09
448.284	42205.39
448.491	42604.75
448.697	44497.07
448.903	45547.68
449.11	45357.22
449.316	44775.59
449.522	45557.92
449.728	46456.98
449.935	46995.59
450.141	46737.55
450.347	47890.55
450.553	46520.46
450.76	46712.97
450.966	47700.09
451.172	47995
451.378	48881.77
451.584	47700.09
451.791	49053.8
451.997	49485.92
452.203	49567.84
452.409	49420.39
452.615	49008.75
452.821	47446.15
453.027	47024.26
453.233	49498.21
453.44	47089.8
453.646	47739
453.852	48380.02
454.058	48826.48
454.264	46891.15
454.47	48060.54
454.676	47097.99
454.882	48572.53
455.088	44581.04
455.294	45043.88
455.5	45402.27
455.705	45996.18
455.911	44439.73
456.117	43409.6
456.323	42602.7
456.529	40282.35
456.735	42113.23
456.941	40999.14
457.147	40077.55
457.352	39428.35
457.558	38850.82
457.764	38936.84
457.97	38394.12
458.176	37126.43
458.381	37257.5
458.587	35074.37
458.793	35301.69
458.999	33515.86
459.204	36063.54
459.41	34761.03
459.616	32635.24
459.821	32616.8
460.027	32850.27
460.233	31592.82
460.438	30409.09
460.644	31033.72
460.85	29499.8
461.055	29372.82
461.261	28711.33
461.466	26771.9
461.672	25930.19
461.878	27728.3
462.083	25934.28
462.289	25545.17
462.494	25211.35
462.7	24345.06
462.905	23331.31
463.111	24236.52
463.316	24248.8
463.522	24148.45
463.727	23941.61
463.932	23970.28
464.138	23833.07
464.343	23734.76
464.549	23069.17
464.754	23898.6
464.959	23914.98
465.165	23319.03
465.37	22632.96
465.575	22229.51
465.781	22989.3
465.986	23230.96
466.191	22198.79
466.397	21740.04
466.602	20802.07
