Data from USB4F104151__212__11-10-35-336.txt Node

Date: Wed Mar 12 11:10:35 EDT 2025
User: louis
Spectrometer: USB4F10415
Trigger mode: 4
Integration Time (sec): 2.000000E-2
Scans to average: 1
Electric dark correction enabled: true
Nonlinearity correction enabled: false
Boxcar width: 0
XAxis mode: Wavelengths
Number of Pixels in Spectrum: 3648
>>>>>Begin Spectral Data<<<<<
178.204	-32.94
178.424	-32.94
178.644	-32.94
178.864	-149.67
179.084	-2.22
179.304	-49.32
179.524	-39.08
179.744	-8.36
179.964	53.08
180.184	-16.55
180.404	1.88
180.624	-14.51
180.844	85.84
181.064	-57.51
181.283	-14.51
181.503	40.79
181.723	18.26
181.943	18.26
182.163	91.99
182.383	-41.13
182.602	38.74
182.822	59.22
183.042	18.26
183.262	36.69
183.482	-39.08
183.701	67.41
183.921	-6.31
184.141	1.88
184.361	1.88
184.58	53.08
184.8	53.08
185.02	-16.55
185.239	100.18
185.459	-14.51
185.679	3.93
185.898	-41.13
186.118	12.12
186.338	22.36
186.557	46.93
186.777	34.64
186.997	-16.55
187.216	-14.51
187.436	22.36
187.655	22.36
187.875	61.27
188.095	-8.36
188.314	48.98
188.534	26.45
188.753	73.56
188.973	57.17
189.192	79.7
189.412	24.4
189.631	5.97
189.851	12.12
190.07	28.5
190.29	-14.51
190.509	18.26
190.729	36.69
190.948	42.84
191.168	118.61
191.387	69.46
191.607	44.88
191.826	-71.85
192.045	16.21
192.265	40.79
192.484	38.74
192.704	87.89
192.923	-43.18
193.142	110.42
193.362	61.27
193.581	24.4
193.8	8.02
194.02	18.26
194.239	-2.22
194.458	53.08
194.678	40.79
194.897	67.41
195.116	24.4
195.335	24.4
195.555	-8.36
195.774	42.84
195.993	102.23
196.212	10.07
196.432	-2.22
196.651	-37.03
196.87	26.45
197.089	114.52
197.308	-61.61
197.528	57.17
197.747	34.64
197.966	-2.22
198.185	100.18
198.404	61.27
198.623	59.22
198.842	30.55
199.062	16.21
199.281	3.93
199.5	-18.6
199.719	96.08
199.938	44.88
200.157	26.45
200.376	91.99
200.595	12.12
200.814	8.02
201.033	59.22
201.252	38.74
201.471	-16.55
201.69	96.08
201.909	83.8
202.128	89.94
202.347	79.7
202.566	28.5
202.785	-55.47
203.004	-18.6
203.223	120.66
203.442	53.08
203.661	-30.89
203.879	61.27
204.098	83.8
204.317	1.88
204.536	34.64
204.755	-2.22
204.974	34.64
205.193	67.41
205.411	57.17
205.63	81.75
205.849	26.45
206.068	67.41
206.287	94.04
206.505	83.8
206.724	30.55
206.943	51.03
207.162	61.27
207.381	77.65
207.599	59.22
207.818	59.22
208.037	-10.41
208.255	38.74
208.474	16.21
208.693	32.6
208.911	55.12
209.13	42.84
209.349	20.31
209.567	-12.46
209.786	18.26
210.005	63.32
210.223	18.26
210.442	5.97
210.661	22.36
210.879	91.99
211.098	22.36
211.316	18.26
211.535	57.17
211.753	36.69
211.972	38.74
212.191	67.41
212.409	61.27
212.628	38.74
212.846	26.45
213.065	28.5
213.283	110.42
213.502	30.55
213.72	-10.41
213.938	12.12
214.157	118.61
214.375	8.02
214.594	16.21
214.812	71.51
215.031	18.26
215.249	100.18
215.467	36.69
215.686	18.26
215.904	65.36
216.122	26.45
216.341	48.98
216.559	57.17
216.778	143.19
216.996	42.84
217.214	59.22
217.432	-6.31
217.651	-24.75
217.869	44.88
218.087	-2.22
218.306	30.55
218.524	98.13
218.742	-14.51
218.96	22.36
219.179	-32.94
219.397	57.17
219.615	44.88
219.833	-22.7
220.051	67.41
220.27	48.98
220.488	36.69
220.706	102.23
220.924	-22.7
221.142	28.5
221.36	28.5
221.578	87.89
221.796	57.17
222.015	75.6
222.233	34.64
222.451	24.4
222.669	-57.51
222.887	94.04
223.105	65.36
223.323	51.03
223.541	20.31
223.759	126.8
223.977	51.03
224.195	59.22
224.413	-8.36
224.631	10.07
224.849	38.74
225.067	40.79
225.285	18.26
225.503	36.69
225.721	-16.55
225.939	51.03
226.157	65.36
226.375	112.47
226.592	-4.27
226.81	40.79
227.028	81.75
227.246	69.46
227.464	44.88
227.682	85.84
227.9	30.55
228.117	14.17
228.335	42.84
228.553	59.22
228.771	18.26
228.989	81.75
229.206	1.88
229.424	24.4
229.642	59.22
229.86	-10.41
230.077	59.22
230.295	-6.31
230.513	73.56
230.731	75.6
230.948	38.74
231.166	108.37
231.384	83.8
231.601	73.56
231.819	26.45
232.037	65.36
232.254	-30.89
232.472	30.55
232.689	73.56
232.907	48.98
233.125	22.36
233.342	-37.03
233.56	89.94
233.777	5.97
233.995	73.56
234.213	145.24
234.43	51.03
234.648	28.5
234.865	24.4
235.083	3.93
235.3	96.08
235.518	30.55
235.735	30.55
235.953	-0.17
236.17	30.55
236.388	32.6
236.605	73.56
236.822	14.17
237.04	55.12
237.257	28.5
237.475	69.46
237.692	30.55
237.909	46.93
238.127	-10.41
238.344	63.32
238.562	51.03
238.779	38.74
238.996	-6.31
239.214	44.88
239.431	71.51
239.648	59.22
239.865	38.74
240.083	114.52
240.3	18.26
240.517	63.32
240.735	22.36
240.952	32.6
241.169	40.79
241.386	-8.36
241.603	-30.89
241.821	59.22
242.038	48.98
242.255	79.7
242.472	77.65
242.689	196.43
242.907	91.99
243.124	-28.84
243.341	130.9
243.558	14.17
243.775	44.88
243.992	22.36
244.209	57.17
244.426	59.22
244.643	-8.36
244.86	67.41
245.078	-34.99
245.295	-18.6
245.512	75.6
245.729	59.22
245.946	69.46
246.163	42.84
246.38	44.88
246.597	96.08
246.814	22.36
247.031	63.32
247.248	42.84
247.464	10.07
247.681	-0.17
247.898	48.98
248.115	55.12
248.332	14.17
248.549	1.88
248.766	59.22
248.983	48.98
249.2	-8.36
249.417	-2.22
249.633	48.98
249.85	69.46
250.067	42.84
250.284	71.51
250.501	94.04
250.717	83.8
250.934	12.12
251.151	73.56
251.368	44.88
251.585	110.42
251.801	-10.41
252.018	73.56
252.235	5.97
252.451	34.64
252.668	53.08
252.885	130.9
253.102	-26.79
253.318	-0.17
253.535	32.6
253.752	44.88
253.968	26.45
254.185	77.65
254.401	-16.55
254.618	51.03
254.835	51.03
255.051	51.03
255.268	57.17
255.484	94.04
255.701	40.79
255.917	83.8
256.134	-8.36
256.351	3.93
256.567	34.64
256.784	79.7
257	-8.36
257.217	75.6
257.433	-0.17
257.65	77.65
257.866	5.97
258.082	42.84
258.299	-4.27
258.515	132.95
258.732	30.55
258.948	79.7
259.165	-20.65
259.381	65.36
259.597	-16.55
259.814	46.93
260.03	36.69
260.246	96.08
260.463	71.51
260.679	1.88
260.895	36.69
261.112	69.46
261.328	14.17
261.544	-16.55
261.761	100.18
261.977	42.84
262.193	20.31
262.409	36.69
262.626	59.22
262.842	26.45
263.058	20.31
263.274	130.9
263.49	26.45
263.707	48.98
263.923	44.88
264.139	32.6
264.355	63.32
264.571	30.55
264.787	100.18
265.004	-0.17
265.22	51.03
265.436	96.08
265.652	77.65
265.868	57.17
266.084	-8.36
266.3	96.08
266.516	79.7
266.732	53.08
266.948	40.79
267.164	73.56
267.38	51.03
267.596	22.36
267.812	24.4
268.028	59.22
268.244	30.55
268.46	67.41
268.676	71.51
268.892	104.28
269.108	3.93
269.324	65.36
269.54	22.36
269.756	38.74
269.972	44.88
270.188	73.56
270.403	71.51
270.619	48.98
270.835	32.6
271.051	59.22
271.267	8.02
271.483	53.08
271.698	130.9
271.914	79.7
272.13	94.04
272.346	51.03
272.562	24.4
272.777	32.6
272.993	-63.66
273.209	73.56
273.425	51.03
273.64	42.84
273.856	36.69
274.072	38.74
274.287	40.79
274.503	51.03
274.719	104.28
274.934	-12.46
275.15	-51.37
275.366	-2.22
275.581	69.46
275.797	40.79
276.012	40.79
276.228	36.69
276.444	-8.36
276.659	104.28
276.875	89.94
277.09	55.12
277.306	83.8
277.521	18.26
277.737	1.88
277.952	67.41
278.168	126.8
278.383	89.94
278.599	5.97
278.814	-12.46
279.03	-45.23
279.245	89.94
279.461	-47.27
279.676	83.8
279.892	-4.27
280.107	71.51
280.322	-0.17
280.538	83.8
280.753	-14.51
280.969	40.79
281.184	24.4
281.399	42.84
281.615	32.6
281.83	-6.31
282.045	-20.65
282.26	30.55
282.476	48.98
282.691	94.04
282.906	34.64
283.122	-14.51
283.337	44.88
283.552	63.32
283.767	34.64
283.983	65.36
284.198	16.21
284.413	14.17
284.628	-4.27
284.843	26.45
285.058	1.88
285.274	118.61
285.489	10.07
285.704	28.5
285.919	-67.75
286.134	83.8
286.349	18.26
286.564	28.5
286.779	18.26
286.995	51.03
287.21	-26.79
287.425	48.98
287.64	53.08
287.855	61.27
288.07	18.26
288.285	85.84
288.5	44.88
288.715	1.88
288.93	24.4
289.145	71.51
289.36	71.51
289.575	-14.51
289.79	5.97
290.004	65.36
290.219	34.64
290.434	44.88
290.649	-39.08
290.864	63.32
291.079	67.41
291.294	122.71
291.509	1.88
291.724	-8.36
291.938	-8.36
292.153	63.32
292.368	3.93
292.583	-86.19
292.798	75.6
293.012	14.17
293.227	30.55
293.442	59.22
293.657	30.55
293.871	-6.31
294.086	30.55
294.301	102.23
294.516	104.28
294.73	61.27
294.945	38.74
295.16	75.6
295.374	36.69
295.589	20.31
295.804	30.55
296.018	59.22
296.233	79.7
296.447	65.36
296.662	30.55
296.877	57.17
297.091	81.75
297.306	100.18
297.52	-4.27
297.735	75.6
297.949	89.94
298.164	14.17
298.378	3.93
298.593	28.5
298.807	108.37
299.022	98.13
299.236	36.69
299.451	-26.79
299.665	89.94
299.88	94.04
300.094	-22.7
300.309	51.03
300.523	112.47
300.737	8.02
300.952	36.69
301.166	83.8
301.381	10.07
301.595	40.79
301.809	18.26
302.024	91.99
302.238	-2.22
302.452	36.69
302.667	102.23
302.881	87.89
303.095	42.84
303.309	-8.36
303.524	73.56
303.738	63.32
303.952	8.02
304.166	22.36
304.381	61.27
304.595	63.32
304.809	48.98
305.023	67.41
305.237	48.98
305.452	48.98
305.666	79.7
305.88	46.93
306.094	108.37
306.308	36.69
306.522	42.84
306.736	120.66
306.95	112.47
307.164	28.5
307.379	46.93
307.593	96.08
307.807	96.08
308.021	20.31
308.235	67.41
308.449	-6.31
308.663	38.74
308.877	116.56
309.091	44.88
309.305	94.04
309.519	18.26
309.733	147.28
309.947	40.79
310.161	69.46
310.374	44.88
310.588	98.13
310.802	8.02
311.016	28.5
311.23	28.5
311.444	38.74
311.658	57.17
311.872	36.69
312.085	85.84
312.299	141.14
312.513	36.69
312.727	-12.46
312.941	28.5
313.154	26.45
313.368	69.46
313.582	32.6
313.796	91.99
314.009	-4.27
314.223	44.88
314.437	32.6
314.651	38.74
314.864	106.32
315.078	55.12
315.292	-37.03
315.505	40.79
315.719	40.79
315.933	44.88
316.146	116.56
316.36	-10.41
316.573	69.46
316.787	89.94
317.001	122.71
317.214	44.88
317.428	8.02
317.641	51.03
317.855	22.36
318.068	36.69
318.282	53.08
318.495	18.26
318.709	63.32
318.922	40.79
319.136	100.18
319.349	122.71
319.563	-6.31
319.776	-37.03
319.99	96.08
320.203	87.89
320.417	67.41
320.63	44.88
320.843	106.32
321.057	51.03
321.27	42.84
321.483	83.8
321.697	57.17
321.91	135
322.124	46.93
322.337	44.88
322.55	5.97
322.763	65.36
322.977	22.36
323.19	-43.18
323.403	40.79
323.617	38.74
323.83	128.85
324.043	67.41
324.256	89.94
324.469	81.75
324.683	87.89
324.896	12.12
325.109	71.51
325.322	24.4
325.535	63.32
325.748	79.7
325.962	65.36
326.175	67.41
326.388	77.65
326.601	36.69
326.814	38.74
327.027	71.51
327.24	161.62
327.453	8.02
327.666	32.6
327.879	91.99
328.092	91.99
328.305	83.8
328.518	96.08
328.731	42.84
328.944	96.08
329.157	75.6
329.37	71.51
329.583	79.7
329.796	118.61
330.009	16.21
330.222	55.12
330.435	110.42
330.648	73.56
330.861	20.31
331.073	108.37
331.286	46.93
331.499	120.66
331.712	116.56
331.925	42.84
332.138	69.46
332.35	57.17
332.563	38.74
332.776	171.86
332.989	-6.31
333.202	18.26
333.414	-6.31
333.627	44.88
333.84	26.45
334.053	46.93
334.265	-6.31
334.478	32.6
334.691	91.99
334.903	46.93
335.116	96.08
335.329	51.03
335.541	87.89
335.754	87.89
335.966	94.04
336.179	40.79
336.392	85.84
336.604	55.12
336.817	22.36
337.029	34.64
337.242	24.4
337.454	91.99
337.667	10.07
337.88	98.13
338.092	69.46
338.305	110.42
338.517	87.89
338.729	36.69
338.942	79.7
339.154	5.97
339.367	14.17
339.579	100.18
339.792	91.99
340.004	55.12
340.217	83.8
340.429	100.18
340.641	22.36
340.854	55.12
341.066	104.28
341.278	73.56
341.491	122.71
341.703	18.26
341.915	44.88
342.128	12.12
342.34	79.7
342.552	-2.22
342.764	34.64
342.977	100.18
343.189	67.41
343.401	98.13
343.613	24.4
343.826	75.6
344.038	16.21
344.25	-2.22
344.462	122.71
344.674	71.51
344.886	61.27
345.099	42.84
345.311	77.65
345.523	18.26
345.735	8.02
345.947	100.18
346.159	122.71
346.371	67.41
346.583	104.28
346.795	59.22
347.007	51.03
347.219	67.41
347.431	44.88
347.643	106.32
347.855	57.17
348.067	114.52
348.279	46.93
348.491	-18.6
348.703	36.69
348.915	83.8
349.127	55.12
349.339	149.33
349.551	18.26
349.763	5.97
349.975	155.47
350.187	-41.13
350.399	26.45
350.61	34.64
350.822	51.03
351.034	77.65
351.246	59.22
351.458	116.56
351.669	65.36
351.881	108.37
352.093	57.17
352.305	61.27
352.517	104.28
352.728	46.93
352.94	5.97
353.152	57.17
353.363	46.93
353.575	128.85
353.787	57.17
353.999	14.17
354.21	67.41
354.422	10.07
354.633	143.19
354.845	116.56
355.057	12.12
355.268	110.42
355.48	22.36
355.692	-10.41
355.903	69.46
356.115	5.97
356.326	38.74
356.538	98.13
356.749	44.88
356.961	108.37
357.172	20.31
357.384	10.07
357.595	65.36
357.807	36.69
358.018	73.56
358.23	3.93
358.441	100.18
358.653	57.17
358.864	-0.17
359.075	51.03
359.287	32.6
359.498	-32.94
359.709	53.08
359.921	114.52
360.132	28.5
360.344	-4.27
360.555	51.03
360.766	57.17
360.977	98.13
361.189	51.03
361.4	30.55
361.611	67.41
361.823	5.97
362.034	98.13
362.245	51.03
362.456	32.6
362.667	32.6
362.879	-20.65
363.09	20.31
363.301	48.98
363.512	57.17
363.723	67.41
363.935	53.08
364.146	116.56
364.357	26.45
364.568	12.12
364.779	69.46
364.99	104.28
365.201	22.36
365.412	83.8
365.623	126.8
365.834	135
366.045	67.41
366.256	42.84
366.467	87.89
366.678	102.23
366.889	46.93
367.1	34.64
367.311	87.89
367.522	75.6
367.733	-0.17
367.944	75.6
368.155	38.74
368.366	18.26
368.577	53.08
368.788	114.52
368.999	36.69
369.209	12.12
369.42	81.75
369.631	157.52
369.842	38.74
370.053	10.07
370.264	32.6
370.474	34.64
370.685	75.6
370.896	71.51
371.107	145.24
371.317	63.32
371.528	30.55
371.739	48.98
371.95	-14.51
372.16	67.41
372.371	85.84
372.582	48.98
372.792	83.8
373.003	106.32
373.214	75.6
373.424	83.8
373.635	89.94
373.846	98.13
374.056	77.65
374.267	55.12
374.477	57.17
374.688	22.36
374.898	32.6
375.109	83.8
375.319	75.6
375.53	122.71
375.74	96.08
375.951	141.14
376.161	67.41
376.372	53.08
376.582	-30.89
376.793	30.55
377.003	-2.22
377.214	18.26
377.424	149.33
377.635	26.45
377.845	48.98
378.055	108.37
378.266	69.46
378.476	57.17
378.686	87.89
378.897	55.12
379.107	38.74
379.317	59.22
379.528	91.99
379.738	53.08
379.948	-20.65
380.158	67.41
380.369	120.66
380.579	108.37
380.789	75.6
380.999	96.08
381.21	34.64
381.42	67.41
381.63	73.56
381.84	89.94
382.05	171.86
382.261	104.28
382.471	71.51
382.681	30.55
382.891	73.56
383.101	61.27
383.311	59.22
383.521	8.02
383.731	96.08
383.941	91.99
384.151	79.7
384.361	48.98
384.571	51.03
384.781	75.6
384.991	81.75
385.201	96.08
385.411	96.08
385.621	163.67
385.831	55.12
386.041	112.47
386.251	51.03
386.461	110.42
386.671	42.84
386.881	16.21
387.091	14.17
387.301	106.32
387.511	71.51
387.72	102.23
387.93	100.18
388.14	77.65
388.35	83.8
388.56	94.04
388.769	83.8
388.979	91.99
389.189	55.12
389.399	120.66
389.609	-14.51
389.818	100.18
390.028	51.03
390.238	55.12
390.447	100.18
390.657	79.7
390.867	91.99
391.076	65.36
391.286	57.17
391.496	10.07
391.705	73.56
391.915	46.93
392.125	46.93
392.334	38.74
392.544	36.69
392.753	46.93
392.963	114.52
393.172	118.61
393.382	83.8
393.591	96.08
393.801	59.22
394.01	63.32
394.22	24.4
394.429	38.74
394.639	106.32
394.848	67.41
395.058	85.84
395.267	75.6
395.477	71.51
395.686	102.23
395.895	167.76
396.105	104.28
396.314	153.43
396.524	89.94
396.733	36.69
396.942	120.66
397.152	36.69
397.361	69.46
397.57	130.9
397.78	124.76
397.989	124.76
398.198	89.94
398.407	124.76
398.617	137.04
398.826	163.67
399.035	96.08
399.244	79.7
399.453	128.85
399.663	116.56
399.872	124.76
400.081	106.32
400.29	65.36
400.499	18.26
400.708	71.51
400.917	137.04
401.127	204.63
401.336	57.17
401.545	116.56
401.754	116.56
401.963	151.38
402.172	63.32
402.381	171.86
402.59	106.32
402.799	112.47
403.008	77.65
403.217	178
403.426	104.28
403.635	124.76
403.844	167.76
404.053	81.75
404.262	91.99
404.471	198.48
404.68	57.17
404.888	231.25
405.097	223.06
405.306	274.26
405.515	139.09
405.724	227.15
405.933	106.32
406.142	202.58
406.35	208.72
406.559	161.62
406.768	196.43
406.977	221.01
407.185	169.81
407.394	247.63
407.603	165.71
407.812	214.87
408.02	180.05
408.229	208.72
408.438	196.43
408.646	237.39
408.855	218.96
409.064	233.3
409.272	259.92
409.481	225.11
409.69	237.39
409.898	261.97
410.107	276.31
410.315	266.07
410.524	276.31
410.733	315.22
410.941	347.98
411.15	395.09
411.358	264.02
411.567	304.98
411.775	382.8
411.984	325.46
412.192	360.27
412.401	405.33
412.609	454.48
412.818	440.14
413.026	417.61
413.234	395.09
413.443	446.29
413.651	460.62
413.86	464.72
414.068	517.97
414.276	571.21
414.485	487.25
414.693	614.22
414.901	612.17
415.11	628.56
415.318	597.84
415.526	651.08
415.734	649.04
415.943	698.19
416.151	689.99
416.359	730.95
416.567	747.34
416.776	823.11
416.984	835.4
417.192	964.42
417.4	816.97
417.608	878.41
417.817	859.98
418.025	905.03
418.233	989
418.441	989
418.649	1085.25
418.857	1175.36
419.065	1107.78
419.273	1050.44
419.481	1187.65
419.689	1195.84
419.897	1345.34
420.105	1367.87
420.313	1445.7
420.521	1357.63
420.729	1455.94
420.937	1492.8
421.145	1464.13
421.353	1697.6
421.561	1660.73
421.769	1726.27
421.977	1836.86
422.185	1670.97
422.393	1828.67
422.601	1933.11
422.809	1939.26
423.017	2002.74
423.224	1969.98
423.432	2139.96
423.64	2150.2
423.848	2381.62
424.056	2379.57
424.263	2416.43
424.471	2422.58
424.679	2428.72
424.887	2672.43
425.094	2684.72
425.302	2703.15
425.51	2891.56
425.718	2975.53
425.925	2934.57
426.133	3016.49
426.341	3245.86
426.548	3307.3
426.756	3237.67
426.964	3458.85
427.171	3508
427.379	3677.98
427.586	3800.86
427.794	3858.2
428.001	4032.28
428.209	4237.08
428.417	4120.34
428.624	4521.74
428.832	4693.77
429.039	4431.63
429.247	4439.83
429.454	4935.43
429.662	5281.54
429.869	4990.73
430.076	5160.71
430.284	5125.9
430.491	5156.61
430.699	5555.97
430.906	5764.86
431.114	5826.3
431.321	5678.85
431.528	5940.99
431.736	6444.79
431.943	6704.88
432.15	6565.62
432.358	6635.25
432.565	7071.47
432.772	7061.23
432.979	7313.13
433.187	7274.21
433.394	7415.52
433.601	7868.13
433.808	8074.97
434.016	7941.85
434.223	8193.75
434.43	8632.02
434.637	8527.57
434.844	9129.67
435.052	9270.98
435.259	9051.85
435.466	9330.37
435.673	9148.11
435.88	9914.05
436.087	10067.64
436.294	10530.48
436.501	10208.95
436.708	10184.38
436.915	10628.79
437.122	11220.65
437.329	11028.14
437.537	11452.07
437.743	11515.56
437.95	11609.76
438.157	12197.53
438.364	12418.71
438.571	12289.69
438.778	12600.98
438.985	13846.15
439.192	13078.16
439.399	13553.29
439.606	13311.63
439.813	14032.51
440.02	14673.53
440.227	14702.2
440.433	14593.65
440.64	15009.39
440.847	15009.39
441.054	15160.94
441.261	16111.2
441.467	16207.45
441.674	16356.96
441.881	16885.33
442.088	16922.2
442.294	16852.56
442.501	17090.13
442.708	17546.83
442.914	18236.99
443.121	19064.37
443.328	18597.43
443.534	19881.51
443.741	19187.25
443.948	19043.89
444.154	20172.32
444.361	20203.04
444.568	20422.17
444.774	20198.95
444.981	20725.27
445.187	21001.75
445.394	21892.62
445.6	22007.3
445.807	24145.38
446.013	22767.1
446.22	23815.66
446.426	24047.08
446.633	24458.72
446.839	25048.54
447.046	24415.71
447.252	25624.01
447.459	25589.2
447.665	25392.59
447.871	26437.06
448.078	27995.56
448.284	26471.87
448.491	27338.16
448.697	27864.49
448.903	28632.48
449.11	28439.97
449.316	28165.54
449.522	28777.89
449.728	29355.41
449.935	29771.15
450.141	29650.32
450.347	30256.52
450.553	29463.96
450.76	29877.65
450.966	30514.56
451.172	30119.31
451.378	30854.53
451.584	30324.1
451.791	31397.24
451.997	31159.67
452.203	31501.68
452.409	31622.51
452.615	31352.18
452.821	30115.21
453.027	29795.73
453.233	31235.45
453.44	29916.56
453.646	30635.39
453.852	30678.4
454.058	30969.21
454.264	29775.25
454.47	30700.93
454.676	29863.31
454.882	31006.08
455.088	27973.03
455.294	28745.12
455.5	28724.64
455.705	29414.8
455.911	28390.82
456.117	27479.47
456.323	26934.71
456.529	25675.21
456.735	26838.46
456.941	26228.17
457.147	25636.3
457.352	24810.97
457.558	24548.83
457.764	24686.04
457.97	24368.61
458.176	23961.06
458.381	23850.47
458.587	22654.46
458.793	22617.6
458.999	21145.11
459.204	22795.77
459.41	22470.14
459.616	20528.67
459.821	20973.08
460.027	20639.26
460.233	20096.55
460.438	19283.5
460.644	19220.02
460.85	18579
461.055	18196.03
461.261	18351.68
461.466	16813.65
461.672	16537.18
461.878	17610.31
462.083	16578.14
462.289	16172.64
462.494	16010.85
462.7	15240.81
462.905	14952.05
463.111	15523.43
463.316	15611.5
463.522	15257.2
463.727	15140.46
463.932	15124.08
464.138	15074.93
464.343	15038.06
464.549	14597.75
464.754	15074.93
464.959	14974.58
465.165	15036.02
465.37	14321.27
465.575	13690.5
465.781	14386.81
465.986	14503.54
466.191	14132.86
466.397	13819.52
466.602	13008.53
466.807	13637.25
467.012	13672.07
467.218	13454.98
467.423	13174.41
467.628	13432.46
467.833	13807.23
