Data from USB4F104151__288__11-12-58-580.txt Node

Date: Wed Mar 12 11:12:58 EDT 2025
User: louis
Spectrometer: USB4F10415
Trigger mode: 4
Integration Time (sec): 2.000000E-2
Scans to average: 1
Electric dark correction enabled: true
Nonlinearity correction enabled: false
Boxcar width: 0
XAxis mode: Wavelengths
Number of Pixels in Spectrum: 3648
>>>>>Begin Spectral Data<<<<<
178.204	-50.52
178.424	-50.52
178.644	-50.52
178.864	-56.66
179.084	-91.48
179.304	21.16
179.524	39.59
179.744	-42.32
179.964	80.55
180.184	19.11
180.404	-68.95
180.624	-21.85
180.844	8.87
181.064	-68.95
181.283	-21.85
181.503	27.31
181.723	27.31
181.943	-42.32
182.163	33.45
182.383	15.02
182.602	-5.46
182.822	-36.18
183.042	19.11
183.262	-52.56
183.482	-11.61
183.701	-36.18
183.921	-30.04
184.141	8.87
184.361	-3.41
184.58	60.07
184.8	39.59
185.02	-5.46
185.239	29.35
185.459	47.79
185.679	49.83
185.898	-48.47
186.118	-5.46
186.338	-15.7
186.557	23.21
186.777	45.74
186.997	27.31
187.216	35.5
187.436	19.11
187.655	66.22
187.875	23.21
188.095	-13.65
188.314	45.74
188.534	21.16
188.753	39.59
188.973	4.78
189.192	4.78
189.412	68.27
189.631	53.93
189.851	-9.56
190.07	-23.89
190.29	-25.94
190.509	41.64
190.729	19.11
190.948	43.69
191.168	25.26
191.387	33.45
191.607	-5.46
191.826	-5.46
192.045	31.4
192.265	-44.37
192.484	10.92
192.704	35.5
192.923	35.5
193.142	39.59
193.362	27.31
193.581	0.68
193.8	-25.94
194.02	19.11
194.239	-15.7
194.458	88.75
194.678	33.45
194.897	27.31
195.116	-3.41
195.335	6.83
195.555	-83.28
195.774	-1.37
195.993	68.27
196.212	53.93
196.432	27.31
196.651	35.5
196.87	-9.56
197.089	27.31
197.308	55.98
197.528	19.11
197.747	-44.37
197.966	23.21
198.185	123.56
198.404	0.68
198.623	39.59
198.842	0.68
199.062	35.5
199.281	72.36
199.5	4.78
199.719	-1.37
199.938	53.93
200.157	8.87
200.376	64.17
200.595	53.93
200.814	-48.47
201.033	47.79
201.252	6.83
201.471	35.5
201.69	37.55
201.909	-40.28
202.128	31.4
202.347	55.98
202.566	62.12
202.785	6.83
203.004	-23.89
203.223	70.31
203.442	98.99
203.661	19.11
203.879	101.03
204.098	23.21
204.317	-66.9
204.536	15.02
204.755	-25.94
204.974	-3.41
205.193	45.74
205.411	80.55
205.63	35.5
205.849	76.46
206.068	6.83
206.287	-44.37
206.505	-7.51
206.724	98.99
206.943	-11.61
207.162	-38.23
207.381	15.02
207.599	21.16
207.818	47.79
208.037	-9.56
208.255	-5.46
208.474	-7.51
208.693	45.74
208.911	94.89
209.13	-83.28
209.349	27.31
209.567	66.22
209.786	43.69
210.005	45.74
210.223	72.36
210.442	-40.28
210.661	31.4
210.879	-9.56
211.098	58.03
211.316	29.35
211.535	17.07
211.753	53.93
211.972	12.97
212.191	12.97
212.409	35.5
212.628	53.93
212.846	10.92
213.065	76.46
213.283	125.61
213.502	10.92
213.72	-17.75
213.938	25.26
214.157	76.46
214.375	23.21
214.594	-19.8
214.812	6.83
215.031	-48.47
215.249	82.6
215.467	70.31
215.686	39.59
215.904	39.59
216.122	33.45
216.341	62.12
216.559	12.97
216.778	29.35
216.996	19.11
217.214	-7.51
217.432	43.69
217.651	-21.85
217.869	-7.51
218.087	-34.13
218.306	-36.18
218.524	49.83
218.742	15.02
218.96	19.11
219.179	45.74
219.397	43.69
219.615	0.68
219.833	21.16
220.051	23.21
220.27	25.26
220.488	90.79
220.706	43.69
220.924	37.55
221.142	17.07
221.36	10.92
221.578	60.07
221.796	27.31
222.015	17.07
222.233	17.07
222.451	51.88
222.669	-13.65
222.887	62.12
223.105	-32.08
223.323	53.93
223.541	-60.76
223.759	31.4
223.977	78.51
224.195	49.83
224.413	23.21
224.631	-11.61
224.849	23.21
225.067	27.31
225.285	-23.89
225.503	62.12
225.721	-9.56
225.939	-17.75
226.157	19.11
226.375	23.21
226.592	76.46
226.81	33.45
227.028	39.59
227.246	53.93
227.464	12.97
227.682	-46.42
227.9	60.07
228.117	37.55
228.335	37.55
228.553	39.59
228.771	25.26
228.989	-5.46
229.206	31.4
229.424	-17.75
229.642	66.22
229.86	27.31
230.077	41.64
230.295	-44.37
230.513	10.92
230.731	45.74
230.948	66.22
231.166	33.45
231.384	-58.71
231.601	21.16
231.819	15.02
232.037	2.73
232.254	-23.89
232.472	31.4
232.689	107.18
232.907	10.92
233.125	-21.85
233.342	6.83
233.56	-17.75
233.777	51.88
233.995	12.97
234.213	113.32
234.43	17.07
234.648	10.92
234.865	-5.46
235.083	-5.46
235.3	12.97
235.518	103.08
235.735	-21.85
235.953	70.31
236.17	-17.75
236.388	-11.61
236.605	23.21
236.822	12.97
237.04	115.37
237.257	92.84
237.475	60.07
237.692	92.84
237.909	29.35
238.127	-27.99
238.344	23.21
238.562	2.73
238.779	4.78
238.996	47.79
239.214	-64.85
239.431	58.03
239.648	21.16
239.865	39.59
240.083	25.26
240.3	-3.41
240.517	8.87
240.735	-5.46
240.952	68.27
241.169	35.5
241.386	43.69
241.603	6.83
241.821	29.35
242.038	70.31
242.255	19.11
242.472	43.69
242.689	47.79
242.907	29.35
243.124	33.45
243.341	-5.46
243.558	21.16
243.775	10.92
243.992	-25.94
244.209	23.21
244.426	72.36
244.643	-1.37
244.86	23.21
245.078	-13.65
245.295	88.75
245.512	0.68
245.729	10.92
245.946	33.45
246.163	-73.04
246.38	-25.94
246.597	41.64
246.814	-15.7
247.031	-13.65
247.248	31.4
247.464	-13.65
247.681	2.73
247.898	35.5
248.115	39.59
248.332	2.73
248.549	64.17
248.766	19.11
248.983	19.11
249.2	43.69
249.417	29.35
249.633	39.59
249.85	35.5
250.067	29.35
250.284	17.07
250.501	23.21
250.717	66.22
250.934	-46.42
251.151	43.69
251.368	-9.56
251.585	31.4
251.801	62.12
252.018	-15.7
252.235	127.66
252.451	-1.37
252.668	-13.65
252.885	35.5
253.102	68.27
253.318	25.26
253.535	-15.7
253.752	-13.65
253.968	6.83
254.185	53.93
254.401	-13.65
254.618	-48.47
254.835	0.68
255.051	27.31
255.268	78.51
255.484	88.75
255.701	-3.41
255.917	19.11
256.134	23.21
256.351	58.03
256.567	33.45
256.784	12.97
257	-5.46
257.217	66.22
257.433	4.78
257.65	2.73
257.866	19.11
258.082	55.98
258.299	43.69
258.515	68.27
258.732	-5.46
258.948	-13.65
259.165	78.51
259.381	8.87
259.597	6.83
259.814	12.97
260.03	12.97
260.246	6.83
260.463	19.11
260.679	-38.23
260.895	10.92
261.112	72.36
261.328	45.74
261.544	72.36
261.761	43.69
261.977	33.45
262.193	-95.57
262.409	-15.7
262.626	64.17
262.842	25.26
263.058	31.4
263.274	88.75
263.49	37.55
263.707	58.03
263.923	74.41
264.139	-30.04
264.355	-5.46
264.571	25.26
264.787	41.64
265.004	45.74
265.22	-1.37
265.436	49.83
265.652	66.22
265.868	-1.37
266.084	-7.51
266.3	15.02
266.516	17.07
266.732	39.59
266.948	-21.85
267.164	105.13
267.38	55.98
267.596	-11.61
267.812	53.93
268.028	-46.42
268.244	-42.32
268.46	45.74
268.676	4.78
268.892	4.78
269.108	-34.13
269.324	45.74
269.54	84.65
269.756	66.22
269.972	-7.51
270.188	6.83
270.403	2.73
270.619	43.69
270.835	23.21
271.051	27.31
271.267	-34.13
271.483	-9.56
271.698	84.65
271.914	-9.56
272.13	39.59
272.346	15.02
272.562	-50.52
272.777	6.83
272.993	72.36
273.209	45.74
273.425	49.83
273.64	66.22
273.856	58.03
274.072	35.5
274.287	72.36
274.503	23.21
274.719	33.45
274.934	74.41
275.15	-25.94
275.366	6.83
275.581	35.5
275.797	68.27
276.012	60.07
276.228	60.07
276.444	29.35
276.659	111.27
276.875	-46.42
277.09	41.64
277.306	-30.04
277.521	4.78
277.737	-19.8
277.952	60.07
278.168	6.83
278.383	60.07
278.599	72.36
278.814	55.98
279.03	45.74
279.245	27.31
279.461	-23.89
279.676	27.31
279.892	21.16
280.107	51.88
280.322	29.35
280.538	58.03
280.753	19.11
280.969	25.26
281.184	27.31
281.399	35.5
281.615	31.4
281.83	10.92
282.045	15.02
282.26	27.31
282.476	49.83
282.691	45.74
282.906	-38.23
283.122	2.73
283.337	-23.89
283.552	19.11
283.767	39.59
283.983	-46.42
284.198	27.31
284.413	23.21
284.628	82.6
284.843	-5.46
285.058	17.07
285.274	90.79
285.489	15.02
285.704	23.21
285.919	-15.7
286.134	31.4
286.349	53.93
286.564	6.83
286.779	86.7
286.995	21.16
287.21	31.4
287.425	-21.85
287.64	21.16
287.855	62.12
288.07	27.31
288.285	27.31
288.5	51.88
288.715	-52.56
288.93	0.68
289.145	29.35
289.36	0.68
289.575	31.4
289.79	-21.85
290.004	-13.65
290.219	-25.94
290.434	19.11
290.649	33.45
290.864	21.16
291.079	29.35
291.294	39.59
291.509	0.68
291.724	6.83
291.938	27.31
292.153	12.97
292.368	47.79
292.583	8.87
292.798	68.27
293.012	125.61
293.227	41.64
293.442	19.11
293.657	-34.13
293.871	82.6
294.086	55.98
294.301	-32.08
294.516	-1.37
294.73	72.36
294.945	31.4
295.16	39.59
295.374	76.46
295.589	43.69
295.804	4.78
296.018	-30.04
296.233	64.17
296.447	82.6
296.662	0.68
296.877	43.69
297.091	19.11
297.306	15.02
297.52	31.4
297.735	72.36
297.949	4.78
298.164	23.21
298.378	47.79
298.593	17.07
298.807	-27.99
299.022	101.03
299.236	82.6
299.451	-5.46
299.665	2.73
299.88	41.64
300.094	58.03
300.309	39.59
300.523	31.4
300.737	-5.46
300.952	98.99
301.166	27.31
301.381	-23.89
301.595	41.64
301.809	39.59
302.024	47.79
302.238	17.07
302.452	62.12
302.667	0.68
302.881	90.79
303.095	-23.89
303.309	49.83
303.524	-5.46
303.738	60.07
303.952	60.07
304.166	29.35
304.381	-15.7
304.595	10.92
304.809	35.5
305.023	31.4
305.237	-58.71
305.452	45.74
305.666	17.07
305.88	-9.56
306.094	64.17
306.308	98.99
306.522	109.22
306.736	23.21
306.95	-54.61
307.164	-13.65
307.379	2.73
307.593	51.88
307.807	-7.51
308.021	115.37
308.235	-1.37
308.449	53.93
308.663	62.12
308.877	2.73
309.091	-23.89
309.305	49.83
309.519	-48.47
309.733	66.22
309.947	-36.18
310.161	19.11
310.374	10.92
310.588	90.79
310.802	53.93
311.016	2.73
311.23	39.59
311.444	-62.8
311.658	33.45
311.872	33.45
312.085	55.98
312.299	-44.37
312.513	82.6
312.727	-13.65
312.941	-36.18
313.154	10.92
313.368	10.92
313.582	35.5
313.796	82.6
314.009	37.55
314.223	76.46
314.437	35.5
314.651	78.51
314.864	8.87
315.078	39.59
315.292	23.21
315.505	47.79
315.719	58.03
315.933	10.92
316.146	58.03
316.36	74.41
316.573	41.64
316.787	-13.65
317.001	45.74
317.214	49.83
317.428	64.17
317.641	66.22
317.855	-13.65
318.068	68.27
318.282	39.59
318.495	4.78
318.709	-25.94
318.922	10.92
319.136	27.31
319.349	98.99
319.563	29.35
319.776	15.02
319.99	12.97
320.203	-15.7
320.417	111.27
320.63	-30.04
320.843	19.11
321.057	88.75
321.27	49.83
321.483	29.35
321.697	19.11
321.91	90.79
322.124	27.31
322.337	41.64
322.55	35.5
322.763	76.46
322.977	17.07
323.19	19.11
323.403	39.59
323.617	-19.8
323.83	74.41
324.043	49.83
324.256	92.84
324.469	-21.85
324.683	43.69
324.896	-11.61
325.109	37.55
325.322	6.83
325.535	21.16
325.748	58.03
325.962	-42.32
326.175	-3.41
326.388	55.98
326.601	47.79
326.814	33.45
327.027	21.16
327.24	29.35
327.453	8.87
327.666	51.88
327.879	-7.51
328.092	23.21
328.305	90.79
328.518	8.87
328.731	-1.37
328.944	4.78
329.157	-13.65
329.37	23.21
329.583	58.03
329.796	47.79
330.009	51.88
330.222	23.21
330.435	15.02
330.648	60.07
330.861	55.98
331.073	68.27
331.286	76.46
331.499	60.07
331.712	-83.28
331.925	101.03
332.138	-5.46
332.35	84.65
332.563	-42.32
332.776	62.12
332.989	49.83
333.202	2.73
333.414	72.36
333.627	105.13
333.84	0.68
334.053	51.88
334.265	-27.99
334.478	49.83
334.691	45.74
334.903	82.6
335.116	29.35
335.329	94.89
335.541	96.94
335.754	62.12
335.966	55.98
336.179	53.93
336.392	-32.08
336.604	111.27
336.817	72.36
337.029	29.35
337.242	-3.41
337.454	64.17
337.667	17.07
337.88	8.87
338.092	58.03
338.305	113.32
338.517	-21.85
338.729	60.07
338.942	39.59
339.154	-5.46
339.367	35.5
339.579	-34.13
339.792	-60.76
340.004	76.46
340.217	-7.51
340.429	29.35
340.641	-17.75
340.854	8.87
341.066	31.4
341.278	88.75
341.491	55.98
341.703	37.55
341.915	49.83
342.128	43.69
342.34	-5.46
342.552	17.07
342.764	51.88
342.977	51.88
343.189	-32.08
343.401	17.07
343.613	17.07
343.826	17.07
344.038	-32.08
344.25	76.46
344.462	0.68
344.674	27.31
344.886	0.68
345.099	4.78
345.311	0.68
345.523	15.02
345.735	39.59
345.947	15.02
346.159	45.74
346.371	23.21
346.583	82.6
346.795	31.4
347.007	107.18
347.219	82.6
347.431	-13.65
347.643	111.27
347.855	27.31
348.067	105.13
348.279	17.07
348.491	4.78
348.703	27.31
348.915	27.31
349.127	-11.61
349.339	19.11
349.551	23.21
349.763	72.36
349.975	0.68
350.187	31.4
350.399	66.22
350.61	-3.41
350.822	68.27
351.034	21.16
351.246	43.69
351.458	41.64
351.669	80.55
351.881	51.88
352.093	31.4
352.305	39.59
352.517	92.84
352.728	21.16
352.94	72.36
353.152	62.12
353.363	55.98
353.575	47.79
353.787	137.9
353.999	80.55
354.21	41.64
354.422	-32.08
354.633	0.68
354.845	37.55
355.057	68.27
355.268	25.26
355.48	17.07
355.692	-81.24
355.903	6.83
356.115	33.45
356.326	-17.75
356.538	98.99
356.749	-21.85
356.961	55.98
357.172	-17.75
357.384	-3.41
357.595	78.51
357.807	39.59
358.018	-13.65
358.23	17.07
358.441	70.31
358.653	-3.41
358.864	55.98
359.075	27.31
359.287	37.55
359.498	109.22
359.709	55.98
359.921	21.16
360.132	76.46
360.344	12.97
360.555	-42.32
360.766	-11.61
360.977	58.03
361.189	39.59
361.4	-19.8
361.611	43.69
361.823	78.51
362.034	35.5
362.245	-85.33
362.456	45.74
362.667	60.07
362.879	60.07
363.09	70.31
363.301	53.93
363.512	-21.85
363.723	19.11
363.935	51.88
364.146	55.98
364.357	86.7
364.568	98.99
364.779	-13.65
364.99	80.55
365.201	60.07
365.412	82.6
365.623	45.74
365.834	39.59
366.045	82.6
366.256	60.07
366.467	-42.32
366.678	33.45
366.889	4.78
367.1	-7.51
367.311	-25.94
367.522	109.22
367.733	55.98
367.944	39.59
368.155	10.92
368.366	19.11
368.577	43.69
368.788	101.03
368.999	47.79
369.209	-1.37
369.42	35.5
369.631	31.4
369.842	2.73
370.053	80.55
370.264	45.74
370.474	49.83
370.685	62.12
370.896	92.84
371.107	43.69
371.317	121.51
371.528	58.03
371.739	74.41
371.95	29.35
372.16	27.31
372.371	27.31
372.582	76.46
372.792	43.69
373.003	58.03
373.214	31.4
373.424	68.27
373.635	43.69
373.846	31.4
374.056	78.51
374.267	76.46
374.477	39.59
374.688	29.35
374.898	35.5
375.109	92.84
375.319	-7.51
375.53	92.84
375.74	25.26
375.951	41.64
376.161	51.88
376.372	88.75
376.582	-11.61
376.793	66.22
377.003	19.11
377.214	31.4
377.424	82.6
377.635	37.55
377.845	47.79
378.055	111.27
378.266	15.02
378.476	64.17
378.686	39.59
378.897	6.83
379.107	25.26
379.317	33.45
379.528	21.16
379.738	117.42
379.948	-42.32
380.158	62.12
380.369	90.79
380.579	74.41
380.789	35.5
380.999	113.32
381.21	29.35
381.42	90.79
381.63	0.68
381.84	12.97
382.05	19.11
382.261	53.93
382.471	6.83
382.681	68.27
382.891	101.03
383.101	8.87
383.311	-7.51
383.521	41.64
383.731	53.93
383.941	121.51
384.151	-17.75
384.361	49.83
384.571	39.59
384.781	45.74
384.991	4.78
385.201	127.66
385.411	15.02
385.621	60.07
385.831	12.97
386.041	72.36
386.251	98.99
386.461	66.22
386.671	31.4
386.881	35.5
387.091	64.17
387.301	72.36
387.511	-42.32
387.72	6.83
387.93	76.46
388.14	37.55
388.35	-3.41
388.56	55.98
388.769	47.79
388.979	55.98
389.189	19.11
389.399	82.6
389.609	31.4
389.818	86.7
390.028	76.46
390.238	80.55
390.447	70.31
390.657	55.98
390.867	45.74
391.076	-23.89
391.286	66.22
391.496	70.31
391.705	31.4
391.915	4.78
392.125	74.41
392.334	55.98
392.544	84.65
392.753	101.03
392.963	35.5
393.172	74.41
393.382	80.55
393.591	68.27
393.801	0.68
394.01	80.55
394.22	62.12
394.429	76.46
394.639	84.65
394.848	33.45
395.058	101.03
395.267	37.55
395.477	88.75
395.686	84.65
395.895	129.7
396.105	154.28
396.314	66.22
396.524	109.22
396.733	43.69
396.942	141.99
397.152	43.69
397.361	135.85
397.57	53.93
397.78	78.51
397.989	76.46
398.198	141.99
398.407	-9.56
398.617	101.03
398.826	82.6
399.035	105.13
399.244	21.16
399.453	129.7
399.663	158.38
399.872	90.79
400.081	41.64
400.29	144.04
400.499	78.51
400.708	129.7
400.917	115.37
401.127	76.46
401.336	129.7
401.545	113.32
401.754	113.32
401.963	123.56
402.172	107.18
402.381	76.46
402.59	191.14
402.799	82.6
403.008	109.22
403.217	141.99
403.426	125.61
403.635	137.9
403.844	117.42
404.053	107.18
404.262	158.38
404.471	174.76
404.68	129.7
404.888	156.33
405.097	86.7
405.306	182.95
405.515	101.03
405.724	125.61
405.933	107.18
406.142	107.18
406.35	166.57
406.559	168.62
406.768	168.62
406.977	285.35
407.185	193.19
407.394	182.95
407.603	207.53
407.812	211.62
408.02	189.1
408.229	305.83
408.438	223.91
408.646	170.66
408.855	185
409.064	260.77
409.272	240.3
409.481	258.73
409.69	293.54
409.898	248.49
410.107	297.64
410.315	324.26
410.524	328.36
410.733	326.31
410.941	324.26
411.15	334.5
411.358	365.22
411.567	420.52
411.775	348.84
411.984	359.08
412.192	420.52
412.401	397.99
412.609	469.67
412.818	502.43
413.026	512.67
413.234	471.72
413.443	531.11
413.651	567.97
413.86	520.87
414.068	559.78
414.276	596.64
414.485	537.25
414.693	551.59
414.901	772.77
415.11	707.23
415.318	760.48
415.526	783.01
415.734	770.72
415.943	737.95
416.151	852.64
416.359	830.11
416.567	844.45
416.776	830.11
416.984	1030.81
417.192	985.76
417.4	877.21
417.608	1014.43
417.817	991.9
418.025	1053.34
418.233	1165.98
418.441	1133.21
418.649	1204.89
418.857	1256.09
419.065	1438.36
419.273	1247.9
419.481	1340.05
419.689	1450.64
419.897	1581.71
420.105	1446.55
420.313	1503.89
420.521	1614.48
420.729	1567.38
420.937	1708.69
421.145	1841.81
421.353	1819.28
421.561	1888.91
421.769	1931.92
421.977	2050.7
422.185	1987.21
422.393	2105.99
422.601	2339.46
422.809	2316.94
423.017	2198.15
423.224	2419.33
423.432	2574.98
423.64	2529.92
423.848	2706.05
424.056	2626.18
424.263	2912.89
424.471	2722.43
424.679	2814.59
424.887	3168.89
425.094	3134.07
425.302	3213.95
425.51	3226.23
425.718	3445.37
425.925	3367.54
426.133	3502.71
426.341	3762.8
426.548	3918.45
426.756	3953.26
426.964	3912.3
427.171	4168.3
427.379	4344.42
427.586	4360.81
427.794	4528.74
428.001	4665.96
428.209	4895.33
428.417	4930.14
428.624	5253.72
428.832	5190.24
429.039	5018.21
429.247	5112.41
429.454	5708.37
429.662	6146.64
429.869	5655.12
430.076	6025.81
430.284	5861.97
430.491	6062.67
430.699	6400.59
430.906	6611.53
431.114	6550.09
431.321	6758.98
431.528	6869.57
431.736	7232.06
431.943	7766.58
432.15	7500.34
432.358	7514.68
432.565	8028.72
432.772	7907.89
432.979	8393.26
433.187	8342.06
433.394	8452.65
433.601	9116.19
433.808	9169.44
434.016	9202.21
434.223	9626.14
434.43	10158.61
434.637	9792.02
434.844	10375.69
435.052	10605.06
435.259	10416.65
435.466	10560.01
435.673	10498.57
435.88	11213.31
436.087	11756.02
436.294	11807.22
436.501	11483.64
436.708	11895.29
436.915	12204.53
437.122	12868.07
437.329	12724.71
437.537	13136.35
437.743	13388.25
437.95	13146.59
438.157	13838.81
438.364	14406.09
438.571	14328.27
438.778	14524.88
438.985	15796.67
439.192	15069.64
439.399	15643.07
439.606	15317.44
439.813	16384.43
440.02	17140.13
440.227	16798.12
440.433	16650.67
440.64	17310.11
440.847	17250.72
441.054	17701.28
441.261	18569.62
441.467	18354.58
441.674	18958.73
441.881	19665.28
442.088	19292.55
442.294	19116.42
442.501	19630.46
442.708	20113.78
442.914	21008.75
443.121	21819.74
443.328	21043.56
443.534	22399.32
443.741	22118.75
443.948	21952.86
444.154	23406.92
444.361	23193.93
444.568	23271.75
444.774	23501.12
444.981	23617.86
445.187	24420.66
445.394	25559.33
445.6	25129.26
445.807	27412.74
446.013	26229.02
446.22	26802.45
446.426	27896.06
446.633	27967.74
446.839	29098.22
447.046	27795.71
447.252	29239.53
447.459	28887.28
447.665	28911.86
447.871	30546.14
448.078	31652.04
448.284	29886.69
448.491	31094.99
448.697	32051.39
448.903	32764.09
449.11	32870.58
449.316	32178.37
449.522	32696.5
449.728	34050.21
449.935	34136.23
450.141	33652.91
450.347	34529.44
450.553	33560.75
450.76	33771.69
450.966	34951.32
451.172	34590.87
451.378	35385.49
451.584	34656.41
451.791	35485.84
451.997	35481.74
452.203	35803.27
452.409	36188.29
452.615	35659.91
452.821	34343.07
453.027	33996.96
453.233	36098.18
453.44	34199.71
453.646	34625.69
453.852	34947.22
454.058	35117.2
454.264	34205.86
454.47	34771.1
454.676	34312.35
454.882	34984.08
455.088	32092.35
455.294	32843.96
455.5	32993.46
455.705	33640.62
455.911	32309.44
456.117	31398.09
456.323	31084.75
456.529	29112.56
456.735	30656.73
456.941	29876.45
457.147	29155.57
457.352	28041.47
457.558	28223.74
457.764	28246.27
457.97	27779.33
458.176	26937.62
458.381	27123.98
458.587	25577.76
458.793	25540.9
458.999	24076.6
459.204	25825.57
459.41	25399.59
459.616	23789.89
459.821	23732.54
460.027	23572.8
460.233	23044.43
460.438	22004.06
460.644	22407.51
460.85	21082.47
461.055	21006.7
461.261	20873.58
461.466	19194.25
461.672	18657.68
461.878	20214.13
462.083	18745.74
462.289	18440.59
462.494	18110.87
462.7	17377.7
462.905	16900.52
463.111	17613.21
463.316	17781.15
463.522	17050.02
463.727	17312.16
463.932	17254.82
464.138	16992.68
464.343	16947.62
464.549	16529.84
464.754	17238.44
464.959	17017.25
465.165	16849.32
465.37	16185.78
465.575	15505.85
465.781	16279.99
465.986	16658.86
466.191	15808.95
466.397	15583.68
466.602	14897.61
466.807	15253.95
467.012	15591.87
467.218	15401.41
467.423	15321.54
467.628	14989.77
