Data from USB4F104151__178__11-09-30-243.txt Node

Date: Wed Mar 12 11:09:30 EDT 2025
User: louis
Spectrometer: USB4F10415
Trigger mode: 4
Integration Time (sec): 2.000000E-2
Scans to average: 1
Electric dark correction enabled: true
Nonlinearity correction enabled: false
Boxcar width: 0
XAxis mode: Wavelengths
Number of Pixels in Spectrum: 3648
>>>>>Begin Spectral Data<<<<<
178.204	-117.93
178.424	-117.93
178.644	-117.93
178.864	-103.59
179.084	-122.02
179.304	15.19
179.524	-60.59
179.744	-58.54
179.964	84.82
180.184	-1.19
180.404	-5.29
180.624	47.96
180.844	-33.96
181.064	-64.68
181.283	33.62
181.503	-1.19
181.723	43.86
181.943	33.62
182.163	-5.29
182.383	19.29
182.602	-40.11
182.822	39.76
183.042	29.52
183.262	-42.15
183.482	-1.19
183.701	-27.82
183.921	11.09
184.141	-7.34
184.361	29.52
184.58	-48.3
184.8	43.86
185.02	29.52
185.239	-7.34
185.459	23.38
185.679	-1.19
185.898	4.95
186.118	-11.43
186.338	-76.97
186.557	9.05
186.777	60.24
186.997	50
187.216	-40.11
187.436	25.43
187.655	-23.72
187.875	68.44
188.095	-21.67
188.314	60.24
188.534	60.24
188.753	-19.63
188.973	47.96
189.192	45.91
189.412	-3.24
189.631	45.91
189.851	19.29
190.07	88.92
190.29	-36.01
190.509	25.43
190.729	19.29
190.948	-7.34
191.168	37.72
191.387	84.82
191.607	-42.15
191.826	9.05
192.045	39.76
192.265	11.09
192.484	-19.63
192.704	35.67
192.923	-21.67
193.142	27.48
193.362	-13.48
193.581	7
193.8	13.14
194.02	56.15
194.239	-15.53
194.458	37.72
194.678	62.29
194.897	11.09
195.116	45.91
195.335	-27.82
195.555	19.29
195.774	66.39
195.993	39.76
196.212	-1.19
196.432	31.57
196.651	-91.31
196.87	-7.34
197.089	111.44
197.308	4.95
197.528	-11.43
197.747	-44.2
197.966	4.95
198.185	23.38
198.404	-38.06
198.623	-7.34
198.842	-9.39
199.062	-9.39
199.281	-62.63
199.5	19.29
199.719	37.72
199.938	31.57
200.157	23.38
200.376	-1.19
200.595	60.24
200.814	-48.3
201.033	15.19
201.252	-21.67
201.471	76.63
201.69	-38.06
201.909	15.19
202.128	2.9
202.347	62.29
202.566	-15.53
202.785	-7.34
203.004	-54.44
203.223	72.53
203.442	-33.96
203.661	37.72
203.879	56.15
204.098	-7.34
204.317	-50.35
204.536	4.95
204.755	-42.15
204.974	109.4
205.193	-21.67
205.411	43.86
205.63	-19.63
205.849	88.92
206.068	-15.53
206.287	58.2
206.505	-33.96
206.724	17.24
206.943	52.05
207.162	-9.39
207.381	-38.06
207.599	15.19
207.818	-19.63
208.037	0.85
208.255	11.09
208.474	37.72
208.693	43.86
208.911	31.57
209.13	-13.48
209.349	-31.91
209.567	-58.54
209.786	-3.24
210.005	-38.06
210.223	103.25
210.442	-25.77
210.661	-5.29
210.879	-91.31
211.098	2.9
211.316	37.72
211.535	47.96
211.753	-31.91
211.972	-42.15
212.191	-31.91
212.409	-64.68
212.628	41.81
212.846	54.1
213.065	37.72
213.283	-44.2
213.502	39.76
213.72	29.52
213.938	35.67
214.157	21.33
214.375	-46.25
214.594	19.29
214.812	43.86
215.031	-60.59
215.249	-66.73
215.467	-42.15
215.686	43.86
215.904	76.63
216.122	-31.91
216.341	-29.87
216.559	-52.39
216.778	62.29
216.996	-3.24
217.214	33.62
217.432	-72.87
217.651	-31.91
217.869	-13.48
218.087	-7.34
218.306	-101.55
218.524	15.19
218.742	33.62
218.96	68.44
219.179	13.14
219.397	-27.82
219.615	37.72
219.833	43.86
220.051	29.52
220.27	4.95
220.488	23.38
220.706	21.33
220.924	54.1
221.142	13.14
221.36	25.43
221.578	56.15
221.796	-62.63
222.015	-46.25
222.233	-15.53
222.451	74.58
222.669	-66.73
222.887	47.96
223.105	-27.82
223.323	27.48
223.541	-13.48
223.759	-17.58
223.977	-9.39
224.195	-3.24
224.413	21.33
224.631	58.2
224.849	23.38
225.067	27.48
225.285	23.38
225.503	-25.77
225.721	-13.48
225.939	-38.06
226.157	-36.01
226.375	11.09
226.592	-46.25
226.81	84.82
227.028	78.68
227.246	101.2
227.464	21.33
227.682	-11.43
227.9	7
228.117	11.09
228.335	-19.63
228.553	29.52
228.771	19.29
228.989	15.19
229.206	9.05
229.424	25.43
229.642	-29.87
229.86	-25.77
230.077	56.15
230.295	-119.98
230.513	4.95
230.731	-15.53
230.948	27.48
231.166	7
231.384	7
231.601	-101.55
231.819	35.67
232.037	35.67
232.254	-3.24
232.472	39.76
232.689	-5.29
232.907	13.14
233.125	43.86
233.342	-19.63
233.56	-33.96
233.777	50
233.995	-76.97
234.213	43.86
234.43	27.48
234.648	-52.39
234.865	-9.39
235.083	97.11
235.3	-1.19
235.518	-50.35
235.735	25.43
235.953	31.57
236.17	39.76
236.388	25.43
236.605	7
236.822	-17.58
237.04	-21.67
237.257	23.38
237.475	-56.49
237.692	-1.19
237.909	7
238.127	33.62
238.344	-1.19
238.562	-50.35
238.779	-21.67
238.996	37.72
239.214	23.38
239.431	43.86
239.648	43.86
239.865	31.57
240.083	52.05
240.3	50
240.517	13.14
240.735	21.33
240.952	9.05
241.169	47.96
241.386	-21.67
241.603	2.9
241.821	-21.67
242.038	7
242.255	47.96
242.472	-9.39
242.689	23.38
242.907	56.15
243.124	15.19
243.341	58.2
243.558	-1.19
243.775	35.67
243.992	-50.35
244.209	-3.24
244.426	43.86
244.643	-1.19
244.86	-60.59
245.078	50
245.295	-25.77
245.512	4.95
245.729	-5.29
245.946	-19.63
246.163	-5.29
246.38	11.09
246.597	-79.02
246.814	-1.19
247.031	-27.82
247.248	37.72
247.464	78.68
247.681	13.14
247.898	70.48
248.115	41.81
248.332	-17.58
248.549	84.82
248.766	-62.63
248.983	-23.72
249.2	13.14
249.417	11.09
249.633	-54.44
249.85	27.48
250.067	11.09
250.284	-5.29
250.501	68.44
250.717	13.14
250.934	-56.49
251.151	29.52
251.368	4.95
251.585	37.72
251.801	-9.39
252.018	-36.01
252.235	15.19
252.451	25.43
252.668	11.09
252.885	-21.67
253.102	58.2
253.318	-13.48
253.535	-17.58
253.752	2.9
253.968	74.58
254.185	-15.53
254.401	74.58
254.618	-17.58
254.835	-29.87
255.051	13.14
255.268	43.86
255.484	2.9
255.701	2.9
255.917	9.05
256.134	-11.43
256.351	2.9
256.567	-36.01
256.784	105.3
257	15.19
257.217	45.91
257.433	-25.77
257.65	43.86
257.866	115.54
258.082	21.33
258.299	11.09
258.515	31.57
258.732	-1.19
258.948	-7.34
259.165	0.85
259.381	-21.67
259.597	39.76
259.814	0.85
260.03	15.19
260.246	7
260.463	76.63
260.679	103.25
260.895	-48.3
261.112	23.38
261.328	-21.67
261.544	54.1
261.761	-62.63
261.977	62.29
262.193	9.05
262.409	70.48
262.626	-5.29
262.842	33.62
263.058	-11.43
263.274	29.52
263.49	13.14
263.707	-1.19
263.923	-1.19
264.139	-19.63
264.355	23.38
264.571	-13.48
264.787	35.67
265.004	-21.67
265.22	-7.34
265.436	-50.35
265.652	-23.72
265.868	-9.39
266.084	19.29
266.3	11.09
266.516	-1.19
266.732	33.62
266.948	-9.39
267.164	-11.43
267.38	-27.82
267.596	-36.01
267.812	-31.91
268.028	-27.82
268.244	-29.87
268.46	-13.48
268.676	-40.11
268.892	19.29
269.108	7
269.324	-15.53
269.54	-13.48
269.756	37.72
269.972	-19.63
270.188	2.9
270.403	-74.92
270.619	-15.53
270.835	11.09
271.051	50
271.267	-48.3
271.483	11.09
271.698	50
271.914	2.9
272.13	-15.53
272.346	-83.11
272.562	47.96
272.777	-33.96
272.993	-70.83
273.209	19.29
273.425	37.72
273.64	19.29
273.856	-33.96
274.072	7
274.287	-79.02
274.503	52.05
274.719	-3.24
274.934	4.95
275.15	-52.39
275.366	29.52
275.581	-58.54
275.797	7
276.012	15.19
276.228	47.96
276.444	-105.64
276.659	60.24
276.875	-7.34
277.09	-66.73
277.306	62.29
277.521	-27.82
277.737	25.43
277.952	17.24
278.168	7
278.383	-54.44
278.599	-33.96
278.814	2.9
279.03	-68.78
279.245	133.97
279.461	54.1
279.676	41.81
279.892	11.09
280.107	-13.48
280.322	-56.49
280.538	-29.87
280.753	-29.87
280.969	23.38
281.184	19.29
281.399	25.43
281.615	-21.67
281.83	43.86
282.045	-1.19
282.26	-21.67
282.476	2.9
282.691	-27.82
282.906	-29.87
283.122	-17.58
283.337	-1.19
283.552	105.3
283.767	-44.2
283.983	-46.25
284.198	-19.63
284.413	-87.21
284.628	-46.25
284.843	60.24
285.058	101.2
285.274	11.09
285.489	-31.91
285.704	45.91
285.919	-7.34
286.134	52.05
286.349	-29.87
286.564	-5.29
286.779	56.15
286.995	66.39
287.21	7
287.425	86.87
287.64	-15.53
287.855	56.15
288.07	35.67
288.285	-136.36
288.5	19.29
288.715	90.96
288.93	29.52
289.145	-29.87
289.36	25.43
289.575	15.19
289.79	-1.19
290.004	4.95
290.219	35.67
290.434	2.9
290.649	-7.34
290.864	0.85
291.079	-42.15
291.294	-21.67
291.509	-3.24
291.724	-11.43
291.938	-7.34
292.153	29.52
292.368	52.05
292.583	-7.34
292.798	50
293.012	101.2
293.227	-21.67
293.442	-23.72
293.657	0.85
293.871	29.52
294.086	-1.19
294.301	15.19
294.516	15.19
294.73	9.05
294.945	-46.25
295.16	-42.15
295.374	-33.96
295.589	97.11
295.804	35.67
296.018	-48.3
296.233	-9.39
296.447	35.67
296.662	-58.54
296.877	11.09
297.091	7
297.306	-15.53
297.52	-23.72
297.735	50
297.949	-25.77
298.164	2.9
298.378	15.19
298.593	-21.67
298.807	-29.87
299.022	-33.96
299.236	-42.15
299.451	-46.25
299.665	9.05
299.88	11.09
300.094	-17.58
300.309	17.24
300.523	35.67
300.737	54.1
300.952	2.9
301.166	-15.53
301.381	23.38
301.595	39.76
301.809	-31.91
302.024	-38.06
302.238	62.29
302.452	-15.53
302.667	-15.53
302.881	45.91
303.095	-29.87
303.309	45.91
303.524	27.48
303.738	-23.72
303.952	15.19
304.166	4.95
304.381	-38.06
304.595	58.2
304.809	-19.63
305.023	17.24
305.237	-46.25
305.452	15.19
305.666	21.33
305.88	-27.82
306.094	76.63
306.308	-19.63
306.522	-27.82
306.736	2.9
306.95	27.48
307.164	-42.15
307.379	-31.91
307.593	27.48
307.807	27.48
308.021	23.38
308.235	-17.58
308.449	-56.49
308.663	-23.72
308.877	19.29
309.091	39.76
309.305	45.91
309.519	9.05
309.733	33.62
309.947	-48.3
310.161	7
310.374	-52.39
310.588	35.67
310.802	-7.34
311.016	13.14
311.23	-25.77
311.444	52.05
311.658	-21.67
311.872	13.14
312.085	17.24
312.299	54.1
312.513	56.15
312.727	-81.07
312.941	-25.77
313.154	43.86
313.368	-29.87
313.582	-5.29
313.796	7
314.009	-5.29
314.223	17.24
314.437	-11.43
314.651	4.95
314.864	-7.34
315.078	25.43
315.292	-11.43
315.505	17.24
315.719	-7.34
315.933	-25.77
316.146	-38.06
316.36	-44.2
316.573	11.09
316.787	7
317.001	29.52
317.214	43.86
317.428	-19.63
317.641	-27.82
317.855	-33.96
318.068	60.24
318.282	11.09
318.495	58.2
318.709	64.34
318.922	13.14
319.136	47.96
319.349	27.48
319.563	111.44
319.776	43.86
319.99	29.52
320.203	31.57
320.417	56.15
320.63	-17.58
320.843	50
321.057	15.19
321.27	-33.96
321.483	-17.58
321.697	54.1
321.91	27.48
322.124	35.67
322.337	29.52
322.55	11.09
322.763	-15.53
322.977	-48.3
323.19	21.33
323.403	52.05
323.617	-15.53
323.83	35.67
324.043	25.43
324.256	-33.96
324.469	29.52
324.683	-25.77
324.896	31.57
325.109	15.19
325.322	29.52
325.535	25.43
325.748	35.67
325.962	0.85
326.175	-13.48
326.388	21.33
326.601	58.2
326.814	-31.91
327.027	-11.43
327.24	-33.96
327.453	9.05
327.666	21.33
327.879	37.72
328.092	-33.96
328.305	72.53
328.518	11.09
328.731	45.91
328.944	29.52
329.157	-54.44
329.37	25.43
329.583	-9.39
329.796	25.43
330.009	-29.87
330.222	-3.24
330.435	-21.67
330.648	84.82
330.861	-17.58
331.073	-5.29
331.286	-74.92
331.499	25.43
331.712	-23.72
331.925	-36.01
332.138	-13.48
332.35	-36.01
332.563	31.57
332.776	-40.11
332.989	19.29
333.202	-74.92
333.414	58.2
333.627	19.29
333.84	-15.53
334.053	-3.24
334.265	2.9
334.478	27.48
334.691	-5.29
334.903	-1.19
335.116	21.33
335.329	-33.96
335.541	58.2
335.754	54.1
335.966	29.52
336.179	21.33
336.392	-5.29
336.604	33.62
336.817	-33.96
337.029	43.86
337.242	58.2
337.454	-13.48
337.667	-44.2
337.88	31.57
338.092	-3.24
338.305	111.44
338.517	-5.29
338.729	90.96
338.942	23.38
339.154	41.81
339.367	-33.96
339.579	-33.96
339.792	-19.63
340.004	37.72
340.217	-76.97
340.429	-5.29
340.641	-40.11
340.854	93.01
341.066	0.85
341.278	33.62
341.491	39.76
341.703	43.86
341.915	-17.58
342.128	-5.29
342.34	66.39
342.552	4.95
342.764	-31.91
342.977	66.39
343.189	-29.87
343.401	-46.25
343.613	15.19
343.826	90.96
344.038	50
344.25	-1.19
344.462	33.62
344.674	-38.06
344.886	-29.87
345.099	-74.92
345.311	15.19
345.523	43.86
345.735	0.85
345.947	-21.67
346.159	39.76
346.371	47.96
346.583	-79.02
346.795	41.81
347.007	15.19
347.219	31.57
347.431	9.05
347.643	60.24
347.855	-17.58
348.067	72.53
348.279	19.29
348.491	45.91
348.703	11.09
348.915	31.57
349.127	-5.29
349.339	-21.67
349.551	-19.63
349.763	-9.39
349.975	111.44
350.187	-1.19
350.399	19.29
350.61	13.14
350.822	-46.25
351.034	-15.53
351.246	-42.15
351.458	9.05
351.669	31.57
351.881	25.43
352.093	33.62
352.305	62.29
352.517	27.48
352.728	35.67
352.94	25.43
353.152	25.43
353.363	-9.39
353.575	-25.77
353.787	78.68
353.999	17.24
354.21	15.19
354.422	4.95
354.633	50
354.845	9.05
355.057	27.48
355.268	-60.59
355.48	-64.68
355.692	15.19
355.903	52.05
356.115	7
356.326	50
356.538	13.14
356.749	54.1
356.961	39.76
357.172	17.24
357.384	-23.72
357.595	27.48
357.807	15.19
358.018	0.85
358.23	-68.78
358.441	58.2
358.653	29.52
358.864	-66.73
359.075	-15.53
359.287	-1.19
359.498	-3.24
359.709	-33.96
359.921	17.24
360.132	90.96
360.344	90.96
360.555	19.29
360.766	-13.48
360.977	-7.34
361.189	19.29
361.4	-50.35
361.611	-19.63
361.823	-13.48
362.034	70.48
362.245	-62.63
362.456	7
362.667	13.14
362.879	19.29
363.09	-33.96
363.301	39.76
363.512	-38.06
363.723	-13.48
363.935	4.95
364.146	43.86
364.357	33.62
364.568	19.29
364.779	-15.53
364.99	33.62
365.201	-85.16
365.412	50
365.623	70.48
365.834	60.24
366.045	15.19
366.256	-13.48
366.467	43.86
366.678	43.86
366.889	37.72
367.1	25.43
367.311	68.44
367.522	-3.24
367.733	-13.48
367.944	33.62
368.155	41.81
368.366	62.29
368.577	56.15
368.788	45.91
368.999	-33.96
369.209	50
369.42	58.2
369.631	62.29
369.842	70.48
370.053	45.91
370.264	31.57
370.474	11.09
370.685	7
370.896	58.2
371.107	29.52
371.317	-7.34
371.528	-23.72
371.739	15.19
371.95	68.44
372.16	60.24
372.371	-42.15
372.582	31.57
372.792	4.95
373.003	41.81
373.214	-23.72
373.424	13.14
373.635	15.19
373.846	23.38
374.056	-38.06
374.267	33.62
374.477	35.67
374.688	31.57
374.898	52.05
375.109	33.62
375.319	-42.15
375.53	19.29
375.74	15.19
375.951	19.29
376.161	21.33
376.372	7
376.582	7
376.793	35.67
377.003	-66.73
377.214	2.9
377.424	52.05
377.635	4.95
377.845	-11.43
378.055	-9.39
378.266	17.24
378.476	-1.19
378.686	-13.48
378.897	47.96
379.107	47.96
379.317	47.96
379.528	82.77
379.738	86.87
379.948	-38.06
380.158	15.19
380.369	45.91
380.579	-7.34
380.789	33.62
380.999	-9.39
381.21	0.85
381.42	80.72
381.63	-13.48
381.84	0.85
382.05	66.39
382.261	25.43
382.471	-9.39
382.681	-38.06
382.891	64.34
383.101	0.85
383.311	-42.15
383.521	-68.78
383.731	97.11
383.941	66.39
384.151	-5.29
384.361	39.76
384.571	-5.29
384.781	-19.63
384.991	62.29
385.201	74.58
385.411	-36.01
385.621	58.2
385.831	-13.48
386.041	-5.29
386.251	4.95
386.461	27.48
386.671	-9.39
386.881	25.43
387.091	-5.29
387.301	-23.72
387.511	93.01
387.72	41.81
387.93	41.81
388.14	0.85
388.35	37.72
388.56	0.85
388.769	47.96
388.979	-27.82
389.189	52.05
389.399	15.19
389.609	19.29
389.818	66.39
390.028	70.48
390.238	97.11
390.447	19.29
390.657	11.09
390.867	-40.11
391.076	17.24
391.286	-21.67
391.496	-5.29
391.705	76.63
391.915	-1.19
392.125	33.62
392.334	11.09
392.544	41.81
392.753	54.1
392.963	7
393.172	27.48
393.382	19.29
393.591	90.96
393.801	74.58
394.01	35.67
394.22	-9.39
394.429	-44.2
394.639	29.52
394.848	105.3
395.058	27.48
395.267	11.09
395.477	-11.43
395.686	43.86
395.895	76.63
396.105	27.48
396.314	97.11
396.524	50
396.733	84.82
396.942	68.44
397.152	13.14
397.361	58.2
397.57	78.68
397.78	88.92
397.989	66.39
398.198	58.2
398.407	-33.96
398.617	45.91
398.826	21.33
399.035	64.34
399.244	78.68
399.453	35.67
399.663	41.81
399.872	15.19
400.081	2.9
400.29	31.57
400.499	68.44
400.708	82.77
400.917	31.57
401.127	50
401.336	62.29
401.545	60.24
401.754	15.19
401.963	70.48
402.172	9.05
402.381	80.72
402.59	80.72
402.799	-9.39
403.008	72.53
403.217	164.69
403.426	99.16
403.635	86.87
403.844	27.48
404.053	52.05
404.262	7
404.471	136.02
404.68	86.87
404.888	29.52
405.097	43.86
405.306	23.38
405.515	84.82
405.724	136.02
405.933	127.83
406.142	125.78
406.35	146.26
406.559	52.05
406.768	50
406.977	144.21
407.185	164.69
407.394	146.26
407.603	47.96
407.812	138.07
408.02	66.39
408.229	117.59
408.438	107.35
408.646	133.97
408.855	119.64
409.064	113.49
409.272	82.77
409.481	68.44
409.69	170.83
409.898	148.31
410.107	240.47
410.315	148.31
410.524	142.16
410.733	193.36
410.941	99.16
411.15	162.64
411.358	219.99
411.567	144.21
411.775	312.14
411.984	230.23
412.192	283.47
412.401	213.84
412.609	254.8
412.818	215.89
413.026	301.9
413.234	246.61
413.443	297.81
413.651	277.33
413.86	318.29
414.068	387.92
414.276	387.92
414.485	316.24
414.693	385.87
414.901	435.02
415.11	379.73
415.318	373.58
415.526	459.6
415.734	400.21
415.943	467.79
416.151	498.51
416.359	406.35
416.567	453.45
416.776	508.75
416.984	539.47
417.192	590.67
417.4	615.24
417.608	658.25
417.817	617.29
418.025	701.26
418.233	693.07
418.441	680.78
418.649	664.4
418.857	709.45
419.065	785.23
419.273	768.84
419.481	803.66
419.689	893.77
419.897	832.33
420.105	920.39
420.313	830.28
420.521	852.81
420.729	885.58
420.937	985.93
421.145	985.93
421.353	994.12
421.561	1098.56
421.769	1125.19
421.977	1250.11
422.185	1219.39
422.393	1213.25
422.601	1313.6
422.809	1368.9
423.017	1401.66
423.224	1420.1
423.432	1436.48
423.64	1377.09
423.848	1614.65
424.056	1553.21
424.263	1678.14
424.471	1622.84
424.679	1622.84
424.887	1739.58
425.094	1876.79
425.302	1903.42
425.51	1993.53
425.718	1983.29
425.925	1995.57
426.133	2046.77
426.341	2134.84
426.548	2362.16
426.756	2372.4
426.964	2298.67
427.171	2444.08
427.379	2437.94
427.586	2485.04
427.794	2728.75
428.001	2724.65
428.209	2751.28
428.417	2757.42
428.624	2994.98
428.832	2915.11
429.039	2925.35
429.247	3083.05
429.454	3341.09
429.662	3625.76
429.869	3242.79
430.076	3535.65
430.284	3496.74
430.491	3545.89
430.699	3754.78
430.906	3765.02
431.114	3836.7
431.321	4051.74
431.528	4047.64
431.736	4332.31
431.943	4422.42
432.15	4350.74
432.358	4602.64
432.565	4553.49
432.772	4698.89
432.979	4989.71
433.187	4909.83
433.394	4856.59
433.601	5333.76
433.808	5278.47
434.016	5346.05
434.223	5495.55
434.43	5876.48
434.637	5755.65
434.844	6013.69
435.052	6171.38
435.259	5985.02
435.466	6394.61
435.673	6046.46
435.88	6640.37
436.087	6904.56
436.294	6974.19
436.501	6685.42
436.708	6724.33
436.915	7123.69
437.122	7598.82
437.329	7371.49
437.537	7709.41
437.743	7729.89
437.95	7703.26
438.157	8170.2
438.364	8444.63
438.571	8205.02
438.778	8534.74
438.985	9233.1
439.192	8665.81
439.399	9122.51
439.606	8655.57
439.813	9317.06
440.02	10060.48
440.227	9964.22
440.433	9632.45
440.64	10035.9
440.847	9874.11
441.054	10128.06
441.261	10912.43
441.467	10883.76
441.674	10967.73
441.881	11426.47
442.088	11356.84
442.294	11264.68
442.501	11569.83
442.708	11719.33
442.914	12288.67
443.121	12632.72
443.328	12397.21
443.534	13286.03
443.741	12997.26
443.948	12694.16
444.154	13449.86
444.361	13621.89
444.568	13675.14
444.774	13763.2
444.981	13818.5
445.187	14205.56
445.394	15020.66
445.6	14760.56
445.807	15966.82
446.013	15194.73
446.22	15442.54
446.426	16290.4
446.633	16388.7
446.839	16947.79
447.046	16124.51
447.252	17273.42
447.459	16970.32
447.665	17015.38
447.871	17977.92
448.078	18496.06
448.284	17566.28
448.491	18246.21
448.697	18709.05
448.903	19139.12
449.11	19141.17
449.316	18637.37
449.522	19130.93
449.728	19276.34
449.935	19857.96
450.141	19755.56
450.347	20353.57
450.553	19655.21
450.76	20103.71
450.966	20398.62
451.172	20005.41
451.378	20550.17
451.584	20273.7
451.791	20972.05
451.997	20705.82
452.203	21101.08
452.409	21029.4
452.615	20881.94
452.821	20091.43
453.027	19935.78
453.233	20742.68
453.44	20156.96
453.646	20439.58
453.852	20443.68
454.058	20691.48
454.264	20159.01
454.47	20673.05
454.676	19890.73
454.882	20605.47
455.088	18919.99
455.294	19161.65
455.5	19411.5
455.705	19454.51
455.911	18661.94
456.117	18502.2
456.323	18197.06
456.529	17269.33
456.735	17891.91
456.941	17451.6
457.147	17216.08
457.352	16894.55
457.558	16540.25
457.764	16665.18
457.97	16441.95
458.176	15895.14
458.381	16095.84
458.587	15133.29
458.793	15067.76
458.999	14283.39
459.204	15440.49
459.41	14809.72
459.616	14011.01
459.821	13886.08
460.027	13755.01
460.233	13742.72
460.438	12919.44
460.644	13189.77
460.85	12380.82
461.055	12522.13
461.261	12194.46
461.466	11358.89
461.672	10994.35
461.878	11840.16
462.083	11117.23
462.289	10941.1
462.494	10707.63
462.7	10369.72
462.905	9992.89
463.111	10203.83
463.316	10392.25
463.522	10154.68
463.727	10330.81
463.932	9958.08
464.138	9822.91
464.343	10062.52
464.549	9839.3
464.754	9970.37
464.959	10037.95
465.165	9992.89
465.37	9552.58
465.575	9347.78
465.781	9616.07
465.986	9847.49
466.191	9194.19
466.397	9196.23
466.602	8676.05
466.807	9030.35
467.012	9032.4
467.218	8854.22
467.423	8981.2
467.628	8803.02
467.833	9020.11
468.038	8864.46
468.244	8686.29
