Data from USB4F104151__115__11-07-20-417.txt Node

Date: Wed Mar 12 11:07:20 EDT 2025
User: louis
Spectrometer: USB4F10415
Trigger mode: 4
Integration Time (sec): 2.000000E-2
Scans to average: 1
Electric dark correction enabled: true
Nonlinearity correction enabled: false
Boxcar width: 0
XAxis mode: Wavelengths
Number of Pixels in Spectrum: 3648
>>>>>Begin Spectral Data<<<<<
178.204	-70.83
178.424	-70.83
178.644	-70.83
178.864	-105.64
179.084	-76.97
179.304	-46.25
179.524	-17.58
179.744	-29.87
179.964	109.4
180.184	-5.29
180.404	-11.43
180.624	11.09
180.844	-1.19
181.064	-9.39
181.283	54.1
181.503	-19.63
181.723	-33.96
181.943	15.19
182.163	19.29
182.383	2.9
182.602	86.87
182.822	37.72
183.042	47.96
183.262	27.48
183.482	-23.72
183.701	9.05
183.921	39.76
184.141	-72.87
184.361	-31.91
184.58	-5.29
184.8	-25.77
185.02	52.05
185.239	47.96
185.459	31.57
185.679	-3.24
185.898	-38.06
186.118	27.48
186.338	41.81
186.557	-7.34
186.777	-64.68
186.997	31.57
187.216	-9.39
187.436	72.53
187.655	13.14
187.875	17.24
188.095	-40.11
188.314	19.29
188.534	74.58
188.753	11.09
188.973	19.29
189.192	7
189.412	78.68
189.631	0.85
189.851	52.05
190.07	37.72
190.29	-44.2
190.509	-11.43
190.729	-9.39
190.948	7
191.168	45.91
191.387	9.05
191.607	-60.59
191.826	-58.54
192.045	109.4
192.265	21.33
192.484	37.72
192.704	-48.3
192.923	41.81
193.142	64.34
193.362	37.72
193.581	72.53
193.8	62.29
194.02	-15.53
194.239	-36.01
194.458	56.15
194.678	2.9
194.897	-33.96
195.116	-9.39
195.335	25.43
195.555	13.14
195.774	-15.53
195.993	45.91
196.212	-31.91
196.432	68.44
196.651	-50.35
196.87	-23.72
197.089	17.24
197.308	37.72
197.528	95.06
197.747	-70.83
197.966	-25.77
198.185	142.16
198.404	41.81
198.623	-11.43
198.842	45.91
199.062	52.05
199.281	54.1
199.5	82.77
199.719	76.63
199.938	9.05
200.157	35.67
200.376	58.2
200.595	107.35
200.814	-31.91
201.033	52.05
201.252	82.77
201.471	41.81
201.69	0.85
201.909	13.14
202.128	64.34
202.347	74.58
202.566	23.38
202.785	21.33
203.004	-48.3
203.223	27.48
203.442	19.29
203.661	39.76
203.879	45.91
204.098	13.14
204.317	13.14
204.536	23.38
204.755	-1.19
204.974	35.67
205.193	50
205.411	45.91
205.63	13.14
205.849	58.2
206.068	-15.53
206.287	70.48
206.505	66.39
206.724	-17.58
206.943	4.95
207.162	-68.78
207.381	0.85
207.599	-13.48
207.818	-23.72
208.037	11.09
208.255	-5.29
208.474	11.09
208.693	-29.87
208.911	-52.39
209.13	11.09
209.349	2.9
209.567	-23.72
209.786	25.43
210.005	-76.97
210.223	25.43
210.442	23.38
210.661	-15.53
210.879	25.43
211.098	-13.48
211.316	-19.63
211.535	25.43
211.753	88.92
211.972	13.14
212.191	-33.96
212.409	-27.82
212.628	13.14
212.846	23.38
213.065	33.62
213.283	11.09
213.502	41.81
213.72	-17.58
213.938	33.62
214.157	78.68
214.375	-36.01
214.594	27.48
214.812	58.2
215.031	-3.24
215.249	88.92
215.467	101.2
215.686	19.29
215.904	37.72
216.122	9.05
216.341	37.72
216.559	-23.72
216.778	27.48
216.996	35.67
217.214	-13.48
217.432	-46.25
217.651	-13.48
217.869	25.43
218.087	13.14
218.306	31.57
218.524	39.76
218.742	76.63
218.96	7
219.179	86.87
219.397	0.85
219.615	19.29
219.833	37.72
220.051	35.67
220.27	4.95
220.488	70.48
220.706	70.48
220.924	-11.43
221.142	76.63
221.36	25.43
221.578	9.05
221.796	-23.72
222.015	13.14
222.233	25.43
222.451	45.91
222.669	23.38
222.887	0.85
223.105	-11.43
223.323	29.52
223.541	9.05
223.759	74.58
223.977	-64.68
224.195	66.39
224.413	-3.24
224.631	107.35
224.849	39.76
225.067	29.52
225.285	-64.68
225.503	25.43
225.721	-79.02
225.939	-44.2
226.157	-42.15
226.375	127.83
226.592	-52.39
226.81	13.14
227.028	25.43
227.246	66.39
227.464	21.33
227.682	45.91
227.9	50
228.117	17.24
228.335	64.34
228.553	-64.68
228.771	9.05
228.989	27.48
229.206	90.96
229.424	2.9
229.642	62.29
229.86	29.52
230.077	54.1
230.295	47.96
230.513	131.92
230.731	2.9
230.948	47.96
231.166	4.95
231.384	-27.82
231.601	35.67
231.819	9.05
232.037	27.48
232.254	17.24
232.472	-25.77
232.689	19.29
232.907	60.24
233.125	-33.96
233.342	25.43
233.56	-62.63
233.777	45.91
233.995	11.09
234.213	-15.53
234.43	52.05
234.648	29.52
234.865	-9.39
235.083	33.62
235.3	54.1
235.518	-13.48
235.735	13.14
235.953	52.05
236.17	-5.29
236.388	4.95
236.605	-7.34
236.822	47.96
237.04	54.1
237.257	45.91
237.475	47.96
237.692	19.29
237.909	-1.19
238.127	31.57
238.344	15.19
238.562	43.86
238.779	13.14
238.996	25.43
239.214	13.14
239.431	82.77
239.648	45.91
239.865	76.63
240.083	-23.72
240.3	-7.34
240.517	2.9
240.735	-15.53
240.952	54.1
241.169	74.58
241.386	60.24
241.603	4.95
241.821	19.29
242.038	23.38
242.255	31.57
242.472	-5.29
242.689	7
242.907	17.24
243.124	21.33
243.341	-29.87
243.558	-40.11
243.775	-70.83
243.992	-3.24
244.209	-62.63
244.426	-19.63
244.643	82.77
244.86	45.91
245.078	99.16
245.295	-52.39
245.512	33.62
245.729	-29.87
245.946	31.57
246.163	31.57
246.38	9.05
246.597	4.95
246.814	50
247.031	13.14
247.248	66.39
247.464	11.09
247.681	-15.53
247.898	-3.24
248.115	25.43
248.332	-38.06
248.549	41.81
248.766	95.06
248.983	72.53
249.2	47.96
249.417	-9.39
249.633	43.86
249.85	15.19
250.067	-27.82
250.284	31.57
250.501	-1.19
250.717	50
250.934	-7.34
251.151	15.19
251.368	9.05
251.585	-15.53
251.801	-11.43
252.018	-1.19
252.235	25.43
252.451	2.9
252.668	-29.87
252.885	-15.53
253.102	37.72
253.318	-17.58
253.535	-31.91
253.752	19.29
253.968	-9.39
254.185	45.91
254.401	13.14
254.618	54.1
254.835	70.48
255.051	37.72
255.268	50
255.484	50
255.701	17.24
255.917	101.2
256.134	-11.43
256.351	62.29
256.567	19.29
256.784	-44.2
257	70.48
257.217	70.48
257.433	93.01
257.65	19.29
257.866	33.62
258.082	-11.43
258.299	29.52
258.515	-58.54
258.732	11.09
258.948	19.29
259.165	23.38
259.381	62.29
259.597	78.68
259.814	21.33
260.03	0.85
260.246	66.39
260.463	15.19
260.679	72.53
260.895	54.1
261.112	37.72
261.328	52.05
261.544	39.76
261.761	25.43
261.977	70.48
262.193	62.29
262.409	60.24
262.626	-46.25
262.842	2.9
263.058	-83.11
263.274	-15.53
263.49	-7.34
263.707	43.86
263.923	17.24
264.139	21.33
264.355	-19.63
264.571	2.9
264.787	43.86
265.004	68.44
265.22	47.96
265.436	80.72
265.652	-1.19
265.868	-23.72
266.084	-3.24
266.3	-50.35
266.516	45.91
266.732	66.39
266.948	-9.39
267.164	31.57
267.38	56.15
267.596	-23.72
267.812	90.96
268.028	4.95
268.244	66.39
268.46	43.86
268.676	13.14
268.892	2.9
269.108	-1.19
269.324	27.48
269.54	-13.48
269.756	62.29
269.972	82.77
270.188	45.91
270.403	56.15
270.619	-9.39
270.835	39.76
271.051	29.52
271.267	-9.39
271.483	7
271.698	-15.53
271.914	-19.63
272.13	19.29
272.346	15.19
272.562	-44.2
272.777	33.62
272.993	101.2
273.209	-40.11
273.425	-23.72
273.64	-25.77
273.856	86.87
274.072	-60.59
274.287	54.1
274.503	23.38
274.719	66.39
274.934	17.24
275.15	19.29
275.366	19.29
275.581	66.39
275.797	-7.34
276.012	58.2
276.228	52.05
276.444	19.29
276.659	146.26
276.875	-44.2
277.09	9.05
277.306	-7.34
277.521	74.58
277.737	54.1
277.952	-3.24
278.168	39.76
278.383	41.81
278.599	58.2
278.814	2.9
279.03	-23.72
279.245	41.81
279.461	-15.53
279.676	23.38
279.892	-25.77
280.107	-13.48
280.322	15.19
280.538	-11.43
280.753	27.48
280.969	66.39
281.184	-9.39
281.399	52.05
281.615	62.29
281.83	78.68
282.045	78.68
282.26	2.9
282.476	37.72
282.691	54.1
282.906	119.64
283.122	47.96
283.337	43.86
283.552	60.24
283.767	-15.53
283.983	43.86
284.198	-58.54
284.413	23.38
284.628	-21.67
284.843	4.95
285.058	17.24
285.274	7
285.489	37.72
285.704	47.96
285.919	-81.07
286.134	52.05
286.349	13.14
286.564	37.72
286.779	4.95
286.995	31.57
287.21	80.72
287.425	-5.29
287.64	60.24
287.855	29.52
288.07	4.95
288.285	74.58
288.5	35.67
288.715	50
288.93	41.81
289.145	74.58
289.36	31.57
289.575	2.9
289.79	66.39
290.004	39.76
290.219	54.1
290.434	13.14
290.649	84.82
290.864	37.72
291.079	23.38
291.294	39.76
291.509	43.86
291.724	-19.63
291.938	45.91
292.153	0.85
292.368	-13.48
292.583	56.15
292.798	101.2
293.012	47.96
293.227	-19.63
293.442	45.91
293.657	29.52
293.871	13.14
294.086	-52.39
294.301	76.63
294.516	13.14
294.73	13.14
294.945	-21.67
295.16	58.2
295.374	9.05
295.589	45.91
295.804	17.24
296.018	-9.39
296.233	99.16
296.447	15.19
296.662	45.91
296.877	33.62
297.091	-15.53
297.306	41.81
297.52	-15.53
297.735	39.76
297.949	117.59
298.164	23.38
298.378	-1.19
298.593	45.91
298.807	-25.77
299.022	39.76
299.236	21.33
299.451	52.05
299.665	-29.87
299.88	52.05
300.094	80.72
300.309	-5.29
300.523	39.76
300.737	56.15
300.952	19.29
301.166	62.29
301.381	62.29
301.595	52.05
301.809	7
302.024	13.14
302.238	11.09
302.452	31.57
302.667	-25.77
302.881	37.72
303.095	47.96
303.309	13.14
303.524	33.62
303.738	56.15
303.952	11.09
304.166	70.48
304.381	-29.87
304.595	117.59
304.809	29.52
305.023	64.34
305.237	-1.19
305.452	74.58
305.666	25.43
305.88	66.39
306.094	-23.72
306.308	54.1
306.522	76.63
306.736	17.24
306.95	9.05
307.164	25.43
307.379	23.38
307.593	109.4
307.807	13.14
308.021	84.82
308.235	17.24
308.449	58.2
308.663	66.39
308.877	62.29
309.091	45.91
309.305	17.24
309.519	9.05
309.733	70.48
309.947	45.91
310.161	41.81
310.374	50
310.588	41.81
310.802	9.05
311.016	31.57
311.23	43.86
311.444	27.48
311.658	15.19
311.872	45.91
312.085	23.38
312.299	19.29
312.513	72.53
312.727	-62.63
312.941	15.19
313.154	-7.34
313.368	-15.53
313.582	31.57
313.796	4.95
314.009	2.9
314.223	-13.48
314.437	13.14
314.651	7
314.864	4.95
315.078	-9.39
315.292	80.72
315.505	37.72
315.719	21.33
315.933	19.29
316.146	43.86
316.36	-25.77
316.573	29.52
316.787	19.29
317.001	68.44
317.214	13.14
317.428	-44.2
317.641	-42.15
317.855	115.54
318.068	27.48
318.282	-40.11
318.495	62.29
318.709	76.63
318.922	11.09
319.136	90.96
319.349	76.63
319.563	27.48
319.776	11.09
319.99	11.09
320.203	17.24
320.417	58.2
320.63	45.91
320.843	31.57
321.057	86.87
321.27	2.9
321.483	27.48
321.697	64.34
321.91	54.1
322.124	-5.29
322.337	82.77
322.55	23.38
322.763	9.05
322.977	9.05
323.19	29.52
323.403	-5.29
323.617	21.33
323.83	2.9
324.043	50
324.256	70.48
324.469	-9.39
324.683	101.2
324.896	105.3
325.109	138.07
325.322	56.15
325.535	62.29
325.748	37.72
325.962	50
326.175	7
326.388	90.96
326.601	13.14
326.814	25.43
327.027	21.33
327.24	129.88
327.453	33.62
327.666	17.24
327.879	43.86
328.092	78.68
328.305	21.33
328.518	21.33
328.731	-29.87
328.944	58.2
329.157	74.58
329.37	90.96
329.583	17.24
329.796	93.01
330.009	-23.72
330.222	-46.25
330.435	70.48
330.648	-23.72
330.861	45.91
331.073	35.67
331.286	47.96
331.499	45.91
331.712	86.87
331.925	19.29
332.138	68.44
332.35	-66.73
332.563	21.33
332.776	-11.43
332.989	17.24
333.202	43.86
333.414	-23.72
333.627	41.81
333.84	-19.63
334.053	60.24
334.265	31.57
334.478	84.82
334.691	4.95
334.903	50
335.116	15.19
335.329	13.14
335.541	41.81
335.754	82.77
335.966	31.57
336.179	52.05
336.392	-17.58
336.604	123.73
336.817	101.2
337.029	140.12
337.242	21.33
337.454	-7.34
337.667	-33.96
337.88	103.25
338.092	-27.82
338.305	9.05
338.517	-7.34
338.729	35.67
338.942	2.9
339.154	97.11
339.367	-40.11
339.579	21.33
339.792	54.1
340.004	119.64
340.217	37.72
340.429	88.92
340.641	-31.91
340.854	31.57
341.066	82.77
341.278	107.35
341.491	21.33
341.703	-25.77
341.915	39.76
342.128	47.96
342.34	62.29
342.552	-7.34
342.764	0.85
342.977	60.24
343.189	13.14
343.401	13.14
343.613	54.1
343.826	9.05
344.038	-23.72
344.25	115.54
344.462	31.57
344.674	86.87
344.886	47.96
345.099	-11.43
345.311	4.95
345.523	33.62
345.735	-7.34
345.947	4.95
346.159	0.85
346.371	66.39
346.583	25.43
346.795	43.86
347.007	23.38
347.219	-13.48
347.431	-3.24
347.643	62.29
347.855	7
348.067	60.24
348.279	-11.43
348.491	74.58
348.703	-5.29
348.915	11.09
349.127	41.81
349.339	74.58
349.551	15.19
349.763	39.76
349.975	25.43
350.187	27.48
350.399	70.48
350.61	45.91
350.822	41.81
351.034	101.2
351.246	19.29
351.458	-33.96
351.669	33.62
351.881	23.38
352.093	111.44
352.305	123.73
352.517	107.35
352.728	15.19
352.94	97.11
353.152	25.43
353.363	9.05
353.575	33.62
353.787	-11.43
353.999	76.63
354.21	23.38
354.422	19.29
354.633	56.15
354.845	-13.48
355.057	-5.29
355.268	25.43
355.48	60.24
355.692	52.05
355.903	-9.39
356.115	-64.68
356.326	-62.63
356.538	39.76
356.749	43.86
356.961	125.78
357.172	29.52
357.384	95.06
357.595	99.16
357.807	58.2
358.018	35.67
358.23	45.91
358.441	50
358.653	60.24
358.864	23.38
359.075	15.19
359.287	68.44
359.498	17.24
359.709	19.29
359.921	127.83
360.132	41.81
360.344	31.57
360.555	25.43
360.766	54.1
360.977	72.53
361.189	76.63
361.4	-7.34
361.611	41.81
361.823	43.86
362.034	25.43
362.245	4.95
362.456	74.58
362.667	17.24
362.879	62.29
363.09	15.19
363.301	50
363.512	31.57
363.723	45.91
363.935	23.38
364.146	-44.2
364.357	-33.96
364.568	123.73
364.779	50
364.99	47.96
365.201	-17.58
365.412	0.85
365.623	25.43
365.834	76.63
366.045	-27.82
366.256	56.15
366.467	107.35
366.678	45.91
366.889	47.96
367.1	39.76
367.311	25.43
367.522	39.76
367.733	93.01
367.944	52.05
368.155	13.14
368.366	52.05
368.577	82.77
368.788	90.96
368.999	19.29
369.209	25.43
369.42	41.81
369.631	74.58
369.842	2.9
370.053	70.48
370.264	72.53
370.474	-5.29
370.685	37.72
370.896	25.43
371.107	97.11
371.317	66.39
371.528	-3.24
371.739	99.16
371.95	64.34
372.16	103.25
372.371	-23.72
372.582	72.53
372.792	37.72
373.003	-5.29
373.214	31.57
373.424	15.19
373.635	64.34
373.846	111.44
374.056	113.49
374.267	58.2
374.477	-15.53
374.688	76.63
374.898	95.06
375.109	41.81
375.319	52.05
375.53	80.72
375.74	-7.34
375.951	21.33
376.161	64.34
376.372	9.05
376.582	82.77
376.793	54.1
377.003	45.91
377.214	27.48
377.424	111.44
377.635	-13.48
377.845	-76.97
378.055	19.29
378.266	-33.96
378.476	47.96
378.686	82.77
378.897	11.09
379.107	109.4
379.317	17.24
379.528	-7.34
379.738	68.44
379.948	23.38
380.158	23.38
380.369	29.52
380.579	56.15
380.789	43.86
380.999	54.1
381.21	64.34
381.42	45.91
381.63	31.57
381.84	50
382.05	-5.29
382.261	25.43
382.471	68.44
382.681	82.77
382.891	88.92
383.101	54.1
383.311	66.39
383.521	17.24
383.731	39.76
383.941	123.73
384.151	41.81
384.361	4.95
384.571	15.19
384.781	35.67
384.991	66.39
385.201	80.72
385.411	-21.67
385.621	125.78
385.831	41.81
386.041	66.39
386.251	50
386.461	95.06
386.671	123.73
386.881	113.49
387.091	56.15
387.301	37.72
387.511	50
387.72	99.16
387.93	121.68
388.14	-40.11
388.35	-40.11
388.56	54.1
388.769	58.2
388.979	35.67
389.189	25.43
389.399	78.68
389.609	54.1
389.818	37.72
390.028	97.11
390.238	31.57
390.447	50
390.657	68.44
390.867	58.2
391.076	107.35
391.286	107.35
391.496	9.05
391.705	111.44
391.915	88.92
392.125	103.25
392.334	101.2
392.544	9.05
392.753	-11.43
392.963	9.05
393.172	101.2
393.382	17.24
393.591	80.72
393.801	160.59
394.01	109.4
394.22	60.24
394.429	58.2
394.639	66.39
394.848	95.06
395.058	15.19
395.267	54.1
395.477	29.52
395.686	82.77
395.895	76.63
396.105	103.25
396.314	7
396.524	80.72
396.733	97.11
396.942	133.97
397.152	88.92
397.361	121.68
397.57	80.72
397.78	131.92
397.989	113.49
398.198	103.25
398.407	-25.77
398.617	72.53
398.826	70.48
399.035	82.77
399.244	168.79
399.453	86.87
399.663	97.11
399.872	105.3
400.081	39.76
400.29	66.39
400.499	17.24
400.708	179.03
400.917	82.77
401.127	86.87
401.336	129.88
401.545	187.22
401.754	80.72
401.963	119.64
402.172	56.15
402.381	86.87
402.59	64.34
402.799	154.45
403.008	129.88
403.217	168.79
403.426	70.48
403.635	66.39
403.844	150.36
404.053	131.92
404.262	99.16
404.471	150.36
404.68	138.07
404.888	133.97
405.097	185.17
405.306	193.36
405.515	156.5
405.724	52.05
405.933	152.4
406.142	224.08
406.35	150.36
406.559	176.98
406.768	179.03
406.977	168.79
407.185	176.98
407.394	170.83
407.603	144.21
407.812	99.16
408.02	252.75
408.229	199.51
408.438	193.36
408.646	203.6
408.855	209.75
409.064	336.72
409.272	250.71
409.481	322.38
409.69	285.52
409.898	316.24
410.107	297.81
410.315	349.01
410.524	271.19
410.733	299.86
410.941	248.66
411.15	392.02
411.358	383.82
411.567	416.59
411.775	357.2
411.984	379.73
412.192	310.1
412.401	383.82
412.609	416.59
412.818	457.55
413.026	430.93
413.234	582.48
413.443	467.79
413.651	594.76
413.86	508.75
414.068	537.42
414.276	609.1
414.485	570.19
414.693	510.8
414.901	662.35
415.11	668.49
415.318	629.58
415.526	641.87
415.734	752.46
415.943	791.37
416.151	824.14
416.359	768.84
416.567	781.13
416.776	822.09
416.984	822.09
417.192	873.29
417.4	838.47
417.608	889.67
417.817	942.92
418.025	1014.6
418.233	1076.04
418.441	1008.45
418.649	1057.61
418.857	1198.92
419.065	1231.68
419.273	1196.87
419.481	1223.49
419.689	1305.41
419.897	1356.61
420.105	1395.52
420.313	1424.19
420.521	1545.02
420.729	1581.89
420.937	1504.06
421.145	1620.8
421.353	1721.15
421.561	1770.3
421.769	1911.61
421.977	1913.66
422.185	1905.46
422.393	1868.6
422.601	2077.49
422.809	2085.69
423.017	2089.78
423.224	2210.61
423.432	2323.25
423.64	2396.98
423.848	2497.33
424.056	2601.77
424.263	2536.24
424.471	2597.68
424.679	2673.45
424.887	2794.28
425.094	2900.78
425.302	2911.02
425.51	3109.67
425.718	3105.57
425.925	3277.6
426.133	3302.18
426.341	3527.46
426.548	3717.92
426.756	3576.61
426.964	3568.41
427.171	3953.43
427.379	3955.48
427.586	4117.27
427.794	4102.93
428.001	4322.07
428.209	4610.83
428.417	4440.85
428.624	4807.44
428.832	4854.54
429.039	4789
429.247	4743.95
429.454	5237.51
429.662	5600
429.869	5184.26
430.076	5600
430.284	5399.3
430.491	5638.91
430.699	5903.1
430.906	5901.05
431.114	6173.43
431.321	6458.1
431.528	6472.43
431.736	6695.66
431.943	7156.46
432.15	6890.22
432.358	6974.19
432.565	7252.71
432.772	7410.4
432.979	7568.1
433.187	7650.02
433.394	8032.99
433.601	8346.33
433.808	8594.13
434.016	8534.74
434.223	8714.96
434.43	9370.31
434.637	9163.47
434.844	9700.03
435.052	9886.4
435.259	9933.5
435.466	9884.35
435.673	9831.1
435.88	10308.28
436.087	11147.95
436.294	10848.94
436.501	10850.99
436.708	10965.68
436.915	11475.62
437.122	11877.02
437.329	11901.6
437.537	12186.27
437.743	12444.31
437.95	12208.8
438.157	12810.9
438.364	13415.05
438.571	13441.67
438.778	13515.4
438.985	14867.06
439.192	14035.58
439.399	14529.14
439.606	14391.93
439.813	15061.62
440.02	16003.68
440.227	15589.99
440.433	15618.66
440.64	16185.95
440.847	15983.2
441.054	16247.39
441.261	17390.16
441.467	17244.75
441.674	17664.58
441.881	18213.44
442.088	18223.68
442.294	18344.51
442.501	18598.46
442.708	18940.47
442.914	19653.16
443.121	20509.21
443.328	20212.26
443.534	21510.67
443.741	20605.47
443.948	20179.49
444.154	21985.8
444.361	21838.34
444.568	22024.71
444.774	22247.94
444.981	22407.68
445.187	22821.37
445.394	23640.56
445.6	23511.53
445.807	26094.02
446.013	24715.74
446.22	24943.06
446.426	26188.23
446.633	26190.28
446.839	27003.32
447.046	26022.34
447.252	27730.35
447.459	27832.75
447.665	27656.62
447.871	28469.67
448.078	30099.85
448.284	28262.82
448.491	29118.87
448.697	30314.89
448.903	30847.36
449.11	30753.15
449.316	30290.31
449.522	30908.8
449.728	31707.51
449.935	31844.72
450.141	31832.43
450.347	32844.13
450.553	31748.46
450.76	32090.48
450.966	33118.56
451.172	32393.58
451.378	33362.26
451.584	32745.83
451.791	33601.88
451.997	33462.61
452.203	34111.82
452.409	34109.77
452.615	33999.18
452.821	32420.2
453.027	32330.09
453.233	33933.65
453.44	32809.31
453.646	32827.74
453.852	33665.36
454.058	33902.93
454.264	32471.4
454.47	32995.68
454.676	32514.41
454.882	33259.87
455.088	30497.16
455.294	30955.9
455.5	31496.56
455.705	31861.1
455.911	30484.87
456.117	29899.15
456.323	29049.24
456.529	27707.82
456.735	29309.33
456.941	28496.29
457.147	27904.43
457.352	27091.38
457.558	26939.83
457.764	26859.96
457.97	26548.67
458.176	25582.03
458.381	25797.07
458.587	24572.38
458.793	24553.95
458.999	23257.59
459.204	24543.71
459.41	23888.36
459.616	22641.15
459.821	22663.68
460.027	22530.56
460.233	22393.34
460.438	21006.87
460.644	21117.46
460.85	20412.96
461.055	20177.44
461.261	19788.33
461.466	18397.76
461.672	17939.01
461.878	19161.65
462.083	18027.07
462.289	17619.53
462.494	17375.82
462.7	16521.82
462.905	16151.13
463.111	17048.15
463.316	16761.43
463.522	16636.5
463.727	16489.05
463.932	16601.69
464.138	16231.01
464.343	16259.68
464.549	15704.68
464.754	16239.2
464.959	16464.47
465.165	16106.08
465.37	15598.18
465.575	15268.46
465.781	15725.16
465.986	15839.84
466.191	15217.26
466.397	15118.96
466.602	14187.13
466.807	14631.54
467.012	14744.18
467.218	14588.53
467.423	14422.65
467.628	14561.91
467.833	15442.54
468.038	14819.96
468.244	14256.76
468.449	14895.73
