Data from USB4F104151__134__11-07-48-694.txt Node

Date: Wed Mar 12 11:07:48 EDT 2025
User: louis
Spectrometer: USB4F10415
Trigger mode: 4
Integration Time (sec): 2.000000E-2
Scans to average: 1
Electric dark correction enabled: true
Nonlinearity correction enabled: false
Boxcar width: 0
XAxis mode: Wavelengths
Number of Pixels in Spectrum: 3648
>>>>>Begin Spectral Data<<<<<
178.204	-44.88
178.424	-44.88
178.644	-44.88
178.864	-128.85
179.084	-67.41
179.304	-102.23
179.524	-5.97
179.744	0.17
179.964	61.61
180.184	-22.36
180.404	4.27
180.624	-12.12
180.844	22.7
181.064	-12.12
181.283	69.8
181.503	2.22
181.723	-5.97
181.943	-38.74
182.163	26.79
182.383	20.65
182.602	47.27
182.822	22.7
183.042	63.66
183.262	-24.4
183.482	47.27
183.701	18.6
183.921	18.6
184.141	-1.88
184.361	98.47
184.58	-77.65
184.8	59.56
185.02	-51.03
185.239	26.79
185.459	-10.07
185.679	84.14
185.898	39.08
186.118	20.65
186.338	-28.5
186.557	86.19
186.777	51.37
186.997	-22.36
187.216	73.9
187.436	41.13
187.655	24.75
187.875	8.36
188.095	90.28
188.314	-48.98
188.534	73.9
188.753	80.04
188.973	24.75
189.192	2.22
189.412	-18.26
189.631	30.89
189.851	43.18
190.07	4.27
190.29	-8.02
190.509	14.51
190.729	55.47
190.948	51.37
191.168	88.23
191.387	67.75
191.607	34.99
191.826	34.99
192.045	12.46
192.265	77.99
192.484	12.46
192.704	-18.26
192.923	-5.97
193.142	10.41
193.362	98.47
193.581	65.71
193.8	65.71
194.02	71.85
194.239	45.23
194.458	10.41
194.678	94.38
194.897	0.17
195.116	39.08
195.335	73.9
195.555	8.36
195.774	-18.26
195.993	14.51
196.212	4.27
196.432	-5.97
196.651	47.27
196.87	90.28
197.089	18.6
197.308	10.41
197.528	80.04
197.747	57.51
197.966	-8.02
198.185	34.99
198.404	10.41
198.623	82.09
198.842	88.23
199.062	43.18
199.281	59.56
199.5	69.8
199.719	10.41
199.938	47.27
200.157	22.7
200.376	0.17
200.595	75.95
200.814	37.03
201.033	22.7
201.252	125.1
201.471	20.65
201.69	37.03
201.909	53.42
202.128	30.89
202.347	34.99
202.566	14.51
202.785	63.66
203.004	61.61
203.223	88.23
203.442	-22.36
203.661	26.79
203.879	77.99
204.098	96.43
204.317	22.7
204.536	69.8
204.755	20.65
204.974	55.47
205.193	12.46
205.411	84.14
205.63	2.22
205.849	112.81
206.068	47.27
206.287	77.99
206.505	92.33
206.724	-22.36
206.943	71.85
207.162	-28.5
207.381	10.41
207.599	47.27
207.818	71.85
208.037	49.32
208.255	16.55
208.474	0.17
208.693	49.32
208.911	53.42
209.13	51.37
209.349	22.7
209.567	73.9
209.786	43.18
210.005	32.94
210.223	18.6
210.442	-12.12
210.661	32.94
210.879	53.42
211.098	-20.31
211.316	34.99
211.535	6.31
211.753	22.7
211.972	94.38
212.191	39.08
212.409	20.65
212.628	20.65
212.846	49.32
213.065	8.36
213.283	121
213.502	24.75
213.72	-5.97
213.938	55.47
214.157	69.8
214.375	49.32
214.594	-5.97
214.812	96.43
215.031	39.08
215.249	8.36
215.467	18.6
215.686	65.71
215.904	123.05
216.122	77.99
216.341	59.56
216.559	71.85
216.778	51.37
216.996	12.46
217.214	75.95
217.432	24.75
217.651	41.13
217.869	86.19
218.087	-57.17
218.306	10.41
218.524	26.79
218.742	18.6
218.96	28.84
219.179	22.7
219.397	-36.69
219.615	71.85
219.833	8.36
220.051	-14.17
220.27	57.51
220.488	92.33
220.706	110.76
220.924	-24.4
221.142	39.08
221.36	-8.02
221.578	4.27
221.796	67.75
222.015	92.33
222.233	39.08
222.451	121
222.669	-1.88
222.887	30.89
223.105	69.8
223.323	2.22
223.541	0.17
223.759	53.42
223.977	39.08
224.195	10.41
224.413	82.09
224.631	-14.17
224.849	34.99
225.067	16.55
225.285	49.32
225.503	61.61
225.721	41.13
225.939	43.18
226.157	37.03
226.375	71.85
226.592	59.56
226.81	4.27
227.028	96.43
227.246	65.71
227.464	-16.21
227.682	10.41
227.9	-75.6
228.117	-1.88
228.335	26.79
228.553	2.22
228.771	57.51
228.989	39.08
229.206	-28.5
229.424	-24.4
229.642	69.8
229.86	-12.12
230.077	47.27
230.295	-30.55
230.513	47.27
230.731	59.56
230.948	30.89
231.166	14.51
231.384	63.66
231.601	53.42
231.819	55.47
232.037	26.79
232.254	-1.88
232.472	57.51
232.689	82.09
232.907	16.55
233.125	69.8
233.342	8.36
233.56	14.51
233.777	59.56
233.995	96.43
234.213	90.28
234.43	82.09
234.648	59.56
234.865	53.42
235.083	90.28
235.3	39.08
235.518	-5.97
235.735	63.66
235.953	69.8
236.17	67.75
236.388	73.9
236.605	2.22
236.822	65.71
237.04	-10.07
237.257	16.55
237.475	16.55
237.692	94.38
237.909	41.13
238.127	51.37
238.344	0.17
238.562	71.85
238.779	20.65
238.996	94.38
239.214	34.99
239.431	14.51
239.648	16.55
239.865	-38.74
240.083	-8.02
240.3	-5.97
240.517	59.56
240.735	59.56
240.952	112.81
241.169	39.08
241.386	63.66
241.603	0.17
241.821	26.79
242.038	94.38
242.255	63.66
242.472	16.55
242.689	88.23
242.907	57.51
243.124	4.27
243.341	-28.5
243.558	4.27
243.775	14.51
243.992	18.6
244.209	-1.88
244.426	53.42
244.643	30.89
244.86	57.51
245.078	80.04
245.295	32.94
245.512	118.95
245.729	2.22
245.946	2.22
246.163	55.47
246.38	77.99
246.597	24.75
246.814	71.85
247.031	28.84
247.248	39.08
247.464	71.85
247.681	-1.88
247.898	59.56
248.115	45.23
248.332	14.51
248.549	-16.21
248.766	32.94
248.983	88.23
249.2	-34.64
249.417	32.94
249.633	94.38
249.85	86.19
250.067	-38.74
250.284	125.1
250.501	20.65
250.717	14.51
250.934	-18.26
251.151	77.99
251.368	-20.31
251.585	-5.97
251.801	-3.93
252.018	47.27
252.235	86.19
252.451	92.33
252.668	0.17
252.885	28.84
253.102	65.71
253.318	94.38
253.535	8.36
253.752	51.37
253.968	-28.5
254.185	28.84
254.401	45.23
254.618	82.09
254.835	-5.97
255.051	118.95
255.268	-1.88
255.484	-5.97
255.701	12.46
255.917	47.27
256.134	30.89
256.351	-10.07
256.567	39.08
256.784	104.62
257	2.22
257.217	32.94
257.433	71.85
257.65	41.13
257.866	57.51
258.082	49.32
258.299	63.66
258.515	34.99
258.732	39.08
258.948	-44.88
259.165	-32.6
259.381	32.94
259.597	55.47
259.814	24.75
260.03	82.09
260.246	53.42
260.463	94.38
260.679	104.62
260.895	20.65
261.112	20.65
261.328	-18.26
261.544	53.42
261.761	57.51
261.977	92.33
262.193	22.7
262.409	59.56
262.626	94.38
262.842	32.94
263.058	49.32
263.274	-1.88
263.49	61.61
263.707	135.34
263.923	59.56
264.139	6.31
264.355	-1.88
264.571	43.18
264.787	30.89
265.004	63.66
265.22	94.38
265.436	24.75
265.652	80.04
265.868	34.99
266.084	39.08
266.3	6.31
266.516	59.56
266.732	-16.21
266.948	28.84
267.164	84.14
267.38	-24.4
267.596	96.43
267.812	18.6
268.028	106.67
268.244	28.84
268.46	57.51
268.676	39.08
268.892	4.27
269.108	37.03
269.324	41.13
269.54	16.55
269.756	116.9
269.972	-5.97
270.188	139.43
270.403	94.38
270.619	39.08
270.835	82.09
271.051	65.71
271.267	4.27
271.483	-1.88
271.698	61.61
271.914	26.79
272.13	84.14
272.346	4.27
272.562	49.32
272.777	51.37
272.993	-20.31
273.209	4.27
273.425	69.8
273.64	0.17
273.856	67.75
274.072	-8.02
274.287	90.28
274.503	43.18
274.719	10.41
274.934	26.79
275.15	4.27
275.366	24.75
275.581	0.17
275.797	112.81
276.012	-20.31
276.228	-14.17
276.444	16.55
276.659	41.13
276.875	34.99
277.09	-5.97
277.306	12.46
277.521	47.27
277.737	75.95
277.952	112.81
278.168	67.75
278.383	63.66
278.599	-16.21
278.814	59.56
279.03	61.61
279.245	75.95
279.461	139.43
279.676	41.13
279.892	41.13
280.107	22.7
280.322	20.65
280.538	22.7
280.753	-18.26
280.969	106.67
281.184	45.23
281.399	88.23
281.615	-1.88
281.83	43.18
282.045	82.09
282.26	34.99
282.476	57.51
282.691	65.71
282.906	51.37
283.122	4.27
283.337	110.76
283.552	39.08
283.767	16.55
283.983	106.67
284.198	20.65
284.413	2.22
284.628	-20.31
284.843	114.86
285.058	114.86
285.274	26.79
285.489	63.66
285.704	39.08
285.919	90.28
286.134	16.55
286.349	116.9
286.564	65.71
286.779	-24.4
286.995	24.75
287.21	-24.4
287.425	4.27
287.64	47.27
287.855	37.03
288.07	-16.21
288.285	39.08
288.5	4.27
288.715	71.85
288.93	71.85
289.145	65.71
289.36	47.27
289.575	30.89
289.79	49.32
290.004	71.85
290.219	41.13
290.434	-5.97
290.649	51.37
290.864	57.51
291.079	49.32
291.294	112.81
291.509	108.71
291.724	39.08
291.938	57.51
292.153	37.03
292.368	-65.36
292.583	26.79
292.798	86.19
293.012	-5.97
293.227	53.42
293.442	16.55
293.657	92.33
293.871	86.19
294.086	0.17
294.301	73.9
294.516	69.8
294.73	112.81
294.945	-20.31
295.16	41.13
295.374	116.9
295.589	37.03
295.804	30.89
296.018	16.55
296.233	43.18
296.447	69.8
296.662	61.61
296.877	20.65
297.091	69.8
297.306	82.09
297.52	65.71
297.735	88.23
297.949	-3.93
298.164	41.13
298.378	26.79
298.593	65.71
298.807	22.7
299.022	90.28
299.236	16.55
299.451	92.33
299.665	69.8
299.88	41.13
300.094	34.99
300.309	96.43
300.523	43.18
300.737	127.14
300.952	26.79
301.166	55.47
301.381	-16.21
301.595	18.6
301.809	34.99
302.024	49.32
302.238	45.23
302.452	86.19
302.667	41.13
302.881	41.13
303.095	18.6
303.309	18.6
303.524	75.95
303.738	47.27
303.952	-20.31
304.166	-14.17
304.381	2.22
304.595	86.19
304.809	45.23
305.023	39.08
305.237	2.22
305.452	84.14
305.666	22.7
305.88	55.47
306.094	53.42
306.308	51.37
306.522	20.65
306.736	73.9
306.95	0.17
307.164	14.51
307.379	90.28
307.593	18.6
307.807	55.47
308.021	69.8
308.235	47.27
308.449	4.27
308.663	34.99
308.877	100.52
309.091	30.89
309.305	67.75
309.519	51.37
309.733	73.9
309.947	22.7
310.161	59.56
310.374	59.56
310.588	149.67
310.802	26.79
311.016	65.71
311.23	137.38
311.444	51.37
311.658	59.56
311.872	-5.97
312.085	-40.79
312.299	26.79
312.513	41.13
312.727	20.65
312.941	-30.55
313.154	-38.74
313.368	20.65
313.582	16.55
313.796	51.37
314.009	18.6
314.223	26.79
314.437	34.99
314.651	100.52
314.864	-16.21
315.078	75.95
315.292	53.42
315.505	55.47
315.719	133.29
315.933	84.14
316.146	49.32
316.36	6.31
316.573	94.38
316.787	22.7
317.001	104.62
317.214	82.09
317.428	80.04
317.641	-28.5
317.855	143.53
318.068	39.08
318.282	4.27
318.495	24.75
318.709	110.76
318.922	20.65
319.136	37.03
319.349	63.66
319.563	39.08
319.776	-12.12
319.99	4.27
320.203	-5.97
320.417	34.99
320.63	88.23
320.843	41.13
321.057	34.99
321.27	47.27
321.483	108.71
321.697	88.23
321.91	22.7
322.124	43.18
322.337	-18.26
322.55	47.27
322.763	59.56
322.977	96.43
323.19	20.65
323.403	41.13
323.617	16.55
323.83	57.51
324.043	14.51
324.256	63.66
324.469	16.55
324.683	75.95
324.896	16.55
325.109	-10.07
325.322	63.66
325.535	88.23
325.748	28.84
325.962	2.22
326.175	30.89
326.388	28.84
326.601	24.75
326.814	75.95
327.027	80.04
327.24	77.99
327.453	-14.17
327.666	57.51
327.879	49.32
328.092	22.7
328.305	-26.45
328.518	30.89
328.731	-1.88
328.944	4.27
329.157	-3.93
329.37	20.65
329.583	57.51
329.796	37.03
330.009	47.27
330.222	39.08
330.435	-14.17
330.648	22.7
330.861	43.18
331.073	43.18
331.286	22.7
331.499	84.14
331.712	77.99
331.925	59.56
332.138	4.27
332.35	26.79
332.563	24.75
332.776	4.27
332.989	-26.45
333.202	24.75
333.414	100.52
333.627	49.32
333.84	32.94
334.053	71.85
334.265	28.84
334.478	16.55
334.691	34.99
334.903	24.75
335.116	-1.88
335.329	71.85
335.541	10.41
335.754	75.95
335.966	-51.03
336.179	69.8
336.392	49.32
336.604	49.32
336.817	67.75
337.029	45.23
337.242	53.42
337.454	86.19
337.667	71.85
337.88	129.19
338.092	16.55
338.305	39.08
338.517	16.55
338.729	45.23
338.942	61.61
339.154	32.94
339.367	88.23
339.579	125.1
339.792	57.51
340.004	-34.64
340.217	51.37
340.429	45.23
340.641	63.66
340.854	84.14
341.066	-26.45
341.278	75.95
341.491	26.79
341.703	-1.88
341.915	2.22
342.128	71.85
342.34	67.75
342.552	67.75
342.764	34.99
342.977	139.43
343.189	18.6
343.401	57.51
343.613	26.79
343.826	37.03
344.038	34.99
344.25	49.32
344.462	92.33
344.674	51.37
344.886	59.56
345.099	22.7
345.311	32.94
345.523	82.09
345.735	92.33
345.947	41.13
346.159	61.61
346.371	61.61
346.583	86.19
346.795	92.33
347.007	-46.93
347.219	-53.08
347.431	41.13
347.643	123.05
347.855	69.8
348.067	100.52
348.279	63.66
348.491	6.31
348.703	88.23
348.915	18.6
349.127	-26.45
349.339	51.37
349.551	59.56
349.763	67.75
349.975	57.51
350.187	137.38
350.399	32.94
350.61	2.22
350.822	57.51
351.034	82.09
351.246	24.75
351.458	127.14
351.669	61.61
351.881	65.71
352.093	20.65
352.305	37.03
352.517	69.8
352.728	8.36
352.94	63.66
353.152	73.9
353.363	16.55
353.575	14.51
353.787	69.8
353.999	65.71
354.21	43.18
354.422	22.7
354.633	41.13
354.845	94.38
355.057	14.51
355.268	110.76
355.48	20.65
355.692	28.84
355.903	37.03
356.115	22.7
356.326	106.67
356.538	59.56
356.749	131.24
356.961	82.09
357.172	82.09
357.384	57.51
357.595	114.86
357.807	59.56
358.018	73.9
358.23	43.18
358.441	28.84
358.653	84.14
358.864	43.18
359.075	24.75
359.287	22.7
359.498	71.85
359.709	45.23
359.921	41.13
360.132	75.95
360.344	63.66
360.555	73.9
360.766	43.18
360.977	34.99
361.189	94.38
361.4	61.61
361.611	53.42
361.823	153.77
362.034	47.27
362.245	51.37
362.456	100.52
362.667	51.37
362.879	65.71
363.09	57.51
363.301	141.48
363.512	30.89
363.723	22.7
363.935	47.27
364.146	133.29
364.357	47.27
364.568	129.19
364.779	-14.17
364.99	82.09
365.201	28.84
365.412	63.66
365.623	43.18
365.834	57.51
366.045	34.99
366.256	32.94
366.467	28.84
366.678	55.47
366.889	51.37
367.1	94.38
367.311	71.85
367.522	71.85
367.733	153.77
367.944	16.55
368.155	20.65
368.366	59.56
368.577	8.36
368.788	6.31
368.999	75.95
369.209	69.8
369.42	32.94
369.631	135.34
369.842	43.18
370.053	30.89
370.264	63.66
370.474	0.17
370.685	2.22
370.896	67.75
371.107	84.14
371.317	82.09
371.528	65.71
371.739	88.23
371.95	34.99
372.16	63.66
372.371	106.67
372.582	10.41
372.792	55.47
373.003	-65.36
373.214	61.61
373.424	37.03
373.635	-22.36
373.846	108.71
374.056	43.18
374.267	118.95
374.477	2.22
374.688	57.51
374.898	12.46
375.109	51.37
375.319	28.84
375.53	88.23
375.74	34.99
375.951	67.75
376.161	94.38
376.372	75.95
376.582	75.95
376.793	80.04
377.003	-20.31
377.214	-8.02
377.424	88.23
377.635	82.09
377.845	121
378.055	100.52
378.266	34.99
378.476	10.41
378.686	75.95
378.897	69.8
379.107	39.08
379.317	69.8
379.528	34.99
379.738	26.79
379.948	102.57
380.158	55.47
380.369	67.75
380.579	59.56
380.789	57.51
380.999	108.71
381.21	37.03
381.42	2.22
381.63	24.75
381.84	61.61
382.05	125.1
382.261	53.42
382.471	75.95
382.681	65.71
382.891	77.99
383.101	14.51
383.311	18.6
383.521	34.99
383.731	98.47
383.941	75.95
384.151	65.71
384.361	67.75
384.571	20.65
384.781	47.27
384.991	75.95
385.201	45.23
385.411	86.19
385.621	69.8
385.831	49.32
386.041	45.23
386.251	4.27
386.461	84.14
386.671	69.8
386.881	47.27
387.091	84.14
387.301	110.76
387.511	90.28
387.72	-10.07
387.93	65.71
388.14	86.19
388.35	41.13
388.56	55.47
388.769	96.43
388.979	10.41
389.189	86.19
389.399	51.37
389.609	65.71
389.818	10.41
390.028	69.8
390.238	75.95
390.447	77.99
390.657	166.06
390.867	71.85
391.076	4.27
391.286	116.9
391.496	49.32
391.705	73.9
391.915	59.56
392.125	51.37
392.334	41.13
392.544	147.62
392.753	67.75
392.963	75.95
393.172	86.19
393.382	55.47
393.591	145.58
393.801	94.38
394.01	84.14
394.22	18.6
394.429	57.51
394.639	20.65
394.848	49.32
395.058	80.04
395.267	53.42
395.477	49.32
395.686	129.19
395.895	88.23
396.105	127.14
396.314	100.52
396.524	67.75
396.733	104.62
396.942	121
397.152	94.38
397.361	84.14
397.57	-10.07
397.78	98.47
397.989	41.13
398.198	147.62
398.407	131.24
398.617	114.86
398.826	112.81
399.035	57.51
399.244	67.75
399.453	112.81
399.663	139.43
399.872	41.13
400.081	77.99
400.29	51.37
400.499	63.66
400.708	100.52
400.917	75.95
401.127	121
401.336	49.32
401.545	147.62
401.754	145.58
401.963	90.28
402.172	88.23
402.381	61.61
402.59	141.48
402.799	135.34
403.008	137.38
403.217	157.86
403.426	86.19
403.635	145.58
403.844	108.71
404.053	123.05
404.262	102.57
404.471	164.01
404.68	90.28
404.888	123.05
405.097	143.53
405.306	176.3
405.515	145.58
405.724	92.33
405.933	157.86
406.142	190.63
406.35	178.34
406.559	229.54
406.768	82.09
406.977	166.06
407.185	108.71
407.394	135.34
407.603	86.19
407.812	129.19
408.02	135.34
408.229	194.73
408.438	192.68
408.646	125.1
408.855	192.68
409.064	155.82
409.272	182.44
409.481	209.06
409.69	213.16
409.898	188.58
410.107	235.69
410.315	288.93
410.524	274.6
410.733	202.92
410.941	274.6
411.15	336.04
411.358	374.95
411.567	342.18
411.775	383.14
411.984	325.8
412.192	331.94
412.401	336.04
412.609	360.61
412.818	424.1
413.026	415.91
413.234	452.77
413.443	411.81
413.651	346.28
413.86	358.57
414.068	499.88
414.276	471.2
414.485	377
414.693	532.64
414.901	530.59
415.11	532.64
415.318	544.93
415.526	567.46
415.734	622.75
415.943	686.24
416.151	632.99
416.359	645.28
416.567	741.54
416.776	692.38
416.984	733.34
417.192	823.45
417.4	733.34
417.608	749.73
417.817	800.93
418.025	886.94
418.233	925.85
418.441	870.56
418.649	938.14
418.857	932
419.065	944.28
419.273	950.43
419.481	972.96
419.689	1130.65
419.897	1222.81
420.105	1214.62
420.313	1063.07
420.521	1194.14
420.729	1310.87
420.937	1202.33
421.145	1355.93
421.353	1441.94
421.561	1530
421.769	1413.27
421.977	1566.87
422.185	1605.78
422.393	1659.03
422.601	1708.18
422.809	1759.38
423.017	1751.18
423.224	1872.01
423.432	1912.97
423.64	1988.75
423.848	2095.24
424.056	2005.13
424.263	2123.91
424.471	2214.02
424.679	2265.22
424.887	2242.7
425.094	2291.85
425.302	2453.64
425.51	2517.12
425.718	2537.6
425.925	2586.76
426.133	2701.44
426.341	2816.13
426.548	2924.67
426.756	3035.26
426.964	3014.78
427.171	3231.87
427.379	3444.85
427.586	3369.08
427.794	3358.84
428.001	3573.88
428.209	3727.47
428.417	3645.56
428.624	3965.04
428.832	3889.26
429.039	3973.23
429.247	3895.41
429.454	4450.41
429.662	4587.62
429.869	4270.19
430.076	4438.12
430.284	4462.69
430.491	4681.83
430.699	4903.01
430.906	4857.95
431.114	4995.17
431.321	5167.2
431.528	5122.14
431.736	5503.06
431.943	5859.41
432.15	5558.36
432.358	5828.69
432.565	6117.45
432.772	5978.19
432.979	6326.35
433.187	6410.31
433.394	6670.4
433.601	6971.46
433.808	7045.18
434.016	6957.12
434.223	7323.71
434.43	7745.59
434.637	7573.56
434.844	7929.91
435.052	8136.75
435.259	8095.79
435.466	7989.3
435.673	7934
435.88	8527.91
436.087	9181.21
436.294	9160.73
436.501	8886.31
436.708	9060.38
436.915	9324.57
437.122	9676.82
437.329	9687.06
437.537	10014.74
437.743	10215.44
437.95	10115.09
438.157	10655.75
438.364	11167.74
438.571	10827.78
438.778	11249.66
438.985	12027.89
439.192	11675.64
439.399	11952.12
439.606	11667.45
439.813	12396.53
440.02	13432.8
440.227	12761.06
440.433	12826.6
440.64	13098.98
440.847	13039.59
441.054	13406.17
441.261	14129.11
441.467	14045.14
441.674	14309.33
441.881	14594
442.088	14792.65
442.294	14653.39
442.501	15185.86
442.708	15368.13
442.914	16043.96
443.121	16687.02
443.328	16439.22
443.534	17440.67
443.741	16885.67
443.948	16750.51
444.154	18034.58
444.361	17743.77
444.568	17999.77
444.774	17909.66
444.981	18087.83
445.187	18732.94
445.394	19511.17
445.6	19300.23
445.807	21084.01
446.013	20479.86
446.22	20582.26
446.426	21135.21
446.633	21391.2
446.839	22048.6
447.046	21210.98
447.252	22671.18
447.459	22540.11
447.665	22361.94
447.871	23338.82
448.078	24262.46
448.284	22937.42
448.491	23760.7
448.697	24885.04
448.903	25356.07
449.11	25130.8
449.316	25106.22
449.522	25184.04
449.728	26095.39
449.935	25978.65
450.141	26015.52
450.347	27141.9
450.553	25970.46
450.76	26349.34
450.966	27162.38
451.172	26566.42
451.378	27170.57
451.584	26844.95
451.791	27229.96
451.997	27690.76
452.203	28262.14
452.409	27672.32
452.615	27725.57
452.821	26756.88
453.027	26601.24
453.233	27903.74
453.44	26560.28
453.646	26959.63
453.852	27098.89
454.058	27352.84
454.264	26521.37
454.47	26998.54
454.676	26685.2
454.882	27297.55
455.088	25073.45
455.294	25292.58
455.5	25622.31
455.705	25704.23
455.911	25071.4
456.117	24438.58
456.323	23912.25
456.529	22665.04
456.735	23701.31
456.941	23177.03
457.147	22574.93
457.352	21974.88
457.558	21907.29
457.764	21761.89
457.97	21565.28
458.176	21010.28
458.381	20813.68
458.587	19931
458.793	19971.96
458.999	18925.45
459.204	20453.23
459.41	19666.81
459.616	18499.47
459.821	18630.54
460.027	18249.62
460.233	18093.97
460.438	17194.92
460.644	17383.33
460.85	16584.62
461.055	16095.16
461.261	15974.33
461.466	14972.87
461.672	14555.08
461.878	15622.08
462.083	14757.83
462.289	14452.69
462.494	14145.49
462.7	13598.68
462.905	13324.26
463.111	13613.02
463.316	13768.66
463.522	13475.81
463.727	13580.25
463.932	13619.16
464.138	13486.04
464.343	13320.16
464.549	13246.43
464.754	13559.77
464.959	13434.85
465.165	13133.79
465.37	12984.29
465.575	12507.12
465.781	12881.89
465.986	13127.65
466.191	12650.47
466.397	12130.29
466.602	11638.78
466.807	12048.37
467.012	11997.17
467.218	12031.99
467.423	11890.68
467.628	12253.17
467.833	12472.3
468.038	11980.79
468.244	11694.07
468.449	12253.17
468.654	11724.79
