Data from USB4F104151__42__11-05-28-370.txt Node

Date: Wed Mar 12 11:05:28 EDT 2025
User: louis
Spectrometer: USB4F10415
Trigger mode: 4
Integration Time (sec): 2.000000E-2
Scans to average: 1
Electric dark correction enabled: true
Nonlinearity correction enabled: false
Boxcar width: 0
XAxis mode: Wavelengths
Number of Pixels in Spectrum: 3648
>>>>>Begin Spectral Data<<<<<
178.204	-50.86
178.424	-50.86
178.644	-50.86
178.864	-69.29
179.084	-61.1
179.304	4.44
179.524	61.78
179.744	26.96
179.964	47.44
180.184	-48.81
180.404	-63.15
180.624	-9.9
180.844	-18.09
181.064	35.16
181.283	-18.09
181.503	-75.43
181.723	57.68
181.943	-20.14
182.163	18.77
182.383	-106.15
182.602	26.96
182.822	117.08
183.042	59.73
183.262	47.44
183.482	-48.81
183.701	14.68
183.921	-16.04
184.141	43.35
184.361	84.31
184.58	57.68
184.8	37.2
185.02	37.2
185.239	49.49
185.459	-34.47
185.679	61.78
185.898	-11.95
186.118	84.31
186.338	-32.43
186.557	100.69
186.777	-3.75
186.997	29.01
187.216	-30.38
187.436	82.26
187.655	18.77
187.875	16.73
188.095	47.44
188.314	-11.95
188.534	63.83
188.753	-13.99
188.973	4.44
189.192	4.44
189.412	37.2
189.631	53.59
189.851	14.68
190.07	37.2
190.29	53.59
190.509	-50.86
190.729	31.06
190.948	72.02
191.168	72.02
191.387	-16.04
191.607	6.49
191.826	14.68
192.045	0.34
192.265	2.39
192.484	41.3
192.704	74.07
192.923	45.4
193.142	76.12
193.362	-50.86
193.581	31.06
193.8	35.16
194.02	49.49
194.239	2.39
194.458	10.58
194.678	6.49
194.897	-7.85
195.116	16.73
195.335	4.44
195.555	18.77
195.774	24.92
195.993	20.82
196.212	-24.23
196.432	61.78
196.651	57.68
196.87	12.63
197.089	14.68
197.308	24.92
197.528	49.49
197.747	4.44
197.966	26.96
198.185	18.77
198.404	-5.8
198.623	-30.38
198.842	53.59
199.062	82.26
199.281	24.92
199.5	29.01
199.719	43.35
199.938	51.54
200.157	14.68
200.376	57.68
200.595	78.16
200.814	8.53
201.033	29.01
201.252	74.07
201.471	-24.23
201.69	14.68
201.909	69.97
202.128	82.26
202.347	86.36
202.566	-5.8
202.785	63.83
203.004	-1.71
203.223	69.97
203.442	12.63
203.661	31.06
203.879	39.25
204.098	63.83
204.317	-22.19
204.536	-18.09
204.755	-3.75
204.974	37.2
205.193	29.01
205.411	78.16
205.63	45.4
205.849	26.96
206.068	2.39
206.287	33.11
206.505	-30.38
206.724	-26.28
206.943	43.35
207.162	45.4
207.381	10.58
207.599	26.96
207.818	4.44
208.037	0.34
208.255	-20.14
208.474	-9.9
208.693	10.58
208.911	33.11
209.13	47.44
209.349	45.4
209.567	61.78
209.786	69.97
210.005	53.59
210.223	43.35
210.442	-9.9
210.661	-16.04
210.879	-26.28
211.098	14.68
211.316	41.3
211.535	16.73
211.753	2.39
211.972	-3.75
212.191	24.92
212.409	18.77
212.628	78.16
212.846	39.25
213.065	-1.71
213.283	96.6
213.502	12.63
213.72	-18.09
213.938	16.73
214.157	57.68
214.375	39.25
214.594	29.01
214.812	22.87
215.031	-11.95
215.249	74.07
215.467	20.82
215.686	26.96
215.904	10.58
216.122	-3.75
216.341	16.73
216.559	14.68
216.778	61.78
216.996	102.74
217.214	84.31
217.432	-24.23
217.651	31.06
217.869	-44.71
218.087	-20.14
218.306	76.12
218.524	49.49
218.742	-3.75
218.96	69.97
219.179	-1.71
219.397	24.92
219.615	-1.71
219.833	33.11
220.051	-38.57
220.27	84.31
220.488	45.4
220.706	-26.28
220.924	12.63
221.142	6.49
221.36	20.82
221.578	69.97
221.796	31.06
222.015	86.36
222.233	-32.43
222.451	-20.14
222.669	78.16
222.887	16.73
223.105	8.53
223.323	-36.52
223.541	-38.57
223.759	51.54
223.977	47.44
224.195	2.39
224.413	31.06
224.631	57.68
224.849	20.82
225.067	31.06
225.285	45.4
225.503	-7.85
225.721	-71.34
225.939	39.25
226.157	-18.09
226.375	84.31
226.592	26.96
226.81	31.06
227.028	16.73
227.246	49.49
227.464	-22.19
227.682	57.68
227.9	4.44
228.117	33.11
228.335	-16.04
228.553	-13.99
228.771	33.11
228.989	90.45
229.206	-13.99
229.424	145.75
229.642	41.3
229.86	45.4
230.077	31.06
230.295	45.4
230.513	16.73
230.731	6.49
230.948	29.01
231.166	98.64
231.384	24.92
231.601	67.92
231.819	61.78
232.037	33.11
232.254	-46.76
232.472	61.78
232.689	-69.29
232.907	76.12
233.125	39.25
233.342	14.68
233.56	-11.95
233.777	72.02
233.995	14.68
234.213	26.96
234.43	22.87
234.648	55.64
234.865	-22.19
235.083	49.49
235.3	4.44
235.518	-38.57
235.735	2.39
235.953	2.39
236.17	51.54
236.388	0.34
236.605	59.73
236.822	39.25
237.04	6.49
237.257	-11.95
237.475	-5.8
237.692	41.3
237.909	20.82
238.127	-44.71
238.344	-13.99
238.562	67.92
238.779	-34.47
238.996	-32.43
239.214	108.88
239.431	-22.19
239.648	35.16
239.865	45.4
240.083	115.03
240.3	47.44
240.517	41.3
240.735	-24.23
240.952	96.6
241.169	76.12
241.386	24.92
241.603	47.44
241.821	-63.15
242.038	78.16
242.255	31.06
242.472	55.64
242.689	110.93
242.907	20.82
243.124	45.4
243.341	-48.81
243.558	-42.67
243.775	-71.34
243.992	43.35
244.209	55.64
244.426	55.64
244.643	59.73
244.86	-20.14
245.078	74.07
245.295	10.58
245.512	37.2
245.729	76.12
245.946	18.77
246.163	-9.9
246.38	6.49
246.597	-3.75
246.814	-18.09
247.031	-28.33
247.248	90.45
247.464	160.08
247.681	92.5
247.898	45.4
248.115	-5.8
248.332	47.44
248.549	-11.95
248.766	74.07
248.983	119.12
249.2	-46.76
249.417	-18.09
249.633	-20.14
249.85	49.49
250.067	16.73
250.284	33.11
250.501	29.01
250.717	78.16
250.934	0.34
251.151	8.53
251.368	10.58
251.585	24.92
251.801	51.54
252.018	-11.95
252.235	16.73
252.451	33.11
252.668	49.49
252.885	37.2
253.102	-28.33
253.318	61.78
253.535	-40.62
253.752	26.96
253.968	72.02
254.185	41.3
254.401	39.25
254.618	-28.33
254.835	-42.67
255.051	80.21
255.268	47.44
255.484	94.55
255.701	-18.09
255.917	4.44
256.134	72.02
256.351	-30.38
256.567	2.39
256.784	14.68
257	-22.19
257.217	55.64
257.433	-40.62
257.65	-26.28
257.866	18.77
258.082	-71.34
258.299	-3.75
258.515	90.45
258.732	22.87
258.948	16.73
259.165	65.88
259.381	-16.04
259.597	53.59
259.814	8.53
260.03	-1.71
260.246	0.34
260.463	10.58
260.679	-13.99
260.895	-65.19
261.112	-26.28
261.328	51.54
261.544	20.82
261.761	110.93
261.977	-1.71
262.193	10.58
262.409	37.2
262.626	100.69
262.842	102.74
263.058	43.35
263.274	20.82
263.49	55.64
263.707	16.73
263.923	26.96
264.139	14.68
264.355	49.49
264.571	18.77
264.787	12.63
265.004	63.83
265.22	47.44
265.436	10.58
265.652	51.54
265.868	33.11
266.084	-46.76
266.3	98.64
266.516	22.87
266.732	37.2
266.948	-3.75
267.164	-5.8
267.38	-11.95
267.596	6.49
267.812	78.16
268.028	-11.95
268.244	6.49
268.46	47.44
268.676	125.27
268.892	61.78
269.108	51.54
269.324	31.06
269.54	67.92
269.756	-3.75
269.972	-40.62
270.188	65.88
270.403	51.54
270.619	8.53
270.835	26.96
271.051	51.54
271.267	-83.63
271.483	45.4
271.698	31.06
271.914	-1.71
272.13	65.88
272.346	10.58
272.562	-3.75
272.777	63.83
272.993	51.54
273.209	-42.67
273.425	20.82
273.64	-16.04
273.856	43.35
274.072	-13.99
274.287	-38.57
274.503	18.77
274.719	-3.75
274.934	57.68
275.15	16.73
275.366	67.92
275.581	31.06
275.797	26.96
276.012	24.92
276.228	22.87
276.444	29.01
276.659	29.01
276.875	18.77
277.09	41.3
277.306	12.63
277.521	55.64
277.737	-24.23
277.952	-5.8
278.168	69.97
278.383	8.53
278.599	20.82
278.814	35.16
279.03	-38.57
279.245	74.07
279.461	26.96
279.676	53.59
279.892	-36.52
280.107	10.58
280.322	-34.47
280.538	-5.8
280.753	4.44
280.969	112.98
281.184	-13.99
281.399	-24.23
281.615	18.77
281.83	4.44
282.045	29.01
282.26	33.11
282.476	55.64
282.691	8.53
282.906	33.11
283.122	31.06
283.337	-3.75
283.552	-7.85
283.767	29.01
283.983	74.07
284.198	67.92
284.413	35.16
284.628	31.06
284.843	12.63
285.058	-24.23
285.274	0.34
285.489	-40.62
285.704	88.4
285.919	33.11
286.134	2.39
286.349	-40.62
286.564	37.2
286.779	57.68
286.995	2.39
287.21	20.82
287.425	63.83
287.64	57.68
287.855	-57
288.07	31.06
288.285	45.4
288.5	4.44
288.715	86.36
288.93	53.59
289.145	55.64
289.36	92.5
289.575	-18.09
289.79	-7.85
290.004	-5.8
290.219	29.01
290.434	33.11
290.649	37.2
290.864	-18.09
291.079	67.92
291.294	78.16
291.509	51.54
291.724	6.49
291.938	2.39
292.153	53.59
292.368	18.77
292.583	26.96
292.798	-11.95
293.012	4.44
293.227	35.16
293.442	29.01
293.657	-11.95
293.871	57.68
294.086	16.73
294.301	84.31
294.516	43.35
294.73	26.96
294.945	88.4
295.16	57.68
295.374	72.02
295.589	94.55
295.804	-16.04
296.018	12.63
296.233	59.73
296.447	16.73
296.662	37.2
296.877	53.59
297.091	14.68
297.306	53.59
297.52	112.98
297.735	35.16
297.949	33.11
298.164	26.96
298.378	8.53
298.593	47.44
298.807	-44.71
299.022	-44.71
299.236	-5.8
299.451	-30.38
299.665	53.59
299.88	51.54
300.094	0.34
300.309	22.87
300.523	63.83
300.737	47.44
300.952	20.82
301.166	18.77
301.381	-20.14
301.595	12.63
301.809	37.2
302.024	59.73
302.238	29.01
302.452	106.84
302.667	57.68
302.881	35.16
303.095	41.3
303.309	39.25
303.524	-1.71
303.738	29.01
303.952	49.49
304.166	63.83
304.381	2.39
304.595	100.69
304.809	-36.52
305.023	6.49
305.237	45.4
305.452	82.26
305.666	20.82
305.88	31.06
306.094	82.26
306.308	33.11
306.522	80.21
306.736	63.83
306.95	12.63
307.164	37.2
307.379	61.78
307.593	49.49
307.807	63.83
308.021	31.06
308.235	22.87
308.449	35.16
308.663	61.78
308.877	69.97
309.091	29.01
309.305	51.54
309.519	-1.71
309.733	31.06
309.947	37.2
310.161	10.58
310.374	12.63
310.588	55.64
310.802	49.49
311.016	41.3
311.23	12.63
311.444	33.11
311.658	4.44
311.872	-13.99
312.085	2.39
312.299	-3.75
312.513	39.25
312.727	59.73
312.941	67.92
313.154	51.54
313.368	37.2
313.582	78.16
313.796	-11.95
314.009	98.64
314.223	37.2
314.437	47.44
314.651	-40.62
314.864	53.59
315.078	-24.23
315.292	-26.28
315.505	-11.95
315.719	76.12
315.933	4.44
316.146	0.34
316.36	-38.57
316.573	119.12
316.787	14.68
317.001	-9.9
317.214	-7.85
317.428	121.17
317.641	-3.75
317.855	41.3
318.068	24.92
318.282	86.36
318.495	115.03
318.709	14.68
318.922	26.96
319.136	180.56
319.349	43.35
319.563	35.16
319.776	47.44
319.99	-5.8
320.203	53.59
320.417	-1.71
320.63	102.74
320.843	47.44
321.057	33.11
321.27	106.84
321.483	4.44
321.697	74.07
321.91	39.25
322.124	37.2
322.337	-34.47
322.55	72.02
322.763	-34.47
322.977	-11.95
323.19	14.68
323.403	41.3
323.617	61.78
323.83	59.73
324.043	45.4
324.256	6.49
324.469	-16.04
324.683	45.4
324.896	-48.81
325.109	8.53
325.322	51.54
325.535	26.96
325.748	12.63
325.962	37.2
326.175	65.88
326.388	12.63
326.601	-28.33
326.814	20.82
327.027	20.82
327.24	74.07
327.453	41.3
327.666	49.49
327.879	6.49
328.092	4.44
328.305	-30.38
328.518	-11.95
328.731	-13.99
328.944	-11.95
329.157	18.77
329.37	29.01
329.583	57.68
329.796	12.63
330.009	-16.04
330.222	65.88
330.435	39.25
330.648	29.01
330.861	92.5
331.073	12.63
331.286	47.44
331.499	115.03
331.712	-20.14
331.925	-3.75
332.138	39.25
332.35	84.31
332.563	-46.76
332.776	-38.57
332.989	61.78
333.202	12.63
333.414	33.11
333.627	57.68
333.84	80.21
334.053	37.2
334.265	-26.28
334.478	12.63
334.691	39.25
334.903	59.73
335.116	-20.14
335.329	65.88
335.541	-3.75
335.754	74.07
335.966	4.44
336.179	4.44
336.392	-30.38
336.604	18.77
336.817	0.34
337.029	-3.75
337.242	-7.85
337.454	4.44
337.667	55.64
337.88	74.07
338.092	63.83
338.305	123.22
338.517	29.01
338.729	57.68
338.942	49.49
339.154	-20.14
339.367	-26.28
339.579	31.06
339.792	37.2
340.004	119.12
340.217	33.11
340.429	12.63
340.641	18.77
340.854	-7.85
341.066	90.45
341.278	-18.09
341.491	65.88
341.703	145.75
341.915	20.82
342.128	41.3
342.34	-3.75
342.552	-3.75
342.764	4.44
342.977	22.87
343.189	16.73
343.401	51.54
343.613	53.59
343.826	45.4
344.038	72.02
344.25	108.88
344.462	-32.43
344.674	-28.33
344.886	14.68
345.099	41.3
345.311	35.16
345.523	-16.04
345.735	55.64
345.947	78.16
346.159	35.16
346.371	151.89
346.583	20.82
346.795	24.92
347.007	57.68
347.219	59.73
347.431	24.92
347.643	127.32
347.855	49.49
348.067	90.45
348.279	-16.04
348.491	80.21
348.703	82.26
348.915	-5.8
349.127	4.44
349.339	84.31
349.551	0.34
349.763	59.73
349.975	-16.04
350.187	106.84
350.399	76.12
350.61	88.4
350.822	2.39
351.034	37.2
351.246	33.11
351.458	88.4
351.669	8.53
351.881	86.36
352.093	86.36
352.305	63.83
352.517	65.88
352.728	-36.52
352.94	129.36
353.152	43.35
353.363	-52.91
353.575	31.06
353.787	67.92
353.999	-11.95
354.21	41.3
354.422	8.53
354.633	8.53
354.845	-22.19
355.057	43.35
355.268	80.21
355.48	69.97
355.692	-1.71
355.903	20.82
356.115	31.06
356.326	-3.75
356.538	47.44
356.749	69.97
356.961	65.88
357.172	43.35
357.384	55.64
357.595	12.63
357.807	47.44
358.018	14.68
358.23	53.59
358.441	45.4
358.653	-34.47
358.864	-5.8
359.075	110.93
359.287	86.36
359.498	74.07
359.709	39.25
359.921	-11.95
360.132	55.64
360.344	-28.33
360.555	-3.75
360.766	102.74
360.977	57.68
361.189	67.92
361.4	4.44
361.611	-3.75
361.823	4.44
362.034	61.78
362.245	4.44
362.456	2.39
362.667	16.73
362.879	78.16
363.09	49.49
363.301	41.3
363.512	26.96
363.723	47.44
363.935	41.3
364.146	72.02
364.357	-7.85
364.568	108.88
364.779	29.01
364.99	20.82
365.201	8.53
365.412	18.77
365.623	8.53
365.834	18.77
366.045	-1.71
366.256	115.03
366.467	24.92
366.678	102.74
366.889	61.78
367.1	33.11
367.311	47.44
367.522	16.73
367.733	57.68
367.944	86.36
368.155	61.78
368.366	72.02
368.577	78.16
368.788	31.06
368.999	-3.75
369.209	49.49
369.42	84.31
369.631	53.59
369.842	82.26
370.053	16.73
370.264	53.59
370.474	6.49
370.685	49.49
370.896	31.06
371.107	47.44
371.317	98.64
371.528	106.84
371.739	69.97
371.95	45.4
372.16	78.16
372.371	61.78
372.582	67.92
372.792	-22.19
373.003	61.78
373.214	119.12
373.424	96.6
373.635	102.74
373.846	33.11
374.056	69.97
374.267	12.63
374.477	65.88
374.688	18.77
374.898	78.16
375.109	57.68
375.319	53.59
375.53	59.73
375.74	102.74
375.951	-3.75
376.161	74.07
376.372	12.63
376.582	37.2
376.793	35.16
377.003	59.73
377.214	37.2
377.424	10.58
377.635	45.4
377.845	-13.99
378.055	110.93
378.266	-7.85
378.476	90.45
378.686	26.96
378.897	22.87
379.107	39.25
379.317	72.02
379.528	29.01
379.738	45.4
379.948	26.96
380.158	74.07
380.369	-34.47
380.579	67.92
380.789	49.49
380.999	49.49
381.21	39.25
381.42	35.16
381.63	43.35
381.84	72.02
382.05	26.96
382.261	59.73
382.471	155.99
382.681	69.97
382.891	69.97
383.101	90.45
383.311	53.59
383.521	26.96
383.731	104.79
383.941	12.63
384.151	35.16
384.361	-1.71
384.571	125.27
384.781	61.78
384.991	88.4
385.201	110.93
385.411	43.35
385.621	47.44
385.831	-28.33
386.041	-20.14
386.251	102.74
386.461	45.4
386.671	80.21
386.881	26.96
387.091	78.16
387.301	0.34
387.511	39.25
387.72	-11.95
387.93	49.49
388.14	12.63
388.35	31.06
388.56	119.12
388.769	129.36
388.979	123.22
389.189	20.82
389.399	96.6
389.609	67.92
389.818	121.17
390.028	102.74
390.238	135.51
390.447	45.4
390.657	69.97
390.867	84.31
391.076	37.2
391.286	29.01
391.496	112.98
391.705	69.97
391.915	63.83
392.125	92.5
392.334	112.98
392.544	63.83
392.753	69.97
392.963	61.78
393.172	35.16
393.382	65.88
393.591	82.26
393.801	41.3
394.01	98.64
394.22	69.97
394.429	59.73
394.639	164.18
394.848	51.54
395.058	2.39
395.267	61.78
395.477	82.26
395.686	18.77
395.895	35.16
396.105	76.12
396.314	104.79
396.524	94.55
396.733	82.26
396.942	131.41
397.152	69.97
397.361	29.01
397.57	63.83
397.78	12.63
397.989	100.69
398.198	115.03
398.407	69.97
398.617	74.07
398.826	94.55
399.035	49.49
399.244	53.59
399.453	149.84
399.663	65.88
399.872	76.12
400.081	65.88
400.29	108.88
400.499	72.02
400.708	215.38
400.917	31.06
401.127	127.32
401.336	84.31
401.545	135.51
401.754	110.93
401.963	61.78
402.172	82.26
402.381	98.64
402.59	78.16
402.799	112.98
403.008	57.68
403.217	100.69
403.426	172.37
403.635	47.44
403.844	33.11
404.053	37.2
404.262	14.68
404.471	164.18
404.68	76.12
404.888	149.84
405.097	184.66
405.306	92.5
405.515	84.31
405.724	143.7
405.933	166.23
406.142	196.95
406.35	168.27
406.559	198.99
406.768	164.18
406.977	254.29
407.185	215.38
407.394	192.85
407.603	158.03
407.812	233.81
408.02	209.23
408.229	172.37
408.438	110.93
408.646	119.12
408.855	211.28
409.064	233.81
409.272	262.48
409.481	262.48
409.69	235.86
409.898	229.71
410.107	213.33
410.315	293.2
410.524	328.02
410.733	221.52
410.941	266.58
411.15	278.87
411.358	270.67
411.567	307.54
411.775	336.21
411.984	356.69
412.192	358.74
412.401	414.03
412.609	407.89
412.818	358.74
413.026	487.76
413.234	475.47
413.443	389.46
413.651	467.28
413.86	436.56
414.068	338.26
414.276	526.67
414.485	606.54
414.693	549.2
414.901	704.84
415.11	596.3
415.318	596.3
415.526	622.92
415.734	647.5
415.943	657.74
416.151	747.85
416.359	735.56
416.567	753.99
416.776	737.61
416.984	803.15
417.192	868.68
417.4	756.04
417.608	885.06
417.817	868.68
418.025	999.75
418.233	975.17
418.441	985.41
418.649	1067.33
418.857	1106.24
419.065	1028.42
419.273	1036.61
419.481	1110.34
419.689	1261.89
419.897	1331.52
420.105	1308.99
420.313	1452.35
420.521	1347.9
420.729	1372.48
420.937	1509.69
421.145	1532.22
421.353	1501.5
421.561	1687.87
421.769	1765.69
421.977	1775.93
422.185	1751.35
422.393	1769.79
422.601	1984.82
422.809	2046.26
423.017	1990.97
423.224	2203.96
423.432	2128.18
423.64	2195.76
423.848	2392.37
424.056	2201.91
424.263	2449.71
424.471	2408.75
424.679	2578.73
424.887	2722.09
425.094	2730.28
425.302	2748.72
425.51	2834.73
425.718	2945.32
425.925	2853.16
426.133	3092.77
426.341	3328.29
426.548	3277.09
426.756	3434.78
426.964	3475.74
427.171	3672.35
427.379	3574.05
427.586	3715.36
427.794	3868.95
428.001	4190.49
428.209	4311.32
428.417	4309.27
428.624	4491.54
428.832	4524.3
429.039	4598.03
429.247	4522.26
429.454	4899.08
429.662	5251.33
429.869	4954.38
430.076	5239.05
430.284	5114.12
430.491	5273.86
430.699	5587.2
430.906	5607.68
431.114	5746.94
431.321	5908.73
431.528	6041.85
431.736	6502.64
431.943	6684.91
432.15	6447.35
432.358	6715.63
432.565	7080.17
432.772	6936.81
432.979	7225.58
433.187	7373.03
433.394	7481.57
433.601	7882.97
433.808	8224.98
434.016	7885.02
434.223	8294.61
434.43	8874.19
434.637	8558.8
434.844	8937.68
435.052	9521.35
435.259	9267.4
435.466	9560.26
435.673	9281.74
435.88	9814.21
436.087	10465.46
436.294	10397.88
436.501	10203.32
436.708	10381.49
436.915	10832.05
437.122	11288.75
437.329	11036.84
437.537	11364.52
437.743	11651.24
437.95	11569.32
438.157	12136.6
438.364	12402.84
438.571	12820.63
438.778	12785.81
438.985	13731.97
439.192	13295.75
439.399	13570.18
439.606	13305.99
439.813	14143.61
440.02	14948.47
440.227	14745.72
440.433	14512.25
440.64	15243.37
440.847	15097.97
441.054	15554.66
441.261	16402.52
441.467	16250.97
441.674	16599.13
441.881	17250.38
442.088	17356.88
442.294	17186.9
442.501	17571.91
442.708	17840.2
442.914	18683.96
443.121	19327.02
443.328	19017.78
443.534	20318.24
443.741	19736.62
443.948	19251.25
444.154	20410.4
444.361	20527.13
444.568	20701.21
444.774	20711.45
444.981	21295.12
445.187	21682.19
445.394	22624.25
445.6	22364.16
445.807	24315.87
446.013	23433.2
446.22	23582.7
446.426	24823.77
446.633	24983.51
446.839	25565.14
447.046	24917.98
447.252	25833.42
447.459	26099.66
447.665	25974.73
447.871	26816.44
448.078	27844.52
448.284	26922.94
448.491	27396.02
448.697	28708.77
448.903	28886.94
449.11	29151.13
449.316	28463.01
449.522	29144.98
449.728	29671.31
449.935	30113.67
450.141	30275.46
450.347	30680.96
450.553	29869.97
450.76	30033.8
450.966	31342.46
451.172	30953.34
451.378	31080.32
451.584	30814.08
451.791	31594.36
451.997	31106.94
452.203	31942.51
452.409	31848.3
452.615	31618.93
452.821	30398.34
453.027	30142.35
453.233	31682.42
453.44	30498.69
453.646	30728.06
453.852	30730.11
454.058	31172.47
454.264	30519.17
454.47	31098.75
454.676	29845.39
454.882	30852.99
455.088	28239.78
455.294	28841.89
455.5	29073.31
455.705	29314.97
455.911	28284.84
456.117	27733.93
456.323	27070.39
456.529	25796.56
456.735	27127.74
456.941	26185.67
457.147	25386.96
457.352	24934.36
457.558	24594.4
457.764	24799.19
457.97	24410.08
458.176	23580.65
458.381	23736.3
458.587	22284.29
458.793	22550.53
458.999	21430.29
459.204	22796.28
459.41	22179.84
459.616	20811.8
459.821	20523.04
460.027	20512.8
460.233	20156.45
460.438	19247.15
460.644	19652.65
460.85	18499.64
461.055	18264.13
461.261	18278.46
461.466	16771.16
461.672	16126.05
461.878	17651.78
462.083	16019.55
462.289	16019.55
462.494	15673.45
462.7	15358.06
462.905	14645.37
463.111	15384.68
463.316	15480.94
463.522	15122.54
463.727	14966.9
463.932	15063.15
464.138	14790.77
464.343	15005.81
464.549	14440.57
464.754	15030.38
464.959	14901.36
465.165	14626.93
465.37	14039.17
465.575	13707.4
465.781	14510.2
465.986	14557.3
466.191	13940.86
466.397	13727.88
466.602	13115.53
466.807	13693.06
467.012	13559.94
467.218	13385.87
467.423	13127.82
467.628	13529.22
