Data from USB4F104151__78__11-06-24-964.txt Node

Date: Wed Mar 12 11:06:24 EDT 2025
User: louis
Spectrometer: USB4F10415
Trigger mode: 4
Integration Time (sec): 2.000000E-2
Scans to average: 1
Electric dark correction enabled: true
Nonlinearity correction enabled: false
Boxcar width: 0
XAxis mode: Wavelengths
Number of Pixels in Spectrum: 3648
>>>>>Begin Spectral Data<<<<<
178.204	-23.89
178.424	-23.89
178.644	-23.89
178.864	-50.52
179.084	-3.41
179.304	12.97
179.524	-52.56
179.744	31.4
179.964	39.59
180.184	41.64
180.404	-30.04
180.624	-21.85
180.844	-1.37
181.064	-79.19
181.283	27.31
181.503	-9.56
181.723	41.64
181.943	-85.33
182.163	172.71
182.383	12.97
182.602	113.32
182.822	70.31
183.042	-1.37
183.262	23.21
183.482	62.12
183.701	10.92
183.921	47.79
184.141	8.87
184.361	27.31
184.58	12.97
184.8	25.26
185.02	62.12
185.239	35.5
185.459	-40.28
185.679	58.03
185.898	4.78
186.118	-1.37
186.338	-3.41
186.557	76.46
186.777	27.31
186.997	15.02
187.216	-32.08
187.436	58.03
187.655	60.07
187.875	109.22
188.095	-30.04
188.314	31.4
188.534	35.5
188.753	58.03
188.973	25.26
189.192	15.02
189.412	47.79
189.631	58.03
189.851	58.03
190.07	62.12
190.29	68.27
190.509	15.02
190.729	27.31
190.948	-3.41
191.168	131.75
191.387	53.93
191.607	15.02
191.826	-7.51
192.045	-66.9
192.265	31.4
192.484	68.27
192.704	41.64
192.923	-54.61
193.142	92.84
193.362	80.55
193.581	33.45
193.8	70.31
194.02	33.45
194.239	72.36
194.458	21.16
194.678	29.35
194.897	74.41
195.116	31.4
195.335	2.73
195.555	37.55
195.774	29.35
195.993	-7.51
196.212	-13.65
196.432	58.03
196.651	51.88
196.87	45.74
197.089	74.41
197.308	15.02
197.528	35.5
197.747	-81.24
197.966	0.68
198.185	17.07
198.404	25.26
198.623	103.08
198.842	49.83
199.062	41.64
199.281	47.79
199.5	-5.46
199.719	58.03
199.938	121.51
200.157	84.65
200.376	66.22
200.595	78.51
200.814	129.7
201.033	-32.08
201.252	37.55
201.471	51.88
201.69	8.87
201.909	12.97
202.128	12.97
202.347	6.83
202.566	80.55
202.785	68.27
203.004	-9.56
203.223	31.4
203.442	10.92
203.661	66.22
203.879	98.99
204.098	86.7
204.317	45.74
204.536	70.31
204.755	117.42
204.974	29.35
205.193	103.08
205.411	88.75
205.63	-3.41
205.849	64.17
206.068	76.46
206.287	-7.51
206.505	35.5
206.724	74.41
206.943	-15.7
207.162	-40.28
207.381	47.79
207.599	113.32
207.818	23.21
208.037	25.26
208.255	39.59
208.474	29.35
208.693	31.4
208.911	23.21
209.13	-40.28
209.349	72.36
209.567	12.97
209.786	88.75
210.005	-5.46
210.223	49.83
210.442	-1.37
210.661	55.98
210.879	62.12
211.098	23.21
211.316	80.55
211.535	53.93
211.753	10.92
211.972	19.11
212.191	51.88
212.409	-5.46
212.628	2.73
212.846	23.21
213.065	31.4
213.283	6.83
213.502	-11.61
213.72	62.12
213.938	21.16
214.157	43.69
214.375	19.11
214.594	10.92
214.812	27.31
215.031	70.31
215.249	23.21
215.467	31.4
215.686	60.07
215.904	-11.61
216.122	49.83
216.341	64.17
216.559	64.17
216.778	35.5
216.996	62.12
217.214	-13.65
217.432	-3.41
217.651	70.31
217.869	23.21
218.087	33.45
218.306	29.35
218.524	64.17
218.742	41.64
218.96	62.12
219.179	-25.94
219.397	117.42
219.615	60.07
219.833	125.61
220.051	-13.65
220.27	12.97
220.488	19.11
220.706	68.27
220.924	-3.41
221.142	4.78
221.36	-9.56
221.578	21.16
221.796	17.07
222.015	49.83
222.233	47.79
222.451	103.08
222.669	4.78
222.887	72.36
223.105	4.78
223.323	-21.85
223.541	39.59
223.759	82.6
223.977	-23.89
224.195	47.79
224.413	76.46
224.631	-32.08
224.849	29.35
225.067	94.89
225.285	76.46
225.503	-13.65
225.721	-75.09
225.939	-5.46
226.157	64.17
226.375	115.37
226.592	-9.56
226.81	12.97
227.028	-15.7
227.246	78.51
227.464	53.93
227.682	58.03
227.9	-9.56
228.117	6.83
228.335	21.16
228.553	25.26
228.771	62.12
228.989	47.79
229.206	60.07
229.424	39.59
229.642	-36.18
229.86	43.69
230.077	88.75
230.295	-25.94
230.513	66.22
230.731	-1.37
230.948	23.21
231.166	74.41
231.384	-30.04
231.601	35.5
231.819	35.5
232.037	-21.85
232.254	31.4
232.472	29.35
232.689	39.59
232.907	-1.37
233.125	10.92
233.342	82.6
233.56	53.93
233.777	23.21
233.995	64.17
234.213	88.75
234.43	27.31
234.648	55.98
234.865	21.16
235.083	-9.56
235.3	19.11
235.518	51.88
235.735	88.75
235.953	47.79
236.17	29.35
236.388	-11.61
236.605	47.79
236.822	72.36
237.04	12.97
237.257	41.64
237.475	47.79
237.692	31.4
237.909	76.46
238.127	25.26
238.344	35.5
238.562	-32.08
238.779	-56.66
238.996	-13.65
239.214	-27.99
239.431	29.35
239.648	39.59
239.865	107.18
240.083	78.51
240.3	10.92
240.517	-5.46
240.735	92.84
240.952	-44.37
241.169	4.78
241.386	-21.85
241.603	88.75
241.821	35.5
242.038	105.13
242.255	64.17
242.472	17.07
242.689	101.03
242.907	53.93
243.124	41.64
243.341	68.27
243.558	15.02
243.775	2.73
243.992	74.41
244.209	82.6
244.426	12.97
244.643	96.94
244.86	-9.56
245.078	21.16
245.295	-1.37
245.512	60.07
245.729	-9.56
245.946	-46.42
246.163	-56.66
246.38	76.46
246.597	55.98
246.814	47.79
247.031	70.31
247.248	144.04
247.464	78.51
247.681	82.6
247.898	68.27
248.115	66.22
248.332	-30.04
248.549	19.11
248.766	41.64
248.983	55.98
249.2	58.03
249.417	31.4
249.633	53.93
249.85	58.03
250.067	33.45
250.284	23.21
250.501	15.02
250.717	-19.8
250.934	39.59
251.151	49.83
251.368	17.07
251.585	55.98
251.801	76.46
252.018	-1.37
252.235	-1.37
252.451	15.02
252.668	-40.28
252.885	94.89
253.102	35.5
253.318	117.42
253.535	6.83
253.752	10.92
253.968	23.21
254.185	84.65
254.401	-5.46
254.618	84.65
254.835	88.75
255.051	58.03
255.268	-15.7
255.484	39.59
255.701	-13.65
255.917	51.88
256.134	60.07
256.351	-5.46
256.567	-19.8
256.784	125.61
257	35.5
257.217	35.5
257.433	51.88
257.65	105.13
257.866	53.93
258.082	2.73
258.299	19.11
258.515	55.98
258.732	-3.41
258.948	43.69
259.165	64.17
259.381	-7.51
259.597	39.59
259.814	35.5
260.03	-21.85
260.246	72.36
260.463	66.22
260.679	2.73
260.895	21.16
261.112	88.75
261.328	37.55
261.544	-7.51
261.761	68.27
261.977	29.35
262.193	8.87
262.409	70.31
262.626	37.55
262.842	8.87
263.058	10.92
263.274	62.12
263.49	33.45
263.707	49.83
263.923	39.59
264.139	80.55
264.355	47.79
264.571	17.07
264.787	-34.13
265.004	53.93
265.22	23.21
265.436	45.74
265.652	-75.09
265.868	35.5
266.084	-13.65
266.3	41.64
266.516	2.73
266.732	39.59
266.948	27.31
267.164	-3.41
267.38	31.4
267.596	53.93
267.812	111.27
268.028	88.75
268.244	92.84
268.46	45.74
268.676	45.74
268.892	17.07
269.108	-5.46
269.324	0.68
269.54	125.61
269.756	62.12
269.972	-38.23
270.188	19.11
270.403	-13.65
270.619	33.45
270.835	17.07
271.051	119.46
271.267	31.4
271.483	-7.51
271.698	4.78
271.914	8.87
272.13	41.64
272.346	12.97
272.562	51.88
272.777	15.02
272.993	119.46
273.209	-9.56
273.425	90.79
273.64	31.4
273.856	92.84
274.072	25.26
274.287	19.11
274.503	-15.7
274.719	107.18
274.934	35.5
275.15	-42.32
275.366	-7.51
275.581	47.79
275.797	80.55
276.012	33.45
276.228	82.6
276.444	25.26
276.659	64.17
276.875	8.87
277.09	6.83
277.306	51.88
277.521	55.98
277.737	15.02
277.952	64.17
278.168	19.11
278.383	113.32
278.599	23.21
278.814	43.69
279.03	15.02
279.245	33.45
279.461	45.74
279.676	-46.42
279.892	-17.75
280.107	12.97
280.322	-46.42
280.538	-15.7
280.753	29.35
280.969	39.59
281.184	15.02
281.399	-25.94
281.615	12.97
281.83	17.07
282.045	39.59
282.26	25.26
282.476	25.26
282.691	60.07
282.906	31.4
283.122	37.55
283.337	58.03
283.552	82.6
283.767	82.6
283.983	94.89
284.198	-3.41
284.413	55.98
284.628	10.92
284.843	39.59
285.058	96.94
285.274	17.07
285.489	12.97
285.704	41.64
285.919	-7.51
286.134	51.88
286.349	29.35
286.564	-111.96
286.779	129.7
286.995	-27.99
287.21	55.98
287.425	92.84
287.64	2.73
287.855	-1.37
288.07	-48.47
288.285	10.92
288.5	58.03
288.715	6.83
288.93	4.78
289.145	12.97
289.36	76.46
289.575	2.73
289.79	43.69
290.004	90.79
290.219	86.7
290.434	-111.96
290.649	-1.37
290.864	76.46
291.079	21.16
291.294	47.79
291.509	58.03
291.724	8.87
291.938	-17.75
292.153	37.55
292.368	31.4
292.583	12.97
292.798	64.17
293.012	41.64
293.227	12.97
293.442	-15.7
293.657	80.55
293.871	43.69
294.086	51.88
294.301	98.99
294.516	55.98
294.73	19.11
294.945	23.21
295.16	80.55
295.374	98.99
295.589	88.75
295.804	80.55
296.018	10.92
296.233	62.12
296.447	-13.65
296.662	-5.46
296.877	2.73
297.091	55.98
297.306	-25.94
297.52	15.02
297.735	21.16
297.949	6.83
298.164	-15.7
298.378	27.31
298.593	6.83
298.807	43.69
299.022	43.69
299.236	84.65
299.451	0.68
299.665	4.78
299.88	25.26
300.094	55.98
300.309	74.41
300.523	-9.56
300.737	21.16
300.952	10.92
301.166	60.07
301.381	33.45
301.595	23.21
301.809	-21.85
302.024	115.37
302.238	12.97
302.452	66.22
302.667	45.74
302.881	55.98
303.095	33.45
303.309	35.5
303.524	98.99
303.738	55.98
303.952	-42.32
304.166	41.64
304.381	27.31
304.595	29.35
304.809	64.17
305.023	88.75
305.237	90.79
305.452	58.03
305.666	33.45
305.88	19.11
306.094	76.46
306.308	25.26
306.522	10.92
306.736	39.59
306.95	64.17
307.164	92.84
307.379	21.16
307.593	25.26
307.807	51.88
308.021	66.22
308.235	6.83
308.449	45.74
308.663	31.4
308.877	15.02
309.091	76.46
309.305	58.03
309.519	68.27
309.733	55.98
309.947	15.02
310.161	74.41
310.374	94.89
310.588	80.55
310.802	17.07
311.016	25.26
311.23	19.11
311.444	45.74
311.658	-58.71
311.872	47.79
312.085	33.45
312.299	45.74
312.513	33.45
312.727	45.74
312.941	55.98
313.154	111.27
313.368	-21.85
313.582	23.21
313.796	-48.47
314.009	51.88
314.223	96.94
314.437	-1.37
314.651	70.31
314.864	-7.51
315.078	49.83
315.292	109.22
315.505	62.12
315.719	62.12
315.933	27.31
316.146	51.88
316.36	33.45
316.573	98.99
316.787	45.74
317.001	51.88
317.214	39.59
317.428	64.17
317.641	-9.56
317.855	51.88
318.068	76.46
318.282	45.74
318.495	74.41
318.709	64.17
318.922	62.12
319.136	60.07
319.349	80.55
319.563	41.64
319.776	0.68
319.99	51.88
320.203	15.02
320.417	43.69
320.63	45.74
320.843	90.79
321.057	80.55
321.27	51.88
321.483	47.79
321.697	19.11
321.91	35.5
322.124	127.66
322.337	21.16
322.55	45.74
322.763	-21.85
322.977	58.03
323.19	27.31
323.403	-7.51
323.617	113.32
323.83	23.21
324.043	31.4
324.256	53.93
324.469	31.4
324.683	-17.75
324.896	70.31
325.109	47.79
325.322	27.31
325.535	23.21
325.748	25.26
325.962	19.11
326.175	23.21
326.388	113.32
326.601	129.7
326.814	72.36
327.027	15.02
327.24	113.32
327.453	68.27
327.666	51.88
327.879	64.17
328.092	43.69
328.305	19.11
328.518	0.68
328.731	-9.56
328.944	37.55
329.157	49.83
329.37	78.51
329.583	62.12
329.796	29.35
330.009	27.31
330.222	133.8
330.435	76.46
330.648	55.98
330.861	33.45
331.073	39.59
331.286	15.02
331.499	35.5
331.712	64.17
331.925	-5.46
332.138	43.69
332.35	64.17
332.563	66.22
332.776	107.18
332.989	-21.85
333.202	78.51
333.414	62.12
333.627	60.07
333.84	101.03
334.053	45.74
334.265	88.75
334.478	53.93
334.691	94.89
334.903	68.27
335.116	-17.75
335.329	82.6
335.541	68.27
335.754	76.46
335.966	-15.7
336.179	0.68
336.392	66.22
336.604	53.93
336.817	31.4
337.029	41.64
337.242	72.36
337.454	92.84
337.667	113.32
337.88	70.31
338.092	62.12
338.305	51.88
338.517	55.98
338.729	72.36
338.942	98.99
339.154	39.59
339.367	6.83
339.579	58.03
339.792	27.31
340.004	98.99
340.217	37.55
340.429	37.55
340.641	94.89
340.854	4.78
341.066	15.02
341.278	103.08
341.491	51.88
341.703	33.45
341.915	19.11
342.128	-13.65
342.34	-5.46
342.552	-13.65
342.764	55.98
342.977	82.6
343.189	88.75
343.401	84.65
343.613	35.5
343.826	-1.37
344.038	4.78
344.25	0.68
344.462	64.17
344.674	66.22
344.886	-34.13
345.099	43.69
345.311	68.27
345.523	88.75
345.735	70.31
345.947	88.75
346.159	8.87
346.371	45.74
346.583	6.83
346.795	113.32
347.007	31.4
347.219	49.83
347.431	90.79
347.643	113.32
347.855	72.36
348.067	125.61
348.279	-1.37
348.491	10.92
348.703	68.27
348.915	121.51
349.127	17.07
349.339	88.75
349.551	19.11
349.763	45.74
349.975	82.6
350.187	101.03
350.399	72.36
350.61	21.16
350.822	0.68
351.034	78.51
351.246	-21.85
351.458	109.22
351.669	53.93
351.881	39.59
352.093	25.26
352.305	101.03
352.517	51.88
352.728	64.17
352.94	84.65
353.152	19.11
353.363	43.69
353.575	39.59
353.787	53.93
353.999	72.36
354.21	80.55
354.422	74.41
354.633	60.07
354.845	37.55
355.057	74.41
355.268	66.22
355.48	55.98
355.692	37.55
355.903	84.65
356.115	-1.37
356.326	41.64
356.538	72.36
356.749	72.36
356.961	82.6
357.172	-7.51
357.384	-7.51
357.595	133.8
357.807	51.88
358.018	33.45
358.23	80.55
358.441	78.51
358.653	49.83
358.864	39.59
359.075	-5.46
359.287	41.64
359.498	90.79
359.709	70.31
359.921	78.51
360.132	45.74
360.344	62.12
360.555	117.42
360.766	31.4
360.977	39.59
361.189	0.68
361.4	23.21
361.611	78.51
361.823	74.41
362.034	60.07
362.245	105.13
362.456	49.83
362.667	123.56
362.879	-5.46
363.09	29.35
363.301	23.21
363.512	51.88
363.723	70.31
363.935	23.21
364.146	107.18
364.357	49.83
364.568	78.51
364.779	33.45
364.99	51.88
365.201	29.35
365.412	121.51
365.623	146.09
365.834	98.99
366.045	64.17
366.256	78.51
366.467	55.98
366.678	58.03
366.889	23.21
367.1	49.83
367.311	107.18
367.522	51.88
367.733	141.99
367.944	37.55
368.155	141.99
368.366	111.27
368.577	60.07
368.788	68.27
368.999	117.42
369.209	55.98
369.42	43.69
369.631	144.04
369.842	78.51
370.053	78.51
370.264	10.92
370.474	35.5
370.685	15.02
370.896	53.93
371.107	47.79
371.317	-38.23
371.528	-13.65
371.739	72.36
371.95	53.93
372.16	58.03
372.371	10.92
372.582	72.36
372.792	-5.46
373.003	92.84
373.214	45.74
373.424	133.8
373.635	80.55
373.846	86.7
374.056	64.17
374.267	55.98
374.477	58.03
374.688	0.68
374.898	27.31
375.109	51.88
375.319	43.69
375.53	96.94
375.74	58.03
375.951	111.27
376.161	15.02
376.372	109.22
376.582	31.4
376.793	66.22
377.003	88.75
377.214	-9.56
377.424	21.16
377.635	86.7
377.845	25.26
378.055	137.9
378.266	2.73
378.476	109.22
378.686	0.68
378.897	96.94
379.107	37.55
379.317	23.21
379.528	53.93
379.738	78.51
379.948	-54.61
380.158	88.75
380.369	88.75
380.579	66.22
380.789	121.51
380.999	92.84
381.21	92.84
381.42	70.31
381.63	62.12
381.84	125.61
382.05	113.32
382.261	37.55
382.471	-11.61
382.681	74.41
382.891	150.18
383.101	53.93
383.311	45.74
383.521	84.65
383.731	23.21
383.941	96.94
384.151	90.79
384.361	111.27
384.571	60.07
384.781	29.35
384.991	72.36
385.201	43.69
385.411	111.27
385.621	92.84
385.831	101.03
386.041	94.89
386.251	27.31
386.461	115.37
386.671	-5.46
386.881	123.56
387.091	88.75
387.301	72.36
387.511	60.07
387.72	70.31
387.93	64.17
388.14	70.31
388.35	47.79
388.56	101.03
388.769	109.22
388.979	94.89
389.189	84.65
389.399	68.27
389.609	45.74
389.818	62.12
390.028	55.98
390.238	115.37
390.447	80.55
390.657	33.45
390.867	45.74
391.076	10.92
391.286	72.36
391.496	160.42
391.705	72.36
391.915	119.46
392.125	94.89
392.334	129.7
392.544	66.22
392.753	78.51
392.963	72.36
393.172	74.41
393.382	60.07
393.591	68.27
393.801	121.51
394.01	195.24
394.22	90.79
394.429	74.41
394.639	49.83
394.848	66.22
395.058	70.31
395.267	131.75
395.477	49.83
395.686	176.81
395.895	117.42
396.105	101.03
396.314	25.26
396.524	101.03
396.733	121.51
396.942	148.14
397.152	109.22
397.361	121.51
397.57	107.18
397.78	105.13
397.989	105.13
398.198	168.62
398.407	70.31
398.617	101.03
398.826	101.03
399.035	68.27
399.244	119.46
399.453	174.76
399.663	94.89
399.872	123.56
400.081	154.28
400.29	109.22
400.499	105.13
400.708	92.84
400.917	170.66
401.127	154.28
401.336	131.75
401.545	80.55
401.754	123.56
401.963	131.75
402.172	154.28
402.381	21.16
402.59	144.04
402.799	172.71
403.008	164.52
403.217	172.71
403.426	150.18
403.635	139.94
403.844	117.42
404.053	92.84
404.262	195.24
404.471	162.47
404.68	191.14
404.888	201.38
405.097	193.19
405.306	201.38
405.515	205.48
405.724	119.46
405.933	217.77
406.142	152.23
406.35	135.85
406.559	168.62
406.768	203.43
406.977	254.63
407.185	228.01
407.394	258.73
407.603	187.05
407.812	162.47
408.02	264.87
408.229	283.3
408.438	273.06
408.646	182.95
408.855	303.78
409.064	307.88
409.272	266.92
409.481	322.21
409.69	246.44
409.898	287.4
410.107	266.92
410.315	322.21
410.524	322.21
410.733	379.56
410.941	379.56
411.15	389.8
411.358	465.57
411.567	465.57
411.775	303.78
411.984	428.71
412.192	477.86
412.401	436.9
412.609	426.66
412.818	516.77
413.026	516.77
413.234	520.87
413.443	490.15
413.651	518.82
413.86	555.68
414.068	621.22
414.276	662.18
414.485	600.74
414.693	703.14
414.901	676.51
415.11	721.57
415.318	756.38
415.526	772.77
415.734	799.39
415.943	850.59
416.151	819.87
416.359	901.79
416.567	877.21
416.776	967.32
416.984	899.74
417.192	1004.19
417.4	975.52
417.608	1088.15
417.817	1096.35
418.025	1157.78
418.233	1149.59
418.441	1090.2
418.649	1286.81
418.857	1333.91
419.065	1350.29
419.273	1254.04
419.481	1305.24
419.689	1485.46
419.897	1583.76
420.105	1569.43
420.313	1567.38
420.521	1688.21
420.729	1759.89
420.937	1753.74
421.145	1739.41
421.353	1852.05
421.561	1968.78
421.769	2019.98
421.977	2028.17
422.185	2155.15
422.393	2312.84
422.601	2331.27
422.809	2345.61
423.017	2361.99
423.224	2380.42
423.432	2673.28
423.64	2583.17
423.848	2783.87
424.056	2730.62
424.263	2871.93
424.471	2865.79
424.679	3046.01
424.887	3150.46
425.094	3246.71
425.302	3220.09
425.51	3431.03
425.718	3488.37
425.925	3596.92
426.133	3650.16
426.341	3895.92
426.548	4131.44
426.756	3930.73
426.964	4178.54
427.171	4409.96
427.379	4467.3
427.586	4555.37
427.794	4657.76
428.001	4889.18
428.209	5294.68
428.417	5194.33
428.624	5528.15
428.832	5618.26
429.039	5374.55
429.247	5421.66
429.454	5894.74
429.662	6244.94
429.869	5839.44
430.076	6343.24
430.284	6179.4
430.491	6468.17
430.699	6670.92
430.906	6648.39
431.114	7010.88
431.321	7270.97
431.528	7377.47
431.736	7653.94
431.943	8178.22
432.15	7750.2
432.358	7983.66
432.565	8428.07
432.772	8479.27
432.979	8733.22
433.187	9005.6
433.394	9038.37
433.601	9581.08
433.808	9656.86
434.016	9679.38
434.223	10136.08
434.43	10517
434.637	10385.93
434.844	11043.33
435.052	11303.42
435.259	11102.72
435.466	11284.99
435.673	11166.21
435.88	12106.23
436.087	12466.67
436.294	12507.63
436.501	12112.37
436.708	12653.03
436.915	13060.58
437.122	13605.34
437.329	13509.08
437.537	13926.87
437.743	14131.67
437.95	14250.45
438.157	14635.47
438.364	15358.4
438.571	15151.56
438.778	15231.43
438.985	16738.73
439.192	15811
439.399	16556.46
439.606	16288.18
439.813	17355.17
440.02	18170.26
440.227	17750.43
440.433	17861.02
440.64	18557.33
440.847	18233.75
441.054	18710.93
441.261	19779.96
441.467	19609.98
441.674	19976.57
441.881	20754.8
442.088	20730.22
442.294	20679.02
442.501	21416.29
442.708	21551.46
442.914	22356.31
443.121	23566.66
443.328	22911.31
443.534	24541.49
443.741	23513.41
443.948	23583.04
444.154	25368.87
444.361	25090.35
444.568	25225.51
444.774	25506.09
444.981	25588
445.187	25942.3
445.394	27099.41
445.6	26976.53
445.807	29466.86
446.013	28391.67
446.22	28717.3
446.426	29939.94
446.633	30265.56
446.839	31090.9
447.046	29894.88
447.252	31473.87
447.459	31453.39
447.665	31449.29
447.871	32604.35
448.078	33943.72
448.284	32495.8
448.491	33591.47
448.697	34594.97
448.903	35358.86
449.11	35489.93
449.316	34871.45
449.522	35266.7
449.728	36225.15
449.935	36339.84
450.141	36540.54
450.347	37648.49
450.553	36337.79
450.76	36937.85
450.966	37658.73
451.172	37447.79
451.378	37939.3
451.584	37472.37
451.791	38574.17
451.997	38346.85
452.203	39034.97
452.409	38633.57
452.615	38703.2
452.821	37206.13
453.027	37109.88
453.233	38531.17
453.44	37146.74
453.646	37697.64
453.852	37509.23
454.058	38285.41
454.264	36776.06
454.47	37640.3
454.676	36845.69
454.882	38041.7
455.088	34642.07
455.294	34918.55
455.5	35872.9
455.705	36288.64
455.911	34664.6
456.117	34113.7
456.323	33362.09
456.529	31697.09
456.735	32755.89
456.941	31985.86
457.147	31946.95
457.352	30896.34
457.558	30054.62
457.764	30200.03
457.97	29722.85
458.176	29214.96
458.381	29020.4
458.587	27414.79
458.793	27717.89
458.999	26165.53
459.204	28313.85
459.41	27511.05
459.616	25717.03
459.821	25555.24
460.027	25788.71
460.233	25198.89
460.438	23900.48
460.644	23900.48
460.85	23009.61
461.055	22851.92
461.261	22810.96
461.466	20797.81
461.672	20199.8
461.878	21918.04
462.083	20257.14
462.289	19988.86
462.494	19749.25
462.7	18993.54
462.905	18510.22
463.111	19315.08
463.316	19114.38
463.522	18868.62
463.727	18819.47
463.932	18497.94
464.138	18565.52
464.343	18649.49
464.549	18135.45
464.754	18692.49
464.959	18563.47
465.165	18364.82
465.37	17432.99
465.575	16996.78
465.781	17803.67
465.986	17994.14
466.191	17346.98
466.397	17054.12
466.602	16169.4
466.807	16730.54
467.012	16976.3
467.218	16841.13
