Data from USB4F104151__291__11-13-02-760.txt Node

Date: Wed Mar 12 11:13:02 EDT 2025
User: louis
Spectrometer: USB4F10415
Trigger mode: 4
Integration Time (sec): 2.000000E-2
Scans to average: 1
Electric dark correction enabled: true
Nonlinearity correction enabled: false
Boxcar width: 0
XAxis mode: Wavelengths
Number of Pixels in Spectrum: 3648
>>>>>Begin Spectral Data<<<<<
178.204	-103.76
178.424	-103.76
178.644	-103.76
178.864	-109.91
179.084	-97.62
179.304	21.16
179.524	6.83
179.744	47.79
179.964	6.83
180.184	-50.52
180.404	-23.89
180.624	-62.8
180.844	33.45
181.064	-7.51
181.283	8.87
181.503	-11.61
181.723	31.4
181.943	-23.89
182.163	-15.7
182.383	-48.47
182.602	25.26
182.822	47.79
183.042	-44.37
183.262	31.4
183.482	12.97
183.701	45.74
183.921	8.87
184.141	4.78
184.361	47.79
184.58	-11.61
184.8	29.35
185.02	-19.8
185.239	43.69
185.459	47.79
185.679	6.83
185.898	31.4
186.118	47.79
186.338	39.59
186.557	-5.46
186.777	-27.99
186.997	35.5
187.216	66.22
187.436	49.83
187.655	74.41
187.875	19.11
188.095	-11.61
188.314	41.64
188.534	103.08
188.753	51.88
188.973	31.4
189.192	19.11
189.412	25.26
189.631	25.26
189.851	-5.46
190.07	4.78
190.29	-40.28
190.509	-1.37
190.729	25.26
190.948	-7.51
191.168	66.22
191.387	66.22
191.607	58.03
191.826	70.31
192.045	4.78
192.265	125.61
192.484	49.83
192.704	74.41
192.923	21.16
193.142	78.51
193.362	55.98
193.581	82.6
193.8	41.64
194.02	-38.23
194.239	-1.37
194.458	-23.89
194.678	41.64
194.897	53.93
195.116	-25.94
195.335	-21.85
195.555	10.92
195.774	-36.18
195.993	25.26
196.212	53.93
196.432	6.83
196.651	49.83
196.87	15.02
197.089	-13.65
197.308	23.21
197.528	55.98
197.747	2.73
197.966	-9.56
198.185	70.31
198.404	0.68
198.623	10.92
198.842	27.31
199.062	-19.8
199.281	68.27
199.5	35.5
199.719	76.46
199.938	21.16
200.157	60.07
200.376	119.46
200.595	51.88
200.814	115.37
201.033	-17.75
201.252	41.64
201.471	27.31
201.69	35.5
201.909	27.31
202.128	19.11
202.347	37.55
202.566	68.27
202.785	15.02
203.004	0.68
203.223	103.08
203.442	25.26
203.661	58.03
203.879	2.73
204.098	27.31
204.317	49.83
204.536	101.03
204.755	19.11
204.974	62.12
205.193	-38.23
205.411	76.46
205.63	-11.61
205.849	43.69
206.068	10.92
206.287	4.78
206.505	33.45
206.724	-52.56
206.943	33.45
207.162	39.59
207.381	51.88
207.599	27.31
207.818	23.21
208.037	31.4
208.255	10.92
208.474	33.45
208.693	-46.42
208.911	72.36
209.13	10.92
209.349	111.27
209.567	0.68
209.786	-17.75
210.005	90.79
210.223	12.97
210.442	0.68
210.661	45.74
210.879	94.89
211.098	23.21
211.316	80.55
211.535	51.88
211.753	25.26
211.972	84.65
212.191	-5.46
212.409	53.93
212.628	23.21
212.846	4.78
213.065	74.41
213.283	39.59
213.502	33.45
213.72	-27.99
213.938	60.07
214.157	-19.8
214.375	0.68
214.594	27.31
214.812	-9.56
215.031	68.27
215.249	21.16
215.467	64.17
215.686	-1.37
215.904	6.83
216.122	37.55
216.341	131.75
216.559	23.21
216.778	105.13
216.996	94.89
217.214	21.16
217.432	-9.56
217.651	-60.76
217.869	10.92
218.087	33.45
218.306	10.92
218.524	-15.7
218.742	6.83
218.96	31.4
219.179	86.7
219.397	23.21
219.615	23.21
219.833	74.41
220.051	29.35
220.27	88.75
220.488	19.11
220.706	10.92
220.924	53.93
221.142	45.74
221.36	49.83
221.578	-42.32
221.796	19.11
222.015	78.51
222.233	2.73
222.451	6.83
222.669	-1.37
222.887	6.83
223.105	-23.89
223.323	4.78
223.541	29.35
223.759	-32.08
223.977	-5.46
224.195	55.98
224.413	-1.37
224.631	2.73
224.849	21.16
225.067	25.26
225.285	-15.7
225.503	49.83
225.721	-64.85
225.939	35.5
226.157	-40.28
226.375	-17.75
226.592	80.55
226.81	25.26
227.028	70.31
227.246	92.84
227.464	33.45
227.682	43.69
227.9	-9.56
228.117	53.93
228.335	39.59
228.553	-13.65
228.771	39.59
228.989	2.73
229.206	53.93
229.424	64.17
229.642	45.74
229.86	15.02
230.077	58.03
230.295	-1.37
230.513	17.07
230.731	80.55
230.948	47.79
231.166	27.31
231.384	31.4
231.601	15.02
231.819	60.07
232.037	37.55
232.254	-13.65
232.472	43.69
232.689	-9.56
232.907	96.94
233.125	35.5
233.342	17.07
233.56	25.26
233.777	31.4
233.995	-19.8
234.213	37.55
234.43	10.92
234.648	-11.61
234.865	88.75
235.083	10.92
235.3	8.87
235.518	103.08
235.735	21.16
235.953	68.27
236.17	-5.46
236.388	53.93
236.605	-36.18
236.822	78.51
237.04	31.4
237.257	-7.51
237.475	64.17
237.692	29.35
237.909	2.73
238.127	62.12
238.344	37.55
238.562	55.98
238.779	-23.89
238.996	-17.75
239.214	39.59
239.431	12.97
239.648	-32.08
239.865	66.22
240.083	72.36
240.3	33.45
240.517	-1.37
240.735	96.94
240.952	62.12
241.169	68.27
241.386	-25.94
241.603	47.79
241.821	-17.75
242.038	15.02
242.255	86.7
242.472	-32.08
242.689	-27.99
242.907	12.97
243.124	12.97
243.341	31.4
243.558	45.74
243.775	-7.51
243.992	-19.8
244.209	72.36
244.426	53.93
244.643	-7.51
244.86	39.59
245.078	49.83
245.295	-13.65
245.512	105.13
245.729	23.21
245.946	-13.65
246.163	10.92
246.38	113.32
246.597	8.87
246.814	62.12
247.031	17.07
247.248	12.97
247.464	55.98
247.681	43.69
247.898	68.27
248.115	41.64
248.332	-17.75
248.549	-44.37
248.766	8.87
248.983	21.16
249.2	19.11
249.417	-1.37
249.633	37.55
249.85	10.92
250.067	70.31
250.284	47.79
250.501	8.87
250.717	23.21
250.934	25.26
251.151	-21.85
251.368	72.36
251.585	17.07
251.801	55.98
252.018	25.26
252.235	27.31
252.451	78.51
252.668	27.31
252.885	27.31
253.102	47.79
253.318	27.31
253.535	8.87
253.752	68.27
253.968	12.97
254.185	70.31
254.401	55.98
254.618	41.64
254.835	49.83
255.051	101.03
255.268	15.02
255.484	-5.46
255.701	43.69
255.917	51.88
256.134	2.73
256.351	-32.08
256.567	-38.23
256.784	82.6
257	-3.41
257.217	47.79
257.433	29.35
257.65	131.75
257.866	51.88
258.082	2.73
258.299	-1.37
258.515	17.07
258.732	55.98
258.948	-3.41
259.165	-42.32
259.381	53.93
259.597	76.46
259.814	49.83
260.03	51.88
260.246	12.97
260.463	86.7
260.679	29.35
260.895	31.4
261.112	62.12
261.328	17.07
261.544	-15.7
261.761	35.5
261.977	-64.85
262.193	92.84
262.409	86.7
262.626	62.12
262.842	0.68
263.058	-62.8
263.274	49.83
263.49	35.5
263.707	-3.41
263.923	0.68
264.139	76.46
264.355	19.11
264.571	45.74
264.787	-21.85
265.004	43.69
265.22	68.27
265.436	68.27
265.652	43.69
265.868	-7.51
266.084	-60.76
266.3	70.31
266.516	25.26
266.732	4.78
266.948	101.03
267.164	6.83
267.38	55.98
267.596	39.59
267.812	101.03
268.028	0.68
268.244	-36.18
268.46	-7.51
268.676	98.99
268.892	4.78
269.108	45.74
269.324	29.35
269.54	-32.08
269.756	35.5
269.972	6.83
270.188	45.74
270.403	19.11
270.619	41.64
270.835	-23.89
271.051	74.41
271.267	88.75
271.483	2.73
271.698	43.69
271.914	80.55
272.13	76.46
272.346	25.26
272.562	72.36
272.777	84.65
272.993	12.97
273.209	33.45
273.425	-17.75
273.64	17.07
273.856	31.4
274.072	10.92
274.287	-44.37
274.503	8.87
274.719	19.11
274.934	64.17
275.15	-17.75
275.366	45.74
275.581	39.59
275.797	-27.99
276.012	-17.75
276.228	12.97
276.444	70.31
276.659	45.74
276.875	19.11
277.09	-9.56
277.306	23.21
277.521	6.83
277.737	-13.65
277.952	29.35
278.168	2.73
278.383	68.27
278.599	8.87
278.814	66.22
279.03	74.41
279.245	84.65
279.461	2.73
279.676	31.4
279.892	8.87
280.107	60.07
280.322	-23.89
280.538	49.83
280.753	-85.33
280.969	17.07
281.184	51.88
281.399	-19.8
281.615	23.21
281.83	-1.37
282.045	-40.28
282.26	-17.75
282.476	37.55
282.691	39.59
282.906	10.92
283.122	25.26
283.337	17.07
283.552	39.59
283.767	64.17
283.983	19.11
284.198	0.68
284.413	-30.04
284.628	6.83
284.843	111.27
285.058	98.99
285.274	-15.7
285.489	-42.32
285.704	74.41
285.919	45.74
286.134	17.07
286.349	31.4
286.564	33.45
286.779	12.97
286.995	-17.75
287.21	15.02
287.425	21.16
287.64	19.11
287.855	-17.75
288.07	55.98
288.285	78.51
288.5	33.45
288.715	45.74
288.93	60.07
289.145	4.78
289.36	37.55
289.575	-17.75
289.79	17.07
290.004	15.02
290.219	33.45
290.434	-23.89
290.649	-13.65
290.864	39.59
291.079	51.88
291.294	58.03
291.509	-13.65
291.724	45.74
291.938	-50.52
292.153	10.92
292.368	23.21
292.583	25.26
292.798	88.75
293.012	64.17
293.227	12.97
293.442	2.73
293.657	70.31
293.871	29.35
294.086	10.92
294.301	64.17
294.516	49.83
294.73	-5.46
294.945	19.11
295.16	43.69
295.374	113.32
295.589	41.64
295.804	-38.23
296.018	41.64
296.233	125.61
296.447	78.51
296.662	29.35
296.877	-5.46
297.091	111.27
297.306	39.59
297.52	17.07
297.735	19.11
297.949	43.69
298.164	43.69
298.378	37.55
298.593	31.4
298.807	33.45
299.022	53.93
299.236	4.78
299.451	-44.37
299.665	-44.37
299.88	78.51
300.094	8.87
300.309	98.99
300.523	27.31
300.737	43.69
300.952	86.7
301.166	76.46
301.381	68.27
301.595	-9.56
301.809	25.26
302.024	43.69
302.238	4.78
302.452	66.22
302.667	41.64
302.881	117.42
303.095	49.83
303.309	-5.46
303.524	25.26
303.738	68.27
303.952	-1.37
304.166	68.27
304.381	-19.8
304.595	70.31
304.809	-13.65
305.023	4.78
305.237	62.12
305.452	31.4
305.666	15.02
305.88	76.46
306.094	66.22
306.308	39.59
306.522	12.97
306.736	51.88
306.95	70.31
307.164	92.84
307.379	58.03
307.593	62.12
307.807	21.16
308.021	29.35
308.235	6.83
308.449	-11.61
308.663	27.31
308.877	98.99
309.091	41.64
309.305	47.79
309.519	64.17
309.733	-15.7
309.947	23.21
310.161	92.84
310.374	-42.32
310.588	-15.7
310.802	-3.41
311.016	39.59
311.23	105.13
311.444	-5.46
311.658	37.55
311.872	2.73
312.085	45.74
312.299	39.59
312.513	37.55
312.727	43.69
312.941	-17.75
313.154	17.07
313.368	-71
313.582	-75.09
313.796	-23.89
314.009	60.07
314.223	10.92
314.437	23.21
314.651	53.93
314.864	82.6
315.078	33.45
315.292	-7.51
315.505	88.75
315.719	31.4
315.933	101.03
316.146	31.4
316.36	31.4
316.573	70.31
316.787	86.7
317.001	35.5
317.214	55.98
317.428	55.98
317.641	23.21
317.855	53.93
318.068	68.27
318.282	-9.56
318.495	51.88
318.709	-1.37
318.922	-9.56
319.136	96.94
319.349	10.92
319.563	64.17
319.776	76.46
319.99	47.79
320.203	62.12
320.417	45.74
320.63	-23.89
320.843	0.68
321.057	137.9
321.27	-46.42
321.483	31.4
321.697	84.65
321.91	58.03
322.124	68.27
322.337	-3.41
322.55	68.27
322.763	35.5
322.977	39.59
323.19	-1.37
323.403	60.07
323.617	-23.89
323.83	111.27
324.043	17.07
324.256	0.68
324.469	64.17
324.683	70.31
324.896	70.31
325.109	109.22
325.322	27.31
325.535	88.75
325.748	55.98
325.962	66.22
326.175	29.35
326.388	66.22
326.601	53.93
326.814	90.79
327.027	92.84
327.24	64.17
327.453	19.11
327.666	23.21
327.879	4.78
328.092	-13.65
328.305	17.07
328.518	-40.28
328.731	12.97
328.944	76.46
329.157	35.5
329.37	-21.85
329.583	51.88
329.796	53.93
330.009	35.5
330.222	31.4
330.435	53.93
330.648	-34.13
330.861	31.4
331.073	60.07
331.286	62.12
331.499	35.5
331.712	23.21
331.925	-7.51
332.138	33.45
332.35	80.55
332.563	8.87
332.776	58.03
332.989	60.07
333.202	39.59
333.414	47.79
333.627	49.83
333.84	70.31
334.053	51.88
334.265	84.65
334.478	33.45
334.691	45.74
334.903	-13.65
335.116	98.99
335.329	39.59
335.541	117.42
335.754	4.78
335.966	105.13
336.179	88.75
336.392	21.16
336.604	129.7
336.817	72.36
337.029	39.59
337.242	29.35
337.454	62.12
337.667	55.98
337.88	-5.46
338.092	33.45
338.305	86.7
338.517	-46.42
338.729	115.37
338.942	82.6
339.154	39.59
339.367	55.98
339.579	66.22
339.792	23.21
340.004	25.26
340.217	53.93
340.429	90.79
340.641	27.31
340.854	-46.42
341.066	-5.46
341.278	62.12
341.491	74.41
341.703	88.75
341.915	125.61
342.128	39.59
342.34	66.22
342.552	25.26
342.764	43.69
342.977	51.88
343.189	64.17
343.401	10.92
343.613	51.88
343.826	0.68
344.038	-13.65
344.25	45.74
344.462	19.11
344.674	-1.37
344.886	31.4
345.099	35.5
345.311	37.55
345.523	23.21
345.735	33.45
345.947	12.97
346.159	15.02
346.371	80.55
346.583	55.98
346.795	49.83
347.007	37.55
347.219	115.37
347.431	2.73
347.643	39.59
347.855	-58.71
348.067	49.83
348.279	19.11
348.491	88.75
348.703	121.51
348.915	105.13
349.127	4.78
349.339	31.4
349.551	45.74
349.763	37.55
349.975	43.69
350.187	94.89
350.399	17.07
350.61	2.73
350.822	60.07
351.034	8.87
351.246	62.12
351.458	127.66
351.669	43.69
351.881	35.5
352.093	66.22
352.305	53.93
352.517	10.92
352.728	80.55
352.94	25.26
353.152	-56.66
353.363	31.4
353.575	74.41
353.787	47.79
353.999	-19.8
354.21	29.35
354.422	88.75
354.633	-23.89
354.845	-34.13
355.057	66.22
355.268	170.66
355.48	53.93
355.692	-27.99
355.903	-1.37
356.115	51.88
356.326	17.07
356.538	72.36
356.749	53.93
356.961	41.64
357.172	39.59
357.384	47.79
357.595	107.18
357.807	51.88
358.018	2.73
358.23	17.07
358.441	60.07
358.653	29.35
358.864	6.83
359.075	60.07
359.287	70.31
359.498	58.03
359.709	-3.41
359.921	-21.85
360.132	82.6
360.344	10.92
360.555	-1.37
360.766	47.79
360.977	64.17
361.189	47.79
361.4	-13.65
361.611	53.93
361.823	103.08
362.034	55.98
362.245	-21.85
362.456	51.88
362.667	129.7
362.879	4.78
363.09	55.98
363.301	35.5
363.512	72.36
363.723	23.21
363.935	19.11
364.146	76.46
364.357	62.12
364.568	107.18
364.779	76.46
364.99	58.03
365.201	10.92
365.412	-5.46
365.623	-34.13
365.834	68.27
366.045	-5.46
366.256	31.4
366.467	72.36
366.678	58.03
366.889	31.4
367.1	31.4
367.311	68.27
367.522	76.46
367.733	19.11
367.944	62.12
368.155	31.4
368.366	2.73
368.577	31.4
368.788	-11.61
368.999	17.07
369.209	53.93
369.42	76.46
369.631	125.61
369.842	60.07
370.053	17.07
370.264	113.32
370.474	55.98
370.685	33.45
370.896	27.31
371.107	47.79
371.317	33.45
371.528	76.46
371.739	47.79
371.95	74.41
372.16	137.9
372.371	-21.85
372.582	35.5
372.792	12.97
373.003	123.56
373.214	82.6
373.424	33.45
373.635	-7.51
373.846	84.65
374.056	84.65
374.267	15.02
374.477	43.69
374.688	39.59
374.898	53.93
375.109	43.69
375.319	47.79
375.53	68.27
375.74	84.65
375.951	29.35
376.161	23.21
376.372	58.03
376.582	21.16
376.793	23.21
377.003	27.31
377.214	74.41
377.424	-7.51
377.635	51.88
377.845	-5.46
378.055	78.51
378.266	74.41
378.476	19.11
378.686	17.07
378.897	70.31
379.107	51.88
379.317	92.84
379.528	39.59
379.738	139.94
379.948	29.35
380.158	25.26
380.369	47.79
380.579	129.7
380.789	55.98
380.999	109.22
381.21	86.7
381.42	92.84
381.63	45.74
381.84	8.87
382.05	51.88
382.261	62.12
382.471	107.18
382.681	58.03
382.891	88.75
383.101	51.88
383.311	64.17
383.521	12.97
383.731	86.7
383.941	80.55
384.151	101.03
384.361	62.12
384.571	86.7
384.781	35.5
384.991	64.17
385.201	82.6
385.411	60.07
385.621	74.41
385.831	96.94
386.041	86.7
386.251	12.97
386.461	119.46
386.671	39.59
386.881	37.55
387.091	51.88
387.301	60.07
387.511	129.7
387.72	88.75
387.93	66.22
388.14	39.59
388.35	-1.37
388.56	86.7
388.769	80.55
388.979	49.83
389.189	27.31
389.399	58.03
389.609	37.55
389.818	129.7
390.028	182.95
390.238	74.41
390.447	45.74
390.657	76.46
390.867	53.93
391.076	37.55
391.286	-3.41
391.496	109.22
391.705	66.22
391.915	107.18
392.125	141.99
392.334	107.18
392.544	51.88
392.753	105.13
392.963	51.88
393.172	113.32
393.382	76.46
393.591	119.46
393.801	29.35
394.01	47.79
394.22	88.75
394.429	119.46
394.639	72.36
394.848	88.75
395.058	29.35
395.267	86.7
395.477	127.66
395.686	121.51
395.895	92.84
396.105	146.09
396.314	15.02
396.524	76.46
396.733	84.65
396.942	129.7
397.152	105.13
397.361	191.14
397.57	101.03
397.78	117.42
397.989	144.04
398.198	137.9
398.407	80.55
398.617	123.56
398.826	74.41
399.035	80.55
399.244	105.13
399.453	121.51
399.663	107.18
399.872	76.46
400.081	101.03
400.29	144.04
400.499	47.79
400.708	88.75
400.917	78.51
401.127	121.51
401.336	156.33
401.545	166.57
401.754	92.84
401.963	164.52
402.172	123.56
402.381	80.55
402.59	123.56
402.799	219.82
403.008	64.17
403.217	174.76
403.426	98.99
403.635	78.51
403.844	101.03
404.053	125.61
404.262	191.14
404.471	199.34
404.68	266.92
404.888	129.7
405.097	96.94
405.306	135.85
405.515	180.9
405.724	191.14
405.933	203.43
406.142	166.57
406.35	211.62
406.559	203.43
406.768	168.62
406.977	189.1
407.185	195.24
407.394	205.48
407.603	176.81
407.812	297.64
408.02	309.93
408.229	238.25
408.438	182.95
408.646	217.77
408.855	242.34
409.064	295.59
409.272	303.78
409.481	314.02
409.69	314.02
409.898	328.36
410.107	352.93
410.315	338.6
410.524	275.11
410.733	395.94
410.941	314.02
411.15	377.51
411.358	326.31
411.567	305.83
411.775	432.8
411.984	408.23
412.192	430.76
412.401	430.76
412.609	563.87
412.818	516.77
413.026	549.54
413.234	549.54
413.443	496.29
413.651	537.25
413.86	658.08
414.068	664.22
414.276	637.6
414.485	602.79
414.693	694.94
414.901	789.15
415.11	752.29
415.318	719.52
415.526	815.77
415.734	799.39
415.943	850.59
416.151	858.78
416.359	871.07
416.567	918.17
416.776	942.75
416.984	948.89
417.192	1006.24
417.4	1100.44
417.608	991.9
417.817	1122.97
418.025	1176.22
418.233	1206.94
418.441	1096.35
418.649	1378.97
418.857	1395.35
419.065	1401.49
419.273	1280.66
419.481	1428.12
419.689	1583.76
419.897	1446.55
420.105	1544.85
420.313	1551
420.521	1739.41
420.729	1628.82
420.937	1858.19
421.145	1829.52
421.353	2046.6
421.561	1997.45
421.769	2073.23
421.977	2165.39
422.185	2110.09
422.393	2292.36
422.601	2462.34
422.809	2304.65
423.017	2380.42
423.224	2577.03
423.432	2628.23
423.64	2538.12
423.848	3011.2
424.056	2730.62
424.263	2947.71
424.471	3084.92
424.679	3086.97
424.887	3281.53
425.094	3453.56
425.302	3304.06
425.51	3592.82
425.718	3486.33
425.925	3594.87
426.133	3652.21
426.341	3926.64
426.548	4203.11
426.756	4209.26
426.964	4256.36
427.171	4397.67
427.379	4477.54
427.586	4545.13
427.794	4815.46
428.001	5040.73
428.209	5151.32
428.417	5089.89
428.624	5405.27
428.832	5589.59
429.039	5229.15
429.247	5427.8
429.454	5868.11
429.662	6351.43
429.869	5943.89
430.076	6525.51
430.284	6064.72
430.491	6324.81
430.699	6877.76
430.906	6896.19
431.114	6806.08
431.321	7205.44
431.528	7225.92
431.736	7602.74
431.943	8022.58
432.15	7713.33
432.358	7969.33
432.565	8497.7
432.772	8374.83
432.979	8870.44
433.187	9015.84
433.394	9056.8
433.601	9609.75
433.808	9558.55
434.016	9439.77
434.223	10056.21
434.43	10500.62
434.637	10236.43
434.844	10930.69
435.052	11063.81
435.259	11178.5
435.466	11217.41
435.673	11246.08
435.88	11883
436.087	12460.52
436.294	12532.2
436.501	11909.62
436.708	12446.19
436.915	12913.13
437.122	13335.01
437.329	13367.77
437.537	13699.55
437.743	14016.98
437.95	13838.81
438.157	14672.33
438.364	15192.51
438.571	15010.25
438.778	14889.42
438.985	16744.88
439.192	16118.2
439.399	16302.51
439.606	16013.75
439.813	16681.39
440.02	17895.83
440.227	17435.04
440.433	17381.79
440.64	18082.2
440.847	18031
441.054	18270.61
441.261	19470.72
441.467	19673.47
441.674	19779.96
441.881	20470.13
442.088	20369.78
442.294	20322.68
442.501	20582.77
442.708	21014.89
442.914	22212.95
443.121	22939.98
443.328	22036.83
443.534	24058.17
443.741	23327.05
443.948	22962.51
444.154	24860.98
444.361	24711.47
444.568	24777.01
444.774	24842.54
444.981	24928.56
445.187	25694.5
445.394	26556.69
445.6	26532.12
445.807	29108.46
446.013	27425.03
446.22	28094.72
446.426	29311.21
446.633	29513.96
446.839	30822.61
447.046	29020.4
447.252	30777.56
447.459	31027.41
447.665	30652.63
447.871	31848.64
448.078	33527.98
448.284	31627.46
448.491	32389.31
448.697	33953.96
448.903	34328.73
449.11	34476.19
449.316	33902.76
449.522	34603.16
449.728	35561.61
449.935	35344.53
450.141	35416.21
450.347	36526.21
450.553	35387.53
450.76	35514.51
450.966	36753.53
451.172	36622.46
451.378	37177.46
451.584	36671.61
451.791	37740.65
451.997	37376.11
452.203	38082.66
452.409	37736.55
452.615	37511.28
452.821	36384.9
453.027	36311.17
453.233	37740.65
453.44	35729.55
453.646	36534.4
453.852	36839.54
454.058	37599.34
454.264	36221.06
454.47	36706.43
454.676	36159.62
454.882	37449.84
455.088	33947.81
455.294	34537.63
455.5	35010.71
455.705	35287.18
455.911	33970.34
456.117	33128.63
456.323	33284.27
456.529	31121.62
456.735	32200.9
456.941	31762.63
457.147	30939.35
457.352	30083.3
457.558	29860.07
457.764	29937.89
457.97	29081.84
458.176	28686.58
458.381	28725.49
458.587	27238.67
458.793	27418.89
458.999	25917.73
459.204	27668.74
459.41	27341.07
459.616	25008.43
459.821	25143.59
460.027	25137.45
460.233	24473.91
460.438	23441.73
460.644	23507.27
460.85	22686.03
461.055	22202.71
461.261	22239.58
461.466	20496.75
461.672	20248.95
461.878	21365.09
462.083	19599.74
462.289	19726.72
462.494	19648.89
462.7	18749.84
462.905	18082.2
463.111	18796.94
463.316	18952.59
463.522	18606.48
463.727	18301.33
463.932	18184.6
464.138	18162.07
464.343	18381.2
464.549	17566.11
464.754	18033.05
464.959	18319.76
465.165	17901.98
465.37	17267.11
465.575	16976.3
465.781	17635.74
465.986	17426.85
466.191	16916.9
466.397	16630.19
466.602	15581.63
466.807	16388.53
467.012	16359.86
467.218	16368.05
467.423	15974.84
467.628	16138.68
