Data from USB4F104151__68__11-06-09-345.txt Node

Date: Wed Mar 12 11:06:09 EDT 2025
User: louis
Spectrometer: USB4F10415
Trigger mode: 4
Integration Time (sec): 2.000000E-2
Scans to average: 1
Electric dark correction enabled: true
Nonlinearity correction enabled: false
Boxcar width: 0
XAxis mode: Wavelengths
Number of Pixels in Spectrum: 3648
>>>>>Begin Spectral Data<<<<<
178.204	-92.5
178.424	-92.5
178.644	-92.5
178.864	-78.16
179.084	-127.32
179.304	9.9
179.524	5.8
179.744	-8.53
179.964	-45.4
180.184	-0.34
180.404	-24.92
180.624	16.04
180.844	28.33
181.064	-12.63
181.283	32.43
181.503	-45.4
181.723	44.71
181.943	-8.53
182.163	-35.16
182.383	40.62
182.602	20.14
182.822	24.23
183.042	87.72
183.262	-20.82
183.482	1.71
183.701	28.33
183.921	24.23
184.141	24.23
184.361	16.04
184.58	-55.64
184.8	38.57
185.02	7.85
185.239	85.67
185.459	54.95
185.679	24.23
185.898	-29.01
186.118	18.09
186.338	22.19
186.557	40.62
186.777	-33.11
186.997	-31.06
187.216	5.8
187.436	108.2
187.655	-0.34
187.875	42.67
188.095	11.95
188.314	91.82
188.534	44.71
188.753	22.19
188.973	-16.73
189.192	97.96
189.412	16.04
189.631	13.99
189.851	-29.01
190.07	61.1
190.29	11.95
190.509	11.95
190.729	-29.01
190.948	3.75
191.168	67.24
191.387	40.62
191.607	32.43
191.826	34.47
192.045	20.14
192.265	89.77
192.484	93.87
192.704	5.8
192.923	-8.53
193.142	190.12
193.362	57
193.581	73.39
193.8	-4.44
194.02	36.52
194.239	13.99
194.458	48.81
194.678	44.71
194.897	50.86
195.116	26.28
195.335	-10.58
195.555	18.09
195.774	-33.11
195.993	-65.88
196.212	1.71
196.432	-24.92
196.651	24.23
196.87	-0.34
197.089	54.95
197.308	34.47
197.528	28.33
197.747	-47.44
197.966	28.33
198.185	30.38
198.404	-16.73
198.623	91.82
198.842	32.43
199.062	102.06
199.281	-10.58
199.5	52.91
199.719	20.14
199.938	77.48
200.157	44.71
200.376	13.99
200.595	30.38
200.814	36.52
201.033	46.76
201.252	3.75
201.471	89.77
201.69	73.39
201.909	32.43
202.128	28.33
202.347	26.28
202.566	13.99
202.785	28.33
203.004	-43.35
203.223	50.86
203.442	1.71
203.661	40.62
203.879	59.05
204.098	63.15
204.317	-37.2
204.536	46.76
204.755	87.72
204.974	46.76
205.193	67.24
205.411	34.47
205.63	20.14
205.849	65.19
206.068	-10.58
206.287	48.81
206.505	73.39
206.724	7.85
206.943	46.76
207.162	9.9
207.381	22.19
207.599	46.76
207.818	30.38
208.037	44.71
208.255	28.33
208.474	65.19
208.693	-6.49
208.911	67.24
209.13	-31.06
209.349	13.99
209.567	-37.2
209.786	16.04
210.005	36.52
210.223	-26.96
210.442	34.47
210.661	65.19
210.879	32.43
211.098	110.25
211.316	93.87
211.535	50.86
211.753	-18.77
211.972	91.82
212.191	59.05
212.409	48.81
212.628	-4.44
212.846	30.38
213.065	52.91
213.283	28.33
213.502	-53.59
213.72	-18.77
213.938	16.04
214.157	13.99
214.375	59.05
214.594	-2.39
214.812	18.09
215.031	-14.68
215.249	40.62
215.467	48.81
215.686	-45.4
215.904	59.05
216.122	-24.92
216.341	28.33
216.559	104.11
216.778	54.95
216.996	18.09
217.214	-4.44
217.432	-57.68
217.651	87.72
217.869	20.14
218.087	13.99
218.306	-43.35
218.524	36.52
218.742	48.81
218.96	73.39
219.179	44.71
219.397	-41.3
219.615	50.86
219.833	24.23
220.051	50.86
220.27	67.24
220.488	24.23
220.706	26.28
220.924	-16.73
221.142	40.62
221.36	26.28
221.578	11.95
221.796	46.76
222.015	61.1
222.233	-49.49
222.451	87.72
222.669	-45.4
222.887	138.92
223.105	57
223.323	67.24
223.541	-8.53
223.759	-14.68
223.977	-47.44
224.195	122.54
224.413	16.04
224.631	54.95
224.849	50.86
225.067	87.72
225.285	9.9
225.503	71.34
225.721	42.67
225.939	30.38
226.157	61.1
226.375	116.39
226.592	-12.63
226.81	-16.73
227.028	42.67
227.246	65.19
227.464	42.67
227.682	34.47
227.9	67.24
228.117	-69.97
228.335	-26.96
228.553	34.47
228.771	-16.73
228.989	30.38
229.206	22.19
229.424	52.91
229.642	63.15
229.86	5.8
230.077	65.19
230.295	7.85
230.513	91.82
230.731	112.3
230.948	50.86
231.166	22.19
231.384	1.71
231.601	-33.11
231.819	-0.34
232.037	-8.53
232.254	63.15
232.472	7.85
232.689	-18.77
232.907	97.96
233.125	5.8
233.342	46.76
233.56	-43.35
233.777	9.9
233.995	50.86
234.213	69.29
234.43	93.87
234.648	77.48
234.865	54.95
235.083	18.09
235.3	18.09
235.518	48.81
235.735	36.52
235.953	7.85
236.17	-57.68
236.388	38.57
236.605	-2.39
236.822	59.05
237.04	44.71
237.257	-22.87
237.475	-10.58
237.692	7.85
237.909	1.71
238.127	-31.06
238.344	44.71
238.562	71.34
238.779	40.62
238.996	18.09
239.214	52.91
239.431	104.11
239.648	16.04
239.865	-10.58
240.083	38.57
240.3	54.95
240.517	-6.49
240.735	9.9
240.952	30.38
241.169	50.86
241.386	36.52
241.603	34.47
241.821	5.8
242.038	34.47
242.255	57
242.472	7.85
242.689	83.63
242.907	89.77
243.124	28.33
243.341	-20.82
243.558	-20.82
243.775	-14.68
243.992	11.95
244.209	110.25
244.426	44.71
244.643	11.95
244.86	-6.49
245.078	-96.6
245.295	-20.82
245.512	89.77
245.729	67.24
245.946	30.38
246.163	91.82
246.38	85.67
246.597	71.34
246.814	59.05
247.031	24.23
247.248	77.48
247.464	7.85
247.681	44.71
247.898	11.95
248.115	32.43
248.332	-2.39
248.549	63.15
248.766	3.75
248.983	-14.68
249.2	9.9
249.417	71.34
249.633	1.71
249.85	48.81
250.067	77.48
250.284	36.52
250.501	75.43
250.717	75.43
250.934	30.38
251.151	71.34
251.368	69.29
251.585	42.67
251.801	-78.16
252.018	87.72
252.235	67.24
252.451	32.43
252.668	20.14
252.885	81.58
253.102	54.95
253.318	46.76
253.535	-8.53
253.752	-31.06
253.968	54.95
254.185	-4.44
254.401	38.57
254.618	59.05
254.835	11.95
255.051	75.43
255.268	-12.63
255.484	28.33
255.701	63.15
255.917	48.81
256.134	30.38
256.351	-18.77
256.567	-26.96
256.784	-10.58
257	-49.49
257.217	81.58
257.433	30.38
257.65	67.24
257.866	116.39
258.082	59.05
258.299	63.15
258.515	20.14
258.732	65.19
258.948	83.63
259.165	13.99
259.381	63.15
259.597	93.87
259.814	3.75
260.03	26.28
260.246	1.71
260.463	5.8
260.679	67.24
260.895	93.87
261.112	54.95
261.328	48.81
261.544	67.24
261.761	130.73
261.977	77.48
262.193	67.24
262.409	40.62
262.626	61.1
262.842	13.99
263.058	7.85
263.274	65.19
263.49	61.1
263.707	97.96
263.923	-0.34
264.139	57
264.355	38.57
264.571	-0.34
264.787	69.29
265.004	54.95
265.22	-6.49
265.436	-18.77
265.652	61.1
265.868	67.24
266.084	-29.01
266.3	63.15
266.516	13.99
266.732	28.33
266.948	50.86
267.164	36.52
267.38	61.1
267.596	52.91
267.812	16.04
268.028	83.63
268.244	-4.44
268.46	93.87
268.676	79.53
268.892	134.82
269.108	16.04
269.324	-12.63
269.54	-29.01
269.756	48.81
269.972	81.58
270.188	28.33
270.403	3.75
270.619	79.53
270.835	77.48
271.051	46.76
271.267	-4.44
271.483	46.76
271.698	73.39
271.914	36.52
272.13	54.95
272.346	13.99
272.562	36.52
272.777	20.14
272.993	32.43
273.209	83.63
273.425	-0.34
273.64	22.19
273.856	59.05
274.072	7.85
274.287	24.23
274.503	-55.64
274.719	30.38
274.934	-16.73
275.15	13.99
275.366	85.67
275.581	26.28
275.797	11.95
276.012	38.57
276.228	38.57
276.444	67.24
276.659	79.53
276.875	20.14
277.09	20.14
277.306	36.52
277.521	22.19
277.737	79.53
277.952	-2.39
278.168	32.43
278.383	-10.58
278.599	38.57
278.814	67.24
279.03	85.67
279.245	28.33
279.461	11.95
279.676	73.39
279.892	-45.4
280.107	32.43
280.322	18.09
280.538	40.62
280.753	-0.34
280.969	36.52
281.184	13.99
281.399	77.48
281.615	57
281.83	34.47
282.045	16.04
282.26	26.28
282.476	-4.44
282.691	22.19
282.906	69.29
283.122	28.33
283.337	-53.59
283.552	77.48
283.767	67.24
283.983	91.82
284.198	73.39
284.413	16.04
284.628	20.14
284.843	54.95
285.058	9.9
285.274	7.85
285.489	-12.63
285.704	57
285.919	-4.44
286.134	-14.68
286.349	7.85
286.564	52.91
286.779	93.87
286.995	-31.06
287.21	-8.53
287.425	57
287.64	87.72
287.855	20.14
288.07	38.57
288.285	61.1
288.5	69.29
288.715	73.39
288.93	-69.97
289.145	-4.44
289.36	-24.92
289.575	63.15
289.79	-20.82
290.004	-16.73
290.219	9.9
290.434	20.14
290.649	-6.49
290.864	42.67
291.079	85.67
291.294	7.85
291.509	42.67
291.724	18.09
291.938	24.23
292.153	77.48
292.368	-10.58
292.583	44.71
292.798	50.86
293.012	67.24
293.227	67.24
293.442	48.81
293.657	100.01
293.871	85.67
294.086	50.86
294.301	108.2
294.516	42.67
294.73	59.05
294.945	-24.92
295.16	61.1
295.374	91.82
295.589	63.15
295.804	34.47
296.018	-8.53
296.233	11.95
296.447	-20.82
296.662	3.75
296.877	20.14
297.091	79.53
297.306	75.43
297.52	50.86
297.735	24.23
297.949	57
298.164	42.67
298.378	-0.34
298.593	38.57
298.807	24.23
299.022	-39.25
299.236	48.81
299.451	22.19
299.665	67.24
299.88	1.71
300.094	-29.01
300.309	44.71
300.523	44.71
300.737	46.76
300.952	73.39
301.166	57
301.381	75.43
301.595	108.2
301.809	-22.87
302.024	9.9
302.238	36.52
302.452	22.19
302.667	9.9
302.881	48.81
303.095	91.82
303.309	75.43
303.524	-6.49
303.738	71.34
303.952	-92.5
304.166	-10.58
304.381	-35.16
304.595	69.29
304.809	-41.3
305.023	61.1
305.237	40.62
305.452	36.52
305.666	-20.82
305.88	-16.73
306.094	73.39
306.308	44.71
306.522	52.91
306.736	50.86
306.95	50.86
307.164	63.15
307.379	79.53
307.593	65.19
307.807	18.09
308.021	11.95
308.235	83.63
308.449	-6.49
308.663	81.58
308.877	59.05
309.091	102.06
309.305	75.43
309.519	7.85
309.733	97.96
309.947	46.76
310.161	73.39
310.374	63.15
310.588	42.67
310.802	3.75
311.016	44.71
311.23	63.15
311.444	54.95
311.658	73.39
311.872	102.06
312.085	57
312.299	63.15
312.513	44.71
312.727	73.39
312.941	34.47
313.154	59.05
313.368	44.71
313.582	42.67
313.796	16.04
314.009	69.29
314.223	73.39
314.437	-6.49
314.651	7.85
314.864	16.04
315.078	5.8
315.292	-10.58
315.505	38.57
315.719	87.72
315.933	-4.44
316.146	63.15
316.36	44.71
316.573	42.67
316.787	3.75
317.001	65.19
317.214	-16.73
317.428	136.87
317.641	-37.2
317.855	-22.87
318.068	28.33
318.282	48.81
318.495	91.82
318.709	30.38
318.922	28.33
319.136	69.29
319.349	89.77
319.563	32.43
319.776	28.33
319.99	85.67
320.203	40.62
320.417	22.19
320.63	-4.44
320.843	85.67
321.057	18.09
321.27	71.34
321.483	50.86
321.697	26.28
321.91	95.91
322.124	32.43
322.337	46.76
322.55	32.43
322.763	44.71
322.977	85.67
323.19	77.48
323.403	-24.92
323.617	16.04
323.83	91.82
324.043	34.47
324.256	22.19
324.469	3.75
324.683	50.86
324.896	24.23
325.109	22.19
325.322	32.43
325.535	44.71
325.748	38.57
325.962	24.23
326.175	77.48
326.388	26.28
326.601	-14.68
326.814	81.58
327.027	38.57
327.24	38.57
327.453	18.09
327.666	81.58
327.879	-20.82
328.092	5.8
328.305	81.58
328.518	75.43
328.731	-0.34
328.944	32.43
329.157	44.71
329.37	52.91
329.583	69.29
329.796	28.33
330.009	-6.49
330.222	95.91
330.435	44.71
330.648	63.15
330.861	44.71
331.073	75.43
331.286	61.1
331.499	71.34
331.712	57
331.925	44.71
332.138	7.85
332.35	85.67
332.563	46.76
332.776	106.15
332.989	61.1
333.202	118.44
333.414	100.01
333.627	30.38
333.84	102.06
334.053	34.47
334.265	-12.63
334.478	-47.44
334.691	50.86
334.903	1.71
335.116	-0.34
335.329	61.1
335.541	44.71
335.754	136.87
335.966	3.75
336.179	24.23
336.392	73.39
336.604	7.85
336.817	57
337.029	136.87
337.242	22.19
337.454	63.15
337.667	40.62
337.88	126.63
338.092	132.78
338.305	104.11
338.517	-39.25
338.729	57
338.942	36.52
339.154	5.8
339.367	5.8
339.579	52.91
339.792	-14.68
340.004	128.68
340.217	20.14
340.429	97.96
340.641	26.28
340.854	38.57
341.066	36.52
341.278	118.44
341.491	-14.68
341.703	48.81
341.915	1.71
342.128	30.38
342.34	140.97
342.552	91.82
342.764	-8.53
342.977	71.34
343.189	48.81
343.401	83.63
343.613	71.34
343.826	-2.39
344.038	83.63
344.25	-14.68
344.462	63.15
344.674	50.86
344.886	38.57
345.099	28.33
345.311	106.15
345.523	28.33
345.735	48.81
345.947	30.38
346.159	126.63
346.371	18.09
346.583	3.75
346.795	36.52
347.007	40.62
347.219	5.8
347.431	28.33
347.643	26.28
347.855	81.58
348.067	71.34
348.279	59.05
348.491	13.99
348.703	22.19
348.915	20.14
349.127	-0.34
349.339	32.43
349.551	-12.63
349.763	7.85
349.975	73.39
350.187	5.8
350.399	59.05
350.61	38.57
350.822	26.28
351.034	26.28
351.246	13.99
351.458	50.86
351.669	32.43
351.881	-0.34
352.093	112.3
352.305	110.25
352.517	32.43
352.728	40.62
352.94	40.62
353.152	61.1
353.363	59.05
353.575	1.71
353.787	30.38
353.999	114.34
354.21	97.96
354.422	61.1
354.633	28.33
354.845	44.71
355.057	87.72
355.268	44.71
355.48	-59.73
355.692	40.62
355.903	65.19
356.115	65.19
356.326	77.48
356.538	112.3
356.749	44.71
356.961	210.6
357.172	22.19
357.384	22.19
357.595	69.29
357.807	118.44
358.018	34.47
358.23	24.23
358.441	67.24
358.653	44.71
358.864	85.67
359.075	3.75
359.287	108.2
359.498	52.91
359.709	83.63
359.921	-12.63
360.132	69.29
360.344	24.23
360.555	46.76
360.766	63.15
360.977	46.76
361.189	134.82
361.4	9.9
361.611	85.67
361.823	100.01
362.034	163.5
362.245	22.19
362.456	65.19
362.667	143.02
362.879	102.06
363.09	81.58
363.301	42.67
363.512	28.33
363.723	65.19
363.935	77.48
364.146	85.67
364.357	1.71
364.568	16.04
364.779	18.09
364.99	59.05
365.201	36.52
365.412	26.28
365.623	52.91
365.834	48.81
366.045	102.06
366.256	112.3
366.467	59.05
366.678	77.48
366.889	52.91
367.1	-20.82
367.311	46.76
367.522	67.24
367.733	46.76
367.944	97.96
368.155	13.99
368.366	85.67
368.577	16.04
368.788	54.95
368.999	52.91
369.209	48.81
369.42	61.1
369.631	120.49
369.842	106.15
370.053	38.57
370.264	114.34
370.474	30.38
370.685	40.62
370.896	34.47
371.107	30.38
371.317	61.1
371.528	32.43
371.739	122.54
371.95	22.19
372.16	79.53
372.371	77.48
372.582	65.19
372.792	114.34
373.003	91.82
373.214	108.2
373.424	11.95
373.635	26.28
373.846	69.29
374.056	48.81
374.267	75.43
374.477	61.1
374.688	-18.77
374.898	50.86
375.109	36.52
375.319	81.58
375.53	28.33
375.74	122.54
375.951	20.14
376.161	87.72
376.372	69.29
376.582	38.57
376.793	22.19
377.003	77.48
377.214	126.63
377.424	63.15
377.635	-8.53
377.845	61.1
378.055	124.58
378.266	22.19
378.476	71.34
378.686	32.43
378.897	77.48
379.107	54.95
379.317	75.43
379.528	24.23
379.738	38.57
379.948	13.99
380.158	42.67
380.369	63.15
380.579	87.72
380.789	32.43
380.999	32.43
381.21	118.44
381.42	140.97
381.63	102.06
381.84	81.58
382.05	28.33
382.261	73.39
382.471	149.16
382.681	9.9
382.891	89.77
383.101	75.43
383.311	44.71
383.521	130.73
383.731	65.19
383.941	32.43
384.151	85.67
384.361	83.63
384.571	77.48
384.781	-35.16
384.991	143.02
385.201	32.43
385.411	-4.44
385.621	149.16
385.831	91.82
386.041	-0.34
386.251	44.71
386.461	24.23
386.671	44.71
386.881	73.39
387.091	48.81
387.301	32.43
387.511	57
387.72	147.11
387.93	73.39
388.14	38.57
388.35	63.15
388.56	118.44
388.769	106.15
388.979	110.25
389.189	44.71
389.399	30.38
389.609	108.2
389.818	77.48
390.028	67.24
390.238	89.77
390.447	16.04
390.657	91.82
390.867	28.33
391.076	134.82
391.286	9.9
391.496	69.29
391.705	85.67
391.915	130.73
392.125	24.23
392.334	145.06
392.544	112.3
392.753	138.92
392.963	93.87
393.172	69.29
393.382	83.63
393.591	169.64
393.801	-0.34
394.01	138.92
394.22	69.29
394.429	116.39
394.639	112.3
394.848	24.23
395.058	73.39
395.267	114.34
395.477	161.45
395.686	136.87
395.895	102.06
396.105	140.97
396.314	124.58
396.524	161.45
396.733	136.87
396.942	157.35
397.152	112.3
397.361	100.01
397.57	157.35
397.78	151.21
397.989	110.25
398.198	198.31
398.407	73.39
398.617	63.15
398.826	155.3
399.035	151.21
399.244	93.87
399.453	190.12
399.663	116.39
399.872	212.65
400.081	140.97
400.29	145.06
400.499	93.87
400.708	169.64
400.917	75.43
401.127	165.54
401.336	100.01
401.545	157.35
401.754	224.94
401.963	259.75
402.172	159.4
402.381	159.4
402.59	134.82
402.799	87.72
403.008	179.88
403.217	208.55
403.426	222.89
403.635	151.21
403.844	87.72
404.053	188.07
404.262	106.15
404.471	247.46
404.68	89.77
404.888	167.59
405.097	214.7
405.306	140.97
405.515	112.3
405.724	147.11
405.933	194.22
406.142	212.65
406.35	183.98
406.559	208.55
406.768	159.4
406.977	231.08
407.185	269.99
407.394	190.12
407.603	220.84
407.812	265.89
408.02	261.8
408.229	247.46
408.438	261.8
408.646	216.74
408.855	145.06
409.064	231.08
409.272	315.05
409.481	317.09
409.69	298.66
409.898	255.65
410.107	304.81
410.315	347.81
410.524	306.85
410.733	394.92
410.941	349.86
411.15	417.44
411.358	462.5
411.567	403.11
411.775	460.45
411.984	448.16
412.192	474.79
412.401	505.51
412.609	528.03
412.818	550.56
413.026	546.47
413.234	540.32
413.443	599.71
413.651	556.71
413.86	677.54
414.068	663.2
414.276	667.3
414.485	714.4
414.693	685.73
414.901	779.93
415.11	716.45
415.318	738.98
415.526	906.91
415.734	831.13
415.943	868
416.151	956.06
416.359	943.77
416.567	1013.4
416.776	978.59
416.984	1093.27
417.192	1111.71
417.4	1158.81
417.608	1091.23
417.817	1181.34
418.025	1261.21
418.233	1281.69
418.441	1287.83
418.649	1492.63
418.857	1472.15
419.065	1556.11
419.273	1423
419.481	1494.68
419.689	1607.31
419.897	1705.62
420.105	1855.12
420.313	1828.49
420.521	1904.27
420.729	1867.41
420.937	1998.48
421.145	1980.04
421.353	2129.55
421.561	2156.17
421.769	2285.19
421.977	2336.39
422.185	2322.06
422.393	2559.62
422.601	2528.9
422.809	2553.48
423.017	2625.15
423.224	2766.46
423.432	2719.36
423.64	2809.47
423.848	3116.67
424.056	3075.71
424.263	3145.34
424.471	3294.84
424.679	3321.46
424.887	3489.4
425.094	3645.04
425.302	3538.55
425.51	3833.46
425.718	3972.72
425.925	4109.93
426.133	4107.88
426.341	4271.72
426.548	4640.36
426.756	4515.43
426.964	4380.26
427.171	4734.56
427.379	4959.84
427.586	4988.51
427.794	5211.74
428.001	5394.01
428.209	5568.09
428.417	5625.43
428.624	5967.44
428.832	5953.1
429.039	5865.04
429.247	5844.56
429.454	6649.41
429.662	6997.57
429.869	6401.61
430.076	6911.55
430.284	6641.22
430.491	7171.65
430.699	7458.36
430.906	7464.5
431.114	7571
431.321	7796.28
431.528	8003.12
431.736	8447.53
431.943	8945.19
432.15	8644.13
432.358	8779.3
432.565	9180.7
432.772	9248.29
432.979	9711.13
433.187	9715.22
433.394	9903.64
433.601	10614.28
433.808	10665.48
434.016	10444.3
434.223	11025.92
434.43	11671.03
434.637	11359.74
434.844	12193.26
435.052	12381.68
435.259	12381.68
435.466	12387.82
435.673	12393.97
435.88	13151.71
436.087	13632.99
436.294	13667.8
436.501	13454.81
436.708	13813.21
436.915	14267.86
437.122	15091.14
437.329	14943.69
437.537	15396.29
437.743	15674.81
437.95	15631.8
438.157	16332.21
438.364	17046.95
438.571	16563.63
438.778	16754.09
438.985	18552.21
439.192	17595.81
439.399	18363.79
439.606	18042.26
439.813	18832.78
440.02	20182.39
440.227	19481.99
440.433	19481.99
440.64	20151.67
440.847	20166.01
441.054	20665.71
441.261	21853.53
441.467	21749.09
441.674	21796.19
441.881	23092.55
442.088	23002.44
442.294	22693.2
442.501	23301.45
442.708	23588.16
442.914	24667.44
443.121	25845.02
443.328	25007.41
443.534	26877.2
443.741	25959.71
443.948	25679.14
444.154	27776.26
444.361	27303.18
444.568	28007.68
444.774	27534.6
444.981	27833.6
445.187	28599.54
445.394	29891.81
445.6	29842.66
445.807	32146.62
446.013	31352.01
446.22	31478.99
446.426	32988.34
446.633	33199.28
446.839	34274.46
447.046	32869.56
447.252	34827.42
447.459	34454.68
447.665	34460.83
447.871	35912.84
448.078	37442.67
448.284	35652.75
448.491	36547.71
448.697	38118.5
448.903	38380.64
449.11	38569.05
449.316	38378.59
449.522	39056.47
449.728	40068.17
449.935	40096.84
450.141	39976.01
450.347	40592.45
450.553	39648.33
450.76	40092.74
450.966	41505.84
451.172	41018.42
451.378	42333.22
451.584	40750.14
451.791	42505.25
451.997	41720.88
452.203	42214.44
452.409	42527.78
452.615	41985.07
452.821	40750.14
453.027	39826.51
453.233	42339.36
453.44	40301.64
453.646	40967.23
453.852	41151.54
454.058	42263.59
454.264	40580.16
454.47	40991.8
454.676	40891.45
454.882	41841.71
455.088	38069.35
455.294	38714.46
455.5	38890.59
455.705	39687.25
455.911	37887.08
456.117	36908.15
456.323	36707.45
456.529	34593.95
456.735	36306.05
456.941	35214.48
457.147	34573.47
457.352	33649.83
457.558	33107.12
457.764	33035.44
457.97	32619.7
458.176	31937.73
458.381	32064.71
458.587	30315.74
458.793	30379.23
458.999	29037.81
459.204	30901.46
459.41	30125.28
459.616	27839.75
459.821	28198.14
460.027	27868.42
460.233	27479.3
460.438	26109.21
460.644	26795.28
460.85	25175.34
461.055	24800.56
461.261	24667.44
461.466	23041.36
461.672	22103.39
461.878	23934.27
462.083	22504.79
462.289	22191.45
462.494	21757.28
462.7	20708.72
462.905	19813.76
463.111	21171.56
463.316	21046.63
463.522	20567.41
463.727	20645.23
463.932	20458.87
464.138	20338.04
464.343	20403.57
464.549	19631.49
464.754	20661.62
464.959	20352.37
465.165	20219.25
465.37	19600.77
465.575	18793.87
465.781	19543.42
465.986	19643.77
466.191	18988.42
466.397	18527.63
466.602	18003.35
466.807	18197.91
467.012	18363.79
467.218	18458
467.423	18195.86
467.628	18134.42
