Data from USB4F104151__276__11-12-15-965.txt Node

Date: Wed Mar 12 11:12:15 EDT 2025
User: louis
Spectrometer: USB4F10415
Trigger mode: 4
Integration Time (sec): 2.000000E-2
Scans to average: 1
Electric dark correction enabled: true
Nonlinearity correction enabled: false
Boxcar width: 0
XAxis mode: Wavelengths
Number of Pixels in Spectrum: 3648
>>>>>Begin Spectral Data<<<<<
178.204	-77.99
178.424	-77.99
178.644	-77.99
178.864	-102.57
179.084	-57.51
179.304	-30.89
179.524	-6.31
179.744	-2.22
179.964	-24.75
180.184	53.08
180.404	14.17
180.624	55.12
180.844	1.88
181.064	-75.95
181.283	40.79
181.503	-53.42
181.723	28.5
181.943	-4.27
182.163	87.89
182.383	-32.94
182.602	-2.22
182.822	53.08
183.042	40.79
183.262	44.88
183.482	18.26
183.701	57.17
183.921	32.6
184.141	-28.84
184.361	5.97
184.58	26.45
184.8	30.55
185.02	32.6
185.239	83.8
185.459	28.5
185.679	28.5
185.898	-32.94
186.118	40.79
186.338	53.08
186.557	63.32
186.777	-2.22
186.997	87.89
187.216	-24.75
187.436	46.93
187.655	-18.6
187.875	-14.51
188.095	-10.41
188.314	67.41
188.534	3.93
188.753	63.32
188.973	89.94
189.192	85.84
189.412	75.6
189.631	-0.17
189.851	-14.51
190.07	87.89
190.29	-32.94
190.509	28.5
190.729	24.4
190.948	75.6
191.168	149.33
191.387	63.32
191.607	-14.51
191.826	18.26
192.045	32.6
192.265	3.93
192.484	36.69
192.704	59.22
192.923	-4.27
193.142	12.12
193.362	-12.46
193.581	59.22
193.8	-2.22
194.02	26.45
194.239	1.88
194.458	32.6
194.678	-20.65
194.897	-65.71
195.116	-4.27
195.335	38.74
195.555	26.45
195.774	-41.13
195.993	34.64
196.212	128.85
196.432	-37.03
196.651	42.84
196.87	-4.27
197.089	24.4
197.308	-28.84
197.528	89.94
197.747	8.02
197.966	57.17
198.185	38.74
198.404	42.84
198.623	53.08
198.842	65.36
199.062	57.17
199.281	34.64
199.5	-6.31
199.719	104.28
199.938	-0.17
200.157	26.45
200.376	42.84
200.595	-16.55
200.814	155.47
201.033	22.36
201.252	-57.51
201.471	3.93
201.69	8.02
201.909	55.12
202.128	87.89
202.347	28.5
202.566	48.98
202.785	18.26
203.004	-10.41
203.223	77.65
203.442	-67.75
203.661	36.69
203.879	-8.36
204.098	53.08
204.317	-26.79
204.536	40.79
204.755	57.17
204.974	16.21
205.193	91.99
205.411	75.6
205.63	-51.37
205.849	59.22
206.068	42.84
206.287	42.84
206.505	44.88
206.724	83.8
206.943	14.17
207.162	-4.27
207.381	44.88
207.599	59.22
207.818	-16.55
208.037	34.64
208.255	-18.6
208.474	3.93
208.693	-28.84
208.911	34.64
209.13	-4.27
209.349	-49.32
209.567	42.84
209.786	-26.79
210.005	-0.17
210.223	44.88
210.442	-6.31
210.661	38.74
210.879	53.08
211.098	20.31
211.316	-57.51
211.535	12.12
211.753	77.65
211.972	59.22
212.191	3.93
212.409	16.21
212.628	-24.75
212.846	48.98
213.065	18.26
213.283	69.46
213.502	36.69
213.72	32.6
213.938	-2.22
214.157	42.84
214.375	-0.17
214.594	-43.18
214.812	24.4
215.031	20.31
215.249	-10.41
215.467	-34.99
215.686	40.79
215.904	28.5
216.122	44.88
216.341	32.6
216.559	12.12
216.778	-10.41
216.996	12.12
217.214	12.12
217.432	79.7
217.651	-53.42
217.869	-10.41
218.087	20.31
218.306	-10.41
218.524	20.31
218.742	-2.22
218.96	32.6
219.179	32.6
219.397	63.32
219.615	-18.6
219.833	5.97
220.051	-22.7
220.27	-8.36
220.488	79.7
220.706	3.93
220.924	-2.22
221.142	151.38
221.36	16.21
221.578	20.31
221.796	53.08
222.015	-16.55
222.233	10.07
222.451	81.75
222.669	79.7
222.887	65.36
223.105	20.31
223.323	26.45
223.541	16.21
223.759	-0.17
223.977	1.88
224.195	12.12
224.413	44.88
224.631	-47.27
224.849	10.07
225.067	71.51
225.285	32.6
225.503	61.27
225.721	-10.41
225.939	67.41
226.157	48.98
226.375	38.74
226.592	40.79
226.81	34.64
227.028	55.12
227.246	75.6
227.464	28.5
227.682	48.98
227.9	5.97
228.117	22.36
228.335	12.12
228.553	-4.27
228.771	69.46
228.989	85.84
229.206	73.56
229.424	-0.17
229.642	69.46
229.86	-8.36
230.077	69.46
230.295	83.8
230.513	57.17
230.731	-75.95
230.948	73.56
231.166	69.46
231.384	12.12
231.601	20.31
231.819	98.13
232.037	-34.99
232.254	-8.36
232.472	-12.46
232.689	-12.46
232.907	-16.55
233.125	12.12
233.342	28.5
233.56	-22.7
233.777	91.99
233.995	36.69
234.213	81.75
234.43	5.97
234.648	42.84
234.865	24.4
235.083	-43.18
235.3	-2.22
235.518	3.93
235.735	67.41
235.953	-4.27
236.17	3.93
236.388	26.45
236.605	16.21
236.822	44.88
237.04	83.8
237.257	85.84
237.475	-6.31
237.692	73.56
237.909	77.65
238.127	-24.75
238.344	85.84
238.562	22.36
238.779	-43.18
238.996	18.26
239.214	26.45
239.431	124.76
239.648	12.12
239.865	42.84
240.083	-59.56
240.3	38.74
240.517	46.93
240.735	44.88
240.952	18.26
241.169	16.21
241.386	57.17
241.603	63.32
241.821	-4.27
242.038	10.07
242.255	28.5
242.472	40.79
242.689	40.79
242.907	96.08
243.124	48.98
243.341	1.88
243.558	32.6
243.775	-16.55
243.992	42.84
244.209	16.21
244.426	42.84
244.643	16.21
244.86	8.02
245.078	40.79
245.295	-47.27
245.512	12.12
245.729	28.5
245.946	40.79
246.163	38.74
246.38	40.79
246.597	36.69
246.814	87.89
247.031	59.22
247.248	55.12
247.464	61.27
247.681	57.17
247.898	89.94
248.115	98.13
248.332	-32.94
248.549	71.51
248.766	20.31
248.983	61.27
249.2	40.79
249.417	16.21
249.633	18.26
249.85	55.12
250.067	30.55
250.284	63.32
250.501	42.84
250.717	22.36
250.934	14.17
251.151	48.98
251.368	-20.65
251.585	14.17
251.801	20.31
252.018	51.03
252.235	38.74
252.451	8.02
252.668	3.93
252.885	5.97
253.102	69.46
253.318	36.69
253.535	67.41
253.752	83.8
253.968	-24.75
254.185	-0.17
254.401	22.36
254.618	14.17
254.835	-39.08
255.051	1.88
255.268	28.5
255.484	20.31
255.701	16.21
255.917	1.88
256.134	20.31
256.351	-24.75
256.567	96.08
256.784	24.4
257	-10.41
257.217	-2.22
257.433	16.21
257.65	42.84
257.866	-10.41
258.082	63.32
258.299	-53.42
258.515	61.27
258.732	51.03
258.948	-37.03
259.165	-2.22
259.381	-2.22
259.597	-28.84
259.814	16.21
260.03	20.31
260.246	-30.89
260.463	91.99
260.679	26.45
260.895	-12.46
261.112	22.36
261.328	8.02
261.544	8.02
261.761	100.18
261.977	-16.55
262.193	36.69
262.409	1.88
262.626	18.26
262.842	34.64
263.058	-69.8
263.274	22.36
263.49	53.08
263.707	98.13
263.923	44.88
264.139	-8.36
264.355	36.69
264.571	53.08
264.787	81.75
265.004	14.17
265.22	-8.36
265.436	65.36
265.652	-22.7
265.868	26.45
266.084	16.21
266.3	28.5
266.516	30.55
266.732	-0.17
266.948	20.31
267.164	53.08
267.38	16.21
267.596	26.45
267.812	24.4
268.028	-12.46
268.244	-14.51
268.46	18.26
268.676	3.93
268.892	61.27
269.108	22.36
269.324	8.02
269.54	-12.46
269.756	24.4
269.972	-28.84
270.188	44.88
270.403	36.69
270.619	57.17
270.835	73.56
271.051	108.37
271.267	-12.46
271.483	32.6
271.698	20.31
271.914	128.85
272.13	32.6
272.346	73.56
272.562	3.93
272.777	55.12
272.993	-22.7
273.209	8.02
273.425	55.12
273.64	36.69
273.856	20.31
274.072	-57.51
274.287	28.5
274.503	77.65
274.719	34.64
274.934	42.84
275.15	-69.8
275.366	-37.03
275.581	10.07
275.797	-30.89
276.012	32.6
276.228	-4.27
276.444	-43.18
276.659	69.46
276.875	22.36
277.09	69.46
277.306	-6.31
277.521	55.12
277.737	-12.46
277.952	18.26
278.168	-16.55
278.383	28.5
278.599	22.36
278.814	20.31
279.03	24.4
279.245	3.93
279.461	12.12
279.676	24.4
279.892	-20.65
280.107	65.36
280.322	3.93
280.538	38.74
280.753	5.97
280.969	24.4
281.184	-37.03
281.399	65.36
281.615	42.84
281.83	42.84
282.045	-45.23
282.26	-28.84
282.476	-20.65
282.691	30.55
282.906	36.69
283.122	-4.27
283.337	59.22
283.552	61.27
283.767	8.02
283.983	8.02
284.198	48.98
284.413	20.31
284.628	75.6
284.843	-4.27
285.058	61.27
285.274	96.08
285.489	1.88
285.704	67.41
285.919	-30.89
286.134	3.93
286.349	32.6
286.564	116.56
286.779	-26.79
286.995	63.32
287.21	-77.99
287.425	38.74
287.64	38.74
287.855	26.45
288.07	-8.36
288.285	48.98
288.5	67.41
288.715	-0.17
288.93	10.07
289.145	48.98
289.36	-12.46
289.575	67.41
289.79	8.02
290.004	106.32
290.219	77.65
290.434	89.94
290.649	-20.65
290.864	1.88
291.079	28.5
291.294	-43.18
291.509	73.56
291.724	38.74
291.938	48.98
292.153	36.69
292.368	-8.36
292.583	67.41
292.798	40.79
293.012	79.7
293.227	18.26
293.442	44.88
293.657	83.8
293.871	126.8
294.086	55.12
294.301	61.27
294.516	24.4
294.73	120.66
294.945	-32.94
295.16	173.91
295.374	98.13
295.589	40.79
295.804	-18.6
296.018	8.02
296.233	53.08
296.447	12.12
296.662	36.69
296.877	48.98
297.091	-28.84
297.306	73.56
297.52	12.12
297.735	40.79
297.949	53.08
298.164	89.94
298.378	26.45
298.593	12.12
298.807	8.02
299.022	-0.17
299.236	16.21
299.451	53.08
299.665	-16.55
299.88	16.21
300.094	83.8
300.309	38.74
300.523	71.51
300.737	28.5
300.952	24.4
301.166	38.74
301.381	-28.84
301.595	36.69
301.809	42.84
302.024	22.36
302.238	-24.75
302.452	-65.71
302.667	22.36
302.881	69.46
303.095	85.84
303.309	34.64
303.524	-10.41
303.738	59.22
303.952	-39.08
304.166	143.19
304.381	-49.32
304.595	57.17
304.809	-18.6
305.023	5.97
305.237	8.02
305.452	71.51
305.666	12.12
305.88	-0.17
306.094	48.98
306.308	8.02
306.522	59.22
306.736	87.89
306.95	73.56
307.164	16.21
307.379	77.65
307.593	106.32
307.807	1.88
308.021	83.8
308.235	18.26
308.449	-12.46
308.663	10.07
308.877	106.32
309.091	14.17
309.305	18.26
309.519	-16.55
309.733	40.79
309.947	22.36
310.161	16.21
310.374	87.89
310.588	10.07
310.802	-63.66
311.016	59.22
311.23	63.32
311.444	-12.46
311.658	14.17
311.872	75.6
312.085	26.45
312.299	71.51
312.513	96.08
312.727	42.84
312.941	-4.27
313.154	61.27
313.368	46.93
313.582	20.31
313.796	96.08
314.009	-18.6
314.223	36.69
314.437	24.4
314.651	73.56
314.864	42.84
315.078	48.98
315.292	67.41
315.505	28.5
315.719	3.93
315.933	34.64
316.146	-45.23
316.36	34.64
316.573	16.21
316.787	81.75
317.001	18.26
317.214	83.8
317.428	30.55
317.641	63.32
317.855	26.45
318.068	75.6
318.282	53.08
318.495	102.23
318.709	12.12
318.922	51.03
319.136	22.36
319.349	-2.22
319.563	75.6
319.776	20.31
319.99	100.18
320.203	38.74
320.417	-8.36
320.63	71.51
320.843	32.6
321.057	73.56
321.27	28.5
321.483	91.99
321.697	100.18
321.91	67.41
322.124	51.03
322.337	61.27
322.55	77.65
322.763	40.79
322.977	20.31
323.19	24.4
323.403	22.36
323.617	85.84
323.83	83.8
324.043	38.74
324.256	91.99
324.469	-24.75
324.683	73.56
324.896	48.98
325.109	40.79
325.322	18.26
325.535	77.65
325.748	12.12
325.962	32.6
326.175	10.07
326.388	22.36
326.601	38.74
326.814	-10.41
327.027	24.4
327.24	73.56
327.453	40.79
327.666	26.45
327.879	81.75
328.092	81.75
328.305	10.07
328.518	22.36
328.731	53.08
328.944	91.99
329.157	104.28
329.37	44.88
329.583	167.76
329.796	61.27
330.009	-28.84
330.222	12.12
330.435	110.42
330.648	53.08
330.861	16.21
331.073	85.84
331.286	14.17
331.499	61.27
331.712	51.03
331.925	108.37
332.138	12.12
332.35	3.93
332.563	48.98
332.776	-0.17
332.989	12.12
333.202	51.03
333.414	-8.36
333.627	12.12
333.84	30.55
334.053	14.17
334.265	51.03
334.478	55.12
334.691	46.93
334.903	16.21
335.116	-4.27
335.329	10.07
335.541	98.13
335.754	67.41
335.966	18.26
336.179	42.84
336.392	61.27
336.604	79.7
336.817	98.13
337.029	38.74
337.242	8.02
337.454	24.4
337.667	128.85
337.88	77.65
338.092	112.47
338.305	14.17
338.517	81.75
338.729	-8.36
338.942	55.12
339.154	-24.75
339.367	30.55
339.579	61.27
339.792	85.84
340.004	34.64
340.217	24.4
340.429	38.74
340.641	-16.55
340.854	40.79
341.066	32.6
341.278	71.51
341.491	98.13
341.703	-28.84
341.915	30.55
342.128	57.17
342.34	-28.84
342.552	42.84
342.764	-57.51
342.977	14.17
343.189	-12.46
343.401	69.46
343.613	44.88
343.826	34.64
344.038	36.69
344.25	102.23
344.462	38.74
344.674	42.84
344.886	-37.03
345.099	36.69
345.311	61.27
345.523	20.31
345.735	40.79
345.947	-45.23
346.159	69.46
346.371	-6.31
346.583	14.17
346.795	143.19
347.007	98.13
347.219	24.4
347.431	12.12
347.643	130.9
347.855	-39.08
348.067	128.85
348.279	-32.94
348.491	71.51
348.703	81.75
348.915	55.12
349.127	5.97
349.339	44.88
349.551	-34.99
349.763	38.74
349.975	-30.89
350.187	16.21
350.399	77.65
350.61	69.46
350.822	36.69
351.034	55.12
351.246	26.45
351.458	46.93
351.669	1.88
351.881	85.84
352.093	83.8
352.305	42.84
352.517	14.17
352.728	26.45
352.94	46.93
353.152	42.84
353.363	10.07
353.575	36.69
353.787	75.6
353.999	18.26
354.21	51.03
354.422	89.94
354.633	63.32
354.845	87.89
355.057	104.28
355.268	26.45
355.48	26.45
355.692	69.46
355.903	-43.18
356.115	73.56
356.326	26.45
356.538	128.85
356.749	51.03
356.961	71.51
357.172	57.17
357.384	20.31
357.595	65.36
357.807	77.65
358.018	10.07
358.23	22.36
358.441	85.84
358.653	128.85
358.864	-26.79
359.075	71.51
359.287	40.79
359.498	94.04
359.709	110.42
359.921	30.55
360.132	22.36
360.344	63.32
360.555	36.69
360.766	38.74
360.977	12.12
361.189	65.36
361.4	96.08
361.611	118.61
361.823	44.88
362.034	108.37
362.245	44.88
362.456	18.26
362.667	65.36
362.879	100.18
363.09	51.03
363.301	79.7
363.512	24.4
363.723	14.17
363.935	-2.22
364.146	44.88
364.357	1.88
364.568	48.98
364.779	-8.36
364.99	22.36
365.201	44.88
365.412	91.99
365.623	26.45
365.834	61.27
366.045	-2.22
366.256	79.7
366.467	75.6
366.678	85.84
366.889	38.74
367.1	57.17
367.311	-12.46
367.522	42.84
367.733	-2.22
367.944	59.22
368.155	-10.41
368.366	14.17
368.577	10.07
368.788	110.42
368.999	-39.08
369.209	51.03
369.42	118.61
369.631	104.28
369.842	104.28
370.053	22.36
370.264	44.88
370.474	67.41
370.685	63.32
370.896	147.28
371.107	32.6
371.317	53.08
371.528	3.93
371.739	46.93
371.95	110.42
372.16	40.79
372.371	36.69
372.582	73.56
372.792	8.02
373.003	98.13
373.214	118.61
373.424	91.99
373.635	18.26
373.846	57.17
374.056	5.97
374.267	98.13
374.477	94.04
374.688	14.17
374.898	48.98
375.109	71.51
375.319	-34.99
375.53	12.12
375.74	96.08
375.951	63.32
376.161	75.6
376.372	-4.27
376.582	-0.17
376.793	69.46
377.003	30.55
377.214	91.99
377.424	73.56
377.635	57.17
377.845	155.47
378.055	65.36
378.266	-4.27
378.476	130.9
378.686	104.28
378.897	5.97
379.107	96.08
379.317	69.46
379.528	34.64
379.738	-10.41
379.948	16.21
380.158	65.36
380.369	3.93
380.579	73.56
380.789	-32.94
380.999	96.08
381.21	10.07
381.42	65.36
381.63	42.84
381.84	26.45
382.05	-24.75
382.261	89.94
382.471	98.13
382.681	151.38
382.891	18.26
383.101	8.02
383.311	-8.36
383.521	3.93
383.731	77.65
383.941	114.52
384.151	75.6
384.361	34.64
384.571	51.03
384.781	-2.22
384.991	85.84
385.201	132.95
385.411	53.08
385.621	5.97
385.831	85.84
386.041	34.64
386.251	14.17
386.461	83.8
386.671	61.27
386.881	122.71
387.091	75.6
387.301	-34.99
387.511	42.84
387.72	77.65
387.93	38.74
388.14	32.6
388.35	83.8
388.56	69.46
388.769	98.13
388.979	32.6
389.189	18.26
389.399	128.85
389.609	75.6
389.818	46.93
390.028	89.94
390.238	46.93
390.447	22.36
390.657	98.13
390.867	3.93
391.076	38.74
391.286	55.12
391.496	61.27
391.705	30.55
391.915	120.66
392.125	36.69
392.334	71.51
392.544	48.98
392.753	91.99
392.963	57.17
393.172	94.04
393.382	24.4
393.591	130.9
393.801	1.88
394.01	130.9
394.22	34.64
394.429	22.36
394.639	112.47
394.848	102.23
395.058	24.4
395.267	171.86
395.477	108.37
395.686	135
395.895	100.18
396.105	110.42
396.314	137.04
396.524	69.46
396.733	89.94
396.942	55.12
397.152	143.19
397.361	110.42
397.57	104.28
397.78	94.04
397.989	159.57
398.198	118.61
398.407	102.23
398.617	102.23
398.826	100.18
399.035	132.95
399.244	112.47
399.453	102.23
399.663	34.64
399.872	114.52
400.081	69.46
400.29	38.74
400.499	85.84
400.708	137.04
400.917	102.23
401.127	5.97
401.336	77.65
401.545	157.52
401.754	89.94
401.963	94.04
402.172	53.08
402.381	110.42
402.59	163.67
402.799	75.6
403.008	147.28
403.217	145.24
403.426	120.66
403.635	59.22
403.844	102.23
404.053	151.38
404.262	171.86
404.471	135
404.68	91.99
404.888	155.47
405.097	69.46
405.306	149.33
405.515	165.71
405.724	159.57
405.933	188.24
406.142	159.57
406.35	212.82
406.559	184.15
406.768	171.86
406.977	153.43
407.185	143.19
407.394	194.39
407.603	192.34
407.812	165.71
408.02	229.2
408.229	216.91
408.438	202.58
408.646	145.24
408.855	190.29
409.064	206.67
409.272	208.72
409.481	245.59
409.69	237.39
409.898	243.54
410.107	266.07
410.315	216.91
410.524	331.6
410.733	366.42
410.941	352.08
411.15	288.59
411.358	294.74
411.567	313.17
411.775	347.98
411.984	370.51
412.192	417.61
412.401	354.13
412.609	401.23
412.818	503.63
413.026	468.81
413.234	450.38
413.443	507.73
413.651	501.58
413.86	495.44
414.068	560.97
414.276	567.12
414.485	513.87
414.693	642.89
414.901	606.03
415.11	626.51
415.318	763.72
415.526	649.04
415.734	681.8
415.943	689.99
416.151	743.24
416.359	671.56
416.567	853.83
416.776	841.54
416.984	786.25
417.192	780.11
417.4	919.37
417.608	837.45
417.817	921.42
418.025	964.42
418.233	1040.2
418.441	948.04
418.649	1038.15
418.857	1150.79
419.065	1146.69
419.273	1085.25
419.481	1177.41
419.689	1244.99
419.897	1302.34
420.105	1302.34
420.313	1394.5
420.521	1363.78
420.729	1431.36
420.937	1589.05
421.145	1640.25
421.353	1523.52
421.561	1560.38
421.769	1910.58
421.977	1861.43
422.185	1810.23
422.393	1994.55
422.601	2004.79
422.809	1967.93
423.017	2043.7
423.224	2072.37
423.432	2279.22
423.64	2185.01
423.848	2404.14
424.056	2307.89
424.263	2518.83
424.471	2549.55
424.679	2633.52
424.887	2752.3
425.094	2817.83
425.302	2768.68
425.51	2932.52
425.718	3043.11
425.925	3098.41
426.133	3217.19
426.341	3485.47
426.548	3485.47
426.756	3518.24
426.964	3608.35
427.171	3716.89
427.379	3872.54
427.586	3960.6
427.794	4019.99
428.001	4353.81
428.209	4265.75
428.417	4284.18
428.624	4603.66
428.832	4583.18
429.039	4783.88
429.247	4640.53
429.454	5093.13
429.662	5410.56
429.869	5080.84
430.076	5302.02
430.284	5209.86
430.491	5439.23
430.699	5689.09
430.906	5869.31
431.114	5904.12
431.321	6076.15
431.528	6178.55
431.736	6571.76
431.943	6866.67
432.15	6508.27
432.358	6829.81
432.565	7038.7
432.772	7077.61
432.979	7339.75
433.187	7458.53
433.394	7491.3
433.601	8117.98
433.808	8138.46
434.016	8085.21
434.223	8482.52
434.43	8879.82
434.637	8816.33
434.844	9301.7
435.052	9453.25
435.259	9281.22
435.466	9428.68
435.673	9426.63
435.88	10057.4
436.087	10491.57
436.294	10423.99
436.501	10342.07
436.708	10370.74
436.915	10778.29
437.122	11368.1
437.329	11280.04
437.537	11622.05
437.743	11769.51
437.95	11509.41
438.157	12142.24
438.364	12598.93
438.571	12646.04
438.778	12850.83
438.985	13885.06
439.192	13444.74
439.399	13686.4
439.606	13446.79
439.813	14243.45
440.02	15148.65
440.227	14806.64
440.433	14894.71
440.64	15486.57
440.847	15232.62
441.054	15615.59
441.261	16746.07
441.467	16258.65
441.674	16780.89
441.881	16969.3
442.088	17423.95
442.294	17077.84
442.501	17753.67
442.708	18003.52
442.914	18667.06
443.121	19197.49
443.328	18828.85
443.534	20231.71
443.741	19525.16
443.948	19471.92
444.154	20850.2
444.361	20463.13
444.568	20917.78
444.774	20723.23
444.981	20911.64
445.187	21558.8
445.394	22330.88
445.6	22195.71
445.807	24292.83
446.013	23066.1
446.22	23461.36
446.426	24614.37
446.633	24684
446.839	25458.13
447.046	24522.21
447.252	25966.03
447.459	25851.34
447.665	25814.48
447.871	26865.08
448.078	27973.03
448.284	26631.61
448.491	27258.29
448.697	28523.94
448.903	28997.02
449.11	29093.27
449.316	28429.73
449.522	29369.75
449.728	29683.09
449.935	30123.4
450.141	29816.21
450.347	30774.66
450.553	29734.29
450.76	29904.27
450.966	31024.51
451.172	30508.42
451.378	31389.05
451.584	30475.65
451.791	31370.61
451.997	31196.54
452.203	31749.49
452.409	31866.22
452.615	31817.07
452.821	30397.83
453.027	30129.55
453.233	31567.22
453.44	30385.54
453.646	30803.33
453.852	31169.91
454.058	31702.39
454.264	30113.16
454.47	31006.08
454.676	30238.09
454.882	31212.92
455.088	28448.16
455.294	28706.21
455.5	29396.37
455.705	29826.45
455.911	28257.7
456.117	28071.34
456.323	27229.62
456.529	26101.19
456.735	27088.31
456.941	26439.11
457.147	25949.64
457.352	25224.66
457.558	25030.1
457.764	25073.11
457.97	24800.73
458.176	23741.93
458.381	23750.12
458.587	22687.23
458.793	22928.89
458.999	21720.59
459.204	23182.84
459.41	22636.03
459.616	21026.32
459.821	20946.45
460.027	20956.69
460.233	20522.52
460.438	19365.42
460.644	19791.4
460.85	18796.09
461.055	18499.13
461.261	18708.02
461.466	17139.28
461.672	16338.52
461.878	17847.88
462.083	16571.99
462.289	16490.07
462.494	16055.9
462.7	15416.94
462.905	14933.62
463.111	15408.75
463.316	15541.86
463.522	15326.83
463.727	15234.67
463.932	15412.84
464.138	15255.15
464.343	15459.95
464.549	14859.89
464.754	15556.2
464.959	15036.02
465.165	15023.73
465.37	14343.8
465.575	14100.09
465.781	14429.82
465.986	14607.99
466.191	13999.74
466.397	13905.54
466.602	13182.6
466.807	13590.15
467.012	13758.08
467.218	13622.92
467.423	13452.94
467.628	13684.36
