Data from USB4F104151__217__11-10-38-056.txt Node

Date: Wed Mar 12 11:10:38 EDT 2025
User: louis
Spectrometer: USB4F10415
Trigger mode: 4
Integration Time (sec): 2.000000E-2
Scans to average: 1
Electric dark correction enabled: true
Nonlinearity correction enabled: false
Boxcar width: 0
XAxis mode: Wavelengths
Number of Pixels in Spectrum: 3648
>>>>>Begin Spectral Data<<<<<
178.204	-28.84
178.424	-28.84
178.644	-28.84
178.864	-153.77
179.084	-129.19
179.304	20.31
179.524	18.26
179.744	5.97
179.964	36.69
180.184	-24.75
180.404	-0.17
180.624	57.17
180.844	10.07
181.064	-45.23
181.283	-2.22
181.503	-39.08
181.723	-37.03
181.943	-20.65
182.163	112.47
182.383	-14.51
182.602	73.56
182.822	83.8
183.042	32.6
183.262	8.02
183.482	-10.41
183.701	51.03
183.921	139.09
184.141	-43.18
184.361	42.84
184.58	55.12
184.8	28.5
185.02	-8.36
185.239	46.93
185.459	59.22
185.679	106.32
185.898	1.88
186.118	24.4
186.338	38.74
186.557	53.08
186.777	-4.27
186.997	102.23
187.216	40.79
187.436	120.66
187.655	20.31
187.875	44.88
188.095	32.6
188.314	-20.65
188.534	59.22
188.753	5.97
188.973	59.22
189.192	30.55
189.412	22.36
189.631	61.27
189.851	20.31
190.07	30.55
190.29	16.21
190.509	-26.79
190.729	-94.38
190.948	100.18
191.168	139.09
191.387	24.4
191.607	-16.55
191.826	40.79
192.045	20.31
192.265	24.4
192.484	48.98
192.704	-24.75
192.923	75.6
193.142	85.84
193.362	42.84
193.581	79.7
193.8	48.98
194.02	40.79
194.239	-14.51
194.458	81.75
194.678	20.31
194.897	71.51
195.116	-12.46
195.335	55.12
195.555	14.17
195.774	20.31
195.993	61.27
196.212	-8.36
196.432	-18.6
196.651	77.65
196.87	89.94
197.089	89.94
197.308	75.6
197.528	77.65
197.747	10.07
197.966	30.55
198.185	8.02
198.404	44.88
198.623	14.17
198.842	22.36
199.062	51.03
199.281	81.75
199.5	14.17
199.719	71.51
199.938	85.84
200.157	-8.36
200.376	65.36
200.595	30.55
200.814	42.84
201.033	51.03
201.252	67.41
201.471	100.18
201.69	-0.17
201.909	18.26
202.128	26.45
202.347	53.08
202.566	-8.36
202.785	-2.22
203.004	-49.32
203.223	51.03
203.442	-8.36
203.661	-24.75
203.879	26.45
204.098	77.65
204.317	22.36
204.536	22.36
204.755	-2.22
204.974	1.88
205.193	22.36
205.411	81.75
205.63	100.18
205.849	26.45
206.068	22.36
206.287	20.31
206.505	83.8
206.724	-4.27
206.943	61.27
207.162	20.31
207.381	12.12
207.599	8.02
207.818	-0.17
208.037	1.88
208.255	24.4
208.474	108.37
208.693	94.04
208.911	-20.65
209.13	10.07
209.349	32.6
209.567	89.94
209.786	32.6
210.005	-0.17
210.223	-2.22
210.442	-30.89
210.661	-6.31
210.879	51.03
211.098	91.99
211.316	57.17
211.535	48.98
211.753	73.56
211.972	69.46
212.191	65.36
212.409	12.12
212.628	85.84
212.846	8.02
213.065	14.17
213.283	55.12
213.502	59.22
213.72	34.64
213.938	36.69
214.157	3.93
214.375	34.64
214.594	81.75
214.812	-10.41
215.031	57.17
215.249	28.5
215.467	12.12
215.686	96.08
215.904	1.88
216.122	51.03
216.341	130.9
216.559	-8.36
216.778	36.69
216.996	14.17
217.214	28.5
217.432	63.32
217.651	-53.42
217.869	73.56
218.087	1.88
218.306	51.03
218.524	8.02
218.742	20.31
218.96	32.6
219.179	42.84
219.397	24.4
219.615	18.26
219.833	-0.17
220.051	89.94
220.27	139.09
220.488	48.98
220.706	-34.99
220.924	55.12
221.142	38.74
221.36	-51.37
221.578	20.31
221.796	51.03
222.015	1.88
222.233	61.27
222.451	8.02
222.669	22.36
222.887	55.12
223.105	51.03
223.323	46.93
223.541	-65.71
223.759	89.94
223.977	-12.46
224.195	-0.17
224.413	67.41
224.631	12.12
224.849	-0.17
225.067	81.75
225.285	18.26
225.503	-53.42
225.721	16.21
225.939	38.74
226.157	42.84
226.375	100.18
226.592	-6.31
226.81	28.5
227.028	81.75
227.246	22.36
227.464	48.98
227.682	59.22
227.9	-2.22
228.117	8.02
228.335	5.97
228.553	57.17
228.771	24.4
228.989	75.6
229.206	122.71
229.424	81.75
229.642	-14.51
229.86	91.99
230.077	44.88
230.295	-73.9
230.513	24.4
230.731	38.74
230.948	10.07
231.166	20.31
231.384	16.21
231.601	34.64
231.819	10.07
232.037	79.7
232.254	3.93
232.472	30.55
232.689	16.21
232.907	18.26
233.125	34.64
233.342	3.93
233.56	57.17
233.777	3.93
233.995	51.03
234.213	42.84
234.43	16.21
234.648	55.12
234.865	-37.03
235.083	65.36
235.3	-12.46
235.518	73.56
235.735	59.22
235.953	42.84
236.17	16.21
236.388	48.98
236.605	18.26
236.822	100.18
237.04	73.56
237.257	-4.27
237.475	22.36
237.692	110.42
237.909	61.27
238.127	73.56
238.344	-8.36
238.562	28.5
238.779	3.93
238.996	-37.03
239.214	-4.27
239.431	55.12
239.648	59.22
239.865	48.98
240.083	44.88
240.3	-2.22
240.517	-8.36
240.735	-24.75
240.952	-28.84
241.169	34.64
241.386	77.65
241.603	89.94
241.821	61.27
242.038	100.18
242.255	110.42
242.472	-45.23
242.689	36.69
242.907	-28.84
243.124	57.17
243.341	-8.36
243.558	1.88
243.775	8.02
243.992	-10.41
244.209	38.74
244.426	57.17
244.643	18.26
244.86	10.07
245.078	26.45
245.295	81.75
245.512	46.93
245.729	36.69
245.946	69.46
246.163	-45.23
246.38	63.32
246.597	-12.46
246.814	112.47
247.031	51.03
247.248	26.45
247.464	-0.17
247.681	63.32
247.898	118.61
248.115	122.71
248.332	10.07
248.549	128.85
248.766	61.27
248.983	46.93
249.2	65.36
249.417	51.03
249.633	8.02
249.85	42.84
250.067	26.45
250.284	81.75
250.501	67.41
250.717	40.79
250.934	8.02
251.151	30.55
251.368	-22.7
251.585	53.08
251.801	83.8
252.018	8.02
252.235	42.84
252.451	59.22
252.668	65.36
252.885	79.7
253.102	51.03
253.318	16.21
253.535	-0.17
253.752	-14.51
253.968	-32.94
254.185	-2.22
254.401	14.17
254.618	-6.31
254.835	59.22
255.051	128.85
255.268	10.07
255.484	40.79
255.701	59.22
255.917	26.45
256.134	-4.27
256.351	53.08
256.567	16.21
256.784	57.17
257	3.93
257.217	104.28
257.433	40.79
257.65	71.51
257.866	46.93
258.082	-32.94
258.299	44.88
258.515	104.28
258.732	28.5
258.948	1.88
259.165	87.89
259.381	44.88
259.597	75.6
259.814	14.17
260.03	100.18
260.246	-22.7
260.463	55.12
260.679	143.19
260.895	34.64
261.112	36.69
261.328	32.6
261.544	12.12
261.761	102.23
261.977	28.5
262.193	3.93
262.409	69.46
262.626	110.42
262.842	91.99
263.058	3.93
263.274	36.69
263.49	32.6
263.707	67.41
263.923	-18.6
264.139	3.93
264.355	75.6
264.571	40.79
264.787	18.26
265.004	104.28
265.22	67.41
265.436	81.75
265.652	-4.27
265.868	79.7
266.084	-16.55
266.3	-24.75
266.516	26.45
266.732	-2.22
266.948	3.93
267.164	77.65
267.38	75.6
267.596	98.13
267.812	42.84
268.028	61.27
268.244	42.84
268.46	116.56
268.676	26.45
268.892	40.79
269.108	75.6
269.324	1.88
269.54	-12.46
269.756	53.08
269.972	46.93
270.188	34.64
270.403	36.69
270.619	108.37
270.835	77.65
271.051	63.32
271.267	48.98
271.483	-0.17
271.698	-8.36
271.914	128.85
272.13	89.94
272.346	22.36
272.562	12.12
272.777	112.47
272.993	65.36
273.209	-43.18
273.425	85.84
273.64	-34.99
273.856	108.37
274.072	10.07
274.287	71.51
274.503	48.98
274.719	32.6
274.934	5.97
275.15	-8.36
275.366	42.84
275.581	22.36
275.797	28.5
276.012	20.31
276.228	-30.89
276.444	5.97
276.659	28.5
276.875	14.17
277.09	-65.71
277.306	40.79
277.521	73.56
277.737	57.17
277.952	10.07
278.168	38.74
278.383	40.79
278.599	8.02
278.814	48.98
279.03	28.5
279.245	32.6
279.461	32.6
279.676	63.32
279.892	-82.09
280.107	20.31
280.322	-8.36
280.538	20.31
280.753	-37.03
280.969	40.79
281.184	65.36
281.399	40.79
281.615	61.27
281.83	73.56
282.045	16.21
282.26	34.64
282.476	81.75
282.691	46.93
282.906	85.84
283.122	12.12
283.337	44.88
283.552	135
283.767	28.5
283.983	18.26
284.198	-14.51
284.413	53.08
284.628	16.21
284.843	75.6
285.058	36.69
285.274	55.12
285.489	-0.17
285.704	18.26
285.919	48.98
286.134	51.03
286.349	5.97
286.564	10.07
286.779	44.88
286.995	75.6
287.21	44.88
287.425	53.08
287.64	-8.36
287.855	28.5
288.07	20.31
288.285	32.6
288.5	81.75
288.715	87.89
288.93	51.03
289.145	-8.36
289.36	24.4
289.575	38.74
289.79	40.79
290.004	55.12
290.219	8.02
290.434	26.45
290.649	-10.41
290.864	67.41
291.079	30.55
291.294	28.5
291.509	8.02
291.724	32.6
291.938	53.08
292.153	48.98
292.368	-6.31
292.583	59.22
292.798	51.03
293.012	79.7
293.227	55.12
293.442	77.65
293.657	81.75
293.871	-10.41
294.086	63.32
294.301	112.47
294.516	-14.51
294.73	-10.41
294.945	-67.75
295.16	12.12
295.374	63.32
295.589	75.6
295.804	5.97
296.018	53.08
296.233	5.97
296.447	85.84
296.662	-20.65
296.877	48.98
297.091	-32.94
297.306	42.84
297.52	53.08
297.735	14.17
297.949	61.27
298.164	24.4
298.378	46.93
298.593	-18.6
298.807	-6.31
299.022	-18.6
299.236	53.08
299.451	63.32
299.665	12.12
299.88	24.4
300.094	106.32
300.309	67.41
300.523	98.13
300.737	24.4
300.952	96.08
301.166	24.4
301.381	57.17
301.595	42.84
301.809	53.08
302.024	-39.08
302.238	-12.46
302.452	135
302.667	22.36
302.881	89.94
303.095	75.6
303.309	61.27
303.524	61.27
303.738	46.93
303.952	8.02
304.166	8.02
304.381	36.69
304.595	79.7
304.809	3.93
305.023	69.46
305.237	34.64
305.452	40.79
305.666	51.03
305.88	42.84
306.094	100.18
306.308	81.75
306.522	28.5
306.736	-14.51
306.95	18.26
307.164	24.4
307.379	-16.55
307.593	100.18
307.807	36.69
308.021	51.03
308.235	53.08
308.449	53.08
308.663	57.17
308.877	61.27
309.091	100.18
309.305	91.99
309.519	1.88
309.733	79.7
309.947	81.75
310.161	44.88
310.374	61.27
310.588	40.79
310.802	44.88
311.016	30.55
311.23	77.65
311.444	14.17
311.658	36.69
311.872	1.88
312.085	30.55
312.299	59.22
312.513	10.07
312.727	36.69
312.941	28.5
313.154	85.84
313.368	32.6
313.582	51.03
313.796	83.8
314.009	-26.79
314.223	67.41
314.437	36.69
314.651	53.08
314.864	44.88
315.078	-30.89
315.292	34.64
315.505	-8.36
315.719	83.8
315.933	69.46
316.146	-12.46
316.36	73.56
316.573	36.69
316.787	38.74
317.001	40.79
317.214	36.69
317.428	94.04
317.641	69.46
317.855	28.5
318.068	24.4
318.282	34.64
318.495	65.36
318.709	-2.22
318.922	98.13
319.136	42.84
319.349	34.64
319.563	-4.27
319.776	94.04
319.99	42.84
320.203	30.55
320.417	57.17
320.63	32.6
320.843	96.08
321.057	120.66
321.27	24.4
321.483	77.65
321.697	126.8
321.91	53.08
322.124	24.4
322.337	24.4
322.55	24.4
322.763	12.12
322.977	42.84
323.19	32.6
323.403	44.88
323.617	-24.75
323.83	26.45
324.043	67.41
324.256	94.04
324.469	-30.89
324.683	161.62
324.896	81.75
325.109	94.04
325.322	-14.51
325.535	77.65
325.748	83.8
325.962	22.36
326.175	5.97
326.388	-8.36
326.601	5.97
326.814	30.55
327.027	126.8
327.24	-6.31
327.453	24.4
327.666	48.98
327.879	3.93
328.092	44.88
328.305	-0.17
328.518	69.46
328.731	-32.94
328.944	83.8
329.157	48.98
329.37	98.13
329.583	51.03
329.796	73.56
330.009	24.4
330.222	26.45
330.435	79.7
330.648	69.46
330.861	55.12
331.073	3.93
331.286	69.46
331.499	40.79
331.712	55.12
331.925	61.27
332.138	22.36
332.35	32.6
332.563	71.51
332.776	36.69
332.989	85.84
333.202	28.5
333.414	32.6
333.627	59.22
333.84	100.18
334.053	79.7
334.265	34.64
334.478	46.93
334.691	8.02
334.903	98.13
335.116	-2.22
335.329	26.45
335.541	-8.36
335.754	89.94
335.966	132.95
336.179	87.89
336.392	20.31
336.604	40.79
336.817	24.4
337.029	61.27
337.242	16.21
337.454	3.93
337.667	12.12
337.88	42.84
338.092	55.12
338.305	32.6
338.517	61.27
338.729	51.03
338.942	20.31
339.154	73.56
339.367	28.5
339.579	73.56
339.792	34.64
340.004	51.03
340.217	122.71
340.429	20.31
340.641	40.79
340.854	42.84
341.066	104.28
341.278	36.69
341.491	20.31
341.703	5.97
341.915	14.17
342.128	98.13
342.34	18.26
342.552	94.04
342.764	71.51
342.977	22.36
343.189	48.98
343.401	51.03
343.613	46.93
343.826	71.51
344.038	94.04
344.25	85.84
344.462	-4.27
344.674	65.36
344.886	40.79
345.099	67.41
345.311	81.75
345.523	79.7
345.735	-26.79
345.947	139.09
346.159	42.84
346.371	20.31
346.583	16.21
346.795	96.08
347.007	20.31
347.219	40.79
347.431	36.69
347.643	110.42
347.855	63.32
348.067	32.6
348.279	42.84
348.491	-16.55
348.703	85.84
348.915	20.31
349.127	5.97
349.339	55.12
349.551	36.69
349.763	-12.46
349.975	42.84
350.187	69.46
350.399	63.32
350.61	83.8
350.822	8.02
351.034	89.94
351.246	112.47
351.458	8.02
351.669	75.6
351.881	55.12
352.093	69.46
352.305	110.42
352.517	18.26
352.728	48.98
352.94	8.02
353.152	87.89
353.363	36.69
353.575	48.98
353.787	83.8
353.999	67.41
354.21	32.6
354.422	73.56
354.633	55.12
354.845	30.55
355.057	-4.27
355.268	116.56
355.48	26.45
355.692	77.65
355.903	-16.55
356.115	22.36
356.326	12.12
356.538	57.17
356.749	-4.27
356.961	100.18
357.172	108.37
357.384	100.18
357.595	53.08
357.807	75.6
358.018	48.98
358.23	26.45
358.441	32.6
358.653	30.55
358.864	14.17
359.075	61.27
359.287	36.69
359.498	130.9
359.709	112.47
359.921	36.69
360.132	73.56
360.344	32.6
360.555	36.69
360.766	48.98
360.977	26.45
361.189	71.51
361.4	81.75
361.611	83.8
361.823	44.88
362.034	-10.41
362.245	28.5
362.456	44.88
362.667	69.46
362.879	-2.22
363.09	159.57
363.301	57.17
363.512	102.23
363.723	44.88
363.935	24.4
364.146	55.12
364.357	67.41
364.568	53.08
364.779	28.5
364.99	94.04
365.201	42.84
365.412	100.18
365.623	55.12
365.834	53.08
366.045	96.08
366.256	77.65
366.467	24.4
366.678	-16.55
366.889	20.31
367.1	110.42
367.311	73.56
367.522	65.36
367.733	69.46
367.944	69.46
368.155	-16.55
368.366	132.95
368.577	22.36
368.788	81.75
368.999	28.5
369.209	42.84
369.42	-30.89
369.631	118.61
369.842	40.79
370.053	57.17
370.264	36.69
370.474	71.51
370.685	87.89
370.896	81.75
371.107	12.12
371.317	94.04
371.528	59.22
371.739	51.03
371.95	69.46
372.16	87.89
372.371	85.84
372.582	61.27
372.792	94.04
373.003	22.36
373.214	22.36
373.424	100.18
373.635	34.64
373.846	98.13
374.056	122.71
374.267	51.03
374.477	124.76
374.688	85.84
374.898	61.27
375.109	81.75
375.319	-14.51
375.53	22.36
375.74	48.98
375.951	-37.03
376.161	89.94
376.372	77.65
376.582	135
376.793	40.79
377.003	53.08
377.214	8.02
377.424	44.88
377.635	63.32
377.845	3.93
378.055	83.8
378.266	-4.27
378.476	51.03
378.686	46.93
378.897	110.42
379.107	85.84
379.317	26.45
379.528	18.26
379.738	75.6
379.948	51.03
380.158	114.52
380.369	46.93
380.579	73.56
380.789	24.4
380.999	96.08
381.21	-6.31
381.42	55.12
381.63	108.37
381.84	110.42
382.05	102.23
382.261	81.75
382.471	81.75
382.681	63.32
382.891	112.47
383.101	63.32
383.311	12.12
383.521	63.32
383.731	57.17
383.941	91.99
384.151	12.12
384.361	44.88
384.571	85.84
384.781	14.17
384.991	96.08
385.201	89.94
385.411	94.04
385.621	38.74
385.831	51.03
386.041	48.98
386.251	75.6
386.461	79.7
386.671	63.32
386.881	91.99
387.091	94.04
387.301	137.04
387.511	63.32
387.72	32.6
387.93	77.65
388.14	98.13
388.35	63.32
388.56	67.41
388.769	96.08
388.979	44.88
389.189	73.56
389.399	40.79
389.609	69.46
389.818	124.76
390.028	38.74
390.238	159.57
390.447	10.07
390.657	94.04
390.867	12.12
391.076	-45.23
391.286	96.08
391.496	59.22
391.705	114.52
391.915	151.38
392.125	53.08
392.334	16.21
392.544	75.6
392.753	28.5
392.963	77.65
393.172	57.17
393.382	14.17
393.591	83.8
393.801	32.6
394.01	75.6
394.22	79.7
394.429	53.08
394.639	81.75
394.848	128.85
395.058	36.69
395.267	53.08
395.477	20.31
395.686	38.74
395.895	122.71
396.105	124.76
396.314	81.75
396.524	77.65
396.733	26.45
396.942	110.42
397.152	67.41
397.361	98.13
397.57	100.18
397.78	79.7
397.989	149.33
398.198	96.08
398.407	77.65
398.617	122.71
398.826	30.55
399.035	118.61
399.244	167.76
399.453	157.52
399.663	57.17
399.872	100.18
400.081	100.18
400.29	46.93
400.499	75.6
400.708	114.52
400.917	71.51
401.127	81.75
401.336	85.84
401.545	118.61
401.754	108.37
401.963	130.9
402.172	126.8
402.381	65.36
402.59	155.47
402.799	100.18
403.008	46.93
403.217	102.23
403.426	143.19
403.635	122.71
403.844	112.47
404.053	118.61
404.262	139.09
404.471	116.56
404.68	145.24
404.888	171.86
405.097	167.76
405.306	132.95
405.515	87.89
405.724	77.65
405.933	196.43
406.142	149.33
406.35	218.96
406.559	157.52
406.768	102.23
406.977	239.44
407.185	192.34
407.394	151.38
407.603	210.77
407.812	192.34
408.02	231.25
408.229	196.43
408.438	147.28
408.646	200.53
408.855	235.35
409.064	253.78
409.272	141.14
409.481	233.3
409.69	200.53
409.898	247.63
410.107	335.7
410.315	331.6
410.524	255.83
410.733	339.79
410.941	276.31
411.15	302.93
411.358	341.84
411.567	390.99
411.775	442.19
411.984	390.99
412.192	382.8
412.401	403.28
412.609	288.59
412.818	393.04
413.026	448.33
413.234	421.71
413.443	405.33
413.651	468.81
413.86	448.33
414.068	474.96
414.276	581.45
414.485	585.55
414.693	610.12
414.901	634.7
415.11	634.7
415.318	601.93
415.526	665.42
415.734	716.62
415.943	681.8
416.151	737.1
416.359	739.15
416.567	776.01
416.776	821.06
416.984	778.06
417.192	921.42
417.4	837.45
417.608	788.3
417.817	839.5
418.025	958.28
418.233	1072.96
418.441	1007.43
418.649	1048.39
418.857	1132.36
419.065	1103.68
419.273	1118.02
419.481	1173.32
419.689	1310.53
419.897	1288
420.105	1312.58
420.313	1394.5
420.521	1462.08
420.729	1392.45
420.937	1480.51
421.145	1535.81
421.353	1591.1
421.561	1634.11
421.769	1742.65
421.977	1910.58
422.185	1709.88
422.393	1748.79
422.601	1910.58
422.809	1888.06
423.017	2060.09
423.224	2017.08
423.432	2187.06
423.64	2182.96
423.848	2393.9
424.056	2365.23
424.263	2422.58
424.471	2465.58
424.679	2606.89
424.887	2570.03
425.094	2834.22
425.302	2703.15
425.51	2903.85
425.718	2909.99
425.925	2971.43
426.133	3082.02
426.341	3204.9
426.548	3469.09
426.756	3378.98
426.964	3364.64
427.171	3561.25
427.379	3598.11
427.586	3723.04
427.794	3954.46
428.001	4128.53
428.209	4151.06
428.417	4278.04
428.624	4599.57
428.832	4595.47
429.039	4484.88
429.247	4536.08
429.454	5011.21
429.662	5207.81
429.869	4945.67
430.076	5324.55
430.284	5054.22
430.491	5435.14
430.699	5752.57
430.906	5572.35
431.114	5666.56
431.321	5908.22
431.528	6016.76
431.736	6434.55
431.943	6602.48
432.15	6409.97
432.358	6338.29
432.565	7038.7
432.772	6936.3
432.979	7245.54
433.187	7519.97
433.394	7499.49
433.601	7972.57
433.808	7933.66
434.016	8023.77
434.223	8316.63
434.43	8652.5
434.637	8509.14
434.844	9012.94
435.052	9320.14
435.259	9275.08
435.466	9074.38
435.673	9297.61
435.88	9830.08
436.087	10446.52
436.294	10411.7
436.501	10088.12
436.708	10340.02
436.915	10729.14
437.122	11222.7
437.329	10976.94
437.537	11427.49
437.743	11529.89
437.95	11607.72
438.157	11988.64
438.364	12623.51
438.571	12314.27
438.778	12490.39
438.985	13667.97
439.192	13160.08
439.399	13713.03
439.606	13158.03
439.813	14071.42
440.02	14892.66
440.227	14835.31
440.433	14603.89
440.64	15054.45
440.847	14911.09
441.054	15113.84
441.261	16359
441.467	16135.78
441.674	16500.31
441.881	16967.25
442.088	16963.15
442.294	17024.59
442.501	17251.92
442.708	17604.17
442.914	18216.51
443.121	19244.59
443.328	18783.8
443.534	19781.16
443.741	19281.46
443.948	19070.51
444.154	20481.56
444.361	20248.1
444.568	20530.72
444.774	20282.91
444.981	20950.55
445.187	21118.48
445.394	22058.5
445.6	22054.4
445.807	24155.62
446.013	22857.21
446.22	23285.23
446.426	24526.3
446.633	24421.86
446.839	25445.84
447.046	24161.76
447.252	25843.15
447.459	25511.38
447.665	25400.79
447.871	26627.52
448.078	27665.84
448.284	26455.49
448.491	27116.98
448.697	28177.83
448.903	28704.16
449.11	28730.78
449.316	28040.62
449.522	28743.07
449.728	29668.75
449.935	29842.83
450.141	29652.37
450.347	30629.25
450.553	29492.63
450.76	29775.25
450.966	30594.43
451.172	30242.18
451.378	30954.88
451.584	30729.6
451.791	31051.13
451.997	31104.38
452.203	31657.33
452.409	31616.37
452.615	31817.07
452.821	30246.28
453.027	30023.05
453.233	31634.8
453.44	30045.58
453.646	30700.93
453.852	30944.64
454.058	30647.68
454.264	30143.88
454.47	30848.38
454.676	30027.15
454.882	31081.85
455.088	28259.75
455.294	28974.49
455.5	29121.94
455.705	29433.24
455.911	28235.17
456.117	27532.72
456.323	27284.92
456.529	25884.11
456.735	26850.75
456.941	26398.15
457.147	25705.93
457.352	25034.2
457.558	24763.87
457.764	24741.34
457.97	24530.4
458.176	23920.1
458.381	23662.06
458.587	22576.64
458.793	22691.32
458.999	21384.72
459.204	23090.68
459.41	22392.32
459.616	21100.05
459.821	20889.11
460.027	21032.47
460.233	20303.39
460.438	19641.9
460.644	19650.09
460.85	18615.87
461.055	18486.84
461.261	18415.16
461.466	17141.33
461.672	16381.53
461.878	17819.21
462.083	16531.03
462.289	16227.93
462.494	16082.53
462.7	15263.34
462.905	14724.72
463.111	15593.06
463.316	15328.88
463.522	15253.1
463.727	15285.87
463.932	15371.88
464.138	14993.01
464.343	15015.54
464.549	14841.46
464.754	15337.07
464.959	15216.24
465.165	14646.9
465.37	14335.61
465.575	14016.13
465.781	14577.27
465.986	14579.32
466.191	14071.42
466.397	13731.46
466.602	13438.6
466.807	13602.44
467.012	13688.45
467.218	13502.09
467.423	13307.53
467.628	13358.73
467.833	14028.42
468.038	13647.49
468.244	13022.86
468.449	13715.08
