Data from USB4F104151__189__11-09-49-161.txt Node

Date: Wed Mar 12 11:09:49 EDT 2025
User: louis
Spectrometer: USB4F10415
Trigger mode: 4
Integration Time (sec): 2.000000E-2
Scans to average: 1
Electric dark correction enabled: true
Nonlinearity correction enabled: false
Boxcar width: 0
XAxis mode: Wavelengths
Number of Pixels in Spectrum: 3648
>>>>>Begin Spectral Data<<<<<
178.204	-130.39
178.424	-130.39
178.644	-130.39
178.864	-107.86
179.084	-30.04
179.304	-54.61
179.524	-27.99
179.744	-5.46
179.964	39.59
180.184	21.16
180.404	-17.75
180.624	41.64
180.844	-17.75
181.064	-34.13
181.283	41.64
181.503	-7.51
181.723	21.16
181.943	-25.94
182.163	19.11
182.383	-27.99
182.602	10.92
182.822	-34.13
183.042	4.78
183.262	-3.41
183.482	-5.46
183.701	-25.94
183.921	0.68
184.141	-32.08
184.361	-1.37
184.58	-75.09
184.8	10.92
185.02	-107.86
185.239	-32.08
185.459	8.87
185.679	-32.08
185.898	-73.04
186.118	21.16
186.338	-46.42
186.557	17.07
186.777	-19.8
186.997	-21.85
187.216	-23.89
187.436	27.31
187.655	-5.46
187.875	53.93
188.095	51.88
188.314	86.7
188.534	82.6
188.753	41.64
188.973	-30.04
189.192	78.51
189.412	6.83
189.631	-3.41
189.851	-34.13
190.07	41.64
190.29	41.64
190.509	53.93
190.729	-36.18
190.948	-5.46
191.168	35.5
191.387	27.31
191.607	-46.42
191.826	-5.46
192.045	-23.89
192.265	-11.61
192.484	15.02
192.704	6.83
192.923	-44.37
193.142	-25.94
193.362	49.83
193.581	33.45
193.8	39.59
194.02	62.12
194.239	-17.75
194.458	21.16
194.678	37.55
194.897	31.4
195.116	8.87
195.335	37.55
195.555	-5.46
195.774	25.26
195.993	23.21
196.212	17.07
196.432	-40.28
196.651	-42.32
196.87	-9.56
197.089	27.31
197.308	51.88
197.528	-19.8
197.747	-62.8
197.966	12.97
198.185	74.41
198.404	-13.65
198.623	-11.61
198.842	45.74
199.062	12.97
199.281	25.26
199.5	107.18
199.719	19.11
199.938	27.31
200.157	21.16
200.376	33.45
200.595	-7.51
200.814	-13.65
201.033	-34.13
201.252	45.74
201.471	19.11
201.69	-3.41
201.909	-66.9
202.128	-3.41
202.347	51.88
202.566	-32.08
202.785	-130.39
203.004	17.07
203.223	41.64
203.442	-62.8
203.661	45.74
203.879	25.26
204.098	-17.75
204.317	-25.94
204.536	92.84
204.755	-64.85
204.974	43.69
205.193	-7.51
205.411	70.31
205.63	-5.46
205.849	-34.13
206.068	29.35
206.287	17.07
206.505	-9.56
206.724	-30.04
206.943	-50.52
207.162	-44.37
207.381	-46.42
207.599	-48.47
207.818	12.97
208.037	12.97
208.255	-3.41
208.474	39.59
208.693	41.64
208.911	60.07
209.13	4.78
209.349	-3.41
209.567	6.83
209.786	-5.46
210.005	-23.89
210.223	-11.61
210.442	-13.65
210.661	58.03
210.879	-11.61
211.098	-11.61
211.316	-56.66
211.535	53.93
211.753	-3.41
211.972	-9.56
212.191	-5.46
212.409	6.83
212.628	-1.37
212.846	-11.61
213.065	-36.18
213.283	49.83
213.502	-56.66
213.72	21.16
213.938	-15.7
214.157	17.07
214.375	43.69
214.594	-3.41
214.812	17.07
215.031	-1.37
215.249	17.07
215.467	-1.37
215.686	-3.41
215.904	45.74
216.122	-27.99
216.341	25.26
216.559	6.83
216.778	19.11
216.996	6.83
217.214	-32.08
217.432	31.4
217.651	-64.85
217.869	17.07
218.087	37.55
218.306	-11.61
218.524	41.64
218.742	-25.94
218.96	53.93
219.179	-66.9
219.397	98.99
219.615	35.5
219.833	35.5
220.051	-48.47
220.27	82.6
220.488	-5.46
220.706	-71
220.924	-13.65
221.142	51.88
221.36	10.92
221.578	-42.32
221.796	-30.04
222.015	-66.9
222.233	31.4
222.451	45.74
222.669	25.26
222.887	4.78
223.105	98.99
223.323	-30.04
223.541	-40.28
223.759	-9.56
223.977	31.4
224.195	-34.13
224.413	35.5
224.631	-19.8
224.849	-42.32
225.067	47.79
225.285	-32.08
225.503	15.02
225.721	19.11
225.939	17.07
226.157	41.64
226.375	119.46
226.592	-21.85
226.81	39.59
227.028	60.07
227.246	-25.94
227.464	33.45
227.682	23.21
227.9	-36.18
228.117	-11.61
228.335	-77.14
228.553	10.92
228.771	-46.42
228.989	15.02
229.206	29.35
229.424	-19.8
229.642	55.98
229.86	33.45
230.077	-81.24
230.295	-58.71
230.513	43.69
230.731	15.02
230.948	15.02
231.166	-19.8
231.384	-13.65
231.601	-68.95
231.819	68.27
232.037	-27.99
232.254	2.73
232.472	6.83
232.689	-40.28
232.907	2.73
233.125	-15.7
233.342	-11.61
233.56	-13.65
233.777	-50.52
233.995	72.36
234.213	-46.42
234.43	15.02
234.648	-48.47
234.865	-30.04
235.083	-27.99
235.3	-15.7
235.518	25.26
235.735	6.83
235.953	10.92
236.17	-58.71
236.388	55.98
236.605	45.74
236.822	53.93
237.04	2.73
237.257	8.87
237.475	-38.23
237.692	86.7
237.909	45.74
238.127	-64.85
238.344	-9.56
238.562	-3.41
238.779	-38.23
238.996	23.21
239.214	-68.95
239.431	33.45
239.648	-46.42
239.865	-5.46
240.083	41.64
240.3	33.45
240.517	-44.37
240.735	39.59
240.952	17.07
241.169	10.92
241.386	-23.89
241.603	78.51
241.821	21.16
242.038	-17.75
242.255	12.97
242.472	21.16
242.689	12.97
242.907	39.59
243.124	0.68
243.341	21.16
243.558	-46.42
243.775	-13.65
243.992	-46.42
244.209	27.31
244.426	41.64
244.643	113.32
244.86	12.97
245.078	23.21
245.295	19.11
245.512	2.73
245.729	8.87
245.946	60.07
246.163	-19.8
246.38	-17.75
246.597	-73.04
246.814	0.68
247.031	0.68
247.248	27.31
247.464	-5.46
247.681	-17.75
247.898	-13.65
248.115	25.26
248.332	-58.71
248.549	-23.89
248.766	35.5
248.983	21.16
249.2	43.69
249.417	-48.47
249.633	-85.33
249.85	-13.65
250.067	-11.61
250.284	-1.37
250.501	8.87
250.717	6.83
250.934	-17.75
251.151	2.73
251.368	-3.41
251.585	74.41
251.801	-73.04
252.018	55.98
252.235	-9.56
252.451	0.68
252.668	-30.04
252.885	27.31
253.102	29.35
253.318	-32.08
253.535	-66.9
253.752	21.16
253.968	-13.65
254.185	-77.14
254.401	-17.75
254.618	-19.8
254.835	-73.04
255.051	-21.85
255.268	12.97
255.484	0.68
255.701	4.78
255.917	45.74
256.134	70.31
256.351	6.83
256.567	-1.37
256.784	55.98
257	-38.23
257.217	-27.99
257.433	25.26
257.65	8.87
257.866	-7.51
258.082	58.03
258.299	37.55
258.515	53.93
258.732	70.31
258.948	-36.18
259.165	0.68
259.381	0.68
259.597	2.73
259.814	27.31
260.03	-62.8
260.246	-5.46
260.463	-5.46
260.679	-25.94
260.895	-11.61
261.112	-17.75
261.328	-44.37
261.544	41.64
261.761	29.35
261.977	-13.65
262.193	6.83
262.409	-27.99
262.626	15.02
262.842	21.16
263.058	-7.51
263.274	39.59
263.49	-19.8
263.707	51.88
263.923	41.64
264.139	21.16
264.355	-7.51
264.571	55.98
264.787	39.59
265.004	-9.56
265.22	-58.71
265.436	-5.46
265.652	33.45
265.868	-48.47
266.084	-46.42
266.3	72.36
266.516	-21.85
266.732	8.87
266.948	-23.89
267.164	-11.61
267.38	0.68
267.596	31.4
267.812	-25.94
268.028	2.73
268.244	-103.76
268.46	-54.61
268.676	33.45
268.892	4.78
269.108	10.92
269.324	-17.75
269.54	-87.38
269.756	31.4
269.972	-71
270.188	27.31
270.403	12.97
270.619	17.07
270.835	-7.51
271.051	8.87
271.267	-32.08
271.483	-38.23
271.698	-21.85
271.914	8.87
272.13	-13.65
272.346	8.87
272.562	0.68
272.777	31.4
272.993	-30.04
273.209	72.36
273.425	-38.23
273.64	-42.32
273.856	-11.61
274.072	19.11
274.287	-50.52
274.503	62.12
274.719	45.74
274.934	27.31
275.15	-40.28
275.366	21.16
275.581	-34.13
275.797	19.11
276.012	45.74
276.228	17.07
276.444	0.68
276.659	-13.65
276.875	-62.8
277.09	-3.41
277.306	-54.61
277.521	-66.9
277.737	27.31
277.952	-27.99
278.168	-27.99
278.383	37.55
278.599	15.02
278.814	-17.75
279.03	-73.04
279.245	-52.56
279.461	6.83
279.676	23.21
279.892	-25.94
280.107	-11.61
280.322	-11.61
280.538	-7.51
280.753	-36.18
280.969	6.83
281.184	29.35
281.399	74.41
281.615	53.93
281.83	35.5
282.045	-5.46
282.26	-21.85
282.476	-23.89
282.691	19.11
282.906	78.51
283.122	-58.71
283.337	39.59
283.552	-5.46
283.767	-23.89
283.983	23.21
284.198	31.4
284.413	51.88
284.628	-64.85
284.843	31.4
285.058	101.03
285.274	12.97
285.489	21.16
285.704	-32.08
285.919	-17.75
286.134	-21.85
286.349	-46.42
286.564	41.64
286.779	-11.61
286.995	2.73
287.21	-66.9
287.425	2.73
287.64	-30.04
287.855	-5.46
288.07	10.92
288.285	-25.94
288.5	-1.37
288.715	35.5
288.93	-7.51
289.145	-1.37
289.36	27.31
289.575	-38.23
289.79	-1.37
290.004	4.78
290.219	47.79
290.434	35.5
290.649	0.68
290.864	4.78
291.079	-79.19
291.294	-17.75
291.509	41.64
291.724	-34.13
291.938	-30.04
292.153	4.78
292.368	4.78
292.583	-56.66
292.798	80.55
293.012	-54.61
293.227	27.31
293.442	-30.04
293.657	-13.65
293.871	-3.41
294.086	-32.08
294.301	-25.94
294.516	27.31
294.73	17.07
294.945	53.93
295.16	27.31
295.374	82.6
295.589	55.98
295.804	-27.99
296.018	-9.56
296.233	35.5
296.447	35.5
296.662	-30.04
296.877	-44.37
297.091	-46.42
297.306	55.98
297.52	19.11
297.735	25.26
297.949	-1.37
298.164	6.83
298.378	10.92
298.593	12.97
298.807	43.69
299.022	-30.04
299.236	64.17
299.451	-66.9
299.665	-3.41
299.88	0.68
300.094	15.02
300.309	-9.56
300.523	21.16
300.737	60.07
300.952	6.83
301.166	-30.04
301.381	23.21
301.595	47.79
301.809	-13.65
302.024	35.5
302.238	-30.04
302.452	6.83
302.667	25.26
302.881	-52.56
303.095	45.74
303.309	45.74
303.524	-13.65
303.738	-17.75
303.952	10.92
304.166	10.92
304.381	35.5
304.595	-15.7
304.809	-68.95
305.023	101.03
305.237	-30.04
305.452	53.93
305.666	-46.42
305.88	-46.42
306.094	-23.89
306.308	-40.28
306.522	-34.13
306.736	0.68
306.95	27.31
307.164	21.16
307.379	-15.7
307.593	25.26
307.807	8.87
308.021	62.12
308.235	27.31
308.449	-44.37
308.663	-21.85
308.877	58.03
309.091	45.74
309.305	33.45
309.519	-5.46
309.733	-36.18
309.947	-73.04
310.161	-21.85
310.374	23.21
310.588	49.83
310.802	-7.51
311.016	49.83
311.23	86.7
311.444	60.07
311.658	19.11
311.872	-19.8
312.085	39.59
312.299	41.64
312.513	49.83
312.727	-5.46
312.941	-13.65
313.154	-19.8
313.368	-27.99
313.582	-5.46
313.796	31.4
314.009	55.98
314.223	76.46
314.437	-23.89
314.651	29.35
314.864	15.02
315.078	6.83
315.292	-7.51
315.505	21.16
315.719	-7.51
315.933	27.31
316.146	-34.13
316.36	-23.89
316.573	10.92
316.787	62.12
317.001	35.5
317.214	31.4
317.428	6.83
317.641	25.26
317.855	-25.94
318.068	-19.8
318.282	-34.13
318.495	35.5
318.709	29.35
318.922	-19.8
319.136	-71
319.349	23.21
319.563	-83.28
319.776	0.68
319.99	-50.52
320.203	2.73
320.417	-5.46
320.63	-7.51
320.843	27.31
321.057	-62.8
321.27	43.69
321.483	33.45
321.697	19.11
321.91	27.31
322.124	25.26
322.337	-23.89
322.55	-17.75
322.763	-30.04
322.977	-73.04
323.19	-30.04
323.403	-9.56
323.617	2.73
323.83	53.93
324.043	-42.32
324.256	19.11
324.469	21.16
324.683	15.02
324.896	15.02
325.109	55.98
325.322	-23.89
325.535	6.83
325.748	10.92
325.962	-19.8
326.175	-3.41
326.388	35.5
326.601	-3.41
326.814	49.83
327.027	58.03
327.24	70.31
327.453	4.78
327.666	66.22
327.879	25.26
328.092	-21.85
328.305	19.11
328.518	4.78
328.731	15.02
328.944	-1.37
329.157	-34.13
329.37	0.68
329.583	-36.18
329.796	25.26
330.009	27.31
330.222	10.92
330.435	23.21
330.648	29.35
330.861	-15.7
331.073	0.68
331.286	-1.37
331.499	23.21
331.712	-32.08
331.925	96.94
332.138	47.79
332.35	-34.13
332.563	-3.41
332.776	-25.94
332.989	-5.46
333.202	66.22
333.414	-11.61
333.627	-7.51
333.84	-64.85
334.053	80.55
334.265	23.21
334.478	15.02
334.691	25.26
334.903	-52.56
335.116	-5.46
335.329	-5.46
335.541	-7.51
335.754	80.55
335.966	-34.13
336.179	55.98
336.392	-42.32
336.604	51.88
336.817	-36.18
337.029	6.83
337.242	12.97
337.454	66.22
337.667	-38.23
337.88	6.83
338.092	58.03
338.305	2.73
338.517	19.11
338.729	53.93
338.942	82.6
339.154	-11.61
339.367	-44.37
339.579	43.69
339.792	-107.86
340.004	47.79
340.217	2.73
340.429	12.97
340.641	-34.13
340.854	17.07
341.066	-21.85
341.278	55.98
341.491	53.93
341.703	-30.04
341.915	-7.51
342.128	45.74
342.34	-27.99
342.552	-54.61
342.764	41.64
342.977	12.97
343.189	-34.13
343.401	105.13
343.613	15.02
343.826	98.99
344.038	-36.18
344.25	6.83
344.462	-25.94
344.674	33.45
344.886	49.83
345.099	-62.8
345.311	-19.8
345.523	0.68
345.735	-1.37
345.947	-17.75
346.159	-36.18
346.371	-48.47
346.583	68.27
346.795	72.36
347.007	-7.51
347.219	12.97
347.431	-17.75
347.643	58.03
347.855	-13.65
348.067	6.83
348.279	35.5
348.491	-25.94
348.703	47.79
348.915	23.21
349.127	-25.94
349.339	-52.56
349.551	35.5
349.763	47.79
349.975	53.93
350.187	37.55
350.399	2.73
350.61	92.84
350.822	15.02
351.034	23.21
351.246	-7.51
351.458	49.83
351.669	17.07
351.881	23.21
352.093	25.26
352.305	47.79
352.517	31.4
352.728	41.64
352.94	45.74
353.152	15.02
353.363	27.31
353.575	92.84
353.787	-13.65
353.999	21.16
354.21	-48.47
354.422	21.16
354.633	12.97
354.845	72.36
355.057	27.31
355.268	-42.32
355.48	-9.56
355.692	2.73
355.903	37.55
356.115	76.46
356.326	39.59
356.538	55.98
356.749	-5.46
356.961	74.41
357.172	68.27
357.384	15.02
357.595	64.17
357.807	12.97
358.018	8.87
358.23	39.59
358.441	86.7
358.653	-30.04
358.864	39.59
359.075	76.46
359.287	-17.75
359.498	47.79
359.709	-23.89
359.921	41.64
360.132	68.27
360.344	-44.37
360.555	-25.94
360.766	-25.94
360.977	8.87
361.189	51.88
361.4	-38.23
361.611	74.41
361.823	49.83
362.034	10.92
362.245	-36.18
362.456	10.92
362.667	41.64
362.879	-3.41
363.09	-30.04
363.301	19.11
363.512	23.21
363.723	-13.65
363.935	-27.99
364.146	45.74
364.357	-42.32
364.568	35.5
364.779	-38.23
364.99	55.98
365.201	-30.04
365.412	45.74
365.623	-30.04
365.834	64.17
366.045	-19.8
366.256	107.18
366.467	2.73
366.678	2.73
366.889	-3.41
367.1	-7.51
367.311	49.83
367.522	-64.85
367.733	6.83
367.944	-3.41
368.155	-25.94
368.366	10.92
368.577	-50.52
368.788	80.55
368.999	-7.51
369.209	15.02
369.42	31.4
369.631	27.31
369.842	-32.08
370.053	-9.56
370.264	43.69
370.474	31.4
370.685	47.79
370.896	10.92
371.107	41.64
371.317	47.79
371.528	8.87
371.739	43.69
371.95	6.83
372.16	25.26
372.371	-1.37
372.582	-32.08
372.792	-42.32
373.003	27.31
373.214	72.36
373.424	47.79
373.635	66.22
373.846	-9.56
374.056	-13.65
374.267	-11.61
374.477	55.98
374.688	19.11
374.898	10.92
375.109	-32.08
375.319	17.07
375.53	-44.37
375.74	-34.13
375.951	43.69
376.161	19.11
376.372	-11.61
376.582	-23.89
376.793	-13.65
377.003	10.92
377.214	49.83
377.424	0.68
377.635	-21.85
377.845	-95.57
378.055	39.59
378.266	-58.71
378.476	62.12
378.686	64.17
378.897	-9.56
379.107	49.83
379.317	53.93
379.528	62.12
379.738	27.31
379.948	-50.52
380.158	29.35
380.369	-17.75
380.579	-9.56
380.789	-1.37
380.999	-42.32
381.21	58.03
381.42	84.65
381.63	-7.51
381.84	4.78
382.05	-3.41
382.261	23.21
382.471	55.98
382.681	-7.51
382.891	2.73
383.101	-25.94
383.311	-30.04
383.521	-9.56
383.731	-5.46
383.941	80.55
384.151	58.03
384.361	-27.99
384.571	-17.75
384.781	23.21
384.991	49.83
385.201	60.07
385.411	-50.52
385.621	10.92
385.831	-11.61
386.041	60.07
386.251	6.83
386.461	74.41
386.671	-66.9
386.881	123.56
387.091	-34.13
387.301	27.31
387.511	0.68
387.72	37.55
387.93	6.83
388.14	23.21
388.35	19.11
388.56	-5.46
388.769	-17.75
388.979	-36.18
389.189	-5.46
389.399	53.93
389.609	76.46
389.818	27.31
390.028	45.74
390.238	-62.8
390.447	64.17
390.657	88.75
390.867	0.68
391.076	64.17
391.286	15.02
391.496	-13.65
391.705	60.07
391.915	47.79
392.125	-17.75
392.334	-103.76
392.544	68.27
392.753	-3.41
392.963	-32.08
393.172	-7.51
393.382	-34.13
393.591	19.11
393.801	41.64
394.01	64.17
394.22	27.31
394.429	80.55
394.639	98.99
394.848	41.64
395.058	-42.32
395.267	45.74
395.477	39.59
395.686	27.31
395.895	84.65
396.105	21.16
396.314	41.64
396.524	2.73
396.733	-9.56
396.942	27.31
397.152	-9.56
397.361	90.79
397.57	27.31
397.78	78.51
397.989	-83.28
398.198	92.84
398.407	35.5
398.617	6.83
398.826	35.5
399.035	84.65
399.244	78.51
399.453	19.11
399.663	0.68
399.872	19.11
400.081	76.46
400.29	78.51
400.499	8.87
400.708	0.68
400.917	58.03
401.127	64.17
401.336	51.88
401.545	19.11
401.754	66.22
401.963	4.78
402.172	-1.37
402.381	23.21
402.59	41.64
402.799	39.59
403.008	86.7
403.217	101.03
403.426	12.97
403.635	103.08
403.844	35.5
404.053	111.27
404.262	29.35
404.471	103.08
404.68	64.17
404.888	86.7
405.097	-3.41
405.306	68.27
405.515	115.37
405.724	137.9
405.933	80.55
406.142	78.51
406.35	82.6
406.559	84.65
406.768	60.07
406.977	121.51
407.185	146.09
407.394	98.99
407.603	82.6
407.812	62.12
408.02	98.99
408.229	168.62
408.438	129.7
408.646	172.71
408.855	94.89
409.064	174.76
409.272	109.22
409.481	191.14
409.69	101.03
409.898	160.42
410.107	117.42
410.315	240.29
410.524	90.79
410.733	195.24
410.941	125.61
411.15	203.43
411.358	197.29
411.567	191.14
411.775	232.1
411.984	244.39
412.192	178.86
412.401	174.76
412.609	260.77
412.818	228.01
413.026	287.4
413.234	250.53
413.443	277.16
413.651	248.49
413.86	318.12
414.068	375.46
414.276	303.78
414.485	277.16
414.693	348.84
414.901	443.04
415.11	354.98
415.318	336.55
415.526	381.6
415.734	389.8
415.943	426.66
416.151	430.76
416.359	410.28
416.567	424.61
416.776	424.61
416.984	502.43
417.192	516.77
417.4	459.43
417.608	451.24
417.817	565.92
418.025	627.36
418.233	653.98
418.441	551.59
418.649	625.31
418.857	637.6
419.065	709.28
419.273	692.9
419.481	647.84
419.689	844.45
419.897	772.77
420.105	776.86
420.313	760.48
420.521	854.69
420.729	793.25
420.937	875.17
421.145	946.84
421.353	832.16
421.561	1024.67
421.769	983.71
421.977	1086.11
422.185	1045.15
422.393	1106.59
422.601	1172.12
422.809	1172.12
423.017	1225.37
423.224	1221.27
423.432	1313.43
423.64	1280.66
423.848	1426.07
424.056	1331.86
424.263	1514.13
424.471	1440.4
424.679	1481.36
424.887	1712.78
425.094	1669.78
425.302	1694.35
425.51	1817.23
425.718	1809.04
425.925	1870.48
426.133	1811.09
426.341	1913.49
426.548	2146.95
426.756	2081.42
426.964	2124.43
427.171	2214.54
427.379	2292.36
427.586	2325.13
427.794	2419.33
428.001	2384.52
428.209	2505.35
428.417	2566.79
428.624	2685.57
428.832	2755.2
429.039	2742.91
429.247	2800.26
429.454	2992.76
429.662	3127.93
429.869	3013.24
430.076	3277.43
430.284	3177.08
430.491	3256.95
430.699	3390.07
430.906	3422.84
431.114	3449.46
431.321	3482.23
431.528	3691.12
431.736	3863.15
431.943	4092.52
432.15	3824.24
432.358	4049.52
432.565	4074.09
432.772	4164.2
432.979	4373.1
433.187	4508.26
433.394	4643.43
433.601	4784.74
433.808	4823.65
434.016	4803.17
434.223	4940.38
434.43	5263.96
434.637	5194.33
434.844	5470.81
435.052	5593.69
435.259	5392.98
435.466	5501.53
435.673	5591.64
435.88	5884.5
436.087	6224.46
436.294	6226.51
436.501	6193.74
436.708	6160.97
436.915	6459.98
437.122	6849.09
437.329	6644.29
437.537	6820.42
437.743	7164.48
437.95	6822.47
438.157	7240.25
438.364	7615.03
438.571	7649.85
438.778	7410.23
438.985	8268.33
439.192	7973.42
439.399	8174.13
439.606	7932.47
439.813	8376.87
440.02	8974.88
440.227	8852
440.433	8626.73
440.64	9194.01
440.847	8880.68
441.054	9181.73
441.261	9888.28
441.467	9562.65
441.674	9904.66
441.881	10205.71
442.088	10220.05
442.294	10005.01
442.501	10367.5
442.708	10541.58
442.914	11180.54
443.121	11473.4
443.328	11305.47
443.534	12020.21
443.741	11442.68
443.948	11465.21
444.154	12302.83
444.361	12114.42
444.568	12143.09
444.774	12132.85
444.981	12421.61
445.187	12655.08
445.394	13171.17
445.6	13046.24
445.807	14399.95
446.013	13763.03
446.22	13769.18
446.426	14569.93
446.633	14586.32
446.839	15120.84
447.046	14402
447.252	15389.12
447.459	15487.42
447.665	15282.63
447.871	16146.87
448.078	16519.6
448.284	15788.47
448.491	16134.58
448.697	16988.58
448.903	17174.95
449.11	17195.43
449.316	16617.9
449.522	16992.68
449.728	17574.3
449.935	17828.25
450.141	17623.45
450.347	18166.17
450.553	17482.14
450.76	17707.42
450.966	18456.98
451.172	18215.32
451.378	18440.59
451.584	18299.28
451.791	18907.53
451.997	18758.03
452.203	18936.2
452.409	18710.93
452.615	18571.66
452.821	17822.11
453.027	17848.73
453.233	18913.67
453.44	17826.2
453.646	18004.38
453.852	18069.91
454.058	18602.38
454.264	17770.91
454.47	18436.5
454.676	17930.65
454.882	18450.83
455.088	16818.6
455.294	16961.96
455.5	17353.12
455.705	17473.95
455.911	16830.89
456.117	16322.99
456.323	16249.27
456.529	15208.9
456.735	15966.65
456.941	15249.86
457.147	15356.35
457.352	14858.7
457.558	14868.94
457.764	14905.8
457.97	14311.89
458.176	14141.91
458.381	13965.78
458.587	13580.76
458.793	13548
458.999	12831.21
459.204	13584.86
459.41	13267.42
459.616	12542.44
459.821	12495.34
460.027	12331.5
460.233	12048.88
460.438	11325.95
460.644	11502.08
460.85	11063.81
461.055	10936.84
461.261	10906.12
461.466	10136.08
461.672	9685.53
461.878	10527.24
462.083	9630.23
462.289	9628.18
462.494	9538.07
462.7	8972.83
462.905	8888.87
463.111	9286.17
463.316	9179.68
463.522	9081.38
463.727	9058.85
463.932	9007.65
464.138	8942.11
464.343	8944.16
464.549	8555.05
464.754	8974.88
464.959	8790.56
465.165	8872.48
465.37	8514.09
465.575	8331.82
465.781	8639.01
465.986	8706.6
466.191	8176.17
466.397	8036.91
466.602	7780.92
466.807	8038.96
467.012	8006.19
467.218	8069.68
