Data from USB4F104151__190__11-09-49-821.txt Node

Date: Wed Mar 12 11:09:49 EDT 2025
User: louis
Spectrometer: USB4F10415
Trigger mode: 4
Integration Time (sec): 2.000000E-2
Scans to average: 1
Electric dark correction enabled: true
Nonlinearity correction enabled: false
Boxcar width: 0
XAxis mode: Wavelengths
Number of Pixels in Spectrum: 3648
>>>>>Begin Spectral Data<<<<<
178.204	-33.79
178.424	-33.79
178.644	-33.79
178.864	-72.7
179.084	-125.95
179.304	-29.7
179.524	54.27
179.744	-37.89
179.964	78.85
180.184	-111.61
180.404	50.18
180.624	-56.32
180.844	54.27
181.064	-41.98
181.283	15.36
181.503	-9.22
181.723	33.79
181.943	-23.55
182.163	19.46
182.383	-5.12
182.602	-19.46
182.822	46.08
183.042	3.07
183.262	-101.37
183.482	19.46
183.701	-5.12
183.921	29.7
184.141	-23.55
184.361	70.65
184.58	39.94
184.8	29.7
185.02	60.42
185.239	35.84
185.459	-19.46
185.679	-11.26
185.898	29.7
186.118	5.12
186.338	5.12
186.557	13.31
186.777	54.27
186.997	33.79
187.216	17.41
187.436	46.08
187.655	44.03
187.875	21.5
188.095	31.74
188.314	29.7
188.534	52.22
188.753	-48.13
188.973	27.65
189.192	115.71
189.412	-58.37
189.631	-21.5
189.851	19.46
190.07	25.6
190.29	-13.31
190.509	-52.22
190.729	-21.5
190.948	103.42
191.168	95.23
191.387	19.46
191.607	-70.65
191.826	-27.65
192.045	-44.03
192.265	17.41
192.484	-13.31
192.704	3.07
192.923	17.41
193.142	9.22
193.362	-52.22
193.581	56.32
193.8	-23.55
194.02	15.36
194.239	-21.5
194.458	48.13
194.678	78.85
194.897	9.22
195.116	-5.12
195.335	-25.6
195.555	19.46
195.774	-19.46
195.993	35.84
196.212	-64.51
196.432	-44.03
196.651	-13.31
196.87	1.02
197.089	84.99
197.308	31.74
197.528	19.46
197.747	41.98
197.966	17.41
198.185	46.08
198.404	23.55
198.623	-60.42
198.842	-54.27
199.062	1.02
199.281	-9.22
199.5	-3.07
199.719	72.7
199.938	-54.27
200.157	-37.89
200.376	29.7
200.595	-13.31
200.814	31.74
201.033	-27.65
201.252	39.94
201.471	91.13
201.69	99.33
201.909	-31.74
202.128	3.07
202.347	37.89
202.566	29.7
202.785	33.79
203.004	-25.6
203.223	29.7
203.442	17.41
203.661	-17.41
203.879	-39.94
204.098	-15.36
204.317	37.89
204.536	15.36
204.755	89.09
204.974	-13.31
205.193	27.65
205.411	113.66
205.63	-52.22
205.849	5.12
206.068	48.13
206.287	-33.79
206.505	23.55
206.724	-37.89
206.943	-11.26
207.162	39.94
207.381	44.03
207.599	3.07
207.818	-52.22
208.037	25.6
208.255	11.26
208.474	-62.46
208.693	-33.79
208.911	52.22
209.13	7.17
209.349	-15.36
209.567	-25.6
209.786	1.02
210.005	-11.26
210.223	-50.18
210.442	-52.22
210.661	3.07
210.879	-7.17
211.098	9.22
211.316	-29.7
211.535	76.8
211.753	-1.02
211.972	21.5
212.191	-31.74
212.409	-58.37
212.628	41.98
212.846	15.36
213.065	46.08
213.283	37.89
213.502	17.41
213.72	44.03
213.938	-19.46
214.157	25.6
214.375	27.65
214.594	15.36
214.812	-39.94
215.031	-29.7
215.249	5.12
215.467	54.27
215.686	-27.65
215.904	1.02
216.122	19.46
216.341	87.04
216.559	-11.26
216.778	15.36
216.996	-15.36
217.214	25.6
217.432	7.17
217.651	-11.26
217.869	13.31
218.087	9.22
218.306	39.94
218.524	25.6
218.742	-95.23
218.96	7.17
219.179	31.74
219.397	-80.89
219.615	89.09
219.833	89.09
220.051	-48.13
220.27	64.51
220.488	46.08
220.706	37.89
220.924	-11.26
221.142	-17.41
221.36	-11.26
221.578	52.22
221.796	21.5
222.015	15.36
222.233	33.79
222.451	23.55
222.669	-25.6
222.887	39.94
223.105	31.74
223.323	17.41
223.541	33.79
223.759	1.02
223.977	-37.89
224.195	37.89
224.413	25.6
224.631	-5.12
224.849	-23.55
225.067	-25.6
225.285	37.89
225.503	25.6
225.721	-50.18
225.939	29.7
226.157	52.22
226.375	48.13
226.592	5.12
226.81	3.07
227.028	70.65
227.246	25.6
227.464	-21.5
227.682	58.37
227.9	5.12
228.117	5.12
228.335	11.26
228.553	-3.07
228.771	5.12
228.989	17.41
229.206	23.55
229.424	68.61
229.642	1.02
229.86	41.98
230.077	-31.74
230.295	-5.12
230.513	125.95
230.731	56.32
230.948	15.36
231.166	-7.17
231.384	54.27
231.601	-19.46
231.819	46.08
232.037	-11.26
232.254	21.5
232.472	-21.5
232.689	11.26
232.907	99.33
233.125	-50.18
233.342	-1.02
233.56	5.12
233.777	41.98
233.995	23.55
234.213	31.74
234.43	-15.36
234.648	72.7
234.865	-25.6
235.083	7.17
235.3	-19.46
235.518	78.85
235.735	29.7
235.953	74.75
236.17	33.79
236.388	-1.02
236.605	5.12
236.822	48.13
237.04	27.65
237.257	23.55
237.475	-13.31
237.692	-31.74
237.909	13.31
238.127	15.36
238.344	52.22
238.562	52.22
238.779	-44.03
238.996	25.6
239.214	5.12
239.431	39.94
239.648	-1.02
239.865	1.02
240.083	54.27
240.3	31.74
240.517	3.07
240.735	-9.22
240.952	23.55
241.169	35.84
241.386	-15.36
241.603	1.02
241.821	27.65
242.038	-9.22
242.255	29.7
242.472	-23.55
242.689	27.65
242.907	48.13
243.124	-35.84
243.341	46.08
243.558	-7.17
243.775	-93.18
243.992	-5.12
244.209	-29.7
244.426	-5.12
244.643	1.02
244.86	-60.42
245.078	66.56
245.295	33.79
245.512	-31.74
245.729	-7.17
245.946	19.46
246.163	7.17
246.38	21.5
246.597	5.12
246.814	9.22
247.031	35.84
247.248	15.36
247.464	64.51
247.681	82.94
247.898	37.89
248.115	44.03
248.332	9.22
248.549	70.65
248.766	33.79
248.983	13.31
249.2	41.98
249.417	25.6
249.633	11.26
249.85	25.6
250.067	46.08
250.284	5.12
250.501	-66.56
250.717	70.65
250.934	-1.02
251.151	25.6
251.368	41.98
251.585	87.04
251.801	-31.74
252.018	52.22
252.235	19.46
252.451	-1.02
252.668	39.94
252.885	25.6
253.102	119.81
253.318	7.17
253.535	-66.56
253.752	-31.74
253.968	25.6
254.185	41.98
254.401	-1.02
254.618	25.6
254.835	-25.6
255.051	68.61
255.268	46.08
255.484	21.5
255.701	-46.08
255.917	-72.7
256.134	-13.31
256.351	-3.07
256.567	7.17
256.784	9.22
257	70.65
257.217	23.55
257.433	66.56
257.65	37.89
257.866	66.56
258.082	-11.26
258.299	-11.26
258.515	25.6
258.732	54.27
258.948	13.31
259.165	15.36
259.381	41.98
259.597	7.17
259.814	33.79
260.03	21.5
260.246	39.94
260.463	5.12
260.679	-35.84
260.895	19.46
261.112	-23.55
261.328	-19.46
261.544	-52.22
261.761	-5.12
261.977	46.08
262.193	17.41
262.409	-3.07
262.626	13.31
262.842	-1.02
263.058	15.36
263.274	76.8
263.49	-9.22
263.707	25.6
263.923	-3.07
264.139	-1.02
264.355	46.08
264.571	33.79
264.787	80.89
265.004	29.7
265.22	31.74
265.436	27.65
265.652	-50.18
265.868	-17.41
266.084	-25.6
266.3	29.7
266.516	-11.26
266.732	52.22
266.948	62.46
267.164	27.65
267.38	15.36
267.596	-48.13
267.812	23.55
268.028	3.07
268.244	3.07
268.46	7.17
268.676	1.02
268.892	25.6
269.108	-3.07
269.324	-58.37
269.54	-62.46
269.756	-9.22
269.972	-23.55
270.188	9.22
270.403	-11.26
270.619	72.7
270.835	-60.42
271.051	37.89
271.267	-1.02
271.483	23.55
271.698	3.07
271.914	101.37
272.13	-7.17
272.346	-5.12
272.562	-44.03
272.777	41.98
272.993	41.98
273.209	76.8
273.425	27.65
273.64	44.03
273.856	-52.22
274.072	9.22
274.287	-39.94
274.503	35.84
274.719	9.22
274.934	-1.02
275.15	5.12
275.366	-60.42
275.581	-44.03
275.797	48.13
276.012	-1.02
276.228	3.07
276.444	33.79
276.659	76.8
276.875	29.7
277.09	9.22
277.306	33.79
277.521	31.74
277.737	-7.17
277.952	21.5
278.168	29.7
278.383	1.02
278.599	31.74
278.814	-17.41
279.03	31.74
279.245	93.18
279.461	33.79
279.676	44.03
279.892	-3.07
280.107	-19.46
280.322	-27.65
280.538	-29.7
280.753	-72.7
280.969	-19.46
281.184	50.18
281.399	87.04
281.615	-62.46
281.83	-9.22
282.045	-15.36
282.26	17.41
282.476	35.84
282.691	33.79
282.906	27.65
283.122	25.6
283.337	-23.55
283.552	23.55
283.767	1.02
283.983	9.22
284.198	11.26
284.413	-1.02
284.628	-15.36
284.843	-37.89
285.058	39.94
285.274	5.12
285.489	46.08
285.704	41.98
285.919	29.7
286.134	13.31
286.349	-27.65
286.564	46.08
286.779	-3.07
286.995	5.12
287.21	7.17
287.425	-9.22
287.64	-19.46
287.855	27.65
288.07	-1.02
288.285	68.61
288.5	50.18
288.715	-23.55
288.93	33.79
289.145	5.12
289.36	-46.08
289.575	17.41
289.79	11.26
290.004	111.61
290.219	87.04
290.434	21.5
290.649	-11.26
290.864	-7.17
291.079	-27.65
291.294	-27.65
291.509	17.41
291.724	-9.22
291.938	29.7
292.153	13.31
292.368	-9.22
292.583	33.79
292.798	39.94
293.012	29.7
293.227	-27.65
293.442	21.5
293.657	37.89
293.871	19.46
294.086	56.32
294.301	68.61
294.516	70.65
294.73	37.89
294.945	-37.89
295.16	46.08
295.374	1.02
295.589	15.36
295.804	19.46
296.018	-25.6
296.233	46.08
296.447	-5.12
296.662	31.74
296.877	-9.22
297.091	31.74
297.306	-11.26
297.52	-3.07
297.735	66.56
297.949	25.6
298.164	-27.65
298.378	-76.8
298.593	-21.5
298.807	31.74
299.022	-7.17
299.236	25.6
299.451	25.6
299.665	56.32
299.88	17.41
300.094	-11.26
300.309	15.36
300.523	25.6
300.737	-35.84
300.952	66.56
301.166	-29.7
301.381	21.5
301.595	23.55
301.809	-23.55
302.024	17.41
302.238	-19.46
302.452	39.94
302.667	-15.36
302.881	31.74
303.095	3.07
303.309	-11.26
303.524	3.07
303.738	54.27
303.952	-35.84
304.166	44.03
304.381	-52.22
304.595	-7.17
304.809	-7.17
305.023	-19.46
305.237	-33.79
305.452	9.22
305.666	23.55
305.88	1.02
306.094	33.79
306.308	48.13
306.522	17.41
306.736	9.22
306.95	54.27
307.164	115.71
307.379	62.46
307.593	21.5
307.807	56.32
308.021	-11.26
308.235	70.65
308.449	-46.08
308.663	-31.74
308.877	-17.41
309.091	46.08
309.305	48.13
309.519	21.5
309.733	23.55
309.947	-52.22
310.161	56.32
310.374	70.65
310.588	23.55
310.802	15.36
311.016	37.89
311.23	-7.17
311.444	33.79
311.658	-15.36
311.872	15.36
312.085	1.02
312.299	39.94
312.513	23.55
312.727	15.36
312.941	-15.36
313.154	74.75
313.368	29.7
313.582	50.18
313.796	-9.22
314.009	-7.17
314.223	50.18
314.437	-3.07
314.651	9.22
314.864	21.5
315.078	13.31
315.292	5.12
315.505	15.36
315.719	-39.94
315.933	7.17
316.146	74.75
316.36	11.26
316.573	50.18
316.787	-13.31
317.001	-19.46
317.214	5.12
317.428	31.74
317.641	7.17
317.855	-29.7
318.068	50.18
318.282	7.17
318.495	31.74
318.709	19.46
318.922	23.55
319.136	25.6
319.349	-1.02
319.563	31.74
319.776	66.56
319.99	-17.41
320.203	31.74
320.417	25.6
320.63	82.94
320.843	-7.17
321.057	48.13
321.27	-7.17
321.483	35.84
321.697	5.12
321.91	64.51
322.124	-5.12
322.337	62.46
322.55	35.84
322.763	44.03
322.977	15.36
323.19	5.12
323.403	-13.31
323.617	21.5
323.83	25.6
324.043	-46.08
324.256	52.22
324.469	11.26
324.683	50.18
324.896	48.13
325.109	9.22
325.322	-15.36
325.535	27.65
325.748	-35.84
325.962	-23.55
326.175	25.6
326.388	50.18
326.601	62.46
326.814	-31.74
327.027	56.32
327.24	44.03
327.453	-21.5
327.666	-13.31
327.879	158.72
328.092	84.99
328.305	-5.12
328.518	68.61
328.731	-72.7
328.944	-37.89
329.157	50.18
329.37	9.22
329.583	58.37
329.796	93.18
330.009	-87.04
330.222	-11.26
330.435	13.31
330.648	25.6
330.861	17.41
331.073	5.12
331.286	-9.22
331.499	9.22
331.712	11.26
331.925	31.74
332.138	17.41
332.35	80.89
332.563	9.22
332.776	9.22
332.989	5.12
333.202	-66.56
333.414	80.89
333.627	9.22
333.84	21.5
334.053	3.07
334.265	89.09
334.478	35.84
334.691	-64.51
334.903	9.22
335.116	66.56
335.329	-1.02
335.541	21.5
335.754	-5.12
335.966	37.89
336.179	25.6
336.392	66.56
336.604	-27.65
336.817	9.22
337.029	70.65
337.242	31.74
337.454	-37.89
337.667	9.22
337.88	15.36
338.092	74.75
338.305	33.79
338.517	17.41
338.729	21.5
338.942	41.98
339.154	-3.07
339.367	64.51
339.579	-7.17
339.792	29.7
340.004	21.5
340.217	33.79
340.429	66.56
340.641	-17.41
340.854	66.56
341.066	-5.12
341.278	13.31
341.491	91.13
341.703	29.7
341.915	-54.27
342.128	35.84
342.34	41.98
342.552	44.03
342.764	46.08
342.977	5.12
343.189	-3.07
343.401	-13.31
343.613	-31.74
343.826	33.79
344.038	29.7
344.25	35.84
344.462	-44.03
344.674	54.27
344.886	21.5
345.099	44.03
345.311	68.61
345.523	80.89
345.735	29.7
345.947	80.89
346.159	56.32
346.371	80.89
346.583	9.22
346.795	37.89
347.007	115.71
347.219	-13.31
347.431	-31.74
347.643	97.28
347.855	76.8
348.067	31.74
348.279	52.22
348.491	35.84
348.703	58.37
348.915	21.5
349.127	48.13
349.339	93.18
349.551	-11.26
349.763	-1.02
349.975	-7.17
350.187	50.18
350.399	117.76
350.61	15.36
350.822	-3.07
351.034	70.65
351.246	37.89
351.458	68.61
351.669	7.17
351.881	31.74
352.093	44.03
352.305	39.94
352.517	11.26
352.728	89.09
352.94	-33.79
353.152	11.26
353.363	3.07
353.575	82.94
353.787	84.99
353.999	33.79
354.21	41.98
354.422	3.07
354.633	-13.31
354.845	80.89
355.057	50.18
355.268	-60.42
355.48	-82.94
355.692	25.6
355.903	9.22
356.115	72.7
356.326	-19.46
356.538	37.89
356.749	35.84
356.961	44.03
357.172	11.26
357.384	-1.02
357.595	107.52
357.807	17.41
358.018	19.46
358.23	78.85
358.441	66.56
358.653	27.65
358.864	-9.22
359.075	-25.6
359.287	115.71
359.498	17.41
359.709	-37.89
359.921	66.56
360.132	37.89
360.344	17.41
360.555	-13.31
360.766	3.07
360.977	7.17
361.189	80.89
361.4	35.84
361.611	58.37
361.823	52.22
362.034	41.98
362.245	-19.46
362.456	29.7
362.667	-9.22
362.879	-31.74
363.09	44.03
363.301	74.75
363.512	7.17
363.723	7.17
363.935	56.32
364.146	41.98
364.357	7.17
364.568	66.56
364.779	-23.55
364.99	19.46
365.201	48.13
365.412	62.46
365.623	-54.27
365.834	-29.7
366.045	-7.17
366.256	15.36
366.467	21.5
366.678	7.17
366.889	-11.26
367.1	9.22
367.311	3.07
367.522	25.6
367.733	-56.32
367.944	31.74
368.155	-44.03
368.366	54.27
368.577	-31.74
368.788	21.5
368.999	39.94
369.209	70.65
369.42	160.77
369.631	21.5
369.842	21.5
370.053	46.08
370.264	46.08
370.474	-39.94
370.685	72.7
370.896	9.22
371.107	17.41
371.317	58.37
371.528	-7.17
371.739	-70.65
371.95	35.84
372.16	46.08
372.371	1.02
372.582	52.22
372.792	64.51
373.003	50.18
373.214	5.12
373.424	66.56
373.635	25.6
373.846	78.85
374.056	15.36
374.267	29.7
374.477	5.12
374.688	37.89
374.898	52.22
375.109	70.65
375.319	80.89
375.53	1.02
375.74	33.79
375.951	44.03
376.161	-35.84
376.372	41.98
376.582	11.26
376.793	39.94
377.003	37.89
377.214	31.74
377.424	-56.32
377.635	62.46
377.845	29.7
378.055	31.74
378.266	58.37
378.476	23.55
378.686	19.46
378.897	39.94
379.107	27.65
379.317	13.31
379.528	9.22
379.738	56.32
379.948	-39.94
380.158	27.65
380.369	21.5
380.579	5.12
380.789	64.51
380.999	35.84
381.21	5.12
381.42	74.75
381.63	9.22
381.84	-25.6
382.05	11.26
382.261	117.76
382.471	5.12
382.681	39.94
382.891	111.61
383.101	13.31
383.311	9.22
383.521	5.12
383.731	29.7
383.941	70.65
384.151	66.56
384.361	103.42
384.571	27.65
384.781	46.08
384.991	54.27
385.201	70.65
385.411	41.98
385.621	13.31
385.831	1.02
386.041	39.94
386.251	-80.89
386.461	70.65
386.671	3.07
386.881	44.03
387.091	3.07
387.301	11.26
387.511	11.26
387.72	78.85
387.93	74.75
388.14	37.89
388.35	19.46
388.56	48.13
388.769	37.89
388.979	-5.12
389.189	-3.07
389.399	44.03
389.609	115.71
389.818	54.27
390.028	41.98
390.238	3.07
390.447	128
390.657	37.89
390.867	29.7
391.076	-31.74
391.286	66.56
391.496	-23.55
391.705	-3.07
391.915	33.79
392.125	-15.36
392.334	-52.22
392.544	25.6
392.753	152.57
392.963	48.13
393.172	54.27
393.382	97.28
393.591	54.27
393.801	19.46
394.01	44.03
394.22	-7.17
394.429	46.08
394.639	3.07
394.848	62.46
395.058	56.32
395.267	-25.6
395.477	-11.26
395.686	99.33
395.895	50.18
396.105	109.57
396.314	17.41
396.524	56.32
396.733	50.18
396.942	11.26
397.152	111.61
397.361	72.7
397.57	37.89
397.78	84.99
397.989	41.98
398.198	84.99
398.407	13.31
398.617	66.56
398.826	15.36
399.035	13.31
399.244	162.81
399.453	39.94
399.663	62.46
399.872	21.5
400.081	-3.07
400.29	62.46
400.499	-3.07
400.708	156.67
400.917	39.94
401.127	33.79
401.336	72.7
401.545	154.62
401.754	80.89
401.963	82.94
402.172	-7.17
402.381	62.46
402.59	17.41
402.799	41.98
403.008	109.57
403.217	78.85
403.426	68.61
403.635	76.8
403.844	70.65
404.053	103.42
404.262	66.56
404.471	130.05
404.68	66.56
404.888	82.94
405.097	78.85
405.306	91.13
405.515	138.24
405.724	50.18
405.933	95.23
406.142	82.94
406.35	50.18
406.559	82.94
406.768	87.04
406.977	177.15
407.185	113.66
407.394	101.37
407.603	115.71
407.812	125.95
408.02	91.13
408.229	218.11
408.438	41.98
408.646	132.09
408.855	97.28
409.064	183.29
409.272	150.53
409.481	136.19
409.69	177.15
409.898	134.14
410.107	158.72
410.315	220.16
410.524	175.1
410.733	199.68
410.941	171.01
411.15	150.53
411.358	295.93
411.567	205.82
411.775	150.53
411.984	285.69
412.192	191.49
412.401	242.68
412.609	281.6
412.818	279.55
413.026	320.51
413.234	295.93
413.443	300.03
413.651	369.66
413.86	369.66
414.068	304.12
414.276	334.84
414.485	349.18
414.693	386.04
414.901	390.14
415.11	361.47
415.318	427
415.526	488.44
415.734	394.23
415.943	398.33
416.151	470.01
416.359	402.43
416.567	480.25
416.776	510.97
416.984	570.36
417.192	578.55
417.4	545.78
417.608	543.74
417.817	592.89
418.025	689.14
418.233	644.09
418.441	609.27
418.649	629.75
418.857	672.76
419.065	793.59
419.273	625.65
419.481	746.48
419.689	816.12
419.897	859.12
420.105	758.77
420.313	795.64
420.521	930.8
420.729	912.37
420.937	824.31
421.145	963.57
421.353	1113.07
421.561	1002.48
421.769	1059.82
421.977	1139.69
422.185	1147.89
422.393	1094.64
422.601	1317.87
422.809	1315.82
423.017	1192.94
423.224	1281
423.432	1375.21
423.64	1350.64
423.848	1399.79
424.056	1432.55
424.263	1487.85
424.471	1606.63
424.679	1678.31
424.887	1666.02
425.094	1821.67
425.302	1817.57
425.51	1797.09
425.718	1825.76
425.925	1975.27
426.133	1899.49
426.341	2100.19
426.548	2024.42
426.756	2227.17
426.964	2190.3
427.171	2266.08
427.379	2403.29
427.586	2360.28
427.794	2372.57
428.001	2626.52
428.209	2843.6
428.417	2608.09
428.624	2786.26
428.832	2790.36
429.039	2827.22
429.247	2862.04
429.454	3101.65
429.662	3298.25
429.869	3005.39
430.076	3271.63
430.284	3144.66
430.491	3294.16
430.699	3486.67
430.906	3523.53
431.114	3484.62
431.321	3552.2
431.528	3775.43
431.736	4021.19
431.943	4168.64
432.15	4066.24
432.358	3998.66
432.565	4234.18
432.772	4445.12
432.979	4623.29
433.187	4471.74
433.394	4533.18
433.601	4789.17
433.808	4989.88
434.016	4955.06
434.223	5077.94
434.43	5348.27
434.637	5415.85
434.844	5714.86
435.052	5727.14
435.259	5698.47
435.466	5737.38
435.673	5854.12
435.88	6001.57
436.087	6603.68
436.294	6437.79
436.501	6427.55
436.708	6527.9
436.915	6628.25
437.122	6871.96
437.329	6742.94
437.537	7130
437.743	7142.29
437.95	7158.67
438.157	7621.52
438.364	7766.92
438.571	7799.69
438.778	7725.96
438.985	8373.12
439.192	8094.6
439.399	8422.27
439.606	8248.19
439.813	8686.46
440.02	9169.78
440.227	9032.57
440.433	9018.23
440.64	9255.79
440.847	9268.08
441.054	9442.16
441.261	10224.48
441.467	9905
441.674	10173.28
441.881	10591.07
442.088	10402.66
442.294	10281.83
442.501	10808.16
442.708	10767.2
442.914	11197.27
443.121	11715.41
443.328	11535.18
443.534	12168.01
443.741	11869
443.948	11770.7
444.154	12520.26
444.361	12358.47
444.568	12684.09
444.774	12620.61
444.981	12778.3
445.187	13275.96
445.394	13757.23
445.6	13511.47
445.807	14975.77
446.013	13896.49
446.22	14252.84
446.426	14818.08
446.633	15321.88
446.839	15557.39
447.046	14904.09
447.252	15645.46
447.459	15614.74
447.665	15426.32
447.871	16364.29
448.078	17038.08
448.284	15915.79
448.491	16530.18
448.697	17195.77
448.903	17656.56
449.11	17808.11
449.316	17275.64
449.522	17765.1
449.728	18115.31
449.935	18342.63
450.141	18158.31
450.347	18578.15
450.553	17912.56
450.76	18332.39
450.966	19036.89
451.172	18539.24
451.378	19053.28
451.584	18885.34
451.791	19075.8
451.997	19024.61
452.203	19331.8
452.409	19368.66
452.615	19260.12
452.821	18510.57
453.027	18268.91
453.233	19309.27
453.44	18440.93
453.646	18825.95
453.852	18969.31
454.058	19133.15
454.264	18524.9
454.47	18729.7
454.676	18324.2
454.882	19118.81
455.088	17345.27
455.294	17869.55
455.5	17552.12
455.705	18127.6
455.911	17300.22
456.117	17187.58
456.323	16714.5
456.529	15782.67
456.735	16507.65
456.941	16132.87
457.147	15723.28
457.352	15717.14
457.558	14803.74
457.764	15223.58
457.97	14883.61
458.176	14498.59
458.381	14588.71
458.587	13833
458.793	13898.54
458.999	13146.94
459.204	14205.74
459.41	13607.73
459.616	12653.37
459.821	12559.17
460.027	12444.48
460.233	12540.74
460.438	11615.05
460.644	12045.13
460.85	11213.65
461.055	11367.25
461.261	11379.54
461.466	10660.7
461.672	10097.51
461.878	10650.46
462.083	10081.13
462.289	9937.77
462.494	9773.93
462.7	9126.77
462.905	9057.14
463.111	9345.91
463.316	9417.58
463.522	9304.95
463.727	9356.15
463.932	9235.32
464.138	9266.03
464.343	9048.95
464.549	8835.96
464.754	9231.22
464.959	9282.42
465.165	9012.09
465.37	8637.31
465.575	8407.94
465.781	8835.96
465.986	8967.03
466.191	8594.3
466.397	8465.28
466.602	7922.57
466.807	8217.47
467.012	8276.87
467.218	8117.12
467.423	8280.96
467.628	8242.05
467.833	8518.53
468.038	8229.76
468.244	8047.49
468.449	8237.95
468.654	8008.58
468.859	8061.83
469.064	7844.74
469.269	7560.08
469.474	7635.85
