Data from USB4F104151__92__11-06-47-161.txt Node

Date: Wed Mar 12 11:06:47 EDT 2025
User: louis
Spectrometer: USB4F10415
Trigger mode: 4
Integration Time (sec): 2.000000E-2
Scans to average: 1
Electric dark correction enabled: true
Nonlinearity correction enabled: false
Boxcar width: 0
XAxis mode: Wavelengths
Number of Pixels in Spectrum: 3648
>>>>>Begin Spectral Data<<<<<
178.204	-56.15
178.424	-56.15
178.644	-56.15
178.864	-60.24
179.084	-9.05
179.304	-19.29
179.524	36.01
179.744	-43.86
179.964	66.73
180.184	3.24
180.404	85.16
180.624	31.91
180.844	-37.72
181.064	-54.1
181.283	5.29
181.503	-56.15
181.723	-17.24
181.943	-2.9
182.163	19.63
182.383	-0.85
182.602	-9.05
182.822	52.39
183.042	-64.34
183.262	42.15
183.482	-4.95
183.701	-39.76
183.921	27.82
184.141	-70.48
184.361	66.73
184.58	72.87
184.8	29.87
185.02	-82.77
185.239	124.07
185.459	-76.63
185.679	19.63
185.898	-0.85
186.118	89.26
186.338	-13.14
186.557	-47.96
186.777	40.11
186.997	-37.72
187.216	7.34
187.436	76.97
187.655	-9.05
187.875	42.15
188.095	-19.29
188.314	40.11
188.534	38.06
188.753	27.82
188.973	38.06
189.192	140.46
189.412	-47.96
189.631	48.3
189.851	25.77
190.07	31.91
190.29	23.72
190.509	38.06
190.729	1.19
190.948	81.07
191.168	109.74
191.387	134.31
191.607	42.15
191.826	60.59
192.045	42.15
192.265	13.48
192.484	13.48
192.704	79.02
192.923	5.29
193.142	-21.33
193.362	15.53
193.581	60.59
193.8	13.48
194.02	3.24
194.239	23.72
194.458	79.02
194.678	9.39
194.897	21.67
195.116	-62.29
195.335	23.72
195.555	58.54
195.774	-62.29
195.993	42.15
196.212	44.2
196.432	29.87
196.651	50.35
196.87	13.48
197.089	-7
197.308	23.72
197.528	70.83
197.747	19.63
197.966	-0.85
198.185	31.91
198.404	-23.38
198.623	21.67
198.842	13.48
199.062	50.35
199.281	52.39
199.5	60.59
199.719	5.29
199.938	1.19
200.157	64.68
200.376	62.63
200.595	50.35
200.814	-23.38
201.033	17.58
201.252	-4.95
201.471	-27.48
201.69	27.82
201.909	-21.33
202.128	3.24
202.347	7.34
202.566	1.19
202.785	7.34
203.004	62.63
203.223	17.58
203.442	68.78
203.661	31.91
203.879	58.54
204.098	50.35
204.317	17.58
204.536	72.87
204.755	17.58
204.974	38.06
205.193	42.15
205.411	103.59
205.63	50.35
205.849	-9.05
206.068	85.16
206.287	-33.62
206.505	74.92
206.724	-27.48
206.943	27.82
207.162	83.11
207.381	31.91
207.599	9.39
207.818	15.53
208.037	1.19
208.255	42.15
208.474	50.35
208.693	19.63
208.911	-58.2
209.13	122.02
209.349	5.29
209.567	36.01
209.786	72.87
210.005	48.3
210.223	40.11
210.442	-31.57
210.661	66.73
210.879	-27.48
211.098	33.96
211.316	-11.09
211.535	66.73
211.753	-4.95
211.972	40.11
212.191	-2.9
212.409	76.97
212.628	50.35
212.846	21.67
213.065	60.59
213.283	25.77
213.502	46.25
213.72	68.78
213.938	46.25
214.157	83.11
214.375	31.91
214.594	15.53
214.812	-2.9
215.031	11.43
215.249	-4.95
215.467	72.87
215.686	-0.85
215.904	83.11
216.122	42.15
216.341	1.19
216.559	17.58
216.778	50.35
216.996	-33.62
217.214	-4.95
217.432	13.48
217.651	-0.85
217.869	54.44
218.087	17.58
218.306	42.15
218.524	56.49
218.742	-21.33
218.96	99.5
219.179	40.11
219.397	-17.24
219.615	25.77
219.833	50.35
220.051	-23.38
220.27	33.96
220.488	-13.14
220.706	58.54
220.924	5.29
221.142	29.87
221.36	21.67
221.578	-31.57
221.796	27.82
222.015	-4.95
222.233	27.82
222.451	27.82
222.669	7.34
222.887	31.91
223.105	29.87
223.323	91.31
223.541	3.24
223.759	29.87
223.977	31.91
224.195	132.26
224.413	60.59
224.631	15.53
224.849	42.15
225.067	44.2
225.285	27.82
225.503	74.92
225.721	13.48
225.939	29.87
226.157	31.91
226.375	103.59
226.592	19.63
226.81	58.54
227.028	40.11
227.246	101.55
227.464	-25.43
227.682	62.63
227.9	87.21
228.117	29.87
228.335	-7
228.553	13.48
228.771	29.87
228.989	-25.43
229.206	21.67
229.424	-2.9
229.642	23.72
229.86	-72.53
230.077	54.44
230.295	23.72
230.513	111.78
230.731	23.72
230.948	40.11
231.166	42.15
231.384	50.35
231.601	62.63
231.819	60.59
232.037	-66.39
232.254	79.02
232.472	23.72
232.689	38.06
232.907	50.35
233.125	-11.09
233.342	-29.52
233.56	21.67
233.777	-21.33
233.995	-0.85
234.213	31.91
234.43	1.19
234.648	21.67
234.865	21.67
235.083	52.39
235.3	62.63
235.518	13.48
235.735	87.21
235.953	58.54
236.17	7.34
236.388	-54.1
236.605	109.74
236.822	15.53
237.04	38.06
237.257	17.58
237.475	-72.53
237.692	3.24
237.909	29.87
238.127	31.91
238.344	33.96
238.562	5.29
238.779	44.2
238.996	91.31
239.214	-19.29
239.431	54.44
239.648	56.49
239.865	19.63
240.083	-13.14
240.3	-21.33
240.517	-43.86
240.735	-19.29
240.952	119.98
241.169	31.91
241.386	42.15
241.603	95.4
241.821	-27.48
242.038	23.72
242.255	52.39
242.472	15.53
242.689	-35.67
242.907	36.01
243.124	3.24
243.341	42.15
243.558	-43.86
243.775	36.01
243.992	1.19
244.209	-2.9
244.426	93.35
244.643	29.87
244.86	-9.05
245.078	85.16
245.295	-37.72
245.512	44.2
245.729	31.91
245.946	68.78
246.163	79.02
246.38	52.39
246.597	25.77
246.814	27.82
247.031	-19.29
247.248	76.97
247.464	60.59
247.681	15.53
247.898	91.31
248.115	48.3
248.332	31.91
248.549	33.96
248.766	117.93
248.983	25.77
249.2	81.07
249.417	27.82
249.633	-11.09
249.85	27.82
250.067	-4.95
250.284	17.58
250.501	3.24
250.717	-19.29
250.934	-47.96
251.151	9.39
251.368	-2.9
251.585	3.24
251.801	11.43
252.018	-4.95
252.235	9.39
252.451	31.91
252.668	3.24
252.885	-64.34
253.102	-9.05
253.318	36.01
253.535	13.48
253.752	5.29
253.968	-50
254.185	-4.95
254.401	-37.72
254.618	54.44
254.835	13.48
255.051	19.63
255.268	25.77
255.484	29.87
255.701	11.43
255.917	-39.76
256.134	-2.9
256.351	1.19
256.567	7.34
256.784	-7
257	-17.24
257.217	56.49
257.433	74.92
257.65	1.19
257.866	70.83
258.082	-7
258.299	19.63
258.515	42.15
258.732	-4.95
258.948	38.06
259.165	60.59
259.381	46.25
259.597	-13.14
259.814	21.67
260.03	-13.14
260.246	46.25
260.463	19.63
260.679	33.96
260.895	36.01
261.112	44.2
261.328	50.35
261.544	54.44
261.761	87.21
261.977	25.77
262.193	64.68
262.409	76.97
262.626	17.58
262.842	44.2
263.058	13.48
263.274	36.01
263.49	72.87
263.707	19.63
263.923	76.97
264.139	11.43
264.355	-58.2
264.571	54.44
264.787	29.87
265.004	40.11
265.22	5.29
265.436	25.77
265.652	36.01
265.868	33.96
266.084	27.82
266.3	46.25
266.516	54.44
266.732	-52.05
266.948	-35.67
267.164	1.19
267.38	31.91
267.596	54.44
267.812	60.59
268.028	27.82
268.244	29.87
268.46	21.67
268.676	81.07
268.892	-37.72
269.108	52.39
269.324	7.34
269.54	-68.44
269.756	79.02
269.972	25.77
270.188	15.53
270.403	81.07
270.619	-0.85
270.835	81.07
271.051	64.68
271.267	21.67
271.483	40.11
271.698	3.24
271.914	-0.85
272.13	29.87
272.346	38.06
272.562	31.91
272.777	85.16
272.993	52.39
273.209	15.53
273.425	9.39
273.64	-11.09
273.856	52.39
274.072	25.77
274.287	42.15
274.503	-9.05
274.719	66.73
274.934	44.2
275.15	-43.86
275.366	54.44
275.581	36.01
275.797	-29.52
276.012	124.07
276.228	-13.14
276.444	25.77
276.659	3.24
276.875	-13.14
277.09	70.83
277.306	-2.9
277.521	81.07
277.737	-0.85
277.952	38.06
278.168	21.67
278.383	56.49
278.599	-25.43
278.814	-29.52
279.03	107.69
279.245	64.68
279.461	-21.33
279.676	25.77
279.892	-68.44
280.107	9.39
280.322	19.63
280.538	42.15
280.753	-7
280.969	11.43
281.184	15.53
281.399	142.5
281.615	-4.95
281.83	40.11
282.045	58.54
282.26	-17.24
282.476	7.34
282.691	60.59
282.906	-7
283.122	-15.19
283.337	13.48
283.552	-9.05
283.767	21.67
283.983	68.78
284.198	1.19
284.413	54.44
284.628	-41.81
284.843	50.35
285.058	52.39
285.274	11.43
285.489	46.25
285.704	-31.57
285.919	3.24
286.134	44.2
286.349	42.15
286.564	-2.9
286.779	11.43
286.995	15.53
287.21	-43.86
287.425	-39.76
287.64	17.58
287.855	-43.86
288.07	-52.05
288.285	58.54
288.5	-7
288.715	44.2
288.93	15.53
289.145	42.15
289.36	7.34
289.575	23.72
289.79	40.11
290.004	25.77
290.219	46.25
290.434	-7
290.649	1.19
290.864	-15.19
291.079	19.63
291.294	97.45
291.509	52.39
291.724	-0.85
291.938	15.53
292.153	33.96
292.368	-21.33
292.583	-35.67
292.798	15.53
293.012	107.69
293.227	31.91
293.442	62.63
293.657	52.39
293.871	54.44
294.086	-21.33
294.301	13.48
294.516	68.78
294.73	25.77
294.945	-11.09
295.16	-31.57
295.374	109.74
295.589	33.96
295.804	68.78
296.018	42.15
296.233	-0.85
296.447	-29.52
296.662	72.87
296.877	17.58
297.091	21.67
297.306	-25.43
297.52	54.44
297.735	46.25
297.949	5.29
298.164	93.35
298.378	5.29
298.593	-45.91
298.807	-35.67
299.022	99.5
299.236	62.63
299.451	36.01
299.665	79.02
299.88	-0.85
300.094	33.96
300.309	1.19
300.523	97.45
300.737	-17.24
300.952	-23.38
301.166	-13.14
301.381	17.58
301.595	9.39
301.809	29.87
302.024	5.29
302.238	-33.62
302.452	17.58
302.667	36.01
302.881	50.35
303.095	56.49
303.309	31.91
303.524	1.19
303.738	38.06
303.952	13.48
304.166	70.83
304.381	27.82
304.595	66.73
304.809	27.82
305.023	11.43
305.237	-7
305.452	-60.24
305.666	42.15
305.88	60.59
306.094	74.92
306.308	21.67
306.522	25.77
306.736	79.02
306.95	46.25
307.164	50.35
307.379	-7
307.593	97.45
307.807	44.2
308.021	66.73
308.235	72.87
308.449	-43.86
308.663	17.58
308.877	58.54
309.091	1.19
309.305	19.63
309.519	7.34
309.733	15.53
309.947	-23.38
310.161	111.78
310.374	9.39
310.588	40.11
310.802	25.77
311.016	-37.72
311.23	33.96
311.444	46.25
311.658	11.43
311.872	52.39
312.085	64.68
312.299	72.87
312.513	64.68
312.727	-0.85
312.941	-2.9
313.154	68.78
313.368	25.77
313.582	17.58
313.796	70.83
314.009	7.34
314.223	42.15
314.437	-62.29
314.651	48.3
314.864	-31.57
315.078	-27.48
315.292	-39.76
315.505	38.06
315.719	66.73
315.933	1.19
316.146	40.11
316.36	85.16
316.573	27.82
316.787	-21.33
317.001	31.91
317.214	33.96
317.428	21.67
317.641	-17.24
317.855	9.39
318.068	62.63
318.282	13.48
318.495	56.49
318.709	79.02
318.922	-7
319.136	142.5
319.349	48.3
319.563	42.15
319.776	21.67
319.99	-31.57
320.203	3.24
320.417	-9.05
320.63	-7
320.843	13.48
321.057	64.68
321.27	19.63
321.483	107.69
321.697	17.58
321.91	13.48
322.124	17.58
322.337	11.43
322.55	21.67
322.763	52.39
322.977	5.29
323.19	13.48
323.403	15.53
323.617	-19.29
323.83	-11.09
324.043	48.3
324.256	44.2
324.469	27.82
324.683	25.77
324.896	52.39
325.109	56.49
325.322	-68.44
325.535	87.21
325.748	70.83
325.962	-7
326.175	1.19
326.388	23.72
326.601	29.87
326.814	5.29
327.027	76.97
327.24	1.19
327.453	33.96
327.666	-4.95
327.879	31.91
328.092	25.77
328.305	23.72
328.518	25.77
328.731	-15.19
328.944	74.92
329.157	-33.62
329.37	-33.62
329.583	52.39
329.796	13.48
330.009	54.44
330.222	15.53
330.435	3.24
330.648	89.26
330.861	21.67
331.073	23.72
331.286	-25.43
331.499	7.34
331.712	1.19
331.925	-4.95
332.138	40.11
332.35	89.26
332.563	21.67
332.776	44.2
332.989	-52.05
333.202	5.29
333.414	15.53
333.627	44.2
333.84	46.25
334.053	33.96
334.265	3.24
334.478	79.02
334.691	29.87
334.903	115.88
335.116	21.67
335.329	7.34
335.541	-43.86
335.754	87.21
335.966	-19.29
336.179	23.72
336.392	70.83
336.604	13.48
336.817	1.19
337.029	-9.05
337.242	-41.81
337.454	9.39
337.667	122.02
337.88	50.35
338.092	40.11
338.305	50.35
338.517	38.06
338.729	-60.24
338.942	44.2
339.154	-50
339.367	-43.86
339.579	105.64
339.792	9.39
340.004	54.44
340.217	-7
340.429	50.35
340.641	-37.72
340.854	23.72
341.066	-52.05
341.278	36.01
341.491	-25.43
341.703	97.45
341.915	27.82
342.128	68.78
342.34	70.83
342.552	48.3
342.764	5.29
342.977	40.11
343.189	-31.57
343.401	-2.9
343.613	-9.05
343.826	21.67
344.038	-19.29
344.25	-4.95
344.462	91.31
344.674	44.2
344.886	58.54
345.099	-9.05
345.311	-19.29
345.523	44.2
345.735	-50
345.947	64.68
346.159	-2.9
346.371	56.49
346.583	13.48
346.795	91.31
347.007	19.63
347.219	1.19
347.431	1.19
347.643	99.5
347.855	-37.72
348.067	48.3
348.279	58.54
348.491	5.29
348.703	1.19
348.915	33.96
349.127	9.39
349.339	48.3
349.551	29.87
349.763	79.02
349.975	48.3
350.187	23.72
350.399	11.43
350.61	25.77
350.822	5.29
351.034	-17.24
351.246	-37.72
351.458	33.96
351.669	5.29
351.881	33.96
352.093	-9.05
352.305	17.58
352.517	40.11
352.728	70.83
352.94	36.01
353.152	29.87
353.363	15.53
353.575	42.15
353.787	52.39
353.999	42.15
354.21	74.92
354.422	-2.9
354.633	-27.48
354.845	38.06
355.057	-11.09
355.268	17.58
355.48	25.77
355.692	33.96
355.903	13.48
356.115	-23.38
356.326	11.43
356.538	117.93
356.749	89.26
356.961	-9.05
357.172	33.96
357.384	15.53
357.595	66.73
357.807	38.06
358.018	5.29
358.23	7.34
358.441	11.43
358.653	-31.57
358.864	21.67
359.075	36.01
359.287	74.92
359.498	70.83
359.709	15.53
359.921	38.06
360.132	33.96
360.344	3.24
360.555	21.67
360.766	13.48
360.977	-2.9
361.189	89.26
361.4	13.48
361.611	48.3
361.823	-2.9
362.034	17.58
362.245	54.44
362.456	72.87
362.667	68.78
362.879	-11.09
363.09	-25.43
363.301	56.49
363.512	72.87
363.723	3.24
363.935	-35.67
364.146	70.83
364.357	3.24
364.568	3.24
364.779	-9.05
364.99	95.4
365.201	11.43
365.412	97.45
365.623	99.5
365.834	-19.29
366.045	44.2
366.256	33.96
366.467	44.2
366.678	58.54
366.889	72.87
367.1	42.15
367.311	52.39
367.522	3.24
367.733	-19.29
367.944	91.31
368.155	46.25
368.366	64.68
368.577	7.34
368.788	21.67
368.999	-64.34
369.209	9.39
369.42	60.59
369.631	52.39
369.842	56.49
370.053	50.35
370.264	85.16
370.474	-45.91
370.685	29.87
370.896	48.3
371.107	70.83
371.317	42.15
371.528	48.3
371.739	109.74
371.95	87.21
372.16	-23.38
372.371	66.73
372.582	-11.09
372.792	-21.33
373.003	25.77
373.214	60.59
373.424	-19.29
373.635	33.96
373.846	54.44
374.056	21.67
374.267	31.91
374.477	-17.24
374.688	74.92
374.898	58.54
375.109	91.31
375.319	25.77
375.53	81.07
375.74	93.35
375.951	33.96
376.161	64.68
376.372	48.3
376.582	40.11
376.793	52.39
377.003	27.82
377.214	52.39
377.424	17.58
377.635	62.63
377.845	3.24
378.055	-11.09
378.266	7.34
378.476	33.96
378.686	25.77
378.897	-21.33
379.107	44.2
379.317	9.39
379.528	-19.29
379.738	17.58
379.948	27.82
380.158	29.87
380.369	60.59
380.579	36.01
380.789	38.06
380.999	89.26
381.21	-19.29
381.42	89.26
381.63	62.63
381.84	27.82
382.05	9.39
382.261	64.68
382.471	62.63
382.681	19.63
382.891	56.49
383.101	13.48
383.311	15.53
383.521	25.77
383.731	60.59
383.941	42.15
384.151	42.15
384.361	29.87
384.571	7.34
384.781	-37.72
384.991	36.01
385.201	74.92
385.411	29.87
385.621	-17.24
385.831	11.43
386.041	56.49
386.251	50.35
386.461	124.07
386.671	-11.09
386.881	83.11
387.091	-2.9
387.301	-2.9
387.511	5.29
387.72	79.02
387.93	21.67
388.14	7.34
388.35	-7
388.56	105.64
388.769	85.16
388.979	66.73
389.189	31.91
389.399	-23.38
389.609	36.01
389.818	27.82
390.028	54.44
390.238	31.91
390.447	42.15
390.657	60.59
390.867	17.58
391.076	13.48
391.286	3.24
391.496	-39.76
391.705	13.48
391.915	36.01
392.125	-11.09
392.334	52.39
392.544	62.63
392.753	-13.14
392.963	-52.05
393.172	29.87
393.382	5.29
393.591	74.92
393.801	38.06
394.01	64.68
394.22	38.06
394.429	68.78
394.639	48.3
394.848	89.26
395.058	-23.38
395.267	54.44
395.477	66.73
395.686	89.26
395.895	97.45
396.105	5.29
396.314	79.02
396.524	5.29
396.733	68.78
396.942	70.83
397.152	33.96
397.361	5.29
397.57	15.53
397.78	62.63
397.989	23.72
398.198	105.64
398.407	52.39
398.617	36.01
398.826	66.73
399.035	76.97
399.244	54.44
399.453	15.53
399.663	62.63
399.872	58.54
400.081	-9.05
400.29	89.26
400.499	-21.33
400.708	70.83
400.917	-19.29
401.127	33.96
401.336	79.02
401.545	91.31
401.754	68.78
401.963	48.3
402.172	93.35
402.381	126.12
402.59	21.67
402.799	40.11
403.008	54.44
403.217	29.87
403.426	70.83
403.635	89.26
403.844	15.53
404.053	76.97
404.262	23.72
404.471	117.93
404.68	3.24
404.888	3.24
405.097	40.11
405.306	165.03
405.515	64.68
405.724	-13.14
405.933	76.97
406.142	15.53
406.35	72.87
406.559	66.73
406.768	79.02
406.977	68.78
407.185	105.64
407.394	74.92
407.603	142.5
407.812	66.73
408.02	5.29
408.229	115.88
408.438	87.21
408.646	83.11
408.855	-31.57
409.064	99.5
409.272	132.26
409.481	142.5
409.69	81.07
409.898	58.54
410.107	103.59
410.315	146.6
410.524	58.54
410.733	111.78
410.941	62.63
411.15	119.98
411.358	173.22
411.567	150.7
411.775	142.5
411.984	91.31
412.192	158.89
412.401	-21.33
412.609	210.09
412.818	232.62
413.026	179.37
413.234	142.5
413.443	234.66
413.651	126.12
413.86	126.12
414.068	146.6
414.276	212.14
414.485	212.14
414.693	189.61
414.901	230.57
415.11	218.28
415.318	191.66
415.526	199.85
415.734	267.43
415.943	234.66
416.151	242.85
416.359	240.81
416.567	205.99
416.776	249
416.984	371.88
417.192	398.5
417.4	162.98
417.608	240.81
417.817	335.01
418.025	320.68
418.233	439.46
418.441	328.87
418.649	423.08
418.857	474.28
419.065	390.31
419.273	439.46
419.481	435.36
419.689	523.43
419.897	478.37
420.105	476.32
420.313	611.49
420.521	451.75
420.729	494.76
420.937	509.09
421.145	535.71
421.353	599.2
421.561	578.72
421.769	623.78
421.977	576.67
422.185	611.49
422.393	677.02
422.601	785.57
422.809	699.55
423.017	783.52
423.224	664.74
423.432	670.88
423.64	738.46
423.848	939.16
424.056	777.37
424.263	978.08
424.471	851.1
424.679	838.81
424.887	941.21
425.094	939.16
425.302	945.31
425.51	996.51
425.718	1021.08
425.925	1049.75
426.133	1111.19
426.341	1127.58
426.548	1168.54
426.756	1211.54
426.964	1195.16
427.171	1256.6
427.379	1301.65
427.586	1338.52
427.794	1381.53
428.001	1508.5
428.209	1496.21
428.417	1541.27
428.624	1557.65
428.832	1500.31
429.039	1604.75
429.247	1592.47
429.454	1793.17
429.662	1830.03
429.869	1682.58
430.076	1770.64
430.284	1778.83
430.491	1907.85
430.699	1940.62
430.906	1760.4
431.114	2010.25
431.321	2141.32
431.528	2024.59
431.736	2106.51
431.943	2290.82
432.15	2249.86
432.358	2354.31
432.565	2430.09
432.772	2397.32
432.979	2559.11
433.187	2428.04
433.394	2641.03
433.601	2792.58
433.808	2763.9
434.016	2798.72
434.223	2917.5
434.43	2946.17
434.637	2886.78
434.844	3089.53
435.052	3193.98
435.259	3130.49
435.466	3331.19
435.673	3210.36
435.88	3325.05
436.087	3585.14
436.294	3511.41
436.501	3441.78
436.708	3466.36
436.915	3654.77
437.122	3857.52
437.329	3826.8
437.537	3845.23
437.743	3957.87
437.95	4060.27
438.157	4146.28
438.364	4293.74
438.571	4363.37
438.778	4357.22
438.985	4754.53
439.192	4562.02
439.399	4750.43
439.606	4654.18
439.813	4850.78
440.02	5035.1
440.227	4942.94
440.433	5018.72
440.64	5098.59
440.847	5026.91
441.054	5440.6
441.261	5665.88
441.467	5395.54
441.674	5727.32
441.881	5960.78
442.088	5903.44
442.294	5821.52
442.501	5993.55
442.708	6011.98
442.914	6349.9
443.121	6657.09
443.328	6286.41
443.534	6765.64
443.741	6710.34
443.948	6427.72
444.154	6999.1
444.361	7042.11
444.568	7089.21
444.774	7134.27
444.981	7023.68
445.187	7400.51
445.394	7640.12
445.6	7437.37
445.807	8274.99
446.013	7732.28
446.22	7898.16
446.426	8266.8
446.633	8449.07
446.839	8666.15
447.046	8455.21
447.252	8799.27
447.459	8893.47
447.665	8729.64
447.871	8965.15
448.078	9479.19
448.284	9128.99
448.491	9196.57
448.697	9610.26
448.903	9868.31
449.11	9874.45
449.316	9630.74
449.522	9993.23
449.728	10091.54
449.935	10294.29
450.141	9999.38
450.347	10554.38
450.553	10220.56
450.76	10267.66
450.966	10761.22
451.172	10581
451.378	10816.52
451.584	10738.69
451.791	10837
451.997	10824.71
452.203	10914.82
452.409	10839.05
452.615	11004.93
452.821	10564.62
453.027	10511.37
453.233	11029.51
453.44	10540.04
453.646	10523.66
453.852	10597.38
454.058	10755.08
454.264	10585.1
454.47	10699.78
454.676	10664.97
454.882	10800.13
455.088	9819.16
455.294	10048.53
455.5	10081.3
455.705	10150.93
455.911	9933.84
456.117	9653.27
456.323	9716.76
456.529	9038.88
456.735	9481.24
456.941	9186.33
457.147	8999.97
457.352	8862.76
457.558	8905.76
457.764	8873
457.97	8608.81
458.176	8510.5
458.381	8270.89
458.587	7980.08
458.793	7877.68
458.999	7459.9
459.204	8119.34
459.41	7875.63
459.616	7334.97
459.821	7259.2
460.027	7357.5
460.233	7242.81
460.438	6923.33
460.644	6845.51
460.85	6591.56
461.055	6468.68
461.261	6478.92
461.466	5995.6
461.672	5819.47
461.878	6161.48
462.083	5766.23
462.289	5682.26
462.494	5772.37
462.7	5520.47
462.905	5248.09
463.111	5428.31
463.316	5547.09
463.522	5299.29
463.727	5336.15
463.932	5311.58
464.138	5194.84
464.343	5332.06
464.549	5041.25
464.754	5262.43
464.959	5291.1
465.165	5246.04
465.37	5067.87
465.575	4983.9
465.781	5026.91
465.986	5088.35
466.191	4944.99
466.397	4756.58
466.602	4535.4
466.807	4711.52
467.012	4717.67
467.218	4564.07
467.423	4746.34
467.628	4805.73
467.833	4877.41
468.038	4750.43
468.244	4476.01
468.449	4793.44
468.654	4738.15
468.859	4508.77
469.064	4613.22
469.269	4404.33
469.474	4396.14
469.679	4453.48
469.885	4426.86
470.09	4490.34
470.295	4572.26
470.5	4258.92
470.705	4324.46
470.91	4226.15
471.115	4291.69
471.32	4367.46
