Data from USB4F104151__9__11-04-36-476.txt Node

Date: Wed Mar 12 11:04:36 EDT 2025
User: louis
Spectrometer: USB4F10415
Trigger mode: 4
Integration Time (sec): 2.000000E-2
Scans to average: 1
Electric dark correction enabled: true
Nonlinearity correction enabled: false
Boxcar width: 0
XAxis mode: Wavelengths
Number of Pixels in Spectrum: 3648
>>>>>Begin Spectral Data<<<<<
178.204	-55.64
178.424	-55.64
178.644	-55.64
178.864	-129.36
179.084	26.28
179.304	5.8
179.524	-57.68
179.744	-35.16
179.964	-16.73
180.184	44.71
180.404	42.67
180.624	-33.11
180.844	1.71
181.064	5.8
181.283	44.71
181.503	-59.73
181.723	57
181.943	-51.54
182.163	83.63
182.383	18.09
182.602	-0.34
182.822	50.86
183.042	18.09
183.262	-33.11
183.482	38.57
183.701	13.99
183.921	13.99
184.141	38.57
184.361	71.34
184.58	-72.02
184.8	-45.4
185.02	-31.06
185.239	16.04
185.459	26.28
185.679	75.43
185.898	-22.87
186.118	22.19
186.338	-14.68
186.557	7.85
186.777	11.95
186.997	-65.88
187.216	-2.39
187.436	48.81
187.655	-10.58
187.875	54.95
188.095	-39.25
188.314	30.38
188.534	9.9
188.753	-16.73
188.973	-20.82
189.192	50.86
189.412	-6.49
189.631	18.09
189.851	85.67
190.07	-18.77
190.29	50.86
190.509	-12.63
190.729	-51.54
190.948	30.38
191.168	61.1
191.387	28.33
191.607	-10.58
191.826	71.34
192.045	-16.73
192.265	-47.44
192.484	18.09
192.704	69.29
192.923	16.04
193.142	11.95
193.362	-10.58
193.581	40.62
193.8	1.71
194.02	22.19
194.239	26.28
194.458	-6.49
194.678	-26.96
194.897	-20.82
195.116	-39.25
195.335	110.25
195.555	26.28
195.774	50.86
195.993	81.58
196.212	71.34
196.432	-4.44
196.651	22.19
196.87	11.95
197.089	81.58
197.308	50.86
197.528	22.19
197.747	7.85
197.966	-0.34
198.185	38.57
198.404	7.85
198.623	79.53
198.842	34.47
199.062	24.23
199.281	69.29
199.5	22.19
199.719	48.81
199.938	-2.39
200.157	-0.34
200.376	71.34
200.595	-31.06
200.814	40.62
201.033	-0.34
201.252	26.28
201.471	1.71
201.69	-22.87
201.909	59.05
202.128	9.9
202.347	5.8
202.566	-4.44
202.785	-18.77
203.004	9.9
203.223	83.63
203.442	22.19
203.661	-49.49
203.879	79.53
204.098	67.24
204.317	36.52
204.536	44.71
204.755	-20.82
204.974	59.05
205.193	73.39
205.411	71.34
205.63	65.19
205.849	145.06
206.068	26.28
206.287	48.81
206.505	44.71
206.724	26.28
206.943	-6.49
207.162	28.33
207.381	30.38
207.599	-51.54
207.818	11.95
208.037	81.58
208.255	-2.39
208.474	20.14
208.693	5.8
208.911	71.34
209.13	-31.06
209.349	-10.58
209.567	-22.87
209.786	30.38
210.005	-41.3
210.223	54.95
210.442	-51.54
210.661	73.39
210.879	5.8
211.098	65.19
211.316	63.15
211.535	3.75
211.753	59.05
211.972	65.19
212.191	24.23
212.409	-16.73
212.628	-22.87
212.846	-47.44
213.065	67.24
213.283	-24.92
213.502	40.62
213.72	-16.73
213.938	36.52
214.157	9.9
214.375	32.43
214.594	83.63
214.812	-18.77
215.031	40.62
215.249	24.23
215.467	95.91
215.686	46.76
215.904	81.58
216.122	46.76
216.341	32.43
216.559	11.95
216.778	13.99
216.996	30.38
217.214	22.19
217.432	7.85
217.651	1.71
217.869	-0.34
218.087	-67.92
218.306	108.2
218.524	128.68
218.742	-29.01
218.96	34.47
219.179	40.62
219.397	5.8
219.615	-10.58
219.833	30.38
220.051	-49.49
220.27	34.47
220.488	71.34
220.706	-0.34
220.924	32.43
221.142	22.19
221.36	63.15
221.578	-6.49
221.796	34.47
222.015	-20.82
222.233	-10.58
222.451	69.29
222.669	-6.49
222.887	67.24
223.105	-41.3
223.323	26.28
223.541	11.95
223.759	22.19
223.977	7.85
224.195	63.15
224.413	28.33
224.631	3.75
224.849	32.43
225.067	3.75
225.285	75.43
225.503	22.19
225.721	30.38
225.939	97.96
226.157	40.62
226.375	83.63
226.592	91.82
226.81	-47.44
227.028	38.57
227.246	59.05
227.464	-6.49
227.682	50.86
227.9	30.38
228.117	26.28
228.335	36.52
228.553	57
228.771	54.95
228.989	89.77
229.206	16.04
229.424	28.33
229.642	22.19
229.86	-10.58
230.077	18.09
230.295	-2.39
230.513	91.82
230.731	11.95
230.948	83.63
231.166	63.15
231.384	30.38
231.601	48.81
231.819	50.86
232.037	34.47
232.254	38.57
232.472	22.19
232.689	20.14
232.907	59.05
233.125	61.1
233.342	-0.34
233.56	-18.77
233.777	-20.82
233.995	46.76
234.213	22.19
234.43	36.52
234.648	-49.49
234.865	22.19
235.083	-63.83
235.3	42.67
235.518	13.99
235.735	67.24
235.953	40.62
236.17	50.86
236.388	-14.68
236.605	-2.39
236.822	75.43
237.04	11.95
237.257	-14.68
237.475	-4.44
237.692	24.23
237.909	-8.53
238.127	-18.77
238.344	-2.39
238.562	54.95
238.779	-26.96
238.996	24.23
239.214	59.05
239.431	97.96
239.648	-0.34
239.865	57
240.083	32.43
240.3	48.81
240.517	-2.39
240.735	-92.5
240.952	-14.68
241.169	-67.92
241.386	95.91
241.603	59.05
241.821	-6.49
242.038	59.05
242.255	44.71
242.472	114.34
242.689	65.19
242.907	71.34
243.124	13.99
243.341	11.95
243.558	-2.39
243.775	83.63
243.992	-10.58
244.209	95.91
244.426	38.57
244.643	-4.44
244.86	-4.44
245.078	3.75
245.295	46.76
245.512	-14.68
245.729	50.86
245.946	102.06
246.163	67.24
246.38	20.14
246.597	91.82
246.814	57
247.031	-24.92
247.248	13.99
247.464	40.62
247.681	87.72
247.898	71.34
248.115	73.39
248.332	22.19
248.549	87.72
248.766	112.3
248.983	67.24
249.2	97.96
249.417	13.99
249.633	65.19
249.85	20.14
250.067	16.04
250.284	-2.39
250.501	46.76
250.717	20.14
250.934	-29.01
251.151	16.04
251.368	44.71
251.585	-8.53
251.801	-16.73
252.018	46.76
252.235	63.15
252.451	54.95
252.668	-6.49
252.885	85.67
253.102	102.06
253.318	24.23
253.535	77.48
253.752	-74.07
253.968	-0.34
254.185	11.95
254.401	-31.06
254.618	7.85
254.835	-0.34
255.051	63.15
255.268	81.58
255.484	-14.68
255.701	36.52
255.917	18.09
256.134	-14.68
256.351	63.15
256.567	30.38
256.784	5.8
257	22.19
257.217	89.77
257.433	7.85
257.65	65.19
257.866	102.06
258.082	3.75
258.299	83.63
258.515	36.52
258.732	20.14
258.948	54.95
259.165	38.57
259.381	13.99
259.597	9.9
259.814	-14.68
260.03	5.8
260.246	69.29
260.463	87.72
260.679	69.29
260.895	22.19
261.112	-10.58
261.328	38.57
261.544	112.3
261.761	20.14
261.977	7.85
262.193	44.71
262.409	89.77
262.626	18.09
262.842	-2.39
263.058	11.95
263.274	67.24
263.49	85.67
263.707	100.01
263.923	42.67
264.139	32.43
264.355	126.63
264.571	22.19
264.787	-18.77
265.004	57
265.22	91.82
265.436	-22.87
265.652	83.63
265.868	46.76
266.084	-57.68
266.3	-4.44
266.516	-14.68
266.732	106.15
266.948	48.81
267.164	42.67
267.38	59.05
267.596	-10.58
267.812	24.23
268.028	83.63
268.244	-2.39
268.46	132.78
268.676	61.1
268.892	40.62
269.108	-24.92
269.324	-6.49
269.54	7.85
269.756	71.34
269.972	44.71
270.188	38.57
270.403	-10.58
270.619	-6.49
270.835	79.53
271.051	71.34
271.267	-51.54
271.483	36.52
271.698	61.1
271.914	57
272.13	-6.49
272.346	40.62
272.562	46.76
272.777	38.57
272.993	38.57
273.209	30.38
273.425	42.67
273.64	-2.39
273.856	69.29
274.072	38.57
274.287	-16.73
274.503	57
274.719	79.53
274.934	9.9
275.15	81.58
275.366	32.43
275.581	46.76
275.797	13.99
276.012	30.38
276.228	-20.82
276.444	-2.39
276.659	-22.87
276.875	13.99
277.09	13.99
277.306	-6.49
277.521	126.63
277.737	20.14
277.952	30.38
278.168	83.63
278.383	-10.58
278.599	110.25
278.814	42.67
279.03	-2.39
279.245	126.63
279.461	34.47
279.676	40.62
279.892	59.05
280.107	-18.77
280.322	83.63
280.538	-49.49
280.753	7.85
280.969	34.47
281.184	9.9
281.399	26.28
281.615	16.04
281.83	104.11
282.045	30.38
282.26	24.23
282.476	-8.53
282.691	-12.63
282.906	-45.4
283.122	42.67
283.337	87.72
283.552	75.43
283.767	28.33
283.983	30.38
284.198	-10.58
284.413	-10.58
284.628	-0.34
284.843	63.15
285.058	-41.3
285.274	69.29
285.489	-18.77
285.704	100.01
285.919	5.8
286.134	13.99
286.349	61.1
286.564	16.04
286.779	48.81
286.995	38.57
287.21	9.9
287.425	52.91
287.64	91.82
287.855	32.43
288.07	-6.49
288.285	97.96
288.5	50.86
288.715	11.95
288.93	32.43
289.145	40.62
289.36	28.33
289.575	-12.63
289.79	112.3
290.004	42.67
290.219	-8.53
290.434	16.04
290.649	24.23
290.864	-41.3
291.079	83.63
291.294	22.19
291.509	34.47
291.724	91.82
291.938	38.57
292.153	22.19
292.368	-51.54
292.583	22.19
292.798	38.57
293.012	59.05
293.227	24.23
293.442	81.58
293.657	30.38
293.871	77.48
294.086	46.76
294.301	38.57
294.516	42.67
294.73	22.19
294.945	30.38
295.16	1.71
295.374	114.34
295.589	36.52
295.804	104.11
296.018	-12.63
296.233	57
296.447	28.33
296.662	32.43
296.877	71.34
297.091	42.67
297.306	85.67
297.52	46.76
297.735	-14.68
297.949	26.28
298.164	57
298.378	-43.35
298.593	-0.34
298.807	22.19
299.022	46.76
299.236	28.33
299.451	24.23
299.665	-12.63
299.88	46.76
300.094	-2.39
300.309	48.81
300.523	-20.82
300.737	32.43
300.952	24.23
301.166	11.95
301.381	13.99
301.595	81.58
301.809	9.9
302.024	-14.68
302.238	7.85
302.452	100.01
302.667	38.57
302.881	28.33
303.095	54.95
303.309	50.86
303.524	57
303.738	-12.63
303.952	-0.34
304.166	89.77
304.381	34.47
304.595	67.24
304.809	36.52
305.023	40.62
305.237	40.62
305.452	83.63
305.666	32.43
305.88	44.71
306.094	67.24
306.308	108.2
306.522	52.91
306.736	40.62
306.95	67.24
307.164	20.14
307.379	22.19
307.593	-12.63
307.807	11.95
308.021	44.71
308.235	50.86
308.449	1.71
308.663	11.95
308.877	120.49
309.091	-26.96
309.305	93.87
309.519	52.91
309.733	89.77
309.947	-59.73
310.161	145.06
310.374	-20.82
310.588	95.91
310.802	-2.39
311.016	67.24
311.23	-8.53
311.444	-55.64
311.658	20.14
311.872	83.63
312.085	46.76
312.299	83.63
312.513	77.48
312.727	50.86
312.941	75.43
313.154	65.19
313.368	61.1
313.582	42.67
313.796	136.87
314.009	34.47
314.223	104.11
314.437	102.06
314.651	54.95
314.864	7.85
315.078	50.86
315.292	87.72
315.505	-63.83
315.719	16.04
315.933	59.05
316.146	30.38
316.36	-53.59
316.573	50.86
316.787	-51.54
317.001	69.29
317.214	-14.68
317.428	67.24
317.641	-35.16
317.855	1.71
318.068	13.99
318.282	16.04
318.495	28.33
318.709	7.85
318.922	26.28
319.136	83.63
319.349	87.72
319.563	-0.34
319.776	91.82
319.99	77.48
320.203	87.72
320.417	44.71
320.63	87.72
320.843	30.38
321.057	69.29
321.27	-12.63
321.483	-12.63
321.697	77.48
321.91	102.06
322.124	54.95
322.337	46.76
322.55	22.19
322.763	61.1
322.977	83.63
323.19	7.85
323.403	-4.44
323.617	11.95
323.83	22.19
324.043	-10.58
324.256	118.44
324.469	7.85
324.683	36.52
324.896	26.28
325.109	26.28
325.322	50.86
325.535	40.62
325.748	-8.53
325.962	36.52
326.175	30.38
326.388	63.15
326.601	11.95
326.814	7.85
327.027	22.19
327.24	67.24
327.453	-61.78
327.666	-10.58
327.879	59.05
328.092	91.82
328.305	-4.44
328.518	67.24
328.731	36.52
328.944	26.28
329.157	9.9
329.37	65.19
329.583	38.57
329.796	100.01
330.009	50.86
330.222	77.48
330.435	3.75
330.648	77.48
330.861	77.48
331.073	30.38
331.286	128.68
331.499	-16.73
331.712	16.04
331.925	59.05
332.138	18.09
332.35	106.15
332.563	54.95
332.776	34.47
332.989	11.95
333.202	95.91
333.414	61.1
333.627	124.58
333.84	44.71
334.053	52.91
334.265	46.76
334.478	63.15
334.691	83.63
334.903	63.15
335.116	13.99
335.329	85.67
335.541	83.63
335.754	63.15
335.966	38.57
336.179	46.76
336.392	32.43
336.604	48.81
336.817	173.74
337.029	97.96
337.242	75.43
337.454	18.09
337.667	48.81
337.88	126.63
338.092	9.9
338.305	5.8
338.517	22.19
338.729	65.19
338.942	24.23
339.154	32.43
339.367	-53.59
339.579	-20.82
339.792	30.38
340.004	42.67
340.217	54.95
340.429	81.58
340.641	91.82
340.854	-16.73
341.066	13.99
341.278	100.01
341.491	108.2
341.703	61.1
341.915	24.23
342.128	52.91
342.34	34.47
342.552	69.29
342.764	54.95
342.977	26.28
343.189	-12.63
343.401	140.97
343.613	-2.39
343.826	114.34
344.038	22.19
344.25	-2.39
344.462	46.76
344.674	73.39
344.886	104.11
345.099	75.43
345.311	-2.39
345.523	-18.77
345.735	16.04
345.947	81.58
346.159	93.87
346.371	22.19
346.583	79.53
346.795	83.63
347.007	85.67
347.219	36.52
347.431	-35.16
347.643	50.86
347.855	-12.63
348.067	59.05
348.279	46.76
348.491	28.33
348.703	5.8
348.915	5.8
349.127	71.34
349.339	110.25
349.551	44.71
349.763	75.43
349.975	61.1
350.187	71.34
350.399	81.58
350.61	34.47
350.822	87.72
351.034	124.58
351.246	114.34
351.458	87.72
351.669	46.76
351.881	22.19
352.093	61.1
352.305	116.39
352.517	73.39
352.728	-2.39
352.94	1.71
353.152	42.67
353.363	50.86
353.575	20.14
353.787	32.43
353.999	32.43
354.21	44.71
354.422	54.95
354.633	-14.68
354.845	110.25
355.057	71.34
355.268	42.67
355.48	48.81
355.692	48.81
355.903	-96.6
356.115	159.4
356.326	36.52
356.538	73.39
356.749	79.53
356.961	85.67
357.172	11.95
357.384	81.58
357.595	20.14
357.807	79.53
358.018	20.14
358.23	-47.44
358.441	118.44
358.653	71.34
358.864	11.95
359.075	89.77
359.287	30.38
359.498	136.87
359.709	91.82
359.921	75.43
360.132	50.86
360.344	65.19
360.555	-31.06
360.766	44.71
360.977	-4.44
361.189	-0.34
361.4	18.09
361.611	145.06
361.823	38.57
362.034	67.24
362.245	-12.63
362.456	75.43
362.667	65.19
362.879	69.29
363.09	38.57
363.301	46.76
363.512	67.24
363.723	102.06
363.935	67.24
364.146	44.71
364.357	34.47
364.568	71.34
364.779	36.52
364.99	50.86
365.201	-45.4
365.412	75.43
365.623	59.05
365.834	143.02
366.045	104.11
366.256	48.81
366.467	122.54
366.678	95.91
366.889	22.19
367.1	91.82
367.311	44.71
367.522	44.71
367.733	28.33
367.944	93.87
368.155	22.19
368.366	42.67
368.577	69.29
368.788	79.53
368.999	91.82
369.209	-24.92
369.42	143.02
369.631	122.54
369.842	20.14
370.053	93.87
370.264	16.04
370.474	65.19
370.685	22.19
370.896	16.04
371.107	91.82
371.317	77.48
371.528	83.63
371.739	75.43
371.95	61.1
372.16	91.82
372.371	-6.49
372.582	46.76
372.792	54.95
373.003	7.85
373.214	77.48
373.424	50.86
373.635	-4.44
373.846	34.47
374.056	-6.49
374.267	198.31
374.477	48.81
374.688	44.71
374.898	20.14
375.109	93.87
375.319	42.67
375.53	67.24
375.74	13.99
375.951	-16.73
376.161	36.52
376.372	95.91
376.582	67.24
376.793	52.91
377.003	-2.39
377.214	77.48
377.424	57
377.635	57
377.845	97.96
378.055	104.11
378.266	46.76
378.476	38.57
378.686	108.2
378.897	38.57
379.107	22.19
379.317	140.97
379.528	93.87
379.738	108.2
379.948	22.19
380.158	11.95
380.369	79.53
380.579	97.96
380.789	71.34
380.999	106.15
381.21	67.24
381.42	116.39
381.63	97.96
381.84	32.43
382.05	124.58
382.261	65.19
382.471	114.34
382.681	20.14
382.891	50.86
383.101	97.96
383.311	75.43
383.521	52.91
383.731	24.23
383.941	100.01
384.151	69.29
384.361	91.82
384.571	87.72
384.781	-10.58
384.991	106.15
385.201	-18.77
385.411	79.53
385.621	69.29
385.831	69.29
386.041	67.24
386.251	50.86
386.461	75.43
386.671	52.91
386.881	95.91
387.091	73.39
387.301	91.82
387.511	120.49
387.72	63.15
387.93	44.71
388.14	34.47
388.35	138.92
388.56	75.43
388.769	110.25
388.979	73.39
389.189	9.9
389.399	75.43
389.609	16.04
389.818	61.1
390.028	32.43
390.238	114.34
390.447	110.25
390.657	83.63
390.867	42.67
391.076	126.63
391.286	30.38
391.496	44.71
391.705	22.19
391.915	116.39
392.125	71.34
392.334	153.26
392.544	100.01
392.753	200.36
392.963	44.71
393.172	75.43
393.382	97.96
393.591	118.44
393.801	97.96
394.01	44.71
394.22	118.44
394.429	44.71
394.639	95.91
394.848	116.39
395.058	79.53
395.267	30.38
395.477	71.34
395.686	79.53
395.895	177.83
396.105	198.31
396.314	120.49
396.524	106.15
396.733	93.87
396.942	151.21
397.152	61.1
397.361	83.63
397.57	89.77
397.78	97.96
397.989	75.43
398.198	145.06
398.407	132.78
398.617	163.5
398.826	79.53
399.035	87.72
399.244	116.39
399.453	91.82
399.663	163.5
399.872	104.11
400.081	102.06
400.29	149.16
400.499	38.57
400.708	177.83
400.917	100.01
401.127	83.63
401.336	73.39
401.545	220.84
401.754	165.54
401.963	151.21
402.172	65.19
402.381	190.12
402.59	155.3
402.799	157.35
403.008	171.69
403.217	165.54
403.426	161.45
403.635	155.3
403.844	143.02
404.053	181.93
404.262	116.39
404.471	130.73
404.68	124.58
404.888	177.83
405.097	151.21
405.306	77.48
405.515	171.69
405.724	157.35
405.933	190.12
406.142	190.12
406.35	192.17
406.559	224.94
406.768	194.22
406.977	233.13
407.185	173.74
407.394	186.02
407.603	194.22
407.812	194.22
408.02	263.85
408.229	229.03
408.438	267.94
408.646	282.28
408.855	282.28
409.064	304.81
409.272	343.72
409.481	339.62
409.69	298.66
409.898	272.04
410.107	353.96
410.315	321.19
410.524	333.48
410.733	286.37
410.941	407.2
411.15	401.06
411.358	470.69
411.567	472.74
411.775	452.26
411.984	442.02
412.192	558.75
412.401	505.51
412.609	509.6
412.818	503.46
413.026	577.19
413.234	607.91
413.443	575.14
413.651	632.48
413.86	573.09
414.068	728.74
414.276	710.3
414.485	685.73
414.693	734.88
414.901	837.28
415.11	843.42
415.318	798.37
415.526	845.47
415.734	906.91
415.943	890.53
416.151	947.87
416.359	958.11
416.567	908.96
416.776	978.59
416.984	1044.12
417.192	1195.67
417.4	1052.31
417.608	1109.66
417.817	1263.26
418.025	1181.34
418.233	1228.44
418.441	1248.92
418.649	1339.03
418.857	1472.15
419.065	1490.58
419.273	1509.01
419.481	1566.35
419.689	1638.03
419.897	1715.86
420.105	1765.01
420.313	1842.83
420.521	1861.26
420.729	1885.84
420.937	1846.93
421.145	2031.24
421.353	2010.76
421.561	2182.79
421.769	2320.01
421.977	2391.69
422.185	2291.34
422.393	2535.04
422.601	2500.23
422.809	2612.87
423.017	2633.35
423.224	2821.76
423.432	2997.88
423.64	2963.07
423.848	3196.54
424.056	3096.19
424.263	3366.52
424.471	3376.76
424.679	3427.96
424.887	3548.79
425.094	3657.33
425.302	3602.04
425.51	3798.64
425.718	3884.66
425.925	3884.66
426.133	4028.01
426.341	4302.44
426.548	4439.65
426.756	4685.41
426.964	4605.54
427.171	4898.4
427.379	5146.2
427.586	5119.58
427.794	5111.39
428.001	5463.64
428.209	5715.54
428.417	5525.08
428.624	5989.97
428.832	6002.26
429.039	6071.89
429.247	5994.06
429.454	6637.13
429.662	7016
429.869	6417.99
430.076	6917.7
430.284	6805.06
430.491	7024.19
430.699	7470.65
430.906	7532.09
431.114	7724.6
431.321	7986.74
431.528	8146.48
431.736	8635.94
431.943	9023.01
432.15	8775.2
432.358	8936.99
432.565	9414.17
432.772	9389.6
432.979	9895.44
433.187	10028.56
433.394	10075.66
433.601	10565.13
433.808	10761.73
434.016	10604.04
434.223	11163.14
434.43	11929.08
434.637	11499
434.844	12344.81
435.052	12725.74
435.259	12164.59
435.466	12555.76
435.673	12451.31
435.88	13164
436.087	14018
436.294	13895.13
436.501	13645.27
436.708	14224.85
436.915	14503.37
437.122	14853.58
437.329	15003.08
437.537	15357.38
437.743	15730.11
437.95	15574.46
438.157	16375.22
438.364	16915.88
438.571	17057.19
438.778	16887.21
438.985	18881.93
439.192	17993.11
439.399	18570.64
439.606	17962.39
439.813	18943.37
440.02	20079.99
440.227	19750.27
440.433	20004.22
440.64	20690.29
440.847	20155.77
441.054	20872.56
441.261	22394.2
441.467	22152.54
441.674	22230.36
441.881	23283.02
442.088	23244.1
442.294	23065.93
442.501	23465.28
442.708	24210.75
442.914	25177.39
443.121	25736.48
443.328	25236.78
443.534	27094.29
443.741	26297.63
443.948	26019.1
444.154	27430.15
444.361	27819.27
444.568	27706.63
444.774	27921.66
444.981	28079.36
445.187	28919.03
445.394	30248.16
445.6	29916.39
445.807	33186.99
446.013	31362.25
446.22	31698.12
446.426	32992.44
446.633	33447.08
446.839	34634.91
447.046	32931
447.252	34780.31
447.459	34892.95
447.665	34831.51
447.871	36232.32
448.078	38106.21
448.284	36201.6
448.491	36848.76
448.697	38098.02
448.903	39003.22
449.11	39304.27
449.316	38327.39
449.522	39134.29
449.728	39763.02
449.935	40551.49
450.141	40483.9
450.347	40557.63
450.553	39941.19
450.76	40307.78
450.966	41290.8
451.172	40823.87
451.378	41737.26
451.584	40934.46
451.791	42011.69
451.997	41866.28
452.203	42179.62
452.409	42492.96
452.615	42353.7
452.821	40639.55
453.027	40014.92
453.233	41880.62
453.44	39826.51
453.646	40553.54
453.852	40733.76
454.058	41475.12
454.264	39904.33
454.47	40778.81
454.676	40084.55
454.882	41151.54
455.088	37547.12
455.294	37971.05
455.5	38528.09
455.705	39042.13
455.911	37287.03
456.117	36471.93
456.323	36101.25
456.529	33924.26
456.735	35413.13
456.941	34290.85
457.147	33967.27
457.352	33086.64
457.558	32476.35
457.764	32449.72
457.97	31933.64
458.176	31450.31
458.381	30973.14
458.587	29410.54
458.793	29553.9
458.999	28067.07
459.204	29785.32
459.41	29437.16
459.616	27385.1
459.821	27329.8
460.027	27127.05
460.233	26486.04
460.438	25298.22
460.644	25709.86
460.85	24513.84
461.055	23997.76
461.261	23551.3
461.466	22117.72
461.672	21382.5
461.878	22957.39
462.083	21339.49
462.289	21060.97
462.494	20940.14
462.7	20272.5
462.905	19479.94
463.111	20243.83
463.316	20282.74
463.522	19803.52
463.727	19981.69
463.932	19754.37
464.138	19707.26
464.343	19709.31
464.549	19168.65
464.754	19893.63
464.959	19676.54
465.165	19305.86
465.37	18728.33
465.575	18109.85
465.781	18896.27
465.986	19213.7
466.191	18132.37
466.397	17993.11
466.602	17345.95
466.807	17710.49
467.012	17911.19
