Data from USB4F104151__295__11-13-08-079.txt Node

Date: Wed Mar 12 11:13:08 EDT 2025
User: louis
Spectrometer: USB4F10415
Trigger mode: 4
Integration Time (sec): 2.000000E-2
Scans to average: 1
Electric dark correction enabled: true
Nonlinearity correction enabled: false
Boxcar width: 0
XAxis mode: Wavelengths
Number of Pixels in Spectrum: 3648
>>>>>Begin Spectral Data<<<<<
178.204	-48.3
178.424	-48.3
178.644	-48.3
178.864	-29.87
179.084	-15.53
179.304	-58.54
179.524	-3.24
179.744	-19.63
179.964	-36.01
180.184	68.44
180.404	50
180.624	43.86
180.844	-36.01
181.064	-15.53
181.283	-7.34
181.503	11.09
181.723	2.9
181.943	19.29
182.163	41.81
182.383	31.57
182.602	43.86
182.822	72.53
183.042	-5.29
183.262	4.95
183.482	54.1
183.701	41.81
183.921	47.96
184.141	-5.29
184.361	33.62
184.58	25.43
184.8	103.25
185.02	39.76
185.239	119.64
185.459	13.14
185.679	17.24
185.898	9.05
186.118	72.53
186.338	50
186.557	41.81
186.777	-15.53
186.997	45.91
187.216	4.95
187.436	82.77
187.655	74.58
187.875	103.25
188.095	80.72
188.314	4.95
188.534	25.43
188.753	-56.49
188.973	66.39
189.192	13.14
189.412	9.05
189.631	29.52
189.851	41.81
190.07	111.44
190.29	-11.43
190.509	-36.01
190.729	54.1
190.948	25.43
191.168	172.88
191.387	105.3
191.607	58.2
191.826	62.29
192.045	31.57
192.265	127.83
192.484	-11.43
192.704	-3.24
192.923	33.62
193.142	93.01
193.362	72.53
193.581	-11.43
193.8	2.9
194.02	72.53
194.239	23.38
194.458	-3.24
194.678	64.34
194.897	99.16
195.116	68.44
195.335	21.33
195.555	4.95
195.774	31.57
195.993	37.72
196.212	82.77
196.432	11.09
196.651	25.43
196.87	35.67
197.089	154.45
197.308	76.63
197.528	84.82
197.747	11.09
197.966	76.63
198.185	50
198.404	-23.72
198.623	60.24
198.842	37.72
199.062	82.77
199.281	107.35
199.5	47.96
199.719	78.68
199.938	15.19
200.157	-1.19
200.376	-13.48
200.595	107.35
200.814	60.24
201.033	33.62
201.252	80.72
201.471	-27.82
201.69	56.15
201.909	109.4
202.128	33.62
202.347	58.2
202.566	23.38
202.785	39.76
203.004	27.48
203.223	60.24
203.442	68.44
203.661	60.24
203.879	68.44
204.098	47.96
204.317	-52.39
204.536	56.15
204.755	13.14
204.974	74.58
205.193	50
205.411	82.77
205.63	70.48
205.849	41.81
206.068	31.57
206.287	41.81
206.505	21.33
206.724	136.02
206.943	23.38
207.162	50
207.381	0.85
207.599	9.05
207.818	-1.19
208.037	47.96
208.255	13.14
208.474	13.14
208.693	-48.3
208.911	-9.39
209.13	56.15
209.349	43.86
209.567	50
209.786	58.2
210.005	68.44
210.223	2.9
210.442	-25.77
210.661	-19.63
210.879	25.43
211.098	76.63
211.316	54.1
211.535	29.52
211.753	-56.49
211.972	39.76
212.191	17.24
212.409	101.2
212.628	39.76
212.846	68.44
213.065	47.96
213.283	-5.29
213.502	78.68
213.72	82.77
213.938	123.73
214.157	68.44
214.375	45.91
214.594	31.57
214.812	105.3
215.031	27.48
215.249	54.1
215.467	27.48
215.686	88.92
215.904	74.58
216.122	23.38
216.341	17.24
216.559	27.48
216.778	-11.43
216.996	21.33
217.214	2.9
217.432	93.01
217.651	-13.48
217.869	19.29
218.087	29.52
218.306	-21.67
218.524	62.29
218.742	76.63
218.96	123.73
219.179	125.78
219.397	58.2
219.615	21.33
219.833	21.33
220.051	54.1
220.27	37.72
220.488	21.33
220.706	60.24
220.924	56.15
221.142	15.19
221.36	45.91
221.578	37.72
221.796	47.96
222.015	25.43
222.233	-5.29
222.451	39.76
222.669	19.29
222.887	95.06
223.105	-44.2
223.323	7
223.541	78.68
223.759	47.96
223.977	-25.77
224.195	60.24
224.413	136.02
224.631	47.96
224.849	-50.35
225.067	66.39
225.285	74.58
225.503	74.58
225.721	21.33
225.939	0.85
226.157	37.72
226.375	70.48
226.592	45.91
226.81	76.63
227.028	11.09
227.246	27.48
227.464	84.82
227.682	15.19
227.9	58.2
228.117	-9.39
228.335	52.05
228.553	80.72
228.771	43.86
228.989	-29.87
229.206	-44.2
229.424	84.82
229.642	9.05
229.86	4.95
230.077	-31.91
230.295	33.62
230.513	-23.72
230.731	-15.53
230.948	47.96
231.166	74.58
231.384	19.29
231.601	-48.3
231.819	93.01
232.037	76.63
232.254	-97.45
232.472	-13.48
232.689	-11.43
232.907	64.34
233.125	37.72
233.342	29.52
233.56	-1.19
233.777	86.87
233.995	52.05
234.213	21.33
234.43	93.01
234.648	7
234.865	7
235.083	52.05
235.3	43.86
235.518	47.96
235.735	90.96
235.953	72.53
236.17	109.4
236.388	52.05
236.605	76.63
236.822	76.63
237.04	-5.29
237.257	35.67
237.475	19.29
237.692	33.62
237.909	-17.58
238.127	-19.63
238.344	68.44
238.562	41.81
238.779	54.1
238.996	47.96
239.214	27.48
239.431	43.86
239.648	-29.87
239.865	62.29
240.083	17.24
240.3	80.72
240.517	-9.39
240.735	-38.06
240.952	72.53
241.169	37.72
241.386	68.44
241.603	62.29
241.821	45.91
242.038	56.15
242.255	33.62
242.472	-31.91
242.689	62.29
242.907	50
243.124	33.62
243.341	-5.29
243.558	66.39
243.775	84.82
243.992	2.9
244.209	9.05
244.426	93.01
244.643	-9.39
244.86	39.76
245.078	-44.2
245.295	82.77
245.512	109.4
245.729	-9.39
245.946	60.24
246.163	11.09
246.38	60.24
246.597	72.53
246.814	105.3
247.031	25.43
247.248	60.24
247.464	4.95
247.681	19.29
247.898	15.19
248.115	105.3
248.332	9.05
248.549	88.92
248.766	56.15
248.983	86.87
249.2	11.09
249.417	74.58
249.633	95.06
249.85	9.05
250.067	90.96
250.284	17.24
250.501	-13.48
250.717	-1.19
250.934	21.33
251.151	-29.87
251.368	29.52
251.585	78.68
251.801	39.76
252.018	97.11
252.235	54.1
252.451	-58.54
252.668	27.48
252.885	60.24
253.102	74.58
253.318	41.81
253.535	-1.19
253.752	35.67
253.968	50
254.185	27.48
254.401	-11.43
254.618	52.05
254.835	-9.39
255.051	119.64
255.268	29.52
255.484	56.15
255.701	23.38
255.917	27.48
256.134	33.62
256.351	27.48
256.567	37.72
256.784	19.29
257	-19.63
257.217	185.17
257.433	-31.91
257.65	84.82
257.866	29.52
258.082	64.34
258.299	29.52
258.515	25.43
258.732	39.76
258.948	64.34
259.165	-23.72
259.381	70.48
259.597	56.15
259.814	9.05
260.03	17.24
260.246	37.72
260.463	35.67
260.679	41.81
260.895	66.39
261.112	62.29
261.328	-31.91
261.544	2.9
261.761	4.95
261.977	-9.39
262.193	54.1
262.409	74.58
262.626	4.95
262.842	72.53
263.058	-23.72
263.274	-5.29
263.49	17.24
263.707	33.62
263.923	31.57
264.139	58.2
264.355	66.39
264.571	103.25
264.787	15.19
265.004	-21.67
265.22	58.2
265.436	27.48
265.652	37.72
265.868	23.38
266.084	-1.19
266.3	19.29
266.516	43.86
266.732	82.77
266.948	52.05
267.164	29.52
267.38	70.48
267.596	2.9
267.812	62.29
268.028	50
268.244	64.34
268.46	-19.63
268.676	52.05
268.892	23.38
269.108	11.09
269.324	25.43
269.54	33.62
269.756	82.77
269.972	82.77
270.188	7
270.403	56.15
270.619	4.95
270.835	-23.72
271.051	56.15
271.267	41.81
271.483	23.38
271.698	-17.58
271.914	23.38
272.13	31.57
272.346	121.68
272.562	27.48
272.777	25.43
272.993	19.29
273.209	-21.67
273.425	-11.43
273.64	70.48
273.856	31.57
274.072	-13.48
274.287	43.86
274.503	70.48
274.719	82.77
274.934	50
275.15	4.95
275.366	74.58
275.581	66.39
275.797	-23.72
276.012	93.01
276.228	78.68
276.444	-1.19
276.659	25.43
276.875	-7.34
277.09	99.16
277.306	17.24
277.521	58.2
277.737	50
277.952	25.43
278.168	9.05
278.383	35.67
278.599	86.87
278.814	115.54
279.03	45.91
279.245	84.82
279.461	60.24
279.676	146.26
279.892	13.14
280.107	52.05
280.322	-33.96
280.538	74.58
280.753	41.81
280.969	47.96
281.184	33.62
281.399	62.29
281.615	-23.72
281.83	109.4
282.045	103.25
282.26	-42.15
282.476	70.48
282.691	80.72
282.906	31.57
283.122	84.82
283.337	4.95
283.552	25.43
283.767	99.16
283.983	60.24
284.198	-3.24
284.413	86.87
284.628	15.19
284.843	-11.43
285.058	15.19
285.274	47.96
285.489	-13.48
285.704	-17.58
285.919	41.81
286.134	-7.34
286.349	0.85
286.564	56.15
286.779	64.34
286.995	-29.87
287.21	7
287.425	-36.01
287.64	27.48
287.855	-68.78
288.07	39.76
288.285	33.62
288.5	82.77
288.715	62.29
288.93	-13.48
289.145	45.91
289.36	31.57
289.575	41.81
289.79	60.24
290.004	23.38
290.219	-27.82
290.434	103.25
290.649	17.24
290.864	19.29
291.079	19.29
291.294	-1.19
291.509	-3.24
291.724	70.48
291.938	-19.63
292.153	88.92
292.368	37.72
292.583	72.53
292.798	58.2
293.012	68.44
293.227	56.15
293.442	80.72
293.657	50
293.871	13.14
294.086	25.43
294.301	101.2
294.516	70.48
294.73	76.63
294.945	-52.39
295.16	82.77
295.374	21.33
295.589	88.92
295.804	72.53
296.018	27.48
296.233	13.14
296.447	86.87
296.662	4.95
296.877	66.39
297.091	35.67
297.306	45.91
297.52	70.48
297.735	54.1
297.949	33.62
298.164	119.64
298.378	93.01
298.593	-5.29
298.807	25.43
299.022	-9.39
299.236	-11.43
299.451	13.14
299.665	95.06
299.88	31.57
300.094	15.19
300.309	11.09
300.523	47.96
300.737	27.48
300.952	47.96
301.166	123.73
301.381	-17.58
301.595	56.15
301.809	35.67
302.024	2.9
302.238	0.85
302.452	-15.53
302.667	133.97
302.881	70.48
303.095	56.15
303.309	56.15
303.524	-11.43
303.738	60.24
303.952	78.68
304.166	47.96
304.381	-17.58
304.595	88.92
304.809	60.24
305.023	97.11
305.237	27.48
305.452	-13.48
305.666	-5.29
305.88	138.07
306.094	47.96
306.308	111.44
306.522	4.95
306.736	74.58
306.95	60.24
307.164	43.86
307.379	-1.19
307.593	7
307.807	35.67
308.021	11.09
308.235	0.85
308.449	25.43
308.663	35.67
308.877	103.25
309.091	60.24
309.305	131.92
309.519	39.76
309.733	76.63
309.947	25.43
310.161	74.58
310.374	9.05
310.588	144.21
310.802	-42.15
311.016	27.48
311.23	47.96
311.444	50
311.658	37.72
311.872	17.24
312.085	41.81
312.299	74.58
312.513	90.96
312.727	93.01
312.941	21.33
313.154	19.29
313.368	33.62
313.582	90.96
313.796	29.52
314.009	29.52
314.223	136.02
314.437	74.58
314.651	15.19
314.864	-9.39
315.078	107.35
315.292	11.09
315.505	-23.72
315.719	50
315.933	84.82
316.146	31.57
316.36	43.86
316.573	74.58
316.787	39.76
317.001	45.91
317.214	21.33
317.428	64.34
317.641	93.01
317.855	-21.67
318.068	-7.34
318.282	33.62
318.495	60.24
318.709	109.4
318.922	78.68
319.136	129.88
319.349	74.58
319.563	35.67
319.776	47.96
319.99	43.86
320.203	68.44
320.417	88.92
320.63	58.2
320.843	82.77
321.057	33.62
321.27	9.05
321.483	0.85
321.697	25.43
321.91	11.09
322.124	76.63
322.337	33.62
322.55	56.15
322.763	43.86
322.977	74.58
323.19	15.19
323.403	-15.53
323.617	-3.24
323.83	19.29
324.043	62.29
324.256	50
324.469	54.1
324.683	117.59
324.896	23.38
325.109	27.48
325.322	15.19
325.535	86.87
325.748	95.06
325.962	29.52
326.175	43.86
326.388	58.2
326.601	15.19
326.814	95.06
327.027	13.14
327.24	72.53
327.453	23.38
327.666	101.2
327.879	99.16
328.092	58.2
328.305	70.48
328.518	-1.19
328.731	47.96
328.944	19.29
329.157	-15.53
329.37	60.24
329.583	54.1
329.796	111.44
330.009	-23.72
330.222	54.1
330.435	105.3
330.648	103.25
330.861	2.9
331.073	27.48
331.286	115.54
331.499	45.91
331.712	-5.29
331.925	45.91
332.138	37.72
332.35	25.43
332.563	-23.72
332.776	58.2
332.989	23.38
333.202	39.76
333.414	82.77
333.627	17.24
333.84	-27.82
334.053	113.49
334.265	11.09
334.478	90.96
334.691	115.54
334.903	52.05
335.116	23.38
335.329	103.25
335.541	56.15
335.754	35.67
335.966	127.83
336.179	74.58
336.392	95.06
336.604	97.11
336.817	62.29
337.029	7
337.242	45.91
337.454	56.15
337.667	64.34
337.88	21.33
338.092	56.15
338.305	117.59
338.517	86.87
338.729	70.48
338.942	95.06
339.154	95.06
339.367	-21.67
339.579	156.5
339.792	-5.29
340.004	13.14
340.217	41.81
340.429	41.81
340.641	7
340.854	70.48
341.066	86.87
341.278	111.44
341.491	86.87
341.703	68.44
341.915	-27.82
342.128	-48.3
342.34	80.72
342.552	66.39
342.764	93.01
342.977	58.2
343.189	72.53
343.401	47.96
343.613	101.2
343.826	2.9
344.038	27.48
344.25	47.96
344.462	107.35
344.674	97.11
344.886	54.1
345.099	37.72
345.311	109.4
345.523	2.9
345.735	121.68
345.947	27.48
346.159	9.05
346.371	103.25
346.583	136.02
346.795	121.68
347.007	84.82
347.219	123.73
347.431	45.91
347.643	82.77
347.855	70.48
348.067	60.24
348.279	45.91
348.491	86.87
348.703	31.57
348.915	45.91
349.127	-3.24
349.339	111.44
349.551	0.85
349.763	13.14
349.975	27.48
350.187	37.72
350.399	37.72
350.61	76.63
350.822	27.48
351.034	78.68
351.246	76.63
351.458	19.29
351.669	15.19
351.881	140.12
352.093	50
352.305	84.82
352.517	39.76
352.728	86.87
352.94	90.96
353.152	97.11
353.363	35.67
353.575	-23.72
353.787	115.54
353.999	4.95
354.21	11.09
354.422	64.34
354.633	39.76
354.845	-33.96
355.057	70.48
355.268	41.81
355.48	43.86
355.692	35.67
355.903	43.86
356.115	-15.53
356.326	-1.19
356.538	70.48
356.749	31.57
356.961	84.82
357.172	50
357.384	84.82
357.595	121.68
357.807	86.87
358.018	86.87
358.23	2.9
358.441	82.77
358.653	129.88
358.864	4.95
359.075	-15.53
359.287	111.44
359.498	78.68
359.709	115.54
359.921	2.9
360.132	17.24
360.344	119.64
360.555	56.15
360.766	60.24
360.977	50
361.189	101.2
361.4	52.05
361.611	107.35
361.823	25.43
362.034	56.15
362.245	-3.24
362.456	15.19
362.667	86.87
362.879	-9.39
363.09	-36.01
363.301	35.67
363.512	129.88
363.723	103.25
363.935	60.24
364.146	97.11
364.357	13.14
364.568	64.34
364.779	60.24
364.99	142.16
365.201	-23.72
365.412	88.92
365.623	7
365.834	37.72
366.045	-38.06
366.256	78.68
366.467	21.33
366.678	29.52
366.889	99.16
367.1	66.39
367.311	74.58
367.522	56.15
367.733	97.11
367.944	37.72
368.155	99.16
368.366	140.12
368.577	43.86
368.788	115.54
368.999	-7.34
369.209	54.1
369.42	74.58
369.631	138.07
369.842	39.76
370.053	115.54
370.264	136.02
370.474	70.48
370.685	78.68
370.896	37.72
371.107	72.53
371.317	103.25
371.528	76.63
371.739	76.63
371.95	11.09
372.16	-15.53
372.371	86.87
372.582	95.06
372.792	2.9
373.003	88.92
373.214	103.25
373.424	58.2
373.635	76.63
373.846	131.92
374.056	-11.43
374.267	33.62
374.477	54.1
374.688	50
374.898	29.52
375.109	39.76
375.319	37.72
375.53	76.63
375.74	123.73
375.951	101.2
376.161	103.25
376.372	117.59
376.582	68.44
376.793	56.15
377.003	17.24
377.214	33.62
377.424	4.95
377.635	27.48
377.845	33.62
378.055	127.83
378.266	25.43
378.476	52.05
378.686	29.52
378.897	54.1
379.107	52.05
379.317	45.91
379.528	39.76
379.738	56.15
379.948	39.76
380.158	90.96
380.369	90.96
380.579	62.29
380.789	68.44
380.999	21.33
381.21	52.05
381.42	80.72
381.63	58.2
381.84	2.9
382.05	13.14
382.261	64.34
382.471	90.96
382.681	58.2
382.891	86.87
383.101	27.48
383.311	13.14
383.521	82.77
383.731	150.36
383.941	86.87
384.151	35.67
384.361	97.11
384.571	70.48
384.781	80.72
384.991	-5.29
385.201	47.96
385.411	60.24
385.621	31.57
385.831	45.91
386.041	19.29
386.251	154.45
386.461	88.92
386.671	2.9
386.881	99.16
387.091	82.77
387.301	95.06
387.511	29.52
387.72	74.58
387.93	17.24
388.14	107.35
388.35	17.24
388.56	41.81
388.769	86.87
388.979	117.59
389.189	93.01
389.399	-11.43
389.609	127.83
389.818	50
390.028	39.76
390.238	78.68
390.447	84.82
390.657	80.72
390.867	72.53
391.076	138.07
391.286	-3.24
391.496	82.77
391.705	41.81
391.915	80.72
392.125	60.24
392.334	21.33
392.544	23.38
392.753	25.43
392.963	123.73
393.172	82.77
393.382	58.2
393.591	146.26
393.801	78.68
394.01	70.48
394.22	78.68
394.429	88.92
394.639	64.34
394.848	58.2
395.058	50
395.267	107.35
395.477	121.68
395.686	119.64
395.895	158.55
396.105	97.11
396.314	33.62
396.524	127.83
396.733	131.92
396.942	111.44
397.152	45.91
397.361	76.63
397.57	45.91
397.78	144.21
397.989	80.72
398.198	138.07
398.407	113.49
398.617	84.82
398.826	58.2
399.035	113.49
399.244	86.87
399.453	52.05
399.663	86.87
399.872	78.68
400.081	47.96
400.29	150.36
400.499	152.4
400.708	70.48
400.917	152.4
401.127	154.45
401.336	62.29
401.545	195.41
401.754	144.21
401.963	111.44
402.172	99.16
402.381	119.64
402.59	133.97
402.799	82.77
403.008	170.83
403.217	138.07
403.426	74.58
403.635	115.54
403.844	125.78
404.053	138.07
404.262	125.78
404.471	166.74
404.68	181.07
404.888	58.2
405.097	179.03
405.306	142.16
405.515	156.5
405.724	185.17
405.933	187.22
406.142	230.23
406.35	107.35
406.559	211.79
406.768	144.21
406.977	213.84
407.185	236.37
407.394	207.7
407.603	193.36
407.812	179.03
408.02	252.75
408.229	240.47
408.438	267.09
408.646	140.12
408.855	215.89
409.064	248.66
409.272	262.99
409.481	275.28
409.69	273.23
409.898	244.56
410.107	193.36
410.315	254.8
410.524	260.95
410.733	342.86
410.941	265.04
411.15	394.06
411.358	318.29
411.567	338.77
411.775	342.86
411.984	398.16
412.192	422.73
412.401	357.2
412.609	430.93
412.818	465.74
413.026	523.09
413.234	428.88
413.443	543.57
413.651	459.6
413.86	516.94
414.068	557.9
414.276	594.76
414.485	590.67
414.693	643.92
414.901	613.2
415.11	676.68
415.318	629.58
415.526	627.53
415.734	641.87
415.943	746.31
416.151	772.94
416.359	781.13
416.567	809.8
416.776	883.53
416.984	887.62
417.192	934.73
417.4	881.48
417.608	822.09
417.817	959.3
418.025	1037.13
418.233	1094.47
418.441	1020.74
418.649	1104.71
418.857	1065.8
419.065	1235.78
419.273	1149.76
419.481	1329.99
419.689	1395.52
419.897	1407.81
420.105	1454.91
420.313	1446.72
420.521	1463.1
420.729	1545.02
420.937	1532.73
421.145	1489.73
421.353	1758.01
421.561	1721.15
421.769	1737.53
421.977	1913.66
422.185	1780.54
422.393	1956.66
422.601	2159.41
422.809	2163.51
423.017	2108.21
423.224	2179.89
423.432	2261.81
423.64	2339.63
423.848	2558.77
424.056	2401.07
424.263	2591.53
424.471	2642.73
424.679	2790.19
424.887	2786.09
425.094	2904.87
425.302	2827.05
425.51	2902.83
425.718	3128.1
425.925	3185.44
426.133	3169.06
426.341	3404.58
426.548	3513.12
426.756	3601.18
426.964	3646.24
427.171	3855.13
427.379	3994.39
427.586	4006.68
427.794	4334.36
428.001	4410.13
428.209	4399.89
428.417	4467.47
428.624	4815.63
428.832	4612.88
429.039	4829.96
429.247	4846.35
429.454	5169.93
429.662	5448.45
429.869	5190.41
430.076	5524.23
430.284	5288.71
430.491	5559.04
430.699	6032.12
430.906	5792.51
431.114	5960.44
431.321	6314.74
431.528	6394.61
431.736	6597.36
431.943	7135.98
432.15	7017.19
432.358	6961.9
432.565	7400.16
432.772	7213.8
432.979	7672.54
433.187	7885.53
433.394	7789.28
433.601	8458.96
433.808	8254.17
434.016	8331.99
434.223	8719.06
434.43	9265.86
434.637	9067.21
434.844	9487.04
435.052	9958.08
435.259	9669.31
435.466	9913.02
435.673	9753.28
435.88	10513.08
436.087	10945.2
436.294	10908.33
436.501	10543.8
436.708	10846.9
436.915	11336.36
437.122	11813.54
437.329	11629.22
437.537	12118.68
437.743	12274.33
437.95	12292.76
438.157	12794.51
438.364	13263.5
438.571	13263.5
438.778	13388.43
438.985	14525.05
439.192	14060.16
439.399	14494.33
439.606	14283.39
439.813	14932.59
440.02	15694.44
440.227	15510.12
440.433	15342.19
440.64	15934.05
440.847	15934.05
441.054	16073.31
441.261	17076.82
441.467	16845.4
441.674	17429.07
441.881	17900.1
442.088	18004.55
442.294	17828.42
442.501	18356.8
442.708	18801.21
442.914	19333.68
443.121	20255.26
443.328	20019.75
443.534	21015.06
443.741	20304.42
443.948	20255.26
444.154	21621.26
444.361	21506.57
444.568	21670.41
444.774	21875.21
444.981	22018.57
445.187	22766.07
445.394	23261.68
445.6	23032.31
445.807	25385.43
446.013	24408.54
446.22	24719.84
446.426	25598.41
446.633	25842.12
446.839	26573.25
447.046	25639.37
447.252	27097.53
447.459	27161.01
447.665	26767.8
447.871	28381.6
448.078	28989.85
448.284	27830.7
448.491	28543.39
448.697	29569.43
448.903	29944.2
449.11	30364.04
449.316	29630.87
449.522	30443.91
449.728	31234.42
449.935	31259
450.141	31480.18
450.347	31865.2
450.553	30998.91
450.76	31627.63
450.966	32678.24
451.172	32274.79
451.378	32862.56
451.584	32016.75
451.791	32952.67
451.997	33233.24
452.203	33325.4
452.409	33454.42
452.615	33102.17
452.821	31879.53
453.027	31701.36
453.233	33050.97
453.44	31926.64
453.646	32356.71
453.852	32635.24
454.058	33372.5
454.264	31961.45
454.47	32428.39
454.676	31844.72
454.882	32713.06
455.088	30181.77
455.294	30409.09
455.5	31091.07
455.705	31025.53
455.911	29856.14
456.117	29143.45
456.323	28866.97
456.529	27404.72
456.735	28486.05
456.941	27689.39
457.147	27333.04
457.352	26497.47
457.558	25960.91
457.764	26335.68
457.97	25629.13
458.176	25242.07
458.381	25156.05
458.587	23839.21
458.793	24242.66
458.999	22845.94
459.204	24564.19
459.41	24011.24
459.616	22163.97
459.821	22348.29
460.027	22059.52
460.233	21713.42
460.438	20505.12
460.644	20652.57
460.85	19923.49
461.055	19380.78
461.261	19315.25
461.466	18094.66
461.672	17629.77
461.878	18876.98
462.083	17424.97
462.289	17066.58
462.494	17109.58
462.7	16302.68
462.905	15927.91
463.111	16226.91
463.316	16499.29
463.522	16185.95
463.727	16239.2
463.932	16190.05
464.138	15729.25
464.343	16003.68
464.549	15575.66
464.754	16433.75
464.959	15911.52
465.165	15909.47
465.37	15266.41
465.575	15055.47
465.781	15297.13
465.986	15446.63
466.191	15106.67
466.397	14836.34
466.602	14068.35
466.807	14551.67
467.012	14269.05
467.218	14353.02
467.423	14215.8
467.628	14338.68
467.833	14799.48
468.038	14344.83
468.244	13986.43
468.449	14523
