Data from USB4F104151__84__11-06-35-802.txt Node

Date: Wed Mar 12 11:06:35 EDT 2025
User: louis
Spectrometer: USB4F10415
Trigger mode: 4
Integration Time (sec): 2.000000E-2
Scans to average: 1
Electric dark correction enabled: true
Nonlinearity correction enabled: false
Boxcar width: 0
XAxis mode: Wavelengths
Number of Pixels in Spectrum: 3648
>>>>>Begin Spectral Data<<<<<
178.204	-38.74
178.424	-38.74
178.644	-38.74
178.864	-126.8
179.084	-20.31
179.304	-20.31
179.524	-36.69
179.744	-26.45
179.964	43.18
180.184	-42.84
180.404	20.65
180.624	-26.45
180.844	53.42
181.064	-36.69
181.283	-5.97
181.503	88.23
181.723	-10.07
181.943	-3.93
182.163	16.55
182.383	26.79
182.602	-14.17
182.822	43.18
183.042	37.03
183.262	-44.88
183.482	-18.26
183.701	22.7
183.921	61.61
184.141	2.22
184.361	96.43
184.58	4.27
184.8	-24.4
185.02	47.27
185.239	34.99
185.459	-26.45
185.679	34.99
185.898	24.75
186.118	2.22
186.338	26.79
186.557	57.51
186.777	-3.93
186.997	24.75
187.216	-63.32
187.436	114.86
187.655	59.56
187.875	51.37
188.095	2.22
188.314	-77.65
188.534	63.66
188.753	-18.26
188.973	-75.6
189.192	28.84
189.412	2.22
189.631	47.27
189.851	63.66
190.07	0.17
190.29	-59.22
190.509	39.08
190.729	-8.02
190.948	131.24
191.168	102.57
191.387	24.75
191.607	22.7
191.826	14.51
192.045	12.46
192.265	18.6
192.484	12.46
192.704	28.84
192.923	14.51
193.142	39.08
193.362	32.94
193.581	45.23
193.8	-36.69
194.02	59.56
194.239	-14.17
194.458	69.8
194.678	-36.69
194.897	-14.17
195.116	-51.03
195.335	-14.17
195.555	57.51
195.774	22.7
195.993	45.23
196.212	2.22
196.432	59.56
196.651	24.75
196.87	-8.02
197.089	55.47
197.308	-32.6
197.528	20.65
197.747	-5.97
197.966	24.75
198.185	-16.21
198.404	6.31
198.623	4.27
198.842	-10.07
199.062	6.31
199.281	75.95
199.5	-3.93
199.719	-40.79
199.938	104.62
200.157	18.6
200.376	39.08
200.595	20.65
200.814	32.94
201.033	-32.6
201.252	39.08
201.471	-18.26
201.69	-1.88
201.909	20.65
202.128	-46.93
202.347	-3.93
202.566	-42.84
202.785	28.84
203.004	4.27
203.223	71.85
203.442	28.84
203.661	4.27
203.879	10.41
204.098	26.79
204.317	-69.46
204.536	39.08
204.755	10.41
204.974	-1.88
205.193	-40.79
205.411	16.55
205.63	47.27
205.849	-75.6
206.068	24.75
206.287	22.7
206.505	24.75
206.724	-32.6
206.943	39.08
207.162	-28.5
207.381	6.31
207.599	49.32
207.818	-38.74
208.037	41.13
208.255	-12.12
208.474	-3.93
208.693	-30.55
208.911	6.31
209.13	8.36
209.349	61.61
209.567	14.51
209.786	39.08
210.005	69.8
210.223	63.66
210.442	-18.26
210.661	67.75
210.879	41.13
211.098	-8.02
211.316	75.95
211.535	34.99
211.753	16.55
211.972	39.08
212.191	22.7
212.409	26.79
212.628	8.36
212.846	45.23
213.065	8.36
213.283	63.66
213.502	45.23
213.72	10.41
213.938	-53.08
214.157	73.9
214.375	6.31
214.594	65.71
214.812	-18.26
215.031	-36.69
215.249	10.41
215.467	-26.45
215.686	0.17
215.904	22.7
216.122	-8.02
216.341	26.79
216.559	-3.93
216.778	0.17
216.996	0.17
217.214	14.51
217.432	22.7
217.651	14.51
217.869	16.55
218.087	71.85
218.306	10.41
218.524	-1.88
218.742	10.41
218.96	28.84
219.179	-44.88
219.397	32.94
219.615	84.14
219.833	43.18
220.051	-18.26
220.27	20.65
220.488	-51.03
220.706	45.23
220.924	114.86
221.142	41.13
221.36	-26.45
221.578	39.08
221.796	-55.12
222.015	73.9
222.233	2.22
222.451	63.66
222.669	47.27
222.887	20.65
223.105	-1.88
223.323	2.22
223.541	-79.7
223.759	39.08
223.977	26.79
224.195	-10.07
224.413	10.41
224.631	-8.02
224.849	39.08
225.067	82.09
225.285	49.32
225.503	-1.88
225.721	-38.74
225.939	2.22
226.157	-12.12
226.375	57.51
226.592	-8.02
226.81	0.17
227.028	-14.17
227.246	-30.55
227.464	41.13
227.682	18.6
227.9	-36.69
228.117	92.33
228.335	37.03
228.553	63.66
228.771	47.27
228.989	-18.26
229.206	34.99
229.424	61.61
229.642	-3.93
229.86	8.36
230.077	32.94
230.295	12.46
230.513	24.75
230.731	86.19
230.948	80.04
231.166	-12.12
231.384	47.27
231.601	-42.84
231.819	28.84
232.037	-18.26
232.254	18.6
232.472	-34.64
232.689	-3.93
232.907	24.75
233.125	12.46
233.342	18.6
233.56	-59.22
233.777	4.27
233.995	8.36
234.213	-24.4
234.43	26.79
234.648	18.6
234.865	-55.12
235.083	43.18
235.3	45.23
235.518	-20.31
235.735	-57.17
235.953	14.51
236.17	-28.5
236.388	26.79
236.605	57.51
236.822	-14.17
237.04	47.27
237.257	14.51
237.475	43.18
237.692	59.56
237.909	-40.79
238.127	67.75
238.344	12.46
238.562	6.31
238.779	-3.93
238.996	30.89
239.214	-32.6
239.431	106.67
239.648	20.65
239.865	16.55
240.083	8.36
240.3	24.75
240.517	16.55
240.735	65.71
240.952	18.6
241.169	49.32
241.386	14.51
241.603	-12.12
241.821	43.18
242.038	8.36
242.255	26.79
242.472	-26.45
242.689	47.27
242.907	59.56
243.124	34.99
243.341	30.89
243.558	-46.93
243.775	4.27
243.992	-14.17
244.209	61.61
244.426	106.67
244.643	-59.22
244.86	-44.88
245.078	10.41
245.295	14.51
245.512	24.75
245.729	16.55
245.946	28.84
246.163	0.17
246.38	59.56
246.597	34.99
246.814	0.17
247.031	4.27
247.248	53.42
247.464	10.41
247.681	0.17
247.898	14.51
248.115	47.27
248.332	34.99
248.549	53.42
248.766	71.85
248.983	53.42
249.2	39.08
249.417	18.6
249.633	-14.17
249.85	-22.36
250.067	0.17
250.284	22.7
250.501	106.67
250.717	30.89
250.934	39.08
251.151	8.36
251.368	-10.07
251.585	39.08
251.801	2.22
252.018	6.31
252.235	32.94
252.451	80.04
252.668	-104.28
252.885	59.56
253.102	-20.31
253.318	26.79
253.535	-1.88
253.752	39.08
253.968	-5.97
254.185	-30.55
254.401	-32.6
254.618	-8.02
254.835	6.31
255.051	55.47
255.268	51.37
255.484	39.08
255.701	65.71
255.917	41.13
256.134	0.17
256.351	20.65
256.567	-12.12
256.784	10.41
257	12.46
257.217	10.41
257.433	14.51
257.65	77.99
257.866	51.37
258.082	16.55
258.299	-14.17
258.515	47.27
258.732	-5.97
258.948	28.84
259.165	34.99
259.381	24.75
259.597	34.99
259.814	-18.26
260.03	65.71
260.246	30.89
260.463	10.41
260.679	18.6
260.895	53.42
261.112	45.23
261.328	39.08
261.544	22.7
261.761	-14.17
261.977	10.41
262.193	10.41
262.409	55.47
262.626	30.89
262.842	53.42
263.058	-32.6
263.274	2.22
263.49	63.66
263.707	-3.93
263.923	2.22
264.139	2.22
264.355	-42.84
264.571	14.51
264.787	10.41
265.004	71.85
265.22	10.41
265.436	22.7
265.652	-1.88
265.868	-3.93
266.084	-14.17
266.3	37.03
266.516	32.94
266.732	37.03
266.948	16.55
267.164	-1.88
267.38	39.08
267.596	61.61
267.812	2.22
268.028	0.17
268.244	-1.88
268.46	100.52
268.676	-10.07
268.892	6.31
269.108	16.55
269.324	22.7
269.54	14.51
269.756	-12.12
269.972	30.89
270.188	73.9
270.403	53.42
270.619	28.84
270.835	-26.45
271.051	32.94
271.267	10.41
271.483	2.22
271.698	34.99
271.914	88.23
272.13	-14.17
272.346	-59.22
272.562	-18.26
272.777	43.18
272.993	41.13
273.209	98.47
273.425	24.75
273.64	-30.55
273.856	-12.12
274.072	2.22
274.287	-55.12
274.503	-8.02
274.719	18.6
274.934	6.31
275.15	18.6
275.366	-59.22
275.581	-55.12
275.797	43.18
276.012	28.84
276.228	0.17
276.444	-63.32
276.659	71.85
276.875	-12.12
277.09	69.8
277.306	-46.93
277.521	73.9
277.737	-5.97
277.952	37.03
278.168	0.17
278.383	-30.55
278.599	53.42
278.814	90.28
279.03	51.37
279.245	39.08
279.461	-34.64
279.676	26.79
279.892	-1.88
280.107	-32.6
280.322	14.51
280.538	28.84
280.753	-1.88
280.969	12.46
281.184	39.08
281.399	-14.17
281.615	24.75
281.83	133.29
282.045	-96.08
282.26	51.37
282.476	2.22
282.691	102.57
282.906	2.22
283.122	30.89
283.337	-22.36
283.552	22.7
283.767	47.27
283.983	8.36
284.198	28.84
284.413	18.6
284.628	-104.28
284.843	-5.97
285.058	-18.26
285.274	-10.07
285.489	8.36
285.704	96.43
285.919	55.47
286.134	73.9
286.349	0.17
286.564	-14.17
286.779	47.27
286.995	18.6
287.21	26.79
287.425	-22.36
287.64	-53.08
287.855	12.46
288.07	51.37
288.285	51.37
288.5	63.66
288.715	45.23
288.93	18.6
289.145	2.22
289.36	49.32
289.575	73.9
289.79	84.14
290.004	26.79
290.219	34.99
290.434	-26.45
290.649	-34.64
290.864	-34.64
291.079	-36.69
291.294	0.17
291.509	84.14
291.724	67.75
291.938	-10.07
292.153	82.09
292.368	37.03
292.583	24.75
292.798	67.75
293.012	69.8
293.227	71.85
293.442	22.7
293.657	39.08
293.871	71.85
294.086	94.38
294.301	75.95
294.516	65.71
294.73	26.79
294.945	12.46
295.16	53.42
295.374	-34.64
295.589	39.08
295.804	41.13
296.018	16.55
296.233	28.84
296.447	75.95
296.662	-8.02
296.877	51.37
297.091	43.18
297.306	47.27
297.52	8.36
297.735	34.99
297.949	43.18
298.164	53.42
298.378	-10.07
298.593	14.51
298.807	-14.17
299.022	4.27
299.236	77.99
299.451	55.47
299.665	18.6
299.88	32.94
300.094	34.99
300.309	0.17
300.523	22.7
300.737	71.85
300.952	8.36
301.166	10.41
301.381	26.79
301.595	2.22
301.809	47.27
302.024	-67.41
302.238	30.89
302.452	16.55
302.667	-30.55
302.881	24.75
303.095	43.18
303.309	-22.36
303.524	32.94
303.738	-91.99
303.952	63.66
304.166	41.13
304.381	-42.84
304.595	22.7
304.809	-3.93
305.023	20.65
305.237	43.18
305.452	10.41
305.666	-20.31
305.88	67.75
306.094	32.94
306.308	94.38
306.522	88.23
306.736	32.94
306.95	49.32
307.164	20.65
307.379	-20.31
307.593	77.99
307.807	137.38
308.021	45.23
308.235	22.7
308.449	2.22
308.663	-10.07
308.877	71.85
309.091	-44.88
309.305	18.6
309.519	10.41
309.733	34.99
309.947	37.03
310.161	14.51
310.374	32.94
310.588	28.84
310.802	2.22
311.016	22.7
311.23	-57.17
311.444	-18.26
311.658	14.51
311.872	22.7
312.085	10.41
312.299	59.56
312.513	77.99
312.727	-1.88
312.941	12.46
313.154	8.36
313.368	43.18
313.582	32.94
313.796	8.36
314.009	59.56
314.223	28.84
314.437	53.42
314.651	-1.88
314.864	30.89
315.078	-16.21
315.292	49.32
315.505	-3.93
315.719	8.36
315.933	26.79
316.146	59.56
316.36	37.03
316.573	45.23
316.787	-8.02
317.001	6.31
317.214	-46.93
317.428	43.18
317.641	-14.17
317.855	32.94
318.068	26.79
318.282	43.18
318.495	71.85
318.709	-5.97
318.922	41.13
319.136	47.27
319.349	-14.17
319.563	41.13
319.776	20.65
319.99	12.46
320.203	18.6
320.417	4.27
320.63	32.94
320.843	39.08
321.057	18.6
321.27	-22.36
321.483	47.27
321.697	84.14
321.91	45.23
322.124	-5.97
322.337	80.04
322.55	0.17
322.763	43.18
322.977	63.66
323.19	6.31
323.403	-1.88
323.617	-26.45
323.83	55.47
324.043	45.23
324.256	67.75
324.469	57.51
324.683	49.32
324.896	-40.79
325.109	84.14
325.322	-14.17
325.535	26.79
325.748	-22.36
325.962	18.6
326.175	32.94
326.388	67.75
326.601	108.71
326.814	-3.93
327.027	18.6
327.24	63.66
327.453	32.94
327.666	47.27
327.879	-46.93
328.092	26.79
328.305	14.51
328.518	-30.55
328.731	18.6
328.944	18.6
329.157	82.09
329.37	55.47
329.583	57.51
329.796	22.7
330.009	18.6
330.222	30.89
330.435	14.51
330.648	10.41
330.861	-18.26
331.073	-8.02
331.286	4.27
331.499	10.41
331.712	22.7
331.925	49.32
332.138	-30.55
332.35	20.65
332.563	-5.97
332.776	75.95
332.989	-44.88
333.202	8.36
333.414	6.31
333.627	61.61
333.84	22.7
334.053	71.85
334.265	41.13
334.478	24.75
334.691	32.94
334.903	16.55
335.116	10.41
335.329	-34.64
335.541	20.65
335.754	55.47
335.966	43.18
336.179	-3.93
336.392	61.61
336.604	73.9
336.817	125.1
337.029	28.84
337.242	37.03
337.454	32.94
337.667	22.7
337.88	65.71
338.092	61.61
338.305	53.42
338.517	4.27
338.729	20.65
338.942	18.6
339.154	-46.93
339.367	51.37
339.579	-46.93
339.792	-53.08
340.004	65.71
340.217	2.22
340.429	28.84
340.641	14.51
340.854	-57.17
341.066	-26.45
341.278	26.79
341.491	22.7
341.703	-5.97
341.915	28.84
342.128	37.03
342.34	30.89
342.552	18.6
342.764	16.55
342.977	24.75
343.189	6.31
343.401	77.99
343.613	32.94
343.826	18.6
344.038	-1.88
344.25	18.6
344.462	16.55
344.674	20.65
344.886	65.71
345.099	43.18
345.311	92.33
345.523	14.51
345.735	22.7
345.947	-38.74
346.159	59.56
346.371	28.84
346.583	37.03
346.795	63.66
347.007	28.84
347.219	34.99
347.431	69.8
347.643	41.13
347.855	22.7
348.067	55.47
348.279	-30.55
348.491	18.6
348.703	30.89
348.915	67.75
349.127	-46.93
349.339	43.18
349.551	41.13
349.763	59.56
349.975	28.84
350.187	30.89
350.399	-26.45
350.61	0.17
350.822	45.23
351.034	59.56
351.246	32.94
351.458	67.75
351.669	104.62
351.881	96.43
352.093	45.23
352.305	2.22
352.517	55.47
352.728	34.99
352.94	53.42
353.152	82.09
353.363	67.75
353.575	94.38
353.787	34.99
353.999	30.89
354.21	30.89
354.422	28.84
354.633	10.41
354.845	110.76
355.057	41.13
355.268	10.41
355.48	-65.36
355.692	39.08
355.903	2.22
356.115	30.89
356.326	-5.97
356.538	-36.69
356.749	116.9
356.961	12.46
357.172	4.27
357.384	-16.21
357.595	75.95
357.807	18.6
358.018	-16.21
358.23	39.08
358.441	71.85
358.653	88.23
358.864	12.46
359.075	39.08
359.287	26.79
359.498	116.9
359.709	37.03
359.921	-14.17
360.132	2.22
360.344	4.27
360.555	-38.74
360.766	69.8
360.977	-8.02
361.189	41.13
361.4	67.75
361.611	28.84
361.823	34.99
362.034	20.65
362.245	-16.21
362.456	12.46
362.667	67.75
362.879	14.51
363.09	-46.93
363.301	47.27
363.512	77.99
363.723	-3.93
363.935	75.95
364.146	34.99
364.357	-61.27
364.568	112.81
364.779	34.99
364.99	116.9
365.201	6.31
365.412	10.41
365.623	2.22
365.834	39.08
366.045	45.23
366.256	59.56
366.467	49.32
366.678	-10.07
366.889	32.94
367.1	18.6
367.311	118.95
367.522	59.56
367.733	61.61
367.944	10.41
368.155	-24.4
368.366	141.48
368.577	61.61
368.788	-44.88
368.999	-8.02
369.209	45.23
369.42	92.33
369.631	92.33
369.842	32.94
370.053	37.03
370.264	55.47
370.474	28.84
370.685	57.51
370.896	18.6
371.107	57.51
371.317	18.6
371.528	77.99
371.739	14.51
371.95	-3.93
372.16	32.94
372.371	34.99
372.582	2.22
372.792	43.18
373.003	43.18
373.214	16.55
373.424	80.04
373.635	-10.07
373.846	106.67
374.056	94.38
374.267	82.09
374.477	73.9
374.688	-44.88
374.898	-34.64
375.109	-12.12
375.319	67.75
375.53	26.79
375.74	65.71
375.951	26.79
376.161	98.47
376.372	26.79
376.582	-14.17
376.793	45.23
377.003	-38.74
377.214	28.84
377.424	24.75
377.635	65.71
377.845	0.17
378.055	90.28
378.266	100.52
378.476	100.52
378.686	-26.45
378.897	39.08
379.107	22.7
379.317	59.56
379.528	34.99
379.738	77.99
379.948	-14.17
380.158	53.42
380.369	65.71
380.579	77.99
380.789	-3.93
380.999	39.08
381.21	-87.89
381.42	16.55
381.63	20.65
381.84	28.84
382.05	-10.07
382.261	45.23
382.471	57.51
382.681	32.94
382.891	10.41
383.101	88.23
383.311	-26.45
383.521	6.31
383.731	12.46
383.941	82.09
384.151	22.7
384.361	73.9
384.571	82.09
384.781	39.08
384.991	39.08
385.201	96.43
385.411	129.19
385.621	-16.21
385.831	16.55
386.041	53.42
386.251	104.62
386.461	-5.97
386.671	-55.12
386.881	6.31
387.091	71.85
387.301	-1.88
387.511	47.27
387.72	37.03
387.93	14.51
388.14	-40.79
388.35	41.13
388.56	30.89
388.769	32.94
388.979	-5.97
389.189	14.51
389.399	63.66
389.609	-1.88
389.818	108.71
390.028	26.79
390.238	61.61
390.447	53.42
390.657	43.18
390.867	-10.07
391.076	24.75
391.286	57.51
391.496	75.95
391.705	-22.36
391.915	86.19
392.125	82.09
392.334	-10.07
392.544	75.95
392.753	24.75
392.963	71.85
393.172	28.84
393.382	-34.64
393.591	8.36
393.801	26.79
394.01	18.6
394.22	10.41
394.429	63.66
394.639	49.32
394.848	110.76
395.058	139.43
395.267	12.46
395.477	43.18
395.686	82.09
395.895	92.33
396.105	139.43
396.314	34.99
396.524	43.18
396.733	18.6
396.942	96.43
397.152	133.29
397.361	164.01
397.57	47.27
397.78	26.79
397.989	129.19
398.198	137.38
398.407	14.51
398.617	14.51
398.826	34.99
399.035	92.33
399.244	55.47
399.453	65.71
399.663	47.27
399.872	100.52
400.081	12.46
400.29	143.53
400.499	61.61
400.708	28.84
400.917	16.55
401.127	71.85
401.336	65.71
401.545	86.19
401.754	100.52
401.963	100.52
402.172	84.14
402.381	84.14
402.59	69.8
402.799	57.51
403.008	118.95
403.217	135.34
403.426	10.41
403.635	118.95
403.844	84.14
404.053	63.66
404.262	84.14
404.471	141.48
404.68	127.14
404.888	108.71
405.097	63.66
405.306	174.25
405.515	166.06
405.724	96.43
405.933	98.47
406.142	106.67
406.35	147.62
406.559	98.47
406.768	92.33
406.977	264.36
407.185	116.9
407.394	225.45
407.603	137.38
407.812	149.67
408.02	170.15
408.229	153.77
408.438	141.48
408.646	174.25
408.855	227.5
409.064	221.35
409.272	192.68
409.481	188.58
409.69	188.58
409.898	284.84
410.107	247.97
410.315	311.46
410.524	313.51
410.733	270.5
410.941	215.21
411.15	254.12
411.358	288.93
411.567	278.69
411.775	387.24
411.984	299.17
412.192	301.22
412.401	299.17
412.609	366.76
412.818	405.67
413.026	411.81
413.234	374.95
413.443	426.15
413.651	452.77
413.86	413.86
414.068	483.49
414.276	499.88
414.485	540.83
414.693	569.51
414.901	465.06
415.11	534.69
415.318	587.94
415.526	557.22
415.734	618.66
415.943	579.75
416.151	661.66
416.359	673.95
416.567	624.8
416.776	714.91
416.984	710.82
417.192	786.59
417.4	843.93
417.608	737.44
417.817	796.83
418.025	911.52
418.233	970.91
418.441	878.75
418.649	821.41
418.857	1085.59
419.065	972.96
419.273	1011.87
419.481	1024.16
419.689	1044.63
419.897	1132.7
420.105	1241.24
420.313	1300.63
420.521	1134.75
420.729	1239.19
420.937	1271.96
421.145	1335.45
421.353	1394.84
421.561	1448.08
421.769	1540.24
421.977	1626.26
422.185	1491.09
422.393	1734.8
422.601	1822.86
422.809	1677.46
423.017	1779.86
423.224	1943.69
423.432	1904.78
423.64	2033.8
423.848	2080.91
424.056	2048.14
424.263	2209.93
424.471	2093.19
424.679	2336.9
424.887	2451.59
425.094	2433.16
425.302	2465.93
425.51	2547.84
425.718	2664.58
425.925	2687.11
426.133	2871.42
426.341	2889.85
426.548	2988.16
426.756	3080.32
426.964	3176.57
427.171	3283.06
427.379	3383.42
427.586	3479.67
427.794	3588.21
428.001	3694.71
428.209	3838.06
428.417	3850.35
428.624	4069.48
428.832	4026.48
429.039	4063.34
429.247	4055.15
429.454	4599.91
429.662	4610.15
429.869	4319.34
430.076	4700.26
430.284	4536.42
430.491	4784.23
430.699	5064.8
430.906	5146.72
431.114	5066.85
431.321	5288.03
431.528	5455.96
431.736	5840.98
431.943	6023.25
432.15	5904.46
432.358	5959.76
432.565	6373.45
432.772	6258.76
432.979	6731.84
433.187	6727.75
433.394	6871.11
433.601	7190.59
433.808	7317.56
434.016	7321.66
434.223	7536.7
434.43	7876.66
434.637	7514.17
434.844	8099.89
435.052	8398.89
435.259	8450.09
435.466	8630.31
435.673	8323.12
435.88	8968.23
436.087	9306.14
436.294	9525.27
436.501	9162.78
436.708	9449.5
436.915	9553.94
437.122	10094.61
437.329	10100.75
437.537	10268.69
437.743	10676.23
437.95	10473.48
438.157	10895.36
438.364	11403.26
438.571	11307.01
438.778	11569.15
438.985	12589.03
439.192	12134.39
439.399	12154.87
439.606	12085.23
439.813	12808.17
440.02	13684.7
440.227	13189.09
440.433	13266.91
440.64	13756.38
440.847	13729.75
441.054	14061.52
441.261	14878.66
441.467	14798.79
441.674	14864.33
441.881	15667.13
442.088	15759.29
442.294	15286.21
442.501	15814.59
442.708	16060.34
442.914	16795.56
443.121	17239.97
443.328	17037.22
443.534	18243.48
443.741	17590.17
443.948	17653.66
444.154	18640.78
444.361	18550.67
444.568	18802.57
444.774	18599.82
444.981	18894.73
445.187	19316.61
445.394	20510.58
445.6	20209.53
445.807	21870.43
446.013	20930.41
446.22	21577.57
446.426	22058.84
446.633	22368.09
446.839	23187.27
447.046	22110.04
447.252	23435.08
447.459	23619.39
447.665	23240.52
447.871	24362.81
448.078	25225
448.284	24241.98
448.491	24858.42
448.697	25673.51
448.903	26091.29
449.11	26365.72
449.316	25747.23
449.522	26238.75
449.728	26822.42
449.935	27156.24
450.141	27293.45
450.347	27907.84
450.553	26980.11
450.76	27238.16
450.966	28098.3
451.172	27758.34
451.378	28368.63
451.584	27846.4
451.791	28391.16
451.997	28401.4
452.203	28911.35
452.409	28761.84
452.615	28802.8
452.821	27395.85
453.027	27166.48
453.233	28851.95
453.44	27463.43
453.646	27586.31
453.852	28032.77
454.058	28464.89
454.264	27401.99
454.47	28296.95
454.676	27397.9
454.882	28360.44
455.088	25866.02
455.294	26093.34
455.5	26482.45
455.705	26687.25
455.911	25732.9
456.117	25118.51
456.323	24819.5
456.529	23445.32
456.735	24866.61
456.941	23625.54
457.147	23617.35
457.352	22871.89
457.558	22349.65
457.764	22808.4
457.97	22208.34
458.176	21528.42
458.381	21661.54
458.587	20625.26
458.793	20391.8
458.999	19513.22
459.204	21026.67
459.41	20539.25
459.616	19163.01
459.821	19189.64
460.027	18878.35
460.233	18485.14
460.438	17637.28
460.644	18087.83
460.85	16865.19
461.055	16809.9
461.261	16422.83
461.466	15460.29
461.672	15075.27
461.878	16019.38
462.083	15097.8
462.289	14784.46
462.494	14716.87
462.7	14055.38
462.905	13615.07
463.111	13987.8
463.316	14059.48
463.522	13920.21
463.727	13895.64
463.932	13946.84
464.138	13725.66
464.343	13793.24
464.549	13215.71
464.754	13848.54
464.959	13746.14
465.165	13531.1
465.37	13084.64
465.575	12707.82
465.781	13307.87
465.986	13420.51
466.191	12785.64
466.397	12576.75
466.602	11974.64
466.807	12367.85
467.012	12337.13
467.218	12320.75
467.423	12355.57
467.628	12318.7
467.833	12664.81
