Data from USB4F104151__66__11-06-08-126.txt Node

Date: Wed Mar 12 11:06:08 EDT 2025
User: louis
Spectrometer: USB4F10415
Trigger mode: 4
Integration Time (sec): 2.000000E-2
Scans to average: 1
Electric dark correction enabled: true
Nonlinearity correction enabled: false
Boxcar width: 0
XAxis mode: Wavelengths
Number of Pixels in Spectrum: 3648
>>>>>Begin Spectral Data<<<<<
178.204	-92.5
178.424	-92.5
178.644	-92.5
178.864	-76.12
179.084	-35.16
179.304	-49.49
179.524	-4.44
179.744	20.14
179.964	-2.39
180.184	-8.53
180.404	-14.68
180.624	9.9
180.844	16.04
181.064	40.62
181.283	-6.49
181.503	24.23
181.723	-24.92
181.943	122.54
182.163	91.82
182.383	24.23
182.602	97.96
182.822	63.15
183.042	104.11
183.262	65.19
183.482	75.43
183.701	36.52
183.921	77.48
184.141	106.15
184.361	77.48
184.58	-6.49
184.8	85.67
185.02	40.62
185.239	110.25
185.459	77.48
185.679	69.29
185.898	59.05
186.118	106.15
186.338	63.15
186.557	3.75
186.777	-18.77
186.997	57
187.216	30.38
187.436	100.01
187.655	108.2
187.875	69.29
188.095	-2.39
188.314	38.57
188.534	57
188.753	93.87
188.973	26.28
189.192	59.05
189.412	-14.68
189.631	38.57
189.851	50.86
190.07	85.67
190.29	48.81
190.509	16.04
190.729	11.95
190.948	118.44
191.168	183.98
191.387	36.52
191.607	18.09
191.826	138.92
192.045	42.67
192.265	26.28
192.484	118.44
192.704	24.23
192.923	50.86
193.142	100.01
193.362	22.19
193.581	100.01
193.8	59.05
194.02	73.39
194.239	73.39
194.458	28.33
194.678	104.11
194.897	110.25
195.116	7.85
195.335	83.63
195.555	44.71
195.774	65.19
195.993	26.28
196.212	93.87
196.432	28.33
196.651	59.05
196.87	69.29
197.089	126.63
197.308	165.54
197.528	79.53
197.747	69.29
197.966	-0.34
198.185	97.96
198.404	16.04
198.623	36.52
198.842	85.67
199.062	54.95
199.281	69.29
199.5	59.05
199.719	93.87
199.938	112.3
200.157	57
200.376	77.48
200.595	102.06
200.814	89.77
201.033	122.54
201.252	50.86
201.471	30.38
201.69	108.2
201.909	48.81
202.128	79.53
202.347	-18.77
202.566	-8.53
202.785	75.43
203.004	48.81
203.223	100.01
203.442	122.54
203.661	57
203.879	28.33
204.098	79.53
204.317	61.1
204.536	132.78
204.755	24.23
204.974	81.58
205.193	100.01
205.411	110.25
205.63	124.58
205.849	81.58
206.068	100.01
206.287	46.76
206.505	30.38
206.724	79.53
206.943	89.77
207.162	73.39
207.381	69.29
207.599	93.87
207.818	-18.77
208.037	40.62
208.255	-16.73
208.474	69.29
208.693	42.67
208.911	36.52
209.13	116.39
209.349	122.54
209.567	69.29
209.786	87.72
210.005	102.06
210.223	104.11
210.442	143.02
210.661	102.06
210.879	61.1
211.098	65.19
211.316	46.76
211.535	93.87
211.753	108.2
211.972	83.63
212.191	63.15
212.409	63.15
212.628	116.39
212.846	93.87
213.065	50.86
213.283	143.02
213.502	52.91
213.72	57
213.938	106.15
214.157	54.95
214.375	63.15
214.594	81.58
214.812	91.82
215.031	63.15
215.249	108.2
215.467	52.91
215.686	54.95
215.904	71.34
216.122	36.52
216.341	173.74
216.559	93.87
216.778	95.91
216.996	18.09
217.214	-4.44
217.432	87.72
217.651	93.87
217.869	36.52
218.087	97.96
218.306	102.06
218.524	16.04
218.742	18.09
218.96	118.44
219.179	69.29
219.397	22.19
219.615	87.72
219.833	77.48
220.051	108.2
220.27	114.34
220.488	-10.58
220.706	143.02
220.924	106.15
221.142	36.52
221.36	24.23
221.578	30.38
221.796	63.15
222.015	46.76
222.233	128.68
222.451	140.97
222.669	116.39
222.887	126.63
223.105	81.58
223.323	67.24
223.541	97.96
223.759	7.85
223.977	61.1
224.195	118.44
224.413	40.62
224.631	171.69
224.849	40.62
225.067	132.78
225.285	50.86
225.503	118.44
225.721	26.28
225.939	81.58
226.157	30.38
226.375	93.87
226.592	26.28
226.81	34.47
227.028	106.15
227.246	100.01
227.464	9.9
227.682	93.87
227.9	57
228.117	42.67
228.335	132.78
228.553	130.73
228.771	69.29
228.989	106.15
229.206	122.54
229.424	61.1
229.642	73.39
229.86	13.99
230.077	77.48
230.295	106.15
230.513	89.77
230.731	46.76
230.948	118.44
231.166	46.76
231.384	32.43
231.601	65.19
231.819	61.1
232.037	104.11
232.254	67.24
232.472	89.77
232.689	16.04
232.907	50.86
233.125	79.53
233.342	24.23
233.56	-22.87
233.777	42.67
233.995	87.72
234.213	169.64
234.43	40.62
234.648	38.57
234.865	50.86
235.083	75.43
235.3	34.47
235.518	-0.34
235.735	52.91
235.953	108.2
236.17	85.67
236.388	89.77
236.605	-37.2
236.822	157.35
237.04	73.39
237.257	65.19
237.475	-16.73
237.692	79.53
237.909	44.71
238.127	114.34
238.344	83.63
238.562	114.34
238.779	-0.34
238.996	57
239.214	130.73
239.431	106.15
239.648	77.48
239.865	38.57
240.083	91.82
240.3	-4.44
240.517	54.95
240.735	102.06
240.952	57
241.169	114.34
241.386	42.67
241.603	89.77
241.821	36.52
242.038	87.72
242.255	28.33
242.472	102.06
242.689	52.91
242.907	112.3
243.124	75.43
243.341	-0.34
243.558	100.01
243.775	89.77
243.992	61.1
244.209	138.92
244.426	69.29
244.643	73.39
244.86	16.04
245.078	175.78
245.295	59.05
245.512	89.77
245.729	83.63
245.946	77.48
246.163	65.19
246.38	118.44
246.597	52.91
246.814	100.01
247.031	132.78
247.248	67.24
247.464	36.52
247.681	18.09
247.898	122.54
248.115	91.82
248.332	114.34
248.549	93.87
248.766	91.82
248.983	44.71
249.2	100.01
249.417	95.91
249.633	50.86
249.85	110.25
250.067	-8.53
250.284	83.63
250.501	85.67
250.717	79.53
250.934	93.87
251.151	-35.16
251.368	59.05
251.585	102.06
251.801	124.58
252.018	59.05
252.235	52.91
252.451	36.52
252.668	46.76
252.885	102.06
253.102	106.15
253.318	91.82
253.535	116.39
253.752	50.86
253.968	71.34
254.185	63.15
254.401	34.47
254.618	73.39
254.835	42.67
255.051	65.19
255.268	24.23
255.484	77.48
255.701	24.23
255.917	-4.44
256.134	91.82
256.351	44.71
256.567	-14.68
256.784	65.19
257	-4.44
257.217	175.78
257.433	13.99
257.65	124.58
257.866	134.82
258.082	97.96
258.299	-2.39
258.515	44.71
258.732	26.28
258.948	48.81
259.165	67.24
259.381	32.43
259.597	9.9
259.814	30.38
260.03	136.87
260.246	54.95
260.463	104.11
260.679	75.43
260.895	130.73
261.112	38.57
261.328	-20.82
261.544	116.39
261.761	112.3
261.977	85.67
262.193	36.52
262.409	100.01
262.626	93.87
262.842	50.86
263.058	79.53
263.274	110.25
263.49	153.26
263.707	138.92
263.923	42.67
264.139	36.52
264.355	9.9
264.571	122.54
264.787	54.95
265.004	83.63
265.22	122.54
265.436	32.43
265.652	61.1
265.868	83.63
266.084	44.71
266.3	75.43
266.516	67.24
266.732	100.01
266.948	38.57
267.164	65.19
267.38	102.06
267.596	-4.44
267.812	61.1
268.028	151.21
268.244	73.39
268.46	95.91
268.676	83.63
268.892	11.95
269.108	65.19
269.324	9.9
269.54	85.67
269.756	97.96
269.972	130.73
270.188	52.91
270.403	67.24
270.619	63.15
270.835	48.81
271.051	40.62
271.267	79.53
271.483	3.75
271.698	85.67
271.914	67.24
272.13	57
272.346	54.95
272.562	91.82
272.777	73.39
272.993	30.38
273.209	93.87
273.425	85.67
273.64	28.33
273.856	104.11
274.072	136.87
274.287	85.67
274.503	112.3
274.719	89.77
274.934	67.24
275.15	20.14
275.366	52.91
275.581	112.3
275.797	85.67
276.012	77.48
276.228	52.91
276.444	69.29
276.659	91.82
276.875	65.19
277.09	85.67
277.306	128.68
277.521	104.11
277.737	75.43
277.952	52.91
278.168	38.57
278.383	130.73
278.599	34.47
278.814	67.24
279.03	136.87
279.245	212.65
279.461	114.34
279.676	5.8
279.892	30.38
280.107	-12.63
280.322	42.67
280.538	79.53
280.753	36.52
280.969	16.04
281.184	57
281.399	95.91
281.615	28.33
281.83	120.49
282.045	32.43
282.26	57
282.476	118.44
282.691	77.48
282.906	57
283.122	44.71
283.337	100.01
283.552	97.96
283.767	102.06
283.983	110.25
284.198	73.39
284.413	46.76
284.628	22.19
284.843	89.77
285.058	106.15
285.274	95.91
285.489	79.53
285.704	100.01
285.919	102.06
286.134	50.86
286.349	69.29
286.564	46.76
286.779	85.67
286.995	95.91
287.21	40.62
287.425	93.87
287.64	30.38
287.855	44.71
288.07	18.09
288.285	120.49
288.5	106.15
288.715	122.54
288.93	-0.34
289.145	75.43
289.36	106.15
289.575	114.34
289.79	106.15
290.004	134.82
290.219	128.68
290.434	52.91
290.649	69.29
290.864	65.19
291.079	32.43
291.294	81.58
291.509	91.82
291.724	7.85
291.938	3.75
292.153	128.68
292.368	20.14
292.583	71.34
292.798	120.49
293.012	24.23
293.227	77.48
293.442	91.82
293.657	71.34
293.871	73.39
294.086	69.29
294.301	108.2
294.516	128.68
294.73	67.24
294.945	65.19
295.16	85.67
295.374	77.48
295.589	138.92
295.804	46.76
296.018	145.06
296.233	104.11
296.447	34.47
296.662	77.48
296.877	95.91
297.091	77.48
297.306	57
297.52	83.63
297.735	100.01
297.949	40.62
298.164	116.39
298.378	63.15
298.593	116.39
298.807	42.67
299.022	73.39
299.236	126.63
299.451	69.29
299.665	143.02
299.88	69.29
300.094	147.11
300.309	52.91
300.523	77.48
300.737	89.77
300.952	122.54
301.166	106.15
301.381	-0.34
301.595	102.06
301.809	91.82
302.024	89.77
302.238	57
302.452	106.15
302.667	73.39
302.881	104.11
303.095	87.72
303.309	57
303.524	36.52
303.738	46.76
303.952	44.71
304.166	73.39
304.381	36.52
304.595	134.82
304.809	83.63
305.023	50.86
305.237	93.87
305.452	57
305.666	104.11
305.88	136.87
306.094	100.01
306.308	81.58
306.522	77.48
306.736	65.19
306.95	67.24
307.164	65.19
307.379	69.29
307.593	120.49
307.807	65.19
308.021	59.05
308.235	138.92
308.449	61.1
308.663	77.48
308.877	130.73
309.091	73.39
309.305	102.06
309.519	28.33
309.733	87.72
309.947	-12.63
310.161	18.09
310.374	52.91
310.588	114.34
310.802	91.82
311.016	11.95
311.23	34.47
311.444	44.71
311.658	52.91
311.872	124.58
312.085	97.96
312.299	159.4
312.513	108.2
312.727	126.63
312.941	-0.34
313.154	95.91
313.368	57
313.582	-0.34
313.796	3.75
314.009	63.15
314.223	108.2
314.437	134.82
314.651	40.62
314.864	208.55
315.078	110.25
315.292	120.49
315.505	67.24
315.719	114.34
315.933	89.77
316.146	30.38
316.36	9.9
316.573	169.64
316.787	89.77
317.001	128.68
317.214	81.58
317.428	7.85
317.641	7.85
317.855	71.34
318.068	32.43
318.282	40.62
318.495	165.54
318.709	83.63
318.922	102.06
319.136	61.1
319.349	42.67
319.563	65.19
319.776	91.82
319.99	91.82
320.203	124.58
320.417	69.29
320.63	110.25
320.843	93.87
321.057	54.95
321.27	104.11
321.483	104.11
321.697	61.1
321.91	67.24
322.124	132.78
322.337	159.4
322.55	102.06
322.763	69.29
322.977	155.3
323.19	7.85
323.403	93.87
323.617	50.86
323.83	112.3
324.043	-0.34
324.256	93.87
324.469	67.24
324.683	71.34
324.896	50.86
325.109	140.97
325.322	77.48
325.535	102.06
325.748	71.34
325.962	77.48
326.175	75.43
326.388	40.62
326.601	87.72
326.814	7.85
327.027	57
327.24	159.4
327.453	61.1
327.666	44.71
327.879	77.48
328.092	87.72
328.305	71.34
328.518	97.96
328.731	116.39
328.944	89.77
329.157	54.95
329.37	67.24
329.583	179.88
329.796	61.1
330.009	-14.68
330.222	110.25
330.435	59.05
330.648	114.34
330.861	57
331.073	132.78
331.286	46.76
331.499	145.06
331.712	28.33
331.925	132.78
332.138	65.19
332.35	151.21
332.563	-43.35
332.776	100.01
332.989	67.24
333.202	81.58
333.414	97.96
333.627	77.48
333.84	75.43
334.053	89.77
334.265	42.67
334.478	87.72
334.691	73.39
334.903	122.54
335.116	44.71
335.329	118.44
335.541	118.44
335.754	122.54
335.966	85.67
336.179	44.71
336.392	93.87
336.604	110.25
336.817	102.06
337.029	167.59
337.242	97.96
337.454	87.72
337.667	122.54
337.88	167.59
338.092	93.87
338.305	110.25
338.517	89.77
338.729	89.77
338.942	159.4
339.154	97.96
339.367	69.29
339.579	46.76
339.792	13.99
340.004	65.19
340.217	75.43
340.429	118.44
340.641	36.52
340.854	61.1
341.066	48.81
341.278	-2.39
341.491	108.2
341.703	93.87
341.915	108.2
342.128	91.82
342.34	69.29
342.552	120.49
342.764	171.69
342.977	67.24
343.189	73.39
343.401	65.19
343.613	7.85
343.826	85.67
344.038	7.85
344.25	136.87
344.462	120.49
344.674	48.81
344.886	108.2
345.099	116.39
345.311	114.34
345.523	93.87
345.735	116.39
345.947	46.76
346.159	147.11
346.371	83.63
346.583	83.63
346.795	138.92
347.007	67.24
347.219	85.67
347.431	65.19
347.643	106.15
347.855	32.43
348.067	13.99
348.279	50.86
348.491	79.53
348.703	77.48
348.915	93.87
349.127	75.43
349.339	128.68
349.551	40.62
349.763	79.53
349.975	65.19
350.187	124.58
350.399	114.34
350.61	-4.44
350.822	52.91
351.034	140.97
351.246	102.06
351.458	153.26
351.669	69.29
351.881	106.15
352.093	108.2
352.305	134.82
352.517	122.54
352.728	124.58
352.94	95.91
353.152	102.06
353.363	52.91
353.575	95.91
353.787	93.87
353.999	30.38
354.21	116.39
354.422	85.67
354.633	108.2
354.845	16.04
355.057	114.34
355.268	100.01
355.48	67.24
355.692	149.16
355.903	87.72
356.115	89.77
356.326	59.05
356.538	110.25
356.749	67.24
356.961	147.11
357.172	134.82
357.384	52.91
357.595	110.25
357.807	145.06
358.018	85.67
358.23	24.23
358.441	212.65
358.653	157.35
358.864	97.96
359.075	116.39
359.287	81.58
359.498	65.19
359.709	73.39
359.921	110.25
360.132	128.68
360.344	138.92
360.555	69.29
360.766	100.01
360.977	85.67
361.189	85.67
361.4	81.58
361.611	57
361.823	155.3
362.034	102.06
362.245	83.63
362.456	73.39
362.667	112.3
362.879	89.77
363.09	110.25
363.301	147.11
363.512	132.78
363.723	97.96
363.935	93.87
364.146	163.5
364.357	48.81
364.568	57
364.779	16.04
364.99	134.82
365.201	128.68
365.412	102.06
365.623	102.06
365.834	159.4
366.045	73.39
366.256	155.3
366.467	85.67
366.678	100.01
366.889	7.85
367.1	89.77
367.311	116.39
367.522	79.53
367.733	97.96
367.944	181.93
368.155	102.06
368.366	186.02
368.577	112.3
368.788	93.87
368.999	30.38
369.209	171.69
369.42	110.25
369.631	167.59
369.842	122.54
370.053	140.97
370.264	128.68
370.474	118.44
370.685	67.24
370.896	177.83
371.107	130.73
371.317	110.25
371.528	93.87
371.739	81.58
371.95	85.67
372.16	159.4
372.371	85.67
372.582	91.82
372.792	77.48
373.003	77.48
373.214	83.63
373.424	42.67
373.635	106.15
373.846	126.63
374.056	128.68
374.267	46.76
374.477	93.87
374.688	147.11
374.898	106.15
375.109	128.68
375.319	110.25
375.53	89.77
375.74	114.34
375.951	67.24
376.161	87.72
376.372	110.25
376.582	87.72
376.793	145.06
377.003	93.87
377.214	93.87
377.424	93.87
377.635	126.63
377.845	26.28
378.055	116.39
378.266	130.73
378.476	159.4
378.686	175.78
378.897	71.34
379.107	102.06
379.317	138.92
379.528	91.82
379.738	118.44
379.948	100.01
380.158	157.35
380.369	69.29
380.579	112.3
380.789	89.77
380.999	40.62
381.21	116.39
381.42	110.25
381.63	79.53
381.84	161.45
382.05	175.78
382.261	87.72
382.471	165.54
382.681	116.39
382.891	151.21
383.101	140.97
383.311	59.05
383.521	151.21
383.731	149.16
383.941	106.15
384.151	153.26
384.361	61.1
384.571	118.44
384.781	112.3
384.991	196.26
385.201	181.93
385.411	85.67
385.621	85.67
385.831	89.77
386.041	165.54
386.251	130.73
386.461	196.26
386.671	95.91
386.881	204.46
387.091	126.63
387.301	77.48
387.511	69.29
387.72	77.48
387.93	87.72
388.14	110.25
388.35	40.62
388.56	48.81
388.769	183.98
388.979	110.25
389.189	71.34
389.399	112.3
389.609	118.44
389.818	126.63
390.028	85.67
390.238	155.3
390.447	120.49
390.657	175.78
390.867	100.01
391.076	177.83
391.286	149.16
391.496	128.68
391.705	112.3
391.915	167.59
392.125	79.53
392.334	114.34
392.544	118.44
392.753	89.77
392.963	151.21
393.172	40.62
393.382	83.63
393.591	118.44
393.801	132.78
394.01	157.35
394.22	59.05
394.429	-2.39
394.639	122.54
394.848	75.43
395.058	157.35
395.267	132.78
395.477	145.06
395.686	153.26
395.895	116.39
396.105	138.92
396.314	179.88
396.524	159.4
396.733	155.3
396.942	79.53
397.152	120.49
397.361	171.69
397.57	122.54
397.78	134.82
397.989	151.21
398.198	210.6
398.407	147.11
398.617	235.18
398.826	196.26
399.035	132.78
399.244	151.21
399.453	155.3
399.663	173.74
399.872	179.88
400.081	100.01
400.29	167.59
400.499	32.43
400.708	165.54
400.917	214.7
401.127	167.59
401.336	226.98
401.545	222.89
401.754	171.69
401.963	140.97
402.172	204.46
402.381	204.46
402.59	196.26
402.799	229.03
403.008	214.7
403.217	188.07
403.426	179.88
403.635	149.16
403.844	253.61
404.053	198.31
404.262	216.74
404.471	224.94
404.68	216.74
404.888	208.55
405.097	196.26
405.306	267.94
405.515	274.09
405.724	173.74
405.933	134.82
406.142	151.21
406.35	218.79
406.559	243.37
406.768	251.56
406.977	231.08
407.185	241.32
407.394	290.47
407.603	255.65
407.812	323.24
408.02	249.51
408.229	343.72
408.438	276.13
408.646	245.41
408.855	347.81
409.064	272.04
409.272	331.43
409.481	429.73
409.69	319.14
409.898	378.53
410.107	409.25
410.315	382.63
410.524	452.26
410.733	407.2
410.941	382.63
411.15	419.49
411.358	460.45
411.567	517.79
411.775	470.69
411.984	515.75
412.192	528.03
412.401	499.36
412.609	644.77
412.818	523.94
413.026	652.96
413.234	564.9
413.443	632.48
413.651	759.46
413.86	720.54
414.068	751.26
414.276	745.12
414.485	753.31
414.693	839.33
414.901	837.28
415.11	902.81
415.318	802.46
415.526	868
415.734	1003.16
415.943	1064.6
416.151	1029.79
416.359	1037.98
416.567	1017.5
416.776	1062.55
416.984	1115.8
417.192	1230.49
417.4	1240.73
417.608	1154.71
417.817	1310.36
418.025	1367.7
418.233	1273.5
418.441	1289.88
418.649	1425.04
418.857	1539.73
419.065	1449.62
419.273	1531.54
419.481	1676.95
419.689	1674.9
419.897	1701.52
420.105	1760.91
420.313	1871.5
420.521	1877.65
420.729	1896.08
420.937	2031.24
421.145	2033.29
421.353	2176.65
421.561	2289.29
421.769	2307.72
421.977	2428.55
422.185	2410.12
422.393	2500.23
422.601	2688.64
422.809	2588.29
423.017	2780.8
423.224	2776.7
423.432	2881.15
423.64	3061.37
423.848	3298.94
424.056	3067.52
424.263	3427.96
424.471	3257.98
424.679	3288.7
424.887	3597.94
425.094	3659.38
425.302	3677.81
425.51	3812.98
425.718	3960.43
425.925	4068.97
426.133	4265.58
426.341	4388.46
426.548	4642.4
426.756	4679.27
426.964	4580.96
427.171	4818.53
427.379	5230.17
427.586	5181.02
427.794	5301.85
428.001	5693.01
428.209	5836.37
428.417	5740.12
428.624	6129.23
428.832	6172.24
429.039	6192.72
429.247	6170.19
429.454	6700.61
429.662	7044.67
429.869	6665.8
430.076	7155.26
430.284	7009.86
430.491	7325.24
430.699	7759.41
430.906	7659.06
431.114	7859.76
431.321	7962.16
431.528	8330.8
431.736	8767.01
431.943	9207.33
432.15	8799.78
432.358	9066.02
432.565	9500.19
432.772	9463.32
432.979	9854.48
433.187	10085.9
433.394	10085.9
433.601	11066.88
433.808	10823.17
434.016	10751.49
434.223	11107.84
434.43	11795.96
434.637	11699.7
434.844	12422.64
435.052	12586.47
435.259	12410.35
435.466	12903.91
435.673	12641.77
435.88	13403.61
436.087	14034.39
436.294	14022.1
436.501	13966.81
436.708	14032.34
436.915	14448.08
437.122	15015.37
437.329	15211.97
437.537	15578.56
437.743	15965.62
437.95	15781.31
438.157	16657.84
438.364	17261.99
438.571	17067.43
438.778	17317.28
438.985	19094.92
439.192	18347.41
439.399	18511.25
439.606	18453.91
439.813	19201.41
440.02	20616.56
440.227	20200.82
440.433	19885.44
440.64	20669.81
440.847	20700.53
441.054	21304.68
441.261	22381.91
441.467	22429.01
441.674	22412.63
441.881	23432.52
442.088	23553.35
442.294	23278.92
442.501	23967.04
442.708	24241.46
442.914	25265.45
443.121	26295.58
443.328	25701.67
443.534	27206.92
443.741	26658.07
443.948	26152.22
444.154	28316.92
444.361	27776.26
444.568	28013.82
444.774	28245.24
444.981	28632.31
445.187	29406.44
445.394	30743.77
445.6	30178.53
445.807	32998.58
446.013	31767.75
446.22	32292.03
446.426	33451.18
446.633	34172.07
446.839	34948.25
447.046	33666.22
447.252	35443.85
447.459	35194
447.665	35091.6
447.871	37010.55
448.078	38276.19
448.284	36324.48
448.491	37635.18
448.697	38749.28
448.903	39412.82
449.11	39683.15
449.316	38988.89
449.522	39607.37
449.728	40653.89
449.935	41024.57
450.141	41223.22
450.347	41583.66
450.553	40313.92
450.76	40993.85
450.966	42095.66
451.172	41833.52
451.378	42595.36
451.584	41833.52
451.791	42996.76
451.997	42755.1
452.203	43596.82
452.409	43263
452.615	43234.33
452.821	41548.85
453.027	41124.92
453.233	43295.77
453.44	41411.63
453.646	41833.52
453.852	42132.52
454.058	42900.51
454.264	41628.72
454.47	42224.68
454.676	40746.04
454.882	42382.37
455.088	38685.79
455.294	39507.02
455.5	40014.92
455.705	40225.86
455.911	38802.52
456.117	38204.52
456.323	37598.32
456.529	35873.93
456.735	37444.72
456.941	36074.63
457.147	35107.99
457.352	34456.73
457.558	34264.22
457.764	34219.17
457.97	33404.08
458.176	32715.96
458.381	32847.03
458.587	31458.51
458.793	31028.43
458.999	29588.71
459.204	31780.04
459.41	31046.86
459.616	28726.52
459.821	28787.96
460.027	28646.65
460.233	27921.66
460.438	26735.89
460.644	26877.2
460.85	25736.48
461.055	25140.52
461.261	25179.43
461.466	23319.88
461.672	22916.43
461.878	24362.29
462.083	22814.03
462.289	22441.3
462.494	22232.41
462.7	21165.42
462.905	20571.5
463.111	21456.23
463.316	21491.04
463.522	20766.06
463.727	21046.63
463.932	21216.61
464.138	20985.19
464.343	21058.92
464.549	20139.38
464.754	21124.46
464.959	20813.17
