Data from USB4F104151__18__11-04-51-274.txt Node

Date: Wed Mar 12 11:04:51 EDT 2025
User: louis
Spectrometer: USB4F10415
Trigger mode: 4
Integration Time (sec): 2.000000E-2
Scans to average: 1
Electric dark correction enabled: true
Nonlinearity correction enabled: false
Boxcar width: 0
XAxis mode: Wavelengths
Number of Pixels in Spectrum: 3648
>>>>>Begin Spectral Data<<<<<
178.204	-32.26
178.424	-32.26
178.644	-32.26
178.864	-103.93
179.084	-48.64
179.304	-11.78
179.524	10.75
179.744	-19.97
179.964	37.38
180.184	-28.16
180.404	20.99
180.624	25.09
180.844	-30.21
181.064	43.52
181.283	-34.3
181.503	6.66
181.723	-19.97
181.943	-30.21
182.163	14.85
182.383	-11.78
182.602	43.52
182.822	-42.5
183.042	20.99
183.262	-30.21
183.482	-48.64
183.701	12.8
183.921	-71.17
184.141	-9.73
184.361	16.9
184.58	-1.54
184.8	-7.68
185.02	-42.5
185.239	20.99
185.459	8.7
185.679	23.04
185.898	-11.78
186.118	18.94
186.338	-24.06
186.557	25.09
186.777	16.9
186.997	20.99
187.216	6.66
187.436	49.66
187.655	-17.92
187.875	-19.97
188.095	12.8
188.314	16.9
188.534	90.62
188.753	-36.35
188.973	6.66
189.192	-7.68
189.412	23.04
189.631	-22.02
189.851	-3.58
190.07	78.33
190.29	-71.17
190.509	-17.92
190.729	-58.88
190.948	35.33
191.168	80.38
191.387	-36.35
191.607	-5.63
191.826	-15.87
192.045	-24.06
192.265	43.52
192.484	66.05
192.704	-38.4
192.923	-11.78
193.142	102.91
193.362	61.95
193.581	4.61
193.8	47.62
194.02	16.9
194.239	2.56
194.458	2.56
194.678	-17.92
194.897	33.28
195.116	6.66
195.335	47.62
195.555	-5.63
195.774	14.85
195.993	-60.93
196.212	-24.06
196.432	-44.54
196.651	27.14
196.87	-58.88
197.089	55.81
197.308	57.86
197.528	33.28
197.747	-44.54
197.966	-1.54
198.185	20.99
198.404	-85.5
198.623	-22.02
198.842	78.33
199.062	31.23
199.281	109.05
199.5	-17.92
199.719	29.18
199.938	-7.68
200.157	33.28
200.376	-1.54
200.595	23.04
200.814	29.18
201.033	-28.16
201.252	10.75
201.471	31.23
201.69	-1.54
201.909	31.23
202.128	57.86
202.347	59.9
202.566	10.75
202.785	61.95
203.004	-26.11
203.223	47.62
203.442	-1.54
203.661	27.14
203.879	-69.12
204.098	29.18
204.317	-24.06
204.536	6.66
204.755	39.42
204.974	31.23
205.193	8.7
205.411	16.9
205.63	6.66
205.849	41.47
206.068	-24.06
206.287	-50.69
206.505	47.62
206.724	-77.31
206.943	2.56
207.162	16.9
207.381	-44.54
207.599	-11.78
207.818	-17.92
208.037	31.23
208.255	-36.35
208.474	29.18
208.693	23.04
208.911	33.28
209.13	-1.54
209.349	12.8
209.567	14.85
209.786	107.01
210.005	23.04
210.223	-38.4
210.442	-7.68
210.661	-15.87
210.879	-13.82
211.098	4.61
211.316	47.62
211.535	14.85
211.753	-52.74
211.972	45.57
212.191	37.38
212.409	20.99
212.628	16.9
212.846	-56.83
213.065	-40.45
213.283	74.24
213.502	12.8
213.72	39.42
213.938	66.05
214.157	-9.73
214.375	33.28
214.594	-9.73
214.812	-7.68
215.031	6.66
215.249	8.7
215.467	-22.02
215.686	-11.78
215.904	92.67
216.122	53.76
216.341	-13.82
216.559	-7.68
216.778	31.23
216.996	39.42
217.214	-15.87
217.432	31.23
217.651	-42.5
217.869	-34.3
218.087	80.38
218.306	37.38
218.524	59.9
218.742	-42.5
218.96	2.56
219.179	86.53
219.397	10.75
219.615	51.71
219.833	92.67
220.051	-54.78
220.27	55.81
220.488	14.85
220.706	68.09
220.924	18.94
221.142	-60.93
221.36	-17.92
221.578	-52.74
221.796	55.81
222.015	-34.3
222.233	-15.87
222.451	76.29
222.669	-3.58
222.887	68.09
223.105	55.81
223.323	92.67
223.541	-13.82
223.759	72.19
223.977	29.18
224.195	64
224.413	29.18
224.631	25.09
224.849	27.14
225.067	27.14
225.285	37.38
225.503	-38.4
225.721	-7.68
225.939	-50.69
226.157	27.14
226.375	111.1
226.592	-11.78
226.81	6.66
227.028	-24.06
227.246	86.53
227.464	57.86
227.682	41.47
227.9	6.66
228.117	-36.35
228.335	-15.87
228.553	61.95
228.771	-1.54
228.989	76.29
229.206	-7.68
229.424	-40.45
229.642	2.56
229.86	-24.06
230.077	86.53
230.295	2.56
230.513	55.81
230.731	68.09
230.948	59.9
231.166	100.86
231.384	27.14
231.601	43.52
231.819	66.05
232.037	47.62
232.254	14.85
232.472	-5.63
232.689	10.75
232.907	80.38
233.125	8.7
233.342	2.56
233.56	-17.92
233.777	68.09
233.995	55.81
234.213	68.09
234.43	-1.54
234.648	-26.11
234.865	-13.82
235.083	96.77
235.3	55.81
235.518	27.14
235.735	2.56
235.953	29.18
236.17	18.94
236.388	88.57
236.605	-34.3
236.822	55.81
237.04	-1.54
237.257	-11.78
237.475	25.09
237.692	64
237.909	6.66
238.127	74.24
238.344	23.04
238.562	-11.78
238.779	23.04
238.996	-7.68
239.214	-22.02
239.431	29.18
239.648	31.23
239.865	43.52
240.083	-3.58
240.3	57.86
240.517	4.61
240.735	12.8
240.952	49.66
241.169	59.9
241.386	35.33
241.603	39.42
241.821	-9.73
242.038	8.7
242.255	27.14
242.472	2.56
242.689	-3.58
242.907	49.66
243.124	-26.11
243.341	102.91
243.558	-17.92
243.775	74.24
243.992	-9.73
244.209	41.47
244.426	55.81
244.643	55.81
244.86	-13.82
245.078	45.57
245.295	18.94
245.512	29.18
245.729	-15.87
245.946	2.56
246.163	53.76
246.38	-54.78
246.597	-50.69
246.814	31.23
247.031	-19.97
247.248	76.29
247.464	55.81
247.681	53.76
247.898	20.99
248.115	31.23
248.332	-17.92
248.549	80.38
248.766	-11.78
248.983	78.33
249.2	-7.68
249.417	55.81
249.633	-91.65
249.85	31.23
250.067	12.8
250.284	20.99
250.501	-22.02
250.717	55.81
250.934	-44.54
251.151	33.28
251.368	55.81
251.585	-34.3
251.801	-26.11
252.018	29.18
252.235	49.66
252.451	16.9
252.668	35.33
252.885	53.76
253.102	8.7
253.318	16.9
253.535	64
253.752	-19.97
253.968	29.18
254.185	43.52
254.401	8.7
254.618	27.14
254.835	-7.68
255.051	31.23
255.268	-7.68
255.484	-5.63
255.701	-85.5
255.917	12.8
256.134	4.61
256.351	14.85
256.567	25.09
256.784	27.14
257	-22.02
257.217	8.7
257.433	-15.87
257.65	23.04
257.866	39.42
258.082	-30.21
258.299	29.18
258.515	-73.21
258.732	39.42
258.948	10.75
259.165	-7.68
259.381	10.75
259.597	72.19
259.814	74.24
260.03	-11.78
260.246	20.99
260.463	31.23
260.679	82.43
260.895	12.8
261.112	43.52
261.328	27.14
261.544	23.04
261.761	53.76
261.977	43.52
262.193	-46.59
262.409	70.14
262.626	-34.3
262.842	33.28
263.058	-5.63
263.274	64
263.49	39.42
263.707	43.52
263.923	8.7
264.139	45.57
264.355	10.75
264.571	76.29
264.787	-13.82
265.004	-5.63
265.22	-32.26
265.436	2.56
265.652	27.14
265.868	-30.21
266.084	8.7
266.3	33.28
266.516	27.14
266.732	10.75
266.948	-30.21
267.164	66.05
267.38	-52.74
267.596	-26.11
267.812	-26.11
268.028	25.09
268.244	-44.54
268.46	0.51
268.676	-26.11
268.892	2.56
269.108	4.61
269.324	14.85
269.54	4.61
269.756	-15.87
269.972	-13.82
270.188	31.23
270.403	27.14
270.619	39.42
270.835	-58.88
271.051	-5.63
271.267	-22.02
271.483	35.33
271.698	27.14
271.914	-17.92
272.13	-32.26
272.346	-19.97
272.562	33.28
272.777	43.52
272.993	61.95
273.209	-5.63
273.425	-7.68
273.64	-36.35
273.856	8.7
274.072	25.09
274.287	-7.68
274.503	45.57
274.719	2.56
274.934	-7.68
275.15	74.24
275.366	29.18
275.581	-32.26
275.797	-36.35
276.012	84.48
276.228	-62.98
276.444	39.42
276.659	-19.97
276.875	61.95
277.09	-22.02
277.306	-1.54
277.521	35.33
277.737	8.7
277.952	-19.97
278.168	16.9
278.383	49.66
278.599	12.8
278.814	51.71
279.03	-69.12
279.245	98.81
279.461	8.7
279.676	31.23
279.892	-30.21
280.107	10.75
280.322	-71.17
280.538	0.51
280.753	2.56
280.969	4.61
281.184	-1.54
281.399	27.14
281.615	-58.88
281.83	37.38
282.045	43.52
282.26	18.94
282.476	-1.54
282.691	74.24
282.906	86.53
283.122	-22.02
283.337	14.85
283.552	35.33
283.767	-13.82
283.983	20.99
284.198	-85.5
284.413	-22.02
284.628	-75.26
284.843	-22.02
285.058	51.71
285.274	18.94
285.489	-54.78
285.704	72.19
285.919	-1.54
286.134	10.75
286.349	16.9
286.564	20.99
286.779	43.52
286.995	59.9
287.21	20.99
287.425	27.14
287.64	0.51
287.855	12.8
288.07	-69.12
288.285	70.14
288.5	82.43
288.715	70.14
288.93	10.75
289.145	23.04
289.36	-15.87
289.575	23.04
289.79	39.42
290.004	-34.3
290.219	-60.93
290.434	-48.64
290.649	47.62
290.864	61.95
291.079	-11.78
291.294	35.33
291.509	25.09
291.724	-38.4
291.938	25.09
292.153	74.24
292.368	18.94
292.583	16.9
292.798	8.7
293.012	-17.92
293.227	-30.21
293.442	43.52
293.657	64
293.871	55.81
294.086	-17.92
294.301	14.85
294.516	145.92
294.73	-5.63
294.945	18.94
295.16	45.57
295.374	-19.97
295.589	61.95
295.804	-58.88
296.018	-17.92
296.233	18.94
296.447	10.75
296.662	-30.21
296.877	59.9
297.091	43.52
297.306	35.33
297.52	6.66
297.735	-11.78
297.949	59.9
298.164	20.99
298.378	14.85
298.593	-5.63
298.807	23.04
299.022	4.61
299.236	53.76
299.451	-22.02
299.665	-79.36
299.88	76.29
300.094	-79.36
300.309	41.47
300.523	-52.74
300.737	23.04
300.952	-3.58
301.166	31.23
301.381	72.19
301.595	78.33
301.809	0.51
302.024	45.57
302.238	-9.73
302.452	18.94
302.667	37.38
302.881	14.85
303.095	59.9
303.309	55.81
303.524	-32.26
303.738	76.29
303.952	-50.69
304.166	104.96
304.381	-73.21
304.595	-17.92
304.809	20.99
305.023	-22.02
305.237	-3.58
305.452	0.51
305.666	-22.02
305.88	14.85
306.094	-11.78
306.308	78.33
306.522	68.09
306.736	53.76
306.95	8.7
307.164	8.7
307.379	64
307.593	104.96
307.807	-34.3
308.021	55.81
308.235	18.94
308.449	-97.79
308.663	23.04
308.877	10.75
309.091	29.18
309.305	72.19
309.519	16.9
309.733	53.76
309.947	51.71
310.161	8.7
310.374	-13.82
310.588	59.9
310.802	23.04
311.016	84.48
311.23	-46.59
311.444	43.52
311.658	-67.07
311.872	0.51
312.085	4.61
312.299	41.47
312.513	74.24
312.727	31.23
312.941	43.52
313.154	27.14
313.368	70.14
313.582	12.8
313.796	12.8
314.009	-11.78
314.223	94.72
314.437	10.75
314.651	-46.59
314.864	70.14
315.078	70.14
315.292	18.94
315.505	-11.78
315.719	14.85
315.933	27.14
316.146	14.85
316.36	31.23
316.573	51.71
316.787	-5.63
317.001	-36.35
317.214	29.18
317.428	12.8
317.641	-15.87
317.855	31.23
318.068	59.9
318.282	39.42
318.495	12.8
318.709	68.09
318.922	39.42
319.136	94.72
319.349	-9.73
319.563	55.81
319.776	-32.26
319.99	-71.17
320.203	-1.54
320.417	68.09
320.63	41.47
320.843	86.53
321.057	35.33
321.27	-15.87
321.483	-17.92
321.697	88.57
321.91	-17.92
322.124	115.2
322.337	-28.16
322.55	59.9
322.763	-7.68
322.977	59.9
323.19	37.38
323.403	14.85
323.617	14.85
323.83	43.52
324.043	31.23
324.256	4.61
324.469	4.61
324.683	78.33
324.896	8.7
325.109	102.91
325.322	-19.97
325.535	14.85
325.748	53.76
325.962	76.29
326.175	25.09
326.388	43.52
326.601	61.95
326.814	6.66
327.027	-9.73
327.24	90.62
327.453	49.66
327.666	39.42
327.879	-17.92
328.092	70.14
328.305	66.05
328.518	59.9
328.731	16.9
328.944	-17.92
329.157	29.18
329.37	-34.3
329.583	64
329.796	78.33
330.009	-17.92
330.222	39.42
330.435	23.04
330.648	10.75
330.861	-11.78
331.073	4.61
331.286	8.7
331.499	-9.73
331.712	78.33
331.925	-13.82
332.138	-15.87
332.35	33.28
332.563	-48.64
332.776	70.14
332.989	117.25
333.202	51.71
333.414	-50.69
333.627	51.71
333.84	6.66
334.053	6.66
334.265	6.66
334.478	-36.35
334.691	74.24
334.903	84.48
335.116	-3.58
335.329	37.38
335.541	10.75
335.754	68.09
335.966	-48.64
336.179	10.75
336.392	61.95
336.604	6.66
336.817	-75.26
337.029	43.52
337.242	109.05
337.454	82.43
337.667	82.43
337.88	61.95
338.092	104.96
338.305	-9.73
338.517	29.18
338.729	55.81
338.942	-52.74
339.154	61.95
339.367	-42.5
339.579	16.9
339.792	-15.87
340.004	78.33
340.217	20.99
340.429	-34.3
340.641	55.81
340.854	51.71
341.066	-7.68
341.278	6.66
341.491	92.67
341.703	66.05
341.915	-28.16
342.128	76.29
342.34	49.66
342.552	37.38
342.764	49.66
342.977	-30.21
343.189	-1.54
343.401	53.76
343.613	39.42
343.826	41.47
344.038	31.23
344.25	-5.63
344.462	37.38
344.674	8.7
344.886	2.56
345.099	43.52
345.311	43.52
345.523	-17.92
345.735	10.75
345.947	-17.92
346.159	10.75
346.371	80.38
346.583	6.66
346.795	4.61
347.007	-15.87
347.219	27.14
347.431	8.7
347.643	37.38
347.855	2.56
348.067	74.24
348.279	41.47
348.491	6.66
348.703	25.09
348.915	59.9
349.127	64
349.339	66.05
349.551	49.66
349.763	86.53
349.975	16.9
350.187	31.23
350.399	10.75
350.61	-58.88
350.822	61.95
351.034	82.43
351.246	-36.35
351.458	64
351.669	37.38
351.881	-58.88
352.093	-11.78
352.305	66.05
352.517	72.19
352.728	27.14
352.94	10.75
353.152	10.75
353.363	-3.58
353.575	4.61
353.787	8.7
353.999	55.81
354.21	78.33
354.422	2.56
354.633	18.94
354.845	-46.59
355.057	-9.73
355.268	47.62
355.48	31.23
355.692	23.04
355.903	-3.58
356.115	20.99
356.326	-13.82
356.538	86.53
356.749	-69.12
356.961	51.71
357.172	53.76
357.384	20.99
357.595	98.81
357.807	4.61
358.018	-13.82
358.23	0.51
358.441	-30.21
358.653	51.71
358.864	59.9
359.075	-1.54
359.287	10.75
359.498	35.33
359.709	-32.26
359.921	-19.97
360.132	23.04
360.344	4.61
360.555	31.23
360.766	25.09
360.977	45.57
361.189	-77.31
361.4	70.14
361.611	100.86
361.823	29.18
362.034	70.14
362.245	-79.36
362.456	49.66
362.667	-1.54
362.879	12.8
363.09	70.14
363.301	6.66
363.512	-3.58
363.723	72.19
363.935	39.42
364.146	59.9
364.357	25.09
364.568	18.94
364.779	-24.06
364.99	92.67
365.201	-24.06
365.412	-3.58
365.623	-26.11
365.834	-5.63
366.045	2.56
366.256	66.05
366.467	35.33
366.678	92.67
366.889	4.61
367.1	49.66
367.311	51.71
367.522	0.51
367.733	25.09
367.944	33.28
368.155	64
368.366	51.71
368.577	41.47
368.788	68.09
368.999	2.56
369.209	57.86
369.42	70.14
369.631	66.05
369.842	6.66
370.053	-46.59
370.264	-22.02
370.474	-9.73
370.685	-36.35
370.896	14.85
371.107	-1.54
371.317	84.48
371.528	-22.02
371.739	143.87
371.95	14.85
372.16	43.52
372.371	2.56
372.582	-28.16
372.792	53.76
373.003	12.8
373.214	27.14
373.424	80.38
373.635	33.28
373.846	-19.97
374.056	-26.11
374.267	41.47
374.477	133.63
374.688	2.56
374.898	64
375.109	47.62
375.319	39.42
375.53	-13.82
375.74	80.38
375.951	12.8
376.161	43.52
376.372	-7.68
376.582	29.18
376.793	-60.93
377.003	47.62
377.214	64
377.424	-15.87
377.635	27.14
377.845	49.66
378.055	117.25
378.266	-9.73
378.476	-9.73
378.686	53.76
378.897	-22.02
379.107	37.38
379.317	49.66
379.528	-13.82
379.738	41.47
379.948	39.42
380.158	23.04
380.369	-1.54
380.579	51.71
380.789	12.8
380.999	57.86
381.21	94.72
381.42	84.48
381.63	-44.54
381.84	-5.63
382.05	-5.63
382.261	29.18
382.471	27.14
382.681	59.9
382.891	-30.21
383.101	14.85
383.311	-7.68
383.521	2.56
383.731	27.14
383.941	90.62
384.151	8.7
384.361	-56.83
384.571	25.09
384.781	61.95
384.991	27.14
385.201	-15.87
385.411	-9.73
385.621	16.9
385.831	27.14
386.041	14.85
386.251	10.75
386.461	143.87
386.671	31.23
386.881	20.99
387.091	51.71
387.301	37.38
387.511	27.14
387.72	72.19
387.93	61.95
388.14	51.71
388.35	74.24
388.56	-11.78
388.769	33.28
388.979	47.62
389.189	0.51
389.399	90.62
389.609	70.14
389.818	-11.78
390.028	59.9
390.238	45.57
390.447	70.14
390.657	27.14
390.867	18.94
391.076	12.8
391.286	27.14
391.496	6.66
391.705	4.61
391.915	27.14
392.125	80.38
392.334	20.99
392.544	8.7
392.753	25.09
392.963	23.04
393.172	33.28
393.382	-22.02
393.591	160.25
393.801	-1.54
394.01	45.57
394.22	59.9
394.429	61.95
394.639	55.81
394.848	49.66
395.058	12.8
395.267	16.9
395.477	18.94
395.686	78.33
395.895	96.77
396.105	70.14
396.314	31.23
396.524	4.61
396.733	35.33
396.942	45.57
397.152	4.61
397.361	39.42
397.57	18.94
397.78	14.85
397.989	145.92
398.198	137.73
398.407	68.09
398.617	-11.78
398.826	12.8
399.035	88.57
399.244	70.14
399.453	121.34
399.663	145.92
399.872	53.76
400.081	41.47
400.29	20.99
400.499	55.81
400.708	14.85
400.917	55.81
401.127	25.09
401.336	43.52
401.545	139.77
401.754	139.77
401.963	107.01
402.172	102.91
402.381	27.14
402.59	74.24
402.799	39.42
403.008	49.66
403.217	51.71
403.426	80.38
403.635	57.86
403.844	113.15
404.053	37.38
404.262	64
404.471	84.48
404.68	80.38
404.888	70.14
405.097	125.44
405.306	147.97
405.515	174.59
405.724	115.2
405.933	23.04
406.142	98.81
406.35	145.92
406.559	135.68
406.768	117.25
406.977	170.49
407.185	139.77
407.394	162.3
407.603	104.96
407.812	176.64
408.02	170.49
408.229	137.73
408.438	84.48
408.646	143.87
408.855	129.53
409.064	174.59
409.272	240.12
409.481	215.55
409.69	182.78
409.898	236.03
410.107	166.4
410.315	207.36
410.524	215.55
410.733	104.96
410.941	150.01
411.15	240.12
411.358	254.46
411.567	283.13
411.775	248.32
411.984	254.46
412.192	309.76
412.401	227.84
412.609	391.67
412.818	297.47
413.026	330.23
413.234	324.09
413.443	268.8
413.651	326.14
413.86	387.58
414.068	379.39
414.276	467.45
414.485	387.58
414.693	449.02
414.901	489.98
415.11	436.73
415.318	449.02
415.526	561.66
415.734	514.55
415.943	512.5
416.151	645.62
416.359	463.35
416.567	537.08
416.776	596.47
416.984	575.99
417.192	553.46
417.4	664.05
417.608	563.7
417.817	713.21
418.025	723.44
418.233	813.56
418.441	709.11
418.649	803.32
418.857	817.65
419.065	868.85
419.273	754.16
419.481	813.56
419.689	934.39
419.897	1038.83
420.105	1030.64
420.313	1038.83
420.521	1077.74
420.729	1124.85
420.937	1190.38
421.145	1219.05
421.353	1239.53
421.561	1288.68
421.769	1329.64
421.977	1368.56
422.185	1251.82
422.393	1399.27
422.601	1528.3
422.809	1565.16
423.017	1536.49
423.224	1591.78
423.432	1618.41
423.64	1642.98
423.848	1862.12
424.056	1718.76
424.263	1849.83
424.471	1905.12
424.679	1919.46
424.887	2036.19
425.094	2087.39
425.302	2120.16
425.51	2159.07
425.718	2230.75
425.925	2286.05
426.133	2304.48
426.341	2443.74
426.548	2505.18
426.756	2599.38
426.964	2652.63
427.171	2742.74
427.379	2802.13
427.586	2929.11
427.794	3013.07
428.001	3140.05
428.209	3355.08
428.417	3277.26
428.624	3463.63
428.832	3545.55
429.039	3412.43
429.247	3418.57
429.454	3686.86
429.662	3969.48
429.869	3697.1
430.076	4063.68
430.284	4057.54
430.491	4045.25
430.699	4354.49
430.906	4288.96
431.114	4557.24
431.321	4649.4
431.528	4626.87
431.736	4889.01
431.943	5099.95
432.15	5011.89
432.358	4997.56
432.565	5308.85
432.772	5228.98
432.979	5611.95
433.187	5638.57
433.394	5792.17
433.601	5949.86
433.808	6105.51
434.016	6175.14
434.223	6191.52
434.43	6664.6
434.637	6664.6
434.844	7123.35
435.052	7154.07
435.259	7090.58
435.466	7223.7
435.673	7068.05
435.88	7367.06
436.087	7954.82
436.294	7967.11
436.501	7737.74
436.708	7641.48
436.915	8436.1
437.122	8526.21
437.329	8530.3
437.537	8900.98
437.743	8845.69
437.95	8761.72
438.157	9275.76
438.364	9728.36
438.571	9613.68
438.778	9707.88
438.985	10424.67
439.192	10230.12
439.399	10504.54
439.606	10125.67
439.813	10914.14
440.02	11618.64
440.227	11305.3
440.433	11288.92
440.64	11788.62
440.847	11403.6
441.054	11733.32
441.261	12595.52
441.467	12511.55
441.674	12894.52
441.881	13252.92
442.088	13107.51
442.294	13031.74
442.501	13207.86
442.708	13738.29
442.914	14303.53
443.121	14893.34
443.328	14373.16
443.534	15321.37
443.741	14864.67
443.948	14782.75
444.154	15974.67
444.361	15792.4
444.568	15829.26
444.774	15776.02
444.981	16171.27
445.187	16838.91
445.394	17252.6
445.6	16929.02
445.807	18632.93
446.013	17871.09
446.22	18098.41
446.426	18815.2
446.633	18860.26
446.839	19775.7
447.046	19020
447.252	19960.02
447.459	19912.91
447.665	19839.19
447.871	20486.34
448.078	21321.91
448.284	20558.02
448.491	21057.73
448.697	21889.2
448.903	22349.99
449.11	22479.02
449.316	21895.35
449.522	22280.36
449.728	22810.79
449.935	22958.24
450.141	23111.84
450.347	23314.59
450.553	22810.79
450.76	22876.32
450.966	23713.94
451.172	23720.09
451.378	23953.55
451.584	23629.98
451.791	24203.41
451.997	24170.64
452.203	24563.85
452.409	24154.26
452.615	24457.35
452.821	23271.58
453.027	22925.47
453.233	24010.9
453.44	23306.4
453.646	23505.05
453.852	23675.03
454.058	23969.94
454.264	22880.42
454.47	23531.67
454.676	23128.22
454.882	23943.31
455.088	21498.04
455.294	22110.38
455.5	22096.05
455.705	22098.09
455.911	21577.91
456.117	21248.19
456.323	20660.42
456.529	19736.79
456.735	20394.18
456.941	19874
457.147	19732.69
457.352	18768.1
457.558	18858.21
457.764	18735.33
457.97	18389.22
458.176	18106.6
458.381	17877.23
458.587	17053.95
458.793	16980.22
458.999	15982.86
459.204	17246.46
459.41	16681.22
459.616	15638.8
459.821	15702.29
460.027	15563.03
460.233	15333.65
460.438	14422.31
460.644	14496.03
460.85	13926.7
461.055	13873.45
461.261	13527.35
461.466	12669.25
461.672	12409.15
461.878	13191.48
462.083	12337.48
462.289	12050.76
462.494	11927.88
462.7	11684.17
462.905	11376.98
463.111	11645.26
463.316	11565.39
463.522	11389.27
463.727	11487.57
463.932	11286.87
464.138	11125.08
464.343	11331.92
464.549	11006.3
464.754	11508.05
464.959	11379.03
465.165	11043.16
465.37	10889.56
465.575	10400.1
465.781	11018.58
465.986	11090.26
466.191	10457.44
466.397	10594.65
466.602	9847.15
466.807	10283.36
467.012	10213.73
467.218	10273.12
467.423	10074.47
467.628	10162.53
467.833	10641.76
468.038	10289.51
468.244	9886.06
