Data from USB4F104151__261__11-11-57-467.txt Node

Date: Wed Mar 12 11:11:57 EDT 2025
User: louis
Spectrometer: USB4F10415
Trigger mode: 4
Integration Time (sec): 2.000000E-2
Scans to average: 1
Electric dark correction enabled: true
Nonlinearity correction enabled: false
Boxcar width: 0
XAxis mode: Wavelengths
Number of Pixels in Spectrum: 3648
>>>>>Begin Spectral Data<<<<<
178.204	-7.51
178.424	-7.51
178.644	-7.51
178.864	-91.48
179.084	-83.28
179.304	-15.7
179.524	-40.28
179.744	25.26
179.964	25.26
180.184	-52.56
180.404	27.31
180.624	-9.56
180.844	-3.41
181.064	15.02
181.283	-3.41
181.503	-7.51
181.723	39.59
181.943	-42.32
182.163	41.64
182.383	-66.9
182.602	23.21
182.822	-7.51
183.042	10.92
183.262	41.64
183.482	-19.8
183.701	17.07
183.921	-1.37
184.141	-30.04
184.361	-25.94
184.58	10.92
184.8	60.07
185.02	39.59
185.239	27.31
185.459	37.55
185.679	15.02
185.898	47.79
186.118	64.17
186.338	-7.51
186.557	62.12
186.777	51.88
186.997	-9.56
187.216	39.59
187.436	8.87
187.655	51.88
187.875	-19.8
188.095	-54.61
188.314	27.31
188.534	98.99
188.753	-44.37
188.973	19.11
189.192	53.93
189.412	29.35
189.631	-23.89
189.851	8.87
190.07	43.69
190.29	-9.56
190.509	72.36
190.729	10.92
190.948	82.6
191.168	152.23
191.387	64.17
191.607	-42.32
191.826	84.65
192.045	35.5
192.265	-34.13
192.484	-34.13
192.704	4.78
192.923	-30.04
193.142	111.27
193.362	23.21
193.581	62.12
193.8	-17.75
194.02	29.35
194.239	15.02
194.458	58.03
194.678	-17.75
194.897	96.94
195.116	39.59
195.335	62.12
195.555	101.03
195.774	6.83
195.993	45.74
196.212	2.73
196.432	29.35
196.651	-3.41
196.87	12.97
197.089	109.22
197.308	37.55
197.528	92.84
197.747	-25.94
197.966	33.45
198.185	37.55
198.404	-9.56
198.623	-34.13
198.842	43.69
199.062	33.45
199.281	12.97
199.5	15.02
199.719	10.92
199.938	15.02
200.157	98.99
200.376	-46.42
200.595	29.35
200.814	25.26
201.033	2.73
201.252	31.4
201.471	31.4
201.69	55.98
201.909	107.18
202.128	-11.61
202.347	62.12
202.566	68.27
202.785	39.59
203.004	23.21
203.223	-17.75
203.442	80.55
203.661	4.78
203.879	-40.28
204.098	19.11
204.317	-36.18
204.536	66.22
204.755	31.4
204.974	27.31
205.193	60.07
205.411	49.83
205.63	-21.85
205.849	2.73
206.068	-19.8
206.287	-56.66
206.505	-3.41
206.724	10.92
206.943	-44.37
207.162	-30.04
207.381	-21.85
207.599	-25.94
207.818	-15.7
208.037	23.21
208.255	-5.46
208.474	37.55
208.693	8.87
208.911	-3.41
209.13	55.98
209.349	37.55
209.567	74.41
209.786	17.07
210.005	4.78
210.223	60.07
210.442	31.4
210.661	-7.51
210.879	8.87
211.098	55.98
211.316	21.16
211.535	62.12
211.753	-38.23
211.972	27.31
212.191	-32.08
212.409	41.64
212.628	-66.9
212.846	53.93
213.065	55.98
213.283	6.83
213.502	-7.51
213.72	37.55
213.938	25.26
214.157	10.92
214.375	0.68
214.594	55.98
214.812	37.55
215.031	10.92
215.249	39.59
215.467	12.97
215.686	-9.56
215.904	27.31
216.122	2.73
216.341	29.35
216.559	17.07
216.778	-42.32
216.996	37.55
217.214	2.73
217.432	4.78
217.651	21.16
217.869	-1.37
218.087	33.45
218.306	10.92
218.524	43.69
218.742	80.55
218.96	66.22
219.179	-52.56
219.397	-1.37
219.615	78.51
219.833	0.68
220.051	-25.94
220.27	68.27
220.488	76.46
220.706	-15.7
220.924	-21.85
221.142	8.87
221.36	29.35
221.578	58.03
221.796	-34.13
222.015	4.78
222.233	21.16
222.451	33.45
222.669	39.59
222.887	47.79
223.105	19.11
223.323	-9.56
223.541	-17.75
223.759	-25.94
223.977	25.26
224.195	47.79
224.413	8.87
224.631	43.69
224.849	31.4
225.067	64.17
225.285	-3.41
225.503	45.74
225.721	47.79
225.939	-21.85
226.157	-13.65
226.375	98.99
226.592	-79.19
226.81	-5.46
227.028	47.79
227.246	35.5
227.464	43.69
227.682	84.65
227.9	94.89
228.117	33.45
228.335	39.59
228.553	35.5
228.771	0.68
228.989	25.26
229.206	49.83
229.424	-9.56
229.642	10.92
229.86	-23.89
230.077	47.79
230.295	82.6
230.513	31.4
230.731	49.83
230.948	25.26
231.166	8.87
231.384	-77.14
231.601	21.16
231.819	-13.65
232.037	41.64
232.254	-1.37
232.472	-25.94
232.689	-1.37
232.907	60.07
233.125	6.83
233.342	-23.89
233.56	-9.56
233.777	-19.8
233.995	2.73
234.213	98.99
234.43	-21.85
234.648	-46.42
234.865	17.07
235.083	58.03
235.3	62.12
235.518	-21.85
235.735	45.74
235.953	39.59
236.17	49.83
236.388	39.59
236.605	92.84
236.822	-21.85
237.04	55.98
237.257	-7.51
237.475	-13.65
237.692	-5.46
237.909	60.07
238.127	45.74
238.344	29.35
238.562	6.83
238.779	-11.61
238.996	47.79
239.214	-36.18
239.431	-5.46
239.648	80.55
239.865	76.46
240.083	107.18
240.3	10.92
240.517	17.07
240.735	10.92
240.952	55.98
241.169	78.51
241.386	23.21
241.603	35.5
241.821	2.73
242.038	64.17
242.255	43.69
242.472	19.11
242.689	55.98
242.907	23.21
243.124	19.11
243.341	25.26
243.558	53.93
243.775	37.55
243.992	35.5
244.209	-3.41
244.426	66.22
244.643	80.55
244.86	-5.46
245.078	35.5
245.295	41.64
245.512	4.78
245.729	10.92
245.946	101.03
246.163	2.73
246.38	15.02
246.597	2.73
246.814	27.31
247.031	10.92
247.248	-46.42
247.464	51.88
247.681	94.89
247.898	47.79
248.115	21.16
248.332	19.11
248.549	92.84
248.766	15.02
248.983	78.51
249.2	41.64
249.417	6.83
249.633	10.92
249.85	8.87
250.067	17.07
250.284	51.88
250.501	-15.7
250.717	0.68
250.934	41.64
251.151	2.73
251.368	10.92
251.585	8.87
251.801	47.79
252.018	-15.7
252.235	113.32
252.451	-27.99
252.668	33.45
252.885	115.37
253.102	72.36
253.318	15.02
253.535	2.73
253.752	-30.04
253.968	-19.8
254.185	-21.85
254.401	-3.41
254.618	33.45
254.835	35.5
255.051	43.69
255.268	31.4
255.484	29.35
255.701	-21.85
255.917	117.42
256.134	-30.04
256.351	72.36
256.567	41.64
256.784	25.26
257	-3.41
257.217	82.6
257.433	15.02
257.65	58.03
257.866	-15.7
258.082	-13.65
258.299	-42.32
258.515	96.94
258.732	35.5
258.948	-1.37
259.165	-42.32
259.381	17.07
259.597	15.02
259.814	-50.52
260.03	51.88
260.246	60.07
260.463	10.92
260.679	19.11
260.895	2.73
261.112	-73.04
261.328	-42.32
261.544	35.5
261.761	115.37
261.977	-27.99
262.193	25.26
262.409	74.41
262.626	35.5
262.842	-11.61
263.058	19.11
263.274	-30.04
263.49	43.69
263.707	-21.85
263.923	43.69
264.139	76.46
264.355	15.02
264.571	68.27
264.787	35.5
265.004	-44.37
265.22	53.93
265.436	-7.51
265.652	15.02
265.868	-52.56
266.084	49.83
266.3	21.16
266.516	43.69
266.732	-1.37
266.948	-34.13
267.164	37.55
267.38	31.4
267.596	17.07
267.812	103.08
268.028	47.79
268.244	60.07
268.46	39.59
268.676	53.93
268.892	84.65
269.108	-58.71
269.324	96.94
269.54	-32.08
269.756	-21.85
269.972	27.31
270.188	60.07
270.403	-21.85
270.619	80.55
270.835	62.12
271.051	19.11
271.267	55.98
271.483	64.17
271.698	51.88
271.914	39.59
272.13	0.68
272.346	10.92
272.562	27.31
272.777	10.92
272.993	53.93
273.209	55.98
273.425	47.79
273.64	-11.61
273.856	-17.75
274.072	-3.41
274.287	37.55
274.503	90.79
274.719	-17.75
274.934	76.46
275.15	-73.04
275.366	6.83
275.581	-66.9
275.797	-21.85
276.012	-17.75
276.228	55.98
276.444	25.26
276.659	23.21
276.875	76.46
277.09	27.31
277.306	-23.89
277.521	23.21
277.737	-15.7
277.952	76.46
278.168	35.5
278.383	-30.04
278.599	10.92
278.814	62.12
279.03	-40.28
279.245	8.87
279.461	10.92
279.676	78.51
279.892	-68.95
280.107	0.68
280.322	12.97
280.538	17.07
280.753	35.5
280.969	37.55
281.184	-9.56
281.399	43.69
281.615	92.84
281.83	4.78
282.045	-23.89
282.26	58.03
282.476	31.4
282.691	10.92
282.906	6.83
283.122	29.35
283.337	-105.81
283.552	-15.7
283.767	23.21
283.983	35.5
284.198	21.16
284.413	6.83
284.628	27.31
284.843	-3.41
285.058	25.26
285.274	17.07
285.489	-9.56
285.704	27.31
285.919	33.45
286.134	33.45
286.349	92.84
286.564	-13.65
286.779	107.18
286.995	-25.94
287.21	-46.42
287.425	23.21
287.64	-46.42
287.855	64.17
288.07	19.11
288.285	0.68
288.5	62.12
288.715	25.26
288.93	-27.99
289.145	2.73
289.36	17.07
289.575	82.6
289.79	33.45
290.004	37.55
290.219	35.5
290.434	84.65
290.649	-34.13
290.864	17.07
291.079	43.69
291.294	82.6
291.509	4.78
291.724	31.4
291.938	15.02
292.153	6.83
292.368	8.87
292.583	15.02
292.798	82.6
293.012	35.5
293.227	101.03
293.442	-11.61
293.657	74.41
293.871	37.55
294.086	25.26
294.301	70.31
294.516	64.17
294.73	15.02
294.945	-21.85
295.16	53.93
295.374	68.27
295.589	35.5
295.804	29.35
296.018	33.45
296.233	39.59
296.447	12.97
296.662	-7.51
296.877	51.88
297.091	35.5
297.306	-9.56
297.52	33.45
297.735	-7.51
297.949	-9.56
298.164	107.18
298.378	-40.28
298.593	-50.52
298.807	23.21
299.022	55.98
299.236	29.35
299.451	25.26
299.665	41.64
299.88	35.5
300.094	41.64
300.309	96.94
300.523	19.11
300.737	62.12
300.952	-15.7
301.166	109.22
301.381	2.73
301.595	60.07
301.809	-11.61
302.024	21.16
302.238	80.55
302.452	49.83
302.667	-7.51
302.881	96.94
303.095	8.87
303.309	0.68
303.524	10.92
303.738	23.21
303.952	21.16
304.166	41.64
304.381	-44.37
304.595	55.98
304.809	6.83
305.023	58.03
305.237	74.41
305.452	49.83
305.666	-13.65
305.88	37.55
306.094	53.93
306.308	10.92
306.522	74.41
306.736	19.11
306.95	-30.04
307.164	35.5
307.379	12.97
307.593	60.07
307.807	-11.61
308.021	64.17
308.235	15.02
308.449	41.64
308.663	10.92
308.877	49.83
309.091	17.07
309.305	47.79
309.519	-7.51
309.733	2.73
309.947	17.07
310.161	60.07
310.374	0.68
310.588	39.59
310.802	35.5
311.016	4.78
311.23	27.31
311.444	15.02
311.658	6.83
311.872	58.03
312.085	-25.94
312.299	17.07
312.513	33.45
312.727	43.69
312.941	-15.7
313.154	41.64
313.368	-34.13
313.582	21.16
313.796	-9.56
314.009	45.74
314.223	74.41
314.437	58.03
314.651	6.83
314.864	8.87
315.078	-19.8
315.292	2.73
315.505	53.93
315.719	82.6
315.933	64.17
316.146	141.99
316.36	-5.46
316.573	66.22
316.787	68.27
317.001	49.83
317.214	4.78
317.428	-13.65
317.641	78.51
317.855	8.87
318.068	64.17
318.282	-71
318.495	64.17
318.709	4.78
318.922	0.68
319.136	19.11
319.349	4.78
319.563	37.55
319.776	62.12
319.99	21.16
320.203	35.5
320.417	6.83
320.63	0.68
320.843	125.61
321.057	43.69
321.27	29.35
321.483	39.59
321.697	101.03
321.91	23.21
322.124	12.97
322.337	86.7
322.55	55.98
322.763	-42.32
322.977	66.22
323.19	15.02
323.403	-15.7
323.617	10.92
323.83	19.11
324.043	66.22
324.256	72.36
324.469	15.02
324.683	10.92
324.896	17.07
325.109	43.69
325.322	-13.65
325.535	47.79
325.748	-21.85
325.962	-30.04
326.175	62.12
326.388	15.02
326.601	35.5
326.814	45.74
327.027	0.68
327.24	29.35
327.453	-42.32
327.666	47.79
327.879	84.65
328.092	19.11
328.305	17.07
328.518	25.26
328.731	-34.13
328.944	-1.37
329.157	0.68
329.37	4.78
329.583	12.97
329.796	31.4
330.009	-30.04
330.222	4.78
330.435	-15.7
330.648	94.89
330.861	94.89
331.073	-17.75
331.286	-23.89
331.499	70.31
331.712	41.64
331.925	-5.46
332.138	39.59
332.35	94.89
332.563	15.02
332.776	10.92
332.989	-75.09
333.202	49.83
333.414	51.88
333.627	-25.94
333.84	-23.89
334.053	0.68
334.265	-27.99
334.478	21.16
334.691	-11.61
334.903	-34.13
335.116	10.92
335.329	33.45
335.541	60.07
335.754	25.26
335.966	-11.61
336.179	72.36
336.392	76.46
336.604	-81.24
336.817	27.31
337.029	35.5
337.242	47.79
337.454	39.59
337.667	6.83
337.88	64.17
338.092	76.46
338.305	0.68
338.517	-11.61
338.729	66.22
338.942	23.21
339.154	29.35
339.367	49.83
339.579	8.87
339.792	29.35
340.004	115.37
340.217	-34.13
340.429	21.16
340.641	-13.65
340.854	55.98
341.066	74.41
341.278	76.46
341.491	84.65
341.703	15.02
341.915	19.11
342.128	55.98
342.34	4.78
342.552	-9.56
342.764	39.59
342.977	23.21
343.189	92.84
343.401	96.94
343.613	-3.41
343.826	51.88
344.038	47.79
344.25	4.78
344.462	-5.46
344.674	21.16
344.886	31.4
345.099	-30.04
345.311	53.93
345.523	6.83
345.735	-19.8
345.947	-25.94
346.159	6.83
346.371	-17.75
346.583	6.83
346.795	70.31
347.007	2.73
347.219	15.02
347.431	27.31
347.643	60.07
347.855	-36.18
348.067	60.07
348.279	19.11
348.491	-5.46
348.703	31.4
348.915	162.47
349.127	45.74
349.339	62.12
349.551	27.31
349.763	70.31
349.975	6.83
350.187	43.69
350.399	68.27
350.61	8.87
350.822	0.68
351.034	96.94
351.246	47.79
351.458	43.69
351.669	6.83
351.881	33.45
352.093	-7.51
352.305	72.36
352.517	60.07
352.728	49.83
352.94	33.45
353.152	37.55
353.363	47.79
353.575	21.16
353.787	37.55
353.999	49.83
354.21	49.83
354.422	82.6
354.633	60.07
354.845	-75.09
355.057	66.22
355.268	29.35
355.48	4.78
355.692	-50.52
355.903	19.11
356.115	-42.32
356.326	-30.04
356.538	35.5
356.749	98.99
356.961	31.4
357.172	80.55
357.384	66.22
357.595	39.59
357.807	-1.37
358.018	31.4
358.23	-1.37
358.441	107.18
358.653	39.59
358.864	-46.42
359.075	107.18
359.287	6.83
359.498	47.79
359.709	-19.8
359.921	29.35
360.132	72.36
360.344	0.68
360.555	64.17
360.766	-13.65
360.977	58.03
361.189	39.59
361.4	15.02
361.611	62.12
361.823	78.51
362.034	53.93
362.245	17.07
362.456	-44.37
362.667	35.5
362.879	6.83
363.09	23.21
363.301	-5.46
363.512	8.87
363.723	31.4
363.935	49.83
364.146	113.32
364.357	-23.89
364.568	12.97
364.779	-32.08
364.99	-1.37
365.201	47.79
365.412	76.46
365.623	-54.61
365.834	27.31
366.045	-9.56
366.256	66.22
366.467	-30.04
366.678	-75.09
366.889	84.65
367.1	-11.61
367.311	-64.85
367.522	80.55
367.733	94.89
367.944	-3.41
368.155	35.5
368.366	2.73
368.577	-3.41
368.788	68.27
368.999	27.31
369.209	33.45
369.42	135.85
369.631	62.12
369.842	-1.37
370.053	62.12
370.264	37.55
370.474	-56.66
370.685	41.64
370.896	-42.32
371.107	55.98
371.317	94.89
371.528	-7.51
371.739	-21.85
371.95	4.78
372.16	21.16
372.371	55.98
372.582	-23.89
372.792	58.03
373.003	-11.61
373.214	19.11
373.424	62.12
373.635	15.02
373.846	84.65
374.056	25.26
374.267	98.99
374.477	15.02
374.688	-46.42
374.898	76.46
375.109	60.07
375.319	19.11
375.53	64.17
375.74	80.55
375.951	-3.41
376.161	35.5
376.372	35.5
376.582	-1.37
376.793	41.64
377.003	2.73
377.214	4.78
377.424	-46.42
377.635	29.35
377.845	47.79
378.055	76.46
378.266	-19.8
378.476	-11.61
378.686	-5.46
378.897	0.68
379.107	41.64
379.317	49.83
379.528	-40.28
379.738	17.07
379.948	35.5
380.158	92.84
380.369	19.11
380.579	4.78
380.789	72.36
380.999	45.74
381.21	-9.56
381.42	72.36
381.63	-62.8
381.84	39.59
382.05	45.74
382.261	64.17
382.471	31.4
382.681	-7.51
382.891	-13.65
383.101	66.22
383.311	-23.89
383.521	88.75
383.731	101.03
383.941	72.36
384.151	10.92
384.361	-25.94
384.571	-1.37
384.781	78.51
384.991	68.27
385.201	62.12
385.411	21.16
385.621	-42.32
385.831	45.74
386.041	47.79
386.251	-7.51
386.461	47.79
386.671	41.64
386.881	41.64
387.091	-7.51
387.301	109.22
387.511	35.5
387.72	35.5
387.93	-46.42
388.14	2.73
388.35	8.87
388.56	31.4
388.769	78.51
388.979	72.36
389.189	51.88
389.399	21.16
389.609	58.03
389.818	86.7
390.028	17.07
390.238	39.59
390.447	60.07
390.657	-30.04
390.867	-3.41
391.076	8.87
391.286	10.92
391.496	66.22
391.705	62.12
391.915	98.99
392.125	47.79
392.334	101.03
392.544	19.11
392.753	47.79
392.963	27.31
393.172	25.26
393.382	-1.37
393.591	107.18
393.801	51.88
394.01	43.69
394.22	76.46
394.429	41.64
394.639	68.27
394.848	35.5
395.058	53.93
395.267	37.55
395.477	64.17
395.686	39.59
395.895	107.18
396.105	62.12
396.314	-9.56
396.524	35.5
396.733	55.98
396.942	74.41
397.152	84.65
397.361	49.83
397.57	43.69
397.78	101.03
397.989	70.31
398.198	76.46
398.407	6.83
398.617	72.36
398.826	41.64
399.035	90.79
399.244	15.02
399.453	80.55
399.663	6.83
399.872	12.97
400.081	76.46
400.29	64.17
400.499	23.21
400.708	37.55
400.917	47.79
401.127	119.46
401.336	47.79
401.545	96.94
401.754	78.51
401.963	82.6
402.172	80.55
402.381	78.51
402.59	-38.23
402.799	72.36
403.008	60.07
403.217	86.7
403.426	109.22
403.635	164.52
403.844	43.69
404.053	58.03
404.262	117.42
404.471	68.27
404.68	111.27
404.888	82.6
405.097	60.07
405.306	62.12
405.515	121.51
405.724	137.9
405.933	76.46
406.142	117.42
406.35	115.37
406.559	84.65
406.768	115.37
406.977	133.8
407.185	141.99
407.394	137.9
407.603	107.18
407.812	80.55
408.02	180.9
408.229	101.03
408.438	174.76
408.646	139.94
408.855	162.47
409.064	60.07
409.272	158.38
409.481	141.99
409.69	191.14
409.898	141.99
410.107	199.34
410.315	232.1
410.524	90.79
410.733	166.57
410.941	178.86
411.15	203.43
411.358	185
411.567	230.06
411.775	205.48
411.984	230.06
412.192	266.92
412.401	258.73
412.609	264.87
412.818	363.17
413.026	254.63
413.234	299.69
413.443	303.78
413.651	285.35
413.86	260.77
414.068	318.12
414.276	338.6
414.485	340.65
414.693	375.46
414.901	414.37
415.11	375.46
415.318	359.08
415.526	395.94
415.734	451.24
415.943	447.14
416.151	490.15
416.359	486.05
416.567	477.86
416.776	522.91
416.984	490.15
417.192	578.21
417.4	484
417.608	584.35
417.817	598.69
418.025	576.16
418.233	696.99
418.441	596.64
418.649	748.19
418.857	672.42
419.065	684.7
419.273	672.42
419.481	647.84
419.689	780.96
419.897	780.96
420.105	823.97
420.313	862.88
420.521	873.12
420.729	973.47
420.937	928.41
421.145	961.18
421.353	952.99
421.561	1106.59
421.769	1041.05
421.977	1102.49
422.185	1110.68
422.393	1168.02
422.601	1221.27
422.809	1180.31
423.017	1313.43
423.224	1440.4
423.432	1403.54
423.64	1360.53
423.848	1460.88
424.056	1501.84
424.263	1571.47
424.471	1637.01
424.679	1512.08
424.887	1858.19
425.094	1606.29
425.302	1684.11
425.51	1962.64
425.718	1796.75
425.925	1819.28
426.133	1970.83
426.341	1991.31
426.548	2155.15
426.756	2052.75
426.964	2069.13
427.171	2278.02
427.379	2405
427.586	2402.95
427.794	2519.68
428.001	2579.08
428.209	2773.63
428.417	2558.6
428.624	2775.68
428.832	2753.15
429.039	2749.06
429.247	2804.35
429.454	3117.69
429.662	3242.62
429.869	3019.39
430.076	3234.43
430.284	3115.64
430.491	3203.71
430.699	3558
430.906	3525.24
431.114	3449.46
431.321	3658.35
431.528	3762.8
431.736	4004.46
431.943	4113
432.15	3943.02
432.358	4078.19
432.565	4340.33
432.772	4256.36
432.979	4481.64
433.187	4579.94
433.394	4715.11
433.601	4960.86
433.808	5067.36
434.016	4813.41
434.223	5034.59
434.43	5460.57
434.637	5325.4
434.844	5751.38
435.052	5724.76
435.259	5751.38
435.466	5778
435.673	5689.94
435.88	6160.97
436.087	6253.13
436.294	6462.02
436.501	6175.31
436.708	6431.3
436.915	6642.25
437.122	6883.91
437.329	6912.58
437.537	6974.02
437.743	7209.53
437.95	7092.8
438.157	7395.9
438.364	7748.15
438.571	7684.66
438.778	7756.34
438.985	8682.02
439.192	8305.2
439.399	8464.94
439.606	8151.6
439.813	8739.37
440.02	9366.04
440.227	9089.57
440.433	9161.25
440.64	9376.28
440.847	9243.17
441.054	9364
441.261	9929.24
441.467	9714.2
441.674	10138.13
441.881	10625.54
442.088	10478.09
442.294	10392.08
442.501	10553.87
442.708	10686.98
442.914	11442.68
443.121	11934.2
443.328	11254.27
443.534	12372.46
443.741	11774.45
443.948	11713.02
444.154	12509.68
444.361	12380.65
444.568	12515.82
444.774	12866.02
444.981	12739.05
445.187	12890.6
445.394	13699.55
445.6	13535.71
445.807	14655.95
446.013	13941.21
446.22	14377.42
446.426	14825.93
446.633	15151.56
446.839	15593.92
447.046	14961.09
447.252	15579.58
447.459	15837.62
447.665	15563.2
447.871	16214.45
448.078	17041.83
448.284	16271.79
448.491	16775.59
448.697	17209.76
448.903	17670.56
449.11	17541.53
449.316	17140.13
449.522	17566.11
449.728	18024.86
449.935	18305.43
450.141	18256.28
450.347	18698.64
450.553	18155.93
450.76	18295.19
450.966	18819.47
451.172	18495.89
451.378	19186.05
451.584	18532.75
451.791	18989.45
451.997	19126.66
452.203	19368.32
452.409	19274.12
452.615	19329.41
452.821	18772.36
453.027	18461.07
453.233	19593.6
453.44	18839.95
453.646	18651.53
453.852	18942.35
454.058	19302.79
454.264	18751.88
454.47	19048.84
454.676	18516.37
454.882	19106.18
455.088	17799.58
455.294	17697.18
455.5	18280.85
455.705	18405.78
455.911	17772.96
456.117	17060.26
456.323	17019.3
456.529	16026.04
456.735	16771.5
456.941	16159.16
457.147	16177.59
457.352	15589.82
457.558	15342.02
457.764	15319.49
457.97	15112.64
458.176	14664.14
458.381	14778.83
458.587	13785.56
458.793	14096.85
458.999	13435.36
459.204	14182.87
459.41	13801.94
459.616	13130.21
459.821	13048.29
460.027	12763.62
460.233	12790.25
460.438	12147.19
460.644	12145.14
460.85	11696.63
461.055	11266.56
461.261	11522.55
461.466	10467.85
461.672	10441.23
461.878	10983.94
462.083	10435.08
462.289	10138.13
462.494	9849.36
462.7	9675.29
462.905	9544.22
463.111	9683.48
463.316	9738.77
463.522	9409.05
463.727	9601.56
463.932	9372.19
464.138	9306.65
464.343	9277.98
464.549	8997.41
464.754	9273.89
464.959	9320.99
465.165	9280.03
465.37	8804.9
465.575	8354.35
465.781	9116.19
465.986	8938.02
466.191	8796.71
466.397	8366.64
466.602	8030.77
466.807	8403.5
467.012	8571.43
467.218	8337.96
467.423	8084.02
467.628	8301.1
467.833	8763.94
468.038	8354.35
468.244	7993.9
468.449	8442.41
468.654	8098.35
468.859	8028.72
469.064	8030.77
469.269	7821.88
