Data from USB4F104151__121__11-07-29-497.txt Node

Date: Wed Mar 12 11:07:29 EDT 2025
User: louis
Spectrometer: USB4F10415
Trigger mode: 4
Integration Time (sec): 2.000000E-2
Scans to average: 1
Electric dark correction enabled: true
Nonlinearity correction enabled: false
Boxcar width: 0
XAxis mode: Wavelengths
Number of Pixels in Spectrum: 3648
>>>>>Begin Spectral Data<<<<<
178.204	-30.04
178.424	-30.04
178.644	-30.04
178.864	-93.52
179.084	-126.29
179.304	29.35
179.524	-66.9
179.744	51.88
179.964	19.11
180.184	-50.52
180.404	-17.75
180.624	-13.65
180.844	2.73
181.064	-21.85
181.283	37.55
181.503	23.21
181.723	6.83
181.943	-7.51
182.163	15.02
182.383	6.83
182.602	12.97
182.822	41.64
183.042	-13.65
183.262	-9.56
183.482	-56.66
183.701	37.55
183.921	101.03
184.141	-3.41
184.361	-7.51
184.58	-3.41
184.8	96.94
185.02	2.73
185.239	101.03
185.459	-66.9
185.679	-11.61
185.898	0.68
186.118	8.87
186.338	8.87
186.557	51.88
186.777	-9.56
186.997	-21.85
187.216	74.41
187.436	25.26
187.655	21.16
187.875	23.21
188.095	80.55
188.314	51.88
188.534	66.22
188.753	6.83
188.973	76.46
189.192	27.31
189.412	68.27
189.631	4.78
189.851	68.27
190.07	82.6
190.29	109.22
190.509	-3.41
190.729	66.22
190.948	25.26
191.168	96.94
191.387	51.88
191.607	17.07
191.826	43.69
192.045	29.35
192.265	51.88
192.484	33.45
192.704	37.55
192.923	-27.99
193.142	141.99
193.362	-9.56
193.581	109.22
193.8	115.37
194.02	66.22
194.239	31.4
194.458	53.93
194.678	39.59
194.897	33.45
195.116	19.11
195.335	60.07
195.555	4.78
195.774	8.87
195.993	55.98
196.212	94.89
196.432	-21.85
196.651	62.12
196.87	-23.89
197.089	-11.61
197.308	10.92
197.528	37.55
197.747	47.79
197.966	27.31
198.185	-5.46
198.404	76.46
198.623	78.51
198.842	8.87
199.062	66.22
199.281	70.31
199.5	-40.28
199.719	8.87
199.938	107.18
200.157	60.07
200.376	58.03
200.595	58.03
200.814	23.21
201.033	-19.8
201.252	39.59
201.471	41.64
201.69	2.73
201.909	12.97
202.128	25.26
202.347	19.11
202.566	-52.56
202.785	17.07
203.004	43.69
203.223	43.69
203.442	35.5
203.661	60.07
203.879	92.84
204.098	-21.85
204.317	10.92
204.536	115.37
204.755	-13.65
204.974	92.84
205.193	23.21
205.411	131.75
205.63	60.07
205.849	41.64
206.068	64.17
206.287	39.59
206.505	10.92
206.724	-58.71
206.943	-5.46
207.162	10.92
207.381	-1.37
207.599	-9.56
207.818	27.31
208.037	101.03
208.255	-9.56
208.474	47.79
208.693	31.4
208.911	-19.8
209.13	47.79
209.349	45.74
209.567	-17.75
209.786	72.36
210.005	49.83
210.223	82.6
210.442	-3.41
210.661	-7.51
210.879	101.03
211.098	66.22
211.316	27.31
211.535	19.11
211.753	-7.51
211.972	-3.41
212.191	-5.46
212.409	-27.99
212.628	19.11
212.846	49.83
213.065	115.37
213.283	23.21
213.502	90.79
213.72	53.93
213.938	55.98
214.157	10.92
214.375	4.78
214.594	-9.56
214.812	49.83
215.031	39.59
215.249	33.45
215.467	19.11
215.686	68.27
215.904	60.07
216.122	-3.41
216.341	35.5
216.559	35.5
216.778	0.68
216.996	88.75
217.214	80.55
217.432	62.12
217.651	-36.18
217.869	21.16
218.087	27.31
218.306	51.88
218.524	66.22
218.742	68.27
218.96	10.92
219.179	55.98
219.397	70.31
219.615	76.46
219.833	47.79
220.051	15.02
220.27	90.79
220.488	35.5
220.706	94.89
220.924	2.73
221.142	64.17
221.36	25.26
221.578	25.26
221.796	27.31
222.015	25.26
222.233	-9.56
222.451	6.83
222.669	-13.65
222.887	58.03
223.105	27.31
223.323	4.78
223.541	-25.94
223.759	12.97
223.977	-5.46
224.195	-1.37
224.413	86.7
224.631	12.97
224.849	6.83
225.067	80.55
225.285	62.12
225.503	6.83
225.721	-48.47
225.939	37.55
226.157	39.59
226.375	111.27
226.592	-25.94
226.81	6.83
227.028	96.94
227.246	39.59
227.464	12.97
227.682	8.87
227.9	33.45
228.117	-21.85
228.335	10.92
228.553	21.16
228.771	90.79
228.989	8.87
229.206	51.88
229.424	68.27
229.642	51.88
229.86	37.55
230.077	23.21
230.295	15.02
230.513	111.27
230.731	58.03
230.948	94.89
231.166	51.88
231.384	17.07
231.601	103.08
231.819	-17.75
232.037	-46.42
232.254	55.98
232.472	49.83
232.689	39.59
232.907	41.64
233.125	-11.61
233.342	0.68
233.56	51.88
233.777	98.99
233.995	33.45
234.213	33.45
234.43	-1.37
234.648	80.55
234.865	4.78
235.083	0.68
235.3	66.22
235.518	64.17
235.735	68.27
235.953	70.31
236.17	4.78
236.388	84.65
236.605	84.65
236.822	-17.75
237.04	15.02
237.257	-17.75
237.475	70.31
237.692	86.7
237.909	-7.51
238.127	39.59
238.344	21.16
238.562	39.59
238.779	15.02
238.996	25.26
239.214	17.07
239.431	2.73
239.648	51.88
239.865	51.88
240.083	123.56
240.3	72.36
240.517	41.64
240.735	12.97
240.952	115.37
241.169	80.55
241.386	2.73
241.603	-13.65
241.821	111.27
242.038	29.35
242.255	51.88
242.472	27.31
242.689	53.93
242.907	64.17
243.124	8.87
243.341	15.02
243.558	37.55
243.775	-9.56
243.992	66.22
244.209	23.21
244.426	51.88
244.643	39.59
244.86	15.02
245.078	39.59
245.295	66.22
245.512	90.79
245.729	6.83
245.946	78.51
246.163	-30.04
246.38	17.07
246.597	-5.46
246.814	39.59
247.031	31.4
247.248	47.79
247.464	35.5
247.681	-9.56
247.898	21.16
248.115	94.89
248.332	-11.61
248.549	43.69
248.766	86.7
248.983	51.88
249.2	41.64
249.417	10.92
249.633	2.73
249.85	127.66
250.067	84.65
250.284	21.16
250.501	15.02
250.717	72.36
250.934	-17.75
251.151	-5.46
251.368	-7.51
251.585	68.27
251.801	-34.13
252.018	2.73
252.235	45.74
252.451	33.45
252.668	15.02
252.885	33.45
253.102	62.12
253.318	12.97
253.535	37.55
253.752	23.21
253.968	0.68
254.185	-3.41
254.401	-21.85
254.618	31.4
254.835	-11.61
255.051	53.93
255.268	39.59
255.484	31.4
255.701	0.68
255.917	29.35
256.134	76.46
256.351	31.4
256.567	55.98
256.784	111.27
257	10.92
257.217	25.26
257.433	-3.41
257.65	43.69
257.866	31.4
258.082	78.51
258.299	49.83
258.515	53.93
258.732	37.55
258.948	2.73
259.165	17.07
259.381	15.02
259.597	55.98
259.814	55.98
260.03	15.02
260.246	12.97
260.463	49.83
260.679	37.55
260.895	60.07
261.112	117.42
261.328	-46.42
261.544	4.78
261.761	62.12
261.977	72.36
262.193	37.55
262.409	-13.65
262.626	51.88
262.842	43.69
263.058	-3.41
263.274	80.55
263.49	-64.85
263.707	82.6
263.923	-1.37
264.139	29.35
264.355	6.83
264.571	105.13
264.787	31.4
265.004	115.37
265.22	60.07
265.436	-30.04
265.652	-7.51
265.868	2.73
266.084	-7.51
266.3	66.22
266.516	4.78
266.732	41.64
266.948	-48.47
267.164	-25.94
267.38	10.92
267.596	-1.37
267.812	82.6
268.028	31.4
268.244	51.88
268.46	-58.71
268.676	78.51
268.892	53.93
269.108	27.31
269.324	2.73
269.54	31.4
269.756	23.21
269.972	55.98
270.188	115.37
270.403	12.97
270.619	127.66
270.835	43.69
271.051	-48.47
271.267	47.79
271.483	45.74
271.698	0.68
271.914	98.99
272.13	39.59
272.346	84.65
272.562	74.41
272.777	15.02
272.993	10.92
273.209	37.55
273.425	45.74
273.64	60.07
273.856	29.35
274.072	47.79
274.287	-46.42
274.503	101.03
274.719	-36.18
274.934	39.59
275.15	29.35
275.366	35.5
275.581	-1.37
275.797	15.02
276.012	58.03
276.228	-40.28
276.444	15.02
276.659	98.99
276.875	-11.61
277.09	21.16
277.306	35.5
277.521	35.5
277.737	12.97
277.952	37.55
278.168	0.68
278.383	90.79
278.599	12.97
278.814	29.35
279.03	51.88
279.245	68.27
279.461	17.07
279.676	113.32
279.892	60.07
280.107	37.55
280.322	74.41
280.538	115.37
280.753	72.36
280.969	31.4
281.184	35.5
281.399	82.6
281.615	76.46
281.83	70.31
282.045	74.41
282.26	-13.65
282.476	23.21
282.691	25.26
282.906	2.73
283.122	12.97
283.337	27.31
283.552	84.65
283.767	37.55
283.983	37.55
284.198	111.27
284.413	-54.61
284.628	60.07
284.843	70.31
285.058	41.64
285.274	-9.56
285.489	29.35
285.704	-19.8
285.919	78.51
286.134	86.7
286.349	-21.85
286.564	31.4
286.779	92.84
286.995	33.45
287.21	17.07
287.425	76.46
287.64	-11.61
287.855	35.5
288.07	39.59
288.285	41.64
288.5	27.31
288.715	43.69
288.93	31.4
289.145	33.45
289.36	72.36
289.575	107.18
289.79	39.59
290.004	17.07
290.219	109.22
290.434	39.59
290.649	21.16
290.864	8.87
291.079	2.73
291.294	25.26
291.509	39.59
291.724	39.59
291.938	-11.61
292.153	37.55
292.368	-48.47
292.583	10.92
292.798	15.02
293.012	41.64
293.227	72.36
293.442	12.97
293.657	45.74
293.871	35.5
294.086	27.31
294.301	115.37
294.516	90.79
294.73	-7.51
294.945	74.41
295.16	12.97
295.374	82.6
295.589	88.75
295.804	2.73
296.018	74.41
296.233	103.08
296.447	125.61
296.662	60.07
296.877	96.94
297.091	84.65
297.306	94.89
297.52	70.31
297.735	86.7
297.949	-48.47
298.164	27.31
298.378	27.31
298.593	47.79
298.807	33.45
299.022	62.12
299.236	41.64
299.451	27.31
299.665	0.68
299.88	21.16
300.094	35.5
300.309	68.27
300.523	-5.46
300.737	15.02
300.952	41.64
301.166	21.16
301.381	49.83
301.595	49.83
301.809	19.11
302.024	21.16
302.238	6.83
302.452	37.55
302.667	119.46
302.881	53.93
303.095	70.31
303.309	55.98
303.524	64.17
303.738	86.7
303.952	68.27
304.166	74.41
304.381	4.78
304.595	80.55
304.809	43.69
305.023	39.59
305.237	2.73
305.452	15.02
305.666	27.31
305.88	-42.32
306.094	-23.89
306.308	82.6
306.522	96.94
306.736	58.03
306.95	80.55
307.164	84.65
307.379	2.73
307.593	51.88
307.807	43.69
308.021	17.07
308.235	-1.37
308.449	62.12
308.663	23.21
308.877	68.27
309.091	41.64
309.305	37.55
309.519	78.51
309.733	66.22
309.947	53.93
310.161	-46.42
310.374	33.45
310.588	23.21
310.802	12.97
311.016	35.5
311.23	12.97
311.444	45.74
311.658	86.7
311.872	78.51
312.085	-1.37
312.299	35.5
312.513	66.22
312.727	72.36
312.941	55.98
313.154	37.55
313.368	82.6
313.582	70.31
313.796	27.31
314.009	80.55
314.223	35.5
314.437	82.6
314.651	76.46
314.864	49.83
315.078	125.61
315.292	23.21
315.505	-19.8
315.719	-21.85
315.933	53.93
316.146	19.11
316.36	8.87
316.573	119.46
316.787	-3.41
317.001	60.07
317.214	21.16
317.428	19.11
317.641	27.31
317.855	55.98
318.068	15.02
318.282	41.64
318.495	84.65
318.709	144.04
318.922	-27.99
319.136	92.84
319.349	80.55
319.563	101.03
319.776	15.02
319.99	113.32
320.203	29.35
320.417	-7.51
320.63	58.03
320.843	-25.94
321.057	29.35
321.27	55.98
321.483	117.42
321.697	58.03
321.91	39.59
322.124	105.13
322.337	47.79
322.55	-15.7
322.763	88.75
322.977	94.89
323.19	43.69
323.403	2.73
323.617	33.45
323.83	84.65
324.043	-32.08
324.256	107.18
324.469	23.21
324.683	107.18
324.896	19.11
325.109	41.64
325.322	29.35
325.535	88.75
325.748	51.88
325.962	-3.41
326.175	168.62
326.388	4.78
326.601	72.36
326.814	49.83
327.027	8.87
327.24	119.46
327.453	-3.41
327.666	105.13
327.879	-56.66
328.092	58.03
328.305	43.69
328.518	-1.37
328.731	51.88
328.944	55.98
329.157	21.16
329.37	60.07
329.583	74.41
329.796	78.51
330.009	35.5
330.222	0.68
330.435	115.37
330.648	49.83
330.861	78.51
331.073	15.02
331.286	152.23
331.499	43.69
331.712	88.75
331.925	60.07
332.138	4.78
332.35	139.94
332.563	-25.94
332.776	37.55
332.989	76.46
333.202	41.64
333.414	-27.99
333.627	84.65
333.84	-23.89
334.053	88.75
334.265	72.36
334.478	105.13
334.691	80.55
334.903	10.92
335.116	47.79
335.329	96.94
335.541	76.46
335.754	80.55
335.966	49.83
336.179	64.17
336.392	60.07
336.604	43.69
336.817	72.36
337.029	115.37
337.242	37.55
337.454	72.36
337.667	-27.99
337.88	164.52
338.092	76.46
338.305	15.02
338.517	19.11
338.729	94.89
338.942	-13.65
339.154	0.68
339.367	-9.56
339.579	17.07
339.792	105.13
340.004	47.79
340.217	-7.51
340.429	35.5
340.641	80.55
340.854	49.83
341.066	19.11
341.278	109.22
341.491	86.7
341.703	107.18
341.915	2.73
342.128	76.46
342.34	43.69
342.552	53.93
342.764	103.08
342.977	25.26
343.189	66.22
343.401	45.74
343.613	68.27
343.826	51.88
344.038	35.5
344.25	117.42
344.462	0.68
344.674	-42.32
344.886	72.36
345.099	60.07
345.311	10.92
345.523	55.98
345.735	-15.7
345.947	-9.56
346.159	90.79
346.371	96.94
346.583	37.55
346.795	158.38
347.007	19.11
347.219	78.51
347.431	66.22
347.643	141.99
347.855	10.92
348.067	68.27
348.279	60.07
348.491	4.78
348.703	51.88
348.915	92.84
349.127	43.69
349.339	23.21
349.551	-3.41
349.763	66.22
349.975	12.97
350.187	49.83
350.399	58.03
350.61	8.87
350.822	0.68
351.034	80.55
351.246	68.27
351.458	86.7
351.669	10.92
351.881	78.51
352.093	103.08
352.305	72.36
352.517	2.73
352.728	55.98
352.94	43.69
353.152	23.21
353.363	23.21
353.575	92.84
353.787	107.18
353.999	92.84
354.21	51.88
354.422	64.17
354.633	23.21
354.845	6.83
355.057	121.51
355.268	21.16
355.48	152.23
355.692	21.16
355.903	39.59
356.115	60.07
356.326	29.35
356.538	49.83
356.749	35.5
356.961	129.7
357.172	19.11
357.384	45.74
357.595	41.64
357.807	29.35
358.018	-11.61
358.23	58.03
358.441	33.45
358.653	109.22
358.864	27.31
359.075	58.03
359.287	98.99
359.498	90.79
359.709	45.74
359.921	29.35
360.132	33.45
360.344	23.21
360.555	137.9
360.766	68.27
360.977	47.79
361.189	70.31
361.4	53.93
361.611	137.9
361.823	53.93
362.034	10.92
362.245	10.92
362.456	12.97
362.667	31.4
362.879	111.27
363.09	51.88
363.301	119.46
363.512	78.51
363.723	29.35
363.935	60.07
364.146	86.7
364.357	8.87
364.568	58.03
364.779	45.74
364.99	115.37
365.201	41.64
365.412	66.22
365.623	4.78
365.834	78.51
366.045	25.26
366.256	64.17
366.467	21.16
366.678	41.64
366.889	-25.94
367.1	76.46
367.311	33.45
367.522	8.87
367.733	139.94
367.944	-19.8
368.155	23.21
368.366	86.7
368.577	94.89
368.788	66.22
368.999	68.27
369.209	109.22
369.42	31.4
369.631	144.04
369.842	166.57
370.053	37.55
370.264	90.79
370.474	72.36
370.685	41.64
370.896	74.41
371.107	98.99
371.317	92.84
371.528	127.66
371.739	107.18
371.95	74.41
372.16	94.89
372.371	37.55
372.582	41.64
372.792	31.4
373.003	58.03
373.214	125.61
373.424	60.07
373.635	107.18
373.846	68.27
374.056	-71
374.267	51.88
374.477	72.36
374.688	96.94
374.898	101.03
375.109	47.79
375.319	21.16
375.53	90.79
375.74	58.03
375.951	109.22
376.161	23.21
376.372	74.41
376.582	10.92
376.793	135.85
377.003	60.07
377.214	51.88
377.424	21.16
377.635	90.79
377.845	103.08
378.055	55.98
378.266	64.17
378.476	43.69
378.686	74.41
378.897	39.59
379.107	162.47
379.317	68.27
379.528	37.55
379.738	31.4
379.948	55.98
380.158	115.37
380.369	107.18
380.579	117.42
380.789	88.75
380.999	119.46
381.21	64.17
381.42	164.52
381.63	47.79
381.84	35.5
382.05	37.55
382.261	170.66
382.471	17.07
382.681	92.84
382.891	76.46
383.101	80.55
383.311	66.22
383.521	162.47
383.731	10.92
383.941	84.65
384.151	53.93
384.361	64.17
384.571	25.26
384.781	101.03
384.991	47.79
385.201	90.79
385.411	33.45
385.621	47.79
385.831	10.92
386.041	80.55
386.251	125.61
386.461	45.74
386.671	60.07
386.881	62.12
387.091	107.18
387.301	115.37
387.511	94.89
387.72	156.33
387.93	105.13
388.14	33.45
388.35	74.41
388.56	96.94
388.769	96.94
388.979	66.22
389.189	12.97
389.399	127.66
389.609	76.46
389.818	78.51
390.028	101.03
390.238	84.65
390.447	76.46
390.657	101.03
390.867	70.31
391.076	19.11
391.286	80.55
391.496	127.66
391.705	152.23
391.915	84.65
392.125	31.4
392.334	92.84
392.544	76.46
392.753	76.46
392.963	62.12
393.172	162.47
393.382	60.07
393.591	156.33
393.801	105.13
394.01	31.4
394.22	31.4
394.429	92.84
394.639	68.27
394.848	58.03
395.058	60.07
395.267	107.18
395.477	92.84
395.686	107.18
395.895	139.94
396.105	111.27
396.314	133.8
396.524	80.55
396.733	125.61
396.942	109.22
397.152	121.51
397.361	141.99
397.57	70.31
397.78	121.51
397.989	137.9
398.198	133.8
398.407	182.95
398.617	76.46
398.826	150.18
399.035	96.94
399.244	115.37
399.453	217.77
399.663	158.38
399.872	94.89
400.081	141.99
400.29	133.8
400.499	105.13
400.708	242.34
400.917	133.8
401.127	133.8
401.336	178.86
401.545	180.9
401.754	185
401.963	162.47
402.172	62.12
402.381	215.72
402.59	131.75
402.799	113.32
403.008	170.66
403.217	150.18
403.426	96.94
403.635	125.61
403.844	146.09
404.053	217.77
404.262	185
404.471	193.19
404.68	191.14
404.888	172.71
405.097	160.42
405.306	223.91
405.515	232.1
405.724	187.05
405.933	256.68
406.142	260.77
406.35	268.97
406.559	193.19
406.768	277.16
406.977	299.69
407.185	297.64
407.394	205.48
407.603	336.55
407.812	271.01
408.02	379.56
408.229	311.97
408.438	385.7
408.646	342.69
408.855	254.63
409.064	348.84
409.272	324.26
409.481	395.94
409.69	414.37
409.898	307.88
410.107	438.95
410.315	471.72
410.524	381.6
410.733	481.96
410.941	383.65
411.15	428.71
411.358	527.01
411.567	488.1
411.775	539.3
411.984	514.72
412.192	664.22
412.401	637.6
412.609	606.88
412.818	676.51
413.026	692.9
413.234	719.52
413.443	789.15
413.651	744.1
413.86	770.72
414.068	850.59
414.276	826.01
414.485	750.24
414.693	856.73
414.901	887.45
415.11	940.7
415.318	879.26
415.526	989.85
415.734	963.23
415.943	993.95
416.151	1114.78
416.359	1159.83
416.567	1157.78
416.776	1266.33
416.984	1329.81
417.192	1346.2
417.4	1264.28
417.608	1374.87
417.817	1483.41
418.025	1536.66
418.233	1524.37
418.441	1522.32
418.649	1600.15
418.857	1786.51
419.065	1817.23
419.273	1768.08
419.481	1745.55
419.689	2001.55
419.897	2093.71
420.105	2046.6
420.313	2194.06
420.521	2165.39
420.729	2196.11
420.937	2224.78
421.145	2314.89
421.353	2472.58
421.561	2476.68
421.769	2644.61
421.977	2790.02
422.185	2681.47
422.393	2873.98
422.601	3148.41
422.809	3150.46
423.017	3136.12
423.224	3273.34
423.432	3359.35
423.64	3439.22
423.848	3668.59
424.056	3658.35
424.263	3953.26
424.471	3852.91
424.679	4029.04
424.887	4143.72
425.094	4250.22
425.302	4280.94
425.51	4479.59
425.718	4528.74
425.925	4643.43
426.133	4799.07
426.341	5053.02
426.548	5319.26
426.756	5323.35
426.964	5372.5
427.171	5712.47
427.379	5790.29
427.586	6081.1
427.794	6007.37
428.001	6410.82
428.209	6781.51
428.417	6376.01
428.624	7082.56
428.832	6859.33
429.039	7221.82
429.247	7168.57
429.454	7678.52
429.662	8186.41
429.869	7615.03
430.076	8167.98
430.284	7899.7
430.491	8413.74
430.699	8704.55
430.906	8782.37
431.114	9044.51
431.321	9357.85
431.528	9531.93
431.736	10103.31
431.943	10609.16
432.15	10107.41
432.358	10320.4
432.565	10910.21
432.772	10895.88
432.979	11563.51
433.187	11735.54
433.394	12046.83
433.601	12394.99
433.808	12370.41
434.016	12354.03
434.223	12925.41
434.43	13814.23
434.637	13378.01
434.844	14399.95
435.052	14711.24
435.259	14543.31
435.466	14621.13
435.673	14318.03
435.88	15319.49
436.087	16202.16
436.294	16380.34
436.501	15876.54
436.708	16271.79
436.915	16546.22
437.122	17662.37
437.329	17574.3
437.537	17744.28
437.743	18491.79
437.95	18239.89
438.157	19208.58
438.364	19790.2
438.571	19677.57
438.778	19802.49
438.985	21934.43
439.192	20717.93
439.399	21469.54
439.606	20994.41
439.813	22198.62
440.02	23544.13
440.227	22931.79
440.433	22778.19
440.64	23638.34
440.847	23419.21
441.054	24193.34
441.261	25432.36
441.467	25141.55
441.674	25803.04
441.881	26874.13
442.088	26886.42
442.294	26351.9
442.501	27210
442.708	27910.4
442.914	28528.89
443.121	29581.54
443.328	29284.59
443.534	30886.1
443.741	30286.04
443.948	29823.2
444.154	32456.89
444.361	31862.98
444.568	32047.3
444.774	32041.15
444.981	32741.56
445.187	33558.7
445.394	34910.36
445.6	34451.61
445.807	37695.6
446.013	36124.8
446.22	37036.15
446.426	38195.3
446.633	38361.19
446.839	39911.5
447.046	37951.59
447.252	39882.83
447.459	40095.81
447.665	40017.99
447.871	41386.04
448.078	43358.23
448.284	41218.1
448.491	42594.34
448.697	44240.9
448.903	44527.62
449.11	44939.26
449.316	43802.64
449.522	44894.21
449.728	45969.39
449.935	46434.28
450.141	46247.91
450.347	47136.73
450.553	45580.28
450.76	46288.87
450.966	47755.22
451.172	47380.44
451.378	48244.68
451.584	47648.72
451.791	48392.14
451.997	48336.84
452.203	48975.81
452.409	48910.27
452.615	48488.39
452.821	47237.08
453.027	46780.38
453.233	48814.02
453.44	46745.57
453.646	47402.97
453.852	47448.02
454.058	48271.31
454.264	46448.61
454.47	47583.19
454.676	46252.01
454.882	48160.72
455.088	43853.84
455.294	44644.35
455.5	45012.99
455.705	45608.95
455.911	43626.51
456.117	42987.55
456.323	42127.4
456.529	40341.57
456.735	41713.71
456.941	40415.3
457.147	40198.21
457.352	38594.65
457.558	38377.57
457.764	38322.27
457.97	37945.45
458.176	36913.27
458.381	36687.99
458.587	34955.41
458.793	35156.11
458.999	33337.52
459.204	35596.43
459.41	34920.6
459.616	32438.46
459.821	32618.68
460.027	32366.78
460.233	31662.28
460.438	30636.25
460.644	30181.6
460.85	28975.34
461.055	28715.25
461.261	28463.35
461.466	26464.53
461.672	25800.99
461.878	27537.67
462.083	26224.92
462.289	25227.56
462.494	24629.55
462.7	23828.8
462.905	23306.57
463.111	24244.54
463.316	24400.18
463.522	23599.43
463.727	23572.8
463.932	23314.76
464.138	23527.75
464.343	23599.43
464.549	22909.26
464.754	23462.21
464.959	23357.77
465.165	23138.63
465.37	22528.34
465.575	21897.56
465.781	22657.36
465.986	22589.78
466.191	22075.74
466.397	21492.07
466.602	20513.14
466.807	21254.5
467.012	21117.29
467.218	21154.15
