Data from USB4F104151__117__11-07-24-224.txt Node

Date: Wed Mar 12 11:07:24 EDT 2025
User: louis
Spectrometer: USB4F10415
Trigger mode: 4
Integration Time (sec): 2.000000E-2
Scans to average: 1
Electric dark correction enabled: true
Nonlinearity correction enabled: false
Boxcar width: 0
XAxis mode: Wavelengths
Number of Pixels in Spectrum: 3648
>>>>>Begin Spectral Data<<<<<
178.204	-99.16
178.424	-99.16
178.644	-99.16
178.864	-58.2
179.084	-35.67
179.304	-23.38
179.524	-7
179.744	13.48
179.964	50.35
180.184	-82.77
180.404	29.87
180.624	52.39
180.844	-33.62
181.064	64.68
181.283	-90.96
181.503	23.72
181.723	3.24
181.943	3.24
182.163	42.15
182.383	76.97
182.602	-19.29
182.822	27.82
183.042	31.91
183.262	23.72
183.482	31.91
183.701	-27.48
183.921	-21.33
184.141	52.39
184.361	36.01
184.58	27.82
184.8	-50
185.02	11.43
185.239	13.48
185.459	7.34
185.679	42.15
185.898	-47.96
186.118	33.96
186.338	52.39
186.557	81.07
186.777	42.15
186.997	42.15
187.216	5.29
187.436	54.44
187.655	54.44
187.875	76.97
188.095	-39.76
188.314	33.96
188.534	93.35
188.753	-7
188.973	54.44
189.192	79.02
189.412	95.4
189.631	42.15
189.851	70.83
190.07	29.87
190.29	95.4
190.509	23.72
190.729	52.39
190.948	66.73
191.168	179.37
191.387	56.49
191.607	70.83
191.826	15.53
192.045	9.39
192.265	-15.19
192.484	42.15
192.704	36.01
192.923	68.78
193.142	46.25
193.362	-15.19
193.581	70.83
193.8	-17.24
194.02	66.73
194.239	27.82
194.458	64.68
194.678	11.43
194.897	52.39
195.116	42.15
195.335	17.58
195.555	-31.57
195.774	95.4
195.993	46.25
196.212	85.16
196.432	29.87
196.651	50.35
196.87	60.59
197.089	142.5
197.308	101.55
197.528	31.91
197.747	-4.95
197.966	-0.85
198.185	111.78
198.404	42.15
198.623	105.64
198.842	29.87
199.062	48.3
199.281	64.68
199.5	58.54
199.719	-13.14
199.938	-0.85
200.157	38.06
200.376	103.59
200.595	81.07
200.814	19.63
201.033	70.83
201.252	-31.57
201.471	33.96
201.69	56.49
201.909	38.06
202.128	58.54
202.347	40.11
202.566	-15.19
202.785	19.63
203.004	42.15
203.223	17.58
203.442	89.26
203.661	-27.48
203.879	1.19
204.098	74.92
204.317	5.29
204.536	60.59
204.755	52.39
204.974	85.16
205.193	93.35
205.411	122.02
205.63	9.39
205.849	13.48
206.068	15.53
206.287	56.49
206.505	62.63
206.724	44.2
206.943	3.24
207.162	3.24
207.381	11.43
207.599	25.77
207.818	40.11
208.037	31.91
208.255	42.15
208.474	68.78
208.693	70.83
208.911	44.2
209.13	27.82
209.349	25.77
209.567	5.29
209.786	91.31
210.005	87.21
210.223	138.41
210.442	1.19
210.661	-25.43
210.879	42.15
211.098	72.87
211.316	5.29
211.535	-21.33
211.753	13.48
211.972	83.11
212.191	68.78
212.409	56.49
212.628	56.49
212.846	-43.86
213.065	56.49
213.283	93.35
213.502	23.72
213.72	17.58
213.938	70.83
214.157	33.96
214.375	9.39
214.594	46.25
214.812	87.21
215.031	42.15
215.249	11.43
215.467	40.11
215.686	-9.05
215.904	103.59
216.122	33.96
216.341	111.78
216.559	29.87
216.778	42.15
216.996	33.96
217.214	60.59
217.432	56.49
217.651	-11.09
217.869	66.73
218.087	5.29
218.306	126.12
218.524	46.25
218.742	62.63
218.96	70.83
219.179	70.83
219.397	91.31
219.615	44.2
219.833	-9.05
220.051	19.63
220.27	76.97
220.488	42.15
220.706	-7
220.924	-35.67
221.142	17.58
221.36	-21.33
221.578	74.92
221.796	33.96
222.015	27.82
222.233	85.16
222.451	42.15
222.669	-4.95
222.887	87.21
223.105	38.06
223.323	117.93
223.541	5.29
223.759	36.01
223.977	42.15
224.195	97.45
224.413	64.68
224.631	40.11
224.849	23.72
225.067	52.39
225.285	21.67
225.503	105.64
225.721	-9.05
225.939	91.31
226.157	42.15
226.375	36.01
226.592	48.3
226.81	44.2
227.028	115.88
227.246	70.83
227.464	-17.24
227.682	136.36
227.9	70.83
228.117	52.39
228.335	54.44
228.553	5.29
228.771	-23.38
228.989	46.25
229.206	113.83
229.424	-29.52
229.642	48.3
229.86	52.39
230.077	103.59
230.295	93.35
230.513	27.82
230.731	76.97
230.948	167.08
231.166	54.44
231.384	38.06
231.601	27.82
231.819	31.91
232.037	-19.29
232.254	50.35
232.472	-19.29
232.689	-2.9
232.907	42.15
233.125	25.77
233.342	83.11
233.56	111.78
233.777	38.06
233.995	95.4
234.213	-47.96
234.43	-0.85
234.648	79.02
234.865	38.06
235.083	109.74
235.3	52.39
235.518	101.55
235.735	83.11
235.953	36.01
236.17	15.53
236.388	-50
236.605	42.15
236.822	68.78
237.04	93.35
237.257	68.78
237.475	25.77
237.692	68.78
237.909	1.19
238.127	42.15
238.344	21.67
238.562	58.54
238.779	68.78
238.996	89.26
239.214	54.44
239.431	25.77
239.648	79.02
239.865	89.26
240.083	68.78
240.3	11.43
240.517	103.59
240.735	21.67
240.952	21.67
241.169	-15.19
241.386	99.5
241.603	79.02
241.821	48.3
242.038	54.44
242.255	46.25
242.472	9.39
242.689	21.67
242.907	136.36
243.124	7.34
243.341	87.21
243.558	5.29
243.775	5.29
243.992	42.15
244.209	60.59
244.426	87.21
244.643	119.98
244.86	-4.95
245.078	58.54
245.295	79.02
245.512	54.44
245.729	38.06
245.946	52.39
246.163	17.58
246.38	81.07
246.597	36.01
246.814	29.87
247.031	64.68
247.248	-13.14
247.464	21.67
247.681	54.44
247.898	83.11
248.115	91.31
248.332	40.11
248.549	31.91
248.766	83.11
248.983	56.49
249.2	25.77
249.417	-17.24
249.633	29.87
249.85	-7
250.067	79.02
250.284	40.11
250.501	31.91
250.717	109.74
250.934	89.26
251.151	93.35
251.368	25.77
251.585	144.55
251.801	95.4
252.018	33.96
252.235	23.72
252.451	107.69
252.668	33.96
252.885	15.53
253.102	89.26
253.318	83.11
253.535	89.26
253.752	25.77
253.968	46.25
254.185	-41.81
254.401	42.15
254.618	87.21
254.835	-9.05
255.051	97.45
255.268	44.2
255.484	95.4
255.701	70.83
255.917	21.67
256.134	15.53
256.351	48.3
256.567	31.91
256.784	19.63
257	115.88
257.217	132.26
257.433	95.4
257.65	56.49
257.866	7.34
258.082	11.43
258.299	38.06
258.515	83.11
258.732	60.59
258.948	29.87
259.165	144.55
259.381	29.87
259.597	83.11
259.814	38.06
260.03	54.44
260.246	-0.85
260.463	25.77
260.679	13.48
260.895	1.19
261.112	44.2
261.328	97.45
261.544	5.29
261.761	74.92
261.977	44.2
262.193	44.2
262.409	62.63
262.626	38.06
262.842	64.68
263.058	68.78
263.274	128.17
263.49	50.35
263.707	134.31
263.923	54.44
264.139	-13.14
264.355	13.48
264.571	23.72
264.787	38.06
265.004	62.63
265.22	85.16
265.436	-31.57
265.652	-45.91
265.868	17.58
266.084	25.77
266.3	70.83
266.516	107.69
266.732	48.3
266.948	31.91
267.164	97.45
267.38	48.3
267.596	91.31
267.812	128.17
268.028	79.02
268.244	58.54
268.46	13.48
268.676	17.58
268.892	99.5
269.108	66.73
269.324	7.34
269.54	1.19
269.756	50.35
269.972	27.82
270.188	15.53
270.403	-15.19
270.619	97.45
270.835	58.54
271.051	25.77
271.267	-15.19
271.483	68.78
271.698	44.2
271.914	48.3
272.13	17.58
272.346	95.4
272.562	81.07
272.777	105.64
272.993	74.92
273.209	-17.24
273.425	87.21
273.64	89.26
273.856	-23.38
274.072	156.84
274.287	-35.67
274.503	13.48
274.719	3.24
274.934	31.91
275.15	85.16
275.366	3.24
275.581	38.06
275.797	91.31
276.012	169.13
276.228	21.67
276.444	-31.57
276.659	111.78
276.875	66.73
277.09	21.67
277.306	-19.29
277.521	-7
277.737	50.35
277.952	122.02
278.168	25.77
278.383	56.49
278.599	105.64
278.814	50.35
279.03	-9.05
279.245	27.82
279.461	74.92
279.676	79.02
279.892	3.24
280.107	103.59
280.322	33.96
280.538	15.53
280.753	27.82
280.969	-2.9
281.184	72.87
281.399	29.87
281.615	54.44
281.83	60.59
282.045	27.82
282.26	52.39
282.476	-4.95
282.691	113.83
282.906	48.3
283.122	40.11
283.337	38.06
283.552	126.12
283.767	-21.33
283.983	99.5
284.198	101.55
284.413	64.68
284.628	11.43
284.843	79.02
285.058	48.3
285.274	74.92
285.489	36.01
285.704	99.5
285.919	74.92
286.134	156.84
286.349	5.29
286.564	93.35
286.779	7.34
286.995	25.77
287.21	33.96
287.425	58.54
287.64	91.31
287.855	38.06
288.07	85.16
288.285	23.72
288.5	74.92
288.715	74.92
288.93	58.54
289.145	95.4
289.36	85.16
289.575	44.2
289.79	11.43
290.004	72.87
290.219	93.35
290.434	56.49
290.649	52.39
290.864	19.63
291.079	64.68
291.294	44.2
291.509	85.16
291.724	62.63
291.938	54.44
292.153	91.31
292.368	56.49
292.583	76.97
292.798	42.15
293.012	99.5
293.227	52.39
293.442	5.29
293.657	95.4
293.871	40.11
294.086	15.53
294.301	95.4
294.516	109.74
294.73	74.92
294.945	-7
295.16	70.83
295.374	79.02
295.589	19.63
295.804	83.11
296.018	122.02
296.233	60.59
296.447	76.97
296.662	23.72
296.877	105.64
297.091	27.82
297.306	68.78
297.52	50.35
297.735	54.44
297.949	109.74
298.164	79.02
298.378	50.35
298.593	-2.9
298.807	38.06
299.022	29.87
299.236	46.25
299.451	-23.38
299.665	91.31
299.88	72.87
300.094	66.73
300.309	36.01
300.523	42.15
300.737	42.15
300.952	54.44
301.166	66.73
301.381	7.34
301.595	79.02
301.809	68.78
302.024	44.2
302.238	-60.24
302.452	91.31
302.667	101.55
302.881	50.35
303.095	60.59
303.309	119.98
303.524	58.54
303.738	111.78
303.952	29.87
304.166	93.35
304.381	-7
304.595	52.39
304.809	9.39
305.023	64.68
305.237	64.68
305.452	58.54
305.666	42.15
305.88	91.31
306.094	126.12
306.308	107.69
306.522	99.5
306.736	68.78
306.95	58.54
307.164	42.15
307.379	42.15
307.593	126.12
307.807	31.91
308.021	70.83
308.235	25.77
308.449	25.77
308.663	50.35
308.877	115.88
309.091	54.44
309.305	44.2
309.519	54.44
309.733	79.02
309.947	-2.9
310.161	58.54
310.374	42.15
310.588	95.4
310.802	33.96
311.016	95.4
311.23	-2.9
311.444	66.73
311.658	9.39
311.872	50.35
312.085	60.59
312.299	23.72
312.513	91.31
312.727	109.74
312.941	85.16
313.154	58.54
313.368	-0.85
313.582	36.01
313.796	54.44
314.009	25.77
314.223	17.58
314.437	56.49
314.651	91.31
314.864	93.35
315.078	62.63
315.292	50.35
315.505	66.73
315.719	74.92
315.933	54.44
316.146	83.11
316.36	62.63
316.573	50.35
316.787	27.82
317.001	103.59
317.214	95.4
317.428	25.77
317.641	38.06
317.855	42.15
318.068	74.92
318.282	101.55
318.495	154.79
318.709	91.31
318.922	68.78
319.136	17.58
319.349	7.34
319.563	25.77
319.776	85.16
319.99	70.83
320.203	31.91
320.417	9.39
320.63	103.59
320.843	3.24
321.057	56.49
321.27	97.45
321.483	42.15
321.697	107.69
321.91	60.59
322.124	62.63
322.337	62.63
322.55	105.64
322.763	83.11
322.977	95.4
323.19	42.15
323.403	60.59
323.617	109.74
323.83	72.87
324.043	11.43
324.256	132.26
324.469	21.67
324.683	83.11
324.896	38.06
325.109	38.06
325.322	44.2
325.535	46.25
325.748	83.11
325.962	31.91
326.175	33.96
326.388	54.44
326.601	89.26
326.814	27.82
327.027	9.39
327.24	140.46
327.453	-2.9
327.666	76.97
327.879	124.07
328.092	91.31
328.305	119.98
328.518	36.01
328.731	29.87
328.944	15.53
329.157	66.73
329.37	74.92
329.583	117.93
329.796	74.92
330.009	58.54
330.222	103.59
330.435	44.2
330.648	48.3
330.861	19.63
331.073	54.44
331.286	93.35
331.499	48.3
331.712	54.44
331.925	132.26
332.138	105.64
332.35	62.63
332.563	83.11
332.776	46.25
332.989	132.26
333.202	48.3
333.414	46.25
333.627	91.31
333.84	19.63
334.053	72.87
334.265	40.11
334.478	91.31
334.691	132.26
334.903	17.58
335.116	70.83
335.329	99.5
335.541	111.78
335.754	11.43
335.966	15.53
336.179	68.78
336.392	119.98
336.604	130.22
336.817	29.87
337.029	101.55
337.242	76.97
337.454	93.35
337.667	124.07
337.88	91.31
338.092	152.74
338.305	97.45
338.517	9.39
338.729	66.73
338.942	56.49
339.154	52.39
339.367	17.58
339.579	89.26
339.792	79.02
340.004	165.03
340.217	52.39
340.429	54.44
340.641	21.67
340.854	17.58
341.066	29.87
341.278	62.63
341.491	29.87
341.703	83.11
341.915	76.97
342.128	95.4
342.34	117.93
342.552	-7
342.764	62.63
342.977	15.53
343.189	91.31
343.401	58.54
343.613	-7
343.826	107.69
344.038	48.3
344.25	83.11
344.462	101.55
344.674	128.17
344.886	-52.05
345.099	152.74
345.311	58.54
345.523	101.55
345.735	66.73
345.947	91.31
346.159	128.17
346.371	44.2
346.583	60.59
346.795	146.6
347.007	27.82
347.219	48.3
347.431	68.78
347.643	40.11
347.855	58.54
348.067	70.83
348.279	62.63
348.491	3.24
348.703	91.31
348.915	169.13
349.127	29.87
349.339	115.88
349.551	17.58
349.763	64.68
349.975	33.96
350.187	15.53
350.399	156.84
350.61	91.31
350.822	81.07
351.034	126.12
351.246	36.01
351.458	103.59
351.669	36.01
351.881	150.7
352.093	103.59
352.305	113.83
352.517	103.59
352.728	85.16
352.94	148.65
353.152	85.16
353.363	-35.67
353.575	13.48
353.787	105.64
353.999	42.15
354.21	52.39
354.422	87.21
354.633	111.78
354.845	103.59
355.057	25.77
355.268	25.77
355.48	74.92
355.692	-13.14
355.903	109.74
356.115	91.31
356.326	33.96
356.538	50.35
356.749	89.26
356.961	50.35
357.172	19.63
357.384	52.39
357.595	79.02
357.807	62.63
358.018	3.24
358.23	95.4
358.441	115.88
358.653	83.11
358.864	87.21
359.075	74.92
359.287	119.98
359.498	79.02
359.709	158.89
359.921	95.4
360.132	117.93
360.344	93.35
360.555	87.21
360.766	107.69
360.977	76.97
361.189	36.01
361.4	81.07
361.611	93.35
361.823	64.68
362.034	62.63
362.245	48.3
362.456	36.01
362.667	56.49
362.879	17.58
363.09	99.5
363.301	162.98
363.512	101.55
363.723	17.58
363.935	60.59
364.146	91.31
364.357	87.21
364.568	58.54
364.779	54.44
364.99	42.15
365.201	107.69
365.412	138.41
365.623	50.35
365.834	115.88
366.045	60.59
366.256	79.02
366.467	74.92
366.678	87.21
366.889	93.35
367.1	95.4
367.311	101.55
367.522	72.87
367.733	119.98
367.944	154.79
368.155	117.93
368.366	173.22
368.577	85.16
368.788	31.91
368.999	89.26
369.209	95.4
369.42	72.87
369.631	113.83
369.842	81.07
370.053	64.68
370.264	52.39
370.474	-15.19
370.685	144.55
370.896	99.5
371.107	111.78
371.317	105.64
371.528	89.26
371.739	1.19
371.95	74.92
372.16	11.43
372.371	132.26
372.582	74.92
372.792	89.26
373.003	99.5
373.214	83.11
373.424	105.64
373.635	33.96
373.846	128.17
374.056	79.02
374.267	150.7
374.477	128.17
374.688	101.55
374.898	119.98
375.109	83.11
375.319	107.69
375.53	144.55
375.74	144.55
375.951	17.58
376.161	119.98
376.372	27.82
376.582	93.35
376.793	119.98
377.003	113.83
377.214	1.19
377.424	107.69
377.635	107.69
377.845	122.02
378.055	46.25
378.266	76.97
378.476	15.53
378.686	48.3
378.897	50.35
379.107	101.55
379.317	38.06
379.528	56.49
379.738	124.07
379.948	138.41
380.158	124.07
380.369	111.78
380.579	99.5
380.789	76.97
380.999	81.07
381.21	105.64
381.42	140.46
381.63	99.5
381.84	171.18
382.05	91.31
382.261	117.93
382.471	62.63
382.681	17.58
382.891	124.07
383.101	48.3
383.311	93.35
383.521	144.55
383.731	154.79
383.941	162.98
384.151	103.59
384.361	64.68
384.571	97.45
384.781	33.96
384.991	76.97
385.201	76.97
385.411	-13.14
385.621	103.59
385.831	81.07
386.041	79.02
386.251	44.2
386.461	117.93
386.671	111.78
386.881	138.41
387.091	87.21
387.301	111.78
387.511	107.69
387.72	76.97
387.93	74.92
388.14	150.7
388.35	42.15
388.56	113.83
388.769	87.21
388.979	36.01
389.189	54.44
389.399	87.21
389.609	136.36
389.818	244.9
390.028	175.27
390.238	107.69
390.447	111.78
390.657	134.31
390.867	15.53
391.076	54.44
391.286	126.12
391.496	74.92
391.705	91.31
391.915	48.3
392.125	203.94
392.334	74.92
392.544	128.17
392.753	85.16
392.963	160.94
393.172	97.45
393.382	91.31
393.591	109.74
393.801	111.78
394.01	134.31
394.22	99.5
394.429	128.17
394.639	23.72
394.848	122.02
395.058	183.46
395.267	95.4
395.477	68.78
395.686	115.88
395.895	195.75
396.105	142.5
396.314	140.46
396.524	156.84
396.733	156.84
396.942	107.69
397.152	152.74
397.361	99.5
397.57	97.45
397.78	173.22
397.989	136.36
398.198	195.75
398.407	128.17
398.617	11.43
398.826	146.6
399.035	150.7
399.244	162.98
399.453	152.74
399.663	124.07
399.872	185.51
400.081	136.36
400.29	208.04
400.499	138.41
400.708	171.18
400.917	144.55
401.127	126.12
401.336	165.03
401.545	187.56
401.754	201.9
401.963	292.01
402.172	208.04
402.381	195.75
402.59	218.28
402.799	236.71
403.008	177.32
403.217	183.46
403.426	138.41
403.635	187.56
403.844	95.4
404.053	195.75
404.262	249
404.471	318.63
404.68	175.27
404.888	242.85
405.097	185.51
405.306	226.47
405.515	257.19
405.724	275.62
405.933	257.19
406.142	314.53
406.35	273.57
406.559	306.34
406.768	283.81
406.977	304.29
407.185	294.05
407.394	308.39
407.603	326.82
407.812	359.59
408.02	378.02
408.229	289.96
408.438	302.25
408.646	353.45
408.855	406.69
409.064	455.84
409.272	359.59
409.481	470.18
409.69	455.84
409.898	382.12
410.107	437.41
410.315	441.51
410.524	554.15
410.733	539.81
410.941	545.95
411.15	521.38
411.358	543.91
411.567	593.06
411.775	597.15
411.984	525.47
412.192	580.77
412.401	648.35
412.609	771.23
412.818	722.08
413.026	726.18
413.234	820.38
413.443	797.85
413.651	824.48
413.86	879.77
414.068	869.53
414.276	971.93
414.485	1029.27
414.693	978.08
414.901	1100.95
415.11	1078.43
415.318	1070.23
415.526	992.41
415.734	1105.05
415.943	1219.74
416.151	1205.4
416.359	1199.26
416.567	1244.31
416.776	1338.52
416.984	1440.92
417.192	1549.46
417.4	1492.12
417.608	1565.84
417.817	1653.91
418.025	1631.38
418.233	1799.31
418.441	1696.91
418.649	1791.12
418.857	1750.16
419.065	1963.15
419.273	1975.44
419.481	1924.24
419.689	2163.85
419.897	2208.9
420.105	2266.25
420.313	2292.87
420.521	2331.78
420.729	2358.41
420.937	2497.67
421.145	2598.02
421.353	2790.53
421.561	2745.47
421.769	2913.41
421.977	3198.07
422.185	3069.05
422.393	3316.86
422.601	3454.07
422.809	3458.17
423.017	3425.4
423.224	3462.26
423.432	3712.11
423.64	3794.03
423.848	4068.46
424.056	4029.55
424.263	4177
424.471	4371.56
424.679	4484.2
424.887	4484.2
425.094	4676.71
425.302	4775.01
425.51	4951.14
425.718	5151.84
425.925	5121.12
426.133	5262.43
426.341	5571.67
426.548	5735.51
426.756	6036.56
426.964	6114.38
427.171	6372.43
427.379	6466.63
427.586	6466.63
427.794	6814.79
428.001	7150.65
428.209	7507
428.417	7103.55
428.624	7777.33
428.832	7959.6
429.039	7717.94
429.247	7902.26
429.454	8535.08
429.662	9122.85
429.869	8467.5
430.076	9151.52
430.284	8840.23
430.491	9323.55
430.699	9747.48
430.906	9743.38
431.114	9819.16
431.321	10093.58
431.528	10396.68
431.736	10920.96
431.943	11568.12
432.15	11320.32
432.358	11404.28
432.565	12209.14
432.772	11996.15
432.979	12495.85
433.187	12628.97
433.394	12684.27
433.601	13829.08
433.808	13833.18
434.016	13702.11
434.223	14502.86
434.43	15365.06
434.637	14900.17
434.844	16090.04
435.052	16233.39
435.259	15844.28
435.466	16163.76
435.673	15856.57
435.88	17124.26
436.087	18051.99
436.294	18051.99
436.501	17540
436.708	17908.63
436.915	18568.08
437.122	19092.36
437.329	19049.35
437.537	19866.49
437.743	20581.23
437.95	20257.65
438.157	20925.29
438.364	22045.53
438.571	21744.48
438.778	21932.89
438.985	23919.42
439.192	23126.86
439.399	23980.86
439.606	23026.51
439.813	24312.63
440.02	25834.27
440.227	25576.23
440.433	24984.37
440.64	26000.16
440.847	26164
441.054	26762
441.261	28295.93
441.467	28179.2
441.674	28445.43
441.881	29475.56
442.088	29334.25
442.294	29360.87
442.501	30141.15
442.708	30411.48
442.914	31933.12
443.121	32918.2
443.328	32547.51
443.534	34681.5
443.741	33581.74
443.948	33227.44
444.154	35789.45
444.361	35396.24
444.568	35568.27
444.774	35398.29
444.981	36076.16
445.187	36958.84
445.394	38558.3
445.6	37808.75
445.807	41437.75
446.013	39813.71
446.22	40737.34
446.426	42211.88
446.633	42543.65
446.839	43518.48
447.046	41712.17
447.252	44222.98
447.459	44485.12
447.665	44089.87
447.871	46668.26
448.078	47811.03
448.284	45656.56
448.491	46645.73
448.697	48454.09
448.903	49273.27
449.11	49156.54
449.316	48880.06
449.522	49347
449.728	50645.41
449.935	51188.13
450.141	51114.4
450.347	51749.27
450.553	50508.2
450.76	51026.34
450.966	52693.38
451.172	51857.81
451.378	53100.93
451.584	52484.49
451.791	53232
451.997	53098.88
452.203	54794.6
452.409	54024.56
452.615	53494.14
452.821	52226.45
453.027	51364.25
453.233	54196.59
453.44	51923.35
453.646	52357.52
453.852	52373.9
454.058	53805.43
454.264	51567
454.47	52681.09
454.676	51503.51
454.882	53348.73
455.088	48464.33
455.294	49496.5
455.5	50065.84
455.705	50239.92
455.911	48415.18
456.117	47368.66
456.323	47192.54
456.529	44352.01
456.735	46320.1
456.941	45005.31
457.147	44034.57
457.352	43184.66
457.558	42156.58
457.764	42408.48
457.97	42201.64
458.176	40800.83
458.381	40870.46
458.587	38769.24
458.793	39101.01
458.999	36799.1
459.204	39397.97
459.41	38462.05
459.616	36031.11
459.821	36047.49
460.027	35506.83
460.233	34755.22
460.438	33413.8
460.644	33727.14
460.85	32414.4
461.055	32000.71
461.261	31830.72
461.466	29223.66
461.672	28775.16
461.878	30505.69
462.083	28461.82
462.289	28082.94
462.494	27736.84
462.7	26510.1
462.905	25686.82
463.111	27097.87
463.316	26882.83
463.522	26452.76
463.727	26436.38
463.932	26368.79
464.138	26073.88
464.343	26303.26
464.549	25473.83
464.754	26409.75
464.959	25832.22
465.165	25842.46
465.37	24806.19
465.575	24089.4
465.781	25314.09
465.986	25432.87
466.191	24652.59
466.397	24048.44
466.602	22575.95
466.807	24019.77
