Data from USB4F104151__0__11-04-23-773.txt Node

Date: Wed Mar 12 11:04:23 EDT 2025
User: louis
Spectrometer: USB4F10415
Trigger mode: 4
Integration Time (sec): 2.000000E-2
Scans to average: 1
Electric dark correction enabled: true
Nonlinearity correction enabled: false
Boxcar width: 0
XAxis mode: Wavelengths
Number of Pixels in Spectrum: 3648
>>>>>Begin Spectral Data<<<<<
178.204	-63.83
178.424	-63.83
178.644	-63.83
178.864	-72.02
179.084	-22.87
179.304	-33.11
179.524	67.24
179.744	34.47
179.964	20.14
180.184	1.71
180.404	-14.68
180.624	-18.77
180.844	-22.87
181.064	-26.96
181.283	1.71
181.503	38.57
181.723	-47.44
181.943	-2.39
182.163	5.8
182.383	-12.63
182.602	-12.63
182.822	-24.92
183.042	-26.96
183.262	-35.16
183.482	1.71
183.701	110.25
183.921	-20.82
184.141	-16.73
184.361	26.28
184.58	-0.34
184.8	-22.87
185.02	-26.96
185.239	83.63
185.459	26.28
185.679	54.95
185.898	-8.53
186.118	116.39
186.338	-61.78
186.557	52.91
186.777	1.71
186.997	63.15
187.216	1.71
187.436	11.95
187.655	-16.73
187.875	114.34
188.095	3.75
188.314	32.43
188.534	61.1
188.753	-20.82
188.973	18.09
189.192	67.24
189.412	83.63
189.631	57
189.851	-39.25
190.07	-29.01
190.29	24.23
190.509	16.04
190.729	18.09
190.948	48.81
191.168	77.48
191.387	40.62
191.607	67.24
191.826	-20.82
192.045	-104.79
192.265	16.04
192.484	79.53
192.704	42.67
192.923	18.09
193.142	22.19
193.362	-2.39
193.581	-14.68
193.8	16.04
194.02	18.09
194.239	-47.44
194.458	46.76
194.678	-2.39
194.897	69.29
195.116	26.28
195.335	16.04
195.555	34.47
195.774	-53.59
195.993	28.33
196.212	7.85
196.432	-39.25
196.651	13.99
196.87	36.52
197.089	38.57
197.308	7.85
197.528	71.34
197.747	-8.53
197.966	61.1
198.185	71.34
198.404	1.71
198.623	5.8
198.842	-18.77
199.062	34.47
199.281	73.39
199.5	11.95
199.719	32.43
199.938	11.95
200.157	30.38
200.376	-8.53
200.595	40.62
200.814	63.15
201.033	38.57
201.252	1.71
201.471	-14.68
201.69	38.57
201.909	-16.73
202.128	3.75
202.347	30.38
202.566	59.05
202.785	-4.44
203.004	-57.68
203.223	57
203.442	-16.73
203.661	28.33
203.879	57
204.098	50.86
204.317	34.47
204.536	87.72
204.755	1.71
204.974	93.87
205.193	73.39
205.411	-26.96
205.63	5.8
205.849	5.8
206.068	32.43
206.287	46.76
206.505	24.23
206.724	54.95
206.943	65.19
207.162	34.47
207.381	36.52
207.599	40.62
207.818	9.9
208.037	59.05
208.255	34.47
208.474	24.23
208.693	65.19
208.911	3.75
209.13	18.09
209.349	61.1
209.567	22.19
209.786	73.39
210.005	34.47
210.223	26.28
210.442	-35.16
210.661	5.8
210.879	30.38
211.098	-2.39
211.316	32.43
211.535	71.34
211.753	30.38
211.972	5.8
212.191	-82.26
212.409	42.67
212.628	38.57
212.846	-61.78
213.065	89.77
213.283	22.19
213.502	11.95
213.72	-14.68
213.938	32.43
214.157	-35.16
214.375	83.63
214.594	5.8
214.812	20.14
215.031	-37.2
215.249	-0.34
215.467	7.85
215.686	89.77
215.904	-47.44
216.122	48.81
216.341	75.43
216.559	54.95
216.778	40.62
216.996	11.95
217.214	-0.34
217.432	22.19
217.651	-67.92
217.869	13.99
218.087	9.9
218.306	38.57
218.524	18.09
218.742	-47.44
218.96	91.82
219.179	3.75
219.397	63.15
219.615	57
219.833	40.62
220.051	59.05
220.27	73.39
220.488	-4.44
220.706	26.28
220.924	-47.44
221.142	50.86
221.36	26.28
221.578	-6.49
221.796	48.81
222.015	-14.68
222.233	20.14
222.451	20.14
222.669	-26.96
222.887	-31.06
223.105	-0.34
223.323	36.52
223.541	22.19
223.759	61.1
223.977	-0.34
224.195	42.67
224.413	100.01
224.631	16.04
224.849	-24.92
225.067	50.86
225.285	-24.92
225.503	-24.92
225.721	-16.73
225.939	-20.82
226.157	52.91
226.375	36.52
226.592	-43.35
226.81	-37.2
227.028	-49.49
227.246	100.01
227.464	26.28
227.682	28.33
227.9	-12.63
228.117	26.28
228.335	30.38
228.553	13.99
228.771	-24.92
228.989	-10.58
229.206	38.57
229.424	-31.06
229.642	-76.12
229.86	-18.77
230.077	-49.49
230.295	24.23
230.513	81.58
230.731	63.15
230.948	32.43
231.166	9.9
231.384	22.19
231.601	-2.39
231.819	61.1
232.037	89.77
232.254	-33.11
232.472	24.23
232.689	28.33
232.907	38.57
233.125	-22.87
233.342	20.14
233.56	-14.68
233.777	32.43
233.995	-6.49
234.213	13.99
234.43	-45.4
234.648	-80.21
234.865	-65.88
235.083	-2.39
235.3	-0.34
235.518	57
235.735	1.71
235.953	50.86
236.17	18.09
236.388	-31.06
236.605	22.19
236.822	-22.87
237.04	-2.39
237.257	30.38
237.475	-16.73
237.692	24.23
237.909	-22.87
238.127	108.2
238.344	81.58
238.562	-31.06
238.779	44.71
238.996	-2.39
239.214	-6.49
239.431	34.47
239.648	-39.25
239.865	-10.58
240.083	91.82
240.3	22.19
240.517	3.75
240.735	9.9
240.952	30.38
241.169	71.34
241.386	34.47
241.603	77.48
241.821	-43.35
242.038	-2.39
242.255	24.23
242.472	18.09
242.689	-26.96
242.907	83.63
243.124	3.75
243.341	52.91
243.558	-4.44
243.775	-35.16
243.992	-10.58
244.209	112.3
244.426	7.85
244.643	-6.49
244.86	-10.58
245.078	18.09
245.295	63.15
245.512	75.43
245.729	-14.68
245.946	-26.96
246.163	-29.01
246.38	30.38
246.597	-18.77
246.814	61.1
247.031	26.28
247.248	-8.53
247.464	1.71
247.681	-16.73
247.898	91.82
248.115	1.71
248.332	-69.97
248.549	79.53
248.766	40.62
248.983	89.77
249.2	5.8
249.417	63.15
249.633	-2.39
249.85	42.67
250.067	61.1
250.284	42.67
250.501	52.91
250.717	9.9
250.934	1.71
251.151	38.57
251.368	30.38
251.585	-14.68
251.801	42.67
252.018	-24.92
252.235	3.75
252.451	-10.58
252.668	-39.25
252.885	52.91
253.102	16.04
253.318	79.53
253.535	28.33
253.752	24.23
253.968	7.85
254.185	-14.68
254.401	-59.73
254.618	24.23
254.835	11.95
255.051	-12.63
255.268	116.39
255.484	-22.87
255.701	-2.39
255.917	100.01
256.134	-35.16
256.351	-31.06
256.567	-14.68
256.784	34.47
257	34.47
257.217	65.19
257.433	34.47
257.65	-14.68
257.866	-0.34
258.082	-0.34
258.299	-12.63
258.515	20.14
258.732	-67.92
258.948	81.58
259.165	42.67
259.381	95.91
259.597	36.52
259.814	-16.73
260.03	-24.92
260.246	34.47
260.463	13.99
260.679	61.1
260.895	79.53
261.112	38.57
261.328	54.95
261.544	-10.58
261.761	83.63
261.977	-18.77
262.193	-74.07
262.409	-0.34
262.626	73.39
262.842	57
263.058	-98.64
263.274	65.19
263.49	52.91
263.707	59.05
263.923	-4.44
264.139	18.09
264.355	7.85
264.571	75.43
264.787	-6.49
265.004	-35.16
265.22	38.57
265.436	52.91
265.652	34.47
265.868	-10.58
266.084	-10.58
266.3	85.67
266.516	-22.87
266.732	32.43
266.948	-6.49
267.164	18.09
267.38	42.67
267.596	22.19
267.812	116.39
268.028	48.81
268.244	67.24
268.46	28.33
268.676	48.81
268.892	36.52
269.108	57
269.324	50.86
269.54	-0.34
269.756	26.28
269.972	-35.16
270.188	18.09
270.403	-59.73
270.619	9.9
270.835	16.04
271.051	93.87
271.267	9.9
271.483	-18.77
271.698	-84.31
271.914	-16.73
272.13	-4.44
272.346	20.14
272.562	16.04
272.777	79.53
272.993	5.8
273.209	-0.34
273.425	16.04
273.64	-59.73
273.856	48.81
274.072	36.52
274.287	16.04
274.503	40.62
274.719	11.95
274.934	-31.06
275.15	-43.35
275.366	-16.73
275.581	11.95
275.797	73.39
276.012	30.38
276.228	-22.87
276.444	-31.06
276.659	52.91
276.875	-8.53
277.09	48.81
277.306	30.38
277.521	116.39
277.737	-6.49
277.952	93.87
278.168	63.15
278.383	-10.58
278.599	-0.34
278.814	18.09
279.03	9.9
279.245	91.82
279.461	34.47
279.676	32.43
279.892	5.8
280.107	83.63
280.322	54.95
280.538	40.62
280.753	22.19
280.969	-37.2
281.184	9.9
281.399	42.67
281.615	42.67
281.83	9.9
282.045	34.47
282.26	-0.34
282.476	38.57
282.691	-4.44
282.906	-26.96
283.122	67.24
283.337	5.8
283.552	73.39
283.767	7.85
283.983	-0.34
284.198	1.71
284.413	20.14
284.628	24.23
284.843	26.28
285.058	46.76
285.274	-51.54
285.489	-39.25
285.704	26.28
285.919	5.8
286.134	67.24
286.349	46.76
286.564	-26.96
286.779	89.77
286.995	-12.63
287.21	-41.3
287.425	100.01
287.64	1.71
287.855	38.57
288.07	-45.4
288.285	65.19
288.5	34.47
288.715	87.72
288.93	-47.44
289.145	26.28
289.36	59.05
289.575	-29.01
289.79	89.77
290.004	28.33
290.219	30.38
290.434	-4.44
290.649	-51.54
290.864	48.81
291.079	69.29
291.294	44.71
291.509	28.33
291.724	3.75
291.938	-22.87
292.153	-16.73
292.368	22.19
292.583	50.86
292.798	40.62
293.012	71.34
293.227	-8.53
293.442	-51.54
293.657	20.14
293.871	59.05
294.086	-18.77
294.301	-8.53
294.516	50.86
294.73	122.54
294.945	34.47
295.16	5.8
295.374	34.47
295.589	20.14
295.804	-53.59
296.018	46.76
296.233	18.09
296.447	22.19
296.662	16.04
296.877	9.9
297.091	9.9
297.306	26.28
297.52	-22.87
297.735	87.72
297.949	-31.06
298.164	42.67
298.378	-2.39
298.593	7.85
298.807	-55.64
299.022	28.33
299.236	7.85
299.451	18.09
299.665	-24.92
299.88	26.28
300.094	67.24
300.309	22.19
300.523	38.57
300.737	30.38
300.952	48.81
301.166	50.86
301.381	91.82
301.595	3.75
301.809	1.71
302.024	63.15
302.238	13.99
302.452	46.76
302.667	1.71
302.881	-24.92
303.095	3.75
303.309	38.57
303.524	36.52
303.738	5.8
303.952	-33.11
304.166	5.8
304.381	-33.11
304.595	34.47
304.809	1.71
305.023	22.19
305.237	-45.4
305.452	57
305.666	59.05
305.88	75.43
306.094	13.99
306.308	-41.3
306.522	-10.58
306.736	1.71
306.95	54.95
307.164	7.85
307.379	18.09
307.593	71.34
307.807	87.72
308.021	100.01
308.235	-18.77
308.449	-18.77
308.663	52.91
308.877	89.77
309.091	89.77
309.305	108.2
309.519	-29.01
309.733	48.81
309.947	-65.88
310.161	30.38
310.374	59.05
310.588	5.8
310.802	79.53
311.016	13.99
311.23	61.1
311.444	24.23
311.658	65.19
311.872	-2.39
312.085	36.52
312.299	95.91
312.513	46.76
312.727	-6.49
312.941	38.57
313.154	-51.54
313.368	5.8
313.582	93.87
313.796	-2.39
314.009	1.71
314.223	89.77
314.437	16.04
314.651	3.75
314.864	77.48
315.078	65.19
315.292	42.67
315.505	85.67
315.719	22.19
315.933	22.19
316.146	-26.96
316.36	18.09
316.573	75.43
316.787	75.43
317.001	-8.53
317.214	-22.87
317.428	13.99
317.641	-12.63
317.855	42.67
318.068	95.91
318.282	-8.53
318.495	110.25
318.709	24.23
318.922	9.9
319.136	16.04
319.349	75.43
319.563	24.23
319.776	46.76
319.99	-31.06
320.203	54.95
320.417	-18.77
320.63	30.38
320.843	18.09
321.057	36.52
321.27	44.71
321.483	24.23
321.697	136.87
321.91	-14.68
322.124	32.43
322.337	30.38
322.55	-78.16
322.763	91.82
322.977	34.47
323.19	34.47
323.403	20.14
323.617	134.82
323.83	-10.58
324.043	16.04
324.256	1.71
324.469	-24.92
324.683	69.29
324.896	13.99
325.109	77.48
325.322	13.99
325.535	75.43
325.748	40.62
325.962	-16.73
326.175	69.29
326.388	69.29
326.601	16.04
326.814	24.23
327.027	28.33
327.24	36.52
327.453	24.23
327.666	65.19
327.879	147.11
328.092	28.33
328.305	54.95
328.518	-6.49
328.731	9.9
328.944	-24.92
329.157	3.75
329.37	79.53
329.583	-10.58
329.796	50.86
330.009	42.67
330.222	18.09
330.435	13.99
330.648	11.95
330.861	69.29
331.073	18.09
331.286	42.67
331.499	34.47
331.712	71.34
331.925	-31.06
332.138	-31.06
332.35	126.63
332.563	30.38
332.776	28.33
332.989	-72.02
333.202	13.99
333.414	5.8
333.627	7.85
333.84	26.28
334.053	-14.68
334.265	13.99
334.478	54.95
334.691	34.47
334.903	-10.58
335.116	-8.53
335.329	-4.44
335.541	-41.3
335.754	-4.44
335.966	52.91
336.179	85.67
336.392	106.15
336.604	69.29
336.817	18.09
337.029	16.04
337.242	93.87
337.454	28.33
337.667	7.85
337.88	75.43
338.092	-47.44
338.305	59.05
338.517	30.38
338.729	91.82
338.942	-59.73
339.154	61.1
339.367	-18.77
339.579	112.3
339.792	-8.53
340.004	63.15
340.217	-20.82
340.429	16.04
340.641	59.05
340.854	-10.58
341.066	36.52
341.278	42.67
341.491	83.63
341.703	-78.16
341.915	16.04
342.128	69.29
342.34	-51.54
342.552	-67.92
342.764	9.9
342.977	38.57
343.189	59.05
343.401	67.24
343.613	-12.63
343.826	77.48
344.038	13.99
344.25	71.34
344.462	11.95
344.674	13.99
344.886	1.71
345.099	100.01
345.311	16.04
345.523	36.52
345.735	-24.92
345.947	-4.44
346.159	-0.34
346.371	26.28
346.583	-0.34
346.795	75.43
347.007	-18.77
347.219	50.86
347.431	50.86
347.643	54.95
347.855	57
348.067	30.38
348.279	-2.39
348.491	61.1
348.703	-41.3
348.915	18.09
349.127	-4.44
349.339	32.43
349.551	11.95
349.763	22.19
349.975	57
350.187	61.1
350.399	63.15
350.61	79.53
350.822	95.91
351.034	24.23
351.246	69.29
351.458	67.24
351.669	50.86
351.881	108.2
352.093	42.67
352.305	16.04
352.517	-6.49
352.728	65.19
352.94	28.33
353.152	11.95
353.363	73.39
353.575	36.52
353.787	59.05
353.999	11.95
354.21	61.1
354.422	-29.01
354.633	-14.68
354.845	44.71
355.057	106.15
355.268	-0.34
355.48	42.67
355.692	46.76
355.903	3.75
356.115	5.8
356.326	11.95
356.538	97.96
356.749	7.85
356.961	108.2
357.172	65.19
357.384	9.9
357.595	87.72
357.807	59.05
358.018	71.34
358.23	28.33
358.441	104.11
358.653	75.43
358.864	11.95
359.075	22.19
359.287	67.24
359.498	5.8
359.709	73.39
359.921	16.04
360.132	11.95
360.344	52.91
360.555	-18.77
360.766	85.67
360.977	-4.44
361.189	61.1
361.4	26.28
361.611	11.95
361.823	112.3
362.034	32.43
362.245	-18.77
362.456	95.91
362.667	67.24
362.879	67.24
363.09	50.86
363.301	44.71
363.512	85.67
363.723	75.43
363.935	1.71
364.146	54.95
364.357	38.57
364.568	-6.49
364.779	9.9
364.99	-20.82
365.201	22.19
365.412	65.19
365.623	34.47
365.834	59.05
366.045	54.95
366.256	32.43
366.467	40.62
366.678	-2.39
366.889	77.48
367.1	87.72
367.311	7.85
367.522	-18.77
367.733	-22.87
367.944	16.04
368.155	122.54
368.366	87.72
368.577	46.76
368.788	104.11
368.999	26.28
369.209	-4.44
369.42	50.86
369.631	67.24
369.842	40.62
370.053	71.34
370.264	13.99
370.474	81.58
370.685	46.76
370.896	-2.39
371.107	61.1
371.317	-0.34
371.528	57
371.739	38.57
371.95	46.76
372.16	36.52
372.371	-37.2
372.582	65.19
372.792	38.57
373.003	40.62
373.214	1.71
373.424	-59.73
373.635	-14.68
373.846	16.04
374.056	63.15
374.267	50.86
374.477	5.8
374.688	-10.58
374.898	24.23
375.109	57
375.319	-2.39
375.53	57
375.74	-0.34
375.951	13.99
376.161	32.43
376.372	173.74
376.582	38.57
376.793	57
377.003	46.76
377.214	22.19
377.424	69.29
377.635	38.57
377.845	1.71
378.055	38.57
378.266	1.71
378.476	28.33
378.686	122.54
378.897	108.2
379.107	26.28
379.317	57
379.528	54.95
379.738	100.01
379.948	-63.83
380.158	79.53
380.369	54.95
380.579	38.57
380.789	95.91
380.999	52.91
381.21	59.05
381.42	36.52
381.63	-22.87
381.84	71.34
382.05	46.76
382.261	57
382.471	44.71
382.681	-22.87
382.891	9.9
383.101	52.91
383.311	40.62
383.521	52.91
383.731	52.91
383.941	50.86
384.151	-0.34
384.361	26.28
384.571	1.71
384.781	65.19
384.991	108.2
385.201	102.06
385.411	104.11
385.621	-26.96
385.831	26.28
386.041	30.38
386.251	81.58
386.461	91.82
386.671	-67.92
386.881	67.24
387.091	63.15
387.301	87.72
387.511	32.43
387.72	65.19
387.93	5.8
388.14	-14.68
388.35	48.81
388.56	61.1
388.769	116.39
388.979	48.81
389.189	89.77
389.399	32.43
389.609	87.72
389.818	112.3
390.028	46.76
390.238	28.33
390.447	50.86
390.657	106.15
390.867	3.75
391.076	46.76
391.286	-59.73
391.496	61.1
391.705	71.34
391.915	151.21
392.125	16.04
392.334	42.67
392.544	30.38
392.753	63.15
392.963	91.82
393.172	81.58
393.382	38.57
393.591	81.58
393.801	13.99
394.01	81.58
394.22	83.63
394.429	44.71
394.639	5.8
394.848	-0.34
395.058	34.47
395.267	65.19
395.477	57
395.686	-55.64
395.895	89.77
396.105	136.87
396.314	114.34
396.524	52.91
396.733	71.34
396.942	40.62
397.152	-0.34
397.361	79.53
397.57	95.91
397.78	65.19
397.989	16.04
398.198	100.01
398.407	61.1
398.617	48.81
398.826	95.91
399.035	122.54
399.244	79.53
399.453	102.06
399.663	-2.39
399.872	59.05
400.081	102.06
400.29	89.77
400.499	77.48
400.708	18.09
400.917	34.47
401.127	130.73
401.336	40.62
401.545	118.44
401.754	112.3
401.963	120.49
402.172	69.29
402.381	-22.87
402.59	106.15
402.799	20.14
403.008	143.02
403.217	102.06
403.426	79.53
403.635	138.92
403.844	95.91
404.053	89.77
404.262	69.29
404.471	118.44
404.68	151.21
404.888	151.21
405.097	87.72
405.306	110.25
405.515	63.15
405.724	95.91
405.933	104.11
406.142	171.69
406.35	157.35
406.559	138.92
406.768	100.01
406.977	161.45
407.185	112.3
407.394	149.16
407.603	110.25
407.812	116.39
408.02	114.34
408.229	202.41
408.438	165.54
408.646	124.58
408.855	210.6
409.064	247.46
409.272	173.74
409.481	194.22
409.69	212.65
409.898	124.58
410.107	175.78
410.315	308.9
410.524	204.46
410.733	294.57
410.941	233.13
411.15	280.23
411.358	259.75
411.567	296.61
411.775	280.23
411.984	308.9
412.192	347.81
412.401	378.53
412.609	325.29
412.818	401.06
413.026	427.68
413.234	394.92
413.443	376.48
413.651	396.96
413.86	427.68
414.068	517.79
414.276	538.27
414.485	474.79
414.693	458.4
414.901	521.89
415.11	552.61
415.318	462.5
415.526	575.14
415.734	568.99
415.943	632.48
416.151	685.73
416.359	665.25
416.567	714.4
416.776	755.36
416.984	669.34
417.192	685.73
417.4	816.8
417.608	671.39
417.817	786.08
418.025	878.24
418.233	898.72
418.441	835.23
418.649	939.68
418.857	1023.64
419.065	1019.55
419.273	892.57
419.481	968.35
419.689	1040.03
419.897	1119.9
420.105	1171.1
420.313	1173.14
420.521	1222.3
420.729	1345.17
420.937	1291.93
421.145	1425.04
421.353	1441.43
421.561	1588.88
421.769	1558.16
421.977	1568.4
422.185	1605.27
422.393	1652.37
422.601	1799.82
422.809	1791.63
423.017	1719.95
423.224	1836.69
423.432	1939.09
423.64	1910.41
423.848	2125.45
424.056	2123.4
424.263	2229.9
424.471	2219.66
424.679	2246.28
424.887	2338.44
425.094	2494.08
425.302	2422.41
425.51	2635.39
425.718	2641.54
425.925	2705.03
426.133	2834.05
426.341	3028.6
426.548	3044.99
426.756	2995.84
426.964	3049.08
427.171	3350.14
427.379	3339.9
427.586	3405.43
427.794	3589.75
428.001	3669.62
428.209	3823.22
428.417	3765.87
428.624	4191.85
428.832	4019.82
429.039	4048.49
429.247	3993.2
429.454	4427.37
429.662	4746.85
429.869	4390.5
430.076	4554.34
430.284	4636.26
430.491	4984.41
430.699	5154.4
430.906	5144.16
431.114	5260.89
431.321	5504.6
431.528	5318.23
431.736	5901.9
431.943	6047.31
432.15	5887.57
432.358	5854.8
432.565	6340.17
432.772	6315.59
432.979	6708.8
433.187	6688.32
433.394	6788.68
433.601	7460.41
433.808	7388.73
434.016	7231.04
434.223	7591.48
434.43	8064.56
434.637	7937.59
434.844	8222.25
435.052	8449.58
435.259	8500.78
435.466	8619.56
435.673	8435.24
435.88	8801.83
436.087	9498.14
436.294	9416.22
436.501	9297.44
436.708	9199.13
436.915	9627.16
437.122	10155.54
437.329	10145.3
437.537	10448.4
437.743	10681.86
437.95	10710.54
438.157	11204.1
438.364	11527.67
438.571	11296.25
438.778	11537.91
438.985	12545.52
439.192	12348.91
439.399	12586.47
439.606	12295.66
439.813	13047.27
440.02	13596.12
440.227	13680.09
440.433	13391.33
440.64	13839.83
440.847	13870.55
441.054	14110.16
441.261	15044.04
441.467	15166.92
441.674	15025.61
441.881	15390.14
442.088	15697.34
442.294	15652.28
442.501	15818.17
442.708	16489.9
442.914	16840.11
443.121	17741.21
443.328	16950.7
443.534	18429.33
443.741	17724.83
443.948	17679.77
444.154	19170.69
444.361	19037.58
444.568	19000.71
444.774	18890.12
444.981	19180.93
445.187	19664.25
445.394	20456.82
445.6	20233.59
445.807	22269.27
446.013	21618.02
446.22	21695.84
446.426	22703.44
446.633	23080.27
446.839	23620.93
447.046	22828.37
447.252	23764.29
447.459	24046.91
447.665	23831.87
447.871	25001.26
448.078	25705.76
448.284	24622.39
448.491	25441.57
448.697	26477.85
448.903	26483.99
449.11	26653.97
449.316	26039.58
449.522	26395.93
449.728	27208.97
449.935	27569.41
450.141	27352.33
450.347	27997.44
450.553	27196.68
450.76	27739.4
450.966	28460.28
451.172	28009.73
451.378	28525.82
451.584	28042.49
451.791	28775.67
451.997	28554.49
452.203	29082.86
452.409	29336.81
452.615	28964.08
452.821	27802.88
453.027	27407.62
453.233	28730.61
453.44	27577.61
453.646	28103.93
453.852	27991.3
454.058	28652.79
454.264	27516.17
454.47	27856.13
454.676	27206.92
454.882	28132.61
455.088	25730.34
455.294	26086.68
455.5	26467.61
455.705	26684.69
455.911	25584.93
456.117	24948.01
456.323	24593.72
456.529	22986.06
456.735	24008
456.941	23407.94
457.147	23450.95
457.352	22369.62
457.558	22179.16
457.764	22297.94
457.97	21714.27
458.176	21132.65
458.381	21034.35
458.587	20270.45
458.793	20069.75
458.999	19078.54
459.204	20563.31
459.41	19936.63
459.616	18529.68
459.821	18660.75
460.027	18619.79
460.233	18013.59
460.438	17024.42
460.644	17329.57
460.85	16414.13
461.055	16115.12
461.261	16145.84
461.466	15029.7
461.672	14740.94
461.878	15891.9
462.083	14558.67
462.289	14312.91
462.494	14253.52
462.7	13686.23
462.905	13209.06
463.111	13753.82
463.316	13825.5
463.522	13561.31
463.727	13526.49
463.932	13260.26
464.138	13411.81
464.343	13499.87
464.549	12817.9
464.754	13573.6
464.959	13166.05
465.165	13178.34
465.37	12647.91
465.575	12338.67
465.781	12871.14
465.986	13000.16
466.191	12518.89
466.397	12045.81
466.602	11640.31
466.807	12080.63
467.012	12162.55
467.218	12144.11
467.423	11816.44
467.628	11916.79
467.833	12371.44
468.038	11802.1
468.244	11714.04
