Data from USB4F104151__138__11-07-57-834.txt Node

Date: Wed Mar 12 11:07:57 EDT 2025
User: louis
Spectrometer: USB4F10415
Trigger mode: 4
Integration Time (sec): 2.000000E-2
Scans to average: 1
Electric dark correction enabled: true
Nonlinearity correction enabled: false
Boxcar width: 0
XAxis mode: Wavelengths
Number of Pixels in Spectrum: 3648
>>>>>Begin Spectral Data<<<<<
178.204	-82.77
178.424	-82.77
178.644	-82.77
178.864	-111.44
179.084	-56.15
179.304	-66.39
179.524	3.24
179.744	-31.57
179.964	29.87
180.184	-9.05
180.404	-17.24
180.624	3.24
180.844	33.96
181.064	-17.24
181.283	29.87
181.503	15.53
181.723	25.77
181.943	-37.72
182.163	-29.52
182.383	-7
182.602	-25.43
182.822	-0.85
183.042	60.59
183.262	-25.43
183.482	-9.05
183.701	3.24
183.921	36.01
184.141	-84.82
184.361	-9.05
184.58	29.87
184.8	15.53
185.02	-23.38
185.239	-37.72
185.459	-9.05
185.679	56.49
185.898	-70.48
186.118	-9.05
186.338	-4.95
186.557	54.44
186.777	-15.19
186.997	-0.85
187.216	72.87
187.436	83.11
187.655	25.77
187.875	29.87
188.095	62.63
188.314	60.59
188.534	-33.62
188.753	7.34
188.973	-0.85
189.192	56.49
189.412	-25.43
189.631	38.06
189.851	15.53
190.07	36.01
190.29	-13.14
190.509	25.77
190.729	-58.2
190.948	68.78
191.168	91.31
191.387	-25.43
191.607	-17.24
191.826	7.34
192.045	9.39
192.265	-19.29
192.484	-50
192.704	48.3
192.923	-17.24
193.142	36.01
193.362	-0.85
193.581	23.72
193.8	-68.44
194.02	-23.38
194.239	79.02
194.458	128.17
194.678	-43.86
194.897	29.87
195.116	23.72
195.335	36.01
195.555	-25.43
195.774	38.06
195.993	68.78
196.212	-7
196.432	-23.38
196.651	-15.19
196.87	42.15
197.089	15.53
197.308	50.35
197.528	3.24
197.747	-2.9
197.966	40.11
198.185	31.91
198.404	-54.1
198.623	25.77
198.842	-2.9
199.062	70.83
199.281	5.29
199.5	19.63
199.719	40.11
199.938	50.35
200.157	27.82
200.376	-4.95
200.595	60.59
200.814	42.15
201.033	33.96
201.252	21.67
201.471	27.82
201.69	-13.14
201.909	-43.86
202.128	62.63
202.347	15.53
202.566	-29.52
202.785	13.48
203.004	-17.24
203.223	40.11
203.442	66.73
203.661	-15.19
203.879	-0.85
204.098	-15.19
204.317	-2.9
204.536	54.44
204.755	7.34
204.974	11.43
205.193	-23.38
205.411	89.26
205.63	-72.53
205.849	3.24
206.068	-62.29
206.287	19.63
206.505	31.91
206.724	-64.34
206.943	3.24
207.162	-27.48
207.381	-25.43
207.599	-31.57
207.818	-25.43
208.037	-17.24
208.255	-0.85
208.474	62.63
208.693	-15.19
208.911	1.19
209.13	11.43
209.349	-19.29
209.567	36.01
209.786	7.34
210.005	83.11
210.223	-9.05
210.442	-27.48
210.661	-9.05
210.879	-23.38
211.098	3.24
211.316	-41.81
211.535	85.16
211.753	-4.95
211.972	70.83
212.191	23.72
212.409	-13.14
212.628	-29.52
212.846	38.06
213.065	42.15
213.283	68.78
213.502	-0.85
213.72	-70.48
213.938	48.3
214.157	13.48
214.375	44.2
214.594	13.48
214.812	11.43
215.031	46.25
215.249	13.48
215.467	31.91
215.686	23.72
215.904	-27.48
216.122	-29.52
216.341	-11.09
216.559	-29.52
216.778	19.63
216.996	5.29
217.214	-11.09
217.432	-4.95
217.651	62.63
217.869	-19.29
218.087	-0.85
218.306	-33.62
218.524	-17.24
218.742	42.15
218.96	81.07
219.179	-0.85
219.397	40.11
219.615	44.2
219.833	46.25
220.051	79.02
220.27	95.4
220.488	38.06
220.706	31.91
220.924	58.54
221.142	-29.52
221.36	48.3
221.578	11.43
221.796	3.24
222.015	40.11
222.233	-29.52
222.451	-62.29
222.669	-33.62
222.887	7.34
223.105	-39.76
223.323	44.2
223.541	-11.09
223.759	44.2
223.977	48.3
224.195	-4.95
224.413	19.63
224.631	64.68
224.849	31.91
225.067	29.87
225.285	42.15
225.503	-11.09
225.721	-58.2
225.939	38.06
226.157	13.48
226.375	21.67
226.592	1.19
226.81	11.43
227.028	11.43
227.246	68.78
227.464	-19.29
227.682	-7
227.9	-13.14
228.117	11.43
228.335	-33.62
228.553	-7
228.771	5.29
228.989	-64.34
229.206	68.78
229.424	13.48
229.642	-2.9
229.86	-50
230.077	29.87
230.295	19.63
230.513	25.77
230.731	54.44
230.948	33.96
231.166	56.49
231.384	-47.96
231.601	-33.62
231.819	-27.48
232.037	-33.62
232.254	-17.24
232.472	-41.81
232.689	-45.91
232.907	-43.86
233.125	7.34
233.342	-43.86
233.56	27.82
233.777	-4.95
233.995	5.29
234.213	42.15
234.43	-76.63
234.648	-29.52
234.865	-9.05
235.083	66.73
235.3	-9.05
235.518	-2.9
235.735	40.11
235.953	19.63
236.17	-7
236.388	44.2
236.605	19.63
236.822	60.59
237.04	-21.33
237.257	44.2
237.475	-31.57
237.692	7.34
237.909	31.91
238.127	17.58
238.344	-0.85
238.562	29.87
238.779	-29.52
238.996	-13.14
239.214	-37.72
239.431	52.39
239.648	3.24
239.865	113.83
240.083	33.96
240.3	-52.05
240.517	-0.85
240.735	40.11
240.952	38.06
241.169	7.34
241.386	7.34
241.603	-15.19
241.821	-19.29
242.038	72.87
242.255	70.83
242.472	23.72
242.689	46.25
242.907	-0.85
243.124	60.59
243.341	-25.43
243.558	19.63
243.775	7.34
243.992	-39.76
244.209	52.39
244.426	48.3
244.643	25.77
244.86	52.39
245.078	-13.14
245.295	9.39
245.512	27.82
245.729	-11.09
245.946	-27.48
246.163	89.26
246.38	31.91
246.597	83.11
246.814	-74.58
247.031	11.43
247.248	54.44
247.464	-2.9
247.681	-2.9
247.898	-52.05
248.115	85.16
248.332	9.39
248.549	48.3
248.766	-35.67
248.983	-9.05
249.2	19.63
249.417	15.53
249.633	101.55
249.85	56.49
250.067	17.58
250.284	13.48
250.501	48.3
250.717	19.63
250.934	-54.1
251.151	-13.14
251.368	9.39
251.585	101.55
251.801	15.53
252.018	19.63
252.235	-21.33
252.451	-25.43
252.668	-33.62
252.885	33.96
253.102	23.72
253.318	7.34
253.535	-9.05
253.752	-9.05
253.968	40.11
254.185	-15.19
254.401	-23.38
254.618	-4.95
254.835	13.48
255.051	44.2
255.268	27.82
255.484	-4.95
255.701	31.91
255.917	68.78
256.134	27.82
256.351	58.54
256.567	-62.29
256.784	-37.72
257	29.87
257.217	54.44
257.433	38.06
257.65	-47.96
257.866	-25.43
258.082	27.82
258.299	-45.91
258.515	23.72
258.732	-19.29
258.948	7.34
259.165	23.72
259.381	23.72
259.597	17.58
259.814	-43.86
260.03	-2.9
260.246	52.39
260.463	11.43
260.679	15.53
260.895	-29.52
261.112	56.49
261.328	-0.85
261.544	19.63
261.761	29.87
261.977	23.72
262.193	21.67
262.409	25.77
262.626	36.01
262.842	36.01
263.058	-45.91
263.274	64.68
263.49	50.35
263.707	11.43
263.923	89.26
264.139	-33.62
264.355	13.48
264.571	-11.09
264.787	19.63
265.004	-2.9
265.22	33.96
265.436	19.63
265.652	-2.9
265.868	11.43
266.084	-72.53
266.3	23.72
266.516	7.34
266.732	-43.86
266.948	21.67
267.164	44.2
267.38	31.91
267.596	31.91
267.812	36.01
268.028	113.83
268.244	-39.76
268.46	54.44
268.676	29.87
268.892	-45.91
269.108	64.68
269.324	3.24
269.54	5.29
269.756	58.54
269.972	-58.2
270.188	31.91
270.403	5.29
270.619	-4.95
270.835	56.49
271.051	-29.52
271.267	-21.33
271.483	7.34
271.698	13.48
271.914	85.16
272.13	-37.72
272.346	-68.44
272.562	27.82
272.777	33.96
272.993	21.67
273.209	-41.81
273.425	11.43
273.64	-0.85
273.856	72.87
274.072	-45.91
274.287	23.72
274.503	-39.76
274.719	50.35
274.934	15.53
275.15	-15.19
275.366	68.78
275.581	-41.81
275.797	-9.05
276.012	-45.91
276.228	21.67
276.444	-7
276.659	68.78
276.875	-17.24
277.09	11.43
277.306	-60.24
277.521	13.48
277.737	-41.81
277.952	54.44
278.168	85.16
278.383	42.15
278.599	-35.67
278.814	52.39
279.03	-25.43
279.245	93.35
279.461	-52.05
279.676	60.59
279.892	-33.62
280.107	-0.85
280.322	29.87
280.538	40.11
280.753	3.24
280.969	29.87
281.184	-15.19
281.399	50.35
281.615	5.29
281.83	-25.43
282.045	-0.85
282.26	-21.33
282.476	25.77
282.691	66.73
282.906	-0.85
283.122	-2.9
283.337	-11.09
283.552	44.2
283.767	81.07
283.983	19.63
284.198	40.11
284.413	11.43
284.628	-35.67
284.843	38.06
285.058	29.87
285.274	5.29
285.489	-66.39
285.704	19.63
285.919	-35.67
286.134	-0.85
286.349	-33.62
286.564	25.77
286.779	-23.38
286.995	-33.62
287.21	7.34
287.425	15.53
287.64	-62.29
287.855	31.91
288.07	42.15
288.285	19.63
288.5	5.29
288.715	15.53
288.93	29.87
289.145	29.87
289.36	40.11
289.575	23.72
289.79	64.68
290.004	42.15
290.219	-4.95
290.434	-25.43
290.649	-50
290.864	-9.05
291.079	3.24
291.294	-4.95
291.509	-43.86
291.724	11.43
291.938	-7
292.153	-58.2
292.368	-9.05
292.583	42.15
292.798	-2.9
293.012	97.45
293.227	9.39
293.442	54.44
293.657	5.29
293.871	-19.29
294.086	46.25
294.301	7.34
294.516	19.63
294.73	-9.05
294.945	-19.29
295.16	56.49
295.374	81.07
295.589	33.96
295.804	-70.48
296.018	72.87
296.233	-11.09
296.447	13.48
296.662	-7
296.877	25.77
297.091	-4.95
297.306	42.15
297.52	-29.52
297.735	-21.33
297.949	15.53
298.164	7.34
298.378	7.34
298.593	36.01
298.807	29.87
299.022	23.72
299.236	15.53
299.451	50.35
299.665	25.77
299.88	15.53
300.094	11.43
300.309	46.25
300.523	11.43
300.737	38.06
300.952	52.39
301.166	101.55
301.381	-4.95
301.595	42.15
301.809	31.91
302.024	46.25
302.238	-54.1
302.452	103.59
302.667	79.02
302.881	5.29
303.095	117.93
303.309	-29.52
303.524	36.01
303.738	13.48
303.952	66.73
304.166	7.34
304.381	-50
304.595	111.78
304.809	-13.14
305.023	-7
305.237	19.63
305.452	-31.57
305.666	40.11
305.88	38.06
306.094	58.54
306.308	54.44
306.522	21.67
306.736	27.82
306.95	42.15
307.164	44.2
307.379	40.11
307.593	21.67
307.807	-23.38
308.021	13.48
308.235	81.07
308.449	15.53
308.663	27.82
308.877	23.72
309.091	-11.09
309.305	9.39
309.519	-41.81
309.733	-50
309.947	13.48
310.161	42.15
310.374	-19.29
310.588	79.02
310.802	15.53
311.016	54.44
311.23	13.48
311.444	46.25
311.658	13.48
311.872	105.64
312.085	17.58
312.299	50.35
312.513	64.68
312.727	70.83
312.941	-25.43
313.154	46.25
313.368	113.83
313.582	7.34
313.796	5.29
314.009	58.54
314.223	58.54
314.437	-43.86
314.651	64.68
314.864	-43.86
315.078	7.34
315.292	3.24
315.505	-31.57
315.719	3.24
315.933	9.39
316.146	15.53
316.36	-17.24
316.573	-29.52
316.787	25.77
317.001	52.39
317.214	-0.85
317.428	40.11
317.641	25.77
317.855	64.68
318.068	3.24
318.282	5.29
318.495	134.31
318.709	29.87
318.922	-4.95
319.136	48.3
319.349	17.58
319.563	-7
319.776	-0.85
319.99	-11.09
320.203	-17.24
320.417	29.87
320.63	36.01
320.843	-45.91
321.057	64.68
321.27	25.77
321.483	33.96
321.697	66.73
321.91	48.3
322.124	15.53
322.337	76.97
322.55	46.25
322.763	40.11
322.977	13.48
323.19	76.97
323.403	29.87
323.617	5.29
323.83	48.3
324.043	40.11
324.256	-7
324.469	15.53
324.683	15.53
324.896	17.58
325.109	31.91
325.322	5.29
325.535	115.88
325.748	-11.09
325.962	74.92
326.175	56.49
326.388	48.3
326.601	101.55
326.814	46.25
327.027	-4.95
327.24	60.59
327.453	-37.72
327.666	46.25
327.879	146.6
328.092	60.59
328.305	11.43
328.518	-2.9
328.731	89.26
328.944	-0.85
329.157	9.39
329.37	15.53
329.583	48.3
329.796	50.35
330.009	-25.43
330.222	68.78
330.435	48.3
330.648	7.34
330.861	66.73
331.073	-7
331.286	1.19
331.499	48.3
331.712	27.82
331.925	-7
332.138	70.83
332.35	48.3
332.563	38.06
332.776	11.43
332.989	7.34
333.202	68.78
333.414	7.34
333.627	83.11
333.84	40.11
334.053	-25.43
334.265	21.67
334.478	40.11
334.691	-41.81
334.903	21.67
335.116	64.68
335.329	5.29
335.541	-37.72
335.754	27.82
335.966	-19.29
336.179	29.87
336.392	36.01
336.604	21.67
336.817	-0.85
337.029	31.91
337.242	1.19
337.454	52.39
337.667	50.35
337.88	101.55
338.092	-4.95
338.305	95.4
338.517	21.67
338.729	89.26
338.942	9.39
339.154	13.48
339.367	31.91
339.579	23.72
339.792	58.54
340.004	48.3
340.217	70.83
340.429	60.59
340.641	66.73
340.854	-0.85
341.066	-19.29
341.278	66.73
341.491	-19.29
341.703	76.97
341.915	-58.2
342.128	79.02
342.34	3.24
342.552	-37.72
342.764	68.78
342.977	-2.9
343.189	-23.38
343.401	-13.14
343.613	31.91
343.826	68.78
344.038	-17.24
344.25	1.19
344.462	21.67
344.674	76.97
344.886	7.34
345.099	138.41
345.311	58.54
345.523	48.3
345.735	-9.05
345.947	85.16
346.159	40.11
346.371	-17.24
346.583	40.11
346.795	15.53
347.007	-25.43
347.219	-7
347.431	9.39
347.643	31.91
347.855	31.91
348.067	119.98
348.279	-11.09
348.491	13.48
348.703	-25.43
348.915	23.72
349.127	19.63
349.339	50.35
349.551	29.87
349.763	3.24
349.975	66.73
350.187	56.49
350.399	19.63
350.61	-11.09
350.822	-2.9
351.034	-2.9
351.246	-7
351.458	-13.14
351.669	62.63
351.881	-15.19
352.093	83.11
352.305	5.29
352.517	3.24
352.728	54.44
352.94	44.2
353.152	79.02
353.363	-84.82
353.575	56.49
353.787	48.3
353.999	-19.29
354.21	87.21
354.422	13.48
354.633	21.67
354.845	40.11
355.057	23.72
355.268	-54.1
355.48	54.44
355.692	-41.81
355.903	117.93
356.115	21.67
356.326	13.48
356.538	50.35
356.749	76.97
356.961	81.07
357.172	-19.29
357.384	21.67
357.595	109.74
357.807	3.24
358.018	19.63
358.23	56.49
358.441	23.72
358.653	64.68
358.864	58.54
359.075	-15.19
359.287	19.63
359.498	64.68
359.709	3.24
359.921	-13.14
360.132	109.74
360.344	36.01
360.555	68.78
360.766	40.11
360.977	-17.24
361.189	33.96
361.4	23.72
361.611	36.01
361.823	31.91
362.034	40.11
362.245	21.67
362.456	99.5
362.667	50.35
362.879	58.54
363.09	-29.52
363.301	87.21
363.512	44.2
363.723	70.83
363.935	23.72
364.146	76.97
364.357	89.26
364.568	72.87
364.779	5.29
364.99	40.11
365.201	5.29
365.412	60.59
365.623	36.01
365.834	66.73
366.045	38.06
366.256	56.49
366.467	60.59
366.678	46.25
366.889	13.48
367.1	-15.19
367.311	111.78
367.522	-56.15
367.733	-9.05
367.944	23.72
368.155	40.11
368.366	1.19
368.577	60.59
368.788	103.59
368.999	36.01
369.209	15.53
369.42	54.44
369.631	101.55
369.842	21.67
370.053	-41.81
370.264	81.07
370.474	-23.38
370.685	13.48
370.896	11.43
371.107	17.58
371.317	21.67
371.528	-2.9
371.739	11.43
371.95	-11.09
372.16	48.3
372.371	40.11
372.582	38.06
372.792	7.34
373.003	33.96
373.214	17.58
373.424	-2.9
373.635	-68.44
373.846	66.73
374.056	40.11
374.267	-27.48
374.477	-9.05
374.688	38.06
374.898	44.2
375.109	-41.81
375.319	29.87
375.53	83.11
375.74	-29.52
375.951	109.74
376.161	-80.72
376.372	-72.53
376.582	29.87
376.793	25.77
377.003	27.82
377.214	40.11
377.424	19.63
377.635	7.34
377.845	-35.67
378.055	83.11
378.266	44.2
378.476	42.15
378.686	-23.38
378.897	-50
379.107	-37.72
379.317	48.3
379.528	27.82
379.738	3.24
379.948	31.91
380.158	-7
380.369	-2.9
380.579	85.16
380.789	13.48
380.999	27.82
381.21	23.72
381.42	64.68
381.63	-43.86
381.84	9.39
382.05	87.21
382.261	-19.29
382.471	64.68
382.681	64.68
382.891	40.11
383.101	56.49
383.311	-21.33
383.521	-0.85
383.731	31.91
383.941	-9.05
384.151	89.26
384.361	58.54
384.571	105.64
384.781	46.25
384.991	23.72
385.201	36.01
385.411	58.54
385.621	27.82
385.831	-107.35
386.041	15.53
386.251	134.31
386.461	107.69
386.671	89.26
386.881	60.59
387.091	36.01
387.301	19.63
387.511	-17.24
387.72	19.63
387.93	33.96
388.14	-2.9
388.35	46.25
388.56	25.77
388.769	19.63
388.979	42.15
389.189	-19.29
389.399	87.21
389.609	29.87
389.818	97.45
390.028	-11.09
390.238	56.49
390.447	70.83
390.657	23.72
390.867	48.3
391.076	50.35
391.286	11.43
391.496	52.39
391.705	19.63
391.915	134.31
392.125	58.54
392.334	31.91
392.544	52.39
392.753	85.16
392.963	-7
393.172	52.39
393.382	3.24
393.591	95.4
393.801	48.3
394.01	122.02
394.22	138.41
394.429	62.63
394.639	103.59
394.848	-7
395.058	76.97
395.267	165.03
395.477	40.11
395.686	56.49
395.895	62.63
396.105	42.15
396.314	48.3
396.524	134.31
396.733	50.35
396.942	46.25
397.152	95.4
397.361	33.96
397.57	66.73
397.78	46.25
397.989	56.49
398.198	130.22
398.407	-7
398.617	87.21
398.826	113.83
399.035	91.31
399.244	154.79
399.453	36.01
399.663	44.2
399.872	72.87
400.081	124.07
400.29	44.2
400.499	91.31
400.708	91.31
400.917	64.68
401.127	64.68
401.336	119.98
401.545	17.58
401.754	95.4
401.963	74.92
402.172	97.45
402.381	89.26
402.59	58.54
402.799	40.11
403.008	97.45
403.217	119.98
403.426	101.55
403.635	68.78
403.844	97.45
404.053	119.98
404.262	72.87
404.471	183.46
404.68	109.74
404.888	119.98
405.097	122.02
405.306	91.31
405.515	109.74
405.724	187.56
405.933	165.03
406.142	150.7
406.35	109.74
406.559	115.88
406.768	72.87
406.977	173.22
407.185	193.7
407.394	177.32
407.603	109.74
407.812	238.76
408.02	232.62
408.229	150.7
408.438	142.5
408.646	146.6
408.855	189.61
409.064	224.42
409.272	152.74
409.481	195.75
409.69	195.75
409.898	214.18
410.107	242.85
410.315	298.15
410.524	203.94
410.733	308.39
410.941	212.14
411.15	316.58
411.358	236.71
411.567	328.87
411.775	277.67
411.984	359.59
412.192	332.97
412.401	267.43
412.609	384.16
412.818	429.22
413.026	408.74
413.234	369.83
413.443	406.69
413.651	363.69
413.86	332.97
414.068	480.42
414.276	461.99
414.485	482.47
414.693	560.29
414.901	558.24
415.11	566.43
415.318	511.14
415.526	584.87
415.734	572.58
415.943	717.98
416.151	693.41
416.359	677.02
416.567	597.15
416.776	736.42
416.984	734.37
417.192	726.18
417.4	752.8
417.608	722.08
417.817	779.42
418.025	828.57
418.233	890.01
418.441	898.2
418.649	982.17
418.857	1006.75
419.065	1025.18
419.273	996.51
419.481	1082.52
419.689	1086.62
419.897	1119.39
420.105	1107.1
420.313	1180.82
420.521	1227.93
420.729	1229.98
420.937	1297.56
421.145	1311.89
421.353	1393.81
421.561	1430.68
421.769	1606.8
421.977	1535.12
422.185	1528.98
422.393	1666.19
422.601	1707.15
422.809	1641.62
423.017	1744.02
423.224	1918.09
423.432	1873.04
423.64	2030.73
423.848	2112.65
424.056	2104.46
424.263	2215.05
424.471	2188.43
424.679	2258.06
424.887	2409.61
425.094	2358.41
425.302	2477.19
425.51	2595.97
425.718	2681.99
425.925	2610.31
426.133	2813.06
426.341	2794.62
426.548	3112.06
426.756	3048.57
426.964	2991.23
427.171	3155.07
427.379	3335.29
427.586	3363.96
427.794	3443.83
428.001	3540.08
428.209	3775.6
428.417	3669.11
428.624	4029.55
428.832	4027.5
429.039	3976.3
429.247	3988.59
429.454	4326.5
429.662	4742.24
429.869	4310.12
430.076	4512.87
430.284	4516.97
430.491	4643.94
430.699	5041.25
430.906	4947.04
431.114	5137.5
431.321	5178.46
431.528	5157.98
431.736	5651.54
431.943	5925.97
432.15	5688.4
432.358	5940.3
432.565	6239.31
432.772	6136.91
432.979	6388.81
433.187	6663.24
433.394	6669.38
433.601	7023.68
433.808	7015.49
434.016	7171.13
434.223	7310.4
434.43	7719.99
434.637	7642.17
434.844	8076.34
435.052	8358.96
435.259	8051.76
435.466	8358.96
435.673	8260.65
435.88	8932.39
436.087	9307.16
436.294	9274.4
436.501	8797.22
436.708	9206.81
436.915	9643.03
437.122	9847.83
437.329	9925.65
437.537	10079.25
437.743	10419.21
437.95	10073.1
438.157	10910.72
438.364	11455.48
438.571	11211.78
438.778	11250.69
438.985	12213.23
439.192	11672.57
439.399	12332.01
439.606	11918.32
439.813	12565.48
440.02	13333.47
440.227	12803.05
440.433	12991.46
440.64	13386.72
440.847	13315.04
441.054	13618.14
441.261	14554.06
441.467	14326.74
441.674	14681.03
441.881	15207.36
442.088	15262.66
442.294	15043.53
442.501	15604.67
442.708	15600.57
442.914	16386.99
443.121	17302.43
443.328	16716.72
443.534	18092.95
443.741	17372.07
443.948	16905.13
444.154	18246.55
444.361	18113.43
444.568	18471.82
444.774	18461.58
444.981	18912.14
445.187	19104.65
445.394	19805.05
445.6	19716.99
445.807	21646.18
446.013	20673.39
446.22	21128.04
446.426	21670.75
446.633	21764.96
446.839	22909.77
447.046	21613.41
447.252	22922.06
447.459	23178.06
447.665	22973.26
447.871	24015.68
448.078	24752.94
448.284	23450.44
448.491	24421.17
448.697	25541.41
448.903	26116.89
449.11	25496.36
449.316	25572.13
449.522	25703.2
449.728	26598.16
449.935	26743.57
450.141	26772.24
450.347	27308.81
450.553	26219.29
450.76	26583.83
450.966	27550.47
451.172	27218.7
451.378	27753.22
451.584	27452.17
451.791	28300.03
451.997	27896.58
452.203	28365.56
452.409	28406.52
452.615	28109.57
452.821	27153.16
453.027	26702.61
453.233	28320.51
453.44	27089.68
453.646	27325.19
453.852	27405.06
454.058	27953.92
454.264	26970.9
454.47	27501.32
454.676	27138.83
454.882	27933.44
455.088	25625.38
455.294	25678.63
455.5	26268.44
455.705	26673.94
455.911	25250.6
456.117	25150.25
456.323	24613.68
456.529	23235.4
456.735	24226.62
456.941	23761.73
457.147	23229.26
457.352	22670.16
457.558	22301.53
457.764	22283.09
457.97	22061.91
458.176	21500.77
458.381	21230.44
458.587	20411.25
458.793	20382.58
458.999	19211.14
459.204	20700.01
459.41	20216.69
459.616	18959.24
459.821	18697.1
460.027	18715.53
460.233	18674.57
460.438	17550.24
460.644	17947.54
460.85	16731.05
461.055	16798.63
461.261	16550.83
461.466	15436.74
461.672	14754.76
461.878	16004.02
462.083	15168.45
462.289	14885.83
462.494	14570.44
462.7	14064.6
462.905	13466.59
463.111	14146.51
463.316	14187.47
463.522	13669.34
463.727	13839.32
463.932	13964.25
464.138	13839.32
464.343	13724.63
464.549	13315.04
464.754	13900.76
464.959	13380.57
465.165	13650.91
465.37	12960.74
465.575	12669.93
465.781	13163.49
465.986	12968.93
466.191	12524.52
466.397	12635.11
466.602	11637.75
466.807	12450.8
467.012	12104.69
467.218	12360.69
467.423	11918.32
467.628	12438.51
467.833	12559.34
