Data from USB4F104151__191__11-09-50-421.txt Node

Date: Wed Mar 12 11:09:50 EDT 2025
User: louis
Spectrometer: USB4F10415
Trigger mode: 4
Integration Time (sec): 2.000000E-2
Scans to average: 1
Electric dark correction enabled: true
Nonlinearity correction enabled: false
Boxcar width: 0
XAxis mode: Wavelengths
Number of Pixels in Spectrum: 3648
>>>>>Begin Spectral Data<<<<<
178.204	-61.78
178.424	-61.78
178.644	-61.78
178.864	-117.08
179.084	-65.88
179.304	46.76
179.524	-16.73
179.744	5.8
179.964	-43.35
180.184	75.43
180.404	-53.59
180.624	13.99
180.844	-59.73
181.064	-41.3
181.283	22.19
181.503	22.19
181.723	28.33
181.943	-90.45
182.163	20.14
182.383	36.52
182.602	46.76
182.822	-16.73
183.042	11.95
183.262	-10.58
183.482	-57.68
183.701	3.75
183.921	-4.44
184.141	81.58
184.361	65.19
184.58	16.04
184.8	13.99
185.02	-35.16
185.239	52.91
185.459	3.75
185.679	48.81
185.898	11.95
186.118	40.62
186.338	28.33
186.557	120.49
186.777	-8.53
186.997	-37.2
187.216	18.09
187.436	42.67
187.655	30.38
187.875	136.87
188.095	-55.64
188.314	-12.63
188.534	63.15
188.753	-14.68
188.973	-59.73
189.192	11.95
189.412	38.57
189.631	-29.01
189.851	1.71
190.07	-6.49
190.29	-2.39
190.509	-4.44
190.729	30.38
190.948	57
191.168	50.86
191.387	71.34
191.607	22.19
191.826	9.9
192.045	22.19
192.265	-22.87
192.484	-18.77
192.704	20.14
192.923	-57.68
193.142	40.62
193.362	57
193.581	38.57
193.8	34.47
194.02	36.52
194.239	24.23
194.458	-26.96
194.678	-2.39
194.897	9.9
195.116	28.33
195.335	5.8
195.555	-0.34
195.774	-14.68
195.993	-12.63
196.212	-18.77
196.432	-59.73
196.651	26.28
196.87	-45.4
197.089	9.9
197.308	44.71
197.528	67.24
197.747	-2.39
197.966	7.85
198.185	108.2
198.404	20.14
198.623	50.86
198.842	-8.53
199.062	7.85
199.281	73.39
199.5	-35.16
199.719	-8.53
199.938	-24.92
200.157	30.38
200.376	-47.44
200.595	-29.01
200.814	-20.82
201.033	59.05
201.252	63.15
201.471	5.8
201.69	-24.92
201.909	42.67
202.128	-20.82
202.347	-39.25
202.566	-24.92
202.785	-35.16
203.004	-31.06
203.223	57
203.442	-0.34
203.661	-35.16
203.879	63.15
204.098	52.91
204.317	3.75
204.536	89.77
204.755	-63.83
204.974	-20.82
205.193	-10.58
205.411	50.86
205.63	-6.49
205.849	3.75
206.068	-26.96
206.287	36.52
206.505	-31.06
206.724	-33.11
206.943	-8.53
207.162	-39.25
207.381	-41.3
207.599	16.04
207.818	30.38
208.037	-18.77
208.255	61.1
208.474	-4.44
208.693	52.91
208.911	-47.44
209.13	-22.87
209.349	5.8
209.567	9.9
209.786	-18.77
210.005	-2.39
210.223	-31.06
210.442	-29.01
210.661	67.24
210.879	-24.92
211.098	5.8
211.316	-35.16
211.535	100.01
211.753	-33.11
211.972	44.71
212.191	-0.34
212.409	-2.39
212.628	-45.4
212.846	40.62
213.065	30.38
213.283	22.19
213.502	16.04
213.72	-45.4
213.938	11.95
214.157	-53.59
214.375	-76.12
214.594	-10.58
214.812	-29.01
215.031	7.85
215.249	22.19
215.467	-61.78
215.686	-4.44
215.904	-33.11
216.122	-6.49
216.341	57
216.559	46.76
216.778	97.96
216.996	50.86
217.214	7.85
217.432	3.75
217.651	11.95
217.869	-18.77
218.087	-33.11
218.306	59.05
218.524	-29.01
218.742	-22.87
218.96	32.43
219.179	-6.49
219.397	52.91
219.615	54.95
219.833	-24.92
220.051	13.99
220.27	13.99
220.488	38.57
220.706	-4.44
220.924	20.14
221.142	16.04
221.36	-59.73
221.578	-0.34
221.796	16.04
222.015	-16.73
222.233	-33.11
222.451	-8.53
222.669	-51.54
222.887	28.33
223.105	30.38
223.323	-8.53
223.541	-69.97
223.759	-45.4
223.977	-33.11
224.195	42.67
224.413	-51.54
224.631	-8.53
224.849	-29.01
225.067	24.23
225.285	-55.64
225.503	61.1
225.721	-145.75
225.939	50.86
226.157	-33.11
226.375	89.77
226.592	-10.58
226.81	22.19
227.028	-65.88
227.246	24.23
227.464	-31.06
227.682	5.8
227.9	38.57
228.117	42.67
228.335	-41.3
228.553	-18.77
228.771	9.9
228.989	-22.87
229.206	5.8
229.424	-24.92
229.642	5.8
229.86	40.62
230.077	7.85
230.295	81.58
230.513	16.04
230.731	5.8
230.948	-18.77
231.166	42.67
231.384	18.09
231.601	-41.3
231.819	48.81
232.037	-57.68
232.254	59.05
232.472	-37.2
232.689	-49.49
232.907	91.82
233.125	7.85
233.342	91.82
233.56	16.04
233.777	32.43
233.995	-16.73
234.213	73.39
234.43	67.24
234.648	-69.97
234.865	-8.53
235.083	52.91
235.3	-20.82
235.518	20.14
235.735	18.09
235.953	3.75
236.17	-12.63
236.388	-20.82
236.605	30.38
236.822	44.71
237.04	-22.87
237.257	-12.63
237.475	-29.01
237.692	40.62
237.909	-0.34
238.127	44.71
238.344	-0.34
238.562	50.86
238.779	26.28
238.996	-49.49
239.214	5.8
239.431	-0.34
239.648	7.85
239.865	-26.96
240.083	22.19
240.3	7.85
240.517	-8.53
240.735	63.15
240.952	73.39
241.169	28.33
241.386	13.99
241.603	26.28
241.821	-49.49
242.038	79.53
242.255	11.95
242.472	-16.73
242.689	13.99
242.907	54.95
243.124	46.76
243.341	13.99
243.558	-2.39
243.775	93.87
243.992	-33.11
244.209	-57.68
244.426	52.91
244.643	42.67
244.86	-12.63
245.078	34.47
245.295	42.67
245.512	32.43
245.729	18.09
245.946	59.05
246.163	24.23
246.38	13.99
246.597	3.75
246.814	-12.63
247.031	81.58
247.248	-6.49
247.464	-6.49
247.681	13.99
247.898	67.24
248.115	1.71
248.332	11.95
248.549	36.52
248.766	-33.11
248.983	-6.49
249.2	44.71
249.417	28.33
249.633	18.09
249.85	-12.63
250.067	-22.87
250.284	24.23
250.501	11.95
250.717	-6.49
250.934	-16.73
251.151	16.04
251.368	24.23
251.585	-0.34
251.801	9.9
252.018	-10.58
252.235	-22.87
252.451	-22.87
252.668	32.43
252.885	54.95
253.102	-6.49
253.318	104.11
253.535	-24.92
253.752	30.38
253.968	-22.87
254.185	3.75
254.401	22.19
254.618	32.43
254.835	-22.87
255.051	112.3
255.268	50.86
255.484	40.62
255.701	44.71
255.917	32.43
256.134	-39.25
256.351	-61.78
256.567	-35.16
256.784	-37.2
257	32.43
257.217	40.62
257.433	-49.49
257.65	24.23
257.866	32.43
258.082	-14.68
258.299	-0.34
258.515	30.38
258.732	-20.82
258.948	-53.59
259.165	-20.82
259.381	16.04
259.597	-43.35
259.814	-2.39
260.03	-51.54
260.246	7.85
260.463	22.19
260.679	75.43
260.895	52.91
261.112	59.05
261.328	48.81
261.544	-49.49
261.761	61.1
261.977	32.43
262.193	36.52
262.409	-18.77
262.626	-6.49
262.842	75.43
263.058	5.8
263.274	40.62
263.49	87.72
263.707	22.19
263.923	-18.77
264.139	20.14
264.355	63.15
264.571	16.04
264.787	28.33
265.004	81.58
265.22	65.19
265.436	52.91
265.652	1.71
265.868	-61.78
266.084	32.43
266.3	46.76
266.516	22.19
266.732	65.19
266.948	20.14
267.164	-37.2
267.38	48.81
267.596	44.71
267.812	32.43
268.028	48.81
268.244	-41.3
268.46	30.38
268.676	28.33
268.892	-31.06
269.108	-12.63
269.324	65.19
269.54	-4.44
269.756	85.67
269.972	-20.82
270.188	-33.11
270.403	32.43
270.619	-26.96
270.835	44.71
271.051	24.23
271.267	-37.2
271.483	-18.77
271.698	-33.11
271.914	22.19
272.13	110.25
272.346	22.19
272.562	-4.44
272.777	16.04
272.993	13.99
273.209	-8.53
273.425	57
273.64	-29.01
273.856	5.8
274.072	52.91
274.287	22.19
274.503	16.04
274.719	-29.01
274.934	65.19
275.15	7.85
275.366	-8.53
275.581	-16.73
275.797	28.33
276.012	-18.77
276.228	71.34
276.444	57
276.659	40.62
276.875	89.77
277.09	18.09
277.306	-49.49
277.521	-78.16
277.737	20.14
277.952	48.81
278.168	24.23
278.383	3.75
278.599	-10.58
278.814	95.91
279.03	28.33
279.245	32.43
279.461	57
279.676	65.19
279.892	-49.49
280.107	-0.34
280.322	-10.58
280.538	13.99
280.753	-49.49
280.969	85.67
281.184	24.23
281.399	-74.07
281.615	32.43
281.83	34.47
282.045	-31.06
282.26	-63.83
282.476	46.76
282.691	3.75
282.906	-10.58
283.122	-16.73
283.337	16.04
283.552	26.28
283.767	-57.68
283.983	16.04
284.198	-18.77
284.413	46.76
284.628	-20.82
284.843	52.91
285.058	59.05
285.274	3.75
285.489	-88.4
285.704	65.19
285.919	13.99
286.134	-20.82
286.349	20.14
286.564	-29.01
286.779	16.04
286.995	42.67
287.21	34.47
287.425	-47.44
287.64	-26.96
287.855	3.75
288.07	-76.12
288.285	-45.4
288.5	-84.31
288.715	30.38
288.93	-65.88
289.145	30.38
289.36	3.75
289.575	34.47
289.79	-49.49
290.004	24.23
290.219	36.52
290.434	-29.01
290.649	-37.2
290.864	89.77
291.079	-35.16
291.294	3.75
291.509	7.85
291.724	34.47
291.938	-12.63
292.153	-39.25
292.368	-4.44
292.583	-8.53
292.798	81.58
293.012	11.95
293.227	-63.83
293.442	44.71
293.657	54.95
293.871	13.99
294.086	75.43
294.301	52.91
294.516	61.1
294.73	-39.25
294.945	-57.68
295.16	48.81
295.374	7.85
295.589	-29.01
295.804	24.23
296.018	-8.53
296.233	16.04
296.447	11.95
296.662	34.47
296.877	9.9
297.091	13.99
297.306	-45.4
297.52	-41.3
297.735	-22.87
297.949	-35.16
298.164	42.67
298.378	13.99
298.593	65.19
298.807	-2.39
299.022	59.05
299.236	-2.39
299.451	-20.82
299.665	-51.54
299.88	69.29
300.094	-82.26
300.309	-2.39
300.523	-31.06
300.737	32.43
300.952	-8.53
301.166	-43.35
301.381	124.58
301.595	59.05
301.809	-39.25
302.024	28.33
302.238	-4.44
302.452	40.62
302.667	30.38
302.881	87.72
303.095	57
303.309	59.05
303.524	-33.11
303.738	-4.44
303.952	-39.25
304.166	93.87
304.381	-10.58
304.595	26.28
304.809	42.67
305.023	44.71
305.237	-0.34
305.452	-35.16
305.666	20.14
305.88	-24.92
306.094	54.95
306.308	20.14
306.522	-14.68
306.736	20.14
306.95	69.29
307.164	26.28
307.379	26.28
307.593	36.52
307.807	-16.73
308.021	32.43
308.235	36.52
308.449	50.86
308.663	-0.34
308.877	95.91
309.091	-82.26
309.305	20.14
309.519	20.14
309.733	79.53
309.947	-39.25
310.161	16.04
310.374	52.91
310.588	20.14
310.802	-37.2
311.016	-12.63
311.23	18.09
311.444	-41.3
311.658	48.81
311.872	24.23
312.085	34.47
312.299	-22.87
312.513	44.71
312.727	-20.82
312.941	-16.73
313.154	7.85
313.368	-31.06
313.582	22.19
313.796	7.85
314.009	11.95
314.223	100.01
314.437	116.39
314.651	-2.39
314.864	34.47
315.078	26.28
315.292	-10.58
315.505	-49.49
315.719	-59.73
315.933	-8.53
316.146	54.95
316.36	-39.25
316.573	28.33
316.787	-43.35
317.001	1.71
317.214	-4.44
317.428	18.09
317.641	1.71
317.855	18.09
318.068	-57.68
318.282	-16.73
318.495	22.19
318.709	61.1
318.922	16.04
319.136	9.9
319.349	46.76
319.563	-33.11
319.776	63.15
319.99	-37.2
320.203	61.1
320.417	18.09
320.63	-31.06
320.843	-39.25
321.057	7.85
321.27	20.14
321.483	22.19
321.697	77.48
321.91	34.47
322.124	-69.97
322.337	3.75
322.55	-10.58
322.763	46.76
322.977	24.23
323.19	-26.96
323.403	75.43
323.617	32.43
323.83	108.2
324.043	5.8
324.256	44.71
324.469	1.71
324.683	-33.11
324.896	-6.49
325.109	42.67
325.322	-10.58
325.535	61.1
325.748	-16.73
325.962	-31.06
326.175	46.76
326.388	11.95
326.601	32.43
326.814	-20.82
327.027	30.38
327.24	65.19
327.453	-16.73
327.666	79.53
327.879	11.95
328.092	38.57
328.305	85.67
328.518	-10.58
328.731	30.38
328.944	85.67
329.157	-2.39
329.37	38.57
329.583	46.76
329.796	59.05
330.009	-31.06
330.222	57
330.435	18.09
330.648	-12.63
330.861	5.8
331.073	42.67
331.286	44.71
331.499	24.23
331.712	-39.25
331.925	7.85
332.138	5.8
332.35	69.29
332.563	-14.68
332.776	-14.68
332.989	13.99
333.202	40.62
333.414	-65.88
333.627	38.57
333.84	-74.07
334.053	57
334.265	-18.77
334.478	-41.3
334.691	-41.3
334.903	34.47
335.116	18.09
335.329	-76.12
335.541	22.19
335.754	57
335.966	54.95
336.179	24.23
336.392	1.71
336.604	46.76
336.817	54.95
337.029	97.96
337.242	-49.49
337.454	-0.34
337.667	61.1
337.88	-31.06
338.092	24.23
338.305	30.38
338.517	28.33
338.729	30.38
338.942	16.04
339.154	1.71
339.367	7.85
339.579	-16.73
339.792	-74.07
340.004	-26.96
340.217	30.38
340.429	-4.44
340.641	40.62
340.854	36.52
341.066	59.05
341.278	36.52
341.491	57
341.703	46.76
341.915	-18.77
342.128	22.19
342.34	65.19
342.552	65.19
342.764	50.86
342.977	5.8
343.189	-39.25
343.401	-14.68
343.613	26.28
343.826	16.04
344.038	32.43
344.25	-10.58
344.462	-0.34
344.674	32.43
344.886	118.44
345.099	65.19
345.311	13.99
345.523	-49.49
345.735	-26.96
345.947	5.8
346.159	20.14
346.371	26.28
346.583	44.71
346.795	-29.01
347.007	34.47
347.219	20.14
347.431	7.85
347.643	-12.63
347.855	26.28
348.067	-18.77
348.279	-49.49
348.491	18.09
348.703	9.9
348.915	3.75
349.127	-6.49
349.339	22.19
349.551	97.96
349.763	79.53
349.975	22.19
350.187	32.43
350.399	71.34
350.61	-2.39
350.822	61.1
351.034	32.43
351.246	5.8
351.458	-16.73
351.669	26.28
351.881	1.71
352.093	-20.82
352.305	52.91
352.517	-69.97
352.728	5.8
352.94	-4.44
353.152	-41.3
353.363	61.1
353.575	42.67
353.787	48.81
353.999	-29.01
354.21	44.71
354.422	81.58
354.633	20.14
354.845	73.39
355.057	-47.44
355.268	40.62
355.48	50.86
355.692	7.85
355.903	-4.44
356.115	-4.44
356.326	-12.63
356.538	-0.34
356.749	-29.01
356.961	42.67
357.172	32.43
357.384	-33.11
357.595	67.24
357.807	-86.36
358.018	-12.63
358.23	-59.73
358.441	46.76
358.653	57
358.864	-24.92
359.075	28.33
359.287	5.8
359.498	57
359.709	46.76
359.921	40.62
360.132	9.9
360.344	32.43
360.555	5.8
360.766	-43.35
360.977	57
361.189	1.71
361.4	-59.73
361.611	16.04
361.823	48.81
362.034	-41.3
362.245	11.95
362.456	-2.39
362.667	24.23
362.879	69.29
363.09	34.47
363.301	30.38
363.512	85.67
363.723	59.05
363.935	-2.39
364.146	26.28
364.357	-35.16
364.568	-0.34
364.779	3.75
364.99	57
365.201	-2.39
365.412	9.9
365.623	106.15
365.834	20.14
366.045	16.04
366.256	16.04
366.467	-14.68
366.678	26.28
366.889	5.8
367.1	46.76
367.311	1.71
367.522	11.95
367.733	11.95
367.944	-57.68
368.155	73.39
368.366	46.76
368.577	36.52
368.788	20.14
368.999	-10.58
369.209	-2.39
369.42	1.71
369.631	38.57
369.842	28.33
370.053	-8.53
370.264	22.19
370.474	59.05
370.685	18.09
370.896	63.15
371.107	-16.73
371.317	106.15
371.528	-6.49
371.739	40.62
371.95	-65.88
372.16	-14.68
372.371	-0.34
372.582	30.38
372.792	7.85
373.003	-53.59
373.214	-29.01
373.424	32.43
373.635	-8.53
373.846	-2.39
374.056	36.52
374.267	-12.63
374.477	24.23
374.688	59.05
374.898	38.57
375.109	61.1
375.319	54.95
375.53	20.14
375.74	3.75
375.951	38.57
376.161	13.99
376.372	69.29
376.582	1.71
376.793	13.99
377.003	-20.82
377.214	-2.39
377.424	9.9
377.635	67.24
377.845	-20.82
378.055	48.81
378.266	-4.44
378.476	75.43
378.686	-4.44
378.897	-10.58
379.107	61.1
379.317	75.43
379.528	-39.25
379.738	50.86
379.948	32.43
380.158	36.52
380.369	-26.96
380.579	24.23
380.789	30.38
380.999	26.28
381.21	-29.01
381.42	18.09
381.63	97.96
381.84	73.39
382.05	46.76
382.261	20.14
382.471	67.24
382.681	-20.82
382.891	75.43
383.101	65.19
383.311	-12.63
383.521	16.04
383.731	28.33
383.941	81.58
384.151	22.19
384.361	61.1
384.571	-0.34
384.781	-0.34
384.991	3.75
385.201	44.71
385.411	-2.39
385.621	63.15
385.831	32.43
386.041	65.19
386.251	-49.49
386.461	-10.58
386.671	26.28
386.881	28.33
387.091	-37.2
387.301	-6.49
387.511	-37.2
387.72	52.91
387.93	30.38
388.14	26.28
388.35	18.09
388.56	89.77
388.769	-10.58
388.979	24.23
389.189	28.33
389.399	95.91
389.609	61.1
389.818	32.43
390.028	34.47
390.238	52.91
390.447	-2.39
390.657	114.34
390.867	65.19
391.076	57
391.286	40.62
391.496	87.72
391.705	-0.34
391.915	11.95
392.125	-16.73
392.334	-31.06
392.544	-0.34
392.753	30.38
392.963	42.67
393.172	-8.53
393.382	16.04
393.591	79.53
393.801	-6.49
394.01	26.28
394.22	61.1
394.429	-20.82
394.639	20.14
394.848	-16.73
395.058	77.48
395.267	120.49
395.477	11.95
395.686	5.8
395.895	79.53
396.105	112.3
396.314	73.39
396.524	26.28
396.733	40.62
396.942	32.43
397.152	40.62
397.361	36.52
397.57	-2.39
397.78	3.75
397.989	13.99
398.198	44.71
398.407	34.47
398.617	24.23
398.826	7.85
399.035	46.76
399.244	114.34
399.453	108.2
399.663	32.43
399.872	44.71
400.081	85.67
400.29	44.71
400.499	50.86
400.708	77.48
400.917	-20.82
401.127	91.82
401.336	48.81
401.545	79.53
401.754	18.09
401.963	59.05
402.172	-16.73
402.381	18.09
402.59	34.47
402.799	73.39
403.008	104.11
403.217	63.15
403.426	87.72
403.635	48.81
403.844	52.91
404.053	59.05
404.262	42.67
404.471	138.92
404.68	26.28
404.888	108.2
405.097	36.52
405.306	153.26
405.515	61.1
405.724	36.52
405.933	75.43
406.142	102.06
406.35	69.29
406.559	140.97
406.768	75.43
406.977	95.91
407.185	130.73
407.394	50.86
407.603	93.87
407.812	175.78
408.02	134.82
408.229	126.63
408.438	108.2
408.646	102.06
408.855	71.34
409.064	159.4
409.272	124.58
409.481	194.22
409.69	118.44
409.898	175.78
410.107	165.54
410.315	220.84
410.524	200.36
410.733	108.2
410.941	181.93
411.15	233.13
411.358	188.07
411.567	190.12
411.775	188.07
411.984	181.93
412.192	206.5
412.401	310.95
412.609	233.13
412.818	208.55
413.026	198.31
413.234	161.45
413.443	333.48
413.651	290.47
413.86	286.37
414.068	374.44
414.276	345.77
414.485	323.24
414.693	370.34
414.901	349.86
415.11	370.34
415.318	329.38
415.526	339.62
415.734	386.72
415.943	411.3
416.151	468.64
416.359	423.59
416.567	480.93
416.776	495.27
416.984	532.13
417.192	568.99
417.4	507.55
417.608	515.75
417.817	540.32
418.025	595.62
418.233	626.34
418.441	673.44
418.649	562.85
418.857	636.58
419.065	743.07
419.273	734.88
419.481	693.92
419.689	765.6
419.897	886.43
420.105	800.41
420.313	892.57
420.521	872.09
420.729	843.42
420.937	1044.12
421.145	868
421.353	935.58
421.561	1068.7
421.769	1031.83
421.977	1101.47
422.185	1068.7
422.393	1060.51
422.601	1089.18
422.809	1255.06
423.017	1167
423.224	1214.1
423.432	1357.46
423.64	1326.74
423.848	1539.73
424.056	1336.98
424.263	1556.11
424.471	1642.13
424.679	1611.41
424.887	1674.9
425.094	1650.32
425.302	1715.86
425.51	1701.52
425.718	1724.05
425.925	1793.68
426.133	1883.79
426.341	2064.01
426.548	2131.59
426.756	2166.41
426.964	2188.94
427.171	2221.7
427.379	2236.04
427.586	2385.54
427.794	2451.08
428.001	2598.53
428.209	2477.7
428.417	2602.63
428.624	2825.86
428.832	2721.41
429.039	2752.13
429.247	2696.83
429.454	2907.77
429.662	3354.23
429.869	2991.74
430.076	3106.43
430.284	3092.09
430.491	3266.17
430.699	3612.28
430.906	3464.82
431.114	3501.69
431.321	3628.66
431.528	3581.56
431.736	3866.22
431.943	4200.04
432.15	3989.1
432.358	4073.07
432.565	4236.91
432.772	4220.52
432.979	4429.42
433.187	4472.42
433.394	4535.91
433.601	4892.26
433.808	4939.36
434.016	4796
434.223	5011.04
434.43	5369.43
434.637	5283.42
434.844	5563.99
435.052	5766.74
435.259	5731.92
435.466	5768.79
435.673	5631.57
435.88	6028.88
436.087	6454.86
436.294	6467.14
436.501	6217.29
436.708	6241.87
436.915	6538.82
437.122	6848.07
437.329	6729.28
437.537	6813.25
437.743	7016
437.95	7054.91
438.157	7564.86
438.364	7593.53
438.571	7636.53
438.778	7630.39
438.985	8619.56
439.192	8138.29
439.399	8226.35
439.606	8078.9
439.813	8652.33
440.02	9156.13
440.227	8924.71
440.433	8724.01
440.64	9145.89
440.847	9205.28
441.054	9137.7
441.261	9836.05
441.467	9686.55
441.674	10003.99
441.881	10206.73
442.088	10294.8
442.294	10030.61
442.501	10501.64
442.708	10911.24
442.914	11304.45
443.121	11658.74
443.328	11322.88
443.534	12060.15
443.741	11677.18
443.948	11501.05
444.154	12678.63
444.361	12156.4
444.568	12621.29
444.774	12410.35
444.981	12629.48
445.187	13245.92
445.394	13622.75
445.6	13252.06
445.807	14724.55
446.013	13987.29
446.22	14271.95
446.426	14910.92
446.633	14812.62
446.839	15340.99
447.046	14738.89
447.252	15654.33
447.459	15435.2
447.665	15830.46
447.871	16270.77
448.078	16942.5
448.284	16098.74
448.491	16399.79
448.697	17175.97
448.903	17485.22
449.11	17692.06
449.316	17161.64
449.522	17405.35
449.728	17849.75
449.935	18206.1
450.141	18150.81
450.347	18505.1
450.553	18005.4
450.76	17966.49
450.966	18496.91
451.172	18455.95
451.378	18720.14
451.584	18509.2
451.791	18824.59
451.997	18896.27
452.203	19174.79
452.409	19017.1
452.615	19273.09
452.821	18474.38
453.027	18275.73
453.233	19072.39
453.44	18359.7
453.646	18529.68
453.852	18662.8
454.058	18757
454.264	18048.41
454.47	18783.63
454.676	18091.41
454.882	18670.99
455.088	17104.29
455.294	17436.06
455.5	17700.25
455.705	17993.11
455.911	17096.1
456.117	16733.61
456.323	16674.22
456.529	15652.28
456.735	16219.57
456.941	15764.92
457.147	15693.24
457.352	15187.39
457.558	14824.9
457.764	15203.78
457.97	14773.71
458.176	14308.82
458.381	14607.82
458.587	13729.24
458.793	13549.02
458.999	13077.99
459.204	13721.05
459.41	13569.5
459.616	12727.78
459.821	12629.48
460.027	12447.21
460.233	12277.23
460.438	11601.4
460.644	11945.46
460.85	11271.68
461.055	11202.05
461.261	11054.59
461.466	10317.33
461.672	9993.75
461.878	10679.82
462.083	9948.69
462.289	9776.66
462.494	9573.91
462.7	9346.59
462.905	9104.93
463.111	9397.79
463.316	9510.43
463.522	9141.79
463.727	9063.97
463.932	9123.36
464.138	8918.56
464.343	9063.97
464.549	8822.31
464.754	9166.37
464.959	9104.93
465.165	8965.67
465.37	8629.8
465.575	8252.97
465.781	8838.69
465.986	8805.92
466.191	8482.35
466.397	8093.23
466.602	7847.47
466.807	8156.72
467.012	8156.72
467.218	7919.15
467.423	7843.38
467.628	8140.33
467.833	8263.21
468.038	8003.12
468.244	7960.11
