Data from USB4F104151__50__11-05-38-568.txt Node

Date: Wed Mar 12 11:05:38 EDT 2025
User: louis
Spectrometer: USB4F10415
Trigger mode: 4
Integration Time (sec): 2.000000E-2
Scans to average: 1
Electric dark correction enabled: true
Nonlinearity correction enabled: false
Boxcar width: 0
XAxis mode: Wavelengths
Number of Pixels in Spectrum: 3648
>>>>>Begin Spectral Data<<<<<
178.204	-28.33
178.424	-28.33
178.644	-28.33
178.864	-79.53
179.084	-48.81
179.304	18.77
179.524	31.06
179.744	-28.33
179.964	-9.9
180.184	-22.19
180.404	-24.23
180.624	-32.43
180.844	49.49
181.064	37.2
181.283	-30.38
181.503	2.39
181.723	8.53
181.943	-11.95
182.163	51.54
182.383	-34.47
182.602	8.53
182.822	-24.23
183.042	-93.87
183.262	18.77
183.482	61.78
183.701	2.39
183.921	10.58
184.141	16.73
184.361	-30.38
184.58	-7.85
184.8	16.73
185.02	14.68
185.239	26.96
185.459	22.87
185.679	53.59
185.898	0.34
186.118	86.36
186.338	31.06
186.557	94.55
186.777	31.06
186.997	-5.8
187.216	-54.95
187.436	33.11
187.655	72.02
187.875	72.02
188.095	24.92
188.314	10.58
188.534	78.16
188.753	63.83
188.973	86.36
189.192	88.4
189.412	12.63
189.631	57.68
189.851	47.44
190.07	12.63
190.29	-7.85
190.509	8.53
190.729	8.53
190.948	90.45
191.168	88.4
191.387	94.55
191.607	-7.85
191.826	41.3
192.045	41.3
192.265	37.2
192.484	-13.99
192.704	-34.47
192.923	-34.47
193.142	20.82
193.362	37.2
193.581	117.08
193.8	20.82
194.02	-16.04
194.239	49.49
194.458	51.54
194.678	82.26
194.897	51.54
195.116	65.88
195.335	18.77
195.555	59.73
195.774	55.64
195.993	35.16
196.212	18.77
196.432	10.58
196.651	-22.19
196.87	41.3
197.089	59.73
197.308	59.73
197.528	65.88
197.747	47.44
197.966	16.73
198.185	57.68
198.404	80.21
198.623	4.44
198.842	0.34
199.062	-3.75
199.281	72.02
199.5	0.34
199.719	72.02
199.938	20.82
200.157	20.82
200.376	0.34
200.595	55.64
200.814	0.34
201.033	10.58
201.252	80.21
201.471	26.96
201.69	55.64
201.909	0.34
202.128	6.49
202.347	20.82
202.566	39.25
202.785	8.53
203.004	49.49
203.223	102.74
203.442	49.49
203.661	102.74
203.879	45.4
204.098	78.16
204.317	-1.71
204.536	31.06
204.755	74.07
204.974	63.83
205.193	49.49
205.411	41.3
205.63	55.64
205.849	18.77
206.068	-1.71
206.287	74.07
206.505	112.98
206.724	-3.75
206.943	45.4
207.162	8.53
207.381	24.92
207.599	-3.75
207.818	-7.85
208.037	-34.47
208.255	80.21
208.474	-9.9
208.693	0.34
208.911	39.25
209.13	10.58
209.349	12.63
209.567	29.01
209.786	104.79
210.005	63.83
210.223	10.58
210.442	-36.52
210.661	6.49
210.879	86.36
211.098	8.53
211.316	-7.85
211.535	127.32
211.753	51.54
211.972	69.97
212.191	6.49
212.409	8.53
212.628	33.11
212.846	37.2
213.065	18.77
213.283	94.55
213.502	-3.75
213.72	-7.85
213.938	51.54
214.157	12.63
214.375	24.92
214.594	4.44
214.812	33.11
215.031	29.01
215.249	-24.23
215.467	86.36
215.686	6.49
215.904	37.2
216.122	-52.91
216.341	110.93
216.559	8.53
216.778	-5.8
216.996	96.6
217.214	43.35
217.432	35.16
217.651	33.11
217.869	8.53
218.087	-11.95
218.306	0.34
218.524	86.36
218.742	35.16
218.96	-20.14
219.179	4.44
219.397	-26.28
219.615	78.16
219.833	-18.09
220.051	49.49
220.27	22.87
220.488	41.3
220.706	39.25
220.924	55.64
221.142	31.06
221.36	-28.33
221.578	102.74
221.796	4.44
222.015	65.88
222.233	55.64
222.451	41.3
222.669	37.2
222.887	74.07
223.105	82.26
223.323	-28.33
223.541	86.36
223.759	31.06
223.977	26.96
224.195	41.3
224.413	-11.95
224.631	29.01
224.849	47.44
225.067	82.26
225.285	0.34
225.503	72.02
225.721	39.25
225.939	10.58
226.157	4.44
226.375	90.45
226.592	-36.52
226.81	72.02
227.028	67.92
227.246	45.4
227.464	22.87
227.682	-9.9
227.9	-1.71
228.117	80.21
228.335	-7.85
228.553	53.59
228.771	51.54
228.989	86.36
229.206	65.88
229.424	39.25
229.642	-34.47
229.86	49.49
230.077	37.2
230.295	82.26
230.513	33.11
230.731	51.54
230.948	29.01
231.166	65.88
231.384	10.58
231.601	24.92
231.819	96.6
232.037	14.68
232.254	-32.43
232.472	100.69
232.689	-22.19
232.907	86.36
233.125	49.49
233.342	22.87
233.56	24.92
233.777	-5.8
233.995	4.44
234.213	59.73
234.43	10.58
234.648	63.83
234.865	41.3
235.083	61.78
235.3	86.36
235.518	94.55
235.735	24.92
235.953	102.74
236.17	96.6
236.388	2.39
236.605	33.11
236.822	53.59
237.04	41.3
237.257	29.01
237.475	80.21
237.692	8.53
237.909	57.68
238.127	-16.04
238.344	20.82
238.562	29.01
238.779	29.01
238.996	20.82
239.214	53.59
239.431	10.58
239.648	63.83
239.865	61.78
240.083	-18.09
240.3	10.58
240.517	-22.19
240.735	-11.95
240.952	16.73
241.169	20.82
241.386	49.49
241.603	41.3
241.821	-16.04
242.038	37.2
242.255	20.82
242.472	37.2
242.689	45.4
242.907	6.49
243.124	29.01
243.341	22.87
243.558	14.68
243.775	-30.38
243.992	8.53
244.209	-1.71
244.426	39.25
244.643	59.73
244.86	33.11
245.078	76.12
245.295	14.68
245.512	-13.99
245.729	90.45
245.946	-7.85
246.163	-3.75
246.38	139.6
246.597	-11.95
246.814	53.59
247.031	61.78
247.248	12.63
247.464	26.96
247.681	12.63
247.898	88.4
248.115	39.25
248.332	45.4
248.549	82.26
248.766	31.06
248.983	57.68
249.2	90.45
249.417	20.82
249.633	53.59
249.85	26.96
250.067	51.54
250.284	69.97
250.501	96.6
250.717	51.54
250.934	39.25
251.151	55.64
251.368	108.88
251.585	31.06
251.801	-34.47
252.018	45.4
252.235	59.73
252.451	41.3
252.668	74.07
252.885	59.73
253.102	76.12
253.318	-18.09
253.535	61.78
253.752	47.44
253.968	35.16
254.185	47.44
254.401	55.64
254.618	29.01
254.835	47.44
255.051	4.44
255.268	16.73
255.484	-9.9
255.701	-13.99
255.917	57.68
256.134	76.12
256.351	33.11
256.567	12.63
256.784	82.26
257	8.53
257.217	39.25
257.433	31.06
257.65	63.83
257.866	12.63
258.082	-65.19
258.299	-22.19
258.515	65.88
258.732	86.36
258.948	-11.95
259.165	16.73
259.381	12.63
259.597	-13.99
259.814	86.36
260.03	-28.33
260.246	33.11
260.463	92.5
260.679	33.11
260.895	63.83
261.112	33.11
261.328	76.12
261.544	41.3
261.761	90.45
261.977	4.44
262.193	26.96
262.409	65.88
262.626	88.4
262.842	49.49
263.058	14.68
263.274	55.64
263.49	69.97
263.707	-7.85
263.923	63.83
264.139	72.02
264.355	65.88
264.571	35.16
264.787	-3.75
265.004	63.83
265.22	16.73
265.436	8.53
265.652	12.63
265.868	65.88
266.084	-50.86
266.3	-22.19
266.516	37.2
266.732	20.82
266.948	33.11
267.164	24.92
267.38	86.36
267.596	4.44
267.812	78.16
268.028	14.68
268.244	-9.9
268.46	51.54
268.676	104.79
268.892	69.97
269.108	-40.62
269.324	-1.71
269.54	12.63
269.756	72.02
269.972	80.21
270.188	26.96
270.403	33.11
270.619	53.59
270.835	47.44
271.051	59.73
271.267	24.92
271.483	33.11
271.698	22.87
271.914	2.39
272.13	-9.9
272.346	12.63
272.562	29.01
272.777	149.84
272.993	41.3
273.209	10.58
273.425	80.21
273.64	-3.75
273.856	82.26
274.072	51.54
274.287	-20.14
274.503	106.84
274.719	55.64
274.934	65.88
275.15	43.35
275.366	88.4
275.581	43.35
275.797	49.49
276.012	-7.85
276.228	-20.14
276.444	61.78
276.659	47.44
276.875	-9.9
277.09	45.4
277.306	18.77
277.521	31.06
277.737	31.06
277.952	43.35
278.168	88.4
278.383	94.55
278.599	43.35
278.814	84.31
279.03	69.97
279.245	98.64
279.461	82.26
279.676	65.88
279.892	100.69
280.107	49.49
280.322	67.92
280.538	-13.99
280.753	-1.71
280.969	61.78
281.184	90.45
281.399	61.78
281.615	-5.8
281.83	39.25
282.045	-5.8
282.26	76.12
282.476	2.39
282.691	51.54
282.906	4.44
283.122	10.58
283.337	-18.09
283.552	102.74
283.767	26.96
283.983	18.77
284.198	-13.99
284.413	18.77
284.628	-28.33
284.843	137.56
285.058	155.99
285.274	33.11
285.489	0.34
285.704	8.53
285.919	-32.43
286.134	37.2
286.349	-5.8
286.564	61.78
286.779	82.26
286.995	53.59
287.21	43.35
287.425	20.82
287.64	63.83
287.855	80.21
288.07	-28.33
288.285	18.77
288.5	72.02
288.715	110.93
288.93	33.11
289.145	10.58
289.36	26.96
289.575	39.25
289.79	39.25
290.004	53.59
290.219	88.4
290.434	45.4
290.649	-11.95
290.864	8.53
291.079	88.4
291.294	57.68
291.509	-13.99
291.724	74.07
291.938	53.59
292.153	-7.85
292.368	22.87
292.583	49.49
292.798	104.79
293.012	39.25
293.227	6.49
293.442	-13.99
293.657	39.25
293.871	24.92
294.086	63.83
294.301	108.88
294.516	12.63
294.73	86.36
294.945	45.4
295.16	12.63
295.374	67.92
295.589	35.16
295.804	72.02
296.018	16.73
296.233	61.78
296.447	16.73
296.662	43.35
296.877	26.96
297.091	47.44
297.306	-9.9
297.52	67.92
297.735	127.32
297.949	4.44
298.164	110.93
298.378	33.11
298.593	74.07
298.807	14.68
299.022	45.4
299.236	37.2
299.451	-9.9
299.665	94.55
299.88	39.25
300.094	69.97
300.309	16.73
300.523	-24.23
300.737	4.44
300.952	16.73
301.166	92.5
301.381	18.77
301.595	80.21
301.809	47.44
302.024	57.68
302.238	41.3
302.452	86.36
302.667	29.01
302.881	90.45
303.095	53.59
303.309	78.16
303.524	102.74
303.738	2.39
303.952	45.4
304.166	-16.04
304.381	-5.8
304.595	59.73
304.809	61.78
305.023	31.06
305.237	86.36
305.452	82.26
305.666	45.4
305.88	22.87
306.094	72.02
306.308	74.07
306.522	92.5
306.736	98.64
306.95	20.82
307.164	129.36
307.379	82.26
307.593	78.16
307.807	57.68
308.021	33.11
308.235	55.64
308.449	53.59
308.663	-24.23
308.877	55.64
309.091	8.53
309.305	49.49
309.519	-77.48
309.733	6.49
309.947	-3.75
310.161	51.54
310.374	76.12
310.588	26.96
310.802	37.2
311.016	41.3
311.23	31.06
311.444	59.73
311.658	16.73
311.872	61.78
312.085	33.11
312.299	-7.85
312.513	100.69
312.727	78.16
312.941	20.82
313.154	24.92
313.368	-3.75
313.582	47.44
313.796	41.3
314.009	14.68
314.223	82.26
314.437	22.87
314.651	35.16
314.864	-1.71
315.078	74.07
315.292	100.69
315.505	96.6
315.719	-16.04
315.933	-32.43
316.146	55.64
316.36	-13.99
316.573	51.54
316.787	33.11
317.001	14.68
317.214	18.77
317.428	84.31
317.641	4.44
317.855	35.16
318.068	10.58
318.282	22.87
318.495	51.54
318.709	33.11
318.922	74.07
319.136	43.35
319.349	51.54
319.563	35.16
319.776	-20.14
319.99	14.68
320.203	-48.81
320.417	51.54
320.63	8.53
320.843	63.83
321.057	4.44
321.27	20.82
321.483	108.88
321.697	147.8
321.91	10.58
322.124	47.44
322.337	59.73
322.55	12.63
322.763	41.3
322.977	10.58
323.19	-20.14
323.403	49.49
323.617	29.01
323.83	53.59
324.043	29.01
324.256	63.83
324.469	-5.8
324.683	43.35
324.896	63.83
325.109	86.36
325.322	20.82
325.535	18.77
325.748	59.73
325.962	-52.91
326.175	41.3
326.388	65.88
326.601	57.68
326.814	67.92
327.027	69.97
327.24	41.3
327.453	6.49
327.666	37.2
327.879	72.02
328.092	82.26
328.305	33.11
328.518	63.83
328.731	39.25
328.944	55.64
329.157	14.68
329.37	63.83
329.583	37.2
329.796	63.83
330.009	6.49
330.222	-16.04
330.435	8.53
330.648	51.54
330.861	33.11
331.073	61.78
331.286	35.16
331.499	78.16
331.712	29.01
331.925	20.82
332.138	12.63
332.35	139.6
332.563	6.49
332.776	35.16
332.989	24.92
333.202	-40.62
333.414	63.83
333.627	43.35
333.84	-1.71
334.053	39.25
334.265	18.77
334.478	96.6
334.691	106.84
334.903	35.16
335.116	53.59
335.329	29.01
335.541	92.5
335.754	131.41
335.966	53.59
336.179	53.59
336.392	-3.75
336.604	41.3
336.817	24.92
337.029	57.68
337.242	14.68
337.454	61.78
337.667	59.73
337.88	76.12
338.092	112.98
338.305	43.35
338.517	-22.19
338.729	37.2
338.942	76.12
339.154	-18.09
339.367	26.96
339.579	72.02
339.792	49.49
340.004	31.06
340.217	2.39
340.429	24.92
340.641	69.97
340.854	-34.47
341.066	-3.75
341.278	78.16
341.491	49.49
341.703	80.21
341.915	63.83
342.128	53.59
342.34	59.73
342.552	35.16
342.764	90.45
342.977	49.49
343.189	53.59
343.401	47.44
343.613	72.02
343.826	80.21
344.038	67.92
344.25	63.83
344.462	22.87
344.674	51.54
344.886	41.3
345.099	72.02
345.311	63.83
345.523	63.83
345.735	51.54
345.947	41.3
346.159	55.64
346.371	41.3
346.583	20.82
346.795	133.46
347.007	-26.28
347.219	24.92
347.431	-5.8
347.643	82.26
347.855	-20.14
348.067	94.55
348.279	98.64
348.491	16.73
348.703	24.92
348.915	53.59
349.127	39.25
349.339	12.63
349.551	-48.81
349.763	92.5
349.975	-32.43
350.187	-3.75
350.399	49.49
350.61	-5.8
350.822	45.4
351.034	12.63
351.246	14.68
351.458	106.84
351.669	-3.75
351.881	127.32
352.093	112.98
352.305	61.78
352.517	102.74
352.728	94.55
352.94	39.25
353.152	22.87
353.363	4.44
353.575	72.02
353.787	80.21
353.999	90.45
354.21	69.97
354.422	102.74
354.633	82.26
354.845	24.92
355.057	65.88
355.268	22.87
355.48	67.92
355.692	45.4
355.903	82.26
356.115	12.63
356.326	14.68
356.538	158.03
356.749	22.87
356.961	49.49
357.172	16.73
357.384	-20.14
357.595	92.5
357.807	88.4
358.018	20.82
358.23	78.16
358.441	67.92
358.653	69.97
358.864	33.11
359.075	61.78
359.287	61.78
359.498	145.75
359.709	31.06
359.921	72.02
360.132	74.07
360.344	67.92
360.555	29.01
360.766	65.88
360.977	12.63
361.189	110.93
361.4	-42.67
361.611	12.63
361.823	29.01
362.034	33.11
362.245	72.02
362.456	37.2
362.667	104.79
362.879	-36.52
363.09	49.49
363.301	45.4
363.512	96.6
363.723	78.16
363.935	4.44
364.146	86.36
364.357	18.77
364.568	78.16
364.779	14.68
364.99	57.68
365.201	16.73
365.412	137.56
365.623	29.01
365.834	59.73
366.045	57.68
366.256	16.73
366.467	47.44
366.678	61.78
366.889	45.4
367.1	8.53
367.311	35.16
367.522	112.98
367.733	63.83
367.944	33.11
368.155	29.01
368.366	88.4
368.577	88.4
368.788	63.83
368.999	0.34
369.209	55.64
369.42	47.44
369.631	135.51
369.842	74.07
370.053	-1.71
370.264	24.92
370.474	-44.71
370.685	53.59
370.896	35.16
371.107	141.65
371.317	33.11
371.528	98.64
371.739	51.54
371.95	51.54
372.16	14.68
372.371	84.31
372.582	80.21
372.792	51.54
373.003	121.17
373.214	59.73
373.424	37.2
373.635	-32.43
373.846	82.26
374.056	78.16
374.267	6.49
374.477	78.16
374.688	92.5
374.898	59.73
375.109	45.4
375.319	69.97
375.53	65.88
375.74	33.11
375.951	29.01
376.161	10.58
376.372	53.59
376.582	16.73
376.793	110.93
377.003	-1.71
377.214	8.53
377.424	39.25
377.635	102.74
377.845	94.55
378.055	16.73
378.266	47.44
378.476	80.21
378.686	2.39
378.897	78.16
379.107	49.49
379.317	20.82
379.528	69.97
379.738	106.84
379.948	-69.29
380.158	39.25
380.369	33.11
380.579	33.11
380.789	33.11
380.999	-36.52
381.21	37.2
381.42	115.03
381.63	14.68
381.84	8.53
382.05	-9.9
382.261	72.02
382.471	76.12
382.681	102.74
382.891	78.16
383.101	16.73
383.311	26.96
383.521	61.78
383.731	51.54
383.941	47.44
384.151	74.07
384.361	45.4
384.571	8.53
384.781	-7.85
384.991	16.73
385.201	72.02
385.411	67.92
385.621	41.3
385.831	61.78
386.041	104.79
386.251	37.2
386.461	98.64
386.671	-42.67
386.881	37.2
387.091	-5.8
387.301	74.07
387.511	72.02
387.72	90.45
387.93	16.73
388.14	67.92
388.35	45.4
388.56	20.82
388.769	96.6
388.979	129.36
389.189	43.35
389.399	55.64
389.609	67.92
389.818	78.16
390.028	-3.75
390.238	18.77
390.447	0.34
390.657	37.2
390.867	33.11
391.076	24.92
391.286	24.92
391.496	14.68
391.705	31.06
391.915	110.93
392.125	162.13
392.334	20.82
392.544	86.36
392.753	72.02
392.963	-7.85
393.172	57.68
393.382	41.3
393.591	143.7
393.801	57.68
394.01	57.68
394.22	57.68
394.429	86.36
394.639	59.73
394.848	112.98
395.058	106.84
395.267	90.45
395.477	110.93
395.686	141.65
395.895	94.55
396.105	115.03
396.314	49.49
396.524	115.03
396.733	100.69
396.942	92.5
397.152	123.22
397.361	131.41
397.57	100.69
397.78	88.4
397.989	96.6
398.198	123.22
398.407	137.56
398.617	86.36
398.826	51.54
399.035	74.07
399.244	26.96
399.453	151.89
399.663	37.2
399.872	80.21
400.081	78.16
400.29	121.17
400.499	135.51
400.708	162.13
400.917	112.98
401.127	22.87
401.336	141.65
401.545	104.79
401.754	145.75
401.963	92.5
402.172	88.4
402.381	45.4
402.59	96.6
402.799	94.55
403.008	123.22
403.217	106.84
403.426	123.22
403.635	115.03
403.844	86.36
404.053	133.46
404.262	96.6
404.471	108.88
404.68	158.03
404.888	160.08
405.097	61.78
405.306	147.8
405.515	147.8
405.724	141.65
405.933	192.85
406.142	168.27
406.35	149.84
406.559	160.08
406.768	196.95
406.977	186.71
407.185	143.7
407.394	186.71
407.603	110.93
407.812	180.56
408.02	213.33
408.229	184.66
408.438	184.66
408.646	201.04
408.855	237.91
409.064	194.9
409.272	178.51
409.481	164.18
409.69	176.47
409.898	160.08
410.107	272.72
410.315	215.38
410.524	266.58
410.733	217.43
410.941	268.63
411.15	313.68
411.358	389.46
411.567	307.54
411.775	256.34
411.984	321.87
412.192	317.78
412.401	381.26
412.609	385.36
412.818	377.17
413.026	336.21
413.234	430.41
413.443	430.41
413.651	493.9
413.86	493.9
414.068	493.9
414.276	457.04
414.485	508.24
414.693	514.38
414.901	602.44
415.11	543.05
415.318	590.16
415.526	602.44
415.734	584.01
415.943	667.98
416.151	721.23
416.359	686.41
416.567	678.22
416.776	680.27
416.984	821.58
417.192	776.52
417.4	801.1
417.608	772.43
417.817	848.2
418.025	983.37
418.233	950.6
418.441	874.82
418.649	987.46
418.857	999.75
419.065	1014.09
419.273	1018.18
419.481	1020.23
419.689	1085.76
419.897	1233.22
420.105	1249.6
420.313	1253.7
420.521	1259.84
420.729	1282.37
420.937	1349.95
421.145	1333.57
421.353	1456.45
421.561	1603.9
421.769	1524.03
421.977	1657.15
422.185	1450.3
422.393	1751.35
422.601	1751.35
422.809	1798.46
423.017	1818.94
423.224	1878.33
423.432	1950.01
423.64	2001.21
423.848	2167.09
424.056	2154.8
424.263	2228.53
424.471	2160.95
424.679	2292.02
424.887	2623.79
425.094	2533.68
425.302	2552.11
425.51	2505.01
425.718	2779.43
425.925	2746.67
426.133	2804.01
426.341	2885.93
426.548	3103.01
426.756	3053.86
426.964	3100.97
427.171	3277.09
427.379	3352.87
427.586	3440.93
427.794	3545.38
428.001	3746.08
428.209	3875.1
428.417	3924.25
428.624	4073.75
428.832	4045.08
429.039	3981.59
429.247	4118.81
429.454	4483.34
429.662	4745.48
429.869	4456.72
430.076	4806.92
430.284	4679.95
430.491	4747.53
430.699	5042.44
430.906	5155.08
431.114	5259.53
431.321	5247.24
431.528	5423.36
431.736	5699.84
431.943	5947.64
432.15	5828.86
432.358	5906.68
432.565	6332.66
432.772	6234.36
432.979	6590.7
433.187	6457.59
433.394	6691.06
433.601	7162.09
433.808	7155.94
434.016	7291.11
434.223	7508.19
434.43	7803.1
434.637	7715.04
434.844	8159.45
435.052	8409.3
435.259	8358.1
435.466	8237.27
435.673	8356.05
435.88	8925.39
436.087	9224.39
436.294	9427.14
436.501	9081.03
436.708	9222.34
436.915	9625.79
437.122	9904.32
437.329	10045.63
437.537	10100.92
437.743	10596.53
437.95	10252.47
438.157	10817.71
438.364	11219.11
438.571	11296.94
438.778	11329.7
438.985	12581.01
439.192	11944.1
439.399	12052.64
439.606	12062.88
439.813	12667.03
440.02	13547.65
440.227	13140.11
440.433	13076.62
440.64	13725.83
440.847	13365.39
441.054	13777.03
441.261	14682.23
441.467	14356.6
441.674	14702.71
441.881	15331.44
442.088	15204.46
442.294	15147.12
442.501	15487.08
442.708	16132.19
442.914	16470.11
443.121	17113.17
443.328	16537.69
443.534	17883.2
443.741	17406.03
443.948	17016.91
444.154	18526.27
444.361	18219.07
444.568	18657.34
444.774	18610.23
444.981	18583.61
445.187	19173.42
445.394	20064.29
445.6	19832.87
445.807	21575.69
446.013	20645.91
446.22	20971.54
446.426	21909.51
446.633	22198.27
446.839	22851.58
447.046	21719.05
447.252	23232.5
447.459	23234.55
447.665	23171.06
447.871	23832.55
448.078	24891.35
448.284	23351.28
448.491	24678.36
448.697	25466.83
448.903	25935.82
449.11	25731.02
449.316	25558.99
449.522	25966.54
449.728	26613.7
449.935	26558.4
450.141	26662.85
450.347	27504.56
450.553	26492.87
450.76	26609.6
450.966	27469.75
451.172	27230.13
451.378	27867.05
451.584	27418.55
451.791	27912.11
451.997	27654.06
452.203	28186.54
452.409	28301.22
452.615	28088.23
452.821	27273.14
453.027	26687.42
453.233	28229.54
453.44	27094.97
453.646	27099.06
453.852	27377.59
454.058	27529.14
454.264	27064.25
454.47	27176.89
454.676	26695.61
454.882	27660.21
455.088	24823.77
455.294	25303
455.5	25638.86
455.705	25921.48
455.911	24862.68
456.117	24369.12
456.323	24317.92
456.529	22761.47
456.735	23904.23
456.941	23175.16
457.147	22763.51
457.352	21925.89
457.558	21788.68
457.764	21729.29
457.97	21356.56
458.176	20815.9
458.381	20912.15
458.587	19818.53
458.793	19922.98
458.999	18708.54
459.204	20086.82
459.41	19443.76
459.616	18036.8
459.821	18307.13
460.027	18047.04
460.233	17891.4
460.438	16717.91
460.644	17082.45
460.85	16308.32
461.055	15982.69
461.261	15945.83
461.466	14792.82
461.672	14684.28
461.878	15464.55
462.083	14313.59
462.289	14340.22
462.494	14059.65
462.7	13260.94
462.905	12974.22
463.111	13576.33
463.316	13578.37
463.522	13115.53
463.727	13293.71
463.932	13097.1
464.138	13224.08
464.343	13351.05
464.549	12763.28
464.754	13179.02
464.959	13158.54
465.165	13017.23
465.37	12316.83
465.575	12089.5
465.781	12642.45
465.986	12722.32
466.191	12392.6
466.397	11853.98
466.602	11491.49
466.807	11696.29
467.012	11870.37
467.218	11755.68
467.423	11538.6
467.628	11935.9
467.833	12322.97
468.038	11692.19
468.244	11477.16
468.449	11925.66
468.654	11462.82
