Data from USB4F104151__28__11-05-09-592.txt Node

Date: Wed Mar 12 11:05:09 EDT 2025
User: louis
Spectrometer: USB4F10415
Trigger mode: 4
Integration Time (sec): 2.000000E-2
Scans to average: 1
Electric dark correction enabled: true
Nonlinearity correction enabled: false
Boxcar width: 0
XAxis mode: Wavelengths
Number of Pixels in Spectrum: 3648
>>>>>Begin Spectral Data<<<<<
178.204	-58.71
178.424	-58.71
178.644	-58.71
178.864	-64.85
179.084	-77.14
179.304	-5.46
179.524	6.83
179.744	15.02
179.964	55.98
180.184	-19.8
180.404	-3.41
180.624	-13.65
180.844	-46.42
181.064	-21.84
181.283	-7.51
181.503	55.98
181.723	-15.7
181.943	-13.65
182.163	-36.18
182.383	-32.08
182.602	10.92
182.822	10.92
183.042	-21.84
183.262	23.21
183.482	27.31
183.701	-44.37
183.921	-1.37
184.141	-44.37
184.361	55.98
184.58	43.69
184.8	-36.18
185.02	15.02
185.239	101.03
185.459	109.23
185.679	115.37
185.898	21.16
186.118	72.36
186.338	88.75
186.557	10.92
186.777	10.92
186.997	51.88
187.216	-19.8
187.436	55.98
187.655	64.17
187.875	27.31
188.095	51.88
188.314	23.21
188.534	84.65
188.753	76.46
188.973	12.97
189.192	66.22
189.412	-5.46
189.631	23.21
189.851	19.11
190.07	76.46
190.29	29.35
190.509	-13.65
190.729	2.73
190.948	62.12
191.168	80.55
191.387	8.87
191.607	17.07
191.826	12.97
192.045	-13.65
192.265	53.93
192.484	53.93
192.704	17.07
192.923	64.17
193.142	90.79
193.362	78.51
193.581	47.79
193.8	53.93
194.02	51.88
194.239	47.79
194.458	15.02
194.678	-42.32
194.897	-38.23
195.116	39.59
195.335	72.36
195.555	39.59
195.774	109.23
195.993	76.46
196.212	60.07
196.432	74.41
196.651	0.68
196.87	31.4
197.089	98.99
197.308	-30.04
197.528	21.16
197.747	12.97
197.966	74.41
198.185	37.55
198.404	15.02
198.623	31.4
198.842	74.41
199.062	-3.41
199.281	133.8
199.5	64.17
199.719	2.73
199.938	39.59
200.157	23.21
200.376	25.26
200.595	10.92
200.814	17.07
201.033	12.97
201.252	35.5
201.471	29.35
201.69	43.69
201.909	41.64
202.128	35.5
202.347	33.45
202.566	27.31
202.785	96.94
203.004	37.55
203.223	96.94
203.442	-5.46
203.661	53.93
203.879	6.83
204.098	35.5
204.317	27.31
204.536	58.03
204.755	78.51
204.974	117.42
205.193	39.59
205.411	84.65
205.63	86.7
205.849	88.75
206.068	64.17
206.287	-11.61
206.505	31.4
206.724	-32.08
206.943	51.88
207.162	2.73
207.381	-13.65
207.599	23.21
207.818	45.74
208.037	29.35
208.255	15.02
208.474	-32.08
208.693	74.41
208.911	-3.41
209.13	0.68
209.349	62.12
209.567	27.31
209.786	25.26
210.005	39.59
210.223	33.45
210.442	2.73
210.661	31.4
210.879	-30.04
211.098	43.69
211.316	74.41
211.535	62.12
211.753	39.59
211.972	33.45
212.191	2.73
212.409	27.31
212.628	6.83
212.846	113.32
213.065	-30.04
213.283	107.18
213.502	53.93
213.72	31.4
213.938	47.79
214.157	58.03
214.375	25.26
214.594	101.03
214.812	27.31
215.031	6.83
215.249	76.46
215.467	19.11
215.686	37.55
215.904	103.08
216.122	21.16
216.341	33.45
216.559	31.4
216.778	43.69
216.996	33.45
217.214	82.6
217.432	0.68
217.651	53.93
217.869	8.87
218.087	-34.13
218.306	64.17
218.524	90.79
218.742	68.27
218.96	84.65
219.179	84.65
219.397	58.03
219.615	68.27
219.833	49.83
220.051	33.45
220.27	92.84
220.488	39.59
220.706	94.89
220.924	4.78
221.142	-9.56
221.36	74.41
221.578	10.92
221.796	74.41
222.015	45.74
222.233	51.88
222.451	27.31
222.669	-21.84
222.887	-17.75
223.105	58.03
223.323	60.07
223.541	-19.8
223.759	2.73
223.977	86.7
224.195	90.79
224.413	105.13
224.631	47.79
224.849	31.4
225.067	90.79
225.285	-11.61
225.503	-3.41
225.721	4.78
225.939	88.75
226.157	25.26
226.375	170.66
226.592	17.07
226.81	72.36
227.028	123.56
227.246	55.98
227.464	45.74
227.682	23.21
227.9	45.74
228.117	29.35
228.335	-56.66
228.553	58.03
228.771	68.27
228.989	31.4
229.206	51.88
229.424	74.41
229.642	41.64
229.86	94.89
230.077	74.41
230.295	80.55
230.513	15.02
230.731	74.41
230.948	64.17
231.166	66.22
231.384	68.27
231.601	55.98
231.819	55.98
232.037	-9.56
232.254	41.64
232.472	19.11
232.689	19.11
232.907	107.18
233.125	78.51
233.342	8.87
233.56	12.97
233.777	2.73
233.995	25.26
234.213	101.03
234.43	113.32
234.648	47.79
234.865	74.41
235.083	45.74
235.3	0.68
235.518	62.12
235.735	62.12
235.953	111.27
236.17	35.5
236.388	19.11
236.605	58.03
236.822	49.83
237.04	51.88
237.257	51.88
237.475	27.31
237.692	41.64
237.909	55.98
238.127	-25.94
238.344	66.22
238.562	17.07
238.779	68.27
238.996	-11.61
239.214	43.69
239.431	8.87
239.648	41.64
239.865	-27.99
240.083	51.88
240.3	47.79
240.517	-50.52
240.735	21.16
240.952	90.79
241.169	31.4
241.386	62.12
241.603	43.69
241.821	-1.37
242.038	55.98
242.255	49.83
242.472	-1.37
242.689	27.31
242.907	31.4
243.124	78.51
243.341	29.35
243.558	55.98
243.775	-62.8
243.992	37.55
244.209	74.41
244.426	64.17
244.643	74.41
244.86	41.64
245.078	17.07
245.295	96.94
245.512	35.5
245.729	62.12
245.946	-9.56
246.163	135.85
246.38	70.31
246.597	58.03
246.814	72.36
247.031	84.65
247.248	156.33
247.464	41.64
247.681	-9.56
247.898	35.5
248.115	88.75
248.332	51.88
248.549	53.93
248.766	39.59
248.983	-1.37
249.2	98.99
249.417	103.08
249.633	-13.65
249.85	51.88
250.067	-7.51
250.284	8.87
250.501	19.11
250.717	101.03
250.934	31.4
251.151	37.55
251.368	15.02
251.585	53.93
251.801	53.93
252.018	39.59
252.235	103.08
252.451	-5.46
252.668	-11.61
252.885	23.21
253.102	25.26
253.318	135.85
253.535	-62.8
253.752	53.93
253.968	8.87
254.185	17.07
254.401	51.88
254.618	17.07
254.835	31.4
255.051	109.23
255.268	-21.84
255.484	64.17
255.701	37.55
255.917	103.08
256.134	-21.84
256.351	84.65
256.567	113.32
256.784	45.74
257	39.59
257.217	19.11
257.433	84.65
257.65	92.84
257.866	10.92
258.082	15.02
258.299	23.21
258.515	49.83
258.732	49.83
258.948	66.22
259.165	49.83
259.381	-23.89
259.597	-19.8
259.814	15.02
260.03	33.45
260.246	33.45
260.463	72.36
260.679	80.55
260.895	33.45
261.112	51.88
261.328	37.55
261.544	21.16
261.761	70.31
261.977	8.87
262.193	-17.75
262.409	31.4
262.626	80.55
262.842	55.98
263.058	-9.56
263.274	88.75
263.49	117.42
263.707	96.94
263.923	39.59
264.139	47.79
264.355	84.65
264.571	4.78
264.787	12.97
265.004	101.03
265.22	10.92
265.436	19.11
265.652	47.79
265.868	12.97
266.084	4.78
266.3	31.4
266.516	35.5
266.732	15.02
266.948	62.12
267.164	74.41
267.38	45.74
267.596	-1.37
267.812	19.11
268.028	45.74
268.244	55.98
268.46	37.55
268.676	76.46
268.892	-1.37
269.108	35.5
269.324	15.02
269.54	121.51
269.756	19.11
269.972	55.98
270.188	86.7
270.403	-3.41
270.619	47.79
270.835	37.55
271.051	35.5
271.267	51.88
271.483	-46.42
271.698	29.35
271.914	68.27
272.13	39.59
272.346	-25.94
272.562	-32.08
272.777	58.03
272.993	43.69
273.209	82.6
273.425	21.16
273.64	39.59
273.856	86.7
274.072	58.03
274.287	12.97
274.503	70.31
274.719	-23.89
274.934	43.69
275.15	-7.51
275.366	4.78
275.581	15.02
275.797	66.22
276.012	4.78
276.228	25.26
276.444	72.36
276.659	94.89
276.875	-11.61
277.09	-13.65
277.306	-40.28
277.521	27.31
277.737	68.27
277.952	37.55
278.168	53.93
278.383	74.41
278.599	31.4
278.814	45.74
279.03	-34.13
279.245	-5.46
279.461	2.73
279.676	47.79
279.892	8.87
280.107	-9.56
280.322	-13.65
280.538	31.4
280.753	78.51
280.969	-50.52
281.184	10.92
281.399	60.07
281.615	4.78
281.83	58.03
282.045	25.26
282.26	-66.9
282.476	6.83
282.691	101.03
282.906	58.03
283.122	43.69
283.337	53.93
283.552	103.08
283.767	-1.37
283.983	51.88
284.198	53.93
284.413	98.99
284.628	-17.75
284.843	78.51
285.058	64.17
285.274	47.79
285.489	4.78
285.704	27.31
285.919	-30.04
286.134	51.88
286.349	15.02
286.564	19.11
286.779	37.55
286.995	51.88
287.21	60.07
287.425	90.79
287.64	51.88
287.855	74.41
288.07	23.21
288.285	70.31
288.5	62.12
288.715	41.64
288.93	80.55
289.145	12.97
289.36	19.11
289.575	60.07
289.79	101.03
290.004	92.84
290.219	76.46
290.434	29.35
290.649	17.07
290.864	39.59
291.079	41.64
291.294	10.92
291.509	15.02
291.724	41.64
291.938	39.59
292.153	78.51
292.368	12.97
292.583	43.69
292.798	98.99
293.012	6.83
293.227	53.93
293.442	15.02
293.657	101.03
293.871	76.46
294.086	78.51
294.301	101.03
294.516	37.55
294.73	96.94
294.945	0.68
295.16	86.7
295.374	39.59
295.589	-1.37
295.804	-3.41
296.018	35.5
296.233	33.45
296.447	103.08
296.662	8.87
296.877	51.88
297.091	21.16
297.306	47.79
297.52	29.35
297.735	60.07
297.949	58.03
298.164	139.94
298.378	-27.99
298.593	64.17
298.807	47.79
299.022	78.51
299.236	96.94
299.451	10.92
299.665	-9.56
299.88	43.69
300.094	60.07
300.309	51.88
300.523	29.35
300.737	49.83
300.952	33.45
301.166	35.5
301.381	113.32
301.595	72.36
301.809	-21.84
302.024	17.07
302.238	80.55
302.452	78.51
302.667	117.42
302.881	-54.61
303.095	60.07
303.309	12.97
303.524	-30.04
303.738	4.78
303.952	58.03
304.166	64.17
304.381	-7.51
304.595	60.07
304.809	29.35
305.023	55.98
305.237	39.59
305.452	31.4
305.666	117.42
305.88	53.93
306.094	72.36
306.308	43.69
306.522	64.17
306.736	55.98
306.95	51.88
307.164	68.27
307.379	76.46
307.593	107.18
307.807	-44.37
308.021	139.94
308.235	43.69
308.449	25.26
308.663	19.11
308.877	96.94
309.091	72.36
309.305	53.93
309.519	45.74
309.733	72.36
309.947	-52.56
310.161	-30.04
310.374	21.16
310.588	39.59
310.802	21.16
311.016	31.4
311.23	117.42
311.444	-11.61
311.658	41.64
311.872	21.16
312.085	51.88
312.299	-5.46
312.513	51.88
312.727	80.55
312.941	49.83
313.154	105.13
313.368	25.26
313.582	27.31
313.796	35.5
314.009	49.83
314.223	64.17
314.437	68.27
314.651	35.5
314.864	78.51
315.078	103.08
315.292	33.45
315.505	27.31
315.719	68.27
315.933	84.65
316.146	2.73
316.36	-11.61
316.573	76.46
316.787	98.99
317.001	37.55
317.214	-7.51
317.428	55.98
317.641	-38.23
317.855	121.51
318.068	21.16
318.282	45.74
318.495	55.98
318.709	51.88
318.922	-60.76
319.136	47.79
319.349	105.13
319.563	113.32
319.776	80.55
319.99	19.11
320.203	103.08
320.417	96.94
320.63	-11.61
320.843	64.17
321.057	49.83
321.27	4.78
321.483	39.59
321.697	47.79
321.91	62.12
322.124	125.61
322.337	60.07
322.55	60.07
322.763	88.75
322.977	21.16
323.19	86.7
323.403	117.42
323.617	66.22
323.83	96.94
324.043	31.4
324.256	135.85
324.469	-17.75
324.683	98.99
324.896	-30.04
325.109	103.08
325.322	-5.46
325.535	105.13
325.748	72.36
325.962	45.74
326.175	68.27
326.388	60.07
326.601	121.51
326.814	84.65
327.027	80.55
327.24	90.79
327.453	105.13
327.666	33.45
327.879	109.23
328.092	66.22
328.305	101.03
328.518	25.26
328.731	74.41
328.944	80.55
329.157	125.61
329.37	-13.65
329.583	15.02
329.796	58.03
330.009	53.93
330.222	45.74
330.435	64.17
330.648	51.88
330.861	25.26
331.073	103.08
331.286	117.42
331.499	-9.56
331.712	12.97
331.925	72.36
332.138	60.07
332.35	2.73
332.563	6.83
332.776	148.14
332.989	55.98
333.202	51.88
333.414	12.97
333.627	17.07
333.84	23.21
334.053	33.45
334.265	6.83
334.478	72.36
334.691	39.59
334.903	80.55
335.116	78.51
335.329	-27.99
335.541	19.11
335.754	53.93
335.966	115.37
336.179	76.46
336.392	25.26
336.604	-44.37
336.817	72.36
337.029	39.59
337.242	-11.61
337.454	119.46
337.667	-19.8
337.88	131.75
338.092	25.26
338.305	90.79
338.517	17.07
338.729	35.5
338.942	68.27
339.154	31.4
339.367	29.35
339.579	68.27
339.792	35.5
340.004	-19.8
340.217	53.93
340.429	82.6
340.641	39.59
340.854	47.79
341.066	66.22
341.278	64.17
341.491	125.61
341.703	19.11
341.915	78.51
342.128	53.93
342.34	21.16
342.552	76.46
342.764	64.17
342.977	172.71
343.189	58.03
343.401	152.23
343.613	-30.04
343.826	86.7
344.038	27.31
344.25	53.93
344.462	88.75
344.674	33.45
344.886	55.98
345.099	68.27
345.311	62.12
345.523	92.84
345.735	98.99
345.947	94.89
346.159	62.12
346.371	15.02
346.583	-19.8
346.795	80.55
347.007	96.94
347.219	105.13
347.431	86.7
347.643	41.64
347.855	17.07
348.067	33.45
348.279	8.87
348.491	113.32
348.703	109.23
348.915	60.07
349.127	27.31
349.339	72.36
349.551	31.4
349.763	35.5
349.975	88.75
350.187	84.65
350.399	55.98
350.61	60.07
350.822	25.26
351.034	101.03
351.246	41.64
351.458	64.17
351.669	105.13
351.881	115.37
352.093	51.88
352.305	10.92
352.517	49.83
352.728	98.99
352.94	19.11
353.152	139.94
353.363	58.03
353.575	123.56
353.787	88.75
353.999	84.65
354.21	23.21
354.422	17.07
354.633	41.64
354.845	68.27
355.057	41.64
355.268	4.78
355.48	23.21
355.692	-5.46
355.903	60.07
356.115	80.55
356.326	-27.99
356.538	-38.23
356.749	41.64
356.961	105.13
357.172	41.64
357.384	15.02
357.595	84.65
357.807	29.35
358.018	10.92
358.23	88.75
358.441	133.8
358.653	76.46
358.864	17.07
359.075	35.5
359.287	92.84
359.498	88.75
359.709	21.16
359.921	78.51
360.132	109.23
360.344	88.75
360.555	15.02
360.766	35.5
360.977	51.88
361.189	53.93
361.4	86.7
361.611	64.17
361.823	21.16
362.034	117.42
362.245	19.11
362.456	17.07
362.667	31.4
362.879	76.46
363.09	15.02
363.301	144.04
363.512	64.17
363.723	43.69
363.935	96.94
364.146	98.99
364.357	37.55
364.568	-25.94
364.779	29.35
364.99	60.07
365.201	31.4
365.412	103.08
365.623	60.07
365.834	8.87
366.045	47.79
366.256	27.31
366.467	35.5
366.678	68.27
366.889	80.55
367.1	68.27
367.311	64.17
367.522	55.98
367.733	-1.37
367.944	-15.7
368.155	21.16
368.366	137.9
368.577	139.94
368.788	68.27
368.999	103.08
369.209	17.07
369.42	49.83
369.631	127.66
369.842	49.83
370.053	66.22
370.264	96.94
370.474	41.64
370.685	35.5
370.896	41.64
371.107	88.75
371.317	78.51
371.528	-17.75
371.739	80.55
371.95	133.8
372.16	0.68
372.371	33.45
372.582	43.69
372.792	51.88
373.003	90.79
373.214	15.02
373.424	21.16
373.635	-34.13
373.846	35.5
374.056	55.98
374.267	64.17
374.477	80.55
374.688	41.64
374.898	25.26
375.109	55.98
375.319	47.79
375.53	62.12
375.74	84.65
375.951	37.55
376.161	21.16
376.372	70.31
376.582	51.88
376.793	51.88
377.003	137.9
377.214	115.37
377.424	37.55
377.635	72.36
377.845	60.07
378.055	111.27
378.266	51.88
378.476	60.07
378.686	86.7
378.897	39.59
379.107	88.75
379.317	129.7
379.528	25.26
379.738	127.66
379.948	37.55
380.158	76.46
380.369	60.07
380.579	101.03
380.789	43.69
380.999	60.07
381.21	78.51
381.42	111.27
381.63	84.65
381.84	64.17
382.05	19.11
382.261	68.27
382.471	76.46
382.681	68.27
382.891	135.85
383.101	76.46
383.311	35.5
383.521	96.94
383.731	60.07
383.941	39.59
384.151	35.5
384.361	78.51
384.571	98.99
384.781	82.6
384.991	84.65
385.201	98.99
385.411	15.02
385.621	68.27
385.831	47.79
386.041	68.27
386.251	-11.61
386.461	109.23
386.671	68.27
386.881	33.45
387.091	64.17
387.301	6.83
387.511	88.75
387.72	15.02
387.93	90.79
388.14	51.88
388.35	80.55
388.56	74.41
388.769	94.89
388.979	111.27
389.189	107.18
389.399	27.31
389.609	43.69
389.818	55.98
390.028	39.59
390.238	68.27
390.447	43.69
390.657	72.36
390.867	82.6
391.076	25.26
391.286	78.51
391.496	41.64
391.705	105.13
391.915	4.78
392.125	94.89
392.334	84.65
392.544	82.6
392.753	146.09
392.963	68.27
393.172	150.18
393.382	10.92
393.591	137.9
393.801	43.69
394.01	90.79
394.22	49.83
394.429	129.7
394.639	94.89
394.848	139.94
395.058	90.79
395.267	88.75
395.477	10.92
395.686	117.42
395.895	199.34
396.105	127.66
396.314	137.9
396.524	101.03
396.733	131.75
396.942	-3.41
397.152	49.83
397.361	158.38
397.57	209.58
397.78	127.66
397.989	27.31
398.198	115.37
398.407	129.7
398.617	141.99
398.826	105.13
399.035	119.46
399.244	94.89
399.453	121.51
399.663	96.94
399.872	105.13
400.081	92.84
400.29	144.04
400.499	82.6
400.708	125.61
400.917	47.79
401.127	131.75
401.336	80.55
401.545	160.42
401.754	193.19
401.963	148.14
402.172	80.55
402.381	125.61
402.59	23.21
402.799	127.66
403.008	197.29
403.217	117.42
403.426	82.6
403.635	152.23
403.844	137.9
404.053	96.94
404.262	121.51
404.471	180.9
404.68	125.61
404.888	178.86
405.097	107.18
405.306	107.18
405.515	141.99
405.724	166.57
405.933	141.99
406.142	164.52
406.35	129.7
406.559	193.19
406.768	178.86
406.977	191.14
407.185	264.87
407.394	303.78
407.603	158.38
407.812	246.44
408.02	174.76
408.229	164.52
408.438	201.38
408.646	244.39
408.855	185
409.064	201.38
409.272	307.88
409.481	332.45
409.69	252.58
409.898	266.92
410.107	299.69
410.315	334.5
410.524	268.97
410.733	342.69
410.941	311.97
411.15	369.32
411.358	289.45
411.567	408.23
411.775	365.22
411.984	348.84
412.192	359.08
412.401	410.28
412.609	510.63
412.818	471.72
413.026	422.56
413.234	438.95
413.443	424.61
413.651	430.76
413.86	555.68
414.068	547.49
414.276	572.07
414.485	488.1
414.693	563.87
414.901	633.51
415.11	629.41
415.318	647.84
415.526	625.31
415.734	707.23
415.943	742.05
416.151	713.38
416.359	770.72
416.567	875.17
416.776	856.73
416.984	871.07
417.192	944.8
417.4	885.41
417.608	895.65
417.817	981.66
418.025	1098.39
418.233	1034.91
418.441	1047.19
418.649	1047.19
418.857	1194.65
419.065	1290.9
419.273	1251.99
419.481	1305.24
419.689	1297.05
419.897	1264.28
420.105	1401.49
420.313	1399.45
420.521	1456.79
420.729	1548.95
420.937	1630.87
421.145	1583.76
421.353	1657.49
421.561	1757.84
421.769	1823.37
421.977	1868.43
422.185	1811.09
422.393	2028.17
422.601	2138.76
422.809	2046.6
423.017	2224.78
423.224	2198.15
423.432	2259.59
423.64	2318.98
423.848	2439.81
424.056	2351.75
424.263	2540.16
424.471	2611.84
424.679	2728.58
424.887	2796.16
425.094	2820.74
425.302	2902.65
425.51	3070.59
425.718	3023.48
425.925	3232.38
426.133	3316.34
426.341	3469.94
426.548	3652.21
426.756	3631.73
426.964	3617.4
427.171	3930.73
427.379	3996.27
427.586	4121.2
427.794	4039.28
428.001	4450.92
428.209	4377.19
428.417	4508.26
428.624	4723.3
428.832	4835.94
429.039	4717.15
429.247	4794.98
429.454	5190.24
429.662	5485.14
429.869	5194.33
430.076	5581.4
430.284	5343.83
430.491	5644.88
430.699	5861.97
430.906	5964.37
431.114	5902.93
431.321	6224.46
431.528	6435.4
431.736	6873.67
431.943	7256.64
432.15	6865.47
432.358	7125.57
432.565	7297.6
432.772	7260.73
432.979	7565.88
433.187	7760.44
433.394	7801.4
433.601	8401.45
433.808	8448.55
434.016	8477.23
434.223	8784.42
434.43	9189.92
434.637	9265.69
434.844	9663
435.052	9761.3
435.259	9849.36
435.466	9878.04
435.673	9837.08
435.88	10248.72
436.087	11041.28
436.294	11090.43
436.501	10555.91
436.708	10924.55
436.915	11131.39
437.122	11782.65
437.329	11756.02
437.537	12304.88
437.743	12231.15
437.95	12202.48
438.157	12913.13
438.364	13322.72
438.571	13382.11
438.778	13550.04
438.985	14670.28
439.192	14090.71
439.399	14604.75
439.606	14299.6
439.813	15100.36
440.02	15991.22
440.227	15628.73
440.433	15366.59
440.64	16038.33
440.847	15815.1
441.054	16554.41
441.261	17181.09
441.467	17170.85
441.674	17406.37
441.881	18127.25
442.088	18104.73
442.294	17846.68
442.501	18422.16
442.708	18973.07
442.914	19640.7
443.121	20375.92
443.328	19763.58
443.534	21207.4
443.741	20806
443.948	20216.18
444.154	21959
444.361	21406.05
444.568	21981.53
444.774	21811.55
444.981	22047.07
445.187	22655.31
445.394	23908.67
445.6	23253.32
445.807	25530.66
446.013	24559.92
446.22	24854.83
446.426	26026.27
446.633	25973.02
446.839	26954
447.046	25551.14
447.252	27273.48
447.459	27480.33
447.665	27328.78
447.871	28014.85
448.078	29749.48
448.284	28492.02
448.491	29130.99
448.697	30216.41
448.903	30580.95
449.11	30535.9
449.316	29956.32
449.522	30863.57
449.728	31430.86
449.935	31783.11
450.141	31797.45
450.347	32356.54
450.553	31097.04
450.76	31924.42
450.966	32477.37
451.172	32325.82
451.378	32706.74
451.584	32420.03
451.791	32979.12
451.997	33106.1
452.203	33661.1
452.409	33446.06
452.615	33155.25
452.821	32078.02
453.027	31596.74
453.233	33220.78
453.44	31854.79
453.646	32377.02
453.852	32696.5
454.058	32678.07
454.264	31678.66
454.47	32536.76
454.676	31568.07
454.882	32454.84
455.088	29413.61
455.294	30109.92
455.5	30273.76
455.705	30931.15
455.911	29812.96
456.117	29108.46
456.323	28621.05
456.529	26890.51
456.735	27994.37
456.941	27306.25
457.147	27044.11
457.352	25991.45
457.558	25882.91
457.764	25858.34
457.97	25100.59
458.176	24899.89
458.381	24521.01
458.587	23619.91
458.793	23472.45
458.999	22006.11
459.204	23789.89
459.41	23093.58
459.616	21385.57
459.821	21686.62
460.027	21561.7
460.233	21129.58
460.438	19925.37
460.644	20242.81
460.85	19478.91
461.055	19214.73
461.261	18983.31
461.466	17648.03
461.672	17095.08
461.878	18440.59
462.083	17381.79
462.289	17138.09
462.494	16630.19
462.7	15851.96
462.905	15569.34
463.111	15958.46
463.316	15962.55
463.522	15817.15
463.727	15862.2
463.932	15825.34
464.138	15927.74
464.343	15761.85
464.549	15235.52
464.754	15532.48
464.959	15487.42
465.165	15397.31
465.37	14727.63
465.575	14453.2
465.781	14977.48
465.986	15090.12
466.191	14457.29
466.397	14318.03
466.602	13511.13
466.807	14080.47
467.012	14307.79
467.218	13865.43
467.423	13904.34
