Data from USB4F104151__1__11-04-29-256.txt Node

Date: Wed Mar 12 11:04:29 EDT 2025
User: louis
Spectrometer: USB4F10415
Trigger mode: 4
Integration Time (sec): 2.000000E-2
Scans to average: 1
Electric dark correction enabled: true
Nonlinearity correction enabled: false
Boxcar width: 0
XAxis mode: Wavelengths
Number of Pixels in Spectrum: 3648
>>>>>Begin Spectral Data<<<<<
178.204	-96.25
178.424	-96.25
178.644	-96.25
178.864	-120.83
179.084	-96.25
179.304	-10.24
179.524	-69.63
179.744	12.29
179.964	59.39
180.184	-20.48
180.404	4.1
180.624	12.29
180.844	45.06
181.064	-36.86
181.283	12.29
181.503	-51.2
181.723	43.01
181.943	-38.91
182.163	28.67
182.383	-6.14
182.602	18.43
182.822	10.24
183.042	77.82
183.262	-32.77
183.482	-4.1
183.701	4.1
183.921	-4.1
184.141	-63.49
184.361	16.38
184.58	2.05
184.8	47.1
185.02	40.96
185.239	24.58
185.459	-36.86
185.679	14.34
185.898	-4.1
186.118	2.05
186.338	-20.48
186.557	16.38
186.777	-61.44
186.997	-8.19
187.216	16.38
187.436	61.44
187.655	-94.21
187.875	65.53
188.095	-4.1
188.314	92.16
188.534	79.87
188.753	51.2
188.973	34.82
189.192	10.24
189.412	100.35
189.631	38.91
189.851	75.77
190.07	-36.86
190.29	-30.72
190.509	-2.05
190.729	2.05
190.948	43.01
191.168	124.93
191.387	-20.48
191.607	38.91
191.826	45.06
192.045	-20.48
192.265	28.67
192.484	-10.24
192.704	49.15
192.923	-20.48
193.142	108.54
193.362	51.2
193.581	20.48
193.8	-28.67
194.02	36.86
194.239	-16.38
194.458	34.82
194.678	-22.53
194.897	18.43
195.116	77.82
195.335	-16.38
195.555	40.96
195.774	55.3
195.993	79.87
196.212	-55.3
196.432	-12.29
196.651	-12.29
196.87	4.1
197.089	81.92
197.308	86.01
197.528	43.01
197.747	-36.86
197.966	86.01
198.185	-45.06
198.404	34.82
198.623	20.48
198.842	28.67
199.062	59.39
199.281	61.44
199.5	26.62
199.719	-10.24
199.938	57.34
200.157	40.96
200.376	28.67
200.595	4.1
200.814	-30.72
201.033	-8.19
201.252	86.01
201.471	-6.14
201.69	-20.48
201.909	12.29
202.128	49.15
202.347	16.38
202.566	-104.45
202.785	24.58
203.004	-6.14
203.223	-2.05
203.442	40.96
203.661	-12.29
203.879	69.63
204.098	22.53
204.317	47.1
204.536	63.49
204.755	61.44
204.974	18.43
205.193	24.58
205.411	88.06
205.63	4.1
205.849	14.34
206.068	12.29
206.287	57.34
206.505	18.43
206.724	-0
206.943	-0
207.162	16.38
207.381	8.19
207.599	4.1
207.818	18.43
208.037	-4.1
208.255	-63.49
208.474	-57.34
208.693	59.39
208.911	65.53
209.13	28.67
209.349	-14.34
209.567	4.1
209.786	59.39
210.005	36.86
210.223	63.49
210.442	-32.77
210.661	65.53
210.879	-0
211.098	-20.48
211.316	18.43
211.535	69.63
211.753	30.72
211.972	24.58
212.191	-51.2
212.409	14.34
212.628	-20.48
212.846	-8.19
213.065	90.11
213.283	28.67
213.502	36.86
213.72	18.43
213.938	18.43
214.157	55.3
214.375	24.58
214.594	14.34
214.812	59.39
215.031	45.06
215.249	38.91
215.467	16.38
215.686	4.1
215.904	30.72
216.122	-34.82
216.341	108.54
216.559	36.86
216.778	2.05
216.996	-8.19
217.214	30.72
217.432	12.29
217.651	-22.53
217.869	6.14
218.087	53.25
218.306	14.34
218.524	61.44
218.742	-18.43
218.96	-0
219.179	8.19
219.397	53.25
219.615	94.21
219.833	12.29
220.051	28.67
220.27	43.01
220.488	26.62
220.706	20.48
220.924	28.67
221.142	53.25
221.36	4.1
221.578	77.82
221.796	45.06
222.015	36.86
222.233	12.29
222.451	59.39
222.669	-53.25
222.887	24.58
223.105	20.48
223.323	-6.14
223.541	-43.01
223.759	43.01
223.977	32.77
224.195	49.15
224.413	32.77
224.631	34.82
224.849	79.87
225.067	63.49
225.285	-0
225.503	10.24
225.721	-34.82
225.939	20.48
226.157	75.77
226.375	16.38
226.592	-0
226.81	40.96
227.028	79.87
227.246	116.73
227.464	-6.14
227.682	24.58
227.9	49.15
228.117	59.39
228.335	28.67
228.553	38.91
228.771	-4.1
228.989	73.73
229.206	49.15
229.424	-10.24
229.642	-30.72
229.86	-16.38
230.077	-24.58
230.295	16.38
230.513	28.67
230.731	61.44
230.948	20.48
231.166	34.82
231.384	14.34
231.601	-40.96
231.819	75.77
232.037	-0
232.254	57.34
232.472	77.82
232.689	20.48
232.907	73.73
233.125	79.87
233.342	53.25
233.56	59.39
233.777	12.29
233.995	14.34
234.213	67.58
234.43	45.06
234.648	-53.25
234.865	-34.82
235.083	26.62
235.3	-28.67
235.518	18.43
235.735	43.01
235.953	32.77
236.17	51.2
236.388	12.29
236.605	8.19
236.822	40.96
237.04	104.45
237.257	47.1
237.475	18.43
237.692	51.2
237.909	32.77
238.127	73.73
238.344	53.25
238.562	32.77
238.779	-51.2
238.996	-12.29
239.214	-32.77
239.431	32.77
239.648	2.05
239.865	86.01
240.083	79.87
240.3	40.96
240.517	24.58
240.735	-4.1
240.952	22.53
241.169	92.16
241.386	65.53
241.603	20.48
241.821	88.06
242.038	-2.05
242.255	45.06
242.472	10.24
242.689	-16.38
242.907	73.73
243.124	51.2
243.341	24.58
243.558	-16.38
243.775	6.14
243.992	22.53
244.209	47.1
244.426	79.87
244.643	40.96
244.86	49.15
245.078	-77.82
245.295	-14.34
245.512	-40.96
245.729	-16.38
245.946	-2.05
246.163	-12.29
246.38	6.14
246.597	-12.29
246.814	73.73
247.031	18.43
247.248	49.15
247.464	16.38
247.681	-79.87
247.898	45.06
248.115	61.44
248.332	45.06
248.549	57.34
248.766	10.24
248.983	108.54
249.2	38.91
249.417	10.24
249.633	-32.77
249.85	18.43
250.067	12.29
250.284	-10.24
250.501	53.25
250.717	36.86
250.934	4.1
251.151	14.34
251.368	53.25
251.585	-43.01
251.801	16.38
252.018	47.1
252.235	26.62
252.451	49.15
252.668	-2.05
252.885	2.05
253.102	63.49
253.318	14.34
253.535	20.48
253.752	-12.29
253.968	20.48
254.185	47.1
254.401	24.58
254.618	26.62
254.835	-10.24
255.051	30.72
255.268	43.01
255.484	34.82
255.701	10.24
255.917	22.53
256.134	-49.15
256.351	45.06
256.567	-20.48
256.784	53.25
257	28.67
257.217	47.1
257.433	-57.34
257.65	-24.58
257.866	18.43
258.082	-38.91
258.299	36.86
258.515	-6.14
258.732	22.53
258.948	-12.29
259.165	28.67
259.381	18.43
259.597	92.16
259.814	-4.1
260.03	16.38
260.246	-34.82
260.463	38.91
260.679	8.19
260.895	-4.1
261.112	90.11
261.328	59.39
261.544	40.96
261.761	53.25
261.977	43.01
262.193	-10.24
262.409	-24.58
262.626	53.25
262.842	63.49
263.058	40.96
263.274	43.01
263.49	28.67
263.707	30.72
263.923	43.01
264.139	-61.44
264.355	10.24
264.571	12.29
264.787	43.01
265.004	81.92
265.22	16.38
265.436	30.72
265.652	-6.14
265.868	34.82
266.084	57.34
266.3	38.91
266.516	-6.14
266.732	100.35
266.948	32.77
267.164	-0
267.38	51.2
267.596	45.06
267.812	53.25
268.028	53.25
268.244	77.82
268.46	73.73
268.676	16.38
268.892	40.96
269.108	40.96
269.324	69.63
269.54	8.19
269.756	32.77
269.972	22.53
270.188	24.58
270.403	90.11
270.619	-32.77
270.835	36.86
271.051	67.58
271.267	-8.19
271.483	36.86
271.698	65.53
271.914	28.67
272.13	-12.29
272.346	-30.72
272.562	59.39
272.777	-16.38
272.993	22.53
273.209	-12.29
273.425	51.2
273.64	20.48
273.856	135.17
274.072	36.86
274.287	6.14
274.503	69.63
274.719	55.3
274.934	26.62
275.15	-32.77
275.366	-12.29
275.581	-4.1
275.797	-63.49
276.012	10.24
276.228	-45.06
276.444	8.19
276.659	28.67
276.875	18.43
277.09	65.53
277.306	18.43
277.521	124.93
277.737	45.06
277.952	96.25
278.168	94.21
278.383	8.19
278.599	4.1
278.814	69.63
279.03	2.05
279.245	30.72
279.461	4.1
279.676	47.1
279.892	-40.96
280.107	-4.1
280.322	49.15
280.538	-28.67
280.753	32.77
280.969	12.29
281.184	-14.34
281.399	98.3
281.615	22.53
281.83	-2.05
282.045	36.86
282.26	36.86
282.476	-32.77
282.691	49.15
282.906	8.19
283.122	4.1
283.337	18.43
283.552	43.01
283.767	4.1
283.983	-40.96
284.198	10.24
284.413	73.73
284.628	86.01
284.843	51.2
285.058	2.05
285.274	63.49
285.489	-30.72
285.704	12.29
285.919	-18.43
286.134	16.38
286.349	-10.24
286.564	36.86
286.779	-20.48
286.995	34.82
287.21	-8.19
287.425	59.39
287.64	20.48
287.855	45.06
288.07	36.86
288.285	75.77
288.5	18.43
288.715	-4.1
288.93	8.19
289.145	77.82
289.36	71.68
289.575	55.3
289.79	47.1
290.004	34.82
290.219	18.43
290.434	22.53
290.649	-77.82
290.864	57.34
291.079	81.92
291.294	24.58
291.509	20.48
291.724	-10.24
291.938	71.68
292.153	55.3
292.368	67.58
292.583	18.43
292.798	22.53
293.012	28.67
293.227	38.91
293.442	6.14
293.657	75.77
293.871	4.1
294.086	124.93
294.301	49.15
294.516	55.3
294.73	-47.1
294.945	92.16
295.16	-0
295.374	47.1
295.589	49.15
295.804	45.06
296.018	-6.14
296.233	81.92
296.447	-2.05
296.662	4.1
296.877	53.25
297.091	20.48
297.306	67.58
297.52	51.2
297.735	108.54
297.949	63.49
298.164	61.44
298.378	14.34
298.593	-14.34
298.807	-8.19
299.022	18.43
299.236	63.49
299.451	-28.67
299.665	32.77
299.88	22.53
300.094	36.86
300.309	45.06
300.523	-6.14
300.737	75.77
300.952	-20.48
301.166	6.14
301.381	-18.43
301.595	81.92
301.809	24.58
302.024	16.38
302.238	71.68
302.452	69.63
302.667	49.15
302.881	16.38
303.095	79.87
303.309	-26.62
303.524	53.25
303.738	-6.14
303.952	-36.86
304.166	86.01
304.381	53.25
304.595	67.58
304.809	65.53
305.023	55.3
305.237	79.87
305.452	40.96
305.666	-10.24
305.88	57.34
306.094	100.35
306.308	55.3
306.522	53.25
306.736	79.87
306.95	30.72
307.164	-8.19
307.379	4.1
307.593	57.34
307.807	86.01
308.021	2.05
308.235	81.92
308.449	22.53
308.663	38.91
308.877	28.67
309.091	40.96
309.305	43.01
309.519	-26.62
309.733	36.86
309.947	-6.14
310.161	38.91
310.374	22.53
310.588	71.68
310.802	61.44
311.016	14.34
311.23	86.01
311.444	-16.38
311.658	92.16
311.872	43.01
312.085	92.16
312.299	63.49
312.513	28.67
312.727	-51.2
312.941	-18.43
313.154	-4.1
313.368	-8.19
313.582	45.06
313.796	26.62
314.009	24.58
314.223	-8.19
314.437	79.87
314.651	51.2
314.864	75.77
315.078	-4.1
315.292	75.77
315.505	-4.1
315.719	65.53
315.933	-0
316.146	-2.05
316.36	51.2
316.573	118.78
316.787	79.87
317.001	61.44
317.214	83.97
317.428	-18.43
317.641	-24.58
317.855	8.19
318.068	32.77
318.282	55.3
318.495	77.82
318.709	69.63
318.922	69.63
319.136	104.45
319.349	8.19
319.563	-4.1
319.776	55.3
319.99	-14.34
320.203	-6.14
320.417	65.53
320.63	32.77
320.843	55.3
321.057	77.82
321.27	45.06
321.483	100.35
321.697	108.54
321.91	26.62
322.124	71.68
322.337	40.96
322.55	-4.1
322.763	47.1
322.977	14.34
323.19	-6.14
323.403	-36.86
323.617	36.86
323.83	12.29
324.043	32.77
324.256	-2.05
324.469	34.82
324.683	86.01
324.896	-8.19
325.109	-57.34
325.322	22.53
325.535	108.54
325.748	-2.05
325.962	-34.82
326.175	53.25
326.388	30.72
326.601	-28.67
326.814	98.3
327.027	47.1
327.24	83.97
327.453	40.96
327.666	71.68
327.879	34.82
328.092	65.53
328.305	34.82
328.518	4.1
328.731	26.62
328.944	49.15
329.157	71.68
329.37	26.62
329.583	90.11
329.796	83.97
330.009	86.01
330.222	94.21
330.435	49.15
330.648	100.35
330.861	49.15
331.073	12.29
331.286	34.82
331.499	24.58
331.712	-36.86
331.925	36.86
332.138	14.34
332.35	18.43
332.563	14.34
332.776	8.19
332.989	75.77
333.202	32.77
333.414	-8.19
333.627	36.86
333.84	26.62
334.053	14.34
334.265	-24.58
334.478	26.62
334.691	-8.19
334.903	43.01
335.116	-38.91
335.329	30.72
335.541	67.58
335.754	2.05
335.966	16.38
336.179	81.92
336.392	94.21
336.604	28.67
336.817	65.53
337.029	-16.38
337.242	61.44
337.454	-10.24
337.667	4.1
337.88	40.96
338.092	4.1
338.305	59.39
338.517	65.53
338.729	45.06
338.942	24.58
339.154	-16.38
339.367	28.67
339.579	38.91
339.792	22.53
340.004	8.19
340.217	38.91
340.429	47.1
340.641	61.44
340.854	-8.19
341.066	69.63
341.278	75.77
341.491	92.16
341.703	20.48
341.915	16.38
342.128	26.62
342.34	53.25
342.552	-10.24
342.764	26.62
342.977	32.77
343.189	116.73
343.401	26.62
343.613	20.48
343.826	8.19
344.038	18.43
344.25	110.59
344.462	34.82
344.674	75.77
344.886	49.15
345.099	90.11
345.311	22.53
345.523	30.72
345.735	30.72
345.947	90.11
346.159	8.19
346.371	81.92
346.583	61.44
346.795	116.73
347.007	38.91
347.219	75.77
347.431	86.01
347.643	77.82
347.855	-49.15
348.067	90.11
348.279	2.05
348.491	-16.38
348.703	28.67
348.915	45.06
349.127	-2.05
349.339	114.69
349.551	67.58
349.763	49.15
349.975	83.97
350.187	86.01
350.399	-10.24
350.61	63.49
350.822	-16.38
351.034	77.82
351.246	24.58
351.458	6.14
351.669	73.73
351.881	102.4
352.093	98.3
352.305	45.06
352.517	-40.96
352.728	-71.68
352.94	36.86
353.152	2.05
353.363	-20.48
353.575	36.86
353.787	59.39
353.999	139.26
354.21	108.54
354.422	36.86
354.633	4.1
354.845	32.77
355.057	96.25
355.268	100.35
355.48	22.53
355.692	-16.38
355.903	61.44
356.115	30.72
356.326	36.86
356.538	151.55
356.749	18.43
356.961	86.01
357.172	92.16
357.384	-12.29
357.595	94.21
357.807	10.24
358.018	49.15
358.23	100.35
358.441	122.88
358.653	88.06
358.864	14.34
359.075	-51.2
359.287	-16.38
359.498	94.21
359.709	2.05
359.921	18.43
360.132	77.82
360.344	67.58
360.555	63.49
360.766	69.63
360.977	49.15
361.189	102.4
361.4	36.86
361.611	92.16
361.823	83.97
362.034	57.34
362.245	20.48
362.456	88.06
362.667	49.15
362.879	40.96
363.09	40.96
363.301	98.3
363.512	53.25
363.723	34.82
363.935	40.96
364.146	2.05
364.357	2.05
364.568	57.34
364.779	81.92
364.99	73.73
365.201	28.67
365.412	20.48
365.623	-34.82
365.834	73.73
366.045	49.15
366.256	57.34
366.467	14.34
366.678	59.39
366.889	16.38
367.1	-2.05
367.311	51.2
367.522	-20.48
367.733	59.39
367.944	12.29
368.155	-14.34
368.366	26.62
368.577	34.82
368.788	18.43
368.999	-20.48
369.209	-4.1
369.42	86.01
369.631	75.77
369.842	45.06
370.053	55.3
370.264	63.49
370.474	-36.86
370.685	20.48
370.896	53.25
371.107	61.44
371.317	69.63
371.528	18.43
371.739	22.53
371.95	32.77
372.16	22.53
372.371	12.29
372.582	34.82
372.792	90.11
373.003	108.54
373.214	55.3
373.424	77.82
373.635	-2.05
373.846	155.65
374.056	79.87
374.267	45.06
374.477	122.88
374.688	30.72
374.898	86.01
375.109	32.77
375.319	61.44
375.53	120.83
375.74	45.06
375.951	10.24
376.161	45.06
376.372	61.44
376.582	47.1
376.793	67.58
377.003	-53.25
377.214	61.44
377.424	65.53
377.635	20.48
377.845	16.38
378.055	94.21
378.266	-14.34
378.476	-14.34
378.686	108.54
378.897	28.67
379.107	77.82
379.317	30.72
379.528	90.11
379.738	34.82
379.948	20.48
380.158	75.77
380.369	57.34
380.579	49.15
380.789	65.53
380.999	92.16
381.21	124.93
381.42	51.2
381.63	79.87
381.84	73.73
382.05	36.86
382.261	79.87
382.471	43.01
382.681	24.58
382.891	61.44
383.101	71.68
383.311	-0
383.521	114.69
383.731	26.62
383.941	8.19
384.151	79.87
384.361	110.59
384.571	53.25
384.781	118.78
384.991	65.53
385.201	57.34
385.411	59.39
385.621	118.78
385.831	-0
386.041	110.59
386.251	112.64
386.461	36.86
386.671	67.58
386.881	94.21
387.091	92.16
387.301	30.72
387.511	100.35
387.72	96.25
387.93	47.1
388.14	71.68
388.35	71.68
388.56	126.97
388.769	34.82
388.979	28.67
389.189	24.58
389.399	40.96
389.609	102.4
389.818	6.14
390.028	59.39
390.238	32.77
390.447	20.48
390.657	77.82
390.867	77.82
391.076	67.58
391.286	16.38
391.496	102.4
391.705	45.06
391.915	69.63
392.125	90.11
392.334	73.73
392.544	100.35
392.753	94.21
392.963	24.58
393.172	45.06
393.382	88.06
393.591	79.87
393.801	47.1
394.01	169.98
394.22	79.87
394.429	110.59
394.639	59.39
394.848	81.92
395.058	69.63
395.267	57.34
395.477	65.53
395.686	124.93
395.895	49.15
396.105	161.79
396.314	98.3
396.524	122.88
396.733	100.35
396.942	126.97
397.152	151.55
397.361	149.5
397.57	71.68
397.78	102.4
397.989	106.49
398.198	118.78
398.407	77.82
398.617	98.3
398.826	32.77
399.035	114.69
399.244	104.45
399.453	112.64
399.663	147.45
399.872	108.54
400.081	90.11
400.29	77.82
400.499	147.45
400.708	124.93
400.917	65.53
401.127	120.83
401.336	94.21
401.545	178.17
401.754	141.31
401.963	131.07
402.172	94.21
402.381	159.74
402.59	147.45
402.799	153.6
403.008	159.74
403.217	110.59
403.426	186.37
403.635	163.84
403.844	161.79
404.053	108.54
404.262	133.12
404.471	135.17
404.68	198.65
404.888	151.55
405.097	165.89
405.306	139.26
405.515	178.17
405.724	182.27
405.933	186.37
406.142	237.56
406.35	135.17
406.559	212.99
406.768	182.27
406.977	192.51
407.185	200.7
407.394	241.66
407.603	229.37
407.812	229.37
408.02	231.42
408.229	235.52
408.438	208.89
408.646	229.37
408.855	286.72
409.064	274.43
409.272	274.43
409.481	372.73
409.69	299
409.898	395.26
410.107	313.34
410.315	409.59
410.524	368.63
410.733	333.82
410.941	403.45
411.15	444.41
411.358	401.4
411.567	425.98
411.775	428.03
411.984	462.84
412.192	452.6
412.401	483.32
412.609	495.61
412.818	518.14
413.026	514.04
413.234	518.14
413.443	589.81
413.651	606.2
413.86	589.81
414.068	555
414.276	722.93
414.485	708.6
414.693	645.11
414.901	733.17
415.11	673.78
415.318	724.98
415.526	815.09
415.734	833.52
415.943	817.14
416.151	884.72
416.359	888.82
416.567	964.59
416.776	978.93
416.984	1054.7
417.192	1075.18
417.4	1009.65
417.608	1083.38
417.817	1114.09
418.025	1124.33
418.233	1085.42
418.441	1286.12
418.649	1241.07
418.857	1339.37
419.065	1392.62
419.273	1314.8
419.481	1398.76
419.689	1548.26
419.897	1589.22
420.105	1566.7
420.313	1609.7
420.521	1820.64
420.729	1718.25
420.937	1703.91
421.145	1886.18
421.353	1875.94
421.561	2109.41
421.769	1966.05
421.977	2228.19
422.185	2107.36
422.393	2357.21
422.601	2422.75
422.809	2451.42
423.017	2375.64
423.224	2584.54
423.432	2736.09
423.64	2680.79
423.848	2924.5
424.056	2772.95
424.263	2985.94
424.471	3067.86
424.679	3164.11
424.887	3332.05
425.094	3307.47
425.302	3393.48
425.51	3555.27
425.718	3559.37
425.925	3639.24
426.133	3829.7
426.341	4016.07
426.548	4272.06
426.756	4196.29
426.964	4204.48
427.171	4435.9
427.379	4554.68
427.586	4730.81
427.794	4911.03
428.001	5095.35
428.209	5191.6
428.417	5341.1
428.624	5451.69
428.832	5699.5
429.039	5539.76
429.247	5705.64
429.454	6135.71
429.662	6619.03
429.869	6102.95
430.076	6598.56
430.284	6377.37
430.491	6764.44
430.699	6932.37
430.906	7004.05
431.114	7235.47
431.321	7321.49
431.528	7610.25
431.736	8187.78
431.943	8191.87
432.15	8159.11
432.358	8312.71
432.565	8634.24
432.772	8621.95
432.979	9199.48
433.187	9185.14
433.394	9557.87
433.601	9944.94
433.808	9901.93
434.016	9969.51
434.223	10270.56
434.43	11001.69
434.637	10727.26
434.844	11407.19
435.052	11552.59
435.259	11464.53
435.466	11796.3
435.673	11349.84
435.88	12517.18
436.087	12943.16
436.294	12889.92
436.501	12781.37
436.708	13217.59
436.915	13428.53
437.122	14065.45
437.329	14165.8
437.537	14724.9
437.743	14645.02
437.95	14632.74
438.157	15456.02
438.364	15814.41
438.571	15818.51
438.778	15906.57
438.985	17424.12
439.192	16799.49
439.399	17327.86
439.606	17075.96
439.813	17798.9
440.02	18912.99
440.227	18777.83
440.433	18622.18
440.64	19345.11
440.847	18960.09
441.054	19568.34
441.261	20745.92
441.467	20365
441.674	20967.1
441.881	21774
442.088	21712.56
442.294	21370.55
442.501	22025.9
442.708	22597.29
442.914	23545.5
443.121	24106.64
443.328	23799.44
443.534	25304.7
443.741	24639.11
443.948	24186.51
444.154	26414.7
444.361	26216.05
444.568	26033.78
444.774	26252.91
444.981	26506.86
445.187	27426.4
445.394	28296.78
445.6	28083.8
445.807	30907.94
446.013	29392.45
446.22	29859.38
446.426	31272.48
446.633	31426.08
446.839	32339.47
447.046	31256.1
447.252	32757.26
447.459	32937.48
447.665	32873.99
447.871	34012.67
448.078	35673.57
448.284	33852.92
448.491	34717.17
448.697	36150.74
448.903	36822.48
449.11	36709.84
449.316	36120.02
449.522	36605.39
449.728	37860.8
449.935	38063.55
450.141	37875.13
450.347	38684.08
450.553	37270.98
450.76	38032.83
450.966	38651.31
451.172	38258.1
451.378	39515.56
451.584	38675.89
451.791	39660.96
451.997	39611.81
452.203	39851.42
452.409	40097.18
452.615	39796.13
452.821	38065.6
453.027	37762.5
453.233	39548.32
453.44	37508.55
453.646	38575.54
453.852	38598.07
454.058	39331.24
454.264	37666.24
454.47	38495.67
454.676	37357
454.882	38602.16
455.088	35202.53
455.294	35919.32
455.5	36457.94
455.705	36591.06
455.911	34987.5
456.117	34772.46
456.323	34070.01
456.529	31946.26
456.735	33472
456.941	32781.84
457.147	31745.56
457.352	31032.87
457.558	30774.83
457.764	30367.28
457.97	30078.52
458.176	29328.96
458.381	29214.27
458.587	27680.35
458.793	27938.39
458.999	26388.08
459.204	28317.26
459.41	27436.64
459.616	25368.19
459.821	25591.42
460.027	25763.45
460.233	24946.31
460.438	23541.4
460.644	23918.23
460.85	22890.15
461.055	22361.77
461.261	22838.95
461.466	20823.75
461.672	20289.23
461.878	21259.96
462.083	20420.3
462.289	20139.72
462.494	19650.26
462.7	18927.33
462.905	18425.57
463.111	18966.24
463.316	18865.89
463.522	18648.8
463.727	18667.24
463.932	18697.95
464.138	18392.81
464.343	18503.4
464.549	18300.65
464.754	18644.71
464.959	18525.93
465.165	18089.71
465.37	17456.89
465.575	16967.42
465.781	18011.89
465.986	18003.69
466.191	17303.29
466.397	16840.45
466.602	15988.49
466.807	16762.62
467.012	16842.49
467.218	16580.35
467.423	16430.85
467.628	16776.96
467.833	17149.69
468.038	16469.76
