Data from USB4F104151__102__11-07-06-979.txt Node

Date: Wed Mar 12 11:07:06 EDT 2025
User: louis
Spectrometer: USB4F10415
Trigger mode: 4
Integration Time (sec): 2.000000E-2
Scans to average: 1
Electric dark correction enabled: true
Nonlinearity correction enabled: false
Boxcar width: 0
XAxis mode: Wavelengths
Number of Pixels in Spectrum: 3648
>>>>>Begin Spectral Data<<<<<
178.204	-93.35
178.424	-93.35
178.644	-93.35
178.864	-79.02
179.084	-117.93
179.304	-40.11
179.524	23.38
179.744	4.95
179.964	-40.11
180.184	23.38
180.404	2.9
180.624	-15.53
180.844	35.67
181.064	-5.29
181.283	-5.29
181.503	-3.24
181.723	19.29
181.943	-33.96
182.163	119.64
182.383	-23.72
182.602	25.43
182.822	68.44
183.042	7
183.262	35.67
183.482	-5.29
183.701	23.38
183.921	-15.53
184.141	-40.11
184.361	84.82
184.58	0.85
184.8	-52.39
185.02	39.76
185.239	33.62
185.459	-21.67
185.679	17.24
185.898	-17.58
186.118	43.86
186.338	-42.15
186.557	43.86
186.777	9.05
186.997	-29.87
187.216	-11.43
187.436	66.39
187.655	-19.63
187.875	33.62
188.095	-40.11
188.314	-15.53
188.534	64.34
188.753	-17.58
188.973	23.38
189.192	25.43
189.412	-50.35
189.631	21.33
189.851	50
190.07	-19.63
190.29	-44.2
190.509	56.15
190.729	70.48
190.948	45.91
191.168	101.2
191.387	35.67
191.607	23.38
191.826	-7.34
192.045	-50.35
192.265	17.24
192.484	60.24
192.704	41.81
192.923	-50.35
193.142	-21.67
193.362	52.05
193.581	19.29
193.8	27.48
194.02	62.29
194.239	-38.06
194.458	21.33
194.678	-52.39
194.897	-50.35
195.116	27.48
195.335	74.58
195.555	86.87
195.774	4.95
195.993	25.43
196.212	31.57
196.432	7
196.651	-31.91
196.87	37.72
197.089	43.86
197.308	0.85
197.528	-48.3
197.747	74.58
197.966	-13.48
198.185	23.38
198.404	-25.77
198.623	88.92
198.842	-1.19
199.062	64.34
199.281	99.16
199.5	7
199.719	70.48
199.938	13.14
200.157	7
200.376	39.76
200.595	-58.54
200.814	-25.77
201.033	105.3
201.252	33.62
201.471	19.29
201.69	0.85
201.909	23.38
202.128	39.76
202.347	31.57
202.566	4.95
202.785	72.53
203.004	17.24
203.223	29.52
203.442	68.44
203.661	31.57
203.879	-44.2
204.098	95.06
204.317	4.95
204.536	11.09
204.755	-17.58
204.974	37.72
205.193	68.44
205.411	95.06
205.63	-44.2
205.849	-56.49
206.068	54.1
206.287	-7.34
206.505	47.96
206.724	-27.82
206.943	39.76
207.162	27.48
207.381	19.29
207.599	23.38
207.818	-5.29
208.037	-19.63
208.255	58.2
208.474	-25.77
208.693	15.19
208.911	0.85
209.13	74.58
209.349	-7.34
209.567	17.24
209.786	-21.67
210.005	29.52
210.223	33.62
210.442	19.29
210.661	35.67
210.879	-19.63
211.098	0.85
211.316	31.57
211.535	43.86
211.753	23.38
211.972	-19.63
212.191	-33.96
212.409	37.72
212.628	17.24
212.846	-15.53
213.065	29.52
213.283	25.43
213.502	15.19
213.72	68.44
213.938	23.38
214.157	-68.78
214.375	-40.11
214.594	-9.39
214.812	27.48
215.031	-1.19
215.249	25.43
215.467	-1.19
215.686	-27.82
215.904	41.81
216.122	56.15
216.341	15.19
216.559	-3.24
216.778	-42.15
216.996	-3.24
217.214	-23.72
217.432	-36.01
217.651	-21.67
217.869	64.34
218.087	23.38
218.306	80.72
218.524	15.19
218.742	-25.77
218.96	82.77
219.179	-23.72
219.397	-21.67
219.615	66.39
219.833	-3.24
220.051	7
220.27	-5.29
220.488	41.81
220.706	-31.91
220.924	17.24
221.142	33.62
221.36	33.62
221.578	4.95
221.796	-21.67
222.015	-11.43
222.233	47.96
222.451	31.57
222.669	2.9
222.887	-38.06
223.105	-44.2
223.323	31.57
223.541	-7.34
223.759	66.39
223.977	0.85
224.195	64.34
224.413	23.38
224.631	-23.72
224.849	17.24
225.067	47.96
225.285	-27.82
225.503	33.62
225.721	-1.19
225.939	41.81
226.157	-5.29
226.375	45.91
226.592	-1.19
226.81	2.9
227.028	41.81
227.246	84.82
227.464	15.19
227.682	9.05
227.9	-17.58
228.117	11.09
228.335	4.95
228.553	15.19
228.771	37.72
228.989	19.29
229.206	41.81
229.424	43.86
229.642	-1.19
229.86	-46.25
230.077	99.16
230.295	0.85
230.513	45.91
230.731	-36.01
230.948	41.81
231.166	-21.67
231.384	0.85
231.601	-15.53
231.819	74.58
232.037	56.15
232.254	-36.01
232.472	21.33
232.689	-58.54
232.907	45.91
233.125	74.58
233.342	-29.87
233.56	23.38
233.777	2.9
233.995	-23.72
234.213	33.62
234.43	43.86
234.648	-1.19
234.865	-50.35
235.083	33.62
235.3	0.85
235.518	-56.49
235.735	-23.72
235.953	13.14
236.17	7
236.388	-1.19
236.605	41.81
236.822	64.34
237.04	17.24
237.257	25.43
237.475	-7.34
237.692	43.86
237.909	-1.19
238.127	35.67
238.344	25.43
238.562	-3.24
238.779	-7.34
238.996	21.33
239.214	-5.29
239.431	-1.19
239.648	-15.53
239.865	27.48
240.083	-3.24
240.3	11.09
240.517	9.05
240.735	-9.39
240.952	-17.58
241.169	-3.24
241.386	45.91
241.603	-3.24
241.821	9.05
242.038	74.58
242.255	-9.39
242.472	41.81
242.689	119.64
242.907	7
243.124	41.81
243.341	25.43
243.558	23.38
243.775	-23.72
243.992	-25.77
244.209	41.81
244.426	86.87
244.643	43.86
244.86	-23.72
245.078	72.53
245.295	-7.34
245.512	13.14
245.729	-42.15
245.946	56.15
246.163	31.57
246.38	17.24
246.597	27.48
246.814	52.05
247.031	9.05
247.248	43.86
247.464	121.68
247.681	29.52
247.898	7
248.115	31.57
248.332	66.39
248.549	84.82
248.766	0.85
248.983	39.76
249.2	-1.19
249.417	56.15
249.633	-25.77
249.85	21.33
250.067	-3.24
250.284	33.62
250.501	21.33
250.717	62.29
250.934	-31.91
251.151	13.14
251.368	50
251.585	64.34
251.801	45.91
252.018	0.85
252.235	27.48
252.451	21.33
252.668	-11.43
252.885	82.77
253.102	31.57
253.318	58.2
253.535	-15.53
253.752	2.9
253.968	47.96
254.185	4.95
254.401	95.06
254.618	0.85
254.835	31.57
255.051	54.1
255.268	-23.72
255.484	127.83
255.701	25.43
255.917	-21.67
256.134	-44.2
256.351	-1.19
256.567	-17.58
256.784	-3.24
257	80.72
257.217	15.19
257.433	-17.58
257.65	-56.49
257.866	-31.91
258.082	-119.98
258.299	-17.58
258.515	56.15
258.732	54.1
258.948	82.77
259.165	-7.34
259.381	17.24
259.597	47.96
259.814	-38.06
260.03	54.1
260.246	4.95
260.463	0.85
260.679	4.95
260.895	15.19
261.112	-7.34
261.328	-31.91
261.544	78.68
261.761	72.53
261.977	56.15
262.193	-42.15
262.409	-38.06
262.626	39.76
262.842	127.83
263.058	0.85
263.274	37.72
263.49	-31.91
263.707	25.43
263.923	25.43
264.139	11.09
264.355	39.76
264.571	9.05
264.787	0.85
265.004	33.62
265.22	-21.67
265.436	31.57
265.652	-31.91
265.868	15.19
266.084	52.05
266.3	-1.19
266.516	43.86
266.732	-3.24
266.948	-29.87
267.164	-11.43
267.38	50
267.596	58.2
267.812	47.96
268.028	47.96
268.244	-5.29
268.46	15.19
268.676	25.43
268.892	37.72
269.108	-11.43
269.324	13.14
269.54	68.44
269.756	119.64
269.972	25.43
270.188	-58.54
270.403	0.85
270.619	39.76
270.835	29.52
271.051	62.29
271.267	13.14
271.483	-33.96
271.698	-60.59
271.914	7
272.13	0.85
272.346	52.05
272.562	50
272.777	23.38
272.993	-42.15
273.209	25.43
273.425	-11.43
273.64	33.62
273.856	15.19
274.072	41.81
274.287	31.57
274.503	11.09
274.719	9.05
274.934	-64.68
275.15	7
275.366	7
275.581	41.81
275.797	15.19
276.012	-36.01
276.228	-36.01
276.444	-19.63
276.659	33.62
276.875	-40.11
277.09	2.9
277.306	25.43
277.521	23.38
277.737	37.72
277.952	56.15
278.168	-40.11
278.383	35.67
278.599	13.14
278.814	29.52
279.03	31.57
279.245	2.9
279.461	50
279.676	0.85
279.892	-83.11
280.107	-19.63
280.322	7
280.538	29.52
280.753	31.57
280.969	21.33
281.184	-44.2
281.399	33.62
281.615	7
281.83	2.9
282.045	-33.96
282.26	-31.91
282.476	70.48
282.691	66.39
282.906	-25.77
283.122	68.44
283.337	19.29
283.552	52.05
283.767	-9.39
283.983	39.76
284.198	39.76
284.413	84.82
284.628	-17.58
284.843	-27.82
285.058	-52.39
285.274	29.52
285.489	39.76
285.704	58.2
285.919	19.29
286.134	47.96
286.349	88.92
286.564	25.43
286.779	31.57
286.995	105.3
287.21	-11.43
287.425	-9.39
287.64	-31.91
287.855	25.43
288.07	4.95
288.285	27.48
288.5	41.81
288.715	119.64
288.93	0.85
289.145	70.48
289.36	-5.29
289.575	-87.21
289.79	27.48
290.004	19.29
290.219	41.81
290.434	60.24
290.649	39.76
290.864	37.72
291.079	9.05
291.294	-9.39
291.509	31.57
291.724	-9.39
291.938	-21.67
292.153	21.33
292.368	60.24
292.583	-5.29
292.798	47.96
293.012	23.38
293.227	9.05
293.442	47.96
293.657	9.05
293.871	31.57
294.086	45.91
294.301	0.85
294.516	27.48
294.73	54.1
294.945	-3.24
295.16	88.92
295.374	52.05
295.589	15.19
295.804	17.24
296.018	11.09
296.233	41.81
296.447	47.96
296.662	-38.06
296.877	-5.29
297.091	60.24
297.306	13.14
297.52	-3.24
297.735	-7.34
297.949	4.95
298.164	29.52
298.378	15.19
298.593	-17.58
298.807	74.58
299.022	29.52
299.236	23.38
299.451	-11.43
299.665	56.15
299.88	88.92
300.094	-23.72
300.309	-29.87
300.523	-3.24
300.737	41.81
300.952	45.91
301.166	2.9
301.381	19.29
301.595	-1.19
301.809	41.81
302.024	-23.72
302.238	62.29
302.452	21.33
302.667	41.81
302.881	52.05
303.095	25.43
303.309	50
303.524	15.19
303.738	78.68
303.952	-29.87
304.166	2.9
304.381	23.38
304.595	35.67
304.809	-5.29
305.023	0.85
305.237	41.81
305.452	62.29
305.666	50
305.88	74.58
306.094	-29.87
306.308	86.87
306.522	29.52
306.736	64.34
306.95	13.14
307.164	21.33
307.379	172.88
307.593	86.87
307.807	25.43
308.021	27.48
308.235	68.44
308.449	-1.19
308.663	-25.77
308.877	70.48
309.091	-11.43
309.305	37.72
309.519	56.15
309.733	-3.24
309.947	25.43
310.161	7
310.374	54.1
310.588	93.01
310.802	-7.34
311.016	37.72
311.23	70.48
311.444	-1.19
311.658	-40.11
311.872	113.49
312.085	72.53
312.299	64.34
312.513	95.06
312.727	45.91
312.941	2.9
313.154	0.85
313.368	-23.72
313.582	19.29
313.796	43.86
314.009	27.48
314.223	4.95
314.437	-23.72
314.651	64.34
314.864	23.38
315.078	39.76
315.292	37.72
315.505	-31.91
315.719	21.33
315.933	13.14
316.146	25.43
316.36	9.05
316.573	-9.39
316.787	35.67
317.001	29.52
317.214	17.24
317.428	-3.24
317.641	50
317.855	-29.87
318.068	-23.72
318.282	17.24
318.495	4.95
318.709	78.68
318.922	19.29
319.136	76.63
319.349	-25.77
319.563	4.95
319.776	99.16
319.99	33.62
320.203	58.2
320.417	17.24
320.63	-1.19
320.843	39.76
321.057	107.35
321.27	0.85
321.483	-1.19
321.697	-7.34
321.91	13.14
322.124	86.87
322.337	23.38
322.55	35.67
322.763	58.2
322.977	-5.29
323.19	-33.96
323.403	-7.34
323.617	37.72
323.83	21.33
324.043	56.15
324.256	-27.82
324.469	-54.44
324.683	78.68
324.896	86.87
325.109	23.38
325.322	-15.53
325.535	23.38
325.748	-1.19
325.962	47.96
326.175	21.33
326.388	4.95
326.601	-19.63
326.814	33.62
327.027	37.72
327.24	70.48
327.453	-56.49
327.666	-5.29
327.879	-7.34
328.092	7
328.305	0.85
328.518	-29.87
328.731	-7.34
328.944	-17.58
329.157	-13.48
329.37	-13.48
329.583	90.96
329.796	23.38
330.009	45.91
330.222	52.05
330.435	0.85
330.648	74.58
330.861	19.29
331.073	80.72
331.286	72.53
331.499	-1.19
331.712	13.14
331.925	31.57
332.138	47.96
332.35	93.01
332.563	52.05
332.776	64.34
332.989	-42.15
333.202	-5.29
333.414	9.05
333.627	33.62
333.84	-19.63
334.053	47.96
334.265	-3.24
334.478	25.43
334.691	-46.25
334.903	47.96
335.116	-58.54
335.329	33.62
335.541	15.19
335.754	9.05
335.966	58.2
336.179	29.52
336.392	-5.29
336.604	-9.39
336.817	19.29
337.029	99.16
337.242	41.81
337.454	-40.11
337.667	31.57
337.88	54.1
338.092	93.01
338.305	37.72
338.517	93.01
338.729	60.24
338.942	64.34
339.154	58.2
339.367	-58.54
339.579	15.19
339.792	-46.25
340.004	107.35
340.217	-3.24
340.429	13.14
340.641	25.43
340.854	17.24
341.066	-11.43
341.278	74.58
341.491	72.53
341.703	29.52
341.915	17.24
342.128	-3.24
342.34	107.35
342.552	19.29
342.764	9.05
342.977	0.85
343.189	-3.24
343.401	23.38
343.613	-21.67
343.826	-33.96
344.038	27.48
344.25	25.43
344.462	21.33
344.674	-9.39
344.886	-15.53
345.099	35.67
345.311	-38.06
345.523	19.29
345.735	-40.11
345.947	-11.43
346.159	33.62
346.371	37.72
346.583	-52.39
346.795	72.53
347.007	23.38
347.219	43.86
347.431	37.72
347.643	93.01
347.855	-11.43
348.067	78.68
348.279	-19.63
348.491	66.39
348.703	23.38
348.915	-3.24
349.127	-31.91
349.339	47.96
349.551	23.38
349.763	11.09
349.975	-15.53
350.187	39.76
350.399	82.77
350.61	95.06
350.822	41.81
351.034	41.81
351.246	119.64
351.458	76.63
351.669	54.1
351.881	-9.39
352.093	45.91
352.305	54.1
352.517	31.57
352.728	58.2
352.94	68.44
353.152	58.2
353.363	39.76
353.575	-5.29
353.787	76.63
353.999	45.91
354.21	25.43
354.422	0.85
354.633	72.53
354.845	78.68
355.057	-9.39
355.268	29.52
355.48	56.15
355.692	56.15
355.903	4.95
356.115	27.48
356.326	33.62
356.538	33.62
356.749	41.81
356.961	76.63
357.172	39.76
357.384	-3.24
357.595	23.38
357.807	21.33
358.018	7
358.23	31.57
358.441	31.57
358.653	90.96
358.864	-58.54
359.075	82.77
359.287	7
359.498	54.1
359.709	47.96
359.921	50
360.132	29.52
360.344	-19.63
360.555	54.1
360.766	72.53
360.977	-1.19
361.189	-5.29
361.4	25.43
361.611	33.62
361.823	80.72
362.034	17.24
362.245	70.48
362.456	-15.53
362.667	17.24
362.879	31.57
363.09	47.96
363.301	47.96
363.512	15.19
363.723	13.14
363.935	31.57
364.146	37.72
364.357	9.05
364.568	33.62
364.779	9.05
364.99	82.77
365.201	2.9
365.412	88.92
365.623	39.76
365.834	9.05
366.045	72.53
366.256	21.33
366.467	17.24
366.678	50
366.889	25.43
367.1	50
367.311	-1.19
367.522	80.72
367.733	31.57
367.944	25.43
368.155	72.53
368.366	25.43
368.577	7
368.788	50
368.999	80.72
369.209	31.57
369.42	-11.43
369.631	39.76
369.842	29.52
370.053	123.73
370.264	43.86
370.474	-15.53
370.685	58.2
370.896	9.05
371.107	95.06
371.317	35.67
371.528	58.2
371.739	7
371.95	45.91
372.16	82.77
372.371	-5.29
372.582	113.49
372.792	54.1
373.003	-23.72
373.214	78.68
373.424	62.29
373.635	4.95
373.846	33.62
374.056	17.24
374.267	56.15
374.477	11.09
374.688	39.76
374.898	11.09
375.109	33.62
375.319	37.72
375.53	93.01
375.74	90.96
375.951	-33.96
376.161	25.43
376.372	107.35
376.582	4.95
376.793	74.58
377.003	7
377.214	-15.53
377.424	107.35
377.635	60.24
377.845	-1.19
378.055	99.16
378.266	47.96
378.476	31.57
378.686	41.81
378.897	25.43
379.107	-1.19
379.317	131.92
379.528	-19.63
379.738	93.01
379.948	-58.54
380.158	107.35
380.369	29.52
380.579	70.48
380.789	68.44
380.999	72.53
381.21	68.44
381.42	9.05
381.63	70.48
381.84	-33.96
382.05	9.05
382.261	58.2
382.471	60.24
382.681	-15.53
382.891	56.15
383.101	-42.15
383.311	-15.53
383.521	11.09
383.731	4.95
383.941	60.24
384.151	27.48
384.361	41.81
384.571	66.39
384.781	76.63
384.991	113.49
385.201	121.68
385.411	58.2
385.621	47.96
385.831	-58.54
386.041	27.48
386.251	19.29
386.461	64.34
386.671	41.81
386.881	-17.58
387.091	103.25
387.301	121.68
387.511	66.39
387.72	111.44
387.93	0.85
388.14	-58.54
388.35	-7.34
388.56	-3.24
388.769	148.31
388.979	37.72
389.189	39.76
389.399	64.34
389.609	123.73
389.818	47.96
390.028	109.4
390.238	52.05
390.447	82.77
390.657	29.52
390.867	39.76
391.076	90.96
391.286	43.86
391.496	25.43
391.705	58.2
391.915	17.24
392.125	50
392.334	15.19
392.544	107.35
392.753	80.72
392.963	107.35
393.172	56.15
393.382	47.96
393.591	78.68
393.801	62.29
394.01	123.73
394.22	50
394.429	35.67
394.639	25.43
394.848	54.1
395.058	29.52
395.267	152.4
395.477	33.62
395.686	99.16
395.895	84.82
396.105	138.07
396.314	54.1
396.524	-7.34
396.733	47.96
396.942	148.31
397.152	109.4
397.361	47.96
397.57	168.79
397.78	131.92
397.989	107.35
398.198	39.76
398.407	52.05
398.617	78.68
398.826	97.11
399.035	76.63
399.244	33.62
399.453	62.29
399.663	2.9
399.872	136.02
400.081	43.86
400.29	33.62
400.499	107.35
400.708	82.77
400.917	93.01
401.127	82.77
401.336	123.73
401.545	103.25
401.754	90.96
401.963	97.11
402.172	37.72
402.381	105.3
402.59	140.12
402.799	43.86
403.008	90.96
403.217	41.81
403.426	203.6
403.635	131.92
403.844	127.83
404.053	156.5
404.262	72.53
404.471	162.64
404.68	142.16
404.888	174.93
405.097	138.07
405.306	179.03
405.515	148.31
405.724	148.31
405.933	154.45
406.142	131.92
406.35	56.15
406.559	179.03
406.768	193.36
406.977	148.31
407.185	144.21
407.394	217.94
407.603	142.16
407.812	277.33
408.02	252.75
408.229	172.88
408.438	172.88
408.646	125.78
408.855	248.66
409.064	222.03
409.272	136.02
409.481	275.28
409.69	277.33
409.898	299.86
410.107	260.95
410.315	262.99
410.524	228.18
410.733	267.09
410.941	340.82
411.15	359.25
411.358	301.9
411.567	330.58
411.775	269.14
411.984	373.58
412.192	392.02
412.401	435.02
412.609	406.35
412.818	414.54
413.026	383.82
413.234	400.21
413.443	516.94
413.651	463.69
413.86	508.75
414.068	539.47
414.276	525.13
414.485	549.71
414.693	559.95
414.901	584.52
415.11	674.64
415.318	664.4
415.526	639.82
415.734	701.26
415.943	697.16
416.151	666.44
416.359	787.27
416.567	748.36
416.776	748.36
416.984	734.03
417.192	850.76
417.4	834.38
417.608	877.38
417.817	959.3
418.025	1000.26
418.233	1049.41
418.441	936.78
418.649	1073.99
418.857	1137.48
419.065	1213.25
419.273	1129.28
419.481	1280.83
419.689	1262.4
419.897	1266.5
420.105	1454.91
420.313	1442.62
420.521	1463.1
420.729	1407.81
420.937	1581.89
421.145	1614.65
421.353	1688.38
421.561	1745.72
421.769	1758.01
421.977	1809.21
422.185	1833.79
422.393	1862.46
422.601	1909.56
422.809	1999.67
423.017	1925.94
423.224	2071.35
423.432	2140.98
423.64	2278.19
423.848	2378.55
424.056	2394.93
424.263	2509.62
424.471	2597.68
424.679	2601.77
424.887	2816.81
425.094	2876.2
425.302	2812.71
425.51	2927.4
425.718	2937.64
425.925	3085.09
426.133	3099.43
426.341	3322.66
426.548	3543.84
426.756	3531.55
426.964	3545.89
427.171	3724.06
427.379	3767.07
427.586	3928.86
427.794	4125.46
428.001	4158.23
428.209	4295.44
428.417	4301.59
428.624	4582.16
428.832	4653.84
429.039	4573.97
429.247	4651.79
429.454	4975.37
429.662	5311.24
429.869	5059.34
430.076	5368.58
430.284	5317.38
430.491	5581.57
430.699	5724.93
430.906	5683.97
431.114	5868.28
431.321	6122.23
431.528	6181.62
431.736	6787.82
431.943	6888.17
432.15	6730.48
432.358	6853.36
432.565	7185.13
432.772	7103.21
432.979	7504.61
433.187	7662.3
433.394	7488.23
433.601	8313.56
433.808	8047.32
434.016	8299.22
434.223	8516.31
434.43	8977.1
434.637	8671.95
434.844	9288.39
435.052	9702.08
435.259	9517.76
435.466	9618.11
435.673	9349.83
435.88	10347.19
436.087	10666.67
436.294	10666.67
436.501	10169.02
436.708	10545.84
436.915	10867.38
437.122	11502.25
437.329	11346.6
437.537	11883.17
437.743	11940.51
437.95	11905.7
438.157	12395.16
438.364	12925.58
438.571	12911.25
438.778	13021.84
438.985	14277.24
439.192	13490.82
439.399	14189.18
439.606	13802.11
439.813	14680.69
440.02	15450.73
440.227	15053.42
440.433	15157.87
440.64	15354.48
440.847	15436.39
441.054	15825.51
441.261	16955.99
441.467	16648.79
441.674	17203.79
441.881	17427.02
442.088	17424.97
442.294	17197.65
442.501	17889.86
442.708	18217.54
442.914	18795.06
443.121	19673.64
443.328	18975.28
443.534	20423.2
443.741	19980.84
443.948	19671.59
444.154	21238.29
444.361	20881.94
444.568	20922.9
444.774	21094.93
444.981	21301.78
445.187	21989.89
445.394	23075.32
445.6	22530.56
445.807	24496.61
446.013	23751.15
446.22	24007.14
446.426	24988.12
446.633	25133.53
446.839	26251.72
447.046	25221.59
447.252	26546.62
447.459	26569.15
447.665	26229.19
447.871	27720.11
448.078	28770.72
448.284	27257.27
448.491	27902.38
448.697	29569.43
448.903	29606.29
449.11	29854.09
449.316	29258.13
449.522	29651.34
449.728	30630.27
449.935	30628.23
450.141	30654.85
450.347	31601.01
450.553	30249.35
450.76	30914.94
450.966	31676.79
451.172	31596.92
451.378	32581.99
451.584	31369.59
451.791	32067.95
451.997	32315.75
452.203	32518.5
452.409	32627.04
452.615	32876.9
452.821	31338.87
453.027	31062.4
453.233	32854.37
453.44	31396.21
453.646	31748.46
453.852	31748.46
454.058	32307.56
454.264	31172.99
454.47	32088.43
454.676	31428.98
454.882	32070
455.088	29579.67
455.294	30038.41
455.5	30171.53
455.705	30847.36
455.911	29616.53
456.117	28627.36
456.323	28471.71
456.529	26644.93
456.735	28205.48
456.941	27265.46
457.147	26646.97
457.352	26374.59
457.558	25545.17
457.764	26030.54
457.97	25346.51
458.176	24666.59
458.381	24764.89
458.587	23507.44
458.793	23794.15
458.999	22018.57
459.204	23642.6
459.41	23484.91
459.616	21793.29
459.821	21752.33
460.027	21799.43
460.233	21101.08
460.438	20531.74
460.644	20372
460.85	19522.09
461.055	19126.83
461.261	19284.53
461.466	17730.12
461.672	17244.75
461.878	18569.79
462.083	17279.57
462.289	16876.12
462.494	16792.15
462.7	16130.66
462.905	15800.93
463.111	16185.95
463.316	16237.15
463.522	15762.02
463.727	15911.52
463.932	16079.46
464.138	15796.84
464.343	15643.24
464.549	15356.52
464.754	15792.74
464.959	15633
465.165	15526.5
465.37	15022.7
465.575	14500.47
465.781	15053.42
465.986	15170.16
466.191	14666.36
466.397	14293.63
466.602	13738.63
466.807	14152.32
467.012	14146.17
467.218	14350.97
467.423	13963.9
467.628	13955.71
467.833	14568.06
468.038	14125.69
468.244	13861.51
468.449	14168.7
