Data from USB4F104151__194__11-09-52-121.txt Node

Date: Wed Mar 12 11:09:52 EDT 2025
User: louis
Spectrometer: USB4F10415
Trigger mode: 4
Integration Time (sec): 2.000000E-2
Scans to average: 1
Electric dark correction enabled: true
Nonlinearity correction enabled: false
Boxcar width: 0
XAxis mode: Wavelengths
Number of Pixels in Spectrum: 3648
>>>>>Begin Spectral Data<<<<<
178.204	-129.19
178.424	-129.19
178.644	-129.19
178.864	-92.33
179.084	-164.01
179.304	-8.36
179.524	-24.75
179.744	-16.55
179.964	22.36
180.184	5.97
180.404	-20.65
180.624	16.21
180.844	55.12
181.064	-55.47
181.283	-24.75
181.503	-24.75
181.723	75.6
181.943	-41.13
182.163	36.69
182.383	-12.46
182.602	36.69
182.822	-61.61
183.042	-30.89
183.262	-49.32
183.482	-8.36
183.701	-98.47
183.921	22.36
184.141	3.93
184.361	-47.27
184.58	-28.84
184.8	91.99
185.02	-8.36
185.239	77.65
185.459	-63.66
185.679	48.98
185.898	8.02
186.118	30.55
186.338	-24.75
186.557	-41.13
186.777	-43.18
186.997	24.4
187.216	46.93
187.436	30.55
187.655	-0.17
187.875	-28.84
188.095	30.55
188.314	-14.51
188.534	3.93
188.753	61.27
188.973	46.93
189.192	32.6
189.412	8.02
189.631	57.17
189.851	46.93
190.07	28.5
190.29	-8.36
190.509	-92.33
190.729	59.22
190.948	44.88
191.168	14.17
191.387	34.64
191.607	38.74
191.826	-43.18
192.045	-0.17
192.265	10.07
192.484	-6.31
192.704	16.21
192.923	3.93
193.142	44.88
193.362	26.45
193.581	77.65
193.8	-6.31
194.02	-18.6
194.239	69.46
194.458	-10.41
194.678	-43.18
194.897	48.98
195.116	-12.46
195.335	75.6
195.555	63.32
195.774	-47.27
195.993	40.79
196.212	-34.99
196.432	-61.61
196.651	-45.23
196.87	18.26
197.089	18.26
197.308	-6.31
197.528	18.26
197.747	32.6
197.966	-63.66
198.185	-20.65
198.404	18.26
198.623	-32.94
198.842	44.88
199.062	-4.27
199.281	36.69
199.5	8.02
199.719	14.17
199.938	12.12
200.157	44.88
200.376	-8.36
200.595	48.98
200.814	-22.7
201.033	-22.7
201.252	5.97
201.471	8.02
201.69	-28.84
201.909	40.79
202.128	1.88
202.347	42.84
202.566	-18.6
202.785	-20.65
203.004	14.17
203.223	96.08
203.442	36.69
203.661	-94.38
203.879	-10.41
204.098	16.21
204.317	-37.03
204.536	32.6
204.755	-34.99
204.974	16.21
205.193	-67.75
205.411	-20.65
205.63	44.88
205.849	42.84
206.068	-41.13
206.287	32.6
206.505	61.27
206.724	-6.31
206.943	16.21
207.162	16.21
207.381	-53.42
207.599	-12.46
207.818	38.74
208.037	38.74
208.255	30.55
208.474	-37.03
208.693	34.64
208.911	-16.55
209.13	8.02
209.349	61.27
209.567	-16.55
209.786	24.4
210.005	-10.41
210.223	40.79
210.442	-20.65
210.661	26.45
210.879	-30.89
211.098	-20.65
211.316	16.21
211.535	44.88
211.753	16.21
211.972	10.07
212.191	-4.27
212.409	14.17
212.628	-2.22
212.846	16.21
213.065	-24.75
213.283	65.36
213.502	-10.41
213.72	32.6
213.938	38.74
214.157	12.12
214.375	79.7
214.594	-10.41
214.812	-4.27
215.031	-71.85
215.249	28.5
215.467	-51.37
215.686	1.88
215.904	34.64
216.122	-34.99
216.341	53.08
216.559	32.6
216.778	67.41
216.996	-30.89
217.214	24.4
217.432	55.12
217.651	-2.22
217.869	-14.51
218.087	3.93
218.306	-39.08
218.524	40.79
218.742	53.08
218.96	42.84
219.179	16.21
219.397	-2.22
219.615	-6.31
219.833	57.17
220.051	5.97
220.27	55.12
220.488	5.97
220.706	34.64
220.924	26.45
221.142	-30.89
221.36	-0.17
221.578	5.97
221.796	-43.18
222.015	12.12
222.233	69.46
222.451	69.46
222.669	-30.89
222.887	51.03
223.105	-2.22
223.323	-28.84
223.541	42.84
223.759	-20.65
223.977	36.69
224.195	63.32
224.413	-51.37
224.631	44.88
224.849	-2.22
225.067	89.94
225.285	53.08
225.503	-12.46
225.721	-16.55
225.939	24.4
226.157	-14.51
226.375	-28.84
226.592	-4.27
226.81	-8.36
227.028	18.26
227.246	46.93
227.464	-10.41
227.682	77.65
227.9	59.22
228.117	-37.03
228.335	-16.55
228.553	5.97
228.771	-24.75
228.989	32.6
229.206	26.45
229.424	14.17
229.642	-12.46
229.86	-0.17
230.077	28.5
230.295	30.55
230.513	30.55
230.731	42.84
230.948	96.08
231.166	8.02
231.384	12.12
231.601	28.5
231.819	26.45
232.037	-20.65
232.254	18.26
232.472	3.93
232.689	-45.23
232.907	55.12
233.125	-26.79
233.342	3.93
233.56	-10.41
233.777	-2.22
233.995	28.5
234.213	48.98
234.43	20.31
234.648	-4.27
234.865	20.31
235.083	30.55
235.3	16.21
235.518	14.17
235.735	65.36
235.953	48.98
236.17	-22.7
236.388	10.07
236.605	3.93
236.822	53.08
237.04	5.97
237.257	-8.36
237.475	-30.89
237.692	22.36
237.909	18.26
238.127	-12.46
238.344	12.12
238.562	28.5
238.779	3.93
238.996	-43.18
239.214	24.4
239.431	-10.41
239.648	-75.95
239.865	-4.27
240.083	55.12
240.3	8.02
240.517	-43.18
240.735	69.46
240.952	44.88
241.169	-4.27
241.386	40.79
241.603	-6.31
241.821	106.32
242.038	57.17
242.255	61.27
242.472	12.12
242.689	-0.17
242.907	51.03
243.124	3.93
243.341	-32.94
243.558	-82.09
243.775	-45.23
243.992	-73.9
244.209	48.98
244.426	12.12
244.643	44.88
244.86	-28.84
245.078	44.88
245.295	-55.47
245.512	-20.65
245.729	26.45
245.946	48.98
246.163	10.07
246.38	34.64
246.597	-16.55
246.814	8.02
247.031	-0.17
247.248	57.17
247.464	16.21
247.681	-86.19
247.898	-6.31
248.115	16.21
248.332	40.79
248.549	61.27
248.766	73.56
248.983	38.74
249.2	100.18
249.417	30.55
249.633	12.12
249.85	18.26
250.067	-45.23
250.284	-26.79
250.501	12.12
250.717	-16.55
250.934	-12.46
251.151	-14.51
251.368	8.02
251.585	104.28
251.801	24.4
252.018	-51.37
252.235	1.88
252.451	-28.84
252.668	-18.6
252.885	38.74
253.102	16.21
253.318	-20.65
253.535	10.07
253.752	-37.03
253.968	14.17
254.185	-49.32
254.401	-45.23
254.618	-16.55
254.835	12.12
255.051	-32.94
255.268	-26.79
255.484	-18.6
255.701	-88.23
255.917	48.98
256.134	3.93
256.351	3.93
256.567	1.88
256.784	-51.37
257	8.02
257.217	32.6
257.433	57.17
257.65	18.26
257.866	-12.46
258.082	-16.55
258.299	-53.42
258.515	-0.17
258.732	-37.03
258.948	8.02
259.165	-43.18
259.381	28.5
259.597	36.69
259.814	10.07
260.03	-110.76
260.246	55.12
260.463	-57.51
260.679	53.08
260.895	20.31
261.112	34.64
261.328	-51.37
261.544	-39.08
261.761	12.12
261.977	1.88
262.193	-10.41
262.409	26.45
262.626	32.6
262.842	-51.37
263.058	12.12
263.274	-0.17
263.49	28.5
263.707	-14.51
263.923	-0.17
264.139	-22.7
264.355	-18.6
264.571	16.21
264.787	24.4
265.004	32.6
265.22	-20.65
265.436	-16.55
265.652	-26.79
265.868	-0.17
266.084	12.12
266.3	28.5
266.516	12.12
266.732	53.08
266.948	-4.27
267.164	-28.84
267.38	61.27
267.596	-55.47
267.812	53.08
268.028	48.98
268.244	22.36
268.46	-14.51
268.676	16.21
268.892	38.74
269.108	10.07
269.324	-12.46
269.54	-84.14
269.756	20.31
269.972	-10.41
270.188	32.6
270.403	14.17
270.619	94.04
270.835	38.74
271.051	-2.22
271.267	10.07
271.483	30.55
271.698	46.93
271.914	42.84
272.13	28.5
272.346	-14.51
272.562	-24.75
272.777	89.94
272.993	34.64
273.209	61.27
273.425	-8.36
273.64	46.93
273.856	104.28
274.072	-16.55
274.287	1.88
274.503	-18.6
274.719	-10.41
274.934	1.88
275.15	-49.32
275.366	38.74
275.581	73.56
275.797	81.75
276.012	-59.56
276.228	3.93
276.444	24.4
276.659	22.36
276.875	26.45
277.09	40.79
277.306	34.64
277.521	-0.17
277.737	-84.14
277.952	-4.27
278.168	46.93
278.383	8.02
278.599	40.79
278.814	-18.6
279.03	-39.08
279.245	20.31
279.461	32.6
279.676	18.26
279.892	-6.31
280.107	36.69
280.322	-8.36
280.538	-8.36
280.753	-12.46
280.969	-2.22
281.184	-24.75
281.399	5.97
281.615	-8.36
281.83	53.08
282.045	-65.71
282.26	-4.27
282.476	91.99
282.691	83.8
282.906	55.12
283.122	1.88
283.337	-22.7
283.552	83.8
283.767	53.08
283.983	-6.31
284.198	5.97
284.413	-24.75
284.628	-6.31
284.843	28.5
285.058	48.98
285.274	69.46
285.489	-14.51
285.704	24.4
285.919	-10.41
286.134	22.36
286.349	-16.55
286.564	65.36
286.779	5.97
286.995	-4.27
287.21	-49.32
287.425	36.69
287.64	12.12
287.855	-32.94
288.07	-8.36
288.285	-12.46
288.5	32.6
288.715	28.5
288.93	14.17
289.145	-0.17
289.36	20.31
289.575	75.6
289.79	5.97
290.004	-55.47
290.219	-20.65
290.434	26.45
290.649	26.45
290.864	28.5
291.079	8.02
291.294	40.79
291.509	-32.94
291.724	53.08
291.938	63.32
292.153	-43.18
292.368	-2.22
292.583	28.5
292.798	22.36
293.012	34.64
293.227	14.17
293.442	16.21
293.657	28.5
293.871	34.64
294.086	-24.75
294.301	69.46
294.516	46.93
294.73	44.88
294.945	-24.75
295.16	-45.23
295.374	18.26
295.589	59.22
295.804	3.93
296.018	61.27
296.233	28.5
296.447	30.55
296.662	-45.23
296.877	1.88
297.091	22.36
297.306	10.07
297.52	24.4
297.735	22.36
297.949	36.69
298.164	89.94
298.378	36.69
298.593	20.31
298.807	28.5
299.022	20.31
299.236	48.98
299.451	-12.46
299.665	8.02
299.88	51.03
300.094	36.69
300.309	-16.55
300.523	22.36
300.737	14.17
300.952	-2.22
301.166	46.93
301.381	-12.46
301.595	-12.46
301.809	3.93
302.024	-20.65
302.238	20.31
302.452	20.31
302.667	-34.99
302.881	67.41
303.095	89.94
303.309	38.74
303.524	-53.42
303.738	-26.79
303.952	16.21
304.166	38.74
304.381	-82.09
304.595	48.98
304.809	-28.84
305.023	-0.17
305.237	32.6
305.452	-6.31
305.666	-28.84
305.88	-14.51
306.094	20.31
306.308	40.79
306.522	57.17
306.736	57.17
306.95	1.88
307.164	83.8
307.379	63.32
307.593	42.84
307.807	51.03
308.021	67.41
308.235	-51.37
308.449	-67.75
308.663	20.31
308.877	83.8
309.091	-12.46
309.305	73.56
309.519	-43.18
309.733	14.17
309.947	18.26
310.161	36.69
310.374	57.17
310.588	61.27
310.802	36.69
311.016	-20.65
311.23	-24.75
311.444	16.21
311.658	-4.27
311.872	26.45
312.085	-75.95
312.299	77.65
312.513	-43.18
312.727	-12.46
312.941	-28.84
313.154	71.51
313.368	16.21
313.582	98.13
313.796	-0.17
314.009	30.55
314.223	8.02
314.437	18.26
314.651	3.93
314.864	-8.36
315.078	-49.32
315.292	10.07
315.505	-41.13
315.719	77.65
315.933	18.26
316.146	79.7
316.36	-53.42
316.573	116.56
316.787	32.6
317.001	-30.89
317.214	-53.42
317.428	-32.94
317.641	69.46
317.855	40.79
318.068	5.97
318.282	42.84
318.495	44.88
318.709	12.12
318.922	3.93
319.136	-43.18
319.349	55.12
319.563	-41.13
319.776	-2.22
319.99	73.56
320.203	-10.41
320.417	-12.46
320.63	57.17
320.843	53.08
321.057	-24.75
321.27	81.75
321.483	65.36
321.697	-8.36
321.91	34.64
322.124	65.36
322.337	24.4
322.55	55.12
322.763	-16.55
322.977	38.74
323.19	-0.17
323.403	42.84
323.617	18.26
323.83	30.55
324.043	-37.03
324.256	3.93
324.469	-10.41
324.683	32.6
324.896	-30.89
325.109	-30.89
325.322	-131.24
325.535	24.4
325.748	-34.99
325.962	24.4
326.175	40.79
326.388	-12.46
326.601	8.02
326.814	63.32
327.027	-10.41
327.24	34.64
327.453	79.7
327.666	-4.27
327.879	-6.31
328.092	1.88
328.305	22.36
328.518	85.84
328.731	59.22
328.944	32.6
329.157	51.03
329.37	5.97
329.583	53.08
329.796	112.47
330.009	-57.51
330.222	48.98
330.435	51.03
330.648	34.64
330.861	5.97
331.073	102.23
331.286	14.17
331.499	12.12
331.712	-16.55
331.925	53.08
332.138	-71.85
332.35	16.21
332.563	-4.27
332.776	-26.79
332.989	-24.75
333.202	40.79
333.414	3.93
333.627	-20.65
333.84	-47.27
334.053	-49.32
334.265	12.12
334.478	18.26
334.691	-24.75
334.903	-61.61
335.116	38.74
335.329	-4.27
335.541	8.02
335.754	-32.94
335.966	26.45
336.179	75.6
336.392	53.08
336.604	24.4
336.817	32.6
337.029	-24.75
337.242	10.07
337.454	57.17
337.667	55.12
337.88	20.31
338.092	38.74
338.305	-45.23
338.517	16.21
338.729	38.74
338.942	-6.31
339.154	14.17
339.367	48.98
339.579	106.32
339.792	53.08
340.004	104.28
340.217	28.5
340.429	51.03
340.641	46.93
340.854	73.56
341.066	16.21
341.278	32.6
341.491	-6.31
341.703	48.98
341.915	-0.17
342.128	-26.79
342.34	55.12
342.552	-30.89
342.764	40.79
342.977	8.02
343.189	-41.13
343.401	69.46
343.613	-88.23
343.826	-28.84
344.038	12.12
344.25	34.64
344.462	63.32
344.674	12.12
344.886	14.17
345.099	10.07
345.311	81.75
345.523	-20.65
345.735	-41.13
345.947	65.36
346.159	-28.84
346.371	-10.41
346.583	-0.17
346.795	40.79
347.007	-39.08
347.219	18.26
347.431	-0.17
347.643	81.75
347.855	14.17
348.067	34.64
348.279	34.64
348.491	-6.31
348.703	20.31
348.915	67.41
349.127	16.21
349.339	-4.27
349.551	-20.65
349.763	-8.36
349.975	8.02
350.187	-14.51
350.399	-41.13
350.61	48.98
350.822	71.51
351.034	48.98
351.246	8.02
351.458	36.69
351.669	46.93
351.881	40.79
352.093	5.97
352.305	28.5
352.517	-18.6
352.728	3.93
352.94	22.36
353.152	69.46
353.363	-16.55
353.575	-2.22
353.787	-24.75
353.999	-43.18
354.21	14.17
354.422	16.21
354.633	53.08
354.845	1.88
355.057	16.21
355.268	-45.23
355.48	28.5
355.692	73.56
355.903	-0.17
356.115	20.31
356.326	5.97
356.538	20.31
356.749	-26.79
356.961	12.12
357.172	-0.17
357.384	-16.55
357.595	-0.17
357.807	-55.47
358.018	26.45
358.23	46.93
358.441	55.12
358.653	14.17
358.864	48.98
359.075	26.45
359.287	42.84
359.498	38.74
359.709	-4.27
359.921	36.69
360.132	57.17
360.344	61.27
360.555	20.31
360.766	100.18
360.977	-6.31
361.189	120.66
361.4	-43.18
361.611	22.36
361.823	69.46
362.034	53.08
362.245	26.45
362.456	44.88
362.667	-2.22
362.879	-39.08
363.09	48.98
363.301	30.55
363.512	-55.47
363.723	-2.22
363.935	20.31
364.146	22.36
364.357	16.21
364.568	85.84
364.779	-61.61
364.99	32.6
365.201	-41.13
365.412	42.84
365.623	22.36
365.834	48.98
366.045	96.08
366.256	63.32
366.467	5.97
366.678	18.26
366.889	16.21
367.1	26.45
367.311	10.07
367.522	-26.79
367.733	55.12
367.944	51.03
368.155	94.04
368.366	51.03
368.577	102.23
368.788	38.74
368.999	24.4
369.209	59.22
369.42	-8.36
369.631	124.76
369.842	34.64
370.053	22.36
370.264	38.74
370.474	38.74
370.685	14.17
370.896	-6.31
371.107	55.12
371.317	55.12
371.528	42.84
371.739	44.88
371.95	79.7
372.16	38.74
372.371	-2.22
372.582	-45.23
372.792	3.93
373.003	20.31
373.214	-39.08
373.424	85.84
373.635	40.79
373.846	20.31
374.056	-63.66
374.267	48.98
374.477	-0.17
374.688	-39.08
374.898	-12.46
375.109	-0.17
375.319	48.98
375.53	14.17
375.74	8.02
375.951	34.64
376.161	-32.94
376.372	55.12
376.582	-30.89
376.793	57.17
377.003	59.22
377.214	46.93
377.424	-37.03
377.635	3.93
377.845	-8.36
378.055	57.17
378.266	40.79
378.476	75.6
378.686	-20.65
378.897	61.27
379.107	-2.22
379.317	-12.46
379.528	-18.6
379.738	3.93
379.948	-20.65
380.158	34.64
380.369	26.45
380.579	126.8
380.789	28.5
380.999	34.64
381.21	-14.51
381.42	34.64
381.63	-47.27
381.84	20.31
382.05	16.21
382.261	53.08
382.471	46.93
382.681	96.08
382.891	59.22
383.101	40.79
383.311	34.64
383.521	32.6
383.731	94.04
383.941	26.45
384.151	1.88
384.361	-14.51
384.571	18.26
384.781	85.84
384.991	63.32
385.201	61.27
385.411	85.84
385.621	32.6
385.831	5.97
386.041	12.12
386.251	51.03
386.461	-30.89
386.671	5.97
386.881	14.17
387.091	-47.27
387.301	69.46
387.511	32.6
387.72	5.97
387.93	65.36
388.14	16.21
388.35	-0.17
388.56	75.6
388.769	57.17
388.979	26.45
389.189	-102.57
389.399	-2.22
389.609	57.17
389.818	65.36
390.028	14.17
390.238	46.93
390.447	44.88
390.657	69.46
390.867	8.02
391.076	30.55
391.286	28.5
391.496	5.97
391.705	14.17
391.915	-10.41
392.125	14.17
392.334	16.21
392.544	20.31
392.753	48.98
392.963	-32.94
393.172	-2.22
393.382	-16.55
393.591	85.84
393.801	-12.46
394.01	132.95
394.22	65.36
394.429	34.64
394.639	5.97
394.848	98.13
395.058	22.36
395.267	51.03
395.477	22.36
395.686	28.5
395.895	104.28
396.105	96.08
396.314	122.71
396.524	73.56
396.733	51.03
396.942	48.98
397.152	-18.6
397.361	-8.36
397.57	-10.41
397.78	67.41
397.989	42.84
398.198	22.36
398.407	46.93
398.617	124.76
398.826	48.98
399.035	53.08
399.244	137.04
399.453	100.18
399.663	108.37
399.872	73.56
400.081	-0.17
400.29	69.46
400.499	28.5
400.708	-32.94
400.917	126.8
401.127	44.88
401.336	-8.36
401.545	106.32
401.754	81.75
401.963	69.46
402.172	67.41
402.381	55.12
402.59	53.08
402.799	135
403.008	8.02
403.217	79.7
403.426	53.08
403.635	112.47
403.844	42.84
404.053	46.93
404.262	102.23
404.471	42.84
404.68	44.88
404.888	8.02
405.097	63.32
405.306	67.41
405.515	135
405.724	100.18
405.933	87.89
406.142	81.75
406.35	155.47
406.559	57.17
406.768	161.62
406.977	161.62
407.185	71.51
407.394	141.14
407.603	153.43
407.812	102.23
408.02	102.23
408.229	178
408.438	130.9
408.646	91.99
408.855	100.18
409.064	153.43
409.272	108.37
409.481	143.19
409.69	161.62
409.898	157.52
410.107	221.01
410.315	204.63
410.524	161.62
410.733	178
410.941	210.77
411.15	208.72
411.358	200.53
411.567	229.2
411.775	208.72
411.984	212.82
412.192	157.52
412.401	161.62
412.609	284.5
412.818	313.17
413.026	331.6
413.234	231.25
413.443	280.4
413.651	298.83
413.86	292.69
414.068	319.31
414.276	345.94
414.485	311.12
414.693	372.56
414.901	413.52
415.11	421.71
415.318	413.52
415.526	409.42
415.734	409.42
415.943	401.23
416.151	454.48
416.359	356.18
416.567	438.09
416.776	434
416.984	528.21
417.192	501.58
417.4	560.97
417.608	450.38
417.817	581.45
418.025	630.6
418.233	692.04
418.441	628.56
418.649	556.88
418.857	681.8
419.065	782.15
419.273	743.24
419.481	755.53
419.689	780.11
419.897	853.83
420.105	868.17
420.313	982.85
420.521	888.65
420.729	931.66
420.937	911.18
421.145	917.32
421.353	997.19
421.561	1128.26
421.769	1101.64
421.977	1175.36
422.185	1060.68
422.393	1093.44
422.601	1300.29
422.809	1224.51
423.017	1388.35
423.224	1322.82
423.432	1431.36
423.64	1328.96
423.848	1630.01
424.056	1523.52
424.263	1619.77
424.471	1562.43
424.679	1593.15
424.887	1685.31
425.094	1683.26
425.302	1740.6
425.51	1896.25
425.718	1892.15
425.925	1879.86
426.133	1961.78
426.341	1945.4
426.548	2211.64
426.756	2129.72
426.964	2174.77
427.171	2340.66
427.379	2357.04
427.586	2250.55
427.794	2512.69
428.001	2608.94
428.209	2690.86
428.417	2697
428.624	2934.57
428.832	2750.25
429.039	2838.31
429.247	2756.4
429.454	2981.67
429.662	3297.06
429.869	3106.6
430.076	3211.04
430.284	3227.43
430.491	3401.51
430.699	3493.66
430.906	3594.01
431.114	3499.81
431.321	3716.89
431.528	3757.85
431.736	3936.03
431.943	4187.93
432.15	4226.84
432.358	4155.16
432.565	4388.63
432.772	4417.3
432.979	4544.27
433.187	4667.15
433.394	4751.12
433.601	5142.28
433.808	4902.67
434.016	5009.16
434.223	5091.08
434.43	5410.56
434.637	5259.01
434.844	5762.81
435.052	5771.01
435.259	5740.29
435.466	5955.32
435.673	5932.79
435.88	6260.47
436.087	6502.13
436.294	6450.93
436.501	6442.74
436.708	6467.31
436.915	6590.19
437.122	6825.71
437.329	6819.57
437.537	7186.15
437.743	7321.32
437.95	7325.41
438.157	7577.31
438.364	7855.84
438.571	7861.98
438.778	7814.88
438.985	8601.3
439.192	8177.37
439.399	8677.07
439.606	8431.32
439.813	8892.11
440.02	9457.35
440.227	9256.65
440.433	9060.04
440.64	9486.02
440.847	9381.57
441.054	9596.61
441.261	10143.42
441.467	10002.11
441.674	10280.63
441.881	10698.42
442.088	10561.2
442.294	10383.03
442.501	11007.66
442.708	11085.48
442.914	11476.65
443.121	11757.22
443.328	11660.96
443.534	12179.1
443.741	12230.3
443.948	11994.78
444.154	12676.76
444.361	12609.17
444.568	12834.45
444.774	12871.31
444.981	12897.94
445.187	13508.23
445.394	13895.3
445.6	13598.34
445.807	14980.72
446.013	14327.42
446.22	14528.12
446.426	15130.22
446.633	15212.14
446.839	15892.07
447.046	15279.72
447.252	15949.41
447.459	15965.79
447.665	15982.18
447.871	16555.61
448.078	17301.07
448.284	16383.58
448.491	16895.57
448.697	17555.02
448.903	17684.04
449.11	18044.48
449.316	17389.13
449.522	17899.08
449.728	18447.93
449.935	18443.84
450.141	18298.43
450.347	19050.03
450.553	18445.88
450.76	18538.04
450.966	19086.9
451.172	18857.53
451.378	19215.92
451.584	18806.33
451.791	19676.71
451.997	19570.22
452.203	19713.58
452.409	19625.51
452.615	19633.71
452.821	18746.94
453.027	18673.21
453.233	19504.68
453.44	18751.03
453.646	18990.64
453.852	19326.51
454.058	19095.09
454.264	18624.06
454.47	19181.1
454.676	18589.24
454.882	19480.11
455.088	17589.83
455.294	17897.03
455.5	18249.28
455.705	18175.55
455.911	17567.31
456.117	17253.97
456.323	17049.17
456.529	15879.78
456.735	16371.29
456.941	16154.21
457.147	15961.7
457.352	15531.62
457.558	15283.82
457.764	15429.23
457.97	15167.09
458.176	14802.55
458.381	14556.79
458.587	14044.8
458.793	13801.09
458.999	13377.16
459.204	14253.69
459.41	13672.07
459.616	12850.83
459.821	12734.1
460.027	12793.49
460.233	12613.27
460.438	11771.55
460.644	12164.76
460.85	11450.02
461.055	11474.6
461.261	11402.92
461.466	10587.83
461.672	10186.43
461.878	10739.38
462.083	10182.33
462.289	9969.34
462.494	9836.22
462.7	9463.49
462.905	9109.19
463.111	9496.26
463.316	9610.95
463.522	9422.53
463.727	9440.97
463.932	9197.26
464.138	9291.46
464.343	9250.5
464.549	8863.44
464.754	9289.42
464.959	9240.26
465.165	9033.42
465.37	8709.84
465.575	8529.62
465.781	9029.32
465.986	9002.7
466.191	8687.31
466.397	8419.03
466.602	8066.78
466.807	8429.27
467.012	8519.38
467.218	8363.73
467.423	8128.22
467.628	8335.06
467.833	8763.09
