Data from USB4F104151__216__11-10-37-568.txt Node

Date: Wed Mar 12 11:10:37 EDT 2025
User: louis
Spectrometer: USB4F10415
Trigger mode: 4
Integration Time (sec): 2.000000E-2
Scans to average: 1
Electric dark correction enabled: true
Nonlinearity correction enabled: false
Boxcar width: 0
XAxis mode: Wavelengths
Number of Pixels in Spectrum: 3648
>>>>>Begin Spectral Data<<<<<
178.204	-136.7
178.424	-136.7
178.644	-136.7
178.864	-159.23
179.084	-65.02
179.304	-11.78
179.524	-22.02
179.744	10.75
179.964	-3.58
180.184	4.61
180.404	-17.92
180.624	-13.82
180.844	-42.5
181.064	-13.82
181.283	35.33
181.503	51.71
181.723	23.04
181.943	-93.69
182.163	35.33
182.383	-26.11
182.602	12.8
182.822	45.57
183.042	53.76
183.262	53.76
183.482	-32.26
183.701	33.28
183.921	-19.97
184.141	-13.82
184.361	0.51
184.58	35.33
184.8	-3.58
185.02	-26.11
185.239	53.76
185.459	84.48
185.679	55.81
185.898	-3.58
186.118	41.47
186.338	16.9
186.557	16.9
186.777	33.28
186.997	35.33
187.216	35.33
187.436	25.09
187.655	16.9
187.875	57.86
188.095	39.42
188.314	98.81
188.534	82.43
188.753	12.8
188.973	25.09
189.192	82.43
189.412	16.9
189.631	43.52
189.851	4.61
190.07	74.24
190.29	-60.93
190.509	27.14
190.729	-17.92
190.948	68.09
191.168	92.67
191.387	25.09
191.607	-48.64
191.826	2.56
192.045	70.14
192.265	-11.78
192.484	96.77
192.704	-32.26
192.923	27.14
193.142	10.75
193.362	119.29
193.581	131.58
193.8	-46.59
194.02	33.28
194.239	14.85
194.458	-32.26
194.678	12.8
194.897	4.61
195.116	-52.74
195.335	8.7
195.555	45.57
195.774	-9.73
195.993	-30.21
196.212	-13.82
196.432	-11.78
196.651	-62.98
196.87	20.99
197.089	84.48
197.308	10.75
197.528	70.14
197.747	-101.89
197.966	-9.73
198.185	107.01
198.404	-19.97
198.623	29.18
198.842	14.85
199.062	57.86
199.281	45.57
199.5	-1.54
199.719	53.76
199.938	-11.78
200.157	18.94
200.376	53.76
200.595	-9.73
200.814	49.66
201.033	-9.73
201.252	59.9
201.471	2.56
201.69	2.56
201.909	0.51
202.128	55.81
202.347	-38.4
202.566	57.86
202.785	20.99
203.004	-44.54
203.223	143.87
203.442	4.61
203.661	-42.5
203.879	12.8
204.098	80.38
204.317	43.52
204.536	74.24
204.755	-22.02
204.974	49.66
205.193	53.76
205.411	68.09
205.63	8.7
205.849	57.86
206.068	-46.59
206.287	31.23
206.505	-22.02
206.724	-32.26
206.943	-5.63
207.162	4.61
207.381	53.76
207.599	6.66
207.818	33.28
208.037	12.8
208.255	16.9
208.474	-3.58
208.693	-15.87
208.911	-11.78
209.13	27.14
209.349	47.62
209.567	29.18
209.786	-22.02
210.005	16.9
210.223	25.09
210.442	-38.4
210.661	53.76
210.879	16.9
211.098	70.14
211.316	20.99
211.535	33.28
211.753	2.56
211.972	-11.78
212.191	107.01
212.409	-7.68
212.628	-1.54
212.846	-1.54
213.065	74.24
213.283	-15.87
213.502	-28.16
213.72	-15.87
213.938	27.14
214.157	16.9
214.375	-3.58
214.594	4.61
214.812	-32.26
215.031	55.81
215.249	-19.97
215.467	70.14
215.686	12.8
215.904	-11.78
216.122	0.51
216.341	10.75
216.559	4.61
216.778	23.04
216.996	70.14
217.214	-71.17
217.432	-44.54
217.651	-32.26
217.869	41.47
218.087	86.53
218.306	-69.12
218.524	14.85
218.742	-114.17
218.96	4.61
219.179	25.09
219.397	-19.97
219.615	35.33
219.833	59.9
220.051	-28.16
220.27	117.25
220.488	49.66
220.706	66.05
220.924	0.51
221.142	-7.68
221.36	123.39
221.578	27.14
221.796	-32.26
222.015	45.57
222.233	55.81
222.451	109.05
222.669	-7.68
222.887	-13.82
223.105	-40.45
223.323	-30.21
223.541	51.71
223.759	20.99
223.977	-1.54
224.195	57.86
224.413	57.86
224.631	43.52
224.849	14.85
225.067	70.14
225.285	57.86
225.503	-3.58
225.721	-65.02
225.939	-19.97
226.157	76.29
226.375	55.81
226.592	29.18
226.81	35.33
227.028	45.57
227.246	41.47
227.464	-3.58
227.682	61.95
227.9	51.71
228.117	66.05
228.335	29.18
228.553	14.85
228.771	-1.54
228.989	31.23
229.206	6.66
229.424	-42.5
229.642	35.33
229.86	-56.83
230.077	-5.63
230.295	-26.11
230.513	72.19
230.731	88.57
230.948	68.09
231.166	31.23
231.384	-60.93
231.601	37.38
231.819	2.56
232.037	-42.5
232.254	6.66
232.472	18.94
232.689	10.75
232.907	6.66
233.125	27.14
233.342	8.7
233.56	-46.59
233.777	80.38
233.995	68.09
234.213	55.81
234.43	-26.11
234.648	-7.68
234.865	45.57
235.083	-26.11
235.3	-9.73
235.518	115.2
235.735	111.1
235.953	23.04
236.17	16.9
236.388	14.85
236.605	49.66
236.822	107.01
237.04	33.28
237.257	-28.16
237.475	33.28
237.692	2.56
237.909	76.29
238.127	-15.87
238.344	92.67
238.562	57.86
238.779	-46.59
238.996	-99.84
239.214	-1.54
239.431	-73.21
239.648	57.86
239.865	20.99
240.083	59.9
240.3	51.71
240.517	25.09
240.735	-7.68
240.952	23.04
241.169	72.19
241.386	8.7
241.603	-11.78
241.821	25.09
242.038	57.86
242.255	25.09
242.472	35.33
242.689	14.85
242.907	57.86
243.124	-22.02
243.341	-42.5
243.558	-3.58
243.775	29.18
243.992	-24.06
244.209	-1.54
244.426	47.62
244.643	72.19
244.86	-5.63
245.078	43.52
245.295	12.8
245.512	-26.11
245.729	-5.63
245.946	55.81
246.163	41.47
246.38	53.76
246.597	59.9
246.814	-34.3
247.031	-75.26
247.248	88.57
247.464	57.86
247.681	61.95
247.898	20.99
248.115	39.42
248.332	45.57
248.549	0.51
248.766	45.57
248.983	55.81
249.2	-24.06
249.417	51.71
249.633	39.42
249.85	47.62
250.067	18.94
250.284	33.28
250.501	-7.68
250.717	-11.78
250.934	-24.06
251.151	68.09
251.368	-9.73
251.585	88.57
251.801	29.18
252.018	59.9
252.235	-13.82
252.451	6.66
252.668	12.8
252.885	55.81
253.102	66.05
253.318	-58.88
253.535	0.51
253.752	-15.87
253.968	6.66
254.185	12.8
254.401	64
254.618	70.14
254.835	-48.64
255.051	78.33
255.268	16.9
255.484	23.04
255.701	12.8
255.917	41.47
256.134	-60.93
256.351	47.62
256.567	8.7
256.784	39.42
257	39.42
257.217	20.99
257.433	68.09
257.65	-19.97
257.866	94.72
258.082	18.94
258.299	14.85
258.515	29.18
258.732	6.66
258.948	27.14
259.165	10.75
259.381	2.56
259.597	-32.26
259.814	102.91
260.03	16.9
260.246	49.66
260.463	-24.06
260.679	49.66
260.895	-24.06
261.112	-3.58
261.328	6.66
261.544	10.75
261.761	45.57
261.977	-7.68
262.193	37.38
262.409	16.9
262.626	68.09
262.842	66.05
263.058	-15.87
263.274	2.56
263.49	27.14
263.707	82.43
263.923	29.18
264.139	-11.78
264.355	2.56
264.571	53.76
264.787	59.9
265.004	90.62
265.22	27.14
265.436	29.18
265.652	2.56
265.868	20.99
266.084	31.23
266.3	29.18
266.516	-15.87
266.732	12.8
266.948	-9.73
267.164	-5.63
267.38	47.62
267.596	41.47
267.812	49.66
268.028	41.47
268.244	12.8
268.46	45.57
268.676	23.04
268.892	74.24
269.108	-62.98
269.324	49.66
269.54	-26.11
269.756	49.66
269.972	29.18
270.188	49.66
270.403	-9.73
270.619	-62.98
270.835	-15.87
271.051	20.99
271.267	-5.63
271.483	78.33
271.698	-3.58
271.914	29.18
272.13	16.9
272.346	66.05
272.562	29.18
272.777	57.86
272.993	25.09
273.209	31.23
273.425	-11.78
273.64	-9.73
273.856	84.48
274.072	-3.58
274.287	20.99
274.503	31.23
274.719	51.71
274.934	43.52
275.15	-15.87
275.366	43.52
275.581	70.14
275.797	-13.82
276.012	-3.58
276.228	12.8
276.444	-48.64
276.659	84.48
276.875	-54.78
277.09	12.8
277.306	31.23
277.521	-42.5
277.737	27.14
277.952	47.62
278.168	78.33
278.383	37.38
278.599	-36.35
278.814	66.05
279.03	-40.45
279.245	29.18
279.461	20.99
279.676	16.9
279.892	31.23
280.107	-9.73
280.322	-19.97
280.538	33.28
280.753	-60.93
280.969	109.05
281.184	109.05
281.399	-26.11
281.615	-24.06
281.83	-22.02
282.045	-67.07
282.26	2.56
282.476	53.76
282.691	0.51
282.906	61.95
283.122	-5.63
283.337	37.38
283.552	74.24
283.767	55.81
283.983	45.57
284.198	-19.97
284.413	35.33
284.628	18.94
284.843	37.38
285.058	20.99
285.274	20.99
285.489	94.72
285.704	43.52
285.919	-89.6
286.134	51.71
286.349	2.56
286.564	-15.87
286.779	41.47
286.995	29.18
287.21	-24.06
287.425	68.09
287.64	12.8
287.855	2.56
288.07	49.66
288.285	29.18
288.5	-30.21
288.715	8.7
288.93	-7.68
289.145	-22.02
289.36	70.14
289.575	-60.93
289.79	-28.16
290.004	20.99
290.219	53.76
290.434	-69.12
290.649	35.33
290.864	2.56
291.079	47.62
291.294	-13.82
291.509	25.09
291.724	90.62
291.938	49.66
292.153	100.86
292.368	-22.02
292.583	47.62
292.798	8.7
293.012	84.48
293.227	-9.73
293.442	31.23
293.657	29.18
293.871	61.95
294.086	45.57
294.301	82.43
294.516	12.8
294.73	-15.87
294.945	53.76
295.16	2.56
295.374	39.42
295.589	66.05
295.804	-40.45
296.018	23.04
296.233	-13.82
296.447	-30.21
296.662	2.56
296.877	-13.82
297.091	41.47
297.306	61.95
297.52	6.66
297.735	2.56
297.949	18.94
298.164	115.2
298.378	-56.83
298.593	16.9
298.807	-26.11
299.022	23.04
299.236	-3.58
299.451	45.57
299.665	-30.21
299.88	33.28
300.094	-13.82
300.309	61.95
300.523	61.95
300.737	-40.45
300.952	35.33
301.166	107.01
301.381	25.09
301.595	-3.58
301.809	68.09
302.024	27.14
302.238	-36.35
302.452	-30.21
302.667	-60.93
302.881	49.66
303.095	43.52
303.309	70.14
303.524	33.28
303.738	16.9
303.952	33.28
304.166	51.71
304.381	0.51
304.595	29.18
304.809	6.66
305.023	78.33
305.237	37.38
305.452	14.85
305.666	12.8
305.88	78.33
306.094	27.14
306.308	-46.59
306.522	8.7
306.736	41.47
306.95	82.43
307.164	16.9
307.379	51.71
307.593	86.53
307.807	45.57
308.021	16.9
308.235	-3.58
308.449	33.28
308.663	-11.78
308.877	92.67
309.091	-7.68
309.305	-71.17
309.519	55.81
309.733	6.66
309.947	90.62
310.161	-15.87
310.374	41.47
310.588	117.25
310.802	-9.73
311.016	80.38
311.23	18.94
311.444	61.95
311.658	-13.82
311.872	43.52
312.085	33.28
312.299	90.62
312.513	49.66
312.727	45.57
312.941	-87.55
313.154	82.43
313.368	-44.54
313.582	8.7
313.796	84.48
314.009	0.51
314.223	49.66
314.437	86.53
314.651	39.42
314.864	0.51
315.078	29.18
315.292	-24.06
315.505	29.18
315.719	-5.63
315.933	90.62
316.146	47.62
316.36	-28.16
316.573	94.72
316.787	20.99
317.001	6.66
317.214	-3.58
317.428	2.56
317.641	-46.59
317.855	51.71
318.068	20.99
318.282	23.04
318.495	10.75
318.709	72.19
318.922	10.75
319.136	55.81
319.349	76.29
319.563	-28.16
319.776	70.14
319.99	31.23
320.203	84.48
320.417	33.28
320.63	47.62
320.843	98.81
321.057	61.95
321.27	12.8
321.483	57.86
321.697	33.28
321.91	2.56
322.124	57.86
322.337	14.85
322.55	25.09
322.763	35.33
322.977	72.19
323.19	-11.78
323.403	-7.68
323.617	0.51
323.83	41.47
324.043	18.94
324.256	16.9
324.469	12.8
324.683	57.86
324.896	41.47
325.109	18.94
325.322	74.24
325.535	39.42
325.748	37.38
325.962	29.18
326.175	4.61
326.388	57.86
326.601	2.56
326.814	29.18
327.027	12.8
327.24	47.62
327.453	-26.11
327.666	8.7
327.879	-40.45
328.092	41.47
328.305	49.66
328.518	18.94
328.731	6.66
328.944	39.42
329.157	59.9
329.37	49.66
329.583	86.53
329.796	51.71
330.009	-15.87
330.222	51.71
330.435	104.96
330.648	94.72
330.861	-87.55
331.073	66.05
331.286	16.9
331.499	14.85
331.712	66.05
331.925	-42.5
332.138	82.43
332.35	74.24
332.563	-3.58
332.776	12.8
332.989	-24.06
333.202	31.23
333.414	8.7
333.627	0.51
333.84	49.66
334.053	61.95
334.265	14.85
334.478	33.28
334.691	55.81
334.903	4.61
335.116	43.52
335.329	61.95
335.541	45.57
335.754	88.57
335.966	23.04
336.179	49.66
336.392	23.04
336.604	23.04
336.817	88.57
337.029	35.33
337.242	37.38
337.454	35.33
337.667	20.99
337.88	76.29
338.092	35.33
338.305	59.9
338.517	-75.26
338.729	10.75
338.942	96.77
339.154	41.47
339.367	25.09
339.579	12.8
339.792	47.62
340.004	45.57
340.217	82.43
340.429	-32.26
340.641	35.33
340.854	94.72
341.066	68.09
341.278	47.62
341.491	53.76
341.703	57.86
341.915	29.18
342.128	100.86
342.34	100.86
342.552	14.85
342.764	10.75
342.977	41.47
343.189	-13.82
343.401	70.14
343.613	-1.54
343.826	-13.82
344.038	-28.16
344.25	-19.97
344.462	37.38
344.674	4.61
344.886	61.95
345.099	29.18
345.311	100.86
345.523	31.23
345.735	10.75
345.947	33.28
346.159	41.47
346.371	107.01
346.583	47.62
346.795	39.42
347.007	27.14
347.219	25.09
347.431	84.48
347.643	53.76
347.855	33.28
348.067	35.33
348.279	39.42
348.491	25.09
348.703	12.8
348.915	-3.58
349.127	20.99
349.339	76.29
349.551	53.76
349.763	49.66
349.975	10.75
350.187	-5.63
350.399	102.91
350.61	25.09
350.822	-7.68
351.034	20.99
351.246	37.38
351.458	82.43
351.669	12.8
351.881	72.19
352.093	-7.68
352.305	57.86
352.517	18.94
352.728	45.57
352.94	51.71
353.152	-5.63
353.363	12.8
353.575	98.81
353.787	0.51
353.999	31.23
354.21	57.86
354.422	37.38
354.633	113.15
354.845	8.7
355.057	25.09
355.268	33.28
355.48	45.57
355.692	10.75
355.903	82.43
356.115	0.51
356.326	-28.16
356.538	59.9
356.749	12.8
356.961	70.14
357.172	14.85
357.384	20.99
357.595	51.71
357.807	66.05
358.018	12.8
358.23	37.38
358.441	115.2
358.653	20.99
358.864	76.29
359.075	25.09
359.287	-46.59
359.498	27.14
359.709	2.56
359.921	94.72
360.132	-42.5
360.344	88.57
360.555	25.09
360.766	20.99
360.977	29.18
361.189	61.95
361.4	80.38
361.611	66.05
361.823	43.52
362.034	-1.54
362.245	18.94
362.456	-19.97
362.667	35.33
362.879	49.66
363.09	96.77
363.301	-15.87
363.512	61.95
363.723	-46.59
363.935	31.23
364.146	47.62
364.357	25.09
364.568	82.43
364.779	-1.54
364.99	70.14
365.201	51.71
365.412	92.67
365.623	-17.92
365.834	49.66
366.045	51.71
366.256	43.52
366.467	86.53
366.678	35.33
366.889	25.09
367.1	68.09
367.311	45.57
367.522	59.9
367.733	64
367.944	57.86
368.155	84.48
368.366	96.77
368.577	78.33
368.788	88.57
368.999	66.05
369.209	-9.73
369.42	61.95
369.631	53.76
369.842	59.9
370.053	12.8
370.264	43.52
370.474	-3.58
370.685	74.24
370.896	18.94
371.107	4.61
371.317	35.33
371.528	29.18
371.739	33.28
371.95	6.66
372.16	14.85
372.371	29.18
372.582	61.95
372.792	-17.92
373.003	39.42
373.214	4.61
373.424	66.05
373.635	41.47
373.846	64
374.056	-5.63
374.267	6.66
374.477	37.38
374.688	12.8
374.898	51.71
375.109	53.76
375.319	20.99
375.53	164.35
375.74	53.76
375.951	12.8
376.161	20.99
376.372	80.38
376.582	2.56
376.793	96.77
377.003	61.95
377.214	37.38
377.424	117.25
377.635	57.86
377.845	43.52
378.055	66.05
378.266	45.57
378.476	29.18
378.686	-9.73
378.897	18.94
379.107	37.38
379.317	-44.54
379.528	20.99
379.738	43.52
379.948	41.47
380.158	41.47
380.369	25.09
380.579	31.23
380.789	41.47
380.999	92.67
381.21	72.19
381.42	-40.45
381.63	4.61
381.84	64
382.05	27.14
382.261	70.14
382.471	25.09
382.681	4.61
382.891	-22.02
383.101	78.33
383.311	33.28
383.521	78.33
383.731	70.14
383.941	74.24
384.151	16.9
384.361	53.76
384.571	55.81
384.781	68.09
384.991	57.86
385.201	86.53
385.411	47.62
385.621	68.09
385.831	84.48
386.041	-1.54
386.251	51.71
386.461	43.52
386.671	84.48
386.881	121.34
387.091	96.77
387.301	90.62
387.511	-19.97
387.72	61.95
387.93	18.94
388.14	43.52
388.35	53.76
388.56	47.62
388.769	37.38
388.979	-19.97
389.189	18.94
389.399	94.72
389.609	45.57
389.818	31.23
390.028	152.06
390.238	66.05
390.447	66.05
390.657	64
390.867	47.62
391.076	39.42
391.286	90.62
391.496	51.71
391.705	29.18
391.915	57.86
392.125	123.39
392.334	33.28
392.544	125.44
392.753	51.71
392.963	53.76
393.172	29.18
393.382	59.9
393.591	51.71
393.801	45.57
394.01	135.68
394.22	121.34
394.429	18.94
394.639	29.18
394.848	12.8
395.058	55.81
395.267	49.66
395.477	29.18
395.686	117.25
395.895	80.38
396.105	117.25
396.314	59.9
396.524	41.47
396.733	49.66
396.942	104.96
397.152	61.95
397.361	74.24
397.57	147.97
397.78	94.72
397.989	78.33
398.198	102.91
398.407	145.92
398.617	90.62
398.826	123.39
399.035	90.62
399.244	82.43
399.453	59.9
399.663	131.58
399.872	168.45
400.081	70.14
400.29	64
400.499	74.24
400.708	86.53
400.917	84.48
401.127	59.9
401.336	37.38
401.545	109.05
401.754	35.33
401.963	16.9
402.172	96.77
402.381	-1.54
402.59	123.39
402.799	51.71
403.008	109.05
403.217	70.14
403.426	162.3
403.635	129.53
403.844	51.71
404.053	98.81
404.262	88.57
404.471	145.92
404.68	135.68
404.888	139.77
405.097	92.67
405.306	135.68
405.515	104.96
405.724	156.16
405.933	195.07
406.142	162.3
406.35	121.34
406.559	133.63
406.768	107.01
406.977	150.01
407.185	152.06
407.394	129.53
407.603	160.25
407.812	182.78
408.02	248.32
408.229	201.21
408.438	213.5
408.646	299.52
408.855	242.17
409.064	172.54
409.272	233.98
409.481	268.8
409.69	231.93
409.898	229.88
410.107	297.47
410.315	244.22
410.524	160.25
410.733	356.86
410.941	229.88
411.15	336.38
411.358	315.9
411.567	287.23
411.775	317.95
411.984	344.57
412.192	342.52
412.401	324.09
412.609	428.54
412.818	475.64
413.026	461.3
413.234	520.7
413.443	449.02
413.651	379.39
413.86	469.5
414.068	575.99
414.276	506.36
414.485	504.31
414.693	504.31
414.901	627.19
415.11	561.66
415.318	582.14
415.526	645.62
415.734	672.25
415.943	621.05
416.151	711.16
416.359	752.12
416.567	829.94
416.776	707.06
416.984	831.99
417.192	899.57
417.4	840.18
417.608	860.66
417.817	911.86
418.025	954.87
418.233	926.19
418.441	1030.64
418.649	1051.12
418.857	1077.74
419.065	1092.08
419.273	1126.89
419.481	1296.88
419.689	1196.53
419.897	1251.82
420.105	1356.27
420.313	1360.36
420.521	1427.95
420.729	1405.42
420.937	1505.77
421.145	1477.1
421.353	1493.48
421.561	1642.98
421.769	1667.56
421.977	1860.07
422.185	1810.92
422.393	1903.07
422.601	2046.43
422.809	1974.75
423.017	1960.42
423.224	2011.62
423.432	2238.94
423.64	2243.04
423.848	2359.77
424.056	2255.33
424.263	2476.51
424.471	2435.55
424.679	2646.49
424.887	2763.22
425.094	2824.66
425.302	2787.8
425.51	2808.28
425.718	2927.06
425.925	2875.86
426.133	3043.79
426.341	3183.06
426.548	3514.83
426.756	3437
426.964	3443.15
427.171	3766.73
427.379	3717.58
427.586	3733.96
427.794	3772.87
428.001	3992
428.209	4305.34
428.417	4096.45
428.624	4563.39
428.832	4522.43
429.039	4413.88
429.247	4506.04
429.454	4872.63
429.662	5231.02
429.869	4852.15
430.076	5214.64
430.284	5056.95
430.491	5274.03
430.699	5706.15
430.906	5616.04
431.114	5689.77
431.321	6003.11
431.528	6209.95
431.736	6336.93
431.943	6728.09
432.15	6605.21
432.358	6613.4
432.565	6988.18
432.772	7016.85
432.979	7184.79
433.187	7588.24
433.394	7420.3
433.601	7780.75
433.808	7758.22
434.016	7870.86
434.223	8253.83
434.43	8679.8
434.637	8567.17
434.844	9136.5
435.052	9308.53
435.259	9208.18
435.466	9539.95
435.673	9054.58
435.88	9802.09
436.087	10316.13
436.294	10379.62
436.501	9937.26
436.708	10277.22
436.915	10590.56
437.122	11051.35
437.329	11188.57
437.537	11475.28
437.743	11684.17
437.95	11735.37
438.157	12147.01
438.364	12335.43
438.571	12450.11
438.778	12538.18
438.985	13803.82
439.192	13306.16
439.399	13672.75
439.606	13308.21
439.813	14111.02
440.02	14811.42
440.227	14563.62
440.433	14655.78
440.64	14854.43
440.847	14618.91
441.054	15603.99
441.261	16371.97
441.467	16013.58
441.674	16605.44
441.881	17170.68
442.088	17180.92
442.294	17041.66
442.501	17342.71
442.708	17611
442.914	18454.76
443.121	19216.6
443.328	18680.03
443.534	20105.42
443.741	19155.16
443.948	19253.47
444.154	20486.34
444.361	20424.9
444.568	20441.29
444.774	20371.66
444.981	21004.48
445.187	21178.56
445.394	22210.73
445.6	21838
445.807	23980.18
446.013	22948
446.22	23355.55
446.426	24361.1
446.633	24625.29
446.839	25120.9
447.046	24076.43
447.252	25362.56
447.459	25600.12
447.665	25460.86
447.871	26853.48
448.078	27742.3
448.284	26216.56
448.491	27228.26
448.697	28104.79
448.903	28606.54
449.11	28547.15
449.316	28174.42
449.522	28928.07
449.728	29509.69
449.935	29595.71
450.141	29730.87
450.347	30511.15
450.553	29675.58
450.76	29796.41
450.966	30898.22
451.172	30488.62
451.378	31225.89
451.584	30574.64
451.791	31211.56
451.997	31316
452.203	31750.17
452.409	31557.66
452.615	31639.58
452.821	30144.56
453.027	29950.01
453.233	31756.32
453.44	30152.76
453.646	30550.06
453.852	30808.11
454.058	30906.41
454.264	30326.83
454.47	30640.17
454.676	29759.55
454.882	31117.35
455.088	28278.86
455.294	28964.93
455.5	29153.35
455.705	29392.96
455.911	28440.65
456.117	27508.83
456.323	27488.35
456.529	25831.54
456.735	26982.5
456.941	26230.9
457.147	25663.61
457.352	25276.54
457.558	24854.66
457.764	24717.45
457.97	24543.37
458.176	24109.2
458.381	23654.55
458.587	22708.39
458.793	22513.83
458.999	21573.81
459.204	22980.77
459.41	22335.66
459.616	21049.53
459.821	20834.5
460.027	20945.09
460.233	20441.29
460.438	19374.3
460.644	19781.84
460.85	18448.61
461.055	18346.22
461.261	18534.63
461.466	17213.69
461.672	16810.24
461.878	17744.11
462.083	16517.38
462.289	16197.9
462.494	16191.75
462.7	15358.23
462.905	14801.18
463.111	15350.04
463.316	15663.38
463.522	15087.9
463.727	15415.57
463.932	15282.45
464.138	14956.83
464.343	14960.92
464.549	14510.37
464.754	15333.65
464.959	15044.89
465.165	14838.05
465.37	14295.33
465.575	14182.7
465.781	14811.42
465.986	14618.91
466.191	13947.18
466.397	13674.8
466.602	13201.72
466.807	13734.19
467.012	13666.61
467.218	13580.59
467.423	13439.28
467.628	13396.28
467.833	14168.36
468.038	13529.39
