Data from USB4F104151__278__11-12-49-350.txt Node

Date: Wed Mar 12 11:12:49 EDT 2025
User: louis
Spectrometer: USB4F10415
Trigger mode: 4
Integration Time (sec): 2.000000E-2
Scans to average: 1
Electric dark correction enabled: true
Nonlinearity correction enabled: false
Boxcar width: 0
XAxis mode: Wavelengths
Number of Pixels in Spectrum: 3648
>>>>>Begin Spectral Data<<<<<
178.204	-101.37
178.424	-101.37
178.644	-101.37
178.864	-117.76
179.084	-25.6
179.304	-9.22
179.524	-1.02
179.744	-60.42
179.964	64.51
180.184	103.42
180.404	11.26
180.624	11.26
180.844	-17.41
181.064	-29.7
181.283	13.31
181.503	-95.23
181.723	9.22
181.943	-23.55
182.163	39.94
182.383	-89.09
182.602	-9.22
182.822	-11.26
183.042	33.79
183.262	-1.02
183.482	-7.17
183.701	44.03
183.921	37.89
184.141	-66.56
184.361	41.98
184.58	48.13
184.8	46.08
185.02	46.08
185.239	-1.02
185.459	60.42
185.679	64.51
185.898	1.02
186.118	50.18
186.338	41.98
186.557	37.89
186.777	5.12
186.997	-17.41
187.216	29.7
187.436	41.98
187.655	27.65
187.875	27.65
188.095	54.27
188.314	29.7
188.534	17.41
188.753	41.98
188.973	-29.7
189.192	-3.07
189.412	13.31
189.631	56.32
189.851	19.46
190.07	29.7
190.29	62.46
190.509	1.02
190.729	11.26
190.948	50.18
191.168	44.03
191.387	58.37
191.607	37.89
191.826	-54.27
192.045	-39.94
192.265	27.65
192.484	-17.41
192.704	64.51
192.923	11.26
193.142	68.61
193.362	66.56
193.581	87.04
193.8	89.09
194.02	82.94
194.239	-3.07
194.458	13.31
194.678	19.46
194.897	-15.36
195.116	70.65
195.335	29.7
195.555	58.37
195.774	56.32
195.993	74.75
196.212	48.13
196.432	11.26
196.651	54.27
196.87	-27.65
197.089	68.61
197.308	105.47
197.528	-54.27
197.747	7.17
197.966	25.6
198.185	-27.65
198.404	3.07
198.623	46.08
198.842	-23.55
199.062	58.37
199.281	5.12
199.5	82.94
199.719	23.55
199.938	117.76
200.157	56.32
200.376	44.03
200.595	101.37
200.814	11.26
201.033	11.26
201.252	115.71
201.471	93.18
201.69	91.13
201.909	-11.26
202.128	29.7
202.347	17.41
202.566	-37.89
202.785	3.07
203.004	-68.61
203.223	101.37
203.442	123.9
203.661	74.75
203.879	84.99
204.098	99.33
204.317	39.94
204.536	31.74
204.755	46.08
204.974	29.7
205.193	19.46
205.411	3.07
205.63	74.75
205.849	58.37
206.068	68.61
206.287	-27.65
206.505	-3.07
206.724	66.56
206.943	-27.65
207.162	11.26
207.381	29.7
207.599	64.51
207.818	35.84
208.037	-27.65
208.255	1.02
208.474	-25.6
208.693	72.7
208.911	41.98
209.13	-29.7
209.349	46.08
209.567	37.89
209.786	7.17
210.005	93.18
210.223	-9.22
210.442	-19.46
210.661	13.31
210.879	41.98
211.098	35.84
211.316	48.13
211.535	66.56
211.753	33.79
211.972	5.12
212.191	21.5
212.409	17.41
212.628	-5.12
212.846	87.04
213.065	-23.55
213.283	111.61
213.502	-11.26
213.72	5.12
213.938	76.8
214.157	25.6
214.375	44.03
214.594	48.13
214.812	48.13
215.031	119.81
215.249	60.42
215.467	31.74
215.686	7.17
215.904	-5.12
216.122	35.84
216.341	21.5
216.559	-35.84
216.778	21.5
216.996	13.31
217.214	-27.65
217.432	-19.46
217.651	74.75
217.869	37.89
218.087	13.31
218.306	29.7
218.524	74.75
218.742	-50.18
218.96	87.04
219.179	41.98
219.397	3.07
219.615	95.23
219.833	-3.07
220.051	56.32
220.27	76.8
220.488	74.75
220.706	1.02
220.924	44.03
221.142	11.26
221.36	-11.26
221.578	21.5
221.796	29.7
222.015	-31.74
222.233	82.94
222.451	23.55
222.669	5.12
222.887	54.27
223.105	-19.46
223.323	56.32
223.541	-15.36
223.759	107.52
223.977	-19.46
224.195	37.89
224.413	13.31
224.631	76.8
224.849	39.94
225.067	82.94
225.285	-19.46
225.503	48.13
225.721	-39.94
225.939	52.22
226.157	31.74
226.375	91.13
226.592	13.31
226.81	56.32
227.028	-7.17
227.246	21.5
227.464	46.08
227.682	25.6
227.9	64.51
228.117	35.84
228.335	17.41
228.553	9.22
228.771	-31.74
228.989	21.5
229.206	50.18
229.424	-3.07
229.642	-80.89
229.86	-46.08
230.077	41.98
230.295	58.37
230.513	58.37
230.731	58.37
230.948	17.41
231.166	17.41
231.384	-27.65
231.601	33.79
231.819	62.46
232.037	11.26
232.254	11.26
232.472	68.61
232.689	-23.55
232.907	72.7
233.125	62.46
233.342	60.42
233.56	29.7
233.777	-1.02
233.995	54.27
234.213	33.79
234.43	-31.74
234.648	-21.5
234.865	9.22
235.083	19.46
235.3	27.65
235.518	158.72
235.735	13.31
235.953	37.89
236.17	21.5
236.388	123.9
236.605	17.41
236.822	-1.02
237.04	23.55
237.257	31.74
237.475	64.51
237.692	70.65
237.909	64.51
238.127	15.36
238.344	3.07
238.562	37.89
238.779	3.07
238.996	31.74
239.214	64.51
239.431	89.09
239.648	-7.17
239.865	-5.12
240.083	87.04
240.3	76.8
240.517	-7.17
240.735	62.46
240.952	46.08
241.169	37.89
241.386	56.32
241.603	113.66
241.821	-13.31
242.038	66.56
242.255	107.52
242.472	9.22
242.689	13.31
242.907	44.03
243.124	-3.07
243.341	-15.36
243.558	-15.36
243.775	64.51
243.992	23.55
244.209	72.7
244.426	33.79
244.643	-15.36
244.86	11.26
245.078	107.52
245.295	11.26
245.512	-5.12
245.729	27.65
245.946	17.41
246.163	107.52
246.38	54.27
246.597	19.46
246.814	5.12
247.031	56.32
247.248	-9.22
247.464	25.6
247.681	23.55
247.898	41.98
248.115	44.03
248.332	44.03
248.549	78.85
248.766	37.89
248.983	109.57
249.2	39.94
249.417	41.98
249.633	33.79
249.85	-9.22
250.067	-21.5
250.284	60.42
250.501	29.7
250.717	37.89
250.934	35.84
251.151	29.7
251.368	37.89
251.585	13.31
251.801	21.5
252.018	31.74
252.235	3.07
252.451	1.02
252.668	21.5
252.885	3.07
253.102	33.79
253.318	66.56
253.535	48.13
253.752	54.27
253.968	35.84
254.185	9.22
254.401	19.46
254.618	7.17
254.835	-1.02
255.051	93.18
255.268	46.08
255.484	25.6
255.701	44.03
255.917	7.17
256.134	5.12
256.351	41.98
256.567	-37.89
256.784	68.61
257	56.32
257.217	62.46
257.433	-31.74
257.65	27.65
257.866	17.41
258.082	-15.36
258.299	1.02
258.515	66.56
258.732	27.65
258.948	11.26
259.165	27.65
259.381	1.02
259.597	13.31
259.814	11.26
260.03	3.07
260.246	35.84
260.463	23.55
260.679	-27.65
260.895	-11.26
261.112	48.13
261.328	11.26
261.544	-13.31
261.761	13.31
261.977	76.8
262.193	-29.7
262.409	54.27
262.626	37.89
262.842	41.98
263.058	3.07
263.274	39.94
263.49	-82.94
263.707	9.22
263.923	35.84
264.139	29.7
264.355	-15.36
264.571	64.51
264.787	-13.31
265.004	87.04
265.22	-11.26
265.436	-7.17
265.652	39.94
265.868	66.56
266.084	-9.22
266.3	25.6
266.516	9.22
266.732	-21.5
266.948	15.36
267.164	7.17
267.38	87.04
267.596	99.33
267.812	21.5
268.028	97.28
268.244	101.37
268.46	5.12
268.676	44.03
268.892	3.07
269.108	50.18
269.324	37.89
269.54	62.46
269.756	89.09
269.972	13.31
270.188	60.42
270.403	23.55
270.619	31.74
270.835	9.22
271.051	62.46
271.267	70.65
271.483	25.6
271.698	-11.26
271.914	76.8
272.13	-27.65
272.346	39.94
272.562	-21.5
272.777	54.27
272.993	39.94
273.209	23.55
273.425	21.5
273.64	39.94
273.856	60.42
274.072	31.74
274.287	21.5
274.503	5.12
274.719	-13.31
274.934	29.7
275.15	54.27
275.366	52.22
275.581	31.74
275.797	74.75
276.012	25.6
276.228	72.7
276.444	5.12
276.659	78.85
276.875	-3.07
277.09	-25.6
277.306	35.84
277.521	27.65
277.737	121.85
277.952	84.99
278.168	52.22
278.383	9.22
278.599	58.37
278.814	41.98
279.03	-11.26
279.245	31.74
279.461	15.36
279.676	44.03
279.892	27.65
280.107	46.08
280.322	-17.41
280.538	84.99
280.753	44.03
280.969	52.22
281.184	70.65
281.399	58.37
281.615	21.5
281.83	5.12
282.045	25.6
282.26	76.8
282.476	52.22
282.691	31.74
282.906	-23.55
283.122	64.51
283.337	-21.5
283.552	23.55
283.767	5.12
283.983	101.37
284.198	-13.31
284.413	111.61
284.628	64.51
284.843	-19.46
285.058	64.51
285.274	37.89
285.489	93.18
285.704	13.31
285.919	33.79
286.134	-5.12
286.349	-64.51
286.564	74.75
286.779	27.65
286.995	44.03
287.21	17.41
287.425	52.22
287.64	-31.74
287.855	107.52
288.07	-5.12
288.285	31.74
288.5	66.56
288.715	35.84
288.93	70.65
289.145	66.56
289.36	62.46
289.575	-60.42
289.79	5.12
290.004	27.65
290.219	50.18
290.434	50.18
290.649	44.03
290.864	50.18
291.079	29.7
291.294	60.42
291.509	5.12
291.724	-17.41
291.938	56.32
292.153	1.02
292.368	23.55
292.583	74.75
292.798	66.56
293.012	13.31
293.227	46.08
293.442	17.41
293.657	52.22
293.871	80.89
294.086	-11.26
294.301	46.08
294.516	82.94
294.73	31.74
294.945	15.36
295.16	35.84
295.374	-7.17
295.589	54.27
295.804	21.5
296.018	35.84
296.233	60.42
296.447	-17.41
296.662	21.5
296.877	97.28
297.091	66.56
297.306	35.84
297.52	70.65
297.735	3.07
297.949	37.89
298.164	21.5
298.378	-9.22
298.593	31.74
298.807	78.85
299.022	101.37
299.236	58.37
299.451	31.74
299.665	7.17
299.88	-25.6
300.094	37.89
300.309	-39.94
300.523	-7.17
300.737	35.84
300.952	11.26
301.166	1.02
301.381	48.13
301.595	33.79
301.809	52.22
302.024	23.55
302.238	-5.12
302.452	46.08
302.667	44.03
302.881	50.18
303.095	35.84
303.309	19.46
303.524	62.46
303.738	76.8
303.952	-48.13
304.166	52.22
304.381	9.22
304.595	60.42
304.809	93.18
305.023	44.03
305.237	19.46
305.452	46.08
305.666	25.6
305.88	39.94
306.094	5.12
306.308	29.7
306.522	72.7
306.736	58.37
306.95	-5.12
307.164	66.56
307.379	21.5
307.593	68.61
307.807	99.33
308.021	-23.55
308.235	54.27
308.449	-37.89
308.663	35.84
308.877	-9.22
309.091	58.37
309.305	48.13
309.519	37.89
309.733	95.23
309.947	60.42
310.161	31.74
310.374	23.55
310.588	31.74
310.802	64.51
311.016	56.32
311.23	132.09
311.444	62.46
311.658	58.37
311.872	17.41
312.085	54.27
312.299	29.7
312.513	5.12
312.727	5.12
312.941	-11.26
313.154	31.74
313.368	105.47
313.582	1.02
313.796	62.46
314.009	23.55
314.223	166.91
314.437	48.13
314.651	41.98
314.864	-3.07
315.078	21.5
315.292	46.08
315.505	-19.46
315.719	136.19
315.933	72.7
316.146	62.46
316.36	1.02
316.573	58.37
316.787	5.12
317.001	-37.89
317.214	48.13
317.428	23.55
317.641	13.31
317.855	19.46
318.068	64.51
318.282	13.31
318.495	41.98
318.709	78.85
318.922	-23.55
319.136	64.51
319.349	70.65
319.563	93.18
319.776	74.75
319.99	17.41
320.203	97.28
320.417	93.18
320.63	60.42
320.843	60.42
321.057	-15.36
321.27	15.36
321.483	23.55
321.697	37.89
321.91	33.79
322.124	62.46
322.337	78.85
322.55	-5.12
322.763	-5.12
322.977	25.6
323.19	27.65
323.403	84.99
323.617	7.17
323.83	35.84
324.043	39.94
324.256	64.51
324.469	68.61
324.683	52.22
324.896	25.6
325.109	72.7
325.322	-15.36
325.535	19.46
325.748	-11.26
325.962	23.55
326.175	46.08
326.388	37.89
326.601	58.37
326.814	3.07
327.027	48.13
327.24	74.75
327.453	25.6
327.666	101.37
327.879	17.41
328.092	74.75
328.305	91.13
328.518	87.04
328.731	5.12
328.944	48.13
329.157	-1.02
329.37	35.84
329.583	58.37
329.796	99.33
330.009	9.22
330.222	74.75
330.435	64.51
330.648	-56.32
330.861	138.24
331.073	33.79
331.286	23.55
331.499	76.8
331.712	58.37
331.925	9.22
332.138	5.12
332.35	101.37
332.563	31.74
332.776	121.85
332.989	54.27
333.202	3.07
333.414	9.22
333.627	68.61
333.84	136.19
334.053	113.66
334.265	-3.07
334.478	27.65
334.691	13.31
334.903	46.08
335.116	-33.79
335.329	60.42
335.541	95.23
335.754	37.89
335.966	-27.65
336.179	17.41
336.392	68.61
336.604	-35.84
336.817	1.02
337.029	62.46
337.242	46.08
337.454	-15.36
337.667	27.65
337.88	89.09
338.092	5.12
338.305	56.32
338.517	60.42
338.729	35.84
338.942	-52.22
339.154	27.65
339.367	27.65
339.579	103.42
339.792	-39.94
340.004	44.03
340.217	78.85
340.429	56.32
340.641	3.07
340.854	19.46
341.066	-62.46
341.278	54.27
341.491	82.94
341.703	39.94
341.915	-35.84
342.128	21.5
342.34	35.84
342.552	31.74
342.764	11.26
342.977	64.51
343.189	97.28
343.401	15.36
343.613	41.98
343.826	52.22
344.038	80.89
344.25	29.7
344.462	29.7
344.674	-60.42
344.886	48.13
345.099	41.98
345.311	33.79
345.523	60.42
345.735	31.74
345.947	72.7
346.159	48.13
346.371	31.74
346.583	58.37
346.795	64.51
347.007	46.08
347.219	33.79
347.431	33.79
347.643	46.08
347.855	17.41
348.067	48.13
348.279	31.74
348.491	60.42
348.703	89.09
348.915	72.7
349.127	31.74
349.339	128
349.551	107.52
349.763	62.46
349.975	-19.46
350.187	121.85
350.399	66.56
350.61	84.99
350.822	37.89
351.034	64.51
351.246	25.6
351.458	91.13
351.669	66.56
351.881	25.6
352.093	54.27
352.305	78.85
352.517	9.22
352.728	35.84
352.94	103.42
353.152	23.55
353.363	48.13
353.575	150.53
353.787	72.7
353.999	46.08
354.21	107.52
354.422	50.18
354.633	50.18
354.845	41.98
355.057	-3.07
355.268	80.89
355.48	46.08
355.692	46.08
355.903	-35.84
356.115	11.26
356.326	11.26
356.538	101.37
356.749	105.47
356.961	93.18
357.172	33.79
357.384	76.8
357.595	48.13
357.807	136.19
358.018	44.03
358.23	21.5
358.441	44.03
358.653	97.28
358.864	78.85
359.075	29.7
359.287	44.03
359.498	109.57
359.709	37.89
359.921	46.08
360.132	46.08
360.344	72.7
360.555	-9.22
360.766	109.57
360.977	11.26
361.189	7.17
361.4	21.5
361.611	76.8
361.823	80.89
362.034	13.31
362.245	15.36
362.456	56.32
362.667	54.27
362.879	41.98
363.09	58.37
363.301	21.5
363.512	-21.5
363.723	29.7
363.935	56.32
364.146	89.09
364.357	62.46
364.568	56.32
364.779	3.07
364.99	7.17
365.201	48.13
365.412	70.65
365.623	-35.84
365.834	60.42
366.045	33.79
366.256	-11.26
366.467	35.84
366.678	44.03
366.889	33.79
367.1	132.09
367.311	52.22
367.522	11.26
367.733	95.23
367.944	-9.22
368.155	62.46
368.366	89.09
368.577	78.85
368.788	60.42
368.999	105.47
369.209	50.18
369.42	111.61
369.631	132.09
369.842	119.81
370.053	60.42
370.264	95.23
370.474	-5.12
370.685	27.65
370.896	1.02
371.107	99.33
371.317	70.65
371.528	52.22
371.739	-13.31
371.95	-3.07
372.16	1.02
372.371	29.7
372.582	19.46
372.792	9.22
373.003	72.7
373.214	46.08
373.424	103.42
373.635	31.74
373.846	27.65
374.056	-3.07
374.267	80.89
374.477	46.08
374.688	84.99
374.898	78.85
375.109	9.22
375.319	9.22
375.53	111.61
375.74	17.41
375.951	56.32
376.161	25.6
376.372	107.52
376.582	35.84
376.793	35.84
377.003	93.18
377.214	66.56
377.424	46.08
377.635	37.89
377.845	46.08
378.055	97.28
378.266	54.27
378.476	64.51
378.686	37.89
378.897	87.04
379.107	25.6
379.317	7.17
379.528	21.5
379.738	5.12
379.948	37.89
380.158	89.09
380.369	17.41
380.579	72.7
380.789	89.09
380.999	33.79
381.21	123.9
381.42	132.09
381.63	107.52
381.84	66.56
382.05	-9.22
382.261	33.79
382.471	35.84
382.681	-27.65
382.891	107.52
383.101	66.56
383.311	-35.84
383.521	68.61
383.731	111.61
383.941	60.42
384.151	11.26
384.361	91.13
384.571	41.98
384.781	50.18
384.991	80.89
385.201	62.46
385.411	103.42
385.621	95.23
385.831	13.31
386.041	35.84
386.251	33.79
386.461	125.95
386.671	95.23
386.881	109.57
387.091	103.42
387.301	80.89
387.511	142.33
387.72	93.18
387.93	50.18
388.14	144.38
388.35	21.5
388.56	41.98
388.769	48.13
388.979	87.04
389.189	31.74
389.399	103.42
389.609	72.7
389.818	103.42
390.028	52.22
390.238	101.37
390.447	97.28
390.657	111.61
390.867	93.18
391.076	76.8
391.286	97.28
391.496	66.56
391.705	50.18
391.915	52.22
392.125	62.46
392.334	21.5
392.544	103.42
392.753	80.89
392.963	91.13
393.172	121.85
393.382	78.85
393.591	121.85
393.801	35.84
394.01	37.89
394.22	95.23
394.429	56.32
394.639	84.99
394.848	177.15
395.058	171.01
395.267	62.46
395.477	138.24
395.686	84.99
395.895	80.89
396.105	123.9
396.314	123.9
396.524	138.24
396.733	48.13
396.942	123.9
397.152	117.76
397.361	140.29
397.57	89.09
397.78	93.18
397.989	164.86
398.198	105.47
398.407	105.47
398.617	138.24
398.826	136.19
399.035	160.77
399.244	113.66
399.453	187.39
399.663	80.89
399.872	138.24
400.081	156.67
400.29	115.71
400.499	37.89
400.708	187.39
400.917	152.57
401.127	168.96
401.336	181.25
401.545	173.05
401.754	146.43
401.963	121.85
402.172	128
402.381	89.09
402.59	87.04
402.799	148.48
403.008	54.27
403.217	171.01
403.426	107.52
403.635	123.9
403.844	78.85
404.053	101.37
404.262	87.04
404.471	199.68
404.68	254.97
404.888	230.4
405.097	134.14
405.306	193.53
405.515	173.05
405.724	252.92
405.933	175.1
406.142	222.2
406.35	183.29
406.559	168.96
406.768	132.09
406.977	269.31
407.185	224.25
407.394	218.11
407.603	142.33
407.812	269.31
408.02	287.74
408.229	201.72
408.438	287.74
408.646	228.35
408.855	263.16
409.064	340.99
409.272	297.98
409.481	302.08
409.69	293.88
409.898	345.08
410.107	312.32
410.315	465.91
410.524	383.99
410.733	373.75
410.941	304.12
411.15	400.38
411.358	463.86
411.567	486.39
411.775	381.95
411.984	433.15
412.192	490.49
412.401	533.5
412.609	558.07
412.818	525.3
413.026	644.09
413.234	603.13
413.443	502.78
413.651	662.52
413.86	617.46
414.068	676.85
414.276	738.29
414.485	707.57
414.693	744.44
414.901	855.03
415.11	766.96
415.318	791.54
415.526	775.16
415.734	918.51
415.943	926.71
416.151	1004.53
416.359	994.29
416.567	1049.58
416.776	984.05
416.984	1119.21
417.192	1047.54
417.4	1233.9
417.608	1027.06
417.817	1229.81
418.025	1303.53
418.233	1334.25
418.441	1340.4
418.649	1385.45
418.857	1420.27
419.065	1465.32
419.273	1532.9
419.481	1532.9
419.689	1618.92
419.897	1590.25
420.105	1760.23
420.313	1833.96
420.521	1823.72
420.729	1915.87
420.937	1915.87
421.145	1948.64
421.353	2169.82
421.561	2241.5
421.769	2233.31
421.977	2237.41
422.185	2241.5
422.393	2528.22
422.601	2700.25
422.809	2673.62
423.017	2659.29
423.224	2771.93
423.432	2755.54
423.64	2884.56
423.848	3056.59
424.056	3181.52
424.263	3189.71
424.471	3351.5
424.679	3343.31
424.887	3673.03
425.094	3691.46
425.302	3695.56
425.51	3728.33
425.718	3824.58
425.925	3931.08
426.133	4182.98
426.341	4316.09
426.548	4588.47
426.756	4430.78
426.964	4484.03
427.171	4699.06
427.379	4948.92
427.586	5094.32
427.794	5022.64
428.001	5256.11
428.209	5544.88
428.417	5557.16
428.624	5868.45
428.832	6130.59
429.039	5884.84
429.247	5878.69
429.454	6443.93
429.662	6783.9
429.869	6388.64
430.076	6865.82
430.284	6751.13
430.491	7138.2
430.699	7416.72
430.906	7418.77
431.114	7539.6
431.321	7842.7
431.528	7959.43
431.736	8211.33
431.943	8721.27
432.15	8680.32
432.358	8805.24
432.565	9106.29
432.772	8971.13
432.979	9724.78
433.187	9888.62
433.394	9610.09
433.601	10421.09
433.808	10470.24
434.016	10482.53
434.223	10787.68
434.43	11451.22
434.637	11610.96
434.844	11975.5
435.052	12462.91
435.259	12149.57
435.466	12235.59
435.673	11989.83
435.88	12903.23
436.087	13728.56
436.294	13665.07
436.501	13302.58
436.708	13570.86
436.915	14009.13
437.122	14662.43
437.329	14666.53
437.537	15201.05
437.743	15205.14
437.95	15348.5
438.157	16071.43
438.364	16519.94
438.571	16501.51
438.778	16493.32
438.985	18295.53
439.192	17425.14
439.399	17890.03
439.606	17881.84
439.813	18539.24
440.02	19659.48
440.227	19428.06
440.433	19362.52
440.64	19894.99
440.847	19450.58
441.054	20396.74
441.261	21537.46
441.467	21174.97
441.674	21695.16
441.881	22518.44
442.088	22547.11
442.294	22051.5
442.501	22934.18
442.708	23413.4
442.914	23966.35
443.121	25221.76
443.328	24777.35
443.534	26554.99
443.741	25825.91
443.948	25164.42
444.154	27208.29
444.361	26698.34
444.568	26985.06
444.774	26940
444.981	27546.2
445.187	28037.72
445.394	29532.73
445.6	29016.65
445.807	31990.3
446.013	30161.46
446.22	30734.89
446.426	31926.81
446.633	32246.29
446.839	33214.98
447.046	31781.4
447.252	34054.65
447.459	34187.77
447.665	33397.25
447.871	35146.22
448.078	36327.89
448.284	35236.33
448.491	35396.07
448.697	36811.21
448.903	37681.6
449.11	37900.73
449.316	36917.71
449.522	37435.84
449.728	38904.24
449.935	38926.77
450.141	38568.37
450.347	39885.22
450.553	38451.64
450.76	38926.77
450.966	40810.9
451.172	39758.24
451.378	40724.88
451.584	40286.62
451.791	40618.39
451.997	41255.31
452.203	41523.59
452.409	41750.91
452.615	41365.9
452.821	39244.2
453.027	39698.85
453.233	41953.66
453.44	39795.1
453.646	40274.33
453.852	40530.33
454.058	40913.3
454.264	39416.23
454.47	40757.65
454.676	39733.67
454.882	41101.71
455.088	37640.64
455.294	38171.07
455.5	38486.45
455.705	38631.86
455.911	37235.14
456.117	36461.01
456.323	35951.07
456.529	34081.27
456.735	35721.69
456.941	34595.31
457.147	34109.94
457.352	33028.62
457.558	32578.06
457.764	32872.97
457.97	32639.5
458.176	31267.36
458.381	31926.81
458.587	29672
458.793	29772.35
458.999	28451.41
459.204	30380.59
459.41	29747.77
459.616	27587.16
459.821	27570.78
460.027	27902.55
460.233	26604.14
460.438	25922.16
460.644	26155.63
460.85	24681.1
461.055	24177.3
461.261	24318.6
461.466	22620.84
461.672	21936.82
461.878	23761.56
462.083	21887.67
462.289	21430.97
462.494	21328.57
462.7	20374.22
462.905	19985.1
463.111	20308.68
463.316	20490.95
463.522	20167.37
463.727	20406.98
463.932	20044.49
464.138	20280.01
464.343	20075.21
464.549	19407.58
464.754	20255.43
464.959	19999.44
465.165	19722.96
465.37	19012.32
465.575	18385.64
465.781	19122.91
465.986	19327.71
466.191	18455.27
466.397	18354.92
466.602	17644.27
466.807	18027.24
467.012	17986.29
467.218	17877.74
467.423	17636.08
467.628	17914.61
467.833	18574.05
