Data from USB4F104151__32__11-05-14-891.txt Node

Date: Wed Mar 12 11:05:14 EDT 2025
User: louis
Spectrometer: USB4F10415
Trigger mode: 4
Integration Time (sec): 2.000000E-2
Scans to average: 1
Electric dark correction enabled: true
Nonlinearity correction enabled: false
Boxcar width: 0
XAxis mode: Wavelengths
Number of Pixels in Spectrum: 3648
>>>>>Begin Spectral Data<<<<<
178.204	-47.27
178.424	-47.27
178.644	-47.27
178.864	-90.28
179.084	-96.43
179.304	-37.03
179.524	22.36
179.744	-14.51
179.964	46.93
180.184	-37.03
180.404	85.84
180.624	48.98
180.844	22.36
181.064	-43.18
181.283	-41.13
181.503	-69.8
181.723	16.21
181.943	22.36
182.163	18.26
182.383	-12.46
182.602	26.45
182.822	-4.27
183.042	14.17
183.262	-22.7
183.482	-65.71
183.701	18.26
183.921	36.69
184.141	-12.46
184.361	89.94
184.58	32.6
184.8	67.41
185.02	12.12
185.239	28.5
185.459	-26.79
185.679	1.88
185.898	-12.46
186.118	32.6
186.338	44.88
186.557	-43.18
186.777	-55.47
186.997	24.4
187.216	44.88
187.436	-28.84
187.655	32.6
187.875	151.38
188.095	22.36
188.314	12.12
188.534	20.31
188.753	-2.22
188.973	55.12
189.192	57.17
189.412	51.03
189.631	8.02
189.851	14.17
190.07	42.84
190.29	-22.7
190.509	-39.08
190.729	-30.89
190.948	-30.89
191.168	83.8
191.387	30.55
191.607	32.6
191.826	28.5
192.045	73.56
192.265	26.45
192.484	-6.31
192.704	-51.37
192.923	-32.94
193.142	135
193.362	10.07
193.581	3.93
193.8	51.03
194.02	8.02
194.239	59.22
194.458	-18.6
194.678	-8.36
194.897	-28.84
195.116	28.5
195.335	36.69
195.555	-28.84
195.774	20.31
195.993	-14.51
196.212	14.17
196.432	-18.6
196.651	-2.22
196.87	53.08
197.089	30.55
197.308	51.03
197.528	5.97
197.747	1.88
197.966	10.07
198.185	71.51
198.404	-24.75
198.623	-69.8
198.842	87.89
199.062	59.22
199.281	48.98
199.5	-34.99
199.719	-37.03
199.938	14.17
200.157	10.07
200.376	-37.03
200.595	30.55
200.814	42.84
201.033	-53.42
201.252	10.07
201.471	53.08
201.69	16.21
201.909	48.98
202.128	-82.09
202.347	42.84
202.566	-28.84
202.785	38.74
203.004	-0.17
203.223	8.02
203.442	-0.17
203.661	-41.13
203.879	30.55
204.098	22.36
204.317	-47.27
204.536	63.32
204.755	24.4
204.974	69.46
205.193	-18.6
205.411	53.08
205.63	20.31
205.849	48.98
206.068	57.17
206.287	3.93
206.505	5.97
206.724	-14.51
206.943	32.6
207.162	26.45
207.381	63.32
207.599	16.21
207.818	28.5
208.037	22.36
208.255	-45.23
208.474	-0.17
208.693	44.88
208.911	10.07
209.13	28.5
209.349	-4.27
209.567	26.45
209.786	-28.84
210.005	75.6
210.223	-67.75
210.442	-49.32
210.661	38.74
210.879	42.84
211.098	32.6
211.316	53.08
211.535	67.41
211.753	-69.8
211.972	-2.22
212.191	53.08
212.409	18.26
212.628	46.93
212.846	24.4
213.065	67.41
213.283	-16.55
213.502	-69.8
213.72	-22.7
213.938	1.88
214.157	32.6
214.375	-12.46
214.594	-32.94
214.812	22.36
215.031	26.45
215.249	22.36
215.467	28.5
215.686	-8.36
215.904	30.55
216.122	-39.08
216.341	16.21
216.559	1.88
216.778	28.5
216.996	94.04
217.214	42.84
217.432	-102.57
217.651	-8.36
217.869	22.36
218.087	-47.27
218.306	-47.27
218.524	26.45
218.742	-4.27
218.96	-8.36
219.179	5.97
219.397	110.42
219.615	110.42
219.833	48.98
220.051	16.21
220.27	28.5
220.488	69.46
220.706	32.6
220.924	-18.6
221.142	-12.46
221.36	-37.03
221.578	81.75
221.796	85.84
222.015	22.36
222.233	-6.31
222.451	-12.46
222.669	-26.79
222.887	-12.46
223.105	-26.79
223.323	81.75
223.541	-53.42
223.759	87.89
223.977	-18.6
224.195	-14.51
224.413	14.17
224.631	42.84
224.849	-14.51
225.067	106.32
225.285	-18.6
225.503	-16.55
225.721	-43.18
225.939	-0.17
226.157	55.12
226.375	102.23
226.592	-10.41
226.81	-10.41
227.028	1.88
227.246	55.12
227.464	-4.27
227.682	12.12
227.9	-16.55
228.117	24.4
228.335	61.27
228.553	61.27
228.771	-18.6
228.989	22.36
229.206	32.6
229.424	26.45
229.642	1.88
229.86	1.88
230.077	-0.17
230.295	5.97
230.513	-49.32
230.731	-8.36
230.948	44.88
231.166	8.02
231.384	-16.55
231.601	-8.36
231.819	38.74
232.037	81.75
232.254	28.5
232.472	42.84
232.689	-80.04
232.907	81.75
233.125	-4.27
233.342	69.46
233.56	-12.46
233.777	-0.17
233.995	-10.41
234.213	28.5
234.43	-18.6
234.648	46.93
234.865	-20.65
235.083	75.6
235.3	-0.17
235.518	46.93
235.735	30.55
235.953	36.69
236.17	100.18
236.388	-8.36
236.605	40.79
236.822	-10.41
237.04	1.88
237.257	-61.61
237.475	-12.46
237.692	16.21
237.909	-30.89
238.127	53.08
238.344	61.27
238.562	36.69
238.779	-10.41
238.996	40.79
239.214	28.5
239.431	-47.27
239.648	-24.75
239.865	24.4
240.083	-0.17
240.3	10.07
240.517	73.56
240.735	-41.13
240.952	-26.79
241.169	20.31
241.386	1.88
241.603	-22.7
241.821	10.07
242.038	44.88
242.255	42.84
242.472	-26.79
242.689	1.88
242.907	34.64
243.124	-6.31
243.341	53.08
243.558	36.69
243.775	63.32
243.992	22.36
244.209	42.84
244.426	-0.17
244.643	1.88
244.86	85.84
245.078	22.36
245.295	-37.03
245.512	-10.41
245.729	1.88
245.946	-14.51
246.163	-22.7
246.38	-0.17
246.597	-45.23
246.814	5.97
247.031	55.12
247.248	3.93
247.464	-14.51
247.681	46.93
247.898	12.12
248.115	48.98
248.332	-61.61
248.549	20.31
248.766	83.8
248.983	-0.17
249.2	104.28
249.417	3.93
249.633	-20.65
249.85	20.31
250.067	48.98
250.284	-6.31
250.501	20.31
250.717	87.89
250.934	-30.89
251.151	28.5
251.368	46.93
251.585	40.79
251.801	40.79
252.018	73.56
252.235	-10.41
252.451	-10.41
252.668	-16.55
252.885	100.18
253.102	-51.37
253.318	38.74
253.535	8.02
253.752	-8.36
253.968	-12.46
254.185	20.31
254.401	34.64
254.618	18.26
254.835	30.55
255.051	40.79
255.268	14.17
255.484	61.27
255.701	24.4
255.917	79.7
256.134	14.17
256.351	28.5
256.567	-26.79
256.784	20.31
257	-51.37
257.217	34.64
257.433	-12.46
257.65	91.99
257.866	34.64
258.082	-20.65
258.299	14.17
258.515	18.26
258.732	-90.28
258.948	30.55
259.165	89.94
259.381	18.26
259.597	61.27
259.814	3.93
260.03	-24.75
260.246	20.31
260.463	98.13
260.679	-0.17
260.895	-0.17
261.112	-8.36
261.328	-8.36
261.544	-37.03
261.761	36.69
261.977	18.26
262.193	-2.22
262.409	-18.6
262.626	36.69
262.842	8.02
263.058	-8.36
263.274	-2.22
263.49	79.7
263.707	16.21
263.923	-0.17
264.139	28.5
264.355	-34.99
264.571	8.02
264.787	10.07
265.004	61.27
265.22	16.21
265.436	-2.22
265.652	12.12
265.868	-0.17
266.084	-22.7
266.3	1.88
266.516	-45.23
266.732	10.07
266.948	16.21
267.164	55.12
267.38	40.79
267.596	-8.36
267.812	8.02
268.028	69.46
268.244	67.41
268.46	3.93
268.676	38.74
268.892	28.5
269.108	69.46
269.324	-26.79
269.54	8.02
269.756	-12.46
269.972	-59.56
270.188	34.64
270.403	12.12
270.619	73.56
270.835	-55.47
271.051	32.6
271.267	59.22
271.483	22.36
271.698	-39.08
271.914	83.8
272.13	36.69
272.346	-16.55
272.562	-41.13
272.777	-28.84
272.993	40.79
273.209	-8.36
273.425	22.36
273.64	36.69
273.856	16.21
274.072	59.22
274.287	14.17
274.503	26.45
274.719	-8.36
274.934	32.6
275.15	3.93
275.366	108.37
275.581	22.36
275.797	28.5
276.012	53.08
276.228	28.5
276.444	8.02
276.659	30.55
276.875	24.4
277.09	57.17
277.306	26.45
277.521	-4.27
277.737	5.97
277.952	36.69
278.168	-37.03
278.383	65.36
278.599	-26.79
278.814	79.7
279.03	48.98
279.245	141.14
279.461	40.79
279.676	32.6
279.892	-39.08
280.107	-28.84
280.322	40.79
280.538	5.97
280.753	20.31
280.969	12.12
281.184	30.55
281.399	46.93
281.615	20.31
281.83	-20.65
282.045	85.84
282.26	81.75
282.476	-55.47
282.691	55.12
282.906	20.31
283.122	85.84
283.337	48.98
283.552	20.31
283.767	10.07
283.983	46.93
284.198	-34.99
284.413	44.88
284.628	106.32
284.843	91.99
285.058	18.26
285.274	-0.17
285.489	-10.41
285.704	26.45
285.919	-63.66
286.134	-24.75
286.349	-8.36
286.564	-18.6
286.779	-16.55
286.995	48.98
287.21	-10.41
287.425	24.4
287.64	-4.27
287.855	14.17
288.07	-4.27
288.285	65.36
288.5	28.5
288.715	26.45
288.93	16.21
289.145	77.65
289.36	-14.51
289.575	5.97
289.79	34.64
290.004	10.07
290.219	22.36
290.434	-20.65
290.649	79.7
290.864	53.08
291.079	38.74
291.294	55.12
291.509	40.79
291.724	59.22
291.938	69.46
292.153	59.22
292.368	30.55
292.583	-37.03
292.798	44.88
293.012	18.26
293.227	-34.99
293.442	46.93
293.657	73.56
293.871	42.84
294.086	48.98
294.301	94.04
294.516	85.84
294.73	5.97
294.945	-8.36
295.16	20.31
295.374	96.08
295.589	135
295.804	-18.6
296.018	28.5
296.233	42.84
296.447	30.55
296.662	63.32
296.877	55.12
297.091	14.17
297.306	-18.6
297.52	48.98
297.735	42.84
297.949	5.97
298.164	46.93
298.378	20.31
298.593	71.51
298.807	-10.41
299.022	46.93
299.236	22.36
299.451	48.98
299.665	-26.79
299.88	-39.08
300.094	16.21
300.309	34.64
300.523	16.21
300.737	3.93
300.952	-39.08
301.166	34.64
301.381	14.17
301.595	44.88
301.809	28.5
302.024	-32.94
302.238	28.5
302.452	40.79
302.667	36.69
302.881	106.32
303.095	40.79
303.309	26.45
303.524	22.36
303.738	91.99
303.952	18.26
304.166	36.69
304.381	34.64
304.595	32.6
304.809	-28.84
305.023	48.98
305.237	32.6
305.452	1.88
305.666	32.6
305.88	-10.41
306.094	77.65
306.308	53.08
306.522	65.36
306.736	10.07
306.95	14.17
307.164	28.5
307.379	-6.31
307.593	69.46
307.807	38.74
308.021	26.45
308.235	69.46
308.449	-0.17
308.663	79.7
308.877	157.52
309.091	-12.46
309.305	16.21
309.519	-22.7
309.733	139.09
309.947	28.5
310.161	63.32
310.374	14.17
310.588	106.32
310.802	12.12
311.016	22.36
311.23	-37.03
311.444	38.74
311.658	42.84
311.872	137.04
312.085	-51.37
312.299	110.42
312.513	48.98
312.727	-28.84
312.941	26.45
313.154	16.21
313.368	-10.41
313.582	36.69
313.796	-16.55
314.009	30.55
314.223	12.12
314.437	16.21
314.651	94.04
314.864	34.64
315.078	30.55
315.292	-16.55
315.505	96.08
315.719	42.84
315.933	-28.84
316.146	8.02
316.36	48.98
316.573	-8.36
316.787	61.27
317.001	5.97
317.214	30.55
317.428	44.88
317.641	-0.17
317.855	53.08
318.068	36.69
318.282	30.55
318.495	63.32
318.709	16.21
318.922	28.5
319.136	63.32
319.349	-6.31
319.563	32.6
319.776	65.36
319.99	26.45
320.203	-30.89
320.417	42.84
320.63	28.5
320.843	5.97
321.057	30.55
321.27	32.6
321.483	40.79
321.697	81.75
321.91	87.89
322.124	20.31
322.337	61.27
322.55	36.69
322.763	16.21
322.977	5.97
323.19	34.64
323.403	-14.51
323.617	24.4
323.83	48.98
324.043	79.7
324.256	75.6
324.469	22.36
324.683	-10.41
324.896	24.4
325.109	36.69
325.322	1.88
325.535	14.17
325.748	5.97
325.962	26.45
326.175	67.41
326.388	98.13
326.601	38.74
326.814	28.5
327.027	40.79
327.24	24.4
327.453	32.6
327.666	24.4
327.879	36.69
328.092	53.08
328.305	61.27
328.518	-24.75
328.731	44.88
328.944	42.84
329.157	36.69
329.37	-14.51
329.583	114.52
329.796	16.21
330.009	-2.22
330.222	36.69
330.435	87.89
330.648	28.5
330.861	8.02
331.073	-0.17
331.286	-28.84
331.499	10.07
331.712	-32.94
331.925	75.6
332.138	44.88
332.35	98.13
332.563	46.93
332.776	26.45
332.989	55.12
333.202	24.4
333.414	24.4
333.627	-22.7
333.84	-51.37
334.053	32.6
334.265	-0.17
334.478	-45.23
334.691	8.02
334.903	5.97
335.116	38.74
335.329	42.84
335.541	65.36
335.754	40.79
335.966	8.02
336.179	46.93
336.392	91.99
336.604	55.12
336.817	44.88
337.029	94.04
337.242	-0.17
337.454	34.64
337.667	32.6
337.88	38.74
338.092	20.31
338.305	34.64
338.517	-32.94
338.729	5.97
338.942	-41.13
339.154	32.6
339.367	-18.6
339.579	53.08
339.792	5.97
340.004	-8.36
340.217	67.41
340.429	-8.36
340.641	30.55
340.854	67.41
341.066	18.26
341.278	40.79
341.491	-10.41
341.703	8.02
341.915	-30.89
342.128	130.9
342.34	44.88
342.552	38.74
342.764	-12.46
342.977	71.51
343.189	16.21
343.401	16.21
343.613	-22.7
343.826	-30.89
344.038	22.36
344.25	3.93
344.462	-59.56
344.674	12.12
344.886	40.79
345.099	36.69
345.311	20.31
345.523	-0.17
345.735	-14.51
345.947	36.69
346.159	61.27
346.371	24.4
346.583	46.93
346.795	22.36
347.007	-20.65
347.219	67.41
347.431	44.88
347.643	40.79
347.855	36.69
348.067	79.7
348.279	63.32
348.491	-0.17
348.703	79.7
348.915	44.88
349.127	-22.7
349.339	24.4
349.551	67.41
349.763	51.03
349.975	69.46
350.187	77.65
350.399	67.41
350.61	-10.41
350.822	44.88
351.034	8.02
351.246	40.79
351.458	59.22
351.669	-8.36
351.881	36.69
352.093	106.32
352.305	55.12
352.517	61.27
352.728	42.84
352.94	3.93
353.152	83.8
353.363	61.27
353.575	48.98
353.787	89.94
353.999	26.45
354.21	5.97
354.422	57.17
354.633	5.97
354.845	73.56
355.057	-0.17
355.268	87.89
355.48	1.88
355.692	16.21
355.903	1.88
356.115	-49.32
356.326	46.93
356.538	38.74
356.749	67.41
356.961	116.56
357.172	-4.27
357.384	65.36
357.595	44.88
357.807	-18.6
358.018	3.93
358.23	5.97
358.441	-0.17
358.653	16.21
358.864	5.97
359.075	-2.22
359.287	51.03
359.498	32.6
359.709	24.4
359.921	67.41
360.132	79.7
360.344	55.12
360.555	81.75
360.766	34.64
360.977	61.27
361.189	79.7
361.4	-6.31
361.611	48.98
361.823	51.03
362.034	-12.46
362.245	-63.66
362.456	55.12
362.667	36.69
362.879	34.64
363.09	85.84
363.301	-20.65
363.512	-30.89
363.723	-2.22
363.935	18.26
364.146	77.65
364.357	32.6
364.568	34.64
364.779	-28.84
364.99	24.4
365.201	-8.36
365.412	59.22
365.623	22.36
365.834	16.21
366.045	-12.46
366.256	38.74
366.467	67.41
366.678	69.46
366.889	98.13
367.1	20.31
367.311	114.52
367.522	-26.79
367.733	30.55
367.944	-16.55
368.155	22.36
368.366	40.79
368.577	94.04
368.788	69.46
368.999	20.31
369.209	85.84
369.42	28.5
369.631	61.27
369.842	20.31
370.053	59.22
370.264	-8.36
370.474	-12.46
370.685	40.79
370.896	44.88
371.107	34.64
371.317	59.22
371.528	48.98
371.739	8.02
371.95	38.74
372.16	67.41
372.371	-14.51
372.582	-0.17
372.792	96.08
373.003	71.51
373.214	-16.55
373.424	40.79
373.635	-4.27
373.846	85.84
374.056	104.28
374.267	106.32
374.477	36.69
374.688	-47.27
374.898	-18.6
375.109	51.03
375.319	-14.51
375.53	73.56
375.74	40.79
375.951	63.32
376.161	51.03
376.372	63.32
376.582	18.26
376.793	55.12
377.003	-24.75
377.214	26.45
377.424	14.17
377.635	40.79
377.845	8.02
378.055	128.85
378.266	-34.99
378.476	12.12
378.686	65.36
378.897	36.69
379.107	-2.22
379.317	12.12
379.528	-55.47
379.738	-61.61
379.948	1.88
380.158	96.08
380.369	87.89
380.579	40.79
380.789	51.03
380.999	10.07
381.21	44.88
381.42	87.89
381.63	98.13
381.84	28.5
382.05	55.12
382.261	59.22
382.471	65.36
382.681	40.79
382.891	16.21
383.101	81.75
383.311	118.61
383.521	-4.27
383.731	79.7
383.941	55.12
384.151	57.17
384.361	48.98
384.571	57.17
384.781	-0.17
384.991	42.84
385.201	108.37
385.411	-8.36
385.621	-4.27
385.831	30.55
386.041	40.79
386.251	53.08
386.461	77.65
386.671	24.4
386.881	-2.22
387.091	12.12
387.301	44.88
387.511	61.27
387.72	40.79
387.93	61.27
388.14	61.27
388.35	26.45
388.56	55.12
388.769	85.84
388.979	141.14
389.189	-2.22
389.399	44.88
389.609	28.5
389.818	5.97
390.028	42.84
390.238	132.95
390.447	-30.89
390.657	67.41
390.867	91.99
391.076	69.46
391.286	65.36
391.496	73.56
391.705	36.69
391.915	65.36
392.125	24.4
392.334	118.61
392.544	110.42
392.753	48.98
392.963	16.21
393.172	5.97
393.382	57.17
393.591	89.94
393.801	46.93
394.01	106.32
394.22	139.09
394.429	44.88
394.639	5.97
394.848	44.88
395.058	77.65
395.267	91.99
395.477	102.23
395.686	96.08
395.895	106.32
396.105	141.14
396.314	126.8
396.524	73.56
396.733	65.36
396.942	79.7
397.152	30.55
397.361	159.57
397.57	32.6
397.78	18.26
397.989	94.04
398.198	91.99
398.407	46.93
398.617	71.51
398.826	61.27
399.035	-12.46
399.244	118.61
399.453	44.88
399.663	51.03
399.872	79.7
400.081	114.52
400.29	89.94
400.499	91.99
400.708	110.42
400.917	24.4
401.127	110.42
401.336	91.99
401.545	163.67
401.754	83.8
401.963	67.41
402.172	36.69
402.381	81.75
402.59	53.08
402.799	112.47
403.008	55.12
403.217	81.75
403.426	-32.94
403.635	55.12
403.844	89.94
404.053	55.12
404.262	79.7
404.471	104.28
404.68	87.89
404.888	96.08
405.097	57.17
405.306	96.08
405.515	126.8
405.724	48.98
405.933	147.28
406.142	132.95
406.35	128.85
406.559	139.09
406.768	145.24
406.977	137.04
407.185	167.76
407.394	139.09
407.603	194.39
407.812	167.76
408.02	100.18
408.229	184.15
408.438	104.28
408.646	241.49
408.855	169.81
409.064	159.57
409.272	221.01
409.481	157.52
409.69	135
409.898	94.04
410.107	229.2
410.315	186.19
410.524	186.19
410.733	266.07
410.941	210.77
411.15	264.02
411.358	286.54
411.567	274.26
411.775	307.02
411.984	339.79
412.192	315.22
412.401	319.31
412.609	286.54
412.818	395.09
413.026	307.02
413.234	520.01
413.443	380.75
413.651	423.76
413.86	356.18
414.068	384.85
414.276	540.49
414.485	423.76
414.693	554.83
414.901	528.21
415.11	452.43
415.318	530.25
415.526	618.32
415.734	634.7
415.943	630.6
416.151	616.27
416.359	573.26
416.567	589.64
416.776	741.19
416.984	646.99
417.192	802.63
417.4	829.26
417.608	728.91
417.817	872.26
418.025	806.73
418.233	915.27
418.441	915.27
418.649	909.13
418.857	966.47
419.065	997.19
419.273	913.22
419.481	1050.44
419.689	1109.83
419.897	1072.96
420.105	1124.16
420.313	1204.03
420.521	1244.99
420.729	1308.48
420.937	1294.15
421.145	1437.5
421.353	1408.83
421.561	1437.5
421.769	1539.9
421.977	1679.16
422.185	1486.65
422.393	1713.98
422.601	1871.67
422.809	1634.11
423.017	1756.99
423.224	1806.14
423.432	1908.54
423.64	1906.49
423.848	2092.85
424.056	2021.17
424.263	2244.4
424.471	2101.05
424.679	2250.55
424.887	2285.36
425.094	2297.65
425.302	2453.3
425.51	2488.11
425.718	2600.75
425.925	2639.66
426.133	2754.35
426.341	2803.5
426.548	2996.01
426.756	2969.38
426.964	3096.36
427.171	3206.95
427.379	3329.83
427.586	3342.11
427.794	3477.28
428.001	3589.92
428.209	3835.67
428.417	3714.84
428.624	4001.56
428.832	4136.73
429.039	4019.99
429.247	3970.84
429.454	4316.95
429.662	4730.64
429.869	4280.08
430.076	4732.69
430.284	4513.55
430.491	4847.37
430.699	5031.69
430.906	4908.81
431.114	4974.35
431.321	5332.74
431.528	5410.56
431.736	5834.49
431.943	5971.71
432.15	5877.5
432.358	5875.45
432.565	6082.3
432.772	6397.68
432.979	6520.56
433.187	6586.1
433.394	6657.78
433.601	7165.67
433.808	7151.34
434.016	7005.93
434.223	7431.91
434.43	7745.25
434.637	7472.87
434.844	8201.94
435.052	8384.21
435.259	8199.9
435.466	8406.74
435.673	8017.63
435.88	8812.24
436.087	9197.26
436.294	9219.78
436.501	9096.91
436.708	9311.94
436.915	9395.91
437.122	9944.77
437.329	9862.85
437.537	9969.34
437.743	10401.46
437.95	10239.67
438.157	10905.26
438.364	11243.18
438.571	11083.44
438.778	11415.21
438.985	12318.36
439.192	11814.56
439.399	12099.23
439.606	11837.09
439.813	12582.55
440.02	13315.72
440.227	13180.56
440.433	12838.55
440.64	13422.22
440.847	13330.06
441.054	13713.03
441.261	14638.71
441.467	14642.81
441.674	14724.72
441.881	15177.33
442.088	15203.95
442.294	15181.42
442.501	15674.98
442.708	15742.57
442.914	16625.24
443.121	17157.71
443.328	16705.11
443.534	17800.77
443.741	17335.88
443.948	17018.45
444.154	18329.15
444.361	18312.77
444.568	18224.7
444.774	18509.37
444.981	18570.81
445.187	19033.65
445.394	19928.61
445.6	19625.51
445.807	21566.99
446.013	20579.87
446.22	20917.78
446.426	21777.93
446.633	21988.87
446.839	22851.06
447.046	21958.15
447.252	23148.02
447.459	22975.99
447.665	22879.74
447.871	23834.09
448.078	24954.33
448.284	23952.87
448.491	24448.48
448.697	25193.94
448.903	25716.17
449.11	25572.82
449.316	25230.8
449.522	26058.18
449.728	26676.67
449.935	26467.78
450.141	26568.13
450.347	27329.97
450.553	25980.36
450.76	26750.4
450.966	27440.56
451.172	27000.25
451.378	27776.43
451.584	27385.27
451.791	27923.88
451.997	27839.92
452.203	28071.34
452.409	27950.51
452.615	27913.64
452.821	26770.88
453.027	26789.31
453.233	28036.52
453.44	27039.16
453.646	26899.9
453.852	27256.25
454.058	27665.84
454.264	26584.51
454.47	27385.27
454.676	26764.73
454.882	27622.83
455.088	24694.24
455.294	25402.83
455.5	25767.37
455.705	26047.94
455.911	24763.87
456.117	24180.2
456.323	24208.87
456.529	22683.13
456.735	23528.94
456.941	22957.56
457.147	22781.43
457.352	22220.29
457.558	21949.96
457.764	21751.31
457.97	21198.35
458.176	20831.77
458.381	20643.35
458.587	19891.75
458.793	19525.16
458.999	18705.98
459.204	20237.86
459.41	19707.43
459.616	18011.71
459.821	18048.58
460.027	17937.99
460.233	17888.84
460.438	16909.91
460.644	17192.53
460.85	16299.61
461.055	16070.24
461.261	16119.39
461.466	14952.05
461.672	14315.13
461.878	15566.44
462.083	14380.67
462.289	14167.68
462.494	14253.69
462.7	13223.56
462.905	12793.49
463.111	13518.47
463.316	13688.45
463.522	13250.19
463.727	13520.52
463.932	13129.36
464.138	13188.75
464.343	13317.77
464.549	12641.94
464.754	13196.94
464.959	12986
465.165	12836.5
465.37	12342.94
465.575	12041.89
465.781	12492.44
465.986	12756.63
466.191	12320.41
466.397	12025.5
466.602	11581.09
466.807	11945.63
467.012	11935.39
467.218	11765.41
467.423	11667.11
467.628	11730.59
467.833	12308.12
