Data from USB4F104151__47__11-05-36-629.txt Node

Date: Wed Mar 12 11:05:36 EDT 2025
User: louis
Spectrometer: USB4F10415
Trigger mode: 4
Integration Time (sec): 2.000000E-2
Scans to average: 1
Electric dark correction enabled: true
Nonlinearity correction enabled: false
Boxcar width: 0
XAxis mode: Wavelengths
Number of Pixels in Spectrum: 3648
>>>>>Begin Spectral Data<<<<<
178.204	-81.24
178.424	-81.24
178.644	-81.24
178.864	-56.66
179.084	-77.14
179.304	-21.84
179.524	-48.47
179.744	-15.7
179.964	41.64
180.184	17.07
180.404	21.16
180.624	-36.18
180.844	68.27
181.064	-11.61
181.283	-52.56
181.503	31.4
181.723	6.83
181.943	33.45
182.163	23.21
182.383	-44.37
182.602	4.78
182.822	-83.28
183.042	60.07
183.262	-38.23
183.482	-3.41
183.701	-3.41
183.921	-13.65
184.141	-7.51
184.361	6.83
184.58	37.55
184.8	-7.51
185.02	-27.99
185.239	90.79
185.459	17.07
185.679	-11.61
185.898	-75.09
186.118	-13.65
186.338	29.35
186.557	21.16
186.777	6.83
186.997	-17.75
187.216	8.87
187.436	49.83
187.655	60.07
187.875	8.87
188.095	-19.8
188.314	107.18
188.534	78.51
188.753	-1.37
188.973	4.78
189.192	51.88
189.412	35.5
189.631	-15.7
189.851	80.55
190.07	10.92
190.29	-32.08
190.509	15.02
190.729	17.07
190.948	39.59
191.168	92.84
191.387	-5.46
191.607	-11.61
191.826	35.5
192.045	-17.75
192.265	25.26
192.484	-19.8
192.704	-5.46
192.923	-32.08
193.142	74.41
193.362	6.83
193.581	39.59
193.8	-15.7
194.02	47.79
194.239	25.26
194.458	19.11
194.678	10.92
194.897	12.97
195.116	19.11
195.335	49.83
195.555	-32.08
195.774	113.32
195.993	-21.84
196.212	47.79
196.432	-19.8
196.651	55.98
196.87	-27.99
197.089	92.84
197.308	33.45
197.528	-3.41
197.747	70.31
197.966	31.4
198.185	35.5
198.404	-30.04
198.623	-15.7
198.842	78.51
199.062	-23.89
199.281	51.88
199.5	-48.47
199.719	-5.46
199.938	62.12
200.157	98.99
200.376	-11.61
200.595	4.78
200.814	82.6
201.033	-32.08
201.252	0.68
201.471	96.94
201.69	39.59
201.909	39.59
202.128	62.12
202.347	-7.51
202.566	29.35
202.785	10.92
203.004	-5.46
203.223	35.5
203.442	64.17
203.661	-15.7
203.879	23.21
204.098	49.83
204.317	10.92
204.536	17.07
204.755	25.26
204.974	80.55
205.193	72.36
205.411	74.41
205.63	-3.41
205.849	-7.51
206.068	-5.46
206.287	53.93
206.505	84.65
206.724	45.74
206.943	-11.61
207.162	-42.32
207.381	31.4
207.599	-75.09
207.818	45.74
208.037	41.64
208.255	-19.8
208.474	35.5
208.693	-3.41
208.911	58.03
209.13	12.97
209.349	2.73
209.567	98.99
209.786	0.68
210.005	-25.94
210.223	17.07
210.442	-79.19
210.661	39.59
210.879	-60.76
211.098	-1.37
211.316	4.78
211.535	29.35
211.753	-30.04
211.972	-32.08
212.191	-19.8
212.409	-27.99
212.628	-9.56
212.846	45.74
213.065	86.7
213.283	45.74
213.502	-30.04
213.72	-3.41
213.938	-21.84
214.157	12.97
214.375	76.46
214.594	-5.46
214.812	103.08
215.031	-11.61
215.249	64.17
215.467	39.59
215.686	-13.65
215.904	70.31
216.122	-30.04
216.341	8.87
216.559	12.97
216.778	33.45
216.996	66.22
217.214	17.07
217.432	-11.61
217.651	-73.04
217.869	-21.84
218.087	-21.84
218.306	-15.7
218.524	19.11
218.742	-62.8
218.96	-27.99
219.179	51.88
219.397	66.22
219.615	150.18
219.833	19.11
220.051	-50.52
220.27	-15.7
220.488	-36.18
220.706	15.02
220.924	6.83
221.142	107.18
221.36	-27.99
221.578	21.16
221.796	64.17
222.015	37.55
222.233	4.78
222.451	82.6
222.669	-36.18
222.887	-60.76
223.105	25.26
223.323	17.07
223.541	8.87
223.759	-9.56
223.977	45.74
224.195	-3.41
224.413	23.21
224.631	47.79
224.849	-64.85
225.067	25.26
225.285	35.5
225.503	35.5
225.721	-71
225.939	12.97
226.157	2.73
226.375	58.03
226.592	8.87
226.81	62.12
227.028	-36.18
227.246	12.97
227.464	29.35
227.682	64.17
227.9	-21.84
228.117	39.59
228.335	-9.56
228.553	60.07
228.771	6.83
228.989	-27.99
229.206	60.07
229.424	4.78
229.642	37.55
229.86	-34.13
230.077	-17.75
230.295	-17.75
230.513	82.6
230.731	41.64
230.948	12.97
231.166	80.55
231.384	33.45
231.601	37.55
231.819	70.31
232.037	25.26
232.254	17.07
232.472	12.97
232.689	12.97
232.907	72.36
233.125	49.83
233.342	10.92
233.56	23.21
233.777	29.35
233.995	-15.7
234.213	-25.94
234.43	37.55
234.648	12.97
234.865	12.97
235.083	64.17
235.3	8.87
235.518	23.21
235.735	6.83
235.953	60.07
236.17	-15.7
236.388	58.03
236.605	-3.41
236.822	80.55
237.04	45.74
237.257	4.78
237.475	-7.51
237.692	31.4
237.909	-71
238.127	6.83
238.344	-11.61
238.562	23.21
238.779	55.98
238.996	-27.99
239.214	101.03
239.431	53.93
239.648	25.26
239.865	8.87
240.083	23.21
240.3	-23.89
240.517	82.6
240.735	21.16
240.952	45.74
241.169	41.64
241.386	19.11
241.603	-19.8
241.821	-23.89
242.038	-7.51
242.255	90.79
242.472	-11.61
242.689	4.78
242.907	-13.65
243.124	27.31
243.341	37.55
243.558	17.07
243.775	12.97
243.992	98.99
244.209	55.98
244.426	4.78
244.643	49.83
244.86	19.11
245.078	0.68
245.295	58.03
245.512	-1.37
245.729	-40.28
245.946	10.92
246.163	15.02
246.38	74.41
246.597	17.07
246.814	-7.51
247.031	-15.7
247.248	53.93
247.464	-36.18
247.681	25.26
247.898	23.21
248.115	25.26
248.332	19.11
248.549	78.51
248.766	-30.04
248.983	64.17
249.2	-23.89
249.417	78.51
249.633	-23.89
249.85	115.37
250.067	-17.75
250.284	-9.56
250.501	60.07
250.717	-79.19
250.934	39.59
251.151	21.16
251.368	-5.46
251.585	29.35
251.801	-17.75
252.018	37.55
252.235	-3.41
252.451	62.12
252.668	119.46
252.885	25.26
253.102	47.79
253.318	23.21
253.535	23.21
253.752	15.02
253.968	19.11
254.185	35.5
254.401	-19.8
254.618	33.45
254.835	43.69
255.051	111.27
255.268	-44.37
255.484	4.78
255.701	6.83
255.917	51.88
256.134	66.22
256.351	-23.89
256.567	-13.65
256.784	55.98
257	-1.37
257.217	-30.04
257.433	29.35
257.65	4.78
257.866	-23.89
258.082	-5.46
258.299	-36.18
258.515	-13.65
258.732	6.83
258.948	29.35
259.165	68.27
259.381	-3.41
259.597	17.07
259.814	12.97
260.03	10.92
260.246	62.12
260.463	0.68
260.679	17.07
260.895	-50.52
261.112	2.73
261.328	2.73
261.544	-48.47
261.761	15.02
261.977	-7.51
262.193	21.16
262.409	-15.7
262.626	33.45
262.842	29.35
263.058	64.17
263.274	-48.47
263.49	90.79
263.707	2.73
263.923	-48.47
264.139	-42.32
264.355	72.36
264.571	64.17
264.787	49.83
265.004	33.45
265.22	10.92
265.436	47.79
265.652	-1.37
265.868	-19.8
266.084	-3.41
266.3	58.03
266.516	-36.18
266.732	90.79
266.948	-11.61
267.164	72.36
267.38	45.74
267.596	53.93
267.812	33.45
268.028	15.02
268.244	21.16
268.46	41.64
268.676	-13.65
268.892	58.03
269.108	-44.37
269.324	37.55
269.54	47.79
269.756	17.07
269.972	-34.13
270.188	23.21
270.403	-30.04
270.619	-46.42
270.835	-60.76
271.051	17.07
271.267	17.07
271.483	-56.66
271.698	-38.23
271.914	66.22
272.13	-19.8
272.346	10.92
272.562	62.12
272.777	33.45
272.993	111.27
273.209	12.97
273.425	105.13
273.64	4.78
273.856	2.73
274.072	4.78
274.287	8.87
274.503	51.88
274.719	31.4
274.934	-64.85
275.15	-77.14
275.366	31.4
275.581	-52.56
275.797	39.59
276.012	39.59
276.228	-36.18
276.444	-17.75
276.659	101.03
276.875	-17.75
277.09	39.59
277.306	-7.51
277.521	-52.56
277.737	37.55
277.952	-7.51
278.168	21.16
278.383	-1.37
278.599	29.35
278.814	51.88
279.03	-54.61
279.245	45.74
279.461	76.46
279.676	84.65
279.892	74.41
280.107	33.45
280.322	6.83
280.538	-3.41
280.753	35.5
280.969	125.61
281.184	-5.46
281.399	72.36
281.615	35.5
281.83	-19.8
282.045	-3.41
282.26	33.45
282.476	10.92
282.691	29.35
282.906	-7.51
283.122	-36.18
283.337	6.83
283.552	-13.65
283.767	-38.23
283.983	41.64
284.198	35.5
284.413	-46.42
284.628	-50.52
284.843	8.87
285.058	64.17
285.274	-1.37
285.489	17.07
285.704	60.07
285.919	-7.51
286.134	45.74
286.349	74.41
286.564	-11.61
286.779	51.88
286.995	15.02
287.21	-40.28
287.425	45.74
287.64	33.45
287.855	8.87
288.07	-13.65
288.285	49.83
288.5	17.07
288.715	17.07
288.93	53.93
289.145	2.73
289.36	-44.37
289.575	6.83
289.79	23.21
290.004	31.4
290.219	8.87
290.434	-9.56
290.649	-30.04
290.864	-9.56
291.079	33.45
291.294	23.21
291.509	21.16
291.724	-17.75
291.938	51.88
292.153	-36.18
292.368	98.99
292.583	-7.51
292.798	15.02
293.012	12.97
293.227	-27.99
293.442	-19.8
293.657	66.22
293.871	-1.37
294.086	39.59
294.301	103.08
294.516	-15.7
294.73	37.55
294.945	-9.56
295.16	17.07
295.374	12.97
295.589	25.26
295.804	15.02
296.018	33.45
296.233	90.79
296.447	12.97
296.662	-50.52
296.877	55.98
297.091	45.74
297.306	31.4
297.52	15.02
297.735	60.07
297.949	17.07
298.164	-19.8
298.378	2.73
298.593	-23.89
298.807	-17.75
299.022	47.79
299.236	60.07
299.451	62.12
299.665	37.55
299.88	10.92
300.094	47.79
300.309	-3.41
300.523	58.03
300.737	29.35
300.952	-13.65
301.166	-27.99
301.381	33.45
301.595	-5.46
301.809	-42.32
302.024	25.26
302.238	-13.65
302.452	66.22
302.667	0.68
302.881	113.32
303.095	4.78
303.309	-23.89
303.524	12.97
303.738	33.45
303.952	-17.75
304.166	43.69
304.381	-30.04
304.595	25.26
304.809	25.26
305.023	-13.65
305.237	58.03
305.452	-40.28
305.666	17.07
305.88	25.26
306.094	-32.08
306.308	-5.46
306.522	25.26
306.736	12.97
306.95	25.26
307.164	2.73
307.379	-7.51
307.593	62.12
307.807	39.59
308.021	-38.23
308.235	25.26
308.449	-17.75
308.663	19.11
308.877	31.4
309.091	-54.61
309.305	86.7
309.519	15.02
309.733	90.79
309.947	4.78
310.161	19.11
310.374	23.21
310.588	101.03
310.802	4.78
311.016	4.78
311.23	58.03
311.444	-3.41
311.658	4.78
311.872	-30.04
312.085	31.4
312.299	23.21
312.513	45.74
312.727	10.92
312.941	-3.41
313.154	27.31
313.368	-66.9
313.582	82.6
313.796	47.79
314.009	-23.89
314.223	53.93
314.437	0.68
314.651	15.02
314.864	29.35
315.078	62.12
315.292	45.74
315.505	21.16
315.719	17.07
315.933	-11.61
316.146	-17.75
316.36	21.16
316.573	-52.56
316.787	-23.89
317.001	-30.04
317.214	12.97
317.428	58.03
317.641	2.73
317.855	-17.75
318.068	21.16
318.282	12.97
318.495	27.31
318.709	55.98
318.922	-5.46
319.136	12.97
319.349	96.94
319.563	78.51
319.776	23.21
319.99	-5.46
320.203	-44.37
320.417	0.68
320.63	8.87
320.843	-3.41
321.057	10.92
321.27	17.07
321.483	19.11
321.697	60.07
321.91	31.4
322.124	27.31
322.337	17.07
322.55	6.83
322.763	53.93
322.977	-32.08
323.19	-11.61
323.403	12.97
323.617	15.02
323.83	82.6
324.043	-50.52
324.256	70.31
324.469	31.4
324.683	45.74
324.896	35.5
325.109	21.16
325.322	53.93
325.535	0.68
325.748	-38.23
325.962	-21.84
326.175	-11.61
326.388	-3.41
326.601	8.87
326.814	31.4
327.027	-36.18
327.24	53.93
327.453	41.64
327.666	58.03
327.879	29.35
328.092	76.46
328.305	29.35
328.518	2.73
328.731	15.02
328.944	-25.94
329.157	-15.7
329.37	21.16
329.583	23.21
329.796	84.65
330.009	-3.41
330.222	31.4
330.435	25.26
330.648	10.92
330.861	74.41
331.073	60.07
331.286	8.87
331.499	4.78
331.712	49.83
331.925	60.07
332.138	-3.41
332.35	119.46
332.563	47.79
332.776	58.03
332.989	12.97
333.202	0.68
333.414	21.16
333.627	-21.84
333.84	17.07
334.053	62.12
334.265	35.5
334.478	10.92
334.691	-23.89
334.903	58.03
335.116	-36.18
335.329	-44.37
335.541	43.69
335.754	37.55
335.966	27.31
336.179	62.12
336.392	-1.37
336.604	35.5
336.817	0.68
337.029	58.03
337.242	-7.51
337.454	-15.7
337.667	15.02
337.88	41.64
338.092	29.35
338.305	49.83
338.517	-34.13
338.729	-5.46
338.942	12.97
339.154	-21.84
339.367	-5.46
339.579	58.03
339.792	-52.56
340.004	80.55
340.217	43.69
340.429	74.41
340.641	68.27
340.854	21.16
341.066	8.87
341.278	51.88
341.491	25.26
341.703	-7.51
341.915	64.17
342.128	-32.08
342.34	33.45
342.552	-7.51
342.764	-27.99
342.977	17.07
343.189	21.16
343.401	43.69
343.613	43.69
343.826	8.87
344.038	53.93
344.25	23.21
344.462	33.45
344.674	15.02
344.886	39.59
345.099	58.03
345.311	4.78
345.523	-7.51
345.735	29.35
345.947	62.12
346.159	-9.56
346.371	53.93
346.583	-5.46
346.795	31.4
347.007	70.31
347.219	94.89
347.431	15.02
347.643	62.12
347.855	-71
348.067	70.31
348.279	-23.89
348.491	60.07
348.703	0.68
348.915	33.45
349.127	-23.89
349.339	15.02
349.551	45.74
349.763	103.08
349.975	33.45
350.187	70.31
350.399	66.22
350.61	27.31
350.822	58.03
351.034	55.98
351.246	-1.37
351.458	-7.51
351.669	-3.41
351.881	41.64
352.093	37.55
352.305	-62.8
352.517	-3.41
352.728	72.36
352.94	23.21
353.152	-17.75
353.363	12.97
353.575	23.21
353.787	-23.89
353.999	10.92
354.21	8.87
354.422	4.78
354.633	-11.61
354.845	68.27
355.057	10.92
355.268	25.26
355.48	74.41
355.692	6.83
355.903	-25.94
356.115	41.64
356.326	8.87
356.538	53.93
356.749	-44.37
356.961	-15.7
357.172	2.73
357.384	58.03
357.595	-11.61
357.807	21.16
358.018	4.78
358.23	35.5
358.441	21.16
358.653	23.21
358.864	15.02
359.075	82.6
359.287	37.55
359.498	55.98
359.709	49.83
359.921	-7.51
360.132	-36.18
360.344	25.26
360.555	68.27
360.766	6.83
360.977	45.74
361.189	-5.46
361.4	-21.84
361.611	-25.94
361.823	70.31
362.034	10.92
362.245	-77.14
362.456	2.73
362.667	-52.56
362.879	41.64
363.09	-23.89
363.301	25.26
363.512	-17.75
363.723	27.31
363.935	60.07
364.146	29.35
364.357	43.69
364.568	17.07
364.779	-19.8
364.99	72.36
365.201	43.69
365.412	72.36
365.623	15.02
365.834	-11.61
366.045	4.78
366.256	82.6
366.467	27.31
366.678	88.75
366.889	31.4
367.1	43.69
367.311	35.5
367.522	21.16
367.733	10.92
367.944	25.26
368.155	12.97
368.366	-25.94
368.577	17.07
368.788	31.4
368.999	-21.84
369.209	8.87
369.42	131.75
369.631	152.23
369.842	23.21
370.053	-23.89
370.264	-13.65
370.474	8.87
370.685	94.89
370.896	43.69
371.107	37.55
371.317	51.88
371.528	31.4
371.739	58.03
371.95	88.75
372.16	141.99
372.371	0.68
372.582	-7.51
372.792	19.11
373.003	21.16
373.214	2.73
373.424	-15.7
373.635	6.83
373.846	109.23
374.056	17.07
374.267	45.74
374.477	39.59
374.688	-60.76
374.898	39.59
375.109	74.41
375.319	47.79
375.53	21.16
375.74	66.22
375.951	-7.51
376.161	31.4
376.372	115.37
376.582	-46.42
376.793	-15.7
377.003	37.55
377.214	-27.99
377.424	-5.46
377.635	2.73
377.845	107.18
378.055	-9.56
378.266	70.31
378.476	-3.41
378.686	25.26
378.897	2.73
379.107	109.23
379.317	35.5
379.528	-15.7
379.738	68.27
379.948	41.64
380.158	98.99
380.369	-11.61
380.579	21.16
380.789	60.07
380.999	33.45
381.21	-30.04
381.42	51.88
381.63	29.35
381.84	0.68
382.05	90.79
382.261	21.16
382.471	25.26
382.681	41.64
382.891	23.21
383.101	68.27
383.311	123.56
383.521	45.74
383.731	-9.56
383.941	17.07
384.151	17.07
384.361	64.17
384.571	-13.65
384.781	96.94
384.991	0.68
385.201	45.74
385.411	12.97
385.621	94.89
385.831	37.55
386.041	92.84
386.251	-13.65
386.461	74.41
386.671	45.74
386.881	-5.46
387.091	0.68
387.301	-15.7
387.511	-46.42
387.72	45.74
387.93	-27.99
388.14	-3.41
388.35	41.64
388.56	70.31
388.769	66.22
388.979	35.5
389.189	49.83
389.399	-15.7
389.609	35.5
389.818	60.07
390.028	60.07
390.238	-15.7
390.447	41.64
390.657	45.74
390.867	33.45
391.076	51.88
391.286	55.98
391.496	27.31
391.705	12.97
391.915	55.98
392.125	105.13
392.334	27.31
392.544	90.79
392.753	19.11
392.963	17.07
393.172	43.69
393.382	4.78
393.591	51.88
393.801	55.98
394.01	98.99
394.22	141.99
394.429	-27.99
394.639	53.93
394.848	12.97
395.058	90.79
395.267	58.03
395.477	148.14
395.686	103.08
395.895	117.42
396.105	64.17
396.314	60.07
396.524	6.83
396.733	70.31
396.942	33.45
397.152	51.88
397.361	90.79
397.57	47.79
397.78	88.75
397.989	88.75
398.198	107.18
398.407	62.12
398.617	98.99
398.826	25.26
399.035	98.99
399.244	103.08
399.453	86.7
399.663	53.93
399.872	31.4
400.081	6.83
400.29	146.09
400.499	35.5
400.708	101.03
400.917	43.69
401.127	101.03
401.336	127.66
401.545	98.99
401.754	45.74
401.963	107.18
402.172	72.36
402.381	19.11
402.59	31.4
402.799	60.07
403.008	76.46
403.217	72.36
403.426	-30.04
403.635	101.03
403.844	121.51
404.053	178.86
404.262	78.51
404.471	133.8
404.68	166.57
404.888	45.74
405.097	101.03
405.306	82.6
405.515	76.46
405.724	76.46
405.933	74.41
406.142	133.8
406.35	139.94
406.559	146.09
406.768	90.79
406.977	191.14
407.185	160.42
407.394	209.58
407.603	98.99
407.812	217.77
408.02	223.91
408.229	180.9
408.438	174.76
408.646	160.42
408.855	191.14
409.064	209.58
409.272	160.42
409.481	289.45
409.69	221.86
409.898	189.1
410.107	215.72
410.315	320.17
410.524	242.34
410.733	283.3
410.941	160.42
411.15	260.77
411.358	328.36
411.567	342.69
411.775	275.11
411.984	320.17
412.192	297.64
412.401	330.41
412.609	381.6
412.818	342.69
413.026	426.66
413.234	397.99
413.443	400.04
413.651	391.84
413.86	445.09
414.068	494.24
414.276	447.14
414.485	498.34
414.693	518.82
414.901	500.39
415.11	602.79
415.318	500.39
415.526	615.07
415.734	604.83
415.943	586.4
416.151	662.18
416.359	666.27
416.567	688.8
416.776	637.6
416.984	727.71
417.192	793.25
417.4	789.15
417.608	737.95
417.817	774.81
418.025	836.25
418.233	918.17
418.441	905.88
418.649	963.23
418.857	946.84
419.065	1100.44
419.273	1028.76
419.481	1065.63
419.689	1118.87
419.897	1190.55
420.105	1034.91
420.313	1262.23
420.521	1184.41
420.729	1247.9
420.937	1303.19
421.145	1358.49
421.353	1311.38
421.561	1577.62
421.769	1462.93
421.977	1600.15
422.185	1606.29
422.393	1710.74
422.601	1866.38
422.809	1680.02
423.017	1782.42
423.224	1815.18
423.432	1915.53
423.64	2077.32
423.848	2077.32
424.056	2146.95
424.263	2255.5
424.471	2200.2
424.679	2194.06
424.887	2415.24
425.094	2488.96
425.302	2495.11
425.51	2611.84
425.718	2677.38
425.925	2773.63
426.133	2941.57
426.341	2882.17
426.548	3048.06
426.756	3177.08
426.964	2986.62
427.171	3279.48
427.379	3293.82
427.586	3377.78
427.794	3594.87
428.001	3699.31
428.209	3891.82
428.417	3641.97
428.624	3955.31
428.832	4246.12
429.039	3885.68
429.247	3981.93
429.454	4362.86
429.662	4659.81
429.869	4315.75
430.076	4727.39
430.284	4610.66
430.491	4692.58
430.699	5032.54
430.906	5038.69
431.114	5126.75
431.321	5251.67
431.528	5497.43
431.736	5595.73
431.943	6027.85
432.15	5978.7
432.358	6009.42
432.565	6416.97
432.772	6244.94
432.979	6648.39
433.187	6627.91
433.394	6824.51
433.601	7133.76
433.808	6998.59
434.016	7072.32
434.223	7449.14
434.43	7785.01
434.637	7791.16
434.844	8131.12
435.052	8272.43
435.259	8075.82
435.466	8321.58
435.673	8227.37
435.88	9067.04
436.087	9273.89
436.294	9200.16
436.501	9028.13
436.708	9308.7
436.915	9579.03
437.122	9964.05
437.329	9900.56
437.537	10449.42
437.743	10308.11
437.95	10457.61
438.157	10938.88
438.364	11280.89
438.571	11160.06
438.778	11420.16
438.985	12392.94
439.192	12079.6
439.399	12423.66
439.606	11997.68
439.813	12667.37
440.02	13361.63
440.227	13038.05
440.433	12886.5
440.64	13502.94
440.847	13636.06
441.054	13613.53
441.261	14803.4
441.467	14483.92
441.674	14807.5
441.881	15258.05
442.088	15325.63
442.294	15145.41
442.501	15614.4
442.708	15888.82
442.914	16486.83
443.121	17238.44
443.328	16722.35
443.534	17775
443.741	17496.48
443.948	17138.09
444.154	18381.2
444.361	18151.83
444.568	18624.91
444.774	18407.83
444.981	19061.13
445.187	19294.6
445.394	19872.12
445.6	19468.67
445.807	21750.11
446.013	20584.82
446.22	21205.35
446.426	21678.43
446.633	22069.59
446.839	22794.57
447.046	21901.66
447.252	22995.28
447.459	23097.67
447.665	23148.87
447.871	23796.03
448.078	24899.89
448.284	23601.47
448.491	24320.31
448.697	25172.27
448.903	26167.58
449.11	26069.28
449.316	25207.08
449.522	25850.14
449.728	26495.25
449.935	26532.12
450.141	26798.35
450.347	27351.31
450.553	26738.96
450.76	26523.93
450.966	27386.12
451.172	27001.1
451.378	27900.16
451.584	27060.49
451.791	27834.63
451.997	28186.88
452.203	28305.66
452.409	27891.97
452.615	27992.32
452.821	26910.99
453.027	26824.98
453.233	27990.27
453.44	26562.84
453.646	27179.28
453.852	27158.8
454.058	27621.64
454.264	26634.52
454.47	27384.07
454.676	26274.07
454.882	27498.76
455.088	25186.6
455.294	25184.55
455.5	25598.24
455.705	26368.28
455.911	25088.3
456.117	24283.45
456.323	24037.69
456.529	22841.68
456.735	23675.2
456.941	23038.28
457.147	22577.49
457.352	21967.2
457.558	21786.97
457.764	21649.76
457.97	21191.02
458.176	20871.53
458.381	20617.58
458.587	20087.16
458.793	19741.05
458.999	18491.79
459.204	20183.41
459.41	19345.8
459.616	18246.04
459.821	17975.7
460.027	18289.04
460.233	17828.25
460.438	16882.09
460.644	17037.73
460.85	16320.95
461.055	16351.67
461.261	16030.13
461.466	14895.56
461.672	14559.69
461.878	15299.01
462.083	14381.52
462.289	13986.26
462.494	13920.73
462.7	13208.03
462.905	12974.56
463.111	13341.15
463.316	13283.81
463.522	13357.53
463.727	13224.42
463.932	13062.63
464.138	13142.5
464.343	13160.93
464.549	12947.94
464.754	13351.39
464.959	13199.84
465.165	12892.65
465.37	12360.17
465.575	12313.07
465.781	12655.08
465.986	12708.33
466.191	12132.85
466.397	11950.58
466.602	11543.03
466.807	12032.5
467.012	11964.92
467.218	11596.28
467.423	11739.64
467.628	11686.39
