Data from USB4F104151__35__12-21-26-565.txt Node

Date: Wed Feb 19 12:21:26 EST 2025
User: louis
Spectrometer: USB4F10415
Trigger mode: 4
Integration Time (sec): 2.250200E-1
Scans to average: 1
Electric dark correction enabled: true
Nonlinearity correction enabled: false
Boxcar width: 0
XAxis mode: Wavelengths
Number of Pixels in Spectrum: 3648
>>>>>Begin Spectral Data<<<<<
178.204	-852.13
178.424	-852.13
178.644	-852.13
178.864	-764.06
179.084	-794.78
179.304	153.43
179.524	106.32
179.744	-37.03
179.964	-180.39
180.184	218.96
180.404	128.85
180.624	-237.74
180.844	-49.32
181.064	16.21
181.283	178
181.503	-147.62
181.723	-149.67
181.943	-61.61
182.163	407.38
182.383	-184.49
182.602	-188.58
182.822	497.49
183.042	278.35
183.262	-135.34
183.482	-170.15
183.701	194.39
183.921	243.54
184.141	-235.69
184.361	-102.57
184.58	270.16
184.8	221.01
185.02	-159.91
185.239	-65.71
185.459	311.12
185.679	429.9
185.898	-149.67
186.118	-188.58
186.338	270.16
186.557	352.08
186.777	-192.68
186.997	-186.54
187.216	184.15
187.436	466.77
187.655	-135.34
187.875	-22.7
188.095	276.31
188.314	442.19
188.534	-30.89
188.753	-276.65
188.973	411.47
189.192	470.86
189.412	-272.55
189.631	-102.57
189.851	321.36
190.07	552.78
190.29	-174.25
190.509	-196.78
190.729	280.4
190.948	452.43
191.168	14.17
191.387	-123.05
191.607	202.58
191.826	294.74
192.045	-110.76
192.265	-243.88
192.484	294.74
192.704	212.82
192.923	-225.45
193.142	-51.37
193.362	333.65
193.581	261.97
193.8	-145.58
194.02	-108.71
194.239	307.02
194.458	397.14
194.678	-82.09
194.897	-215.21
195.116	296.78
195.335	227.15
195.555	-176.3
195.774	-250.02
195.993	436.05
196.212	196.43
196.432	-69.8
196.651	-190.63
196.87	290.64
197.089	560.97
197.308	-143.53
197.528	-49.32
197.747	38.74
197.966	239.44
198.185	-6.31
198.404	-219.3
198.623	298.83
198.842	448.33
199.062	-53.42
199.281	-61.61
199.5	282.45
199.719	272.21
199.938	-168.1
200.157	-211.11
200.376	327.5
200.595	397.14
200.814	-75.95
201.033	-116.9
201.252	442.19
201.471	321.36
201.69	-202.92
201.909	-69.8
202.128	309.07
202.347	376.66
202.566	-49.32
202.785	-350.37
203.004	186.19
203.223	595.79
203.442	-221.35
203.661	-272.55
203.879	347.98
204.098	304.98
204.317	-260.26
204.536	24.4
204.755	354.13
204.974	343.89
205.193	-360.61
205.411	-127.14
205.63	343.89
205.849	319.31
206.068	-157.86
206.287	-221.35
206.505	366.42
206.724	155.47
206.943	-235.69
207.162	-198.82
207.381	212.82
207.599	186.19
207.818	-131.24
208.037	-264.36
208.255	257.87
208.474	227.15
208.693	-133.29
208.911	-141.48
209.13	401.23
209.349	354.13
209.567	-4.27
209.786	-127.14
210.005	335.7
210.223	231.25
210.442	-327.85
210.661	-176.3
210.879	239.44
211.098	122.71
211.316	-131.24
211.535	-172.2
211.753	278.35
211.972	245.59
212.191	-149.67
212.409	-65.71
212.628	335.7
212.846	137.04
213.065	-278.69
213.283	-34.99
213.502	223.06
213.72	190.29
213.938	-196.78
214.157	-178.34
214.375	335.7
214.594	212.82
214.812	-82.09
215.031	-190.63
215.249	149.33
215.467	343.89
215.686	-90.28
215.904	-213.16
216.122	239.44
216.341	507.73
216.559	10.07
216.778	34.64
216.996	468.81
217.214	266.07
217.432	-147.62
217.651	-237.74
217.869	196.43
218.087	202.58
218.306	-170.15
218.524	-196.78
218.742	149.33
218.96	362.32
219.179	-127.14
219.397	-200.87
219.615	520.01
219.833	300.88
220.051	-178.34
220.27	-18.6
220.488	319.31
220.706	313.17
220.924	-202.92
221.142	-114.86
221.36	276.31
221.578	286.54
221.796	-100.52
222.015	-98.47
222.233	296.78
222.451	376.66
222.669	-108.71
222.887	-39.08
223.105	169.81
223.323	184.15
223.541	-131.24
223.759	-123.05
223.977	159.57
224.195	427.85
224.413	-57.51
224.631	-155.82
224.849	227.15
225.067	507.73
225.285	-30.89
225.503	-153.77
225.721	-34.99
225.939	210.77
226.157	-104.62
226.375	147.28
226.592	83.8
226.81	225.11
227.028	22.36
227.246	-114.86
227.464	282.45
227.682	298.83
227.9	-20.65
228.117	-43.18
228.335	300.88
228.553	218.96
228.771	-233.64
228.989	-135.34
229.206	331.6
229.424	118.61
229.642	-133.29
229.86	-102.57
230.077	368.46
230.295	239.44
230.513	-82.09
230.731	-123.05
230.948	485.2
231.166	364.37
231.384	-90.28
231.601	-41.13
231.819	440.14
232.037	91.99
232.254	-75.95
232.472	-209.06
232.689	186.19
232.907	329.55
233.125	-227.5
233.342	-170.15
233.56	122.71
233.777	94.04
233.995	-145.58
234.213	-135.34
234.43	376.66
234.648	239.44
234.865	-151.72
235.083	-47.27
235.3	233.3
235.518	284.5
235.735	-16.55
235.953	-57.51
236.17	218.96
236.388	204.63
236.605	83.8
236.822	-24.75
237.04	444.24
237.257	216.91
237.475	-77.99
237.692	-65.71
237.909	329.55
238.127	235.35
238.344	26.45
238.562	-123.05
238.779	75.6
238.996	-24.75
239.214	10.07
239.431	-73.9
239.648	163.67
239.865	233.3
240.083	-90.28
240.3	-188.58
240.517	112.47
240.735	192.34
240.952	55.12
241.169	-274.6
241.386	307.02
241.603	200.53
241.821	-166.06
242.038	-24.75
242.255	409.42
242.472	51.03
242.689	-63.66
242.907	-65.71
243.124	180.05
243.341	251.73
243.558	-127.14
243.775	-147.62
243.992	28.5
244.209	327.5
244.426	55.12
244.643	-84.14
244.86	184.15
245.078	327.5
245.295	-92.33
245.512	-166.06
245.729	61.27
245.946	288.59
246.163	-149.67
246.38	-168.1
246.597	223.06
246.814	198.48
247.031	-106.67
247.248	-178.34
247.464	311.12
247.681	169.81
247.898	-102.57
248.115	-57.51
248.332	155.47
248.549	507.73
248.766	59.22
248.983	-67.75
249.2	339.79
249.417	434
249.633	-59.56
249.85	-65.71
250.067	223.06
250.284	255.83
250.501	-143.53
250.717	-100.52
250.934	61.27
251.151	196.43
251.368	-104.62
251.585	-145.58
251.801	175.95
252.018	53.08
252.235	24.4
252.451	-221.35
252.668	145.24
252.885	284.5
253.102	-114.86
253.318	-73.9
253.535	106.32
253.752	159.57
253.968	-106.67
254.185	-178.34
254.401	233.3
254.618	284.5
254.835	-73.9
255.051	-45.23
255.268	325.46
255.484	237.39
255.701	-82.09
255.917	-90.28
256.134	81.75
256.351	237.39
256.567	-168.1
256.784	-28.84
257	1.88
257.217	343.89
257.433	-6.31
257.65	3.93
257.866	415.57
258.082	98.13
258.299	-221.35
258.515	-90.28
258.732	178
258.948	34.64
259.165	-32.94
259.381	-159.91
259.597	345.94
259.814	200.53
260.03	-166.06
260.246	-69.8
260.463	345.94
260.679	272.21
260.895	22.36
261.112	-153.77
261.328	118.61
261.544	91.99
261.761	-39.08
261.977	-88.23
262.193	-12.46
262.409	300.88
262.626	-43.18
262.842	-172.2
263.058	130.9
263.274	278.35
263.49	-61.61
263.707	-168.1
263.923	298.83
264.139	-61.61
264.355	-94.38
264.571	-49.32
264.787	302.93
265.004	425.81
265.22	-2.22
265.436	-57.51
265.652	204.63
265.868	243.54
266.084	-96.43
266.3	-112.81
266.516	73.56
266.732	206.67
266.948	-10.41
267.164	-129.19
267.38	345.94
267.596	235.35
267.812	75.6
268.028	-61.61
268.244	141.14
268.46	280.4
268.676	-32.94
268.892	81.75
269.108	110.42
269.324	139.09
269.54	-178.34
269.756	-86.19
269.972	128.85
270.188	169.81
270.403	-94.38
270.619	-86.19
270.835	255.83
271.051	245.59
271.267	-55.47
271.483	-121
271.698	331.6
271.914	347.98
272.13	-22.7
272.346	-131.24
272.562	212.82
272.777	399.18
272.993	-65.71
273.209	-90.28
273.425	202.58
273.64	-80.04
273.856	-151.72
274.072	-258.21
274.287	178
274.503	282.45
274.719	122.71
274.934	-204.97
275.15	48.98
275.366	151.38
275.581	-26.79
275.797	-57.51
276.012	266.07
276.228	94.04
276.444	-0.17
276.659	91.99
276.875	130.9
277.09	85.84
277.306	-55.47
277.521	-30.89
277.737	175.95
277.952	169.81
278.168	-16.55
278.383	-8.36
278.599	108.37
278.814	286.54
279.03	-170.15
279.245	106.32
279.461	202.58
279.676	204.63
279.892	-10.41
280.107	-14.51
280.322	3.93
280.538	356.18
280.753	-108.71
280.969	8.02
281.184	261.97
281.399	380.75
281.615	-24.75
281.83	81.75
282.045	-71.85
282.26	110.42
282.476	-2.22
282.691	48.98
282.906	192.34
283.122	151.38
283.337	-73.9
283.552	22.36
283.767	83.8
283.983	202.58
284.198	14.17
284.413	-112.81
284.628	-59.56
284.843	151.38
285.058	-47.27
285.274	-157.86
285.489	108.37
285.704	323.41
285.919	-6.31
286.134	65.36
286.349	206.67
286.564	178
286.779	10.07
286.995	-16.55
287.21	-14.51
287.425	223.06
287.64	-61.61
287.855	184.15
288.07	8.02
288.285	278.35
288.5	110.42
288.715	55.12
288.93	159.57
289.145	112.47
289.36	-69.8
289.575	67.41
289.79	317.26
290.004	57.17
290.219	59.22
290.434	-37.03
290.649	130.9
290.864	36.69
291.079	-69.8
291.294	14.17
291.509	278.35
291.724	102.23
291.938	-20.65
292.153	5.97
292.368	153.43
292.583	255.83
292.798	40.79
293.012	122.71
293.227	245.59
293.442	30.55
293.657	114.52
293.871	-8.36
294.086	190.29
294.301	360.27
294.516	14.17
294.73	108.37
294.945	83.8
295.16	184.15
295.374	102.23
295.589	48.98
295.804	124.76
296.018	126.8
296.233	-37.03
296.447	120.66
296.662	196.43
296.877	307.02
297.091	10.07
297.306	22.36
297.52	169.81
297.735	257.87
297.949	89.94
298.164	-145.58
298.378	251.73
298.593	85.84
298.807	-32.94
299.022	34.64
299.236	393.04
299.451	42.84
299.665	-59.56
299.88	118.61
300.094	356.18
300.309	198.48
300.523	24.4
300.737	-69.8
300.952	237.39
301.166	178
301.381	-94.38
301.595	-114.86
301.809	141.14
302.024	139.09
302.238	-26.79
302.452	161.62
302.667	261.97
302.881	319.31
303.095	10.07
303.309	18.26
303.524	137.04
303.738	85.84
303.952	98.13
304.166	61.27
304.381	-53.42
304.595	282.45
304.809	20.31
305.023	20.31
305.237	112.47
305.452	79.7
305.666	26.45
305.88	57.17
306.094	321.36
306.308	212.82
306.522	-53.42
306.736	106.32
306.95	223.06
307.164	190.29
307.379	-37.03
307.593	122.71
307.807	317.26
308.021	241.49
308.235	83.8
308.449	-80.04
308.663	145.24
308.877	569.16
309.091	61.27
309.305	81.75
309.519	-10.41
309.733	319.31
309.947	-14.51
310.161	-53.42
310.374	223.06
310.588	368.46
310.802	-110.76
311.016	-49.32
311.23	280.4
311.444	124.76
311.658	59.22
311.872	204.63
312.085	335.7
312.299	354.13
312.513	167.76
312.727	-112.81
312.941	48.98
313.154	161.62
313.368	20.31
313.582	-73.9
313.796	221.01
314.009	173.91
314.223	194.39
314.437	24.4
314.651	231.25
314.864	51.03
315.078	-28.84
315.292	-92.33
315.505	161.62
315.719	98.13
315.933	110.42
316.146	-69.8
316.36	173.91
316.573	247.63
316.787	139.09
317.001	-30.89
317.214	102.23
317.428	206.67
317.641	-73.9
317.855	55.12
318.068	227.15
318.282	186.19
318.495	159.57
318.709	18.26
318.922	180.05
319.136	354.13
319.349	96.08
319.563	-0.17
319.776	235.35
319.99	-106.67
320.203	-16.55
320.417	14.17
320.63	149.33
320.843	325.46
321.057	48.98
321.27	28.5
321.483	321.36
321.697	253.78
321.91	-80.04
322.124	63.32
322.337	233.3
322.55	26.45
322.763	59.22
322.977	-94.38
323.19	153.43
323.403	145.24
323.617	-26.79
323.83	221.01
324.043	192.34
324.256	126.8
324.469	-153.77
324.683	104.28
324.896	192.34
325.109	77.65
325.322	-59.56
325.535	42.84
325.748	347.98
325.962	102.23
326.175	34.64
326.388	-77.99
326.601	261.97
326.814	10.07
327.027	57.17
327.24	214.87
327.453	3.93
327.666	233.3
327.879	94.04
328.092	91.99
328.305	335.7
328.518	61.27
328.731	-18.6
328.944	-86.19
329.157	180.05
329.37	10.07
329.583	137.04
329.796	124.76
330.009	65.36
330.222	278.35
330.435	91.99
330.648	42.84
330.861	253.78
331.073	157.52
331.286	171.86
331.499	5.97
331.712	91.99
331.925	108.37
332.138	34.64
332.35	-47.27
332.563	120.66
332.776	354.13
332.989	-34.99
333.202	-137.38
333.414	182.1
333.627	229.2
333.84	-47.27
334.053	145.24
334.265	100.18
334.478	40.79
334.691	-14.51
334.903	128.85
335.116	206.67
335.329	126.8
335.541	71.51
335.754	290.64
335.966	73.56
336.179	175.95
336.392	61.27
336.604	51.03
336.817	225.11
337.029	175.95
337.242	-43.18
337.454	106.32
337.667	175.95
337.88	276.31
338.092	178
338.305	75.6
338.517	96.08
338.729	114.52
338.942	124.76
339.154	-164.01
339.367	69.46
339.579	307.02
339.792	-96.43
340.004	55.12
340.217	157.52
340.429	194.39
340.641	8.02
340.854	-47.27
341.066	175.95
341.278	241.49
341.491	204.63
341.703	118.61
341.915	108.37
342.128	247.63
342.34	102.23
342.552	-6.31
342.764	221.01
342.977	210.77
343.189	75.6
343.401	28.5
343.613	18.26
343.826	155.47
344.038	-14.51
344.25	87.89
344.462	116.56
344.674	200.53
344.886	-112.81
345.099	89.94
345.311	315.22
345.523	57.17
345.735	-71.85
345.947	51.03
346.159	274.26
346.371	180.05
346.583	-22.7
346.795	137.04
347.007	89.94
347.219	272.21
347.431	59.22
347.643	163.67
347.855	77.65
348.067	319.31
348.279	24.4
348.491	-57.51
348.703	255.83
348.915	194.39
349.127	1.88
349.339	79.7
349.551	190.29
349.763	261.97
349.975	-16.55
350.187	196.43
350.399	319.31
350.61	235.35
350.822	-0.17
351.034	81.75
351.246	225.11
351.458	243.54
351.669	73.56
351.881	63.32
352.093	339.79
352.305	257.87
352.517	-47.27
352.728	108.37
352.94	184.15
353.152	278.35
353.363	-61.61
353.575	112.47
353.787	388.94
353.999	280.4
354.21	178
354.422	-43.18
354.633	210.77
354.845	261.97
355.057	89.94
355.268	12.12
355.48	280.4
355.692	-6.31
355.903	28.5
356.115	-80.04
356.326	-24.75
356.538	331.6
356.749	-45.23
356.961	67.41
357.172	173.91
357.384	26.45
357.595	266.07
357.807	3.93
358.018	67.41
358.23	292.69
358.441	75.6
358.653	-4.27
358.864	206.67
359.075	69.46
359.287	-22.7
359.498	73.56
359.709	294.74
359.921	221.01
360.132	110.42
360.344	-32.94
360.555	116.56
360.766	198.48
360.977	-22.7
361.189	89.94
361.4	188.24
361.611	376.66
361.823	108.37
362.034	34.64
362.245	16.21
362.456	145.24
362.667	114.52
362.879	-67.75
363.09	298.83
363.301	251.73
363.512	30.55
363.723	-69.8
363.935	108.37
364.146	261.97
364.357	30.55
364.568	5.97
364.779	-6.31
364.99	397.14
365.201	75.6
365.412	196.43
365.623	-8.36
365.834	221.01
366.045	67.41
366.256	106.32
366.467	339.79
366.678	221.01
366.889	71.51
367.1	18.26
367.311	390.99
367.522	214.87
367.733	110.42
367.944	128.85
368.155	149.33
368.366	292.69
368.577	34.64
368.788	200.53
368.999	147.28
369.209	180.05
369.42	124.76
369.631	350.03
369.842	190.29
370.053	257.87
370.264	42.84
370.474	61.27
370.685	343.89
370.896	149.33
371.107	173.91
371.317	59.22
371.528	198.48
371.739	456.53
371.95	94.04
372.16	145.24
372.371	53.08
372.582	200.53
372.792	16.21
373.003	153.43
373.214	247.63
373.424	280.4
373.635	104.28
373.846	206.67
374.056	251.73
374.267	188.24
374.477	157.52
374.688	96.08
374.898	333.65
375.109	196.43
375.319	71.51
375.53	94.04
375.74	319.31
375.951	124.76
376.161	167.76
376.372	94.04
376.582	104.28
376.793	276.31
377.003	-37.03
377.214	-24.75
377.424	364.37
377.635	282.45
377.845	-12.46
378.055	77.65
378.266	57.17
378.476	239.44
378.686	61.27
378.897	163.67
379.107	427.85
379.317	288.59
379.528	-53.42
379.738	132.95
379.948	77.65
380.158	294.74
380.369	208.72
380.579	141.14
380.789	116.56
380.999	204.63
381.21	231.25
381.42	249.68
381.63	196.43
381.84	327.5
382.05	124.76
382.261	161.62
382.471	358.22
382.681	173.91
382.891	104.28
383.101	165.71
383.311	139.09
383.521	124.76
383.731	100.18
383.941	225.11
384.151	171.86
384.361	130.9
384.571	89.94
384.781	116.56
384.991	343.89
385.201	446.29
385.411	257.87
385.621	100.18
385.831	270.16
386.041	159.57
386.251	141.14
386.461	141.14
386.671	208.72
386.881	163.67
387.091	51.03
387.301	257.87
387.511	214.87
387.72	358.22
387.93	163.67
388.14	34.64
388.35	200.53
388.56	261.97
388.769	116.56
388.979	42.84
389.189	147.28
389.399	268.11
389.609	167.76
389.818	153.43
390.028	259.92
390.238	313.17
390.447	-12.46
390.657	91.99
390.867	272.21
391.076	122.71
391.286	85.84
391.496	130.9
391.705	212.82
391.915	458.57
392.125	94.04
392.334	122.71
392.544	452.43
392.753	245.59
392.963	26.45
393.172	114.52
393.382	137.04
393.591	462.67
393.801	40.79
394.01	79.7
394.22	280.4
394.429	261.97
394.639	151.38
394.848	167.76
395.058	309.07
395.267	198.48
395.477	112.47
395.686	145.24
395.895	550.73
396.105	378.7
396.314	83.8
396.524	143.19
396.733	173.91
396.942	388.94
397.152	155.47
397.361	198.48
397.57	202.58
397.78	161.62
397.989	180.05
398.198	427.85
398.407	210.77
398.617	255.83
398.826	175.95
399.035	46.93
399.244	327.5
399.453	339.79
399.663	147.28
399.872	-0.17
400.081	98.13
400.29	292.69
400.499	118.61
400.708	253.78
400.917	331.6
401.127	309.07
401.336	143.19
401.545	388.94
401.754	409.42
401.963	417.61
402.172	169.81
402.381	57.17
402.59	368.46
402.799	274.26
403.008	264.02
403.217	212.82
403.426	417.61
403.635	46.93
403.844	63.32
404.053	48.98
404.262	311.12
404.471	462.67
404.68	132.95
404.888	182.1
405.097	251.73
405.306	259.92
405.515	192.34
405.724	98.13
405.933	354.13
406.142	325.46
406.35	159.57
406.559	143.19
406.768	294.74
406.977	450.38
407.185	194.39
407.394	171.86
407.603	122.71
407.812	382.8
408.02	352.08
408.229	188.24
408.438	290.64
408.646	114.52
408.855	114.52
409.064	178
409.272	270.16
409.481	360.27
409.69	132.95
409.898	153.43
410.107	384.85
410.315	444.24
410.524	221.01
410.733	180.05
410.941	280.4
411.15	425.81
411.358	227.15
411.567	350.03
411.775	393.04
411.984	278.35
412.192	206.67
412.401	188.24
412.609	536.4
412.818	434
413.026	141.14
413.234	194.39
413.443	313.17
413.651	245.59
413.86	110.42
414.068	401.23
414.276	589.64
414.485	321.36
414.693	261.97
414.901	327.5
415.11	487.25
415.318	309.07
415.526	196.43
415.734	288.59
415.943	345.94
416.151	481.1
416.359	106.32
416.567	300.88
416.776	458.57
416.984	403.28
417.192	288.59
417.4	206.67
417.608	300.88
417.817	266.07
418.025	253.78
418.233	284.5
418.441	280.4
418.649	216.91
418.857	247.63
419.065	311.12
419.273	352.08
419.481	345.94
419.689	261.97
419.897	165.71
420.105	292.69
420.313	477.01
420.521	354.13
420.729	327.5
420.937	327.5
421.145	247.63
421.353	290.64
421.561	276.31
421.769	515.92
421.977	325.46
422.185	370.51
422.393	335.7
422.601	458.57
422.809	477.01
423.017	360.27
423.224	247.63
423.432	495.44
423.64	345.94
423.848	321.36
424.056	210.77
424.263	681.8
424.471	489.29
424.679	499.53
424.887	304.98
425.094	646.99
425.302	485.2
425.51	223.06
425.718	376.66
425.925	479.05
426.133	370.51
426.341	548.68
426.548	501.58
426.756	415.57
426.964	646.99
427.171	360.27
427.379	411.47
427.586	522.06
427.794	689.99
428.001	501.58
428.209	520.01
428.417	773.96
428.624	739.15
428.832	503.63
429.039	548.68
429.247	585.55
429.454	659.28
429.662	665.42
429.869	499.53
430.076	675.66
430.284	704.33
430.491	532.3
430.699	638.8
430.906	933.7
431.114	833.35
431.321	698.19
431.528	700.23
431.736	761.67
431.943	814.92
432.15	751.43
432.358	610.12
432.565	1068.87
432.772	587.6
432.979	794.44
433.187	646.99
433.394	1038.15
433.601	816.97
433.808	812.87
434.016	927.56
434.223	980.81
434.43	1042.25
434.637	767.82
434.844	929.61
435.052	1138.5
435.259	1212.23
435.466	1021.77
435.673	868.17
435.88	1294.15
436.087	1244.99
436.294	1230.66
436.501	1146.69
436.708	1335.1
436.915	1296.19
437.122	1298.24
437.329	1101.64
437.537	1302.34
437.743	1371.97
437.95	1419.07
438.157	1314.63
438.364	1476.41
438.571	1453.89
438.778	1400.64
438.985	1476.41
439.192	1548.09
439.399	1511.23
439.606	1349.44
439.813	1611.58
440.02	1879.86
440.227	1982.26
440.433	1646.4
440.64	1646.4
440.847	1722.17
441.054	1904.44
441.261	1687.36
441.467	1736.51
441.674	1898.3
441.881	2150.2
442.088	1974.07
442.294	2049.85
442.501	2219.83
442.708	2379.57
442.914	2170.68
443.121	2260.79
443.328	2408.24
443.534	2565.93
443.741	2203.44
443.948	2205.49
444.154	2639.66
444.361	2694.96
444.568	2512.69
444.774	2596.65
444.981	2637.61
445.187	2946.86
445.394	2787.11
445.6	2879.27
445.807	3131.17
446.013	3137.32
446.22	2836.27
446.426	3247.91
446.633	3483.42
446.839	3868.44
447.046	3256.1
447.252	3690.27
447.459	3686.17
447.665	3753.76
447.871	3766.04
448.078	4366.1
448.284	3999.51
448.491	4405.01
448.697	4390.67
448.903	4517.65
449.11	4607.76
449.316	4495.12
449.522	4841.23
449.728	4982.54
449.935	5365.51
450.141	5146.37
450.347	5412.61
450.553	5177.09
450.76	5488.39
450.966	5750.53
451.172	5818.11
451.378	6022.91
451.584	6059.77
451.791	6457.07
451.997	6409.97
452.203	6541.04
452.409	7028.46
452.615	6901.48
452.821	6684.4
453.027	6766.32
453.233	7601.89
453.44	7177.96
453.646	7280.36
453.852	7505.63
454.058	7849.69
454.264	7896.8
454.47	8105.69
454.676	8191.7
454.882	8580.82
455.088	8019.67
455.294	8470.23
455.5	8885.97
455.705	8965.84
455.911	8818.38
456.117	8855.25
456.323	8693.46
456.529	8670.93
456.735	9184.97
456.941	8832.72
457.147	8931.02
457.352	9244.36
457.558	9127.63
457.764	9285.32
457.97	9168.59
458.176	9449.16
458.381	9412.29
458.587	9113.29
458.793	9461.44
458.999	8746.7
459.204	9725.63
459.41	9248.46
459.616	9070.28
459.821	9404.1
460.027	9287.37
460.233	9111.24
460.438	8869.58
