Data from USB4F104151__18__12-53-22-487.txt Node

Date: Fri Mar 14 12:53:22 EDT 2025
User: louis
Spectrometer: USB4F10415
Trigger mode: 4
Integration Time (sec): 1.000000E-2
Scans to average: 1
Electric dark correction enabled: true
Nonlinearity correction enabled: false
Boxcar width: 0
XAxis mode: Wavelengths
Number of Pixels in Spectrum: 3648
>>>>>Begin Spectral Data<<<<<
178.204	-15.87
178.424	-15.87
178.644	-15.87
178.864	-44.54
179.084	8.7
179.304	31.23
179.524	39.42
179.744	4.61
179.964	31.23
180.184	4.61
180.404	-13.82
180.624	23.04
180.844	-38.4
181.064	-19.97
181.283	39.42
181.503	-75.26
181.723	-26.11
181.943	-28.16
182.163	70.14
182.383	-38.4
182.602	94.72
182.822	20.99
183.042	51.71
183.262	-42.5
183.482	6.66
183.701	10.75
183.921	-7.68
184.141	33.28
184.361	-26.11
184.58	20.99
184.8	6.66
185.02	-30.21
185.239	14.85
185.459	-32.26
185.679	92.67
185.898	-5.63
186.118	72.19
186.338	18.94
186.557	78.33
186.777	-11.78
186.997	31.23
187.216	4.61
187.436	35.33
187.655	-11.78
187.875	12.8
188.095	-42.5
188.314	16.9
188.534	23.04
188.753	27.14
188.973	27.14
189.192	12.8
189.412	49.66
189.631	45.57
189.851	-34.3
190.07	2.56
190.29	-30.21
190.509	14.85
190.729	12.8
190.948	-73.21
191.168	53.76
191.387	18.94
191.607	41.47
191.826	-13.82
192.045	-50.69
192.265	14.85
192.484	-24.06
192.704	80.38
192.923	12.8
193.142	64
193.362	41.47
193.581	104.96
193.8	10.75
194.02	-40.45
194.239	-15.87
194.458	39.42
194.678	-42.5
194.897	33.28
195.116	-15.87
195.335	0.51
195.555	53.76
195.774	-15.87
195.993	-32.26
196.212	64
196.432	-28.16
196.651	59.9
196.87	16.9
197.089	47.62
197.308	12.8
197.528	6.66
197.747	-15.87
197.966	64
198.185	8.7
198.404	33.28
198.623	29.18
198.842	6.66
199.062	25.09
199.281	57.86
199.5	72.19
199.719	20.99
199.938	-7.68
200.157	0.51
200.376	90.62
200.595	35.33
200.814	-19.97
201.033	64
201.252	35.33
201.471	25.09
201.69	-7.68
201.909	47.62
202.128	2.56
202.347	-1.54
202.566	61.95
202.785	16.9
203.004	64
203.223	18.94
203.442	-17.92
203.661	-1.54
203.879	18.94
204.098	-9.73
204.317	6.66
204.536	47.62
204.755	-32.26
204.974	-5.63
205.193	51.71
205.411	53.76
205.63	-24.06
205.849	-28.16
206.068	64
206.287	12.8
206.505	18.94
206.724	86.53
206.943	-58.88
207.162	31.23
207.381	82.43
207.599	-73.21
207.818	98.81
208.037	20.99
208.255	41.47
208.474	18.94
208.693	8.7
208.911	18.94
209.13	84.48
209.349	35.33
209.567	27.14
209.786	12.8
210.005	-1.54
210.223	14.85
210.442	-22.02
210.661	53.76
210.879	12.8
211.098	23.04
211.316	31.23
211.535	4.61
211.753	-17.92
211.972	57.86
212.191	20.99
212.409	70.14
212.628	74.24
212.846	-1.54
213.065	8.7
213.283	76.29
213.502	-38.4
213.72	47.62
213.938	-42.5
214.157	-3.58
214.375	-56.83
214.594	23.04
214.812	-11.78
215.031	14.85
215.249	-9.73
215.467	8.7
215.686	6.66
215.904	57.86
216.122	41.47
216.341	25.09
216.559	82.43
216.778	-13.82
216.996	68.09
217.214	-38.4
217.432	53.76
217.651	29.18
217.869	31.23
218.087	41.47
218.306	76.29
218.524	61.95
218.742	-81.41
218.96	74.24
219.179	-3.58
219.397	2.56
219.615	0.51
219.833	37.38
220.051	16.9
220.27	96.77
220.488	8.7
220.706	-17.92
220.924	-30.21
221.142	-30.21
221.36	-56.83
221.578	-15.87
221.796	51.71
222.015	-1.54
222.233	35.33
222.451	94.72
222.669	59.9
222.887	20.99
223.105	-26.11
223.323	80.38
223.541	78.33
223.759	33.28
223.977	-34.3
224.195	76.29
224.413	86.53
224.631	41.47
224.849	12.8
225.067	-11.78
225.285	-24.06
225.503	43.52
225.721	23.04
225.939	12.8
226.157	27.14
226.375	41.47
226.592	45.57
226.81	39.42
227.028	-5.63
227.246	23.04
227.464	23.04
227.682	41.47
227.9	35.33
228.117	66.05
228.335	6.66
228.553	47.62
228.771	12.8
228.989	43.52
229.206	39.42
229.424	16.9
229.642	-15.87
229.86	64
230.077	18.94
230.295	-5.63
230.513	43.52
230.731	-13.82
230.948	47.62
231.166	-60.93
231.384	41.47
231.601	27.14
231.819	31.23
232.037	-3.58
232.254	47.62
232.472	0.51
232.689	12.8
232.907	8.7
233.125	-17.92
233.342	39.42
233.56	-44.54
233.777	41.47
233.995	-65.02
234.213	18.94
234.43	64
234.648	47.62
234.865	72.19
235.083	20.99
235.3	64
235.518	53.76
235.735	68.09
235.953	4.61
236.17	0.51
236.388	43.52
236.605	-5.63
236.822	2.56
237.04	43.52
237.257	49.66
237.475	-38.4
237.692	61.95
237.909	45.57
238.127	31.23
238.344	27.14
238.562	49.66
238.779	-9.73
238.996	16.9
239.214	-42.5
239.431	-9.73
239.648	-17.92
239.865	18.94
240.083	25.09
240.3	-38.4
240.517	8.7
240.735	-5.63
240.952	-1.54
241.169	6.66
241.386	-1.54
241.603	10.75
241.821	8.7
242.038	6.66
242.255	-52.74
242.472	25.09
242.689	84.48
242.907	76.29
243.124	55.81
243.341	14.85
243.558	6.66
243.775	-5.63
243.992	35.33
244.209	18.94
244.426	-40.45
244.643	47.62
244.86	18.94
245.078	8.7
245.295	18.94
245.512	-28.16
245.729	27.14
245.946	14.85
246.163	31.23
246.38	-40.45
246.597	74.24
246.814	43.52
247.031	18.94
247.248	39.42
247.464	33.28
247.681	82.43
247.898	6.66
248.115	78.33
248.332	29.18
248.549	68.09
248.766	53.76
248.983	20.99
249.2	-60.93
249.417	27.14
249.633	10.75
249.85	4.61
250.067	14.85
250.284	78.33
250.501	10.75
250.717	-17.92
250.934	31.23
251.151	35.33
251.368	-36.35
251.585	-7.68
251.801	20.99
252.018	33.28
252.235	16.9
252.451	41.47
252.668	4.61
252.885	82.43
253.102	102.91
253.318	45.57
253.535	-46.59
253.752	47.62
253.968	37.38
254.185	-67.07
254.401	23.04
254.618	-60.93
254.835	29.18
255.051	31.23
255.268	-69.12
255.484	115.2
255.701	47.62
255.917	47.62
256.134	27.14
256.351	-24.06
256.567	-9.73
256.784	2.56
257	-46.59
257.217	92.67
257.433	57.86
257.65	23.04
257.866	12.8
258.082	78.33
258.299	41.47
258.515	82.43
258.732	-13.82
258.948	68.09
259.165	47.62
259.381	12.8
259.597	47.62
259.814	-32.26
260.03	-19.97
260.246	88.57
260.463	20.99
260.679	14.85
260.895	-28.16
261.112	66.05
261.328	14.85
261.544	49.66
261.761	88.57
261.977	8.7
262.193	18.94
262.409	82.43
262.626	47.62
262.842	-69.12
263.058	-24.06
263.274	33.28
263.49	113.15
263.707	51.71
263.923	-15.87
264.139	53.76
264.355	16.9
264.571	82.43
264.787	27.14
265.004	23.04
265.22	61.95
265.436	16.9
265.652	45.57
265.868	-9.73
266.084	16.9
266.3	29.18
266.516	-30.21
266.732	-15.87
266.948	25.09
267.164	-11.78
267.38	35.33
267.596	2.56
267.812	-3.58
268.028	20.99
268.244	-30.21
268.46	57.86
268.676	61.95
268.892	12.8
269.108	37.38
269.324	57.86
269.54	-52.74
269.756	8.7
269.972	10.75
270.188	-9.73
270.403	49.66
270.619	90.62
270.835	31.23
271.051	53.76
271.267	-32.26
271.483	16.9
271.698	31.23
271.914	-3.58
272.13	10.75
272.346	8.7
272.562	12.8
272.777	78.33
272.993	23.04
273.209	31.23
273.425	74.24
273.64	-3.58
273.856	29.18
274.072	6.66
274.287	-15.87
274.503	70.14
274.719	-44.54
274.934	39.42
275.15	25.09
275.366	-13.82
275.581	6.66
275.797	-1.54
276.012	0.51
276.228	-34.3
276.444	18.94
276.659	68.09
276.875	61.95
277.09	37.38
277.306	35.33
277.521	72.19
277.737	18.94
277.952	74.24
278.168	33.28
278.383	-13.82
278.599	20.99
278.814	27.14
279.03	33.28
279.245	98.81
279.461	80.38
279.676	-17.92
279.892	-67.07
280.107	64
280.322	29.18
280.538	57.86
280.753	39.42
280.969	-15.87
281.184	49.66
281.399	41.47
281.615	31.23
281.83	74.24
282.045	-44.54
282.26	-7.68
282.476	0.51
282.691	72.19
282.906	57.86
283.122	23.04
283.337	-7.68
283.552	12.8
283.767	78.33
283.983	88.57
284.198	59.9
284.413	47.62
284.628	0.51
284.843	41.47
285.058	16.9
285.274	53.76
285.489	-1.54
285.704	39.42
285.919	-36.35
286.134	80.38
286.349	18.94
286.564	31.23
286.779	43.52
286.995	-34.3
287.21	39.42
287.425	-30.21
287.64	-13.82
287.855	23.04
288.07	43.52
288.285	-50.69
288.5	51.71
288.715	90.62
288.93	-5.63
289.145	61.95
289.36	12.8
289.575	25.09
289.79	41.47
290.004	55.81
290.219	55.81
290.434	57.86
290.649	31.23
290.864	-9.73
291.079	23.04
291.294	20.99
291.509	94.72
291.724	55.81
291.938	31.23
292.153	-13.82
292.368	-40.45
292.583	104.96
292.798	-1.54
293.012	-7.68
293.227	0.51
293.442	4.61
293.657	12.8
293.871	14.85
294.086	16.9
294.301	2.56
294.516	51.71
294.73	92.67
294.945	0.51
295.16	49.66
295.374	-50.69
295.589	100.86
295.804	18.94
296.018	51.71
296.233	0.51
296.447	68.09
296.662	70.14
296.877	-15.87
297.091	16.9
297.306	31.23
297.52	27.14
297.735	90.62
297.949	-30.21
298.164	27.14
298.378	-22.02
298.593	-34.3
298.807	33.28
299.022	53.76
299.236	14.85
299.451	29.18
299.665	-1.54
299.88	-3.58
300.094	43.52
300.309	41.47
300.523	-7.68
300.737	8.7
300.952	25.09
301.166	55.81
301.381	10.75
301.595	33.28
301.809	70.14
302.024	-32.26
302.238	14.85
302.452	6.66
302.667	-15.87
302.881	27.14
303.095	29.18
303.309	98.81
303.524	43.52
303.738	-5.63
303.952	-11.78
304.166	43.52
304.381	25.09
304.595	57.86
304.809	16.9
305.023	2.56
305.237	-7.68
305.452	-7.68
305.666	18.94
305.88	61.95
306.094	84.48
306.308	49.66
306.522	70.14
306.736	76.29
306.95	78.33
307.164	8.7
307.379	18.94
307.593	2.56
307.807	-9.73
308.021	86.53
308.235	10.75
308.449	27.14
308.663	-15.87
308.877	53.76
309.091	70.14
309.305	49.66
309.519	8.7
309.733	-5.63
309.947	-13.82
310.161	14.85
310.374	10.75
310.588	31.23
310.802	33.28
311.016	47.62
311.23	-11.78
311.444	8.7
311.658	53.76
311.872	39.42
312.085	66.05
312.299	49.66
312.513	37.38
312.727	41.47
312.941	-9.73
313.154	51.71
313.368	39.42
313.582	-1.54
313.796	0.51
314.009	-30.21
314.223	78.33
314.437	88.57
314.651	86.53
314.864	-54.78
315.078	49.66
315.292	-30.21
315.505	-9.73
315.719	8.7
315.933	6.66
316.146	33.28
316.36	-13.82
316.573	66.05
316.787	8.7
317.001	80.38
317.214	37.38
317.428	64
317.641	-19.97
317.855	51.71
318.068	-22.02
318.282	-71.17
318.495	31.23
318.709	39.42
318.922	33.28
319.136	96.77
319.349	0.51
319.563	-40.45
319.776	-32.26
319.99	25.09
320.203	27.14
320.417	0.51
320.63	-36.35
320.843	92.67
321.057	76.29
321.27	66.05
321.483	49.66
321.697	-5.63
321.91	53.76
322.124	37.38
322.337	16.9
322.55	-22.02
322.763	-15.87
322.977	35.33
323.19	8.7
323.403	-5.63
323.617	-5.63
323.83	-36.35
324.043	74.24
324.256	25.09
324.469	43.52
324.683	49.66
324.896	20.99
325.109	8.7
325.322	6.66
325.535	8.7
325.748	29.18
325.962	20.99
326.175	25.09
326.388	57.86
326.601	-24.06
326.814	35.33
327.027	-22.02
327.24	39.42
327.453	16.9
327.666	41.47
327.879	2.56
328.092	64
328.305	-15.87
328.518	41.47
328.731	37.38
328.944	39.42
329.157	-11.78
329.37	37.38
329.583	-28.16
329.796	72.19
330.009	-15.87
330.222	-9.73
330.435	18.94
330.648	25.09
330.861	18.94
331.073	64
331.286	18.94
331.499	-3.58
331.712	51.71
331.925	84.48
332.138	-9.73
332.35	35.33
332.563	45.57
332.776	82.43
332.989	37.38
333.202	45.57
333.414	37.38
333.627	33.28
333.84	16.9
334.053	25.09
334.265	25.09
334.478	-3.58
334.691	-36.35
334.903	70.14
335.116	-19.97
335.329	35.33
335.541	27.14
335.754	88.57
335.966	51.71
336.179	18.94
336.392	53.76
336.604	86.53
336.817	68.09
337.029	16.9
337.242	82.43
337.454	-7.68
337.667	-40.45
337.88	25.09
338.092	25.09
338.305	53.76
338.517	43.52
338.729	-26.11
338.942	-9.73
339.154	76.29
339.367	20.99
339.579	33.28
339.792	-19.97
340.004	-5.63
340.217	18.94
340.429	96.77
340.641	64
340.854	23.04
341.066	86.53
341.278	76.29
341.491	0.51
341.703	47.62
341.915	51.71
342.128	8.7
342.34	39.42
342.552	-24.06
342.764	12.8
342.977	18.94
343.189	57.86
343.401	53.76
343.613	59.9
343.826	23.04
344.038	59.9
344.25	25.09
344.462	4.61
344.674	66.05
344.886	-7.68
345.099	43.52
345.311	20.99
345.523	12.8
345.735	8.7
345.947	57.86
346.159	66.05
346.371	39.42
346.583	37.38
346.795	-3.58
347.007	14.85
347.219	37.38
347.431	10.75
347.643	25.09
347.855	12.8
348.067	31.23
348.279	8.7
348.491	45.57
348.703	0.51
348.915	51.71
349.127	-42.5
349.339	55.81
349.551	43.52
349.763	8.7
349.975	23.04
350.187	33.28
350.399	49.66
350.61	18.94
350.822	18.94
351.034	0.51
351.246	35.33
351.458	29.18
351.669	14.85
351.881	51.71
352.093	14.85
352.305	72.19
352.517	4.61
352.728	70.14
352.94	-30.21
353.152	-13.82
353.363	55.81
353.575	12.8
353.787	41.47
353.999	-7.68
354.21	-9.73
354.422	16.9
354.633	-34.3
354.845	14.85
355.057	-32.26
355.268	61.95
355.48	41.47
355.692	88.57
355.903	-48.64
356.115	25.09
356.326	-36.35
356.538	49.66
356.749	-7.68
356.961	55.81
357.172	33.28
357.384	-32.26
357.595	31.23
357.807	8.7
358.018	-1.54
358.23	39.42
358.441	104.96
358.653	66.05
358.864	70.14
359.075	-5.63
359.287	55.81
359.498	94.72
359.709	25.09
359.921	23.04
360.132	6.66
360.344	6.66
360.555	70.14
360.766	47.62
360.977	16.9
361.189	-26.11
361.4	18.94
361.611	82.43
361.823	27.14
362.034	14.85
362.245	-65.02
362.456	25.09
362.667	53.76
362.879	27.14
363.09	53.76
363.301	6.66
363.512	29.18
363.723	41.47
363.935	2.56
364.146	68.09
364.357	-17.92
364.568	0.51
364.779	18.94
364.99	59.9
365.201	-28.16
365.412	-5.63
365.623	27.14
365.834	49.66
366.045	16.9
366.256	92.67
366.467	53.76
366.678	14.85
366.889	-5.63
367.1	59.9
367.311	53.76
367.522	74.24
367.733	-30.21
367.944	53.76
368.155	45.57
368.366	57.86
368.577	-11.78
368.788	33.28
368.999	37.38
369.209	-22.02
369.42	68.09
369.631	14.85
369.842	98.81
370.053	-3.58
370.264	59.9
370.474	6.66
370.685	2.56
370.896	6.66
371.107	25.09
371.317	72.19
371.528	74.24
371.739	117.25
371.95	25.09
372.16	66.05
372.371	39.42
372.582	16.9
372.792	8.7
373.003	25.09
373.214	-1.54
373.424	-26.11
373.635	37.38
373.846	59.9
374.056	72.19
374.267	76.29
374.477	-24.06
374.688	39.42
374.898	33.28
375.109	49.66
375.319	-24.06
375.53	55.81
375.74	51.71
375.951	72.19
376.161	41.47
376.372	27.14
376.582	107.01
376.793	0.51
377.003	29.18
377.214	23.04
377.424	-32.26
377.635	-48.64
377.845	29.18
378.055	-9.73
378.266	45.57
378.476	57.86
378.686	78.33
378.897	61.95
379.107	61.95
379.317	66.05
379.528	18.94
379.738	68.09
379.948	-3.58
380.158	55.81
380.369	37.38
380.579	45.57
380.789	12.8
380.999	27.14
381.21	12.8
381.42	51.71
381.63	72.19
381.84	-5.63
382.05	16.9
382.261	-42.5
382.471	-17.92
382.681	70.14
382.891	96.77
383.101	53.76
383.311	-24.06
383.521	-22.02
383.731	29.18
383.941	29.18
384.151	39.42
384.361	14.85
384.571	8.7
384.781	2.56
384.991	82.43
385.201	59.9
385.411	-1.54
385.621	53.76
385.831	25.09
386.041	-13.82
386.251	-1.54
386.461	20.99
386.671	49.66
386.881	20.99
387.091	55.81
387.301	20.99
387.511	14.85
387.72	33.28
387.93	35.33
388.14	25.09
388.35	39.42
388.56	18.94
388.769	55.81
388.979	68.09
389.189	66.05
389.399	33.28
389.609	64
389.818	74.24
390.028	23.04
390.238	96.77
390.447	61.95
390.657	37.38
390.867	49.66
391.076	31.23
391.286	59.9
391.496	100.86
391.705	20.99
391.915	59.9
392.125	84.48
392.334	55.81
392.544	90.62
392.753	27.14
392.963	113.15
393.172	64
393.382	74.24
393.591	86.53
393.801	33.28
394.01	14.85
394.22	25.09
394.429	8.7
394.639	20.99
394.848	86.53
395.058	29.18
395.267	55.81
395.477	59.9
395.686	45.57
395.895	53.76
396.105	29.18
396.314	51.71
396.524	20.99
396.733	41.47
396.942	72.19
397.152	31.23
397.361	-13.82
397.57	-5.63
397.78	51.71
397.989	119.29
398.198	23.04
398.407	8.7
398.617	68.09
398.826	70.14
399.035	18.94
399.244	68.09
399.453	14.85
399.663	-28.16
399.872	35.33
400.081	18.94
400.29	53.76
400.499	37.38
400.708	43.52
400.917	57.86
401.127	84.48
401.336	31.23
401.545	64
401.754	10.75
401.963	49.66
402.172	70.14
402.381	0.51
402.59	47.62
402.799	18.94
403.008	78.33
403.217	49.66
403.426	102.91
403.635	66.05
403.844	41.47
404.053	61.95
404.262	39.42
404.471	68.09
404.68	96.77
404.888	39.42
405.097	6.66
405.306	123.39
405.515	98.81
405.724	39.42
405.933	64
406.142	33.28
406.35	111.1
406.559	104.96
406.768	49.66
406.977	121.34
407.185	29.18
407.394	43.52
407.603	88.57
407.812	137.73
408.02	104.96
408.229	70.14
408.438	88.57
408.646	59.9
408.855	102.91
409.064	100.86
409.272	147.97
409.481	117.25
409.69	115.2
409.898	115.2
410.107	158.21
410.315	141.82
410.524	154.11
410.733	154.11
410.941	156.16
411.15	178.69
411.358	88.57
411.567	127.49
411.775	107.01
411.984	236.03
412.192	178.69
412.401	129.53
412.609	188.93
412.818	250.36
413.026	186.88
413.234	176.64
413.443	227.84
413.651	182.78
413.86	201.21
414.068	209.4
414.276	256.51
414.485	272.89
414.693	229.88
414.901	358.91
415.11	270.84
415.318	287.23
415.526	334.33
415.734	320
415.943	299.52
416.151	375.29
416.359	334.33
416.567	350.71
416.776	328.19
416.984	350.71
417.192	391.67
417.4	375.29
417.608	334.33
417.817	465.4
418.025	403.96
418.233	430.59
418.441	455.16
418.649	541.18
418.857	444.92
419.065	643.57
419.273	477.69
419.481	522.74
419.689	522.74
419.897	563.7
420.105	590.33
420.313	567.8
420.521	592.37
420.729	709.11
420.937	645.62
421.145	694.77
421.353	688.63
421.561	741.88
421.769	754.16
421.977	793.08
422.185	752.12
422.393	811.51
422.601	877.04
422.809	907.76
423.017	971.25
423.224	967.15
423.432	1016.3
423.64	997.87
423.848	1065.46
424.056	1038.83
424.263	1208.81
424.471	1075.7
424.679	1208.81
424.887	1122.8
425.094	1186.29
425.302	1159.66
425.51	1358.32
425.718	1360.36
425.925	1257.96
426.133	1374.7
426.341	1411.56
426.548	1489.39
426.756	1505.77
426.964	1509.86
427.171	1665.51
427.379	1659.37
427.586	1710.57
427.794	1792.48
428.001	1761.77
428.209	1858.02
428.417	1970.66
428.624	2081.25
428.832	1929.7
429.039	1925.6
429.247	2093.54
429.454	2206.17
429.662	2312.67
429.869	2126.3
430.076	2167.26
430.284	2288.09
430.491	2406.88
430.699	2501.08
430.906	2468.31
431.114	2552.28
431.321	2636.25
431.528	2660.82
431.736	2918.87
431.943	2922.96
432.15	2867.67
432.358	2894.29
432.565	3023.31
432.772	3080.66
432.979	3328.46
433.187	3432.91
433.394	3314.13
433.601	3420.62
433.808	3594.7
434.016	3500.49
434.223	3754.44
434.43	3899.84
434.637	3840.45
434.844	4035.01
435.052	4129.22
435.259	4094.4
435.466	4260.29
435.673	4164.03
435.88	4342.21
436.087	4659.64
436.294	4749.75
436.501	4536.76
436.708	4686.26
436.915	4866.49
437.122	4919.73
437.329	4938.16
437.537	5261.74
437.743	5319.09
437.95	5020.08
438.157	5419.44
438.364	5589.42
438.571	5654.95
438.778	5579.18
438.985	6273.44
439.192	5847.46
439.399	6128.03
439.606	6123.94
439.813	6240.67
440.02	6687.13
440.227	6486.43
440.433	6396.32
440.64	6767
440.847	6666.65
441.054	6986.13
441.261	7522.7
441.467	7197.07
441.674	7332.24
441.881	7655.82
442.088	7657.87
442.294	7598.48
442.501	7821.7
442.708	7995.78
442.914	8223.11
443.121	8790.39
443.328	8313.22
443.534	9156.98
443.741	8808.83
443.948	8544.64
444.154	9070.97
444.361	9322.87
444.568	9390.45
444.774	9208.18
444.981	9097.59
445.187	9632.11
445.394	9976.17
445.6	10150.25
445.807	10799.45
446.013	10545.5
446.22	10645.85
446.426	11223.38
446.633	11223.38
446.839	11641.17
447.046	10967.38
447.252	11661.65
447.459	11702.61
447.665	11626.83
447.871	12005.7
448.078	12962.11
448.284	12124.49
448.491	12505.41
448.697	13123.9
448.903	13201.72
449.11	13164.86
449.316	12816.7
449.522	13482.29
449.728	13746.48
449.935	13803.82
450.141	13590.83
450.347	14139.69
450.553	13685.04
450.76	14008.62
450.966	14262.57
451.172	14166.31
451.378	14530.85
451.584	14082.35
451.791	14330.15
451.997	14543.14
452.203	14649.63
452.409	14938.4
452.615	14647.58
452.821	14133.54
453.027	14004.52
453.233	14881.05
453.44	14278.95
453.646	14373.16
453.852	14563.62
454.058	14639.39
454.264	14129.45
454.47	14686.5
454.676	14074.15
454.882	14764.32
455.088	13265.21
455.294	13500.72
455.5	13570.35
455.705	13693.23
455.911	13162.81
456.117	12990.78
456.323	13160.76
456.529	12360
456.735	12886.33
456.941	12327.24
457.147	12054.86
457.352	11845.96
457.558	11958.6
457.764	11878.73
457.97	11827.53
458.176	11313.49
458.381	11323.73
458.587	10811.74
458.793	11012.44
458.999	10269.03
459.204	11172.18
459.41	10701.15
459.616	9791.85
459.821	9851.24
460.027	9847.15
460.233	9939.3
460.438	9302.39
460.644	9386.35
460.85	9058.68
461.055	8808.83
461.261	8937.85
461.466	8262.02
461.672	7733.64
461.878	8702.33
462.083	8014.21
462.289	7774.6
462.494	7838.09
462.7	7319.95
462.905	7190.93
463.111	7608.72
463.316	7444.88
463.522	7457.17
463.727	7293.33
463.932	7350.67
464.138	7209.36
464.343	7352.72
464.549	7221.65
464.754	7414.16
464.959	7420.3
465.165	7352.72
465.37	6957.46
465.575	6797.72
465.781	7080.34
465.986	7190.93
466.191	7002.52
466.397	6887.83
466.602	6582.68
466.807	6611.36
467.012	6717.85
467.218	6656.41
467.423	6521.24
467.628	6719.9
467.833	6936.98
468.038	6707.61
468.244	6332.83
468.449	6652.31
468.654	6490.52
468.859	6527.39
469.064	6517.15
469.269	6199.71
469.474	6310.3
469.679	6285.73
469.885	6230.43
470.09	6171.04
470.295	6263.2
470.5	5956.01
470.705	6160.8
470.91	5986.72
471.115	5802.41
