Data from USB4F104151__92__12-54-52-397.txt Node

Date: Fri Mar 14 12:54:52 EDT 2025
User: louis
Spectrometer: USB4F10415
Trigger mode: 4
Integration Time (sec): 1.000000E-2
Scans to average: 1
Electric dark correction enabled: true
Nonlinearity correction enabled: false
Boxcar width: 0
XAxis mode: Wavelengths
Number of Pixels in Spectrum: 3648
>>>>>Begin Spectral Data<<<<<
178.204	18.26
178.424	18.26
178.644	18.26
178.864	-45.23
179.084	-20.65
179.304	-22.7
179.524	40.79
179.744	-55.47
179.964	12.12
180.184	44.88
180.404	-8.36
180.624	34.64
180.844	-67.75
181.064	-28.84
181.283	16.21
181.503	-26.79
181.723	61.27
181.943	-55.47
182.163	61.27
182.383	28.5
182.602	44.88
182.822	24.4
183.042	44.88
183.262	28.5
183.482	3.93
183.701	-20.65
183.921	26.45
184.141	20.31
184.361	63.32
184.58	55.12
184.8	1.88
185.02	36.69
185.239	16.21
185.459	38.74
185.679	75.6
185.898	16.21
186.118	63.32
186.338	32.6
186.557	91.99
186.777	-20.65
186.997	40.79
187.216	-18.6
187.436	77.65
187.655	28.5
187.875	-6.31
188.095	28.5
188.314	12.12
188.534	30.55
188.753	24.4
188.973	53.08
189.192	18.26
189.412	30.55
189.631	-8.36
189.851	-24.75
190.07	48.98
190.29	-34.99
190.509	-45.23
190.729	55.12
190.948	30.55
191.168	65.36
191.387	16.21
191.607	-34.99
191.826	26.45
192.045	46.93
192.265	5.97
192.484	16.21
192.704	69.46
192.923	-14.51
193.142	73.56
193.362	36.69
193.581	30.55
193.8	20.31
194.02	24.4
194.239	5.97
194.458	53.08
194.678	53.08
194.897	53.08
195.116	46.93
195.335	-18.6
195.555	24.4
195.774	20.31
195.993	73.56
196.212	-6.31
196.432	-8.36
196.651	96.08
196.87	48.98
197.089	100.18
197.308	81.75
197.528	32.6
197.747	22.36
197.966	8.02
198.185	46.93
198.404	3.93
198.623	44.88
198.842	48.98
199.062	-28.84
199.281	38.74
199.5	-26.79
199.719	32.6
199.938	16.21
200.157	-8.36
200.376	61.27
200.595	75.6
200.814	-0.17
201.033	-75.95
201.252	18.26
201.471	-0.17
201.69	1.88
201.909	16.21
202.128	36.69
202.347	14.17
202.566	-12.46
202.785	71.51
203.004	-37.03
203.223	77.65
203.442	100.18
203.661	-2.22
203.879	22.36
204.098	-26.79
204.317	1.88
204.536	55.12
204.755	32.6
204.974	55.12
205.193	34.64
205.411	20.31
205.63	-12.46
205.849	40.79
206.068	-26.79
206.287	67.41
206.505	-22.7
206.724	-12.46
206.943	-16.55
207.162	94.04
207.381	-55.47
207.599	-24.75
207.818	44.88
208.037	126.8
208.255	-6.31
208.474	3.93
208.693	51.03
208.911	36.69
209.13	8.02
209.349	69.46
209.567	61.27
209.786	8.02
210.005	-18.6
210.223	5.97
210.442	-10.41
210.661	44.88
210.879	46.93
211.098	-14.51
211.316	14.17
211.535	91.99
211.753	-43.18
211.972	-4.27
212.191	94.04
212.409	1.88
212.628	12.12
212.846	-53.42
213.065	3.93
213.283	12.12
213.502	-32.94
213.72	30.55
213.938	65.36
214.157	-28.84
214.375	34.64
214.594	-8.36
214.812	67.41
215.031	-30.89
215.249	40.79
215.467	1.88
215.686	20.31
215.904	38.74
216.122	5.97
216.341	32.6
216.559	55.12
216.778	1.88
216.996	-57.51
217.214	65.36
217.432	14.17
217.651	16.21
217.869	-6.31
218.087	20.31
218.306	-16.55
218.524	104.28
218.742	75.6
218.96	77.65
219.179	48.98
219.397	42.84
219.615	26.45
219.833	53.08
220.051	10.07
220.27	-24.75
220.488	14.17
220.706	55.12
220.924	-20.65
221.142	46.93
221.36	-24.75
221.578	65.36
221.796	132.95
222.015	48.98
222.233	22.36
222.451	91.99
222.669	8.02
222.887	-18.6
223.105	22.36
223.323	48.98
223.541	28.5
223.759	-4.27
223.977	12.12
224.195	79.7
224.413	53.08
224.631	28.5
224.849	32.6
225.067	112.47
225.285	-6.31
225.503	44.88
225.721	65.36
225.939	-28.84
226.157	81.75
226.375	22.36
226.592	-2.22
226.81	32.6
227.028	55.12
227.246	51.03
227.464	-16.55
227.682	34.64
227.9	73.56
228.117	51.03
228.335	114.52
228.553	89.94
228.771	106.32
228.989	102.23
229.206	-6.31
229.424	22.36
229.642	-47.27
229.86	63.32
230.077	-37.03
230.295	-10.41
230.513	44.88
230.731	81.75
230.948	55.12
231.166	53.08
231.384	-6.31
231.601	3.93
231.819	-12.46
232.037	81.75
232.254	77.65
232.472	14.17
232.689	34.64
232.907	38.74
233.125	-10.41
233.342	-10.41
233.56	67.41
233.777	40.79
233.995	5.97
234.213	94.04
234.43	22.36
234.648	36.69
234.865	28.5
235.083	94.04
235.3	-4.27
235.518	-0.17
235.735	12.12
235.953	42.84
236.17	1.88
236.388	79.7
236.605	26.45
236.822	42.84
237.04	40.79
237.257	106.32
237.475	-10.41
237.692	22.36
237.909	-26.79
238.127	-20.65
238.344	71.51
238.562	63.32
238.779	63.32
238.996	38.74
239.214	20.31
239.431	28.5
239.648	65.36
239.865	100.18
240.083	42.84
240.3	46.93
240.517	61.27
240.735	53.08
240.952	18.26
241.169	-8.36
241.386	-61.61
241.603	42.84
241.821	18.26
242.038	24.4
242.255	-22.7
242.472	-6.31
242.689	42.84
242.907	12.12
243.124	18.26
243.341	18.26
243.558	-20.65
243.775	20.31
243.992	1.88
244.209	20.31
244.426	104.28
244.643	26.45
244.86	-4.27
245.078	-39.08
245.295	18.26
245.512	114.52
245.729	98.13
245.946	30.55
246.163	-8.36
246.38	26.45
246.597	44.88
246.814	12.12
247.031	57.17
247.248	42.84
247.464	46.93
247.681	-39.08
247.898	42.84
248.115	57.17
248.332	-22.7
248.549	14.17
248.766	8.02
248.983	-24.75
249.2	10.07
249.417	22.36
249.633	-0.17
249.85	-20.65
250.067	51.03
250.284	3.93
250.501	-4.27
250.717	77.65
250.934	-16.55
251.151	75.6
251.368	26.45
251.585	28.5
251.801	-16.55
252.018	42.84
252.235	51.03
252.451	28.5
252.668	44.88
252.885	63.32
253.102	18.26
253.318	8.02
253.535	42.84
253.752	20.31
253.968	24.4
254.185	67.41
254.401	-6.31
254.618	20.31
254.835	8.02
255.051	28.5
255.268	44.88
255.484	3.93
255.701	18.26
255.917	65.36
256.134	14.17
256.351	5.97
256.567	-39.08
256.784	20.31
257	-67.75
257.217	28.5
257.433	53.08
257.65	28.5
257.866	-4.27
258.082	20.31
258.299	-26.79
258.515	5.97
258.732	3.93
258.948	63.32
259.165	1.88
259.381	-39.08
259.597	85.84
259.814	22.36
260.03	5.97
260.246	44.88
260.463	-14.51
260.679	40.79
260.895	71.51
261.112	38.74
261.328	69.46
261.544	-20.65
261.761	8.02
261.977	40.79
262.193	-67.75
262.409	30.55
262.626	12.12
262.842	57.17
263.058	20.31
263.274	3.93
263.49	22.36
263.707	69.46
263.923	5.97
264.139	73.56
264.355	89.94
264.571	-43.18
264.787	-16.55
265.004	8.02
265.22	12.12
265.436	44.88
265.652	98.13
265.868	69.46
266.084	-4.27
266.3	83.8
266.516	-2.22
266.732	55.12
266.948	-24.75
267.164	-32.94
267.38	28.5
267.596	87.89
267.812	24.4
268.028	30.55
268.244	5.97
268.46	12.12
268.676	34.64
268.892	46.93
269.108	-12.46
269.324	5.97
269.54	79.7
269.756	36.69
269.972	-32.94
270.188	-8.36
270.403	106.32
270.619	69.46
270.835	61.27
271.051	42.84
271.267	12.12
271.483	-12.46
271.698	20.31
271.914	26.45
272.13	18.26
272.346	51.03
272.562	51.03
272.777	10.07
272.993	36.69
273.209	42.84
273.425	-61.61
273.64	38.74
273.856	-8.36
274.072	61.27
274.287	-22.7
274.503	24.4
274.719	69.46
274.934	34.64
275.15	5.97
275.366	44.88
275.581	26.45
275.797	44.88
276.012	8.02
276.228	5.97
276.444	34.64
276.659	100.18
276.875	-10.41
277.09	71.51
277.306	36.69
277.521	5.97
277.737	5.97
277.952	10.07
278.168	-20.65
278.383	32.6
278.599	61.27
278.814	36.69
279.03	12.12
279.245	5.97
279.461	-16.55
279.676	-0.17
279.892	5.97
280.107	32.6
280.322	42.84
280.538	-0.17
280.753	55.12
280.969	57.17
281.184	-16.55
281.399	42.84
281.615	-57.51
281.83	34.64
282.045	16.21
282.26	53.08
282.476	30.55
282.691	30.55
282.906	38.74
283.122	38.74
283.337	42.84
283.552	-26.79
283.767	28.5
283.983	14.17
284.198	114.52
284.413	59.22
284.628	77.65
284.843	-6.31
285.058	30.55
285.274	-22.7
285.489	48.98
285.704	-2.22
285.919	18.26
286.134	65.36
286.349	83.8
286.564	24.4
286.779	-6.31
286.995	32.6
287.21	51.03
287.425	89.94
287.64	-24.75
287.855	14.17
288.07	71.51
288.285	38.74
288.5	38.74
288.715	28.5
288.93	14.17
289.145	96.08
289.36	-16.55
289.575	20.31
289.79	89.94
290.004	38.74
290.219	40.79
290.434	-16.55
290.649	91.99
290.864	20.31
291.079	3.93
291.294	-30.89
291.509	69.46
291.724	-6.31
291.938	-28.84
292.153	22.36
292.368	-4.27
292.583	67.41
292.798	48.98
293.012	65.36
293.227	-4.27
293.442	106.32
293.657	98.13
293.871	-28.84
294.086	26.45
294.301	10.07
294.516	5.97
294.73	57.17
294.945	-26.79
295.16	53.08
295.374	26.45
295.589	40.79
295.804	-8.36
296.018	32.6
296.233	42.84
296.447	38.74
296.662	22.36
296.877	12.12
297.091	42.84
297.306	-2.22
297.52	-14.51
297.735	24.4
297.949	12.12
298.164	8.02
298.378	38.74
298.593	26.45
298.807	-32.94
299.022	20.31
299.236	22.36
299.451	-6.31
299.665	81.75
299.88	10.07
300.094	53.08
300.309	-6.31
300.523	22.36
300.737	-26.79
300.952	14.17
301.166	24.4
301.381	32.6
301.595	12.12
301.809	12.12
302.024	46.93
302.238	14.17
302.452	85.84
302.667	30.55
302.881	20.31
303.095	53.08
303.309	94.04
303.524	77.65
303.738	30.55
303.952	28.5
304.166	5.97
304.381	-0.17
304.595	77.65
304.809	-28.84
305.023	30.55
305.237	59.22
305.452	55.12
305.666	36.69
305.88	89.94
306.094	38.74
306.308	24.4
306.522	61.27
306.736	98.13
306.95	57.17
307.164	79.7
307.379	-8.36
307.593	63.32
307.807	53.08
308.021	65.36
308.235	40.79
308.449	-10.41
308.663	67.41
308.877	65.36
309.091	36.69
309.305	38.74
309.519	53.08
309.733	42.84
309.947	20.31
310.161	55.12
310.374	-34.99
310.588	118.61
310.802	-2.22
311.016	104.28
311.23	14.17
311.444	-45.23
311.658	14.17
311.872	-12.46
312.085	57.17
312.299	126.8
312.513	48.98
312.727	1.88
312.941	-0.17
313.154	96.08
313.368	-30.89
313.582	46.93
313.796	-16.55
314.009	-61.61
314.223	20.31
314.437	8.02
314.651	48.98
314.864	16.21
315.078	18.26
315.292	-10.41
315.505	14.17
315.719	-20.65
315.933	36.69
316.146	-28.84
316.36	12.12
316.573	67.41
316.787	44.88
317.001	28.5
317.214	-2.22
317.428	73.56
317.641	-16.55
317.855	89.94
318.068	91.99
318.282	65.36
318.495	-41.13
318.709	-4.27
318.922	100.18
319.136	-20.65
319.349	42.84
319.563	20.31
319.776	8.02
319.99	48.98
320.203	-0.17
320.417	28.5
320.63	-24.75
320.843	-30.89
321.057	67.41
321.27	-18.6
321.483	40.79
321.697	38.74
321.91	34.64
322.124	10.07
322.337	69.46
322.55	44.88
322.763	24.4
322.977	-28.84
323.19	-6.31
323.403	-32.94
323.617	59.22
323.83	16.21
324.043	-2.22
324.256	14.17
324.469	-14.51
324.683	85.84
324.896	-0.17
325.109	-4.27
325.322	44.88
325.535	85.84
325.748	30.55
325.962	12.12
326.175	48.98
326.388	53.08
326.601	34.64
326.814	75.6
327.027	-4.27
327.24	26.45
327.453	-6.31
327.666	89.94
327.879	-30.89
328.092	38.74
328.305	44.88
328.518	51.03
328.731	53.08
328.944	14.17
329.157	42.84
329.37	55.12
329.583	-14.51
329.796	12.12
330.009	-6.31
330.222	114.52
330.435	-41.13
330.648	55.12
330.861	14.17
331.073	8.02
331.286	20.31
331.499	22.36
331.712	20.31
331.925	22.36
332.138	28.5
332.35	36.69
332.563	3.93
332.776	14.17
332.989	12.12
333.202	38.74
333.414	24.4
333.627	-18.6
333.84	51.03
334.053	8.02
334.265	3.93
334.478	12.12
334.691	61.27
334.903	-51.37
335.116	-2.22
335.329	10.07
335.541	8.02
335.754	135
335.966	16.21
336.179	-4.27
336.392	40.79
336.604	34.64
336.817	-2.22
337.029	120.66
337.242	-61.61
337.454	65.36
337.667	14.17
337.88	1.88
338.092	53.08
338.305	-18.6
338.517	38.74
338.729	55.12
338.942	34.64
339.154	-8.36
339.367	26.45
339.579	171.86
339.792	34.64
340.004	153.43
340.217	1.88
340.429	87.89
340.641	-0.17
340.854	-28.84
341.066	-32.94
341.278	-2.22
341.491	73.56
341.703	36.69
341.915	16.21
342.128	-37.03
342.34	-6.31
342.552	28.5
342.764	-18.6
342.977	-28.84
343.189	1.88
343.401	91.99
343.613	40.79
343.826	22.36
344.038	53.08
344.25	137.04
344.462	20.31
344.674	36.69
344.886	-8.36
345.099	40.79
345.311	75.6
345.523	34.64
345.735	34.64
345.947	8.02
346.159	81.75
346.371	44.88
346.583	104.28
346.795	94.04
347.007	67.41
347.219	18.26
347.431	61.27
347.643	28.5
347.855	18.26
348.067	38.74
348.279	44.88
348.491	-69.8
348.703	26.45
348.915	69.46
349.127	5.97
349.339	3.93
349.551	61.27
349.763	57.17
349.975	44.88
350.187	38.74
350.399	22.36
350.61	-4.27
350.822	85.84
351.034	28.5
351.246	-47.27
351.458	53.08
351.669	16.21
351.881	55.12
352.093	67.41
352.305	28.5
352.517	-32.94
352.728	-24.75
352.94	-51.37
353.152	5.97
353.363	85.84
353.575	3.93
353.787	-96.43
353.999	94.04
354.21	16.21
354.422	14.17
354.633	18.26
354.845	12.12
355.057	28.5
355.268	-2.22
355.48	22.36
355.692	12.12
355.903	-4.27
356.115	30.55
356.326	16.21
356.538	3.93
356.749	10.07
356.961	-34.99
357.172	53.08
357.384	36.69
357.595	32.6
357.807	53.08
358.018	-18.6
358.23	22.36
358.441	26.45
358.653	55.12
358.864	34.64
359.075	-2.22
359.287	-6.31
359.498	-4.27
359.709	44.88
359.921	51.03
360.132	-26.79
360.344	53.08
360.555	18.26
360.766	73.56
360.977	14.17
361.189	-4.27
361.4	-6.31
361.611	22.36
361.823	-16.55
362.034	38.74
362.245	10.07
362.456	65.36
362.667	28.5
362.879	34.64
363.09	-28.84
363.301	75.6
363.512	3.93
363.723	57.17
363.935	1.88
364.146	38.74
364.357	34.64
364.568	55.12
364.779	-16.55
364.99	69.46
365.201	12.12
365.412	102.23
365.623	36.69
365.834	32.6
366.045	71.51
366.256	44.88
366.467	-22.7
366.678	5.97
366.889	5.97
367.1	38.74
367.311	63.32
367.522	26.45
367.733	48.98
367.944	36.69
368.155	61.27
368.366	91.99
368.577	67.41
368.788	163.67
368.999	32.6
369.209	59.22
369.42	94.04
369.631	104.28
369.842	46.93
370.053	55.12
370.264	71.51
370.474	38.74
370.685	-59.56
370.896	5.97
371.107	36.69
371.317	130.9
371.528	30.55
371.739	34.64
371.95	18.26
372.16	32.6
372.371	38.74
372.582	51.03
372.792	81.75
373.003	36.69
373.214	65.36
373.424	51.03
373.635	1.88
373.846	79.7
374.056	44.88
374.267	53.08
374.477	-32.94
374.688	-10.41
374.898	-4.27
375.109	71.51
375.319	-16.55
375.53	130.9
375.74	38.74
375.951	24.4
376.161	120.66
376.372	-0.17
376.582	-24.75
376.793	5.97
377.003	94.04
377.214	30.55
377.424	30.55
377.635	61.27
377.845	51.03
378.055	145.24
378.266	-4.27
378.476	75.6
378.686	110.42
378.897	-18.6
379.107	57.17
379.317	63.32
379.528	-28.84
379.738	24.4
379.948	-34.99
380.158	57.17
380.369	32.6
380.579	59.22
380.789	59.22
380.999	46.93
381.21	157.52
381.42	42.84
381.63	24.4
381.84	-24.75
382.05	38.74
382.261	32.6
382.471	18.26
382.681	44.88
382.891	69.46
383.101	75.6
383.311	-26.79
383.521	48.98
383.731	-37.03
383.941	61.27
384.151	16.21
384.361	51.03
384.571	48.98
384.781	14.17
384.991	53.08
385.201	71.51
385.411	-4.27
385.621	65.36
385.831	38.74
386.041	53.08
386.251	98.13
386.461	-24.75
386.671	38.74
386.881	69.46
387.091	94.04
387.301	24.4
387.511	5.97
387.72	38.74
387.93	20.31
388.14	55.12
388.35	87.89
388.56	65.36
388.769	20.31
388.979	53.08
389.189	-67.75
389.399	44.88
389.609	81.75
389.818	-16.55
390.028	36.69
390.238	40.79
390.447	18.26
390.657	36.69
390.867	51.03
391.076	61.27
391.286	87.89
391.496	38.74
391.705	42.84
391.915	63.32
392.125	112.47
392.334	110.42
392.544	-4.27
392.753	48.98
392.963	48.98
393.172	104.28
393.382	42.84
393.591	100.18
393.801	51.03
394.01	48.98
394.22	26.45
394.429	65.36
394.639	85.84
394.848	44.88
395.058	106.32
395.267	51.03
395.477	75.6
395.686	94.04
395.895	38.74
396.105	55.12
396.314	48.98
396.524	91.99
396.733	57.17
396.942	34.64
397.152	28.5
397.361	65.36
397.57	71.51
397.78	38.74
397.989	57.17
398.198	63.32
398.407	53.08
398.617	20.31
398.826	96.08
399.035	94.04
399.244	61.27
399.453	102.23
399.663	85.84
399.872	71.51
400.081	14.17
400.29	63.32
400.499	30.55
400.708	44.88
400.917	53.08
401.127	77.65
401.336	22.36
401.545	94.04
401.754	8.02
401.963	91.99
402.172	167.76
402.381	81.75
402.59	42.84
402.799	65.36
403.008	122.71
403.217	12.12
403.426	42.84
403.635	110.42
403.844	87.89
404.053	94.04
404.262	22.36
404.471	77.65
404.68	85.84
404.888	34.64
405.097	71.51
405.306	110.42
405.515	104.28
405.724	145.24
405.933	118.61
406.142	149.33
406.35	130.9
406.559	110.42
406.768	141.14
406.977	120.66
407.185	112.47
407.394	110.42
407.603	106.32
407.812	116.56
408.02	128.85
408.229	106.32
408.438	139.09
408.646	200.53
408.855	120.66
409.064	79.7
409.272	87.89
409.481	194.39
409.69	128.85
409.898	108.37
410.107	167.76
410.315	196.43
410.524	184.15
410.733	139.09
410.941	128.85
411.15	159.57
411.358	110.42
411.567	251.73
411.775	257.87
411.984	214.87
412.192	288.59
412.401	192.34
412.609	257.87
412.818	188.24
413.026	169.81
413.234	290.64
413.443	231.25
413.651	302.93
413.86	294.74
414.068	368.46
414.276	356.18
414.485	323.41
414.693	409.42
414.901	341.84
415.11	333.65
415.318	417.61
415.526	352.08
415.734	362.32
415.943	390.99
416.151	376.66
416.359	405.33
416.567	479.05
416.776	421.71
416.984	464.72
417.192	493.39
417.4	577.36
417.608	481.1
417.817	497.49
418.025	456.53
418.233	556.88
418.441	608.08
418.649	585.55
418.857	700.23
419.065	573.26
419.273	708.43
419.481	730.95
419.689	706.38
419.897	728.91
420.105	765.77
420.313	798.54
420.521	769.87
420.729	837.45
420.937	855.88
421.145	923.46
421.353	960.33
421.561	933.7
421.769	943.94
421.977	1062.73
422.185	935.75
422.393	1019.72
422.601	1105.73
422.809	1148.74
423.017	1158.98
423.224	1224.51
423.432	1212.23
423.64	1347.39
423.848	1357.63
424.056	1353.54
424.263	1476.41
424.471	1390.4
424.679	1474.37
424.887	1525.57
425.094	1601.34
425.302	1636.16
425.51	1761.08
425.718	1664.83
425.925	1660.73
426.133	1840.95
426.341	1904.44
426.548	2033.46
426.756	1859.38
426.964	1978.17
427.171	2152.24
427.379	2064.18
427.586	2170.68
427.794	2137.91
428.001	2318.13
428.209	2510.64
428.417	2383.66
428.624	2430.77
428.832	2547.5
429.039	2559.79
429.247	2619.18
429.454	2740.01
429.662	2971.43
429.869	2875.18
430.076	3006.25
430.284	2965.29
430.491	3155.75
430.699	3110.69
430.906	3157.8
431.114	3309.35
431.321	3381.03
431.528	3499.81
431.736	3544.86
431.943	3837.72
432.15	3673.89
432.358	3839.77
432.565	4056.86
432.772	3995.42
432.979	4151.06
433.187	4275.99
433.394	4208.41
433.601	4607.76
433.808	4679.44
434.016	4624.14
434.223	4798.22
434.43	5050.12
434.637	4906.76
434.844	5220.1
435.052	5275.4
435.259	5330.69
435.466	5207.81
435.673	5383.94
435.88	5508.87
436.087	5787.39
436.294	5822.2
436.501	5873.4
436.708	5877.5
436.915	6244.09
437.122	6315.76
437.329	6305.53
437.537	6457.07
437.743	6528.75
437.95	6809.33
438.157	7024.36
438.364	7157.48
438.571	7147.24
438.778	7313.13
438.985	7761.63
439.192	7599.84
439.399	7812.83
439.606	7608.03
439.813	8154.84
440.02	8726.22
440.227	8419.03
440.433	8203.99
440.64	8617.68
440.847	8722.13
441.054	8806.09
441.261	9414.34
441.467	9305.8
441.674	9537.22
441.881	9778.88
442.088	10061.5
442.294	9768.64
442.501	10016.44
442.708	10065.6
442.914	10315.45
443.121	10829.49
443.328	10546.87
443.534	11464.36
443.741	11400.87
443.948	10970.8
444.154	11857.57
444.361	11919.01
444.568	11824.8
444.774	11777.7
444.981	12060.32
445.187	12537.49
445.394	12859.03
445.6	12777.11
445.807	14077.57
446.013	13405.83
446.22	13432.46
446.426	14116.48
446.633	14114.43
446.839	14847.6
447.046	14100.09
447.252	14853.75
447.459	15126.13
447.665	14902.9
447.871	15574.63
448.078	16397.92
448.284	15509.1
448.491	16025.18
448.697	16760.41
448.903	16842.32
449.11	17102.42
449.316	16733.78
449.522	17366.6
449.728	17311.31
449.935	17765.96
450.141	17700.42
450.347	17827.4
450.553	17673.8
450.76	17444.43
450.966	18216.51
451.172	18146.88
451.378	18648.63
451.584	18329.15
451.791	18882.1
451.997	18613.82
452.203	19154.48
452.409	19248.69
452.615	19004.98
452.821	18374.2
453.027	18103.87
453.233	18918.96
453.44	18044.48
453.646	18413.12
453.852	18533.95
454.058	18986.55
454.264	18269.76
454.47	18593.34
454.676	18171.46
454.882	18882.1
455.088	17329.74
455.294	17444.43
455.5	17937.99
455.705	18189.89
455.911	17161.81
456.117	17014.35
456.323	16772.69
456.529	15877.73
456.735	16453.21
456.941	15910.5
457.147	15713.89
457.352	15169.13
457.558	15021.68
457.764	15144.56
457.97	15048.3
458.176	14638.71
458.381	14571.13
458.587	13741.7
458.793	13948.54
458.999	13061.77
459.204	14120.57
459.41	13729.41
459.616	12658.32
459.821	12922.51
460.027	12613.27
460.233	12590.74
460.438	12132
460.644	11908.77
460.85	11380.39
461.055	11296.42
461.261	11095.72
461.466	10428.09
461.672	10161.85
461.878	10809.01
462.083	10098.36
462.289	9780.93
462.494	9713.35
462.7	9291.46
462.905	9127.63
463.111	9516.74
463.316	9588.42
463.522	9266.89
463.727	9234.12
463.932	9318.09
464.138	9144.01
464.343	9211.59
464.549	8834.77
464.754	9211.59
464.959	9320.14
465.165	9090.76
465.37	8736.46
465.575	8550.1
465.781	8914.64
465.986	8957.64
466.191	8705.74
466.397	8238.81
466.602	8062.68
466.807	8496.85
467.012	8197.85
467.218	8255.19
467.423	8351.45
467.628	8347.35
467.833	8650.45
468.038	8292.05
468.244	8074.97
468.449	8560.34
468.654	8095.45
468.859	8074.97
469.064	8091.35
