Data from USB4F104151__68__12-54-13-902.txt Node

Date: Fri Mar 14 12:54:13 EDT 2025
User: louis
Spectrometer: USB4F10415
Trigger mode: 4
Integration Time (sec): 1.000000E-2
Scans to average: 1
Electric dark correction enabled: true
Nonlinearity correction enabled: false
Boxcar width: 0
XAxis mode: Wavelengths
Number of Pixels in Spectrum: 3648
>>>>>Begin Spectral Data<<<<<
178.204	-112.3
178.424	-112.3
178.644	-112.3
178.864	-44.71
179.084	0.34
179.304	-11.95
179.524	24.92
179.744	4.44
179.964	37.2
180.184	22.87
180.404	41.3
180.624	-28.33
180.844	0.34
181.064	-18.09
181.283	-9.9
181.503	-36.52
181.723	-26.28
181.943	-20.14
182.163	33.11
182.383	-59.05
182.602	8.53
182.822	35.16
183.042	31.06
183.262	-13.99
183.482	-40.62
183.701	-7.85
183.921	14.68
184.141	-26.28
184.361	-54.95
184.58	-32.43
184.8	2.39
185.02	33.11
185.239	121.17
185.459	0.34
185.679	8.53
185.898	-63.15
186.118	10.58
186.338	-16.04
186.557	53.59
186.777	-69.29
186.997	6.49
187.216	4.44
187.436	29.01
187.655	16.73
187.875	61.78
188.095	53.59
188.314	24.92
188.534	53.59
188.753	39.25
188.973	-11.95
189.192	47.44
189.412	-1.71
189.631	29.01
189.851	51.54
190.07	-32.43
190.29	41.3
190.509	18.77
190.729	-48.81
190.948	24.92
191.168	22.87
191.387	51.54
191.607	-22.19
191.826	53.59
192.045	4.44
192.265	-57
192.484	26.96
192.704	-22.19
192.923	-26.28
193.142	47.44
193.362	59.73
193.581	29.01
193.8	29.01
194.02	-7.85
194.239	39.25
194.458	33.11
194.678	-9.9
194.897	41.3
195.116	-18.09
195.335	2.39
195.555	4.44
195.774	29.01
195.993	-57
196.212	14.68
196.432	-30.38
196.651	18.77
196.87	49.49
197.089	-32.43
197.308	41.3
197.528	20.82
197.747	41.3
197.966	63.83
198.185	31.06
198.404	-5.8
198.623	29.01
198.842	29.01
199.062	47.44
199.281	37.2
199.5	-81.58
199.719	31.06
199.938	-50.86
200.157	55.64
200.376	35.16
200.595	72.02
200.814	63.83
201.033	-65.19
201.252	20.82
201.471	22.87
201.69	-48.81
201.909	43.35
202.128	2.39
202.347	22.87
202.566	-16.04
202.785	-54.95
203.004	-16.04
203.223	-5.8
203.442	20.82
203.661	33.11
203.879	57.68
204.098	-20.14
204.317	-46.76
204.536	-24.23
204.755	29.01
204.974	-26.28
205.193	16.73
205.411	-26.28
205.63	22.87
205.849	-22.19
206.068	31.06
206.287	63.83
206.505	-104.11
206.724	31.06
206.943	-36.52
207.162	31.06
207.381	47.44
207.599	33.11
207.818	-9.9
208.037	-28.33
208.255	-40.62
208.474	53.59
208.693	20.82
208.911	8.53
209.13	65.88
209.349	59.73
209.567	-79.53
209.786	-20.14
210.005	12.63
210.223	22.87
210.442	31.06
210.661	-1.71
210.879	8.53
211.098	8.53
211.316	-7.85
211.535	2.39
211.753	4.44
211.972	0.34
212.191	-28.33
212.409	29.01
212.628	88.4
212.846	18.77
213.065	-5.8
213.283	16.73
213.502	12.63
213.72	-54.95
213.938	22.87
214.157	43.35
214.375	-9.9
214.594	82.26
214.812	-48.81
215.031	24.92
215.249	-36.52
215.467	45.4
215.686	24.92
215.904	-13.99
216.122	18.77
216.341	10.58
216.559	-11.95
216.778	-40.62
216.996	22.87
217.214	-38.57
217.432	57.68
217.651	47.44
217.869	-44.71
218.087	88.4
218.306	47.44
218.524	-44.71
218.742	41.3
218.96	31.06
219.179	24.92
219.397	-61.1
219.615	12.63
219.833	88.4
220.051	53.59
220.27	117.08
220.488	35.16
220.706	6.49
220.924	0.34
221.142	53.59
221.36	37.2
221.578	-13.99
221.796	96.6
222.015	-59.05
222.233	18.77
222.451	-9.9
222.669	35.16
222.887	24.92
223.105	-16.04
223.323	0.34
223.541	-40.62
223.759	-28.33
223.977	-5.8
224.195	22.87
224.413	49.49
224.631	-18.09
224.849	-9.9
225.067	74.07
225.285	-16.04
225.503	76.12
225.721	12.63
225.939	8.53
226.157	6.49
226.375	2.39
226.592	26.96
226.81	18.77
227.028	22.87
227.246	67.92
227.464	-69.29
227.682	-42.67
227.9	16.73
228.117	29.01
228.335	-3.75
228.553	51.54
228.771	33.11
228.989	90.45
229.206	8.53
229.424	39.25
229.642	-26.28
229.86	67.92
230.077	14.68
230.295	14.68
230.513	14.68
230.731	51.54
230.948	10.58
231.166	-13.99
231.384	35.16
231.601	74.07
231.819	4.44
232.037	49.49
232.254	-44.71
232.472	-13.99
232.689	-1.71
232.907	65.88
233.125	-32.43
233.342	-11.95
233.56	41.3
233.777	8.53
233.995	0.34
234.213	39.25
234.43	49.49
234.648	65.88
234.865	-9.9
235.083	106.84
235.3	-46.76
235.518	-3.75
235.735	-22.19
235.953	0.34
236.17	-67.24
236.388	-38.57
236.605	-26.28
236.822	49.49
237.04	-61.1
237.257	49.49
237.475	-9.9
237.692	-20.14
237.909	45.4
238.127	-40.62
238.344	-81.58
238.562	-50.86
238.779	-26.28
238.996	-13.99
239.214	-1.71
239.431	-36.52
239.648	-1.71
239.865	16.73
240.083	22.87
240.3	8.53
240.517	-50.86
240.735	106.84
240.952	43.35
241.169	-5.8
241.386	12.63
241.603	-32.43
241.821	35.16
242.038	6.49
242.255	-40.62
242.472	39.25
242.689	-5.8
242.907	-44.71
243.124	-7.85
243.341	37.2
243.558	-18.09
243.775	94.55
243.992	-18.09
244.209	37.2
244.426	2.39
244.643	20.82
244.86	-5.8
245.078	35.16
245.295	41.3
245.512	-13.99
245.729	0.34
245.946	-1.71
246.163	18.77
246.38	-24.23
246.597	0.34
246.814	-5.8
247.031	-57
247.248	33.11
247.464	2.39
247.681	-16.04
247.898	6.49
248.115	-67.24
248.332	8.53
248.549	14.68
248.766	-13.99
248.983	18.77
249.2	-20.14
249.417	63.83
249.633	49.49
249.85	-18.09
250.067	14.68
250.284	22.87
250.501	61.78
250.717	43.35
250.934	31.06
251.151	-36.52
251.368	16.73
251.585	-52.91
251.801	35.16
252.018	-46.76
252.235	33.11
252.451	0.34
252.668	76.12
252.885	29.01
253.102	-57
253.318	22.87
253.535	-11.95
253.752	16.73
253.968	12.63
254.185	39.25
254.401	-32.43
254.618	6.49
254.835	-24.23
255.051	41.3
255.268	0.34
255.484	35.16
255.701	26.96
255.917	57.68
256.134	61.78
256.351	-40.62
256.567	10.58
256.784	8.53
257	20.82
257.217	14.68
257.433	-18.09
257.65	29.01
257.866	-16.04
258.082	24.92
258.299	26.96
258.515	37.2
258.732	-11.95
258.948	14.68
259.165	22.87
259.381	63.83
259.597	-79.53
259.814	-5.8
260.03	31.06
260.246	39.25
260.463	59.73
260.679	35.16
260.895	-50.86
261.112	108.88
261.328	67.92
261.544	31.06
261.761	4.44
261.977	20.82
262.193	-48.81
262.409	57.68
262.626	69.97
262.842	61.78
263.058	2.39
263.274	10.58
263.49	-63.15
263.707	-16.04
263.923	39.25
264.139	41.3
264.355	-11.95
264.571	43.35
264.787	6.49
265.004	18.77
265.22	-16.04
265.436	-30.38
265.652	-73.39
265.868	22.87
266.084	4.44
266.3	37.2
266.516	31.06
266.732	-24.23
266.948	-44.71
267.164	-11.95
267.38	-3.75
267.596	-1.71
267.812	20.82
268.028	72.02
268.244	-48.81
268.46	67.92
268.676	-54.95
268.892	41.3
269.108	-5.8
269.324	35.16
269.54	31.06
269.756	22.87
269.972	-34.47
270.188	96.6
270.403	2.39
270.619	10.58
270.835	53.59
271.051	-24.23
271.267	-9.9
271.483	-36.52
271.698	26.96
271.914	51.54
272.13	100.69
272.346	41.3
272.562	67.92
272.777	33.11
272.993	80.21
273.209	-20.14
273.425	55.64
273.64	-18.09
273.856	39.25
274.072	-13.99
274.287	59.73
274.503	43.35
274.719	4.44
274.934	31.06
275.15	-22.19
275.366	6.49
275.581	-32.43
275.797	35.16
276.012	0.34
276.228	-1.71
276.444	22.87
276.659	65.88
276.875	-18.09
277.09	-16.04
277.306	-20.14
277.521	24.92
277.737	-38.57
277.952	-1.71
278.168	94.55
278.383	0.34
278.599	-3.75
278.814	-30.38
279.03	24.92
279.245	57.68
279.461	-40.62
279.676	14.68
279.892	29.01
280.107	-1.71
280.322	22.87
280.538	6.49
280.753	-52.91
280.969	-65.19
281.184	-77.48
281.399	57.68
281.615	-3.75
281.83	61.78
282.045	100.69
282.26	72.02
282.476	-48.81
282.691	-13.99
282.906	-79.53
283.122	47.44
283.337	84.31
283.552	35.16
283.767	26.96
283.983	12.63
284.198	18.77
284.413	39.25
284.628	35.16
284.843	6.49
285.058	-30.38
285.274	33.11
285.489	-83.63
285.704	-9.9
285.919	57.68
286.134	-50.86
286.349	0.34
286.564	31.06
286.779	41.3
286.995	-7.85
287.21	16.73
287.425	39.25
287.64	8.53
287.855	31.06
288.07	4.44
288.285	57.68
288.5	74.07
288.715	29.01
288.93	88.4
289.145	-1.71
289.36	-65.19
289.575	-5.8
289.79	26.96
290.004	84.31
290.219	-40.62
290.434	6.49
290.649	26.96
290.864	26.96
291.079	63.83
291.294	12.63
291.509	37.2
291.724	24.92
291.938	-13.99
292.153	12.63
292.368	-24.23
292.583	41.3
292.798	12.63
293.012	0.34
293.227	-20.14
293.442	41.3
293.657	106.84
293.871	41.3
294.086	-24.23
294.301	20.82
294.516	35.16
294.73	8.53
294.945	6.49
295.16	47.44
295.374	26.96
295.589	16.73
295.804	-44.71
296.018	41.3
296.233	20.82
296.447	26.96
296.662	-46.76
296.877	8.53
297.091	72.02
297.306	26.96
297.52	-73.39
297.735	16.73
297.949	-71.34
298.164	24.92
298.378	20.82
298.593	16.73
298.807	-28.33
299.022	18.77
299.236	100.69
299.451	-28.33
299.665	51.54
299.88	-30.38
300.094	45.4
300.309	10.58
300.523	-24.23
300.737	0.34
300.952	76.12
301.166	-5.8
301.381	-1.71
301.595	-24.23
301.809	-22.19
302.024	6.49
302.238	8.53
302.452	45.4
302.667	-1.71
302.881	22.87
303.095	14.68
303.309	10.58
303.524	-38.57
303.738	18.77
303.952	74.07
304.166	65.88
304.381	-26.28
304.595	37.2
304.809	20.82
305.023	57.68
305.237	-3.75
305.452	47.44
305.666	72.02
305.88	6.49
306.094	82.26
306.308	55.64
306.522	94.55
306.736	51.54
306.95	37.2
307.164	29.01
307.379	14.68
307.593	45.4
307.807	-11.95
308.021	39.25
308.235	-7.85
308.449	53.59
308.663	12.63
308.877	-30.38
309.091	-3.75
309.305	8.53
309.519	-38.57
309.733	22.87
309.947	-28.33
310.161	29.01
310.374	45.4
310.588	-44.71
310.802	8.53
311.016	-20.14
311.23	18.77
311.444	24.92
311.658	-11.95
311.872	72.02
312.085	63.83
312.299	31.06
312.513	26.96
312.727	-1.71
312.941	-18.09
313.154	49.49
313.368	4.44
313.582	-7.85
313.796	31.06
314.009	33.11
314.223	-28.33
314.437	-26.28
314.651	61.78
314.864	53.59
315.078	69.97
315.292	-24.23
315.505	16.73
315.719	-22.19
315.933	14.68
316.146	43.35
316.36	-34.47
316.573	72.02
316.787	-18.09
317.001	14.68
317.214	2.39
317.428	-59.05
317.641	0.34
317.855	-5.8
318.068	51.54
318.282	26.96
318.495	-7.85
318.709	35.16
318.922	-67.24
319.136	57.68
319.349	2.39
319.563	-32.43
319.776	39.25
319.99	6.49
320.203	16.73
320.417	-7.85
320.63	57.68
320.843	61.78
321.057	82.26
321.27	98.64
321.483	92.5
321.697	31.06
321.91	2.39
322.124	-26.28
322.337	2.39
322.55	-9.9
322.763	57.68
322.977	39.25
323.19	37.2
323.403	49.49
323.617	-16.04
323.83	49.49
324.043	-9.9
324.256	10.58
324.469	12.63
324.683	12.63
324.896	24.92
325.109	-97.96
325.322	65.88
325.535	80.21
325.748	-9.9
325.962	20.82
326.175	35.16
326.388	-26.28
326.601	72.02
326.814	-1.71
327.027	-48.81
327.24	59.73
327.453	57.68
327.666	-26.28
327.879	-16.04
328.092	65.88
328.305	20.82
328.518	29.01
328.731	-42.67
328.944	24.92
329.157	24.92
329.37	-20.14
329.583	24.92
329.796	74.07
330.009	49.49
330.222	-22.19
330.435	98.64
330.648	14.68
330.861	39.25
331.073	74.07
331.286	-11.95
331.499	-38.57
331.712	14.68
331.925	26.96
332.138	-20.14
332.35	63.83
332.563	22.87
332.776	29.01
332.989	-13.99
333.202	-13.99
333.414	-69.29
333.627	22.87
333.84	43.35
334.053	-40.62
334.265	-22.19
334.478	-7.85
334.691	76.12
334.903	-44.71
335.116	-40.62
335.329	24.92
335.541	24.92
335.754	33.11
335.966	14.68
336.179	14.68
336.392	6.49
336.604	6.49
336.817	65.88
337.029	47.44
337.242	-3.75
337.454	8.53
337.667	-67.24
337.88	37.2
338.092	2.39
338.305	-65.19
338.517	14.68
338.729	-16.04
338.942	63.83
339.154	0.34
339.367	-30.38
339.579	-1.71
339.792	-69.29
340.004	43.35
340.217	29.01
340.429	35.16
340.641	-9.9
340.854	14.68
341.066	18.77
341.278	43.35
341.491	53.59
341.703	-1.71
341.915	8.53
342.128	35.16
342.34	12.63
342.552	33.11
342.764	0.34
342.977	61.78
343.189	-1.71
343.401	49.49
343.613	2.39
343.826	-5.8
344.038	37.2
344.25	49.49
344.462	8.53
344.674	29.01
344.886	33.11
345.099	29.01
345.311	0.34
345.523	-22.19
345.735	-42.67
345.947	-30.38
346.159	-26.28
346.371	18.77
346.583	2.39
346.795	24.92
347.007	-110.25
347.219	92.5
347.431	20.82
347.643	98.64
347.855	57.68
348.067	-13.99
348.279	16.73
348.491	20.82
348.703	-20.14
348.915	-7.85
349.127	24.92
349.339	18.77
349.551	88.4
349.763	84.31
349.975	35.16
350.187	22.87
350.399	-11.95
350.61	51.54
350.822	65.88
351.034	29.01
351.246	-34.47
351.458	74.07
351.669	41.3
351.881	-13.99
352.093	-7.85
352.305	35.16
352.517	26.96
352.728	59.73
352.94	6.49
353.152	90.45
353.363	84.31
353.575	49.49
353.787	49.49
353.999	45.4
354.21	-7.85
354.422	47.44
354.633	-42.67
354.845	39.25
355.057	10.58
355.268	10.58
355.48	-71.34
355.692	4.44
355.903	47.44
356.115	-81.58
356.326	14.68
356.538	14.68
356.749	-1.71
356.961	37.2
357.172	-65.19
357.384	94.55
357.595	18.77
357.807	14.68
358.018	35.16
358.23	-9.9
358.441	104.79
358.653	18.77
358.864	-30.38
359.075	45.4
359.287	-22.19
359.498	96.6
359.709	43.35
359.921	-32.43
360.132	-42.67
360.344	24.92
360.555	-54.95
360.766	49.49
360.977	-83.63
361.189	82.26
361.4	-36.52
361.611	24.92
361.823	49.49
362.034	143.7
362.245	35.16
362.456	-9.9
362.667	35.16
362.879	67.92
363.09	84.31
363.301	33.11
363.512	-26.28
363.723	74.07
363.935	-20.14
364.146	-9.9
364.357	-11.95
364.568	41.3
364.779	2.39
364.99	74.07
365.201	43.35
365.412	-7.85
365.623	14.68
365.834	29.01
366.045	31.06
366.256	14.68
366.467	53.59
366.678	-9.9
366.889	0.34
367.1	-36.52
367.311	67.92
367.522	31.06
367.733	69.97
367.944	33.11
368.155	-26.28
368.366	-7.85
368.577	8.53
368.788	33.11
368.999	-7.85
369.209	20.82
369.42	-40.62
369.631	18.77
369.842	80.21
370.053	39.25
370.264	53.59
370.474	84.31
370.685	2.39
370.896	20.82
371.107	-38.57
371.317	57.68
371.528	29.01
371.739	43.35
371.95	82.26
372.16	65.88
372.371	-22.19
372.582	14.68
372.792	37.2
373.003	-1.71
373.214	29.01
373.424	14.68
373.635	-30.38
373.846	53.59
374.056	-9.9
374.267	65.88
374.477	49.49
374.688	26.96
374.898	63.83
375.109	35.16
375.319	-24.23
375.53	33.11
375.74	37.2
375.951	-1.71
376.161	4.44
376.372	74.07
376.582	-44.71
376.793	43.35
377.003	-26.28
377.214	12.63
377.424	61.78
377.635	16.73
377.845	24.92
378.055	-48.81
378.266	20.82
378.476	51.54
378.686	24.92
378.897	-57
379.107	-46.76
379.317	57.68
379.528	-3.75
379.738	72.02
379.948	63.83
380.158	-16.04
380.369	43.35
380.579	47.44
380.789	20.82
380.999	31.06
381.21	37.2
381.42	41.3
381.63	-1.71
381.84	16.73
382.05	92.5
382.261	72.02
382.471	29.01
382.681	-50.86
382.891	78.16
383.101	51.54
383.311	18.77
383.521	65.88
383.731	14.68
383.941	0.34
384.151	6.49
384.361	49.49
384.571	33.11
384.781	18.77
384.991	45.4
385.201	135.51
385.411	63.83
385.621	55.64
385.831	82.26
386.041	-13.99
386.251	24.92
386.461	10.58
386.671	8.53
386.881	59.73
387.091	-3.75
387.301	-30.38
387.511	4.44
387.72	55.64
387.93	18.77
388.14	74.07
388.35	41.3
388.56	10.58
388.769	-38.57
388.979	100.69
389.189	0.34
389.399	-1.71
389.609	-20.14
389.818	6.49
390.028	35.16
390.238	-32.43
390.447	-38.57
390.657	51.54
390.867	18.77
391.076	-40.62
391.286	61.78
391.496	29.01
391.705	-1.71
391.915	88.4
392.125	-22.19
392.334	55.64
392.544	18.77
392.753	-13.99
392.963	39.25
393.172	14.68
393.382	47.44
393.591	35.16
393.801	6.49
394.01	49.49
394.22	10.58
394.429	8.53
394.639	33.11
394.848	16.73
395.058	90.45
395.267	57.68
395.477	47.44
395.686	18.77
395.895	67.92
396.105	63.83
396.314	18.77
396.524	39.25
396.733	104.79
396.942	59.73
397.152	6.49
397.361	123.22
397.57	127.32
397.78	14.68
397.989	90.45
398.198	24.92
398.407	49.49
398.617	45.4
398.826	106.84
399.035	39.25
399.244	45.4
399.453	141.65
399.663	18.77
399.872	74.07
400.081	108.88
400.29	57.68
400.499	53.59
400.708	74.07
400.917	26.96
401.127	-9.9
401.336	94.55
401.545	16.73
401.754	88.4
401.963	115.03
402.172	86.36
402.381	104.79
402.59	35.16
402.799	47.44
403.008	55.64
403.217	33.11
403.426	86.36
403.635	96.6
403.844	-11.95
404.053	65.88
404.262	-3.75
404.471	96.6
404.68	49.49
404.888	57.68
405.097	49.49
405.306	110.93
405.515	31.06
405.724	88.4
405.933	82.26
406.142	115.03
406.35	8.53
406.559	90.45
406.768	88.4
406.977	104.79
407.185	63.83
407.394	96.6
407.603	141.65
407.812	78.16
408.02	123.22
408.229	112.98
408.438	155.99
408.646	133.46
408.855	108.88
409.064	153.94
409.272	106.84
409.481	225.62
409.69	141.65
409.898	108.88
410.107	121.17
410.315	143.7
410.524	227.67
410.733	194.9
410.941	188.75
411.15	194.9
411.358	166.23
411.567	176.47
411.775	244.05
411.984	213.33
412.192	162.13
412.401	231.76
412.609	266.58
412.818	260.43
413.026	268.63
413.234	229.71
413.443	313.68
413.651	352.59
413.86	287.06
414.068	280.91
414.276	272.72
414.485	303.44
414.693	268.63
414.901	297.3
415.11	416.08
415.318	330.06
415.526	377.17
415.734	356.69
415.943	399.7
416.151	350.54
416.359	414.03
416.567	414.03
416.776	434.51
416.984	483.66
417.192	485.71
417.4	508.24
417.608	426.32
417.817	514.38
418.025	504.14
418.233	571.72
418.441	487.76
418.649	481.61
418.857	610.64
419.065	643.4
419.273	592.2
419.481	682.31
419.689	747.85
419.897	682.31
420.105	807.24
420.313	682.31
420.521	776.52
420.729	753.99
420.937	917.83
421.145	807.24
421.353	903.5
421.561	874.82
421.769	891.21
421.977	1059.14
422.185	1016.13
422.393	1034.57
422.601	1098.05
422.809	1118.53
423.017	1167.68
423.224	1184.07
423.432	1177.92
423.64	1163.59
423.848	1251.65
424.056	1296.71
424.263	1407.3
424.471	1395.01
424.679	1386.82
424.887	1501.5
425.094	1550.65
425.302	1478.97
425.51	1589.57
425.718	1718.59
425.925	1640.76
426.133	1691.96
426.341	1859.9
426.548	1880.38
426.756	1939.77
426.964	1890.62
427.171	2068.79
427.379	2087.22
427.586	2081.08
427.794	2126.13
428.001	2320.69
428.209	2414.9
428.417	2351.41
428.624	2490.67
428.832	2486.58
429.039	2445.62
429.247	2464.05
429.454	2849.07
429.662	2957.61
429.869	2750.76
430.076	2810.15
430.284	2941.22
430.491	2953.51
430.699	3154.21
430.906	3229.99
431.114	3268.9
431.321	3281.19
431.528	3307.81
431.736	3666.21
431.943	3920.15
432.15	3643.68
432.358	3637.53
432.565	3862.81
432.772	3782.94
432.979	4159.77
433.187	4131.09
433.394	4204.82
433.601	4491.54
433.808	4448.53
434.016	4444.43
434.223	4516.11
434.43	4864.27
434.637	4833.55
434.844	5134.6
435.052	5169.41
435.259	5216.52
435.466	5351.68
435.673	5093.64
435.88	5572.86
436.087	5800.19
436.294	5785.85
436.501	5718.27
436.708	5867.77
436.915	6011.13
437.122	6086.9
437.329	6273.27
437.537	6418.68
437.743	6635.76
437.95	6510.83
438.157	6897.9
438.364	7196.9
438.571	6920.43
438.778	7084.27
438.985	7876.83
439.192	7549.15
439.399	7782.62
439.606	7637.22
439.813	8149.21
440.02	8388.82
440.227	8480.98
440.433	8306.9
440.64	8409.3
440.847	8468.69
441.054	8714.45
441.261	9232.58
441.467	9263.3
441.674	9472.2
441.881	9709.76
442.088	9676.99
442.294	9519.3
442.501	9984.19
442.708	10057.92
442.914	10582.2
443.121	10834.1
443.328	10487.99
443.534	11321.51
443.741	10801.33
443.948	10948.78
444.154	11710.63
444.361	11659.43
444.568	11641
444.774	11632.8
444.981	11784.35
445.187	12130.46
445.394	12839.06
445.6	12585.11
445.807	13746.31
446.013	13148.3
446.22	13377.67
446.426	13762.69
446.633	14022.78
446.839	14590.07
447.046	13709.44
447.252	14715
447.459	14798.96
447.665	14743.67
447.871	15415.4
448.078	16027.74
448.284	15024.24
448.491	15573.1
448.697	16253.02
448.903	16435.29
449.11	16740.44
449.316	16334.94
449.522	16570.46
449.728	17164.37
449.935	17188.94
450.141	17137.74
450.347	17530.95
450.553	16986.19
450.76	17150.03
450.966	18053.19
451.172	17576.01
451.378	18303.04
451.584	17774.66
451.791	18473.02
451.997	18241.6
452.203	18540.6
452.409	18784.31
452.615	18126.91
452.821	17612.87
453.027	17713.22
453.233	18456.64
453.44	17653.83
453.646	17807.43
453.852	18208.83
454.058	18556.99
454.264	17956.93
454.47	18108.48
454.676	17936.45
454.882	18391.1
455.088	16932.95
455.294	17266.77
455.5	17516.62
455.705	17516.62
455.911	17258.57
456.117	16476.25
456.323	16332.89
456.529	15661.16
456.735	16384.09
456.941	15820.9
457.147	15595.62
457.352	15155.31
457.558	14911.6
457.764	14983.28
457.97	14801.01
458.176	14366.84
458.381	14284.92
458.587	13725.83
458.793	13856.9
458.999	12763.28
459.204	13992.06
459.41	13738.12
459.616	12705.94
459.821	12753.04
460.027	12628.12
460.233	12372.12
460.438	11786.4
460.644	11942.05
460.85	11417.77
461.055	11317.42
461.261	11219.11
461.466	10248.38
461.672	10279.1
461.878	10774.7
462.083	9949.37
462.289	9748.67
462.494	9898.17
462.7	9373.89
462.905	9236.68
463.111	9552.07
463.316	9763.01
463.522	9306.31
463.727	9513.16
463.932	9294.02
464.138	9197.77
464.343	9214.15
464.549	9027.79
464.754	9339.08
464.959	9277.64
465.165	9326.79
465.37	8956.11
465.575	8761.55
465.781	9097.42
465.986	8882.38
466.191	8700.11
466.397	8728.78
466.602	8165.59
466.807	8415.44
467.012	8413.4
467.218	8315.09
467.423	8380.63
467.628	8437.97
467.833	8679.63
468.038	8558.8
468.244	8329.43
468.449	8571.09
468.654	8190.17
468.859	8249.56
