Data from USB4F104151__6__12-53-08-569.txt Node

Date: Fri Mar 14 12:53:08 EDT 2025
User: louis
Spectrometer: USB4F10415
Trigger mode: 4
Integration Time (sec): 1.000000E-2
Scans to average: 1
Electric dark correction enabled: true
Nonlinearity correction enabled: false
Boxcar width: 0
XAxis mode: Wavelengths
Number of Pixels in Spectrum: 3648
>>>>>Begin Spectral Data<<<<<
178.204	7.34
178.424	7.34
178.644	7.34
178.864	-58.2
179.084	25.77
179.304	13.48
179.524	-43.86
179.744	-37.72
179.964	27.82
180.184	9.39
180.404	-19.29
180.624	-19.29
180.844	83.11
181.064	-25.43
181.283	-95.06
181.503	44.2
181.723	62.63
181.943	-29.52
182.163	95.4
182.383	85.16
182.602	54.44
182.822	54.44
183.042	68.78
183.262	23.72
183.482	60.59
183.701	5.29
183.921	66.73
184.141	7.34
184.361	7.34
184.58	68.78
184.8	21.67
185.02	60.59
185.239	-7
185.459	7.34
185.679	-27.48
185.898	-60.24
186.118	38.06
186.338	89.26
186.557	70.83
186.777	-4.95
186.997	38.06
187.216	40.11
187.436	38.06
187.655	46.25
187.875	64.68
188.095	29.87
188.314	70.83
188.534	31.91
188.753	-9.05
188.973	23.72
189.192	122.02
189.412	-43.86
189.631	93.35
189.851	3.24
190.07	74.92
190.29	27.82
190.509	31.91
190.729	42.15
190.948	87.21
191.168	142.5
191.387	42.15
191.607	46.25
191.826	52.39
192.045	50.35
192.265	66.73
192.484	11.43
192.704	70.83
192.923	11.43
193.142	81.07
193.362	44.2
193.581	15.53
193.8	60.59
194.02	5.29
194.239	81.07
194.458	48.3
194.678	13.48
194.897	21.67
195.116	52.39
195.335	-0.85
195.555	70.83
195.774	-9.05
195.993	58.54
196.212	25.77
196.432	13.48
196.651	44.2
196.87	50.35
197.089	64.68
197.308	46.25
197.528	7.34
197.747	3.24
197.966	66.73
198.185	52.39
198.404	5.29
198.623	40.11
198.842	1.19
199.062	91.31
199.281	-41.81
199.5	56.49
199.719	23.72
199.938	54.44
200.157	36.01
200.376	138.41
200.595	5.29
200.814	21.67
201.033	62.63
201.252	17.58
201.471	81.07
201.69	46.25
201.909	23.72
202.128	60.59
202.347	-62.29
202.566	64.68
202.785	-15.19
203.004	48.3
203.223	89.26
203.442	9.39
203.661	40.11
203.879	5.29
204.098	48.3
204.317	87.21
204.536	-7
204.755	-19.29
204.974	36.01
205.193	15.53
205.411	72.87
205.63	29.87
205.849	7.34
206.068	46.25
206.287	27.82
206.505	156.84
206.724	23.72
206.943	25.77
207.162	50.35
207.381	107.69
207.599	97.45
207.818	91.31
208.037	-19.29
208.255	31.91
208.474	23.72
208.693	23.72
208.911	83.11
209.13	19.63
209.349	48.3
209.567	31.91
209.786	54.44
210.005	17.58
210.223	-19.29
210.442	81.07
210.661	44.2
210.879	-43.86
211.098	-43.86
211.316	15.53
211.535	54.44
211.753	29.87
211.972	87.21
212.191	3.24
212.409	48.3
212.628	105.64
212.846	62.63
213.065	91.31
213.283	-41.81
213.502	66.73
213.72	23.72
213.938	91.31
214.157	60.59
214.375	95.4
214.594	-11.09
214.812	-11.09
215.031	-11.09
215.249	40.11
215.467	54.44
215.686	29.87
215.904	5.29
216.122	29.87
216.341	56.49
216.559	21.67
216.778	76.97
216.996	-19.29
217.214	89.26
217.432	7.34
217.651	19.63
217.869	5.29
218.087	13.48
218.306	50.35
218.524	23.72
218.742	-33.62
218.96	-13.14
219.179	19.63
219.397	62.63
219.615	27.82
219.833	97.45
220.051	1.19
220.27	83.11
220.488	38.06
220.706	3.24
220.924	1.19
221.142	38.06
221.36	-9.05
221.578	64.68
221.796	-19.29
222.015	83.11
222.233	-17.24
222.451	72.87
222.669	-45.91
222.887	87.21
223.105	1.19
223.323	9.39
223.541	79.02
223.759	48.3
223.977	85.16
224.195	17.58
224.413	27.82
224.631	50.35
224.849	33.96
225.067	56.49
225.285	-4.95
225.503	23.72
225.721	19.63
225.939	38.06
226.157	-31.57
226.375	40.11
226.592	33.96
226.81	17.58
227.028	66.73
227.246	3.24
227.464	87.21
227.682	48.3
227.9	79.02
228.117	3.24
228.335	-7
228.553	17.58
228.771	44.2
228.989	101.55
229.206	54.44
229.424	64.68
229.642	-15.19
229.86	62.63
230.077	50.35
230.295	93.35
230.513	25.77
230.731	85.16
230.948	70.83
231.166	107.69
231.384	62.63
231.601	23.72
231.819	33.96
232.037	5.29
232.254	44.2
232.472	50.35
232.689	40.11
232.907	85.16
233.125	81.07
233.342	29.87
233.56	-11.09
233.777	52.39
233.995	-9.05
234.213	83.11
234.43	33.96
234.648	36.01
234.865	58.54
235.083	56.49
235.3	27.82
235.518	31.91
235.735	62.63
235.953	40.11
236.17	9.39
236.388	76.97
236.605	33.96
236.822	60.59
237.04	-35.67
237.257	17.58
237.475	19.63
237.692	5.29
237.909	93.35
238.127	62.63
238.344	66.73
238.562	44.2
238.779	-4.95
238.996	25.77
239.214	40.11
239.431	66.73
239.648	-25.43
239.865	62.63
240.083	99.5
240.3	31.91
240.517	17.58
240.735	-11.09
240.952	72.87
241.169	25.77
241.386	21.67
241.603	79.02
241.821	29.87
242.038	58.54
242.255	27.82
242.472	115.88
242.689	40.11
242.907	36.01
243.124	15.53
243.341	-15.19
243.558	7.34
243.775	11.43
243.992	29.87
244.209	52.39
244.426	46.25
244.643	25.77
244.86	-7
245.078	38.06
245.295	33.96
245.512	52.39
245.729	25.77
245.946	70.83
246.163	-17.24
246.38	17.58
246.597	72.87
246.814	89.26
247.031	52.39
247.248	29.87
247.464	7.34
247.681	117.93
247.898	-9.05
248.115	21.67
248.332	7.34
248.549	54.44
248.766	40.11
248.983	50.35
249.2	9.39
249.417	105.64
249.633	21.67
249.85	91.31
250.067	81.07
250.284	79.02
250.501	50.35
250.717	-13.14
250.934	83.11
251.151	-17.24
251.368	-29.52
251.585	3.24
251.801	56.49
252.018	81.07
252.235	103.59
252.451	40.11
252.668	29.87
252.885	-23.38
253.102	29.87
253.318	21.67
253.535	9.39
253.752	-4.95
253.968	66.73
254.185	9.39
254.401	50.35
254.618	9.39
254.835	-11.09
255.051	-43.86
255.268	83.11
255.484	85.16
255.701	23.72
255.917	58.54
256.134	27.82
256.351	19.63
256.567	-11.09
256.784	-9.05
257	1.19
257.217	48.3
257.433	44.2
257.65	1.19
257.866	54.44
258.082	23.72
258.299	3.24
258.515	17.58
258.732	48.3
258.948	23.72
259.165	9.39
259.381	46.25
259.597	5.29
259.814	62.63
260.03	17.58
260.246	136.36
260.463	15.53
260.679	56.49
260.895	50.35
261.112	-11.09
261.328	7.34
261.544	40.11
261.761	91.31
261.977	9.39
262.193	-13.14
262.409	48.3
262.626	33.96
262.842	-9.05
263.058	54.44
263.274	99.5
263.49	62.63
263.707	87.21
263.923	76.97
264.139	31.91
264.355	62.63
264.571	62.63
264.787	60.59
265.004	5.29
265.22	54.44
265.436	44.2
265.652	-35.67
265.868	15.53
266.084	40.11
266.3	70.83
266.516	33.96
266.732	19.63
266.948	54.44
267.164	7.34
267.38	11.43
267.596	72.87
267.812	72.87
268.028	1.19
268.244	48.3
268.46	17.58
268.676	19.63
268.892	-35.67
269.108	136.36
269.324	46.25
269.54	-19.29
269.756	105.64
269.972	-68.44
270.188	-0.85
270.403	52.39
270.619	42.15
270.835	9.39
271.051	60.59
271.267	48.3
271.483	48.3
271.698	46.25
271.914	58.54
272.13	-2.9
272.346	42.15
272.562	44.2
272.777	58.54
272.993	64.68
273.209	58.54
273.425	44.2
273.64	25.77
273.856	19.63
274.072	95.4
274.287	95.4
274.503	-15.19
274.719	19.63
274.934	74.92
275.15	21.67
275.366	-25.43
275.581	31.91
275.797	46.25
276.012	40.11
276.228	56.49
276.444	50.35
276.659	21.67
276.875	42.15
277.09	97.45
277.306	38.06
277.521	13.48
277.737	11.43
277.952	62.63
278.168	52.39
278.383	27.82
278.599	27.82
278.814	21.67
279.03	87.21
279.245	27.82
279.461	83.11
279.676	103.59
279.892	33.96
280.107	13.48
280.322	38.06
280.538	107.69
280.753	23.72
280.969	81.07
281.184	27.82
281.399	29.87
281.615	113.83
281.83	27.82
282.045	46.25
282.26	56.49
282.476	19.63
282.691	72.87
282.906	66.73
283.122	89.26
283.337	-13.14
283.552	62.63
283.767	1.19
283.983	89.26
284.198	-4.95
284.413	74.92
284.628	58.54
284.843	31.91
285.058	64.68
285.274	19.63
285.489	5.29
285.704	74.92
285.919	9.39
286.134	85.16
286.349	5.29
286.564	103.59
286.779	11.43
286.995	167.08
287.21	89.26
287.425	79.02
287.64	87.21
287.855	17.58
288.07	70.83
288.285	54.44
288.5	93.35
288.715	1.19
288.93	50.35
289.145	-60.24
289.36	25.77
289.575	62.63
289.79	134.31
290.004	38.06
290.219	60.59
290.434	23.72
290.649	11.43
290.864	132.26
291.079	21.67
291.294	42.15
291.509	74.92
291.724	76.97
291.938	17.58
292.153	23.72
292.368	-15.19
292.583	79.02
292.798	101.55
293.012	40.11
293.227	-9.05
293.442	50.35
293.657	130.22
293.871	-4.95
294.086	140.46
294.301	103.59
294.516	93.35
294.73	21.67
294.945	11.43
295.16	68.78
295.374	29.87
295.589	15.53
295.804	66.73
296.018	29.87
296.233	66.73
296.447	42.15
296.662	40.11
296.877	54.44
297.091	56.49
297.306	76.97
297.52	60.59
297.735	33.96
297.949	-39.76
298.164	-7
298.378	27.82
298.593	70.83
298.807	74.92
299.022	44.2
299.236	68.78
299.451	42.15
299.665	54.44
299.88	117.93
300.094	56.49
300.309	40.11
300.523	81.07
300.737	-35.67
300.952	9.39
301.166	58.54
301.381	99.5
301.595	74.92
301.809	33.96
302.024	50.35
302.238	60.59
302.452	68.78
302.667	62.63
302.881	48.3
303.095	15.53
303.309	70.83
303.524	52.39
303.738	40.11
303.952	56.49
304.166	58.54
304.381	29.87
304.595	9.39
304.809	44.2
305.023	5.29
305.237	40.11
305.452	29.87
305.666	9.39
305.88	107.69
306.094	33.96
306.308	66.73
306.522	93.35
306.736	38.06
306.95	99.5
307.164	105.64
307.379	-9.05
307.593	93.35
307.807	99.5
308.021	105.64
308.235	-4.95
308.449	-0.85
308.663	38.06
308.877	48.3
309.091	33.96
309.305	11.43
309.519	58.54
309.733	85.16
309.947	72.87
310.161	33.96
310.374	91.31
310.588	40.11
310.802	-17.24
311.016	13.48
311.23	101.55
311.444	122.02
311.658	-0.85
311.872	62.63
312.085	-52.05
312.299	89.26
312.513	40.11
312.727	72.87
312.941	66.73
313.154	87.21
313.368	13.48
313.582	56.49
313.796	105.64
314.009	-27.48
314.223	31.91
314.437	-7
314.651	25.77
314.864	134.31
315.078	107.69
315.292	23.72
315.505	9.39
315.719	66.73
315.933	66.73
316.146	138.41
316.36	50.35
316.573	-2.9
316.787	23.72
317.001	50.35
317.214	115.88
317.428	72.87
317.641	54.44
317.855	5.29
318.068	70.83
318.282	56.49
318.495	27.82
318.709	33.96
318.922	128.17
319.136	70.83
319.349	58.54
319.563	79.02
319.776	40.11
319.99	-7
320.203	74.92
320.417	15.53
320.63	76.97
320.843	85.16
321.057	17.58
321.27	27.82
321.483	11.43
321.697	91.31
321.91	21.67
322.124	40.11
322.337	38.06
322.55	64.68
322.763	62.63
322.977	72.87
323.19	-0.85
323.403	72.87
323.617	11.43
323.83	115.88
324.043	89.26
324.256	46.25
324.469	5.29
324.683	50.35
324.896	42.15
325.109	115.88
325.322	132.26
325.535	74.92
325.748	-19.29
325.962	60.59
326.175	83.11
326.388	62.63
326.601	-9.05
326.814	50.35
327.027	124.07
327.24	-2.9
327.453	1.19
327.666	107.69
327.879	95.4
328.092	54.44
328.305	40.11
328.518	58.54
328.731	122.02
328.944	17.58
329.157	44.2
329.37	83.11
329.583	109.74
329.796	48.3
330.009	68.78
330.222	95.4
330.435	79.02
330.648	72.87
330.861	46.25
331.073	50.35
331.286	40.11
331.499	-17.24
331.712	29.87
331.925	58.54
332.138	-13.14
332.35	85.16
332.563	46.25
332.776	72.87
332.989	46.25
333.202	27.82
333.414	76.97
333.627	58.54
333.84	-41.81
334.053	17.58
334.265	79.02
334.478	66.73
334.691	23.72
334.903	25.77
335.116	83.11
335.329	19.63
335.541	95.4
335.754	1.19
335.966	68.78
336.179	60.59
336.392	60.59
336.604	21.67
336.817	42.15
337.029	19.63
337.242	74.92
337.454	58.54
337.667	-13.14
337.88	58.54
338.092	9.39
338.305	29.87
338.517	29.87
338.729	33.96
338.942	68.78
339.154	27.82
339.367	62.63
339.579	81.07
339.792	87.21
340.004	56.49
340.217	36.01
340.429	54.44
340.641	56.49
340.854	50.35
341.066	31.91
341.278	113.83
341.491	48.3
341.703	87.21
341.915	52.39
342.128	52.39
342.34	5.29
342.552	1.19
342.764	50.35
342.977	48.3
343.189	56.49
343.401	89.26
343.613	11.43
343.826	50.35
344.038	56.49
344.25	-11.09
344.462	3.24
344.674	89.26
344.886	107.69
345.099	13.48
345.311	-2.9
345.523	23.72
345.735	99.5
345.947	54.44
346.159	-0.85
346.371	58.54
346.583	87.21
346.795	54.44
347.007	-9.05
347.219	89.26
347.431	42.15
347.643	111.78
347.855	50.35
348.067	29.87
348.279	48.3
348.491	115.88
348.703	56.49
348.915	81.07
349.127	33.96
349.339	66.73
349.551	56.49
349.763	5.29
349.975	3.24
350.187	109.74
350.399	44.2
350.61	56.49
350.822	66.73
351.034	66.73
351.246	3.24
351.458	105.64
351.669	15.53
351.881	99.5
352.093	-2.9
352.305	66.73
352.517	40.11
352.728	46.25
352.94	-21.33
353.152	79.02
353.363	-15.19
353.575	56.49
353.787	-35.67
353.999	38.06
354.21	83.11
354.422	101.55
354.633	64.68
354.845	38.06
355.057	81.07
355.268	99.5
355.48	87.21
355.692	54.44
355.903	50.35
356.115	38.06
356.326	101.55
356.538	89.26
356.749	107.69
356.961	101.55
357.172	87.21
357.384	56.49
357.595	33.96
357.807	3.24
358.018	-9.05
358.23	62.63
358.441	68.78
358.653	23.72
358.864	66.73
359.075	3.24
359.287	60.59
359.498	29.87
359.709	-31.57
359.921	72.87
360.132	23.72
360.344	113.83
360.555	72.87
360.766	122.02
360.977	40.11
361.189	11.43
361.4	62.63
361.611	58.54
361.823	74.92
362.034	27.82
362.245	36.01
362.456	81.07
362.667	38.06
362.879	7.34
363.09	68.78
363.301	48.3
363.512	44.2
363.723	70.83
363.935	25.77
364.146	48.3
364.357	97.45
364.568	7.34
364.779	126.12
364.99	56.49
365.201	122.02
365.412	27.82
365.623	70.83
365.834	107.69
366.045	93.35
366.256	81.07
366.467	54.44
366.678	60.59
366.889	38.06
367.1	101.55
367.311	44.2
367.522	17.58
367.733	68.78
367.944	72.87
368.155	101.55
368.366	5.29
368.577	13.48
368.788	109.74
368.999	58.54
369.209	91.31
369.42	62.63
369.631	93.35
369.842	83.11
370.053	9.39
370.264	76.97
370.474	29.87
370.685	85.16
370.896	38.06
371.107	199.85
371.317	150.7
371.528	70.83
371.739	113.83
371.95	70.83
372.16	111.78
372.371	122.02
372.582	42.15
372.792	68.78
373.003	36.01
373.214	93.35
373.424	46.25
373.635	52.39
373.846	23.72
374.056	70.83
374.267	11.43
374.477	3.24
374.688	-2.9
374.898	60.59
375.109	-23.38
375.319	124.07
375.53	38.06
375.74	-7
375.951	25.77
376.161	-2.9
376.372	122.02
376.582	132.26
376.793	62.63
377.003	21.67
377.214	74.92
377.424	81.07
377.635	31.91
377.845	79.02
378.055	124.07
378.266	29.87
378.476	105.64
378.686	31.91
378.897	60.59
379.107	44.2
379.317	93.35
379.528	89.26
379.738	111.78
379.948	79.02
380.158	152.74
380.369	85.16
380.579	105.64
380.789	44.2
380.999	38.06
381.21	93.35
381.42	79.02
381.63	46.25
381.84	52.39
382.05	31.91
382.261	126.12
382.471	7.34
382.681	27.82
382.891	3.24
383.101	44.2
383.311	-21.33
383.521	50.35
383.731	5.29
383.941	74.92
384.151	13.48
384.361	68.78
384.571	97.45
384.781	85.16
384.991	19.63
385.201	79.02
385.411	83.11
385.621	113.83
385.831	38.06
386.041	52.39
386.251	103.59
386.461	107.69
386.671	9.39
386.881	103.59
387.091	99.5
387.301	33.96
387.511	68.78
387.72	89.26
387.93	103.59
388.14	95.4
388.35	95.4
388.56	105.64
388.769	52.39
388.979	17.58
389.189	111.78
389.399	89.26
389.609	11.43
389.818	130.22
390.028	-19.29
390.238	113.83
390.447	50.35
390.657	48.3
390.867	66.73
391.076	64.68
391.286	-23.38
391.496	113.83
391.705	109.74
391.915	89.26
392.125	40.11
392.334	97.45
392.544	142.5
392.753	74.92
392.963	56.49
393.172	107.69
393.382	95.4
393.591	146.6
393.801	-52.05
394.01	113.83
394.22	109.74
394.429	117.93
394.639	52.39
394.848	-4.95
395.058	66.73
395.267	66.73
395.477	42.15
395.686	97.45
395.895	122.02
396.105	-0.85
396.314	33.96
396.524	119.98
396.733	29.87
396.942	40.11
397.152	50.35
397.361	146.6
397.57	122.02
397.78	21.67
397.989	66.73
398.198	113.83
398.407	140.46
398.617	91.31
398.826	150.7
399.035	128.17
399.244	115.88
399.453	107.69
399.663	68.78
399.872	165.03
400.081	36.01
400.29	107.69
400.499	91.31
400.708	146.6
400.917	130.22
401.127	148.65
401.336	95.4
401.545	122.02
401.754	138.41
401.963	105.64
402.172	101.55
402.381	109.74
402.59	62.63
402.799	162.98
403.008	136.36
403.217	119.98
403.426	87.21
403.635	140.46
403.844	148.65
404.053	72.87
404.262	115.88
404.471	93.35
404.68	119.98
404.888	89.26
405.097	140.46
405.306	150.7
405.515	146.6
405.724	83.11
405.933	109.74
406.142	156.84
406.35	144.55
406.559	115.88
406.768	165.03
406.977	183.46
407.185	212.14
407.394	150.7
407.603	124.07
407.812	197.8
408.02	185.51
408.229	234.66
408.438	246.95
408.646	179.37
408.855	249
409.064	205.99
409.272	205.99
409.481	156.84
409.69	240.81
409.898	195.75
410.107	214.18
410.315	296.1
410.524	267.43
410.733	339.11
410.941	199.85
411.15	310.44
411.358	351.4
411.567	353.45
411.775	236.71
411.984	382.12
412.192	265.38
412.401	339.11
412.609	298.15
412.818	363.69
413.026	406.69
413.234	412.84
413.443	371.88
413.651	447.65
413.86	431.27
414.068	437.41
414.276	406.69
414.485	515.23
414.693	478.37
414.901	511.14
415.11	527.52
415.318	543.91
415.526	527.52
415.734	560.29
415.943	558.24
416.151	554.15
416.359	548
416.567	625.83
416.776	660.64
416.984	672.93
417.192	722.08
417.4	693.41
417.608	705.7
417.817	779.42
418.025	787.61
418.233	824.48
418.441	885.92
418.649	840.86
418.857	883.87
419.065	879.77
419.273	906.4
419.481	965.79
419.689	969.88
419.897	1021.08
420.105	1064.09
420.313	1084.57
420.521	1127.58
420.729	1197.21
420.937	1229.98
421.145	1303.7
421.353	1309.85
421.561	1334.42
421.769	1250.46
421.977	1479.83
422.185	1473.68
422.393	1533.08
422.601	1567.89
422.809	1653.91
423.017	1668.24
423.224	1694.86
423.432	1768.59
423.64	1848.46
423.848	1907.85
424.056	1885.33
424.263	1981.58
424.471	2040.97
424.679	2024.59
424.887	2137.23
425.094	2208.9
425.302	2262.15
425.51	2217.1
425.718	2253.96
425.925	2376.84
426.133	2483.33
426.341	2622.59
426.548	2806.91
426.756	2802.82
426.964	2854.02
427.171	3001.47
427.379	2997.37
427.586	3003.52
427.794	3112.06
428.001	3318.9
428.209	3415.16
428.417	3339.38
428.624	3597.43
428.832	3544.18
429.039	3693.68
429.247	3630.2
429.454	4070.51
429.662	4215.91
429.869	3937.39
430.076	4361.32
430.284	4232.3
430.491	4209.77
430.699	4691.04
430.906	4631.65
431.114	4580.45
431.321	5006.43
431.528	4901.98
431.736	5055.58
431.943	5342.3
432.15	5313.63
432.358	5483.61
432.565	5651.54
432.772	5637.2
432.979	5833.81
433.187	6085.71
433.394	6052.94
433.601	6442.06
433.808	6597.7
434.016	6485.06
434.223	6689.86
434.43	7117.89
434.637	6894.66
434.844	7406.65
435.052	7705.65
435.259	7554.1
435.466	7492.66
435.673	7629.88
435.88	8162.35
436.087	8635.43
436.294	8465.45
436.501	8533.03
436.708	8514.6
436.915	8653.86
437.122	9303.07
437.329	9258.01
437.537	9403.42
437.743	9706.52
437.95	9417.75
438.157	10406.92
438.364	10277.9
438.571	10417.16
438.778	10353.68
438.985	11301.89
439.192	11039.75
439.399	11447.29
439.606	11172.86
439.813	11697.14
440.02	12286.96
440.227	12043.25
440.433	12092.4
440.64	12542.96
440.847	12317.68
441.054	12719.08
441.261	13448.16
441.467	13300.7
441.674	13611.99
441.881	14224.34
442.088	13958.1
442.294	13935.57
442.501	14310.35
442.708	14607.31
442.914	15283.14
443.121	15887.29
443.328	15516.61
443.534	16833.45
443.741	16225.2
443.948	15725.5
444.154	17226.66
444.361	17013.67
444.568	16933.8
444.774	17038.25
444.981	17261.48
445.187	17648.54
445.394	18375.57
445.6	18584.46
445.807	20044.66
446.013	19334.02
446.22	19784.57
446.426	20462.45
446.633	20511.6
446.839	20986.73
447.046	20495.22
447.252	21480.29
447.459	21699.42
447.665	21267.3
447.871	22479.7
448.078	23446.34
448.284	22109.02
448.491	23030.6
448.697	23808.83
448.903	24210.23
449.11	24396.6
449.316	23874.37
449.522	24603.44
449.728	24920.88
449.935	25142.06
450.141	25232.17
450.347	25836.32
450.553	25099.05
450.76	25273.13
450.966	26137.37
451.172	26153.76
451.378	26481.43
451.584	26184.48
451.791	26602.26
451.997	26567.45
452.203	27091.73
452.409	27276.04
452.615	26845.97
452.821	25854.75
453.027	25596.71
453.233	27005.71
453.44	25971.49
453.646	26497.81
453.852	26637.08
454.058	26768.15
454.264	25944.86
454.47	26532.63
454.676	26039.07
454.882	26481.43
455.088	24286.01
455.294	24965.93
455.5	24982.32
455.705	25695.01
455.911	24642.35
456.117	23956.29
456.323	23941.95
456.529	22752.08
456.735	23339.85
456.941	22745.94
457.147	22182.74
457.352	21594.98
457.558	21545.83
457.764	21656.42
457.97	21117.8
458.176	21037.93
458.381	20667.25
458.587	19798.91
458.793	19760
458.999	18672.53
459.204	20095.86
459.41	19665.79
459.616	18320.28
459.821	18285.46
460.027	18230.16
460.233	17867.67
460.438	17132.45
460.644	17243.04
460.85	16337.84
461.055	16288.69
461.261	16204.72
461.466	15164.36
461.672	14552.01
461.878	15553.47
462.083	14314.45
462.289	14371.79
462.494	14087.12
462.7	13276.13
462.905	13204.45
463.111	13568.99
463.316	13401.05
463.522	13435.87
463.727	13523.93
463.932	13435.87
464.138	13378.53
464.343	13245.41
464.549	12979.17
464.754	13325.28
464.959	13116.39
465.165	13327.33
465.37	12530.67
465.575	12178.42
465.781	12741.61
465.986	12975.08
466.191	12465.13
466.397	12119.03
466.602	11643.9
466.807	12162.03
467.012	12192.75
467.218	12143.6
467.423	12094.45
467.628	11924.47
467.833	12368.88
468.038	11928.56
468.244	11822.07
468.449	12364.78
468.654	11768.82
