Data from USB4F104151__38__12-53-44-595.txt Node

Date: Fri Mar 14 12:53:44 EDT 2025
User: louis
Spectrometer: USB4F10415
Trigger mode: 4
Integration Time (sec): 1.000000E-2
Scans to average: 1
Electric dark correction enabled: true
Nonlinearity correction enabled: false
Boxcar width: 0
XAxis mode: Wavelengths
Number of Pixels in Spectrum: 3648
>>>>>Begin Spectral Data<<<<<
178.204	-40.45
178.424	-40.45
178.644	-40.45
178.864	-101.89
179.084	-126.46
179.304	49.66
179.524	23.04
179.744	45.57
179.964	16.9
180.184	-11.78
180.404	-26.11
180.624	6.66
180.844	-7.68
181.064	-83.45
181.283	20.99
181.503	-26.11
181.723	-7.68
181.943	8.7
182.163	-26.11
182.383	12.8
182.602	-15.87
182.822	37.38
183.042	27.14
183.262	-1.54
183.482	41.47
183.701	-1.54
183.921	0.51
184.141	16.9
184.361	70.14
184.58	-40.45
184.8	-15.87
185.02	39.42
185.239	14.85
185.459	43.52
185.679	14.85
185.898	25.09
186.118	8.7
186.338	47.62
186.557	18.94
186.777	-9.73
186.997	-13.82
187.216	12.8
187.436	23.04
187.655	-48.64
187.875	-7.68
188.095	14.85
188.314	72.19
188.534	14.85
188.753	10.75
188.973	-9.73
189.192	49.66
189.412	16.9
189.631	-30.21
189.851	-13.82
190.07	25.09
190.29	37.38
190.509	-46.59
190.729	-83.45
190.948	18.94
191.168	68.09
191.387	-17.92
191.607	-11.78
191.826	4.61
192.045	4.61
192.265	-26.11
192.484	-22.02
192.704	-11.78
192.923	-26.11
193.142	-15.87
193.362	-50.69
193.581	-44.54
193.8	18.94
194.02	-30.21
194.239	-38.4
194.458	0.51
194.678	-42.5
194.897	57.86
195.116	-11.78
195.335	-15.87
195.555	29.18
195.774	-3.58
195.993	20.99
196.212	12.8
196.432	23.04
196.651	-56.83
196.87	-67.07
197.089	29.18
197.308	-62.98
197.528	-9.73
197.747	-40.45
197.966	6.66
198.185	14.85
198.404	59.9
198.623	49.66
198.842	-7.68
199.062	6.66
199.281	10.75
199.5	-5.63
199.719	-52.74
199.938	12.8
200.157	14.85
200.376	-7.68
200.595	37.38
200.814	33.28
201.033	4.61
201.252	-38.4
201.471	-26.11
201.69	55.81
201.909	18.94
202.128	-1.54
202.347	47.62
202.566	18.94
202.785	-46.59
203.004	39.42
203.223	39.42
203.442	94.72
203.661	-24.06
203.879	18.94
204.098	-19.97
204.317	-83.45
204.536	2.56
204.755	14.85
204.974	33.28
205.193	8.7
205.411	16.9
205.63	6.66
205.849	33.28
206.068	-30.21
206.287	25.09
206.505	-13.82
206.724	23.04
206.943	37.38
207.162	27.14
207.381	-34.3
207.599	72.19
207.818	12.8
208.037	20.99
208.255	-24.06
208.474	37.38
208.693	29.18
208.911	-24.06
209.13	-15.87
209.349	-17.92
209.567	14.85
209.786	-9.73
210.005	0.51
210.223	-48.64
210.442	-7.68
210.661	37.38
210.879	33.28
211.098	74.24
211.316	35.33
211.535	-15.87
211.753	-1.54
211.972	16.9
212.191	-15.87
212.409	82.43
212.628	23.04
212.846	-54.78
213.065	-50.69
213.283	47.62
213.502	-15.87
213.72	31.23
213.938	55.81
214.157	39.42
214.375	-11.78
214.594	-11.78
214.812	-44.54
215.031	-11.78
215.249	37.38
215.467	-15.87
215.686	-34.3
215.904	86.53
216.122	25.09
216.341	68.09
216.559	2.56
216.778	53.76
216.996	68.09
217.214	-3.58
217.432	-42.5
217.651	31.23
217.869	-40.45
218.087	23.04
218.306	-3.58
218.524	4.61
218.742	-28.16
218.96	59.9
219.179	-3.58
219.397	70.14
219.615	4.61
219.833	76.29
220.051	8.7
220.27	14.85
220.488	27.14
220.706	-50.69
220.924	76.29
221.142	-5.63
221.36	35.33
221.578	8.7
221.796	37.38
222.015	16.9
222.233	12.8
222.451	41.47
222.669	23.04
222.887	-13.82
223.105	-24.06
223.323	-56.83
223.541	23.04
223.759	39.42
223.977	-71.17
224.195	29.18
224.413	92.67
224.631	-30.21
224.849	57.86
225.067	6.66
225.285	-28.16
225.503	-24.06
225.721	-1.54
225.939	-7.68
226.157	84.48
226.375	84.48
226.592	27.14
226.81	47.62
227.028	0.51
227.246	-3.58
227.464	-46.59
227.682	10.75
227.9	-15.87
228.117	31.23
228.335	10.75
228.553	18.94
228.771	-32.26
228.989	-15.87
229.206	-3.58
229.424	-13.82
229.642	4.61
229.86	43.52
230.077	66.05
230.295	18.94
230.513	-17.92
230.731	8.7
230.948	8.7
231.166	10.75
231.384	25.09
231.601	39.42
231.819	61.95
232.037	-3.58
232.254	-71.17
232.472	-1.54
232.689	-19.97
232.907	14.85
233.125	-7.68
233.342	-13.82
233.56	-67.07
233.777	78.33
233.995	-60.93
234.213	-1.54
234.43	-34.3
234.648	39.42
234.865	18.94
235.083	57.86
235.3	-60.93
235.518	-28.16
235.735	-36.35
235.953	-9.73
236.17	33.28
236.388	33.28
236.605	33.28
236.822	8.7
237.04	-42.5
237.257	18.94
237.475	-7.68
237.692	49.66
237.909	-22.02
238.127	-46.59
238.344	74.24
238.562	47.62
238.779	-54.78
238.996	33.28
239.214	-32.26
239.431	2.56
239.648	-34.3
239.865	-40.45
240.083	-34.3
240.3	-3.58
240.517	-40.45
240.735	-1.54
240.952	23.04
241.169	6.66
241.386	20.99
241.603	64
241.821	27.14
242.038	-7.68
242.255	-28.16
242.472	8.7
242.689	59.9
242.907	-15.87
243.124	-7.68
243.341	-22.02
243.558	33.28
243.775	-46.59
243.992	23.04
244.209	113.15
244.426	-28.16
244.643	-11.78
244.86	-30.21
245.078	-56.83
245.295	23.04
245.512	18.94
245.729	12.8
245.946	8.7
246.163	-26.11
246.38	0.51
246.597	12.8
246.814	37.38
247.031	6.66
247.248	25.09
247.464	20.99
247.681	18.94
247.898	-1.54
248.115	41.47
248.332	-24.06
248.549	-7.68
248.766	-9.73
248.983	4.61
249.2	39.42
249.417	-7.68
249.633	-54.78
249.85	-46.59
250.067	12.8
250.284	57.86
250.501	68.09
250.717	61.95
250.934	-22.02
251.151	27.14
251.368	49.66
251.585	18.94
251.801	23.04
252.018	64
252.235	43.52
252.451	-40.45
252.668	-19.97
252.885	-11.78
253.102	-19.97
253.318	-34.3
253.535	18.94
253.752	35.33
253.968	2.56
254.185	-67.07
254.401	14.85
254.618	25.09
254.835	37.38
255.051	23.04
255.268	27.14
255.484	66.05
255.701	35.33
255.917	18.94
256.134	51.71
256.351	25.09
256.567	-36.35
256.784	14.85
257	-24.06
257.217	8.7
257.433	-3.58
257.65	-87.55
257.866	55.81
258.082	-26.11
258.299	-3.58
258.515	-9.73
258.732	39.42
258.948	29.18
259.165	41.47
259.381	39.42
259.597	53.76
259.814	8.7
260.03	-79.36
260.246	-36.35
260.463	-60.93
260.679	25.09
260.895	-1.54
261.112	8.7
261.328	-44.54
261.544	18.94
261.761	92.67
261.977	14.85
262.193	-11.78
262.409	-32.26
262.626	74.24
262.842	-11.78
263.058	14.85
263.274	31.23
263.49	-15.87
263.707	6.66
263.923	-7.68
264.139	-15.87
264.355	-15.87
264.571	2.56
264.787	47.62
265.004	29.18
265.22	27.14
265.436	49.66
265.652	78.33
265.868	82.43
266.084	12.8
266.3	80.38
266.516	16.9
266.732	-17.92
266.948	-34.3
267.164	-46.59
267.38	-13.82
267.596	39.42
267.812	27.14
268.028	16.9
268.244	-13.82
268.46	66.05
268.676	55.81
268.892	18.94
269.108	-22.02
269.324	33.28
269.54	29.18
269.756	37.38
269.972	-5.63
270.188	-9.73
270.403	-9.73
270.619	2.56
270.835	20.99
271.051	23.04
271.267	-50.69
271.483	6.66
271.698	41.47
271.914	27.14
272.13	37.38
272.346	-28.16
272.562	-48.64
272.777	-9.73
272.993	-9.73
273.209	20.99
273.425	-9.73
273.64	12.8
273.856	-15.87
274.072	2.56
274.287	-22.02
274.503	12.8
274.719	29.18
274.934	14.85
275.15	8.7
275.366	49.66
275.581	16.9
275.797	20.99
276.012	-30.21
276.228	-13.82
276.444	-26.11
276.659	49.66
276.875	-30.21
277.09	4.61
277.306	18.94
277.521	-38.4
277.737	-17.92
277.952	59.9
278.168	10.75
278.383	4.61
278.599	-77.31
278.814	18.94
279.03	4.61
279.245	35.33
279.461	37.38
279.676	86.53
279.892	31.23
280.107	-32.26
280.322	45.57
280.538	10.75
280.753	-34.3
280.969	57.86
281.184	-17.92
281.399	29.18
281.615	-3.58
281.83	53.76
282.045	55.81
282.26	-19.97
282.476	-36.35
282.691	37.38
282.906	55.81
283.122	35.33
283.337	-24.06
283.552	47.62
283.767	-36.35
283.983	-15.87
284.198	68.09
284.413	27.14
284.628	64
284.843	10.75
285.058	57.86
285.274	25.09
285.489	-56.83
285.704	-9.73
285.919	-40.45
286.134	12.8
286.349	41.47
286.564	35.33
286.779	-1.54
286.995	33.28
287.21	-1.54
287.425	43.52
287.64	12.8
287.855	2.56
288.07	-9.73
288.285	-9.73
288.5	-32.26
288.715	88.57
288.93	20.99
289.145	33.28
289.36	23.04
289.575	78.33
289.79	55.81
290.004	4.61
290.219	51.71
290.434	66.05
290.649	-17.92
290.864	25.09
291.079	25.09
291.294	4.61
291.509	14.85
291.724	-7.68
291.938	8.7
292.153	23.04
292.368	-1.54
292.583	18.94
292.798	-34.3
293.012	14.85
293.227	16.9
293.442	-3.58
293.657	39.42
293.871	-40.45
294.086	41.47
294.301	102.91
294.516	59.9
294.73	31.23
294.945	6.66
295.16	25.09
295.374	23.04
295.589	37.38
295.804	55.81
296.018	37.38
296.233	51.71
296.447	-13.82
296.662	-17.92
296.877	-62.98
297.091	33.28
297.306	-30.21
297.52	20.99
297.735	64
297.949	14.85
298.164	47.62
298.378	-5.63
298.593	39.42
298.807	-44.54
299.022	51.71
299.236	64
299.451	6.66
299.665	35.33
299.88	39.42
300.094	6.66
300.309	-1.54
300.523	8.7
300.737	-42.5
300.952	-1.54
301.166	-15.87
301.381	10.75
301.595	33.28
301.809	51.71
302.024	-34.3
302.238	12.8
302.452	0.51
302.667	-32.26
302.881	80.38
303.095	16.9
303.309	2.56
303.524	39.42
303.738	-32.26
303.952	-44.54
304.166	-7.68
304.381	-56.83
304.595	23.04
304.809	84.48
305.023	-3.58
305.237	4.61
305.452	-15.87
305.666	-19.97
305.88	23.04
306.094	43.52
306.308	55.81
306.522	2.56
306.736	29.18
306.95	-24.06
307.164	18.94
307.379	84.48
307.593	-54.78
307.807	29.18
308.021	84.48
308.235	20.99
308.449	39.42
308.663	-9.73
308.877	82.43
309.091	31.23
309.305	49.66
309.519	-65.02
309.733	14.85
309.947	-56.83
310.161	39.42
310.374	27.14
310.588	84.48
310.802	31.23
311.016	55.81
311.23	55.81
311.444	4.61
311.658	16.9
311.872	41.47
312.085	-36.35
312.299	25.09
312.513	-11.78
312.727	-9.73
312.941	31.23
313.154	55.81
313.368	-9.73
313.582	14.85
313.796	29.18
314.009	2.56
314.223	-17.92
314.437	-1.54
314.651	45.57
314.864	8.7
315.078	-19.97
315.292	27.14
315.505	-26.11
315.719	51.71
315.933	-91.65
316.146	-9.73
316.36	-13.82
316.573	16.9
316.787	57.86
317.001	66.05
317.214	23.04
317.428	74.24
317.641	6.66
317.855	-46.59
318.068	57.86
318.282	25.09
318.495	86.53
318.709	100.86
318.922	14.85
319.136	68.09
319.349	31.23
319.563	64
319.776	27.14
319.99	-11.78
320.203	82.43
320.417	23.04
320.63	20.99
320.843	68.09
321.057	84.48
321.27	-26.11
321.483	25.09
321.697	12.8
321.91	-26.11
322.124	-5.63
322.337	-15.87
322.55	-5.63
322.763	27.14
322.977	27.14
323.19	-42.5
323.403	12.8
323.617	35.33
323.83	131.58
324.043	-62.98
324.256	8.7
324.469	39.42
324.683	14.85
324.896	-7.68
325.109	29.18
325.322	31.23
325.535	-13.82
325.748	16.9
325.962	78.33
326.175	23.04
326.388	27.14
326.601	49.66
326.814	49.66
327.027	39.42
327.24	64
327.453	-28.16
327.666	4.61
327.879	66.05
328.092	33.28
328.305	41.47
328.518	55.81
328.731	23.04
328.944	-9.73
329.157	6.66
329.37	37.38
329.583	12.8
329.796	-13.82
330.009	-32.26
330.222	25.09
330.435	-15.87
330.648	98.81
330.861	41.47
331.073	43.52
331.286	43.52
331.499	18.94
331.712	-36.35
331.925	74.24
332.138	23.04
332.35	8.7
332.563	-15.87
332.776	-17.92
332.989	-30.21
333.202	4.61
333.414	47.62
333.627	49.66
333.84	-19.97
334.053	-24.06
334.265	-1.54
334.478	47.62
334.691	39.42
334.903	76.29
335.116	6.66
335.329	-5.63
335.541	16.9
335.754	8.7
335.966	-19.97
336.179	-58.88
336.392	-32.26
336.604	0.51
336.817	8.7
337.029	-40.45
337.242	0.51
337.454	55.81
337.667	-11.78
337.88	37.38
338.092	-1.54
338.305	33.28
338.517	-5.63
338.729	86.53
338.942	-22.02
339.154	4.61
339.367	0.51
339.579	68.09
339.792	16.9
340.004	61.95
340.217	-3.58
340.429	29.18
340.641	76.29
340.854	4.61
341.066	-15.87
341.278	47.62
341.491	76.29
341.703	-30.21
341.915	39.42
342.128	-30.21
342.34	51.71
342.552	-65.02
342.764	33.28
342.977	4.61
343.189	0.51
343.401	104.96
343.613	-13.82
343.826	12.8
344.038	-50.69
344.25	80.38
344.462	-60.93
344.674	6.66
344.886	20.99
345.099	57.86
345.311	4.61
345.523	35.33
345.735	39.42
345.947	-13.82
346.159	-13.82
346.371	39.42
346.583	-5.63
346.795	-26.11
347.007	82.43
347.219	88.57
347.431	29.18
347.643	-17.92
347.855	14.85
348.067	18.94
348.279	25.09
348.491	90.62
348.703	29.18
348.915	-17.92
349.127	8.7
349.339	-11.78
349.551	-9.73
349.763	4.61
349.975	-32.26
350.187	23.04
350.399	66.05
350.61	-24.06
350.822	23.04
351.034	14.85
351.246	23.04
351.458	25.09
351.669	2.56
351.881	39.42
352.093	-1.54
352.305	57.86
352.517	16.9
352.728	-44.54
352.94	39.42
353.152	6.66
353.363	16.9
353.575	80.38
353.787	49.66
353.999	23.04
354.21	39.42
354.422	18.94
354.633	37.38
354.845	-5.63
355.057	-7.68
355.268	4.61
355.48	37.38
355.692	14.85
355.903	-32.26
356.115	6.66
356.326	-17.92
356.538	-1.54
356.749	74.24
356.961	41.47
357.172	-7.68
357.384	64
357.595	74.24
357.807	2.56
358.018	29.18
358.23	0.51
358.441	-1.54
358.653	-7.68
358.864	2.56
359.075	-9.73
359.287	51.71
359.498	4.61
359.709	41.47
359.921	49.66
360.132	4.61
360.344	6.66
360.555	4.61
360.766	76.29
360.977	33.28
361.189	66.05
361.4	72.19
361.611	16.9
361.823	29.18
362.034	61.95
362.245	33.28
362.456	66.05
362.667	-5.63
362.879	29.18
363.09	-5.63
363.301	0.51
363.512	35.33
363.723	94.72
363.935	27.14
364.146	-42.5
364.357	-22.02
364.568	16.9
364.779	31.23
364.99	37.38
365.201	12.8
365.412	45.57
365.623	-30.21
365.834	0.51
366.045	74.24
366.256	45.57
366.467	-17.92
366.678	27.14
366.889	82.43
367.1	8.7
367.311	51.71
367.522	6.66
367.733	31.23
367.944	12.8
368.155	12.8
368.366	25.09
368.577	57.86
368.788	18.94
368.999	-26.11
369.209	20.99
369.42	18.94
369.631	74.24
369.842	23.04
370.053	41.47
370.264	45.57
370.474	86.53
370.685	-7.68
370.896	12.8
371.107	72.19
371.317	37.38
371.528	68.09
371.739	-1.54
371.95	27.14
372.16	49.66
372.371	6.66
372.582	14.85
372.792	-11.78
373.003	4.61
373.214	-48.64
373.424	25.09
373.635	78.33
373.846	53.76
374.056	-77.31
374.267	47.62
374.477	47.62
374.688	37.38
374.898	57.86
375.109	39.42
375.319	20.99
375.53	51.71
375.74	68.09
375.951	12.8
376.161	-1.54
376.372	-3.58
376.582	-50.69
376.793	-15.87
377.003	39.42
377.214	45.57
377.424	14.85
377.635	6.66
377.845	-34.3
378.055	88.57
378.266	57.86
378.476	-3.58
378.686	29.18
378.897	-5.63
379.107	12.8
379.317	16.9
379.528	0.51
379.738	25.09
379.948	-22.02
380.158	20.99
380.369	109.05
380.579	39.42
380.789	84.48
380.999	-1.54
381.21	43.52
381.42	35.33
381.63	43.52
381.84	57.86
382.05	14.85
382.261	47.62
382.471	49.66
382.681	80.38
382.891	88.57
383.101	14.85
383.311	64
383.521	23.04
383.731	8.7
383.941	23.04
384.151	16.9
384.361	39.42
384.571	57.86
384.781	8.7
384.991	64
385.201	-19.97
385.411	0.51
385.621	64
385.831	16.9
386.041	-22.02
386.251	66.05
386.461	-7.68
386.671	14.85
386.881	-9.73
387.091	33.28
387.301	74.24
387.511	18.94
387.72	-7.68
387.93	51.71
388.14	43.52
388.35	45.57
388.56	90.62
388.769	35.33
388.979	4.61
389.189	-15.87
389.399	31.23
389.609	152.06
389.818	37.38
390.028	-7.68
390.238	14.85
390.447	29.18
390.657	18.94
390.867	86.53
391.076	39.42
391.286	4.61
391.496	61.95
391.705	14.85
391.915	29.18
392.125	51.71
392.334	-5.63
392.544	47.62
392.753	61.95
392.963	-24.06
393.172	-40.45
393.382	-17.92
393.591	80.38
393.801	-22.02
394.01	119.29
394.22	102.91
394.429	107.01
394.639	80.38
394.848	25.09
395.058	115.2
395.267	4.61
395.477	41.47
395.686	68.09
395.895	66.05
396.105	84.48
396.314	82.43
396.524	66.05
396.733	74.24
396.942	94.72
397.152	18.94
397.361	25.09
397.57	18.94
397.78	49.66
397.989	10.75
398.198	107.01
398.407	12.8
398.617	59.9
398.826	78.33
399.035	8.7
399.244	49.66
399.453	37.38
399.663	55.81
399.872	96.77
400.081	43.52
400.29	94.72
400.499	14.85
400.708	121.34
400.917	27.14
401.127	84.48
401.336	55.81
401.545	152.06
401.754	76.29
401.963	107.01
402.172	-9.73
402.381	57.86
402.59	-5.63
402.799	25.09
403.008	10.75
403.217	57.86
403.426	78.33
403.635	74.24
403.844	16.9
404.053	23.04
404.262	43.52
404.471	117.25
404.68	31.23
404.888	68.09
405.097	121.34
405.306	127.49
405.515	53.76
405.724	145.92
405.933	107.01
406.142	66.05
406.35	100.86
406.559	123.39
406.768	72.19
406.977	119.29
407.185	115.2
407.394	29.18
407.603	139.77
407.812	100.86
408.02	160.25
408.229	94.72
408.438	96.77
408.646	76.29
408.855	133.63
409.064	141.82
409.272	111.1
409.481	190.97
409.69	166.4
409.898	107.01
410.107	150.01
410.315	145.92
410.524	174.59
410.733	203.26
410.941	123.39
411.15	168.45
411.358	160.25
411.567	133.63
411.775	186.88
411.984	188.93
412.192	213.5
412.401	274.94
412.609	215.55
412.818	285.18
413.026	299.52
413.234	254.46
413.443	258.56
413.651	299.52
413.86	244.22
414.068	328.19
414.276	317.95
414.485	270.84
414.693	348.67
414.901	301.56
415.11	363
415.318	371.19
415.526	322.04
415.734	342.52
415.943	408.06
416.151	377.34
416.359	365.05
416.567	424.44
416.776	455.16
416.984	510.46
417.192	459.26
417.4	498.17
417.608	481.78
417.817	545.27
418.025	526.84
418.233	590.33
418.441	596.47
418.649	549.37
418.857	672.25
419.065	686.58
419.273	649.72
419.481	686.58
419.689	760.31
419.897	774.64
420.105	788.98
420.313	733.68
420.521	745.97
420.729	868.85
420.937	860.66
421.145	821.75
421.353	893.43
421.561	920.05
421.769	1034.74
421.977	1028.59
422.185	1001.97
422.393	1081.84
422.601	1081.84
422.809	1149.42
423.017	1188.33
423.224	1286.64
423.432	1182.19
423.64	1290.73
423.848	1366.51
424.056	1292.78
424.263	1393.13
424.471	1509.86
424.679	1419.75
424.887	1530.34
425.094	1649.13
425.302	1626.6
425.51	1685.99
425.718	1589.74
425.925	1692.13
426.133	1792.48
426.341	1913.31
426.548	1958.37
426.756	1903.07
426.964	1984.99
427.171	2169.31
427.379	2120.16
427.586	2214.37
427.794	2292.19
428.001	2357.72
428.209	2550.23
428.417	2453.98
428.624	2693.59
428.832	2615.77
429.039	2597.34
429.247	2726.36
429.454	2851.28
429.662	3181.01
429.869	2841.04
430.076	2955.73
430.284	2888.15
430.491	3080.66
430.699	3299.79
430.906	3312.08
431.114	3316.17
431.321	3477.96
431.528	3525.07
431.736	3701.19
431.943	3819.97
432.15	3793.35
432.358	3957.19
432.565	4108.74
432.772	4030.91
432.979	4272.57
433.187	4512.19
433.394	4354.49
433.601	4614.59
433.808	4624.83
434.016	4649.4
434.223	4733.37
434.43	5153.2
434.637	4829.62
434.844	5474.73
435.052	5423.53
435.259	5392.81
435.466	5263.79
435.673	5292.46
435.88	5857.7
436.087	5958.05
436.294	6199.71
436.501	5931.43
436.708	6039.97
436.915	6156.71
437.122	6621.59
437.329	6502.81
437.537	6818.2
437.743	6783.38
437.95	6683.03
438.157	7274.9
438.364	7408.01
438.571	7397.78
438.778	7354.77
438.985	8116.61
439.192	7850.38
439.399	7817.61
439.606	7680.39
439.813	8307.07
440.02	8806.78
440.227	8579.45
440.433	8532.35
440.64	8855.93
440.847	8827.26
441.054	9142.64
441.261	9648.49
441.467	9347.44
441.674	9722.22
441.881	10078.57
442.088	10006.89
442.294	9974.12
442.501	10305.89
442.708	10424.67
442.914	10903.9
443.121	11379.03
443.328	11004.25
443.534	11862.35
443.741	11477.33
443.948	11544.91
444.154	12271.94
444.361	12093.77
444.568	12263.75
444.774	12095.82
444.981	12411.2
445.187	12616
445.394	13308.21
445.6	13078.84
445.807	14483.75
446.013	13637.94
446.22	14129.45
446.426	14541.09
446.633	14580
446.839	15079.71
447.046	14833.95
447.252	15415.57
447.459	15345.94
447.665	15278.36
447.871	16120.07
448.078	16896.25
448.284	15829.26
448.491	16529.67
448.697	17250.55
448.903	17422.58
449.11	17553.65
449.316	17049.85
449.522	17651.95
449.728	17901.81
449.935	18045.16
450.141	18108.65
450.347	18536.68
450.553	17965.29
450.76	18229.48
450.966	18632.93
451.172	18358.5
451.378	18999.52
451.584	18708.71
451.791	19087.58
451.997	19085.53
452.203	19491.03
452.409	19480.79
452.615	19200.22
452.821	18643.17
453.027	18288.87
453.233	19468.5
453.44	18669.8
453.646	18825.44
453.852	18694.37
454.058	18901.22
454.264	18614.5
454.47	19044.57
454.676	18374.89
454.882	19411.16
455.088	17422.58
455.294	17682.67
455.5	18290.92
455.705	18182.38
455.911	17621.24
456.117	17344.76
456.323	17094.91
456.529	16105.74
456.735	17031.42
456.941	16310.54
457.147	16103.69
457.352	15479.06
457.558	15569.17
457.764	15477.01
457.97	15026.46
458.176	14676.26
458.381	14631.2
458.587	13971.75
458.793	14129.45
458.999	13222.2
459.204	14547.23
459.41	13850.92
459.616	13048.12
459.821	13007.16
460.027	13099.32
460.233	12505.41
460.438	11981.13
460.644	12325.19
460.85	11516.24
461.055	11661.65
461.261	11342.16
461.466	10611.04
461.672	10383.71
461.878	10991.96
462.083	10266.98
462.289	10086.76
462.494	9910.63
462.7	9668.97
462.905	9408.88
463.111	9601.39
463.316	9632.11
463.522	9372.02
463.727	9513.33
463.932	9519.47
464.138	9447.79
464.343	9472.37
464.549	9531.76
464.754	9423.22
464.959	9242.99
465.165	9410.93
465.37	8991.09
465.575	8817.02
465.781	8923.51
465.986	9113.97
466.191	8823.16
466.397	8800.63
466.602	8108.42
466.807	8503.68
467.012	8665.47
467.218	8561.02
467.423	8454.53
467.628	8358.27
467.833	8771.96
468.038	8558.97
468.244	8311.17
468.449	8526.21
468.654	8317.31
468.859	8335.74
469.064	8202.63
