Data from USB4F104151__79__12-54-43-338.txt Node

Date: Fri Mar 14 12:54:43 EDT 2025
User: louis
Spectrometer: USB4F10415
Trigger mode: 4
Integration Time (sec): 1.000000E-2
Scans to average: 1
Electric dark correction enabled: true
Nonlinearity correction enabled: false
Boxcar width: 0
XAxis mode: Wavelengths
Number of Pixels in Spectrum: 3648
>>>>>Begin Spectral Data<<<<<
178.204	-16.73
178.424	-16.73
178.644	-16.73
178.864	-69.97
179.084	26.28
179.304	-22.87
179.524	-2.39
179.744	-22.87
179.964	-12.63
180.184	32.43
180.404	-14.68
180.624	-22.87
180.844	-12.63
181.064	11.95
181.283	71.34
181.503	-0.34
181.723	-4.44
181.943	36.52
182.163	-4.44
182.383	-37.2
182.602	3.75
182.822	46.76
183.042	22.19
183.262	-8.53
183.482	38.57
183.701	-4.44
183.921	-2.39
184.141	-0.34
184.361	106.15
184.58	7.85
184.8	11.95
185.02	24.23
185.239	59.05
185.459	-31.06
185.679	48.81
185.898	28.33
186.118	7.85
186.338	-10.58
186.557	50.86
186.777	42.67
186.997	100.01
187.216	-53.59
187.436	34.47
187.655	34.47
187.875	-4.44
188.095	3.75
188.314	93.87
188.534	11.95
188.753	7.85
188.973	20.14
189.192	40.62
189.412	59.05
189.631	44.71
189.851	71.34
190.07	134.82
190.29	46.76
190.509	40.62
190.729	26.28
190.948	44.71
191.168	61.1
191.387	16.04
191.607	3.75
191.826	-53.59
192.045	46.76
192.265	44.71
192.484	-26.96
192.704	-20.82
192.923	-43.35
193.142	120.49
193.362	24.23
193.581	38.57
193.8	1.71
194.02	69.29
194.239	-33.11
194.458	18.09
194.678	28.33
194.897	-6.49
195.116	-16.73
195.335	-8.53
195.555	26.28
195.774	22.19
195.993	34.47
196.212	3.75
196.432	46.76
196.651	-14.68
196.87	42.67
197.089	26.28
197.308	71.34
197.528	81.58
197.747	13.99
197.966	24.23
198.185	34.47
198.404	65.19
198.623	87.72
198.842	-6.49
199.062	-10.58
199.281	16.04
199.5	36.52
199.719	7.85
199.938	22.19
200.157	73.39
200.376	-8.53
200.595	22.19
200.814	7.85
201.033	28.33
201.252	-33.11
201.471	-10.58
201.69	-0.34
201.909	36.52
202.128	-4.44
202.347	34.47
202.566	36.52
202.785	42.67
203.004	-8.53
203.223	73.39
203.442	106.15
203.661	48.81
203.879	-16.73
204.098	16.04
204.317	-39.25
204.536	59.05
204.755	71.34
204.974	63.15
205.193	16.04
205.411	93.87
205.63	24.23
205.849	-0.34
206.068	13.99
206.287	16.04
206.505	89.77
206.724	7.85
206.943	-29.01
207.162	1.71
207.381	54.95
207.599	83.63
207.818	-0.34
208.037	63.15
208.255	-63.83
208.474	44.71
208.693	42.67
208.911	-63.83
209.13	22.19
209.349	-12.63
209.567	38.57
209.786	69.29
210.005	73.39
210.223	50.86
210.442	9.9
210.661	81.58
210.879	-10.58
211.098	57
211.316	-6.49
211.535	30.38
211.753	52.91
211.972	42.67
212.191	61.1
212.409	38.57
212.628	52.91
212.846	-4.44
213.065	36.52
213.283	18.09
213.502	20.14
213.72	22.19
213.938	63.15
214.157	40.62
214.375	42.67
214.594	-6.49
214.812	50.86
215.031	57
215.249	63.15
215.467	30.38
215.686	28.33
215.904	59.05
216.122	95.91
216.341	87.72
216.559	28.33
216.778	40.62
216.996	-16.73
217.214	24.23
217.432	-12.63
217.651	18.09
217.869	22.19
218.087	87.72
218.306	54.95
218.524	24.23
218.742	-12.63
218.96	108.2
219.179	44.71
219.397	91.82
219.615	32.43
219.833	54.95
220.051	13.99
220.27	32.43
220.488	46.76
220.706	46.76
220.924	-26.96
221.142	28.33
221.36	83.63
221.578	9.9
221.796	-0.34
222.015	9.9
222.233	-12.63
222.451	30.38
222.669	-2.39
222.887	30.38
223.105	-2.39
223.323	-84.31
223.541	28.33
223.759	40.62
223.977	-35.16
224.195	-18.77
224.413	-10.58
224.631	46.76
224.849	42.67
225.067	73.39
225.285	122.54
225.503	44.71
225.721	-24.92
225.939	-43.35
226.157	34.47
226.375	89.77
226.592	28.33
226.81	34.47
227.028	-0.34
227.246	73.39
227.464	-0.34
227.682	7.85
227.9	3.75
228.117	81.58
228.335	34.47
228.553	-22.87
228.771	22.19
228.989	38.57
229.206	-33.11
229.424	48.81
229.642	-33.11
229.86	44.71
230.077	59.05
230.295	95.91
230.513	42.67
230.731	11.95
230.948	44.71
231.166	16.04
231.384	9.9
231.601	73.39
231.819	32.43
232.037	-18.77
232.254	-10.58
232.472	1.71
232.689	9.9
232.907	9.9
233.125	89.77
233.342	16.04
233.56	34.47
233.777	18.09
233.995	32.43
234.213	73.39
234.43	32.43
234.648	50.86
234.865	7.85
235.083	81.58
235.3	3.75
235.518	77.48
235.735	26.28
235.953	87.72
236.17	42.67
236.388	26.28
236.605	97.96
236.822	81.58
237.04	59.05
237.257	30.38
237.475	48.81
237.692	18.09
237.909	100.01
238.127	38.57
238.344	100.01
238.562	38.57
238.779	18.09
238.996	-6.49
239.214	71.34
239.431	44.71
239.648	30.38
239.865	18.09
240.083	34.47
240.3	34.47
240.517	20.14
240.735	36.52
240.952	48.81
241.169	57
241.386	69.29
241.603	59.05
241.821	24.23
242.038	9.9
242.255	30.38
242.472	-26.96
242.689	32.43
242.907	-10.58
243.124	-6.49
243.341	9.9
243.558	42.67
243.775	7.85
243.992	20.14
244.209	-12.63
244.426	110.25
244.643	63.15
244.86	-39.25
245.078	-33.11
245.295	54.95
245.512	11.95
245.729	5.8
245.946	34.47
246.163	83.63
246.38	-14.68
246.597	69.29
246.814	22.19
247.031	42.67
247.248	13.99
247.464	5.8
247.681	48.81
247.898	1.71
248.115	61.1
248.332	54.95
248.549	18.09
248.766	-12.63
248.983	-4.44
249.2	-2.39
249.417	48.81
249.633	67.24
249.85	28.33
250.067	24.23
250.284	36.52
250.501	30.38
250.717	44.71
250.934	-55.64
251.151	18.09
251.368	61.1
251.585	104.11
251.801	7.85
252.018	-2.39
252.235	28.33
252.451	71.34
252.668	13.99
252.885	18.09
253.102	32.43
253.318	57
253.535	48.81
253.752	26.28
253.968	22.19
254.185	83.63
254.401	16.04
254.618	36.52
254.835	38.57
255.051	54.95
255.268	36.52
255.484	95.91
255.701	18.09
255.917	32.43
256.134	11.95
256.351	73.39
256.567	34.47
256.784	11.95
257	40.62
257.217	46.76
257.433	22.19
257.65	81.58
257.866	138.92
258.082	9.9
258.299	-12.63
258.515	11.95
258.732	44.71
258.948	87.72
259.165	-4.44
259.381	28.33
259.597	-0.34
259.814	108.2
260.03	16.04
260.246	59.05
260.463	77.48
260.679	59.05
260.895	34.47
261.112	73.39
261.328	87.72
261.544	18.09
261.761	87.72
261.977	26.28
262.193	85.67
262.409	52.91
262.626	7.85
262.842	38.57
263.058	59.05
263.274	32.43
263.49	5.8
263.707	63.15
263.923	-4.44
264.139	24.23
264.355	40.62
264.571	-16.73
264.787	-0.34
265.004	32.43
265.22	28.33
265.436	73.39
265.652	63.15
265.868	-18.77
266.084	20.14
266.3	28.33
266.516	38.57
266.732	34.47
266.948	32.43
267.164	-24.92
267.38	71.34
267.596	-18.77
267.812	22.19
268.028	3.75
268.244	67.24
268.46	7.85
268.676	-8.53
268.892	77.48
269.108	30.38
269.324	20.14
269.54	48.81
269.756	9.9
269.972	52.91
270.188	48.81
270.403	18.09
270.619	50.86
270.835	38.57
271.051	20.14
271.267	-8.53
271.483	34.47
271.698	-20.82
271.914	28.33
272.13	67.24
272.346	1.71
272.562	63.15
272.777	24.23
272.993	-8.53
273.209	61.1
273.425	13.99
273.64	-41.3
273.856	1.71
274.072	16.04
274.287	95.91
274.503	18.09
274.719	28.33
274.934	63.15
275.15	-96.6
275.366	5.8
275.581	46.76
275.797	-22.87
276.012	-22.87
276.228	46.76
276.444	-45.4
276.659	7.85
276.875	20.14
277.09	75.43
277.306	85.67
277.521	13.99
277.737	11.95
277.952	38.57
278.168	-47.44
278.383	42.67
278.599	36.52
278.814	36.52
279.03	110.25
279.245	54.95
279.461	-16.73
279.676	-24.92
279.892	61.1
280.107	-51.54
280.322	-2.39
280.538	-22.87
280.753	85.67
280.969	75.43
281.184	50.86
281.399	67.24
281.615	73.39
281.83	-20.82
282.045	32.43
282.26	42.67
282.476	44.71
282.691	-10.58
282.906	-35.16
283.122	22.19
283.337	44.71
283.552	89.77
283.767	69.29
283.983	7.85
284.198	28.33
284.413	-0.34
284.628	-47.44
284.843	-12.63
285.058	-31.06
285.274	-24.92
285.489	-35.16
285.704	34.47
285.919	42.67
286.134	81.58
286.349	26.28
286.564	42.67
286.779	71.34
286.995	7.85
287.21	57
287.425	42.67
287.64	40.62
287.855	20.14
288.07	13.99
288.285	81.58
288.5	13.99
288.715	34.47
288.93	22.19
289.145	-2.39
289.36	-0.34
289.575	26.28
289.79	13.99
290.004	30.38
290.219	30.38
290.434	42.67
290.649	26.28
290.864	75.43
291.079	-10.58
291.294	7.85
291.509	48.81
291.724	13.99
291.938	-10.58
292.153	40.62
292.368	36.52
292.583	-14.68
292.798	50.86
293.012	1.71
293.227	40.62
293.442	40.62
293.657	30.38
293.871	65.19
294.086	-16.73
294.301	52.91
294.516	18.09
294.73	46.76
294.945	24.23
295.16	73.39
295.374	42.67
295.589	40.62
295.804	1.71
296.018	32.43
296.233	104.11
296.447	7.85
296.662	50.86
296.877	30.38
297.091	26.28
297.306	38.57
297.52	50.86
297.735	73.39
297.949	48.81
298.164	3.75
298.378	59.05
298.593	52.91
298.807	44.71
299.022	65.19
299.236	32.43
299.451	9.9
299.665	-2.39
299.88	3.75
300.094	54.95
300.309	38.57
300.523	-33.11
300.737	50.86
300.952	26.28
301.166	44.71
301.381	110.25
301.595	16.04
301.809	32.43
302.024	13.99
302.238	50.86
302.452	48.81
302.667	26.28
302.881	57
303.095	30.38
303.309	-6.49
303.524	-31.06
303.738	30.38
303.952	42.67
304.166	63.15
304.381	30.38
304.595	1.71
304.809	36.52
305.023	36.52
305.237	59.05
305.452	1.71
305.666	-2.39
305.88	104.11
306.094	106.15
306.308	24.23
306.522	20.14
306.736	28.33
306.95	40.62
307.164	30.38
307.379	-53.59
307.593	34.47
307.807	24.23
308.021	32.43
308.235	9.9
308.449	11.95
308.663	-10.58
308.877	-14.68
309.091	57
309.305	65.19
309.519	-33.11
309.733	63.15
309.947	-2.39
310.161	20.14
310.374	18.09
310.588	89.77
310.802	20.14
311.016	5.8
311.23	63.15
311.444	134.82
311.658	57
311.872	73.39
312.085	73.39
312.299	83.63
312.513	81.58
312.727	73.39
312.941	48.81
313.154	30.38
313.368	44.71
313.582	44.71
313.796	5.8
314.009	112.3
314.223	-0.34
314.437	126.63
314.651	46.76
314.864	83.63
315.078	-29.01
315.292	7.85
315.505	34.47
315.719	75.43
315.933	85.67
316.146	11.95
316.36	48.81
316.573	24.23
316.787	-26.96
317.001	93.87
317.214	32.43
317.428	67.24
317.641	24.23
317.855	11.95
318.068	54.95
318.282	59.05
318.495	79.53
318.709	30.38
318.922	-33.11
319.136	54.95
319.349	-6.49
319.563	34.47
319.776	30.38
319.99	-26.96
320.203	57
320.417	-10.58
320.63	-16.73
320.843	38.57
321.057	-39.25
321.27	48.81
321.483	24.23
321.697	63.15
321.91	-4.44
322.124	-12.63
322.337	52.91
322.55	54.95
322.763	5.8
322.977	7.85
323.19	54.95
323.403	54.95
323.617	-12.63
323.83	9.9
324.043	28.33
324.256	-12.63
324.469	48.81
324.683	46.76
324.896	54.95
325.109	-20.82
325.322	50.86
325.535	89.77
325.748	69.29
325.962	67.24
326.175	24.23
326.388	22.19
326.601	-2.39
326.814	63.15
327.027	97.96
327.24	11.95
327.453	57
327.666	67.24
327.879	26.28
328.092	95.91
328.305	26.28
328.518	32.43
328.731	50.86
328.944	38.57
329.157	38.57
329.37	-45.4
329.583	100.01
329.796	104.11
330.009	1.71
330.222	52.91
330.435	61.1
330.648	-2.39
330.861	32.43
331.073	73.39
331.286	61.1
331.499	18.09
331.712	-24.92
331.925	-53.59
332.138	5.8
332.35	-0.34
332.563	-2.39
332.776	91.82
332.989	22.19
333.202	13.99
333.414	85.67
333.627	79.53
333.84	59.05
334.053	9.9
334.265	22.19
334.478	-26.96
334.691	-4.44
334.903	40.62
335.116	40.62
335.329	79.53
335.541	52.91
335.754	-8.53
335.966	13.99
336.179	-31.06
336.392	-39.25
336.604	-10.58
336.817	-6.49
337.029	40.62
337.242	71.34
337.454	91.82
337.667	73.39
337.88	57
338.092	89.77
338.305	59.05
338.517	-14.68
338.729	54.95
338.942	83.63
339.154	18.09
339.367	28.33
339.579	7.85
339.792	75.43
340.004	24.23
340.217	-6.49
340.429	75.43
340.641	26.28
340.854	30.38
341.066	42.67
341.278	-14.68
341.491	71.34
341.703	13.99
341.915	-18.77
342.128	46.76
342.34	61.1
342.552	22.19
342.764	63.15
342.977	32.43
343.189	28.33
343.401	73.39
343.613	1.71
343.826	28.33
344.038	44.71
344.25	-6.49
344.462	73.39
344.674	-59.73
344.886	61.1
345.099	75.43
345.311	-8.53
345.523	57
345.735	102.06
345.947	32.43
346.159	38.57
346.371	-18.77
346.583	59.05
346.795	46.76
347.007	16.04
347.219	81.58
347.431	26.28
347.643	40.62
347.855	3.75
348.067	48.81
348.279	-43.35
348.491	1.71
348.703	93.87
348.915	20.14
349.127	22.19
349.339	61.1
349.551	7.85
349.763	22.19
349.975	46.76
350.187	30.38
350.399	-24.92
350.61	106.15
350.822	52.91
351.034	-22.87
351.246	71.34
351.458	13.99
351.669	95.91
351.881	63.15
352.093	28.33
352.305	83.63
352.517	54.95
352.728	18.09
352.94	16.04
353.152	24.23
353.363	30.38
353.575	-2.39
353.787	32.43
353.999	93.87
354.21	20.14
354.422	54.95
354.633	40.62
354.845	48.81
355.057	81.58
355.268	83.63
355.48	75.43
355.692	-6.49
355.903	34.47
356.115	30.38
356.326	-65.88
356.538	147.11
356.749	50.86
356.961	18.09
357.172	71.34
357.384	50.86
357.595	77.48
357.807	42.67
358.018	44.71
358.23	9.9
358.441	40.62
358.653	46.76
358.864	-24.92
359.075	54.95
359.287	71.34
359.498	81.58
359.709	36.52
359.921	36.52
360.132	40.62
360.344	-8.53
360.555	32.43
360.766	79.53
360.977	81.58
361.189	34.47
361.4	54.95
361.611	5.8
361.823	22.19
362.034	-16.73
362.245	-31.06
362.456	44.71
362.667	57
362.879	32.43
363.09	65.19
363.301	-10.58
363.512	-16.73
363.723	38.57
363.935	93.87
364.146	48.81
364.357	11.95
364.568	28.33
364.779	-4.44
364.99	48.81
365.201	5.8
365.412	40.62
365.623	-14.68
365.834	18.09
366.045	-22.87
366.256	-39.25
366.467	28.33
366.678	16.04
366.889	67.24
367.1	71.34
367.311	89.77
367.522	104.11
367.733	59.05
367.944	24.23
368.155	-8.53
368.366	81.58
368.577	83.63
368.788	-0.34
368.999	5.8
369.209	48.81
369.42	16.04
369.631	83.63
369.842	7.85
370.053	34.47
370.264	18.09
370.474	-6.49
370.685	36.52
370.896	77.48
371.107	42.67
371.317	-35.16
371.528	83.63
371.739	83.63
371.95	65.19
372.16	97.96
372.371	32.43
372.582	13.99
372.792	11.95
373.003	-18.77
373.214	38.57
373.424	36.52
373.635	44.71
373.846	-0.34
374.056	-18.77
374.267	-8.53
374.477	22.19
374.688	26.28
374.898	48.81
375.109	34.47
375.319	93.87
375.53	54.95
375.74	34.47
375.951	28.33
376.161	42.67
376.372	54.95
376.582	50.86
376.793	54.95
377.003	34.47
377.214	81.58
377.424	-8.53
377.635	50.86
377.845	77.48
378.055	11.95
378.266	30.38
378.476	87.72
378.686	50.86
378.897	108.2
379.107	87.72
379.317	28.33
379.528	52.91
379.738	59.05
379.948	110.25
380.158	63.15
380.369	65.19
380.579	63.15
380.789	67.24
380.999	75.43
381.21	18.09
381.42	140.97
381.63	57
381.84	18.09
382.05	48.81
382.261	24.23
382.471	-2.39
382.681	1.71
382.891	18.09
383.101	57
383.311	-31.06
383.521	75.43
383.731	46.76
383.941	50.86
384.151	136.87
384.361	91.82
384.571	50.86
384.781	18.09
384.991	71.34
385.201	71.34
385.411	26.28
385.621	26.28
385.831	13.99
386.041	7.85
386.251	1.71
386.461	71.34
386.671	102.06
386.881	114.34
387.091	20.14
387.301	38.57
387.511	11.95
387.72	44.71
387.93	3.75
388.14	38.57
388.35	44.71
388.56	40.62
388.769	9.9
388.979	79.53
389.189	48.81
389.399	104.11
389.609	-2.39
389.818	24.23
390.028	18.09
390.238	24.23
390.447	36.52
390.657	5.8
390.867	-10.58
391.076	54.95
391.286	93.87
391.496	-6.49
391.705	48.81
391.915	81.58
392.125	13.99
392.334	89.77
392.544	30.38
392.753	71.34
392.963	42.67
393.172	126.63
393.382	116.39
393.591	71.34
393.801	13.99
394.01	57
394.22	59.05
394.429	50.86
394.639	61.1
394.848	42.67
395.058	61.1
395.267	81.58
395.477	48.81
395.686	48.81
395.895	46.76
396.105	-49.49
396.314	91.82
396.524	-16.73
396.733	44.71
396.942	30.38
397.152	-0.34
397.361	67.24
397.57	52.91
397.78	44.71
397.989	71.34
398.198	42.67
398.407	57
398.617	112.3
398.826	118.44
399.035	50.86
399.244	71.34
399.453	138.92
399.663	104.11
399.872	145.06
400.081	48.81
400.29	59.05
400.499	67.24
400.708	50.86
400.917	52.91
401.127	91.82
401.336	5.8
401.545	59.05
401.754	57
401.963	13.99
402.172	-0.34
402.381	-0.34
402.59	54.95
402.799	71.34
403.008	91.82
403.217	83.63
403.426	126.63
403.635	36.52
403.844	71.34
404.053	67.24
404.262	52.91
404.471	120.49
404.68	71.34
404.888	79.53
405.097	73.39
405.306	93.87
405.515	71.34
405.724	132.78
405.933	75.43
406.142	175.78
406.35	44.71
406.559	161.45
406.768	114.34
406.977	93.87
407.185	93.87
407.394	108.2
407.603	149.16
407.812	138.92
408.02	161.45
408.229	122.54
408.438	120.49
408.646	165.54
408.855	100.01
409.064	97.96
409.272	91.82
409.481	145.06
409.69	147.11
409.898	126.63
410.107	155.3
410.315	179.88
410.524	171.69
410.733	188.07
410.941	278.18
411.15	280.23
411.358	159.4
411.567	216.74
411.775	216.74
411.984	220.84
412.192	239.27
412.401	198.31
412.609	261.8
412.818	286.37
413.026	333.48
413.234	349.86
413.443	235.18
413.651	296.61
413.86	274.09
414.068	292.52
414.276	353.96
414.485	345.77
414.693	310.95
414.901	253.61
415.11	425.64
415.318	392.87
415.526	380.58
415.734	437.92
415.943	411.3
416.151	487.08
416.359	499.36
416.567	409.25
416.776	505.51
416.984	480.93
417.192	505.51
417.4	607.91
417.608	552.61
417.817	556.71
418.025	609.95
418.233	638.62
418.441	560.8
418.649	655.01
418.857	679.58
419.065	681.63
419.273	671.39
419.481	710.3
419.689	765.6
419.897	788.13
420.105	767.65
420.313	835.23
420.521	839.33
420.729	796.32
420.937	941.72
421.145	1062.55
421.353	1033.88
421.561	982.68
421.769	1044.12
421.977	997.02
422.185	1058.46
422.393	1101.47
422.601	1263.26
422.809	1177.24
423.017	1123.99
423.224	1390.23
423.432	1242.78
423.64	1353.37
423.848	1431.19
424.056	1377.94
424.263	1472.15
424.471	1466
424.679	1545.88
424.887	1668.75
425.094	1695.38
425.302	1611.41
425.51	1760.91
425.718	1785.49
425.925	1906.32
426.133	1918.61
426.341	2035.34
426.548	2166.41
426.756	2043.53
426.964	2107.02
427.171	2244.23
427.379	2299.53
427.586	2295.43
427.794	2442.89
428.001	2471.56
428.209	2731.65
428.417	2545.28
428.624	2674.31
428.832	2731.65
429.039	2692.74
429.247	2713.22
429.454	2915.97
429.662	3112.57
429.869	2928.25
430.076	3030.65
430.284	3012.22
430.491	3223.16
430.699	3581.56
430.906	3378.81
431.114	3501.69
431.321	3722.87
431.528	3604.08
431.736	3962.48
431.943	4025.97
432.15	3835.5
432.358	4062.83
432.565	4181.61
432.772	4130.41
432.979	4472.42
433.187	4552.29
433.394	4464.23
433.601	4914.78
433.808	4796
434.016	4798.05
434.223	5011.04
434.43	5377.62
434.637	5232.22
434.844	5545.56
435.052	5754.45
435.259	5641.81
435.466	5764.69
435.673	5572.18
435.88	6018.64
436.087	6190.67
436.294	6186.57
436.501	6231.63
436.708	6264.4
436.915	6780.48
437.122	6796.87
437.329	6753.86
437.537	6950.46
437.743	7138.88
437.95	7194.17
438.157	7501.37
438.364	7704.12
438.571	7718.45
438.778	7667.25
438.985	8492.59
439.192	8087.09
439.399	8390.19
439.606	8252.97
439.813	8797.73
440.02	9041.44
440.227	8986.15
440.433	8873.51
440.64	9225.76
440.847	9051.68
441.054	9582.1
441.261	10042.9
441.467	9952.79
441.674	10202.64
441.881	10485.26
442.088	10544.65
442.294	10438.16
442.501	10688.01
442.708	10810.89
442.914	11331.07
443.121	11757.05
443.328	11322.88
443.534	12197.36
443.741	11990.52
443.948	11582.97
444.154	12875.24
444.361	12678.63
444.568	12768.74
444.774	12785.13
444.981	12967.4
445.187	13245.92
445.394	13807.06
445.6	13559.26
445.807	14966.21
446.013	14435.79
446.22	14466.51
446.426	15099.33
446.633	15332.8
446.839	16090.55
447.046	15283.65
447.252	16068.02
447.459	16125.36
447.665	16041.4
447.871	16702.89
448.078	17468.83
448.284	16954.79
448.491	16987.56
448.697	17675.68
448.903	18197.91
449.11	18103.7
449.316	17847.71
449.522	18150.81
449.728	18613.65
449.935	18779.53
450.141	19117.45
450.347	19225.99
450.553	18589.07
450.76	19000.71
450.966	19721.6
451.172	19613.06
451.378	20065.66
451.584	19400.07
451.791	19881.34
451.997	20051.32
452.203	20340.08
452.409	20571.5
452.615	20346.23
452.821	19438.98
453.027	19322.24
453.233	20292.98
453.44	19305.86
453.646	19645.82
453.852	19907.96
454.058	20215.16
454.264	19776.89
454.47	19744.13
454.676	19400.07
454.882	20063.61
455.088	18462.1
455.294	18587.02
455.5	18875.79
455.705	18875.79
455.911	18384.27
456.117	18017.69
456.323	17802.65
456.529	17055.14
456.735	17522.08
456.941	17204.64
457.147	16854.44
457.352	16215.48
457.558	16389.55
457.764	16209.33
457.97	15637.95
458.176	15435.2
458.381	15478.21
458.587	14597.58
458.793	14751.18
458.999	14028.24
459.204	14996.93
459.41	14640.59
459.616	13733.34
459.821	13637.08
460.027	13829.59
460.233	13344.22
460.438	12531.18
460.644	12647.91
460.85	12164.59
461.055	12019.19
461.261	12248.56
461.466	11083.27
461.672	10921.48
461.878	11290.11
462.083	10601.99
462.289	10309.13
462.494	10241.55
462.7	10124.82
462.905	9926.16
463.111	10112.53
463.316	10092.05
463.522	9803.29
463.727	10139.15
463.932	9948.69
464.138	9696.79
464.343	9838.1
464.549	9549.34
464.754	9911.83
464.959	9745.94
465.165	9801.24
465.37	9405.98
465.575	9147.94
465.781	9397.79
465.986	9510.43
466.191	9387.55
466.397	9090.59
466.602	8484.39
466.807	8926.75
467.012	8986.15
467.218	8793.64
467.423	8717.86
467.628	8793.64
467.833	9178.65
468.038	8728.1
468.244	8580.65
468.449	8861.22
468.654	8744.49
468.859	8613.42
469.064	8615.46
469.269	8250.92
469.474	8101.42
