Data from USB4F104151__1__12-53-03-810.txt Node

Date: Fri Mar 14 12:53:03 EDT 2025
User: louis
Spectrometer: USB4F10415
Trigger mode: 4
Integration Time (sec): 1.000000E-2
Scans to average: 1
Electric dark correction enabled: true
Nonlinearity correction enabled: false
Boxcar width: 0
XAxis mode: Wavelengths
Number of Pixels in Spectrum: 3648
>>>>>Begin Spectral Data<<<<<
178.204	-79.53
178.424	-79.53
178.644	-79.53
178.864	-69.29
179.084	-52.91
179.304	0.34
179.524	-13.99
179.744	-40.62
179.964	16.73
180.184	-7.85
180.404	74.07
180.624	-26.28
180.844	-7.85
181.064	-22.19
181.283	-7.85
181.503	51.54
181.723	-16.04
181.943	8.53
182.163	51.54
182.383	-13.99
182.602	0.34
182.822	72.02
183.042	24.92
183.262	29.01
183.482	-11.95
183.701	22.87
183.921	-28.33
184.141	-67.24
184.361	37.2
184.58	14.68
184.8	-5.8
185.02	-13.99
185.239	43.35
185.459	20.82
185.679	4.44
185.898	-16.04
186.118	45.4
186.338	33.11
186.557	12.63
186.777	-32.43
186.997	24.92
187.216	29.01
187.436	20.82
187.655	47.44
187.875	31.06
188.095	2.39
188.314	61.78
188.534	74.07
188.753	0.34
188.973	4.44
189.192	63.83
189.412	39.25
189.631	18.77
189.851	59.73
190.07	-30.38
190.29	-71.34
190.509	80.21
190.729	22.87
190.948	-13.99
191.168	69.97
191.387	31.06
191.607	-16.04
191.826	18.77
192.045	45.4
192.265	24.92
192.484	-11.95
192.704	18.77
192.923	92.5
193.142	117.08
193.362	2.39
193.581	-11.95
193.8	-20.14
194.02	33.11
194.239	-24.23
194.458	-1.71
194.678	61.78
194.897	24.92
195.116	4.44
195.335	0.34
195.555	-1.71
195.774	24.92
195.993	-13.99
196.212	-9.9
196.432	65.88
196.651	18.77
196.87	86.36
197.089	86.36
197.308	12.63
197.528	18.77
197.747	-9.9
197.966	45.4
198.185	45.4
198.404	-46.76
198.623	-24.23
198.842	43.35
199.062	63.83
199.281	35.16
199.5	24.92
199.719	31.06
199.938	2.39
200.157	4.44
200.376	24.92
200.595	-5.8
200.814	-3.75
201.033	18.77
201.252	-28.33
201.471	10.58
201.69	0.34
201.909	-26.28
202.128	6.49
202.347	-9.9
202.566	16.73
202.785	33.11
203.004	96.6
203.223	88.4
203.442	55.64
203.661	26.96
203.879	78.16
204.098	65.88
204.317	24.92
204.536	72.02
204.755	20.82
204.974	-24.23
205.193	18.77
205.411	-28.33
205.63	35.16
205.849	76.12
206.068	39.25
206.287	22.87
206.505	-46.76
206.724	12.63
206.943	14.68
207.162	18.77
207.381	8.53
207.599	51.54
207.818	35.16
208.037	-9.9
208.255	33.11
208.474	100.69
208.693	51.54
208.911	-7.85
209.13	22.87
209.349	18.77
209.567	-5.8
209.786	53.59
210.005	4.44
210.223	6.49
210.442	-32.43
210.661	22.87
210.879	35.16
211.098	-24.23
211.316	2.39
211.535	49.49
211.753	12.63
211.972	35.16
212.191	-24.23
212.409	-34.47
212.628	53.59
212.846	22.87
213.065	43.35
213.283	-7.85
213.502	-5.8
213.72	-36.52
213.938	-7.85
214.157	-65.19
214.375	-1.71
214.594	16.73
214.812	57.68
215.031	4.44
215.249	-44.71
215.467	4.44
215.686	-63.15
215.904	-36.52
216.122	24.92
216.341	-46.76
216.559	39.25
216.778	119.12
216.996	22.87
217.214	-42.67
217.432	10.58
217.651	2.39
217.869	-44.71
218.087	74.07
218.306	-38.57
218.524	6.49
218.742	-1.71
218.96	2.39
219.179	-65.19
219.397	59.73
219.615	82.26
219.833	18.77
220.051	-3.75
220.27	4.44
220.488	22.87
220.706	-38.57
220.924	12.63
221.142	33.11
221.36	43.35
221.578	-26.28
221.796	0.34
222.015	47.44
222.233	-24.23
222.451	-11.95
222.669	39.25
222.887	65.88
223.105	-63.15
223.323	8.53
223.541	8.53
223.759	49.49
223.977	-5.8
224.195	6.49
224.413	-11.95
224.631	-63.15
224.849	-22.19
225.067	-5.8
225.285	67.92
225.503	37.2
225.721	-5.8
225.939	-87.72
226.157	-13.99
226.375	53.59
226.592	74.07
226.81	55.64
227.028	-18.09
227.246	47.44
227.464	22.87
227.682	82.26
227.9	8.53
228.117	26.96
228.335	0.34
228.553	-3.75
228.771	-9.9
228.989	2.39
229.206	-57
229.424	-3.75
229.642	-50.86
229.86	24.92
230.077	6.49
230.295	0.34
230.513	63.83
230.731	24.92
230.948	8.53
231.166	14.68
231.384	-40.62
231.601	-7.85
231.819	18.77
232.037	35.16
232.254	2.39
232.472	-18.09
232.689	4.44
232.907	20.82
233.125	29.01
233.342	-22.19
233.56	14.68
233.777	24.92
233.995	-5.8
234.213	29.01
234.43	-3.75
234.648	-63.15
234.865	33.11
235.083	0.34
235.3	10.58
235.518	53.59
235.735	22.87
235.953	55.64
236.17	-26.28
236.388	31.06
236.605	41.3
236.822	29.01
237.04	20.82
237.257	108.88
237.475	-38.57
237.692	45.4
237.909	43.35
238.127	47.44
238.344	55.64
238.562	-32.43
238.779	6.49
238.996	8.53
239.214	-13.99
239.431	8.53
239.648	16.73
239.865	-40.62
240.083	14.68
240.3	0.34
240.517	24.92
240.735	67.92
240.952	37.2
241.169	12.63
241.386	-11.95
241.603	31.06
241.821	-48.81
242.038	51.54
242.255	-28.33
242.472	24.92
242.689	-7.85
242.907	90.45
243.124	8.53
243.341	6.49
243.558	12.63
243.775	74.07
243.992	63.83
244.209	92.5
244.426	-67.24
244.643	-36.52
244.86	29.01
245.078	90.45
245.295	2.39
245.512	47.44
245.729	-59.05
245.946	-46.76
246.163	26.96
246.38	10.58
246.597	-57
246.814	-50.86
247.031	8.53
247.248	31.06
247.464	67.92
247.681	76.12
247.898	-18.09
248.115	2.39
248.332	6.49
248.549	33.11
248.766	8.53
248.983	18.77
249.2	-40.62
249.417	59.73
249.633	-22.19
249.85	-7.85
250.067	47.44
250.284	-38.57
250.501	69.97
250.717	76.12
250.934	47.44
251.151	-7.85
251.368	0.34
251.585	-54.95
251.801	-32.43
252.018	41.3
252.235	18.77
252.451	18.77
252.668	39.25
252.885	-5.8
253.102	59.73
253.318	45.4
253.535	-48.81
253.752	22.87
253.968	55.64
254.185	45.4
254.401	43.35
254.618	-13.99
254.835	2.39
255.051	16.73
255.268	26.96
255.484	14.68
255.701	10.58
255.917	78.16
256.134	-52.91
256.351	10.58
256.567	4.44
256.784	100.69
257	29.01
257.217	20.82
257.433	-11.95
257.65	43.35
257.866	-7.85
258.082	10.58
258.299	29.01
258.515	61.78
258.732	10.58
258.948	45.4
259.165	51.54
259.381	10.58
259.597	39.25
259.814	29.01
260.03	-71.34
260.246	-16.04
260.463	69.97
260.679	76.12
260.895	67.92
261.112	53.59
261.328	67.92
261.544	26.96
261.761	8.53
261.977	-18.09
262.193	-28.33
262.409	67.92
262.626	-28.33
262.842	-18.09
263.058	-54.95
263.274	-20.14
263.49	-54.95
263.707	69.97
263.923	35.16
264.139	31.06
264.355	-26.28
264.571	-3.75
264.787	53.59
265.004	18.77
265.22	24.92
265.436	0.34
265.652	-24.23
265.868	2.39
266.084	-7.85
266.3	86.36
266.516	-1.71
266.732	8.53
266.948	22.87
267.164	39.25
267.38	20.82
267.596	-7.85
267.812	-13.99
268.028	59.73
268.244	39.25
268.46	0.34
268.676	72.02
268.892	6.49
269.108	-30.38
269.324	22.87
269.54	84.31
269.756	12.63
269.972	-30.38
270.188	59.73
270.403	-3.75
270.619	-11.95
270.835	-7.85
271.051	63.83
271.267	18.77
271.483	43.35
271.698	-24.23
271.914	-5.8
272.13	65.88
272.346	37.2
272.562	94.55
272.777	153.94
272.993	49.49
273.209	16.73
273.425	67.92
273.64	4.44
273.856	18.77
274.072	4.44
274.287	49.49
274.503	49.49
274.719	22.87
274.934	14.68
275.15	22.87
275.366	82.26
275.581	-73.39
275.797	16.73
276.012	41.3
276.228	55.64
276.444	-24.23
276.659	12.63
276.875	22.87
277.09	-16.04
277.306	24.92
277.521	2.39
277.737	18.77
277.952	-9.9
278.168	26.96
278.383	26.96
278.599	12.63
278.814	47.44
279.03	18.77
279.245	49.49
279.461	4.44
279.676	26.96
279.892	-3.75
280.107	104.79
280.322	2.39
280.538	24.92
280.753	29.01
280.969	69.97
281.184	92.5
281.399	-7.85
281.615	39.25
281.83	45.4
282.045	-5.8
282.26	39.25
282.476	10.58
282.691	-18.09
282.906	65.88
283.122	61.78
283.337	-65.19
283.552	119.12
283.767	65.88
283.983	0.34
284.198	6.49
284.413	51.54
284.628	33.11
284.843	16.73
285.058	41.3
285.274	-18.09
285.489	-32.43
285.704	18.77
285.919	10.58
286.134	6.49
286.349	12.63
286.564	10.58
286.779	59.73
286.995	88.4
287.21	-52.91
287.425	35.16
287.64	59.73
287.855	-5.8
288.07	-13.99
288.285	26.96
288.5	6.49
288.715	-30.38
288.93	-46.76
289.145	59.73
289.36	-28.33
289.575	39.25
289.79	-13.99
290.004	35.16
290.219	115.03
290.434	47.44
290.649	12.63
290.864	-46.76
291.079	49.49
291.294	47.44
291.509	106.84
291.724	53.59
291.938	47.44
292.153	53.59
292.368	8.53
292.583	2.39
292.798	47.44
293.012	16.73
293.227	-11.95
293.442	53.59
293.657	65.88
293.871	41.3
294.086	59.73
294.301	110.93
294.516	39.25
294.73	41.3
294.945	31.06
295.16	43.35
295.374	8.53
295.589	57.68
295.804	63.83
296.018	2.39
296.233	18.77
296.447	12.63
296.662	18.77
296.877	-26.28
297.091	-22.19
297.306	18.77
297.52	10.58
297.735	-9.9
297.949	35.16
298.164	49.49
298.378	29.01
298.593	45.4
298.807	18.77
299.022	-16.04
299.236	43.35
299.451	37.2
299.665	8.53
299.88	45.4
300.094	-11.95
300.309	26.96
300.523	37.2
300.737	-5.8
300.952	29.01
301.166	61.78
301.381	-46.76
301.595	-5.8
301.809	-50.86
302.024	78.16
302.238	10.58
302.452	-20.14
302.667	33.11
302.881	24.92
303.095	49.49
303.309	61.78
303.524	33.11
303.738	49.49
303.952	49.49
304.166	33.11
304.381	94.55
304.595	84.31
304.809	67.92
305.023	41.3
305.237	-3.75
305.452	-28.33
305.666	31.06
305.88	37.2
306.094	-16.04
306.308	31.06
306.522	33.11
306.736	2.39
306.95	26.96
307.164	-28.33
307.379	24.92
307.593	8.53
307.807	0.34
308.021	-9.9
308.235	115.03
308.449	18.77
308.663	53.59
308.877	-40.62
309.091	-20.14
309.305	10.58
309.519	43.35
309.733	59.73
309.947	2.39
310.161	18.77
310.374	2.39
310.588	49.49
310.802	-11.95
311.016	41.3
311.23	31.06
311.444	24.92
311.658	51.54
311.872	61.78
312.085	12.63
312.299	-11.95
312.513	45.4
312.727	20.82
312.941	0.34
313.154	78.16
313.368	26.96
313.582	86.36
313.796	0.34
314.009	57.68
314.223	74.07
314.437	84.31
314.651	6.49
314.864	-26.28
315.078	16.73
315.292	59.73
315.505	61.78
315.719	47.44
315.933	37.2
316.146	-32.43
316.36	-20.14
316.573	57.68
316.787	33.11
317.001	49.49
317.214	10.58
317.428	18.77
317.641	-26.28
317.855	0.34
318.068	-95.91
318.282	26.96
318.495	88.4
318.709	57.68
318.922	-20.14
319.136	16.73
319.349	72.02
319.563	82.26
319.776	18.77
319.99	-67.24
320.203	74.07
320.417	8.53
320.63	90.45
320.843	4.44
321.057	16.73
321.27	69.97
321.483	88.4
321.697	31.06
321.91	37.2
322.124	149.84
322.337	-1.71
322.55	47.44
322.763	-18.09
322.977	59.73
323.19	8.53
323.403	-32.43
323.617	12.63
323.83	49.49
324.043	18.77
324.256	33.11
324.469	-11.95
324.683	59.73
324.896	22.87
325.109	26.96
325.322	-38.57
325.535	-38.57
325.748	10.58
325.962	61.78
326.175	2.39
326.388	45.4
326.601	49.49
326.814	65.88
327.027	-18.09
327.24	80.21
327.453	14.68
327.666	35.16
327.879	8.53
328.092	41.3
328.305	37.2
328.518	96.6
328.731	-30.38
328.944	41.3
329.157	26.96
329.37	20.82
329.583	47.44
329.796	88.4
330.009	18.77
330.222	33.11
330.435	4.44
330.648	8.53
330.861	33.11
331.073	57.68
331.286	14.68
331.499	29.01
331.712	51.54
331.925	-5.8
332.138	-28.33
332.35	4.44
332.563	104.79
332.776	37.2
332.989	2.39
333.202	6.49
333.414	63.83
333.627	35.16
333.84	-22.19
334.053	78.16
334.265	51.54
334.478	12.63
334.691	65.88
334.903	-9.9
335.116	88.4
335.329	57.68
335.541	-1.71
335.754	74.07
335.966	47.44
336.179	39.25
336.392	-36.52
336.604	41.3
336.817	51.54
337.029	63.83
337.242	51.54
337.454	51.54
337.667	43.35
337.88	92.5
338.092	51.54
338.305	80.21
338.517	49.49
338.729	-11.95
338.942	41.3
339.154	63.83
339.367	63.83
339.579	14.68
339.792	96.6
340.004	8.53
340.217	80.21
340.429	10.58
340.641	-7.85
340.854	26.96
341.066	12.63
341.278	18.77
341.491	39.25
341.703	-11.95
341.915	2.39
342.128	8.53
342.34	20.82
342.552	20.82
342.764	47.44
342.977	45.4
343.189	0.34
343.401	18.77
343.613	-26.28
343.826	41.3
344.038	-13.99
344.25	29.01
344.462	59.73
344.674	-32.43
344.886	-3.75
345.099	47.44
345.311	49.49
345.523	69.97
345.735	37.2
345.947	24.92
346.159	59.73
346.371	12.63
346.583	47.44
346.795	-61.1
347.007	29.01
347.219	18.77
347.431	45.4
347.643	-9.9
347.855	12.63
348.067	74.07
348.279	16.73
348.491	24.92
348.703	35.16
348.915	80.21
349.127	39.25
349.339	29.01
349.551	16.73
349.763	10.58
349.975	65.88
350.187	47.44
350.399	57.68
350.61	53.59
350.822	33.11
351.034	-16.04
351.246	158.03
351.458	98.64
351.669	31.06
351.881	29.01
352.093	35.16
352.305	43.35
352.517	92.5
352.728	-3.75
352.94	41.3
353.152	84.31
353.363	37.2
353.575	-57
353.787	96.6
353.999	35.16
354.21	6.49
354.422	8.53
354.633	-24.23
354.845	-13.99
355.057	139.6
355.268	-38.57
355.48	41.3
355.692	8.53
355.903	69.97
356.115	74.07
356.326	0.34
356.538	72.02
356.749	41.3
356.961	51.54
357.172	45.4
357.384	65.88
357.595	16.73
357.807	41.3
358.018	24.92
358.23	18.77
358.441	39.25
358.653	47.44
358.864	47.44
359.075	35.16
359.287	57.68
359.498	-13.99
359.709	61.78
359.921	20.82
360.132	-48.81
360.344	29.01
360.555	8.53
360.766	135.51
360.977	14.68
361.189	63.83
361.4	102.74
361.611	20.82
361.823	24.92
362.034	45.4
362.245	57.68
362.456	8.53
362.667	121.17
362.879	16.73
363.09	67.92
363.301	49.49
363.512	14.68
363.723	-3.75
363.935	88.4
364.146	86.36
364.357	51.54
364.568	63.83
364.779	90.45
364.99	-1.71
365.201	57.68
365.412	49.49
365.623	53.59
365.834	45.4
366.045	45.4
366.256	22.87
366.467	8.53
366.678	37.2
366.889	41.3
367.1	-32.43
367.311	51.54
367.522	49.49
367.733	92.5
367.944	72.02
368.155	-7.85
368.366	16.73
368.577	18.77
368.788	80.21
368.999	88.4
369.209	31.06
369.42	72.02
369.631	49.49
369.842	94.55
370.053	35.16
370.264	69.97
370.474	37.2
370.685	-24.23
370.896	76.12
371.107	43.35
371.317	47.44
371.528	49.49
371.739	47.44
371.95	4.44
372.16	26.96
372.371	47.44
372.582	29.01
372.792	-13.99
373.003	20.82
373.214	29.01
373.424	18.77
373.635	55.64
373.846	166.23
374.056	63.83
374.267	65.88
374.477	-40.62
374.688	49.49
374.898	39.25
375.109	12.63
375.319	57.68
375.53	49.49
375.74	41.3
375.951	16.73
376.161	74.07
376.372	67.92
376.582	127.32
376.793	41.3
377.003	45.4
377.214	47.44
377.424	47.44
377.635	86.36
377.845	22.87
378.055	51.54
378.266	39.25
378.476	24.92
378.686	-16.04
378.897	35.16
379.107	10.58
379.317	86.36
379.528	47.44
379.738	69.97
379.948	63.83
380.158	31.06
380.369	41.3
380.579	51.54
380.789	35.16
380.999	35.16
381.21	47.44
381.42	16.73
381.63	24.92
381.84	51.54
382.05	-22.19
382.261	8.53
382.471	78.16
382.681	106.84
382.891	84.31
383.101	24.92
383.311	72.02
383.521	67.92
383.731	59.73
383.941	61.78
384.151	84.31
384.361	80.21
384.571	53.59
384.781	16.73
384.991	125.27
385.201	26.96
385.411	86.36
385.621	65.88
385.831	74.07
386.041	0.34
386.251	45.4
386.461	39.25
386.671	6.49
386.881	55.64
387.091	102.74
387.301	145.75
387.511	-3.75
387.72	57.68
387.93	16.73
388.14	24.92
388.35	31.06
388.56	51.54
388.769	92.5
388.979	59.73
389.189	69.97
389.399	74.07
389.609	45.4
389.818	45.4
390.028	-26.28
390.238	61.78
390.447	-32.43
390.657	90.45
390.867	84.31
391.076	47.44
391.286	16.73
391.496	43.35
391.705	61.78
391.915	53.59
392.125	57.68
392.334	172.37
392.544	37.2
392.753	20.82
392.963	45.4
393.172	12.63
393.382	98.64
393.591	39.25
393.801	63.83
394.01	39.25
394.22	74.07
394.429	76.12
394.639	92.5
394.848	80.21
395.058	-24.23
395.267	49.49
395.477	63.83
395.686	49.49
395.895	82.26
396.105	82.26
396.314	125.27
396.524	74.07
396.733	4.44
396.942	45.4
397.152	78.16
397.361	76.12
397.57	55.64
397.78	92.5
397.989	86.36
398.198	82.26
398.407	102.74
398.617	131.41
398.826	31.06
399.035	4.44
399.244	100.69
399.453	80.21
399.663	102.74
399.872	63.83
400.081	61.78
400.29	74.07
400.499	74.07
400.708	82.26
400.917	47.44
401.127	119.12
401.336	78.16
401.545	127.32
401.754	117.08
401.963	96.6
402.172	76.12
402.381	88.4
402.59	166.23
402.799	76.12
403.008	43.35
403.217	67.92
403.426	166.23
403.635	137.56
403.844	82.26
404.053	57.68
404.262	94.55
404.471	88.4
404.68	141.65
404.888	106.84
405.097	129.36
405.306	143.7
405.515	123.22
405.724	100.69
405.933	108.88
406.142	155.99
406.35	119.12
406.559	92.5
406.768	141.65
406.977	112.98
407.185	135.51
407.394	201.04
407.603	127.32
407.812	127.32
408.02	143.7
408.229	151.89
408.438	172.37
408.646	141.65
408.855	153.94
409.064	178.51
409.272	229.71
409.481	235.86
409.69	207.19
409.898	186.71
410.107	145.75
410.315	231.76
410.524	205.14
410.733	287.06
410.941	231.76
411.15	295.25
411.358	207.19
411.567	280.91
411.775	252.24
411.984	244.05
412.192	297.3
412.401	358.74
412.609	293.2
412.818	379.22
413.026	248.15
413.234	391.5
413.443	428.37
413.651	360.78
413.86	387.41
414.068	477.52
414.276	397.65
414.485	471.37
414.693	323.92
414.901	436.56
415.11	397.65
415.318	534.86
415.526	555.34
415.734	502.09
415.943	543.05
416.151	536.91
416.359	676.17
416.567	647.5
416.776	649.55
416.984	661.84
417.192	678.22
417.4	713.03
417.608	678.22
417.817	745.8
418.025	727.37
418.233	749.9
418.441	790.86
418.649	770.38
418.857	858.44
419.065	856.39
419.273	919.88
419.481	975.17
419.689	1024.33
419.897	1005.89
420.105	1016.13
420.313	1106.24
420.521	1112.39
420.729	1106.24
420.937	1255.75
421.145	1091.91
421.353	1255.75
421.561	1220.93
421.769	1413.44
421.977	1380.67
422.185	1308.99
422.393	1440.06
422.601	1564.99
422.809	1556.8
423.017	1622.33
423.224	1597.76
423.432	1702.2
423.64	1704.25
423.848	1829.18
424.056	1868.09
424.263	1929.53
424.471	1982.78
424.679	1878.33
424.887	2079.03
425.094	2185.52
425.302	2126.13
425.51	2271.54
425.718	2283.83
425.925	2380.08
426.133	2533.68
426.341	2535.73
426.548	2705.71
426.756	2713.9
426.964	2668.84
427.171	2877.74
427.379	2930.98
427.586	2980.14
427.794	3049.77
428.001	3211.56
428.209	3287.33
428.417	3273
428.624	3582.24
428.832	3553.57
429.039	3586.33
429.247	3457.31
429.454	3903.77
429.662	4030.74
429.869	3797.28
430.076	4161.81
430.284	4026.65
430.491	4387.09
430.699	4385.04
430.906	4395.28
431.114	4477.2
431.321	4663.57
431.528	4821.26
431.736	4950.28
431.943	5210.37
432.15	5024.01
432.358	5202.18
432.565	5597.44
432.772	5497.09
432.979	5810.43
433.187	5871.87
433.394	5804.28
433.601	6433.01
433.808	6414.58
434.016	6437.11
434.223	6547.7
434.43	6977.77
434.637	6865.13
434.844	7473.38
435.052	7526.63
435.259	7534.82
435.466	7469.28
435.673	7340.26
435.88	7858.4
436.087	8290.52
436.294	8143.07
436.501	8116.44
436.708	8321.24
436.915	8798.42
437.122	9072.84
437.329	8962.25
437.537	9240.78
437.743	9439.43
437.95	9169.1
438.157	9871.55
438.364	10119.35
438.571	10043.58
438.778	10207.42
438.985	11118.76
439.192	10608.82
439.399	11040.94
439.606	10903.73
439.813	11577.51
440.02	11960.48
440.227	12126.36
440.433	11956.38
440.64	12114.08
440.847	11874.46
441.054	12247.19
441.261	13117.58
441.467	12976.27
441.674	13199.5
441.881	13656.2
442.088	13547.65
442.294	13521.03
442.501	13721.73
442.708	14499.96
442.914	14737.52
443.121	15388.78
443.328	15218.8
443.534	16367.71
443.741	15521.9
443.948	15591.53
444.154	16851.03
444.361	16580.7
444.568	16568.41
444.774	16699.48
444.981	16986.19
445.187	17518.67
445.394	17969.22
445.6	17829.96
445.807	19351.6
446.013	18894.9
446.22	19089.46
446.426	19816.49
446.633	19859.49
446.839	20721.69
447.046	19925.03
447.252	21016.6
447.459	20869.14
447.665	21028.88
447.871	21979.14
448.078	22831.1
448.284	21553.16
448.491	22290.43
448.697	22986.74
448.903	23414.77
449.11	23724.01
449.316	23117.81
449.522	23543.79
449.728	24442.85
449.935	24657.89
450.141	24506.34
450.347	25083.86
450.553	24166.37
450.76	24688.6
450.966	25518.03
451.172	25067.48
451.378	25812.94
451.584	25259.99
451.791	25817.04
451.997	25841.61
452.203	26292.16
452.409	26148.81
452.615	26451.91
452.821	25200.6
453.027	25120.73
453.233	26296.26
453.44	25145.3
453.646	25704.4
453.852	25573.33
454.058	26261.44
454.264	25589.71
454.47	26056.65
454.676	25167.83
454.882	26236.87
455.088	23994.34
455.294	24178.66
455.5	24567.77
455.705	24866.78
455.911	23807.98
456.117	23474.16
456.323	23085.05
456.529	21876.74
456.735	22917.11
456.941	22366.21
457.147	22034.44
457.352	21061.65
457.558	20895.77
457.764	21190.67
457.97	20383.77
458.176	20224.03
458.381	20219.94
458.587	19267.63
458.793	19443.76
458.999	18276.41
459.204	19558.44
459.41	19028.02
459.616	17637.45
459.821	17989.7
460.027	17662.02
460.233	17494.09
460.438	16687.19
460.644	16830.55
460.85	16109.66
461.055	15612.01
461.261	15777.89
461.466	14577.78
461.672	14229.63
461.878	15190.13
462.083	14233.72
462.289	14157.95
462.494	13844.61
462.7	13260.94
462.905	12863.63
463.111	13478.02
463.316	13451.4
463.522	12992.66
463.727	13181.07
463.932	13023.37
464.138	12898.45
464.343	13011.09
464.549	12642.45
464.754	13113.49
464.959	12826.77
465.165	13099.15
465.37	12347.54
465.575	12028.06
465.781	12421.27
465.986	12789.91
466.191	12329.11
466.397	11933.86
466.602	11352.23
466.807	11940
467.012	11944.1
467.218	12023.97
467.423	11626.66
467.628	11583.65
467.833	12388.5
468.038	11731.11
468.244	11634.85
468.449	11880.61
468.654	11630.76
468.859	11534.5
