Data from USB4F104151__61__12-54-09-203.txt Node

Date: Fri Mar 14 12:54:09 EDT 2025
User: louis
Spectrometer: USB4F10415
Trigger mode: 4
Integration Time (sec): 1.000000E-2
Scans to average: 1
Electric dark correction enabled: true
Nonlinearity correction enabled: false
Boxcar width: 0
XAxis mode: Wavelengths
Number of Pixels in Spectrum: 3648
>>>>>Begin Spectral Data<<<<<
178.204	-103.08
178.424	-103.08
178.644	-103.08
178.864	-64.17
179.084	-127.66
179.304	27.99
179.524	-19.11
179.744	-31.4
179.964	36.18
180.184	-55.98
180.404	-12.97
180.624	11.61
180.844	27.99
181.064	21.85
181.283	-19.11
181.503	27.99
181.723	-15.02
181.943	-82.6
182.163	9.56
182.383	9.56
182.602	-10.92
182.822	11.61
183.042	23.89
183.262	9.56
183.482	52.56
183.701	-8.87
183.921	9.56
184.141	-47.79
184.361	30.04
184.58	-21.16
184.8	1.37
185.02	-37.55
185.239	3.41
185.459	-15.02
185.679	11.61
185.898	13.65
186.118	77.14
186.338	-33.45
186.557	-0.68
186.777	-33.45
186.997	23.89
187.216	-0.68
187.436	38.23
187.655	9.56
187.875	7.51
188.095	-21.16
188.314	32.08
188.534	40.28
188.753	13.65
188.973	9.56
189.192	32.08
189.412	11.61
189.631	15.7
189.851	11.61
190.07	9.56
190.29	-0.68
190.509	17.75
190.729	-21.16
190.948	36.18
191.168	-0.68
191.387	85.33
191.607	32.08
191.826	13.65
192.045	3.41
192.265	19.8
192.484	23.89
192.704	-10.92
192.923	-12.97
193.142	-19.11
193.362	81.24
193.581	93.52
193.8	9.56
194.02	71
194.239	54.61
194.458	46.42
194.678	95.57
194.897	21.85
195.116	81.24
195.335	21.85
195.555	-45.74
195.774	11.61
195.993	-31.4
196.212	-25.26
196.432	-60.07
196.651	-47.79
196.87	64.85
197.089	77.14
197.308	66.9
197.528	27.99
197.747	-35.5
197.966	52.56
198.185	56.66
198.404	17.75
198.623	-2.73
198.842	-43.69
199.062	9.56
199.281	50.52
199.5	-10.92
199.719	52.56
199.938	58.71
200.157	-10.92
200.376	-70.31
200.595	-31.4
200.814	38.23
201.033	42.32
201.252	36.18
201.471	34.13
201.69	-29.35
201.909	30.04
202.128	15.7
202.347	66.9
202.566	-27.31
202.785	1.37
203.004	11.61
203.223	77.14
203.442	11.61
203.661	-15.02
203.879	17.75
204.098	9.56
204.317	-37.55
204.536	79.19
204.755	-15.02
204.974	52.56
205.193	17.75
205.411	34.13
205.63	-17.07
205.849	-23.21
206.068	52.56
206.287	60.76
206.505	30.04
206.724	50.52
206.943	-33.45
207.162	56.66
207.381	21.85
207.599	56.66
207.818	64.85
208.037	34.13
208.255	19.8
208.474	3.41
208.693	21.85
208.911	1.37
209.13	13.65
209.349	38.23
209.567	99.67
209.786	38.23
210.005	40.28
210.223	-23.21
210.442	-0.68
210.661	25.94
210.879	5.46
211.098	34.13
211.316	58.71
211.535	1.37
211.753	-37.55
211.972	-23.21
212.191	-6.83
212.409	-23.21
212.628	-27.31
212.846	44.37
213.065	17.75
213.283	50.52
213.502	42.32
213.72	7.51
213.938	-15.02
214.157	11.61
214.375	-49.83
214.594	36.18
214.812	17.75
215.031	-10.92
215.249	-47.79
215.467	-17.07
215.686	21.85
215.904	-2.73
216.122	7.51
216.341	19.8
216.559	85.33
216.778	11.61
216.996	1.37
217.214	-37.55
217.432	1.37
217.651	15.7
217.869	19.8
218.087	50.52
218.306	44.37
218.524	124.24
218.742	3.41
218.96	-21.16
219.179	13.65
219.397	25.94
219.615	-51.88
219.833	54.61
220.051	1.37
220.27	89.43
220.488	3.41
220.706	-25.26
220.924	-10.92
221.142	-8.87
221.36	58.71
221.578	32.08
221.796	48.47
222.015	-10.92
222.233	7.51
222.451	30.04
222.669	40.28
222.887	-41.64
223.105	-53.93
223.323	27.99
223.541	11.61
223.759	-27.31
223.977	19.8
224.195	52.56
224.413	48.47
224.631	54.61
224.849	44.37
225.067	50.52
225.285	-19.11
225.503	11.61
225.721	44.37
225.939	7.51
226.157	-17.07
226.375	64.85
226.592	38.23
226.81	-45.74
227.028	-10.92
227.246	40.28
227.464	27.99
227.682	-37.55
227.9	5.46
228.117	-68.27
228.335	-4.78
228.553	-17.07
228.771	-43.69
228.989	-27.31
229.206	-27.31
229.424	30.04
229.642	-23.21
229.86	-98.99
230.077	27.99
230.295	-35.5
230.513	9.56
230.731	9.56
230.948	-45.74
231.166	44.37
231.384	25.94
231.601	-6.83
231.819	60.76
232.037	7.51
232.254	-6.83
232.472	-6.83
232.689	3.41
232.907	-53.93
233.125	38.23
233.342	-4.78
233.56	-51.88
233.777	-17.07
233.995	40.28
234.213	5.46
234.43	30.04
234.648	-72.36
234.865	52.56
235.083	42.32
235.3	-23.21
235.518	7.51
235.735	32.08
235.953	21.85
236.17	-4.78
236.388	34.13
236.605	23.89
236.822	111.96
237.04	-25.26
237.257	5.46
237.475	44.37
237.692	19.8
237.909	40.28
238.127	3.41
238.344	23.89
238.562	-12.97
238.779	-4.78
238.996	13.65
239.214	64.85
239.431	64.85
239.648	42.32
239.865	91.48
240.083	-23.21
240.3	5.46
240.517	-41.64
240.735	9.56
240.952	38.23
241.169	54.61
241.386	27.99
241.603	48.47
241.821	21.85
242.038	46.42
242.255	50.52
242.472	-4.78
242.689	-2.73
242.907	17.75
243.124	54.61
243.341	44.37
243.558	-4.78
243.775	-45.74
243.992	-19.11
244.209	42.32
244.426	-21.16
244.643	-17.07
244.86	19.8
245.078	-17.07
245.295	25.94
245.512	62.8
245.729	-17.07
245.946	-4.78
246.163	-29.35
246.38	38.23
246.597	-2.73
246.814	44.37
247.031	38.23
247.248	73.04
247.464	-15.02
247.681	13.65
247.898	93.52
248.115	60.76
248.332	60.76
248.549	5.46
248.766	50.52
248.983	50.52
249.2	73.04
249.417	87.38
249.633	-41.64
249.85	-10.92
250.067	30.04
250.284	48.47
250.501	42.32
250.717	64.85
250.934	-35.5
251.151	21.85
251.368	-76.46
251.585	-10.92
251.801	-25.26
252.018	75.09
252.235	34.13
252.451	-55.98
252.668	13.65
252.885	105.81
253.102	50.52
253.318	25.94
253.535	21.85
253.752	60.76
253.968	-88.75
254.185	7.51
254.401	7.51
254.618	3.41
254.835	-49.83
255.051	27.99
255.268	42.32
255.484	46.42
255.701	-8.87
255.917	23.89
256.134	30.04
256.351	38.23
256.567	-31.4
256.784	17.75
257	-62.12
257.217	-2.73
257.433	23.89
257.65	32.08
257.866	-10.92
258.082	36.18
258.299	54.61
258.515	-0.68
258.732	52.56
258.948	5.46
259.165	40.28
259.381	62.8
259.597	-35.5
259.814	83.28
260.03	23.89
260.246	48.47
260.463	38.23
260.679	89.43
260.895	25.94
261.112	-0.68
261.328	30.04
261.544	27.99
261.761	21.85
261.977	-4.78
262.193	-33.45
262.409	-31.4
262.626	17.75
262.842	-15.02
263.058	-37.55
263.274	-43.69
263.49	50.52
263.707	42.32
263.923	68.95
264.139	-23.21
264.355	1.37
264.571	17.75
264.787	9.56
265.004	42.32
265.22	-2.73
265.436	42.32
265.652	-2.73
265.868	25.94
266.084	-49.83
266.3	11.61
266.516	-23.21
266.732	11.61
266.948	32.08
267.164	15.7
267.38	58.71
267.596	79.19
267.812	54.61
268.028	-12.97
268.244	11.61
268.46	50.52
268.676	5.46
268.892	5.46
269.108	54.61
269.324	99.67
269.54	-23.21
269.756	73.04
269.972	-35.5
270.188	11.61
270.403	1.37
270.619	62.8
270.835	38.23
271.051	32.08
271.267	-51.88
271.483	-33.45
271.698	-45.74
271.914	40.28
272.13	-29.35
272.346	1.37
272.562	85.33
272.777	17.75
272.993	-12.97
273.209	-12.97
273.425	17.75
273.64	1.37
273.856	9.56
274.072	23.89
274.287	-4.78
274.503	17.75
274.719	-10.92
274.934	-39.59
275.15	48.47
275.366	-6.83
275.581	5.46
275.797	71
276.012	-80.55
276.228	1.37
276.444	-37.55
276.659	-12.97
276.875	50.52
277.09	-47.79
277.306	21.85
277.521	34.13
277.737	-21.16
277.952	89.43
278.168	48.47
278.383	-21.16
278.599	-29.35
278.814	58.71
279.03	5.46
279.245	9.56
279.461	-8.87
279.676	52.56
279.892	-33.45
280.107	19.8
280.322	5.46
280.538	-0.68
280.753	48.47
280.969	-10.92
281.184	15.7
281.399	17.75
281.615	-12.97
281.83	-27.31
282.045	-90.79
282.26	103.76
282.476	13.65
282.691	62.8
282.906	62.8
283.122	19.8
283.337	-45.74
283.552	58.71
283.767	3.41
283.983	15.7
284.198	38.23
284.413	34.13
284.628	-39.59
284.843	101.72
285.058	-12.97
285.274	66.9
285.489	-12.97
285.704	11.61
285.919	25.94
286.134	34.13
286.349	-37.55
286.564	-29.35
286.779	71
286.995	17.75
287.21	-8.87
287.425	58.71
287.64	-17.07
287.855	-31.4
288.07	-4.78
288.285	34.13
288.5	9.56
288.715	11.61
288.93	-19.11
289.145	15.7
289.36	46.42
289.575	-10.92
289.79	120.15
290.004	3.41
290.219	13.65
290.434	11.61
290.649	9.56
290.864	-29.35
291.079	-47.79
291.294	58.71
291.509	-8.87
291.724	17.75
291.938	13.65
292.153	42.32
292.368	-33.45
292.583	-4.78
292.798	17.75
293.012	-31.4
293.227	38.23
293.442	-6.83
293.657	-25.26
293.871	17.75
294.086	-35.5
294.301	23.89
294.516	11.61
294.73	60.76
294.945	-6.83
295.16	71
295.374	48.47
295.589	-6.83
295.804	-43.69
296.018	58.71
296.233	42.32
296.447	50.52
296.662	11.61
296.877	87.38
297.091	-15.02
297.306	-41.64
297.52	62.8
297.735	58.71
297.949	-10.92
298.164	42.32
298.378	-35.5
298.593	9.56
298.807	11.61
299.022	95.57
299.236	68.95
299.451	-8.87
299.665	54.61
299.88	-8.87
300.094	3.41
300.309	87.38
300.523	25.94
300.737	56.66
300.952	15.7
301.166	-62.12
301.381	44.37
301.595	34.13
301.809	83.28
302.024	17.75
302.238	-35.5
302.452	5.46
302.667	68.95
302.881	52.56
303.095	7.51
303.309	44.37
303.524	11.61
303.738	50.52
303.952	-41.64
304.166	64.85
304.381	7.51
304.595	42.32
304.809	-41.64
305.023	1.37
305.237	-25.26
305.452	120.15
305.666	3.41
305.88	13.65
306.094	32.08
306.308	50.52
306.522	-19.11
306.736	46.42
306.95	-51.88
307.164	25.94
307.379	-27.31
307.593	109.91
307.807	38.23
308.021	62.8
308.235	5.46
308.449	-33.45
308.663	-55.98
308.877	66.9
309.091	7.51
309.305	-10.92
309.519	-0.68
309.733	34.13
309.947	15.7
310.161	-0.68
310.374	52.56
310.588	46.42
310.802	27.99
311.016	25.94
311.23	-41.64
311.444	-19.11
311.658	-25.26
311.872	62.8
312.085	-33.45
312.299	25.94
312.513	13.65
312.727	25.94
312.941	13.65
313.154	27.99
313.368	5.46
313.582	52.56
313.796	-66.22
314.009	42.32
314.223	34.13
314.437	11.61
314.651	71
314.864	34.13
315.078	-4.78
315.292	99.67
315.505	23.89
315.719	5.46
315.933	56.66
316.146	27.99
316.36	83.28
316.573	38.23
316.787	-27.31
317.001	56.66
317.214	-4.78
317.428	42.32
317.641	56.66
317.855	19.8
318.068	-37.55
318.282	1.37
318.495	15.7
318.709	38.23
318.922	50.52
319.136	9.56
319.349	95.57
319.563	30.04
319.776	27.99
319.99	77.14
320.203	13.65
320.417	75.09
320.63	19.8
320.843	66.9
321.057	58.71
321.27	-43.69
321.483	50.52
321.697	71
321.91	21.85
322.124	-25.26
322.337	-27.31
322.55	52.56
322.763	23.89
322.977	50.52
323.19	30.04
323.403	-31.4
323.617	50.52
323.83	46.42
324.043	5.46
324.256	50.52
324.469	19.8
324.683	42.32
324.896	68.95
325.109	-19.11
325.322	-0.68
325.535	81.24
325.748	44.37
325.962	66.9
326.175	9.56
326.388	79.19
326.601	15.7
326.814	15.7
327.027	30.04
327.24	11.61
327.453	11.61
327.666	-23.21
327.879	-45.74
328.092	58.71
328.305	58.71
328.518	11.61
328.731	-27.31
328.944	-2.73
329.157	48.47
329.37	30.04
329.583	3.41
329.796	25.94
330.009	-4.78
330.222	38.23
330.435	60.76
330.648	21.85
330.861	40.28
331.073	77.14
331.286	52.56
331.499	83.28
331.712	-19.11
331.925	15.7
332.138	34.13
332.35	30.04
332.563	-10.92
332.776	5.46
332.989	-43.69
333.202	-6.83
333.414	89.43
333.627	-21.16
333.84	15.7
334.053	77.14
334.265	7.51
334.478	-12.97
334.691	62.8
334.903	13.65
335.116	-8.87
335.329	36.18
335.541	40.28
335.754	36.18
335.966	46.42
336.179	-0.68
336.392	23.89
336.604	23.89
336.817	30.04
337.029	71
337.242	-41.64
337.454	17.75
337.667	-19.11
337.88	95.57
338.092	23.89
338.305	36.18
338.517	101.72
338.729	93.52
338.942	38.23
339.154	38.23
339.367	-10.92
339.579	-33.45
339.792	85.33
340.004	-25.26
340.217	109.91
340.429	23.89
340.641	-39.59
340.854	-10.92
341.066	-2.73
341.278	38.23
341.491	91.48
341.703	118.1
341.915	-31.4
342.128	75.09
342.34	-17.07
342.552	1.37
342.764	-8.87
342.977	30.04
343.189	95.57
343.401	36.18
343.613	-15.02
343.826	-6.83
344.038	-47.79
344.25	81.24
344.462	-25.26
344.674	46.42
344.886	52.56
345.099	-10.92
345.311	87.38
345.523	81.24
345.735	36.18
345.947	19.8
346.159	99.67
346.371	21.85
346.583	13.65
346.795	126.29
347.007	-8.87
347.219	21.85
347.431	-10.92
347.643	32.08
347.855	58.71
348.067	77.14
348.279	-4.78
348.491	-4.78
348.703	79.19
348.915	89.43
349.127	-33.45
349.339	103.76
349.551	3.41
349.763	-15.02
349.975	11.61
350.187	36.18
350.399	58.71
350.61	11.61
350.822	25.94
351.034	64.85
351.246	-29.35
351.458	-12.97
351.669	-15.02
351.881	34.13
352.093	13.65
352.305	-17.07
352.517	91.48
352.728	52.56
352.94	-21.16
353.152	99.67
353.363	40.28
353.575	-2.73
353.787	23.89
353.999	52.56
354.21	34.13
354.422	58.71
354.633	-29.35
354.845	9.56
355.057	27.99
355.268	44.37
355.48	52.56
355.692	-0.68
355.903	13.65
356.115	44.37
356.326	-39.59
356.538	-2.73
356.749	3.41
356.961	-4.78
357.172	-0.68
357.384	68.95
357.595	1.37
357.807	44.37
358.018	5.46
358.23	38.23
358.441	105.81
358.653	1.37
358.864	-4.78
359.075	-51.88
359.287	-0.68
359.498	83.28
359.709	64.85
359.921	93.52
360.132	30.04
360.344	71
360.555	-47.79
360.766	87.38
360.977	15.7
361.189	58.71
361.4	-21.16
361.611	50.52
361.823	42.32
362.034	30.04
362.245	64.85
362.456	101.72
362.667	50.52
362.879	30.04
363.09	11.61
363.301	62.8
363.512	-39.59
363.723	3.41
363.935	-35.5
364.146	21.85
364.357	-0.68
364.568	75.09
364.779	-12.97
364.99	40.28
365.201	21.85
365.412	-19.11
365.623	-4.78
365.834	17.75
366.045	48.47
366.256	34.13
366.467	64.85
366.678	91.48
366.889	34.13
367.1	58.71
367.311	42.32
367.522	60.76
367.733	50.52
367.944	66.9
368.155	32.08
368.366	7.51
368.577	-21.16
368.788	58.71
368.999	48.47
369.209	21.85
369.42	103.76
369.631	-4.78
369.842	68.95
370.053	42.32
370.264	75.09
370.474	58.71
370.685	11.61
370.896	38.23
371.107	-15.02
371.317	-25.26
371.528	27.99
371.739	107.86
371.95	42.32
372.16	46.42
372.371	-8.87
372.582	23.89
372.792	66.9
373.003	-25.26
373.214	58.71
373.424	44.37
373.635	89.43
373.846	118.1
374.056	71
374.267	-21.16
374.477	60.76
374.688	21.85
374.898	-27.31
375.109	13.65
375.319	-4.78
375.53	21.85
375.74	-27.31
375.951	36.18
376.161	44.37
376.372	101.72
376.582	34.13
376.793	81.24
377.003	-2.73
377.214	-10.92
377.424	7.51
377.635	9.56
377.845	64.85
378.055	-10.92
378.266	3.41
378.476	-2.73
378.686	44.37
378.897	99.67
379.107	-37.55
379.317	21.85
379.528	-43.69
379.738	75.09
379.948	34.13
380.158	-2.73
380.369	58.71
380.579	68.95
380.789	64.85
380.999	85.33
381.21	-41.64
381.42	83.28
381.63	52.56
381.84	1.37
382.05	109.91
382.261	3.41
382.471	11.61
382.681	25.94
382.891	58.71
383.101	66.9
383.311	38.23
383.521	21.85
383.731	-98.99
383.941	19.8
384.151	-0.68
384.361	27.99
384.571	27.99
384.781	77.14
384.991	93.52
385.201	44.37
385.411	32.08
385.621	17.75
385.831	-37.55
386.041	58.71
386.251	27.99
386.461	46.42
386.671	25.94
386.881	17.75
387.091	27.99
387.301	54.61
387.511	42.32
387.72	107.86
387.93	-17.07
388.14	-41.64
388.35	46.42
388.56	9.56
388.769	19.8
388.979	21.85
389.189	27.99
389.399	77.14
389.609	23.89
389.818	58.71
390.028	27.99
390.238	38.23
390.447	30.04
390.657	52.56
390.867	25.94
391.076	58.71
391.286	-33.45
391.496	44.37
391.705	79.19
391.915	19.8
392.125	34.13
392.334	120.15
392.544	30.04
392.753	21.85
392.963	36.18
393.172	66.9
393.382	-12.97
393.591	99.67
393.801	27.99
394.01	13.65
394.22	30.04
394.429	-10.92
394.639	32.08
394.848	-15.02
395.058	66.9
395.267	34.13
395.477	60.76
395.686	21.85
395.895	-23.21
396.105	124.24
396.314	68.95
396.524	89.43
396.733	21.85
396.942	101.72
397.152	44.37
397.361	114
397.57	52.56
397.78	52.56
397.989	30.04
398.198	42.32
398.407	71
398.617	-25.26
398.826	11.61
399.035	40.28
399.244	81.24
399.453	71
399.663	46.42
399.872	40.28
400.081	34.13
400.29	38.23
400.499	15.7
400.708	50.52
400.917	114
401.127	1.37
401.336	34.13
401.545	124.24
401.754	44.37
401.963	81.24
402.172	7.51
402.381	83.28
402.59	71
402.799	77.14
403.008	99.67
403.217	99.67
403.426	62.8
403.635	64.85
403.844	93.52
404.053	66.9
404.262	148.82
404.471	154.96
404.68	79.19
404.888	109.91
405.097	89.43
405.306	132.44
405.515	27.99
405.724	93.52
405.933	103.76
406.142	73.04
406.35	107.86
406.559	34.13
406.768	134.48
406.977	101.72
407.185	183.63
407.394	99.67
407.603	181.59
407.812	159.06
408.02	114
408.229	114
408.438	116.05
408.646	103.76
408.855	179.54
409.064	195.92
409.272	185.68
409.481	197.97
409.69	118.1
409.898	226.64
410.107	216.4
410.315	183.63
410.524	191.83
410.733	273.75
410.941	306.51
411.15	216.4
411.358	224.59
411.567	240.98
411.775	259.41
411.984	232.79
412.192	267.6
412.401	220.5
412.609	271.7
412.818	322.9
413.026	281.94
413.234	322.9
413.443	294.22
413.651	286.03
413.86	300.37
414.068	429.39
414.276	363.86
414.485	396.62
414.693	437.58
414.901	472.4
415.11	410.96
415.318	413.01
415.526	353.62
415.734	511.31
415.943	437.58
416.151	482.64
416.359	527.69
416.567	564.56
416.776	458.06
416.984	597.32
417.192	593.23
417.4	564.56
417.608	544.08
417.817	615.76
418.025	691.53
418.233	730.44
418.441	666.96
418.649	707.91
418.857	787.79
419.065	865.61
419.273	777.55
419.481	849.22
419.689	820.55
419.897	941.38
420.105	861.51
420.313	914.76
420.521	1013.06
420.729	951.62
420.937	978.25
421.145	1195.33
421.353	1047.88
421.561	1084.74
421.769	1174.85
421.977	1269.06
422.185	1135.94
422.393	1340.74
422.601	1439.04
422.809	1406.27
423.017	1344.83
423.224	1543.49
423.432	1568.06
423.64	1643.84
423.848	1670.46
424.056	1551.68
424.263	1703.23
424.471	1676.6
424.679	1795.39
424.887	1705.28
425.094	1965.37
425.302	1934.65
425.51	1983.8
425.718	2098.49
425.925	2114.87
426.133	2161.97
426.341	2334
426.548	2327.86
426.756	2405.68
426.964	2424.11
427.171	2477.36
427.379	2614.57
427.586	2565.42
427.794	2739.5
428.001	2843.95
428.209	2981.16
428.417	3069.22
428.624	3261.73
428.832	3177.76
429.039	3118.37
429.247	3009.83
429.454	3423.52
429.662	3767.58
429.869	3317.03
430.076	3788.06
430.284	3534.11
430.491	3728.67
430.699	3937.56
430.906	3855.64
431.114	3955.99
431.321	4136.21
431.528	4244.76
431.736	4543.76
431.943	4572.43
432.15	4506.9
432.358	4640.01
432.565	4826.38
432.772	4936.97
432.979	5154.05
433.187	5258.5
433.394	5233.93
433.601	5637.38
433.808	5655.81
434.016	5694.72
434.223	5817.6
434.43	6202.61
434.637	5977.34
434.844	6542.58
435.052	6468.85
435.259	6546.67
435.466	6581.49
435.673	6604.02
435.88	6984.94
436.087	7394.53
436.294	7308.52
436.501	7159.02
436.708	7464.16
436.915	7750.88
437.122	8006.88
437.329	8101.08
437.537	8193.24
437.743	8436.95
437.95	8183
438.157	8893.65
438.364	8983.76
438.571	8979.66
438.778	9075.91
438.985	9981.12
439.192	9524.42
439.399	9749.7
439.606	9538.76
439.813	10169.53
440.02	10779.82
440.227	10446.01
440.433	10392.76
440.64	10798.26
440.847	10636.47
441.054	11009.2
441.261	11558.05
441.467	11611.3
441.674	11797.67
441.881	12149.92
442.088	12197.02
442.294	12160.16
442.501	12430.49
442.708	12756.11
442.914	12962.96
443.121	13669.51
443.328	13356.17
443.534	14156.93
443.741	13722.76
443.948	13681.8
444.154	14718.07
444.361	14625.91
444.568	14900.34
444.774	14777.46
444.981	14636.15
445.187	15387.75
445.394	15993.95
445.6	15541.35
445.807	17189.97
446.013	16516.19
446.22	16581.72
446.426	17661
446.633	17718.34
446.839	18371.65
447.046	17376.33
447.252	18342.97
447.459	18209.86
447.665	18351.17
447.871	19254.32
448.078	20223.01
448.284	19213.36
448.491	19573.8
448.697	20327.46
448.903	21158.93
449.11	20823.06
449.316	20218.91
449.522	20917.27
449.728	21246.99
449.935	21406.73
450.141	21627.92
450.347	22060.04
450.553	21353.49
450.76	21840.9
450.966	22074.37
451.172	22483.97
451.378	22940.66
451.584	22449.15
451.791	22823.93
451.997	22733.82
452.203	23192.56
452.409	23346.16
452.615	22938.62
452.821	22379.52
453.027	22068.23
453.233	23589.87
453.44	22408.19
453.646	22356.99
453.852	22801.4
454.058	23028.73
454.264	22316.03
454.47	22766.59
454.676	22191.11
454.882	23147.51
455.088	21042.2
455.294	21439.5
455.5	21718.03
455.705	22098.95
455.911	21240.85
456.117	21050.39
456.323	20481.05
456.529	19211.31
456.735	20368.41
456.941	19831.85
457.147	19260.46
457.352	18766.9
457.558	18654.26
457.764	18764.85
457.97	18474.04
458.176	18146.37
458.381	17974.34
458.587	17067.09
458.793	17335.37
458.999	16190.56
459.204	17476.68
459.41	16913.49
459.616	15699.05
459.821	15813.73
460.027	16057.44
460.233	15336.56
460.438	14666.87
460.644	14816.37
460.85	14238.84
461.055	14048.38
461.261	13698.18
461.466	13147.28
461.672	12571.8
461.878	13458.57
462.083	12469.4
462.289	12430.49
462.494	12371.1
462.7	11717.79
462.905	11502.76
463.111	11734.18
463.316	11920.54
463.522	11695.27
463.727	11740.32
463.932	11701.41
464.138	11578.53
464.343	11463.85
464.549	11259.05
464.754	11682.98
464.959	11533.48
465.165	11392.17
465.37	11013.29
465.575	10603.7
465.781	11207.85
465.986	11265.19
466.191	10996.91
466.397	10597.56
466.602	10288.31
466.807	10828.98
467.012	10620.08
467.218	10255.54
467.423	10271.93
467.628	10489.01
467.833	10964.14
468.038	10405.05
468.244	10290.36
