Data from USB4F104151__10__12-53-09-629.txt Node

Date: Fri Mar 14 12:53:09 EDT 2025
User: louis
Spectrometer: USB4F10415
Trigger mode: 4
Integration Time (sec): 1.000000E-2
Scans to average: 1
Electric dark correction enabled: true
Nonlinearity correction enabled: false
Boxcar width: 0
XAxis mode: Wavelengths
Number of Pixels in Spectrum: 3648
>>>>>Begin Spectral Data<<<<<
178.204	-66.39
178.424	-66.39
178.644	-66.39
178.864	-7
179.084	-54.1
179.304	-72.53
179.524	52.39
179.744	-45.91
179.964	42.15
180.184	-23.38
180.404	-82.77
180.624	1.19
180.844	48.3
181.064	29.87
181.283	31.91
181.503	42.15
181.723	-23.38
181.943	64.68
182.163	5.29
182.383	-0.85
182.602	-11.09
182.822	31.91
183.042	-33.62
183.262	-0.85
183.482	27.82
183.701	54.44
183.921	42.15
184.141	15.53
184.361	25.77
184.58	-25.43
184.8	76.97
185.02	40.11
185.239	25.77
185.459	5.29
185.679	93.35
185.898	42.15
186.118	91.31
186.338	-7
186.557	52.39
186.777	-25.43
186.997	25.77
187.216	-33.62
187.436	56.49
187.655	-11.09
187.875	85.16
188.095	54.44
188.314	-56.15
188.534	1.19
188.753	25.77
188.973	-19.29
189.192	-23.38
189.412	19.63
189.631	-17.24
189.851	38.06
190.07	-29.52
190.29	15.53
190.509	-0.85
190.729	17.58
190.948	56.49
191.168	103.59
191.387	48.3
191.607	-19.29
191.826	23.72
192.045	-15.19
192.265	-9.05
192.484	13.48
192.704	11.43
192.923	7.34
193.142	21.67
193.362	40.11
193.581	85.16
193.8	-11.09
194.02	25.77
194.239	-41.81
194.458	89.26
194.678	7.34
194.897	36.01
195.116	42.15
195.335	11.43
195.555	-50
195.774	-25.43
195.993	-11.09
196.212	85.16
196.432	72.87
196.651	42.15
196.87	3.24
197.089	76.97
197.308	27.82
197.528	50.35
197.747	27.82
197.966	-35.67
198.185	29.87
198.404	70.83
198.623	29.87
198.842	27.82
199.062	-9.05
199.281	-0.85
199.5	-27.48
199.719	-17.24
199.938	52.39
200.157	17.58
200.376	70.83
200.595	74.92
200.814	15.53
201.033	-39.76
201.252	3.24
201.471	19.63
201.69	52.39
201.909	-31.57
202.128	11.43
202.347	27.82
202.566	9.39
202.785	95.4
203.004	33.96
203.223	93.35
203.442	25.77
203.661	3.24
203.879	15.53
204.098	40.11
204.317	-21.33
204.536	31.91
204.755	27.82
204.974	7.34
205.193	87.21
205.411	-11.09
205.63	38.06
205.849	13.48
206.068	42.15
206.287	17.58
206.505	44.2
206.724	25.77
206.943	-41.81
207.162	-11.09
207.381	-25.43
207.599	-25.43
207.818	-29.52
208.037	42.15
208.255	52.39
208.474	15.53
208.693	-47.96
208.911	46.25
209.13	44.2
209.349	21.67
209.567	1.19
209.786	50.35
210.005	38.06
210.223	15.53
210.442	31.91
210.661	17.58
210.879	74.92
211.098	17.58
211.316	48.3
211.535	-60.24
211.753	-17.24
211.972	7.34
212.191	89.26
212.409	56.49
212.628	79.02
212.846	72.87
213.065	-4.95
213.283	-23.38
213.502	79.02
213.72	-78.68
213.938	21.67
214.157	58.54
214.375	-7
214.594	33.96
214.812	58.54
215.031	38.06
215.249	11.43
215.467	79.02
215.686	48.3
215.904	44.2
216.122	-9.05
216.341	-21.33
216.559	62.63
216.778	31.91
216.996	46.25
217.214	58.54
217.432	31.91
217.651	31.91
217.869	-27.48
218.087	89.26
218.306	38.06
218.524	29.87
218.742	87.21
218.96	107.69
219.179	-0.85
219.397	29.87
219.615	44.2
219.833	19.63
220.051	-58.2
220.27	23.72
220.488	31.91
220.706	46.25
220.924	-29.52
221.142	54.44
221.36	-54.1
221.578	72.87
221.796	83.11
222.015	-2.9
222.233	-35.67
222.451	42.15
222.669	-7
222.887	9.39
223.105	11.43
223.323	31.91
223.541	-4.95
223.759	23.72
223.977	23.72
224.195	66.73
224.413	1.19
224.631	1.19
224.849	36.01
225.067	48.3
225.285	1.19
225.503	31.91
225.721	17.58
225.939	27.82
226.157	40.11
226.375	152.74
226.592	-7
226.81	81.07
227.028	33.96
227.246	23.72
227.464	44.2
227.682	66.73
227.9	144.55
228.117	1.19
228.335	103.59
228.553	36.01
228.771	70.83
228.989	97.45
229.206	54.44
229.424	-0.85
229.642	-0.85
229.86	27.82
230.077	54.44
230.295	68.78
230.513	33.96
230.731	42.15
230.948	17.58
231.166	81.07
231.384	50.35
231.601	7.34
231.819	60.59
232.037	1.19
232.254	-17.24
232.472	21.67
232.689	-17.24
232.907	1.19
233.125	1.19
233.342	38.06
233.56	-2.9
233.777	17.58
233.995	44.2
234.213	-23.38
234.43	27.82
234.648	31.91
234.865	27.82
235.083	79.02
235.3	-2.9
235.518	64.68
235.735	117.93
235.953	42.15
236.17	-4.95
236.388	-47.96
236.605	31.91
236.822	56.49
237.04	27.82
237.257	52.39
237.475	13.48
237.692	3.24
237.909	52.39
238.127	-4.95
238.344	-0.85
238.562	-15.19
238.779	21.67
238.996	44.2
239.214	23.72
239.431	48.3
239.648	66.73
239.865	83.11
240.083	62.63
240.3	15.53
240.517	-0.85
240.735	21.67
240.952	-33.62
241.169	-19.29
241.386	40.11
241.603	50.35
241.821	103.59
242.038	31.91
242.255	3.24
242.472	31.91
242.689	-21.33
242.907	-13.14
243.124	23.72
243.341	3.24
243.558	79.02
243.775	9.39
243.992	46.25
244.209	31.91
244.426	33.96
244.643	46.25
244.86	81.07
245.078	-15.19
245.295	-27.48
245.512	50.35
245.729	-23.38
245.946	29.87
246.163	70.83
246.38	81.07
246.597	31.91
246.814	60.59
247.031	-2.9
247.248	36.01
247.464	19.63
247.681	62.63
247.898	27.82
248.115	-7
248.332	-66.39
248.549	-56.15
248.766	15.53
248.983	29.87
249.2	91.31
249.417	40.11
249.633	-7
249.85	38.06
250.067	7.34
250.284	-41.81
250.501	64.68
250.717	56.49
250.934	-9.05
251.151	44.2
251.368	29.87
251.585	50.35
251.801	52.39
252.018	-21.33
252.235	29.87
252.451	5.29
252.668	-33.62
252.885	36.01
253.102	-11.09
253.318	7.34
253.535	5.29
253.752	-47.96
253.968	58.54
254.185	72.87
254.401	97.45
254.618	40.11
254.835	-4.95
255.051	38.06
255.268	-0.85
255.484	36.01
255.701	62.63
255.917	7.34
256.134	62.63
256.351	-0.85
256.567	11.43
256.784	27.82
257	-43.86
257.217	33.96
257.433	21.67
257.65	3.24
257.866	9.39
258.082	87.21
258.299	23.72
258.515	36.01
258.732	21.67
258.948	56.49
259.165	42.15
259.381	29.87
259.597	83.11
259.814	36.01
260.03	64.68
260.246	48.3
260.463	40.11
260.679	103.59
260.895	62.63
261.112	23.72
261.328	-19.29
261.544	15.53
261.761	62.63
261.977	7.34
262.193	70.83
262.409	38.06
262.626	3.24
262.842	-45.91
263.058	15.53
263.274	50.35
263.49	50.35
263.707	85.16
263.923	7.34
264.139	36.01
264.355	1.19
264.571	54.44
264.787	44.2
265.004	83.11
265.22	50.35
265.436	64.68
265.652	-0.85
265.868	62.63
266.084	7.34
266.3	42.15
266.516	-13.14
266.732	36.01
266.948	72.87
267.164	70.83
267.38	56.49
267.596	50.35
267.812	66.73
268.028	74.92
268.244	50.35
268.46	36.01
268.676	-29.52
268.892	7.34
269.108	17.58
269.324	-0.85
269.54	-4.95
269.756	23.72
269.972	21.67
270.188	-0.85
270.403	1.19
270.619	81.07
270.835	74.92
271.051	62.63
271.267	-0.85
271.483	-25.43
271.698	9.39
271.914	105.64
272.13	-13.14
272.346	-50
272.562	23.72
272.777	56.49
272.993	-13.14
273.209	72.87
273.425	89.26
273.64	-35.67
273.856	79.02
274.072	119.98
274.287	52.39
274.503	-29.52
274.719	-17.24
274.934	76.97
275.15	25.77
275.366	36.01
275.581	13.48
275.797	36.01
276.012	109.74
276.228	36.01
276.444	29.87
276.659	-43.86
276.875	50.35
277.09	-21.33
277.306	1.19
277.521	-27.48
277.737	-11.09
277.952	97.45
278.168	44.2
278.383	-4.95
278.599	97.45
278.814	40.11
279.03	-9.05
279.245	50.35
279.461	74.92
279.676	44.2
279.892	-17.24
280.107	-25.43
280.322	-31.57
280.538	19.63
280.753	3.24
280.969	119.98
281.184	72.87
281.399	33.96
281.615	89.26
281.83	-21.33
282.045	-13.14
282.26	70.83
282.476	21.67
282.691	31.91
282.906	42.15
283.122	74.92
283.337	23.72
283.552	85.16
283.767	-17.24
283.983	-58.2
284.198	17.58
284.413	54.44
284.628	25.77
284.843	7.34
285.058	46.25
285.274	-9.05
285.489	83.11
285.704	33.96
285.919	25.77
286.134	11.43
286.349	13.48
286.564	64.68
286.779	-25.43
286.995	113.83
287.21	-64.34
287.425	11.43
287.64	-13.14
287.855	36.01
288.07	17.58
288.285	103.59
288.5	36.01
288.715	19.63
288.93	7.34
289.145	36.01
289.36	48.3
289.575	5.29
289.79	46.25
290.004	5.29
290.219	124.07
290.434	62.63
290.649	9.39
290.864	27.82
291.079	5.29
291.294	29.87
291.509	17.58
291.724	62.63
291.938	23.72
292.153	3.24
292.368	3.24
292.583	83.11
292.798	5.29
293.012	11.43
293.227	-45.91
293.442	23.72
293.657	-21.33
293.871	-0.85
294.086	-50
294.301	83.11
294.516	68.78
294.73	54.44
294.945	13.48
295.16	99.5
295.374	60.59
295.589	93.35
295.804	3.24
296.018	42.15
296.233	48.3
296.447	-2.9
296.662	-4.95
296.877	-25.43
297.091	72.87
297.306	27.82
297.52	-33.62
297.735	54.44
297.949	52.39
298.164	72.87
298.378	85.16
298.593	-21.33
298.807	42.15
299.022	62.63
299.236	5.29
299.451	60.59
299.665	-7
299.88	38.06
300.094	56.49
300.309	56.49
300.523	44.2
300.737	56.49
300.952	130.22
301.166	70.83
301.381	60.59
301.595	23.72
301.809	-33.62
302.024	70.83
302.238	93.35
302.452	72.87
302.667	-60.24
302.881	64.68
303.095	48.3
303.309	58.54
303.524	64.68
303.738	-0.85
303.952	42.15
304.166	54.44
304.381	58.54
304.595	27.82
304.809	44.2
305.023	29.87
305.237	72.87
305.452	91.31
305.666	-19.29
305.88	-52.05
306.094	79.02
306.308	7.34
306.522	62.63
306.736	-7
306.95	13.48
307.164	-13.14
307.379	13.48
307.593	56.49
307.807	44.2
308.021	64.68
308.235	68.78
308.449	9.39
308.663	-4.95
308.877	103.59
309.091	40.11
309.305	-0.85
309.519	-41.81
309.733	15.53
309.947	48.3
310.161	46.25
310.374	-19.29
310.588	87.21
310.802	36.01
311.016	9.39
311.23	62.63
311.444	40.11
311.658	54.44
311.872	36.01
312.085	101.55
312.299	105.64
312.513	25.77
312.727	3.24
312.941	89.26
313.154	-11.09
313.368	76.97
313.582	83.11
313.796	9.39
314.009	42.15
314.223	97.45
314.437	-2.9
314.651	72.87
314.864	31.91
315.078	33.96
315.292	62.63
315.505	23.72
315.719	27.82
315.933	50.35
316.146	-35.67
316.36	27.82
316.573	62.63
316.787	25.77
317.001	36.01
317.214	70.83
317.428	27.82
317.641	-31.57
317.855	25.77
318.068	17.58
318.282	31.91
318.495	56.49
318.709	19.63
318.922	44.2
319.136	85.16
319.349	-19.29
319.563	19.63
319.776	99.5
319.99	-19.29
320.203	52.39
320.417	-4.95
320.63	58.54
320.843	33.96
321.057	60.59
321.27	-17.24
321.483	25.77
321.697	97.45
321.91	9.39
322.124	-23.38
322.337	13.48
322.55	44.2
322.763	7.34
322.977	19.63
323.19	-19.29
323.403	52.39
323.617	-9.05
323.83	66.73
324.043	-15.19
324.256	15.53
324.469	50.35
324.683	81.07
324.896	60.59
325.109	99.5
325.322	66.73
325.535	42.15
325.748	66.73
325.962	83.11
326.175	42.15
326.388	144.55
326.601	-17.24
326.814	9.39
327.027	74.92
327.24	25.77
327.453	76.97
327.666	48.3
327.879	29.87
328.092	-29.52
328.305	52.39
328.518	-54.1
328.731	-4.95
328.944	48.3
329.157	31.91
329.37	50.35
329.583	95.4
329.796	56.49
330.009	29.87
330.222	83.11
330.435	38.06
330.648	56.49
330.861	27.82
331.073	-2.9
331.286	58.54
331.499	-0.85
331.712	40.11
331.925	56.49
332.138	103.59
332.35	79.02
332.563	11.43
332.776	101.55
332.989	-54.1
333.202	62.63
333.414	76.97
333.627	-39.76
333.84	50.35
334.053	144.55
334.265	3.24
334.478	17.58
334.691	38.06
334.903	126.12
335.116	33.96
335.329	72.87
335.541	-11.09
335.754	68.78
335.966	27.82
336.179	64.68
336.392	-50
336.604	81.07
336.817	72.87
337.029	33.96
337.242	-33.62
337.454	68.78
337.667	19.63
337.88	50.35
338.092	74.92
338.305	44.2
338.517	-15.19
338.729	27.82
338.942	19.63
339.154	72.87
339.367	9.39
339.579	68.78
339.792	48.3
340.004	13.48
340.217	-43.86
340.429	-21.33
340.641	48.3
340.854	31.91
341.066	17.58
341.278	83.11
341.491	97.45
341.703	91.31
341.915	87.21
342.128	23.72
342.34	33.96
342.552	-0.85
342.764	40.11
342.977	83.11
343.189	76.97
343.401	23.72
343.613	40.11
343.826	11.43
344.038	56.49
344.25	113.83
344.462	50.35
344.674	25.77
344.886	46.25
345.099	70.83
345.311	1.19
345.523	74.92
345.735	-23.38
345.947	72.87
346.159	-9.05
346.371	83.11
346.583	29.87
346.795	68.78
347.007	74.92
347.219	25.77
347.431	9.39
347.643	21.67
347.855	36.01
348.067	50.35
348.279	52.39
348.491	27.82
348.703	91.31
348.915	119.98
349.127	38.06
349.339	136.36
349.551	72.87
349.763	29.87
349.975	15.53
350.187	9.39
350.399	1.19
350.61	81.07
350.822	38.06
351.034	-15.19
351.246	23.72
351.458	99.5
351.669	48.3
351.881	83.11
352.093	66.73
352.305	101.55
352.517	44.2
352.728	40.11
352.94	50.35
353.152	-19.29
353.363	27.82
353.575	72.87
353.787	-15.19
353.999	3.24
354.21	-9.05
354.422	7.34
354.633	48.3
354.845	19.63
355.057	58.54
355.268	21.67
355.48	11.43
355.692	-25.43
355.903	52.39
356.115	36.01
356.326	87.21
356.538	97.45
356.749	64.68
356.961	72.87
357.172	27.82
357.384	48.3
357.595	19.63
357.807	33.96
358.018	103.59
358.23	101.55
358.441	119.98
358.653	29.87
358.864	81.07
359.075	-41.81
359.287	68.78
359.498	74.92
359.709	62.63
359.921	5.29
360.132	-35.67
360.344	31.91
360.555	19.63
360.766	64.68
360.977	21.67
361.189	33.96
361.4	91.31
361.611	25.77
361.823	44.2
362.034	-2.9
362.245	-0.85
362.456	89.26
362.667	33.96
362.879	72.87
363.09	17.58
363.301	115.88
363.512	-13.14
363.723	81.07
363.935	58.54
364.146	27.82
364.357	1.19
364.568	68.78
364.779	-27.48
364.99	66.73
365.201	81.07
365.412	-45.91
365.623	119.98
365.834	33.96
366.045	40.11
366.256	74.92
366.467	-23.38
366.678	58.54
366.889	17.58
367.1	91.31
367.311	113.83
367.522	15.53
367.733	38.06
367.944	3.24
368.155	25.77
368.366	44.2
368.577	33.96
368.788	15.53
368.999	72.87
369.209	-27.48
369.42	107.69
369.631	83.11
369.842	62.63
370.053	48.3
370.264	17.58
370.474	23.72
370.685	89.26
370.896	-13.14
371.107	11.43
371.317	13.48
371.528	-13.14
371.739	66.73
371.95	85.16
372.16	5.29
372.371	11.43
372.582	21.67
372.792	29.87
373.003	1.19
373.214	54.44
373.424	-29.52
373.635	54.44
373.846	105.64
374.056	-43.86
374.267	76.97
374.477	-19.29
374.688	68.78
374.898	-11.09
375.109	33.96
375.319	99.5
375.53	42.15
375.74	66.73
375.951	1.19
376.161	76.97
376.372	74.92
376.582	-41.81
376.793	44.2
377.003	74.92
377.214	60.59
377.424	-17.24
377.635	97.45
377.845	40.11
378.055	126.12
378.266	15.53
378.476	107.69
378.686	21.67
378.897	128.17
379.107	68.78
379.317	7.34
379.528	31.91
379.738	148.65
379.948	21.67
380.158	109.74
380.369	29.87
380.579	70.83
380.789	87.21
380.999	11.43
381.21	15.53
381.42	128.17
381.63	74.92
381.84	36.01
382.05	9.39
382.261	50.35
382.471	40.11
382.681	33.96
382.891	85.16
383.101	48.3
383.311	9.39
383.521	17.58
383.731	19.63
383.941	74.92
384.151	54.44
384.361	72.87
384.571	1.19
384.781	117.93
384.991	119.98
385.201	89.26
385.411	46.25
385.621	70.83
385.831	-9.05
386.041	50.35
386.251	3.24
386.461	15.53
386.671	85.16
386.881	33.96
387.091	9.39
387.301	56.49
387.511	40.11
387.72	58.54
387.93	89.26
388.14	48.3
388.35	60.59
388.56	93.35
388.769	79.02
388.979	3.24
389.189	42.15
389.399	-9.05
389.609	46.25
389.818	15.53
390.028	60.59
390.238	40.11
390.447	72.87
390.657	-2.9
390.867	3.24
391.076	70.83
391.286	54.44
391.496	62.63
391.705	76.97
391.915	91.31
392.125	81.07
392.334	85.16
392.544	7.34
392.753	85.16
392.963	95.4
393.172	99.5
393.382	-7
393.591	101.55
393.801	31.91
394.01	101.55
394.22	83.11
394.429	97.45
394.639	15.53
394.848	13.48
395.058	93.35
395.267	29.87
395.477	54.44
395.686	101.55
395.895	117.93
396.105	136.36
396.314	52.39
396.524	-0.85
396.733	109.74
396.942	74.92
397.152	109.74
397.361	85.16
397.57	158.89
397.78	93.35
397.989	66.73
398.198	117.93
398.407	74.92
398.617	101.55
398.826	74.92
399.035	76.97
399.244	122.02
399.453	46.25
399.663	64.68
399.872	169.13
400.081	111.78
400.29	66.73
400.499	91.31
400.708	81.07
400.917	103.59
401.127	109.74
401.336	76.97
401.545	130.22
401.754	58.54
401.963	115.88
402.172	74.92
402.381	83.11
402.59	85.16
402.799	144.55
403.008	64.68
403.217	132.26
403.426	144.55
403.635	23.72
403.844	74.92
404.053	128.17
404.262	203.94
404.471	97.45
404.68	134.31
404.888	109.74
405.097	76.97
405.306	171.18
405.515	68.78
405.724	140.46
405.933	175.27
406.142	187.56
406.35	101.55
406.559	203.94
406.768	154.79
406.977	179.37
407.185	113.83
407.394	152.74
407.603	138.41
407.812	105.64
408.02	267.43
408.229	156.84
408.438	197.8
408.646	158.89
408.855	185.51
409.064	74.92
409.272	156.84
409.481	249
409.69	199.85
409.898	228.52
410.107	269.48
410.315	236.71
410.524	255.14
410.733	285.86
410.941	287.91
411.15	287.91
411.358	261.29
411.567	273.57
411.775	285.86
411.984	271.53
412.192	234.66
412.401	357.54
412.609	355.49
412.818	339.11
413.026	369.83
413.234	369.83
413.443	371.88
413.651	394.4
413.86	388.26
414.068	517.28
414.276	468.13
414.485	441.51
414.693	476.32
414.901	451.75
415.11	513.19
415.318	529.57
415.526	525.47
415.734	453.8
415.943	535.71
416.151	605.35
416.359	568.48
416.567	527.52
416.776	689.31
416.984	615.59
417.192	681.12
417.4	707.74
417.608	679.07
417.817	724.13
418.025	722.08
418.233	822.43
418.441	812.19
418.649	828.57
418.857	898.2
419.065	804
419.273	965.79
419.481	910.49
419.689	1078.43
419.897	1025.18
420.105	1096.86
420.313	1152.15
420.521	1158.3
420.729	1107.1
420.937	1232.02
421.145	1252.5
421.353	1215.64
421.561	1438.87
421.769	1420.44
421.977	1424.53
422.185	1440.92
422.393	1461.4
422.601	1664.15
422.809	1551.51
423.017	1639.57
423.224	1629.33
423.432	1672.34
423.64	1764.5
423.848	1903.76
424.056	1928.33
424.263	2065.55
424.471	2040.97
424.679	2028.68
424.887	2116.75
425.094	2190.47
425.302	2225.29
425.51	2333.83
425.718	2372.74
425.925	2342.02
426.133	2434.18
426.341	2663.55
426.548	2808.96
426.756	2718.85
426.964	2862.21
427.171	2899.07
427.379	2950.27
427.586	3052.67
427.794	3064.96
428.001	3185.79
428.209	3456.12
428.417	3417.21
428.624	3630.2
428.832	3644.53
429.039	3609.72
429.247	3562.61
429.454	4007.02
429.662	4205.67
429.869	3925.1
430.076	4107.37
430.284	4222.06
430.491	4220.01
430.699	4580.45
430.906	4695.14
431.114	4672.61
431.321	4772.96
431.528	4883.55
431.736	5114.97
431.943	5334.11
432.15	5262.43
432.358	5278.81
432.565	5559.38
432.772	5635.16
432.979	5915.73
433.187	6085.71
433.394	6040.65
433.601	6530.12
433.808	6659.14
434.016	6515.78
434.223	6784.07
434.43	7150.65
434.637	7048.26
434.844	7287.87
435.052	7531.58
435.259	7472.18
435.466	7552.06
435.673	7638.07
435.88	8016.94
436.087	8418.35
436.294	8346.67
436.501	8299.56
436.708	8563.75
436.915	8913.95
437.122	9202.72
437.329	9249.82
437.537	9382.94
437.743	9643.03
437.95	9534.49
438.157	10032.15
438.364	10550.28
438.571	10394.64
438.778	10343.44
438.985	11576.31
439.192	11023.36
439.399	11453.44
439.606	11045.89
439.813	11555.83
440.02	12454.89
440.227	12231.66
440.433	11977.72
440.64	12399.6
440.847	12229.62
441.054	12717.03
441.261	13415.39
441.467	13364.19
441.674	13511.64
441.881	14111.7
442.088	14029.78
442.294	13992.92
442.501	14420.94
442.708	14687.18
442.914	15098.82
443.121	15750.07
443.328	15442.88
443.534	16276.4
443.741	16214.96
443.948	15758.27
444.154	17169.32
444.361	16870.31
444.568	17204.13
444.774	17089.45
444.981	17439.65
445.187	17931.16
445.394	18848.65
445.6	18420.63
445.807	19958.65
446.013	19360.64
446.22	19473.28
446.426	20458.35
446.633	20562.8
446.839	21146.47
447.046	20364.15
447.252	21402.47
447.459	21369.7
447.665	21408.61
447.871	22217.56
448.078	23436.1
448.284	22412.12
448.491	22858.57
448.697	23892.8
448.903	24322.87
449.11	24363.83
449.316	24011.58
449.522	24490.8
449.728	25113.39
449.935	25410.34
450.141	25113.39
450.347	25768.74
450.553	25105.2
450.76	25520.93
450.966	25908
451.172	25932.57
451.378	26348.31
451.584	26082.08
451.791	26747.67
451.997	26446.62
452.203	27147.02
452.409	27087.63
452.615	26823.44
452.821	25938.72
453.027	25729.83
453.233	27212.56
453.44	25834.27
453.646	26295.07
453.852	26223.39
454.058	26809.11
454.264	26227.48
454.47	26667.8
454.676	25858.85
454.882	26743.57
455.088	24550.2
455.294	25041.71
455.5	25422.63
455.705	25588.52
455.911	24361.78
456.117	24025.92
456.323	23513.92
456.529	22541.14
456.735	23190.34
456.941	22885.2
457.147	22485.84
457.352	21760.86
457.558	21738.33
457.764	21603.17
457.97	21144.42
458.176	20925.29
458.381	20669.3
458.587	19843.96
458.793	19583.87
458.999	19014.54
459.204	20093.82
459.41	19790.72
459.616	18293.65
459.821	18346.9
460.027	18129.81
460.233	17894.3
460.438	17120.17
460.644	17173.41
460.85	16262.07
461.055	16288.69
461.261	16135.09
461.466	14951.37
461.672	14541.77
461.878	15528.89
462.083	14621.64
462.289	14152.66
462.494	14248.91
462.7	13394.91
462.905	13138.91
463.111	13741.02
463.316	13636.57
463.522	13421.53
463.727	13466.59
463.932	13368.29
464.138	13366.24
464.343	13501.4
464.549	12987.36
464.754	13296.61
464.959	13339.62
465.165	13226.98
465.37	12786.66
465.575	12229.62
465.781	12968.93
465.986	13009.89
466.191	12340.21
466.397	12145.65
466.602	11631.61
466.807	12116.98
467.012	12012.53
467.218	11992.05
467.423	11938.8
467.628	11983.86
467.833	12461.04
468.038	12045.3
468.244	11723.77
468.449	12076.02
