Data from USB4F104151__49__12-53-55-394.txt Node

Date: Fri Mar 14 12:53:55 EDT 2025
User: louis
Spectrometer: USB4F10415
Trigger mode: 4
Integration Time (sec): 1.000000E-2
Scans to average: 1
Electric dark correction enabled: true
Nonlinearity correction enabled: false
Boxcar width: 0
XAxis mode: Wavelengths
Number of Pixels in Spectrum: 3648
>>>>>Begin Spectral Data<<<<<
178.204	-64.68
178.424	-64.68
178.644	-64.68
178.864	-31.91
179.084	-111.78
179.304	9.05
179.524	-58.54
179.744	-13.48
179.964	45.91
180.184	37.72
180.404	21.33
180.624	11.09
180.844	9.05
181.064	-31.91
181.283	37.72
181.503	-38.06
181.723	-29.87
181.943	-11.43
182.163	23.38
182.383	9.05
182.602	-40.11
182.822	-72.87
183.042	33.62
183.262	-19.63
183.482	-31.91
183.701	-29.87
183.921	21.33
184.141	-40.11
184.361	-17.58
184.58	-40.11
184.8	23.38
185.02	-25.77
185.239	7
185.459	13.14
185.679	-40.11
185.898	-36.01
186.118	0.85
186.338	-107.69
186.557	-81.07
186.777	7
186.997	-62.63
187.216	-11.43
187.436	-40.11
187.655	-99.5
187.875	-7.34
188.095	-38.06
188.314	17.24
188.534	-29.87
188.753	-21.67
188.973	37.72
189.192	25.43
189.412	-19.63
189.631	33.62
189.851	2.9
190.07	4.95
190.29	-15.53
190.509	19.29
190.729	-60.59
190.948	43.86
191.168	123.73
191.387	-31.91
191.607	-48.3
191.826	-62.63
192.045	-50.35
192.265	2.9
192.484	31.57
192.704	15.19
192.923	-17.58
193.142	2.9
193.362	-52.39
193.581	27.48
193.8	-36.01
194.02	-56.49
194.239	-31.91
194.458	29.52
194.678	-1.19
194.897	7
195.116	-42.15
195.335	0.85
195.555	50
195.774	-38.06
195.993	-29.87
196.212	-64.68
196.432	0.85
196.651	11.09
196.87	-72.87
197.089	31.57
197.308	-40.11
197.528	17.24
197.747	31.57
197.966	9.05
198.185	31.57
198.404	39.76
198.623	19.29
198.842	-3.24
199.062	-46.25
199.281	33.62
199.5	-23.72
199.719	-1.19
199.938	-29.87
200.157	-25.77
200.376	-31.91
200.595	-38.06
200.814	0.85
201.033	54.1
201.252	-23.72
201.471	-36.01
201.69	-5.29
201.909	11.09
202.128	2.9
202.347	13.14
202.566	-46.25
202.785	0.85
203.004	-44.2
203.223	43.86
203.442	23.38
203.661	-97.45
203.879	-58.54
204.098	-44.2
204.317	-13.48
204.536	-79.02
204.755	25.43
204.974	-29.87
205.193	-27.82
205.411	31.57
205.63	-97.45
205.849	41.81
206.068	-21.67
206.287	-1.19
206.505	43.86
206.724	13.14
206.943	-31.91
207.162	-76.97
207.381	39.76
207.599	4.95
207.818	-38.06
208.037	9.05
208.255	-5.29
208.474	43.86
208.693	9.05
208.911	23.38
209.13	-36.01
209.349	39.76
209.567	27.48
209.786	35.67
210.005	7
210.223	-81.07
210.442	-38.06
210.661	27.48
210.879	-17.58
211.098	7
211.316	-85.16
211.535	11.09
211.753	33.62
211.972	-15.53
212.191	39.76
212.409	-48.3
212.628	-31.91
212.846	11.09
213.065	-42.15
213.283	-29.87
213.502	-7.34
213.72	-60.59
213.938	0.85
214.157	-56.49
214.375	0.85
214.594	-46.25
214.812	-21.67
215.031	9.05
215.249	-60.59
215.467	-23.72
215.686	-46.25
215.904	52.05
216.122	54.1
216.341	-17.58
216.559	-13.48
216.778	72.53
216.996	33.62
217.214	-66.73
217.432	-60.59
217.651	-31.91
217.869	-21.67
218.087	4.95
218.306	-5.29
218.524	15.19
218.742	7
218.96	93.01
219.179	-66.73
219.397	-13.48
219.615	2.9
219.833	17.24
220.051	-54.44
220.27	-19.63
220.488	-11.43
220.706	-44.2
220.924	-15.53
221.142	-11.43
221.36	-3.24
221.578	43.86
221.796	-29.87
222.015	0.85
222.233	-5.29
222.451	-40.11
222.669	-31.91
222.887	-33.96
223.105	-1.19
223.323	64.34
223.541	-23.72
223.759	4.95
223.977	-52.39
224.195	-25.77
224.413	-54.44
224.631	-29.87
224.849	25.43
225.067	17.24
225.285	-13.48
225.503	25.43
225.721	-46.25
225.939	35.67
226.157	-27.82
226.375	37.72
226.592	-56.49
226.81	-38.06
227.028	-36.01
227.246	27.48
227.464	-25.77
227.682	-31.91
227.9	2.9
228.117	-58.54
228.335	-70.83
228.553	11.09
228.771	-44.2
228.989	9.05
229.206	-119.98
229.424	-13.48
229.642	-15.53
229.86	-44.2
230.077	-33.96
230.295	-11.43
230.513	-44.2
230.731	4.95
230.948	-3.24
231.166	35.67
231.384	-38.06
231.601	-42.15
231.819	39.76
232.037	58.2
232.254	62.29
232.472	-19.63
232.689	-7.34
232.907	-23.72
233.125	-19.63
233.342	-31.91
233.56	-70.83
233.777	9.05
233.995	45.91
234.213	2.9
234.43	41.81
234.648	0.85
234.865	-19.63
235.083	-19.63
235.3	23.38
235.518	2.9
235.735	15.19
235.953	-85.16
236.17	-111.78
236.388	-27.82
236.605	-11.43
236.822	27.48
237.04	4.95
237.257	-40.11
237.475	-25.77
237.692	13.14
237.909	-31.91
238.127	-17.58
238.344	9.05
238.562	-23.72
238.779	2.9
238.996	-13.48
239.214	13.14
239.431	33.62
239.648	-7.34
239.865	-15.53
240.083	13.14
240.3	39.76
240.517	-13.48
240.735	-29.87
240.952	-15.53
241.169	-36.01
241.386	-38.06
241.603	-25.77
241.821	-42.15
242.038	-7.34
242.255	9.05
242.472	0.85
242.689	2.9
242.907	66.39
243.124	-19.63
243.341	-81.07
243.558	-48.3
243.775	7
243.992	-19.63
244.209	-9.39
244.426	9.05
244.643	52.05
244.86	-15.53
245.078	11.09
245.295	9.05
245.512	52.05
245.729	-3.24
245.946	-25.77
246.163	4.95
246.38	-21.67
246.597	-50.35
246.814	-54.44
247.031	-31.91
247.248	0.85
247.464	39.76
247.681	-29.87
247.898	52.05
248.115	-7.34
248.332	-93.35
248.549	-7.34
248.766	-9.39
248.983	78.68
249.2	-42.15
249.417	-36.01
249.633	21.33
249.85	7
250.067	-38.06
250.284	-3.24
250.501	11.09
250.717	-1.19
250.934	-83.11
251.151	15.19
251.368	31.57
251.585	-27.82
251.801	-5.29
252.018	-7.34
252.235	17.24
252.451	-36.01
252.668	50
252.885	2.9
253.102	11.09
253.318	-38.06
253.535	0.85
253.752	-7.34
253.968	-54.44
254.185	21.33
254.401	-13.48
254.618	7
254.835	39.76
255.051	35.67
255.268	-23.72
255.484	-23.72
255.701	-42.15
255.917	-7.34
256.134	50
256.351	-60.59
256.567	-31.91
256.784	31.57
257	-113.83
257.217	-25.77
257.433	52.05
257.65	-29.87
257.866	27.48
258.082	-1.19
258.299	0.85
258.515	-23.72
258.732	50
258.948	-13.48
259.165	-3.24
259.381	-15.53
259.597	2.9
259.814	-44.2
260.03	-99.5
260.246	9.05
260.463	33.62
260.679	47.96
260.895	-1.19
261.112	-21.67
261.328	-21.67
261.544	41.81
261.761	41.81
261.977	50
262.193	-54.44
262.409	-48.3
262.626	-11.43
262.842	17.24
263.058	-83.11
263.274	-7.34
263.49	-44.2
263.707	39.76
263.923	-38.06
264.139	15.19
264.355	-9.39
264.571	58.2
264.787	-40.11
265.004	25.43
265.22	-52.39
265.436	-3.24
265.652	-21.67
265.868	-21.67
266.084	-66.73
266.3	-85.16
266.516	-44.2
266.732	23.38
266.948	-72.87
267.164	13.14
267.38	4.95
267.596	2.9
267.812	23.38
268.028	52.05
268.244	-19.63
268.46	-109.74
268.676	-38.06
268.892	4.95
269.108	-21.67
269.324	-21.67
269.54	21.33
269.756	-13.48
269.972	-33.96
270.188	0.85
270.403	-29.87
270.619	25.43
270.835	-76.97
271.051	-11.43
271.267	-21.67
271.483	56.15
271.698	-25.77
271.914	-5.29
272.13	-105.64
272.346	-48.3
272.562	11.09
272.777	41.81
272.993	62.29
273.209	-3.24
273.425	-48.3
273.64	-54.44
273.856	-23.72
274.072	-60.59
274.287	9.05
274.503	-7.34
274.719	58.2
274.934	-56.49
275.15	23.38
275.366	-5.29
275.581	-56.49
275.797	-7.34
276.012	-21.67
276.228	-23.72
276.444	0.85
276.659	43.86
276.875	25.43
277.09	-64.68
277.306	7
277.521	78.68
277.737	-31.91
277.952	60.24
278.168	-87.21
278.383	-11.43
278.599	-9.39
278.814	-7.34
279.03	-31.91
279.245	9.05
279.461	-3.24
279.676	27.48
279.892	-15.53
280.107	7
280.322	-11.43
280.538	70.48
280.753	-103.59
280.969	41.81
281.184	-9.39
281.399	19.29
281.615	-64.68
281.83	43.86
282.045	-44.2
282.26	-31.91
282.476	-15.53
282.691	25.43
282.906	37.72
283.122	-7.34
283.337	2.9
283.552	-48.3
283.767	-17.58
283.983	4.95
284.198	-31.91
284.413	-38.06
284.628	-60.59
284.843	-5.29
285.058	7
285.274	-70.83
285.489	2.9
285.704	0.85
285.919	-11.43
286.134	27.48
286.349	-56.49
286.564	-44.2
286.779	-52.39
286.995	-44.2
287.21	-72.87
287.425	39.76
287.64	-54.44
287.855	-68.78
288.07	-44.2
288.285	15.19
288.5	-33.96
288.715	4.95
288.93	50
289.145	19.29
289.36	-17.58
289.575	25.43
289.79	-21.67
290.004	-13.48
290.219	17.24
290.434	-23.72
290.649	-1.19
290.864	-52.39
291.079	-60.59
291.294	-93.35
291.509	4.95
291.724	-1.19
291.938	-54.44
292.153	-19.63
292.368	-42.15
292.583	-66.73
292.798	13.14
293.012	19.29
293.227	-9.39
293.442	-60.59
293.657	-74.92
293.871	-36.01
294.086	-11.43
294.301	-40.11
294.516	-31.91
294.73	19.29
294.945	-42.15
295.16	-29.87
295.374	2.9
295.589	-50.35
295.804	-42.15
296.018	9.05
296.233	-19.63
296.447	2.9
296.662	2.9
296.877	-7.34
297.091	-13.48
297.306	-25.77
297.52	-54.44
297.735	-5.29
297.949	9.05
298.164	58.2
298.378	-13.48
298.593	-54.44
298.807	11.09
299.022	-68.78
299.236	7
299.451	-5.29
299.665	-48.3
299.88	-13.48
300.094	41.81
300.309	-1.19
300.523	-60.59
300.737	-29.87
300.952	11.09
301.166	-9.39
301.381	-5.29
301.595	-7.34
301.809	33.62
302.024	-11.43
302.238	-19.63
302.452	33.62
302.667	-62.63
302.881	4.95
303.095	21.33
303.309	37.72
303.524	50
303.738	21.33
303.952	52.05
304.166	0.85
304.381	-44.2
304.595	4.95
304.809	45.91
305.023	17.24
305.237	56.15
305.452	-29.87
305.666	45.91
305.88	13.14
306.094	-23.72
306.308	52.05
306.522	17.24
306.736	11.09
306.95	-87.21
307.164	-83.11
307.379	0.85
307.593	-72.87
307.807	-89.26
308.021	-50.35
308.235	-50.35
308.449	39.76
308.663	0.85
308.877	2.9
309.091	-7.34
309.305	2.9
309.519	-38.06
309.733	2.9
309.947	-9.39
310.161	4.95
310.374	9.05
310.588	31.57
310.802	21.33
311.016	25.43
311.23	-27.82
311.444	-60.59
311.658	-21.67
311.872	-17.58
312.085	-38.06
312.299	37.72
312.513	-3.24
312.727	-17.58
312.941	-50.35
313.154	31.57
313.368	25.43
313.582	-72.87
313.796	-36.01
314.009	37.72
314.223	25.43
314.437	-1.19
314.651	-29.87
314.864	-79.02
315.078	-15.53
315.292	-46.25
315.505	50
315.719	-44.2
315.933	-5.29
316.146	-27.82
316.36	-9.39
316.573	72.53
316.787	-48.3
317.001	0.85
317.214	-13.48
317.428	56.15
317.641	-91.31
317.855	27.48
318.068	-68.78
318.282	-21.67
318.495	-17.58
318.709	2.9
318.922	-13.48
319.136	17.24
319.349	-29.87
319.563	-31.91
319.776	-56.49
319.99	-3.24
320.203	4.95
320.417	29.52
320.63	9.05
320.843	27.48
321.057	-19.63
321.27	-72.87
321.483	-25.77
321.697	47.96
321.91	-33.96
322.124	2.9
322.337	27.48
322.55	15.19
322.763	25.43
322.977	-40.11
323.19	-44.2
323.403	72.53
323.617	-11.43
323.83	-36.01
324.043	-9.39
324.256	-44.2
324.469	-9.39
324.683	-52.39
324.896	19.29
325.109	31.57
325.322	9.05
325.535	-46.25
325.748	-46.25
325.962	-29.87
326.175	19.29
326.388	-103.59
326.601	-3.24
326.814	-15.53
327.027	-9.39
327.24	-29.87
327.453	2.9
327.666	-15.53
327.879	47.96
328.092	-46.25
328.305	-29.87
328.518	-7.34
328.731	-70.83
328.944	-29.87
329.157	33.62
329.37	-23.72
329.583	47.96
329.796	-9.39
330.009	33.62
330.222	-5.29
330.435	-60.59
330.648	-15.53
330.861	-54.44
331.073	-1.19
331.286	-7.34
331.499	-33.96
331.712	-1.19
331.925	-68.78
332.138	4.95
332.35	11.09
332.563	-25.77
332.776	-29.87
332.989	19.29
333.202	-48.3
333.414	2.9
333.627	-38.06
333.84	62.29
334.053	-9.39
334.265	4.95
334.478	-54.44
334.691	-17.58
334.903	-21.67
335.116	-13.48
335.329	-31.91
335.541	37.72
335.754	4.95
335.966	-64.68
336.179	84.82
336.392	-72.87
336.604	29.52
336.817	-25.77
337.029	13.14
337.242	56.15
337.454	25.43
337.667	15.19
337.88	-13.48
338.092	13.14
338.305	17.24
338.517	-70.83
338.729	-74.92
338.942	-29.87
339.154	-9.39
339.367	-48.3
339.579	2.9
339.792	-1.19
340.004	4.95
340.217	-60.59
340.429	-27.82
340.641	-58.54
340.854	29.52
341.066	-19.63
341.278	-25.77
341.491	-15.53
341.703	27.48
341.915	-46.25
342.128	-52.39
342.34	-21.67
342.552	37.72
342.764	9.05
342.977	-5.29
343.189	-21.67
343.401	2.9
343.613	-72.87
343.826	33.62
344.038	-15.53
344.25	-17.58
344.462	-3.24
344.674	-13.48
344.886	-42.15
345.099	9.05
345.311	-23.72
345.523	-83.11
345.735	-29.87
345.947	-3.24
346.159	21.33
346.371	17.24
346.583	-52.39
346.795	35.67
347.007	-1.19
347.219	-76.97
347.431	-33.96
347.643	-25.77
347.855	52.05
348.067	58.2
348.279	-38.06
348.491	35.67
348.703	66.39
348.915	4.95
349.127	-13.48
349.339	23.38
349.551	50
349.763	-42.15
349.975	2.9
350.187	-29.87
350.399	9.05
350.61	-21.67
350.822	15.19
351.034	-25.77
351.246	-25.77
351.458	-62.63
351.669	19.29
351.881	19.29
352.093	-38.06
352.305	11.09
352.517	-76.97
352.728	-64.68
352.94	52.05
353.152	-25.77
353.363	-1.19
353.575	97.11
353.787	-1.19
353.999	11.09
354.21	27.48
354.422	4.95
354.633	-3.24
354.845	-31.91
355.057	-33.96
355.268	41.81
355.48	13.14
355.692	-5.29
355.903	-70.83
356.115	-9.39
356.326	-15.53
356.538	-9.39
356.749	-31.91
356.961	-15.53
357.172	-42.15
357.384	-3.24
357.595	-5.29
357.807	82.77
358.018	-62.63
358.23	25.43
358.441	-44.2
358.653	45.91
358.864	-56.49
359.075	-66.73
359.287	-36.01
359.498	0.85
359.709	-44.2
359.921	76.63
360.132	-31.91
360.344	35.67
360.555	23.38
360.766	-46.25
360.977	-79.02
361.189	4.95
361.4	2.9
361.611	-74.92
361.823	47.96
362.034	60.24
362.245	-9.39
362.456	-23.72
362.667	0.85
362.879	-29.87
363.09	-66.73
363.301	17.24
363.512	-52.39
363.723	86.87
363.935	-36.01
364.146	56.15
364.357	-3.24
364.568	-7.34
364.779	-23.72
364.99	-85.16
365.201	-21.67
365.412	-7.34
365.623	-29.87
365.834	-36.01
366.045	-5.29
366.256	125.78
366.467	-25.77
366.678	4.95
366.889	-40.11
367.1	-44.2
367.311	-15.53
367.522	76.63
367.733	-15.53
367.944	-70.83
368.155	-19.63
368.366	-1.19
368.577	19.29
368.788	-1.19
368.999	-15.53
369.209	-23.72
369.42	31.57
369.631	-17.58
369.842	-7.34
370.053	-48.3
370.264	50
370.474	-1.19
370.685	45.91
370.896	-3.24
371.107	13.14
371.317	27.48
371.528	-38.06
371.739	-79.02
371.95	25.43
372.16	17.24
372.371	21.33
372.582	-21.67
372.792	-1.19
373.003	17.24
373.214	-74.92
373.424	78.68
373.635	9.05
373.846	23.38
374.056	56.15
374.267	19.29
374.477	-9.39
374.688	-36.01
374.898	0.85
375.109	-66.73
375.319	-5.29
375.53	-42.15
375.74	-50.35
375.951	-15.53
376.161	-5.29
376.372	39.76
376.582	11.09
376.793	-27.82
377.003	64.34
377.214	-81.07
377.424	11.09
377.635	39.76
377.845	-42.15
378.055	19.29
378.266	-5.29
378.476	4.95
378.686	-70.83
378.897	-44.2
379.107	-15.53
379.317	33.62
379.528	-11.43
379.738	0.85
379.948	-66.73
380.158	35.67
380.369	-5.29
380.579	21.33
380.789	0.85
380.999	-29.87
381.21	-5.29
381.42	80.72
381.63	7
381.84	-42.15
382.05	11.09
382.261	-62.63
382.471	-5.29
382.681	-48.3
382.891	-11.43
383.101	31.57
383.311	-1.19
383.521	-23.72
383.731	-95.4
383.941	-27.82
384.151	-21.67
384.361	-9.39
384.571	-23.72
384.781	15.19
384.991	-13.48
385.201	35.67
385.411	-11.43
385.621	2.9
385.831	-74.92
386.041	-19.63
386.251	15.19
386.461	58.2
386.671	27.48
386.881	-60.59
387.091	-3.24
387.301	33.62
387.511	-7.34
387.72	-33.96
387.93	-44.2
388.14	-40.11
388.35	-7.34
388.56	27.48
388.769	13.14
388.979	0.85
389.189	23.38
389.399	-19.63
389.609	29.52
389.818	9.05
390.028	2.9
390.238	78.68
390.447	-7.34
390.657	-64.68
390.867	19.29
391.076	-29.87
391.286	7
391.496	-36.01
391.705	-13.48
391.915	25.43
392.125	58.2
392.334	43.86
392.544	-29.87
392.753	-23.72
392.963	-52.39
393.172	84.82
393.382	-50.35
393.591	-13.48
393.801	-64.68
394.01	37.72
394.22	-21.67
394.429	-56.49
394.639	-48.3
394.848	13.14
395.058	11.09
395.267	37.72
395.477	37.72
395.686	-29.87
395.895	54.1
396.105	-27.82
396.314	13.14
396.524	50
396.733	-44.2
396.942	-21.67
397.152	-19.63
397.361	54.1
397.57	-15.53
397.78	-46.25
397.989	54.1
398.198	21.33
398.407	-52.39
398.617	-13.48
398.826	-13.48
399.035	17.24
399.244	0.85
399.453	21.33
399.663	-13.48
399.872	11.09
400.081	11.09
400.29	27.48
400.499	-48.3
400.708	-19.63
400.917	-48.3
401.127	17.24
401.336	15.19
401.545	-23.72
401.754	-25.77
401.963	-40.11
402.172	-15.53
402.381	50
402.59	-9.39
402.799	-11.43
403.008	-1.19
403.217	-21.67
403.426	47.96
403.635	-70.83
403.844	-9.39
404.053	-5.29
404.262	-31.91
404.471	2.9
404.68	-9.39
404.888	11.09
405.097	21.33
405.306	-13.48
405.515	27.48
405.724	4.95
405.933	50
406.142	29.52
406.35	68.44
406.559	27.48
406.768	-29.87
406.977	-1.19
407.185	-25.77
407.394	9.05
407.603	56.15
407.812	113.49
408.02	-7.34
408.229	9.05
408.438	33.62
408.646	70.48
408.855	-50.35
409.064	-1.19
409.272	-1.19
409.481	66.39
409.69	-21.67
409.898	39.76
410.107	21.33
410.315	7
410.524	29.52
410.733	27.48
410.941	43.86
411.15	19.29
411.358	39.76
411.567	56.15
411.775	97.11
411.984	31.57
412.192	93.01
412.401	66.39
412.609	97.11
412.818	64.34
413.026	54.1
413.234	166.74
413.443	4.95
413.651	45.91
413.86	131.92
414.068	84.82
414.276	185.17
414.485	84.82
414.693	78.68
414.901	123.73
415.11	95.06
415.318	99.16
415.526	176.98
415.734	121.68
415.943	115.54
416.151	140.12
416.359	133.97
416.567	131.92
416.776	76.63
416.984	115.54
417.192	119.64
417.4	224.08
417.608	156.5
417.817	140.12
418.025	185.17
418.233	254.8
418.441	187.22
418.649	205.65
418.857	238.42
419.065	252.75
419.273	236.37
419.481	205.65
419.689	207.7
419.897	240.47
420.105	346.96
420.313	271.19
420.521	271.19
420.729	224.08
420.937	201.55
421.145	344.91
421.353	283.47
421.561	318.29
421.769	334.67
421.977	316.24
422.185	377.68
422.393	435.02
422.601	404.3
422.809	482.13
423.017	412.5
423.224	400.21
423.432	414.54
423.64	480.08
423.848	430.93
424.056	484.17
424.263	475.98
424.471	453.45
424.679	566.09
424.887	537.42
425.094	525.13
425.302	510.8
425.51	514.89
425.718	643.92
425.925	570.19
426.133	570.19
426.341	664.4
426.548	779.08
426.756	727.88
426.964	674.64
427.171	709.45
427.379	762.7
427.586	811.85
427.794	811.85
428.001	883.53
428.209	897.86
428.417	791.37
428.624	961.35
428.832	893.77
429.039	965.45
429.247	875.34
429.454	987.97
429.662	1209.15
429.869	1053.51
430.076	1041.22
430.284	1055.56
430.491	1100.61
430.699	1121.09
430.906	1170.24
431.114	1174.34
431.321	1252.16
431.528	1289.03
431.736	1389.38
431.943	1291.07
432.15	1418.05
432.358	1397.57
432.565	1495.87
432.772	1467.2
432.979	1393.47
433.187	1536.83
433.394	1483.58
433.601	1655.61
433.808	1631.04
434.016	1667.9
434.223	1692.48
434.43	1790.78
434.637	1809.21
434.844	1872.7
435.052	1852.22
435.259	1936.18
435.466	1917.75
435.673	1940.28
435.88	2024.25
436.087	2163.51
436.294	2245.43
436.501	2181.94
436.708	2091.83
436.915	2220.85
437.122	2351.92
437.329	2409.26
437.537	2394.93
437.743	2517.81
437.95	2442.03
438.157	2556.72
438.364	2517.81
438.571	2677.55
438.778	2726.7
438.985	2839.34
439.192	2767.66
439.399	2825
439.606	2786.09
439.813	3013.42
440.02	3205.92
440.227	3154.73
440.433	3064.61
440.64	3124.01
440.847	3085.09
441.054	3269.41
441.261	3418.91
441.467	3517.22
441.674	3435.3
441.881	3670.81
442.088	3595.04
442.294	3605.28
442.501	3738.4
442.708	3703.58
442.914	3900.19
443.121	4045.59
443.328	4023.06
443.534	4186.9
443.741	4014.87
443.948	4035.35
444.154	4373.27
444.361	4315.92
444.568	4381.46
444.774	4336.4
444.981	4446.99
445.187	4530.96
445.394	4848.4
445.6	4565.78
445.807	5118.73
446.013	4911.88
446.22	4918.03
446.426	5049.1
446.633	5235.46
446.839	5477.12
447.046	5149.45
447.252	5489.41
447.459	5481.22
447.665	5456.64
447.871	5554.94
448.078	5970.68
448.284	5591.81
448.491	5835.52
448.697	5985.02
448.903	6140.66
449.11	6093.56
449.316	6116.09
449.522	6200.05
449.728	6335.22
449.935	6253.3
450.141	6439.67
450.347	6542.07
450.553	6367.99
450.76	6419.19
450.966	6759.15
451.172	6666.99
451.378	6834.93
451.584	6822.64
451.791	6888.17
451.997	6781.68
452.203	6927.08
452.409	6951.66
452.615	6998.76
452.821	6689.52
453.027	6687.47
453.233	6849.26
453.44	6834.93
453.646	6712.05
453.852	6894.32
454.058	6818.54
454.264	6830.83
454.47	7011.05
454.676	6703.86
454.882	6920.94
455.088	6296.31
455.294	6372.08
455.5	6542.07
455.705	6613.74
455.911	6546.16
456.117	6249.21
456.323	6054.65
456.529	5876.48
456.735	6111.99
456.941	5890.81
457.147	5837.56
457.352	5690.11
457.558	5743.36
457.764	5700.35
457.97	5620.48
458.176	5507.84
458.381	5417.73
458.587	5305.09
458.793	5268.23
458.999	4965.13
459.204	5434.11
459.41	5135.11
459.616	4872.97
459.821	4922.12
460.027	4924.17
460.233	4733.71
460.438	4485.9
460.644	4598.54
460.85	4436.75
461.055	4344.6
461.261	4438.8
461.466	4049.69
461.672	3789.6
461.878	4213.53
462.083	3814.17
462.289	3885.85
462.494	3803.93
462.7	3648.29
462.905	3584.8
463.111	3697.44
463.316	3760.92
463.522	3666.72
463.727	3504.93
463.932	3703.58
464.138	3517.22
464.343	3474.21
464.549	3586.85
464.754	3543.84
464.959	3674.91
465.165	3564.32
465.37	3472.16
465.575	3298.08
465.781	3388.19
465.986	3568.41
466.191	3336.99
466.397	3289.89
466.602	3167.01
466.807	3228.45
467.012	3287.84
467.218	3259.17
467.423	3240.74
467.628	3222.31
467.833	3384.1
468.038	3365.67
468.244	3164.97
468.449	3267.36
468.654	3343.14
