Data from USB4F104151__64__12-54-10-122.txt Node

Date: Fri Mar 14 12:54:10 EDT 2025
User: louis
Spectrometer: USB4F10415
Trigger mode: 4
Integration Time (sec): 1.000000E-2
Scans to average: 1
Electric dark correction enabled: true
Nonlinearity correction enabled: false
Boxcar width: 0
XAxis mode: Wavelengths
Number of Pixels in Spectrum: 3648
>>>>>Begin Spectral Data<<<<<
178.204	-55.47
178.424	-55.47
178.644	-55.47
178.864	-37.03
179.084	-71.85
179.304	10.07
179.524	40.79
179.744	28.5
179.964	-47.27
180.184	-18.6
180.404	3.93
180.624	-80.04
180.844	14.17
181.064	-39.08
181.283	16.21
181.503	65.36
181.723	5.97
181.943	-20.65
182.163	51.03
182.383	-4.27
182.602	-16.55
182.822	20.31
183.042	-43.18
183.262	20.31
183.482	-26.79
183.701	73.56
183.921	46.93
184.141	-6.31
184.361	36.69
184.58	-32.94
184.8	5.97
185.02	16.21
185.239	-32.94
185.459	61.27
185.679	61.27
185.898	-22.7
186.118	53.08
186.338	8.02
186.557	20.31
186.777	22.36
186.997	71.51
187.216	-75.95
187.436	40.79
187.655	48.98
187.875	-6.31
188.095	-57.51
188.314	22.36
188.534	22.36
188.753	36.69
188.973	-43.18
189.192	3.93
189.412	51.03
189.631	40.79
189.851	-26.79
190.07	57.17
190.29	36.69
190.509	-10.41
190.729	65.36
190.948	-20.65
191.168	85.84
191.387	20.31
191.607	10.07
191.826	67.41
192.045	55.12
192.265	32.6
192.484	12.12
192.704	-18.6
192.923	32.6
193.142	30.55
193.362	-32.94
193.581	3.93
193.8	-16.55
194.02	-0.17
194.239	8.02
194.458	53.08
194.678	-32.94
194.897	46.93
195.116	59.22
195.335	42.84
195.555	32.6
195.774	71.51
195.993	36.69
196.212	42.84
196.432	10.07
196.651	-4.27
196.87	53.08
197.089	83.8
197.308	-10.41
197.528	-28.84
197.747	-0.17
197.966	10.07
198.185	87.89
198.404	-49.32
198.623	-53.42
198.842	-2.22
199.062	8.02
199.281	94.04
199.5	-4.27
199.719	24.4
199.938	12.12
200.157	-14.51
200.376	-16.55
200.595	51.03
200.814	3.93
201.033	-45.23
201.252	26.45
201.471	61.27
201.69	-0.17
201.909	61.27
202.128	-22.7
202.347	46.93
202.566	-2.22
202.785	-12.46
203.004	18.26
203.223	26.45
203.442	-20.65
203.661	22.36
203.879	40.79
204.098	20.31
204.317	85.84
204.536	65.36
204.755	-2.22
204.974	22.36
205.193	28.5
205.411	141.14
205.63	10.07
205.849	44.88
206.068	55.12
206.287	55.12
206.505	16.21
206.724	32.6
206.943	-30.89
207.162	-39.08
207.381	63.32
207.599	1.88
207.818	69.46
208.037	-14.51
208.255	34.64
208.474	104.28
208.693	26.45
208.911	-8.36
209.13	14.17
209.349	-41.13
209.567	112.47
209.786	12.12
210.005	16.21
210.223	26.45
210.442	-0.17
210.661	-22.7
210.879	30.55
211.098	-4.27
211.316	14.17
211.535	26.45
211.753	-10.41
211.972	12.12
212.191	32.6
212.409	40.79
212.628	24.4
212.846	69.46
213.065	-45.23
213.283	61.27
213.502	42.84
213.72	38.74
213.938	30.55
214.157	32.6
214.375	65.36
214.594	67.41
214.812	73.56
215.031	-12.46
215.249	-22.7
215.467	51.03
215.686	36.69
215.904	-39.08
216.122	-37.03
216.341	69.46
216.559	-32.94
216.778	85.84
216.996	63.32
217.214	91.99
217.432	-4.27
217.651	16.21
217.869	14.17
218.087	3.93
218.306	26.45
218.524	-26.79
218.742	-8.36
218.96	-61.61
219.179	22.36
219.397	-18.6
219.615	34.64
219.833	-34.99
220.051	-10.41
220.27	57.17
220.488	36.69
220.706	48.98
220.924	-4.27
221.142	77.65
221.36	-127.14
221.578	53.08
221.796	116.56
222.015	-18.6
222.233	38.74
222.451	20.31
222.669	63.32
222.887	48.98
223.105	22.36
223.323	8.02
223.541	-39.08
223.759	63.32
223.977	48.98
224.195	44.88
224.413	10.07
224.631	14.17
224.849	-28.84
225.067	59.22
225.285	85.84
225.503	36.69
225.721	-18.6
225.939	-4.27
226.157	63.32
226.375	-43.18
226.592	-4.27
226.81	32.6
227.028	-28.84
227.246	79.7
227.464	-20.65
227.682	55.12
227.9	36.69
228.117	30.55
228.335	87.89
228.553	40.79
228.771	-22.7
228.989	28.5
229.206	-51.37
229.424	-6.31
229.642	12.12
229.86	14.17
230.077	32.6
230.295	-34.99
230.513	53.08
230.731	91.99
230.948	-4.27
231.166	18.26
231.384	-30.89
231.601	22.36
231.819	30.55
232.037	51.03
232.254	34.64
232.472	-16.55
232.689	14.17
232.907	73.56
233.125	14.17
233.342	75.6
233.56	44.88
233.777	55.12
233.995	-0.17
234.213	24.4
234.43	14.17
234.648	26.45
234.865	5.97
235.083	44.88
235.3	48.98
235.518	22.36
235.735	5.97
235.953	83.8
236.17	30.55
236.388	34.64
236.605	42.84
236.822	55.12
237.04	5.97
237.257	46.93
237.475	5.97
237.692	63.32
237.909	40.79
238.127	26.45
238.344	-14.51
238.562	44.88
238.779	-53.42
238.996	28.5
239.214	-57.51
239.431	34.64
239.648	55.12
239.865	26.45
240.083	61.27
240.3	10.07
240.517	-47.27
240.735	24.4
240.952	51.03
241.169	46.93
241.386	32.6
241.603	-16.55
241.821	59.22
242.038	10.07
242.255	5.97
242.472	-39.08
242.689	40.79
242.907	83.8
243.124	55.12
243.341	65.36
243.558	-41.13
243.775	53.08
243.992	-8.36
244.209	5.97
244.426	8.02
244.643	46.93
244.86	-16.55
245.078	44.88
245.295	65.36
245.512	18.26
245.729	44.88
245.946	36.69
246.163	-8.36
246.38	26.45
246.597	-12.46
246.814	55.12
247.031	57.17
247.248	55.12
247.464	38.74
247.681	55.12
247.898	30.55
248.115	34.64
248.332	3.93
248.549	-6.31
248.766	10.07
248.983	73.56
249.2	-20.65
249.417	69.46
249.633	104.28
249.85	53.08
250.067	26.45
250.284	55.12
250.501	30.55
250.717	53.08
250.934	63.32
251.151	10.07
251.368	26.45
251.585	44.88
251.801	38.74
252.018	38.74
252.235	51.03
252.451	-59.56
252.668	28.5
252.885	48.98
253.102	61.27
253.318	-32.94
253.535	-4.27
253.752	34.64
253.968	40.79
254.185	-53.42
254.401	12.12
254.618	53.08
254.835	38.74
255.051	83.8
255.268	20.31
255.484	120.66
255.701	69.46
255.917	63.32
256.134	-10.41
256.351	-4.27
256.567	36.69
256.784	22.36
257	-10.41
257.217	91.99
257.433	-10.41
257.65	69.46
257.866	1.88
258.082	16.21
258.299	-8.36
258.515	-8.36
258.732	3.93
258.948	65.36
259.165	46.93
259.381	63.32
259.597	69.46
259.814	24.4
260.03	75.6
260.246	-0.17
260.463	12.12
260.679	44.88
260.895	-41.13
261.112	14.17
261.328	22.36
261.544	20.31
261.761	32.6
261.977	89.94
262.193	-28.84
262.409	71.51
262.626	5.97
262.842	102.23
263.058	20.31
263.274	34.64
263.49	8.02
263.707	73.56
263.923	77.65
264.139	30.55
264.355	40.79
264.571	40.79
264.787	26.45
265.004	67.41
265.22	67.41
265.436	104.28
265.652	46.93
265.868	-45.23
266.084	12.12
266.3	61.27
266.516	57.17
266.732	24.4
266.948	-32.94
267.164	57.17
267.38	65.36
267.596	40.79
267.812	36.69
268.028	12.12
268.244	10.07
268.46	55.12
268.676	30.55
268.892	22.36
269.108	22.36
269.324	18.26
269.54	44.88
269.756	20.31
269.972	34.64
270.188	44.88
270.403	51.03
270.619	42.84
270.835	-16.55
271.051	14.17
271.267	22.36
271.483	3.93
271.698	71.51
271.914	55.12
272.13	1.88
272.346	124.76
272.562	-43.18
272.777	-0.17
272.993	30.55
273.209	34.64
273.425	32.6
273.64	44.88
273.856	40.79
274.072	98.13
274.287	-8.36
274.503	77.65
274.719	24.4
274.934	-24.75
275.15	-4.27
275.366	1.88
275.581	51.03
275.797	108.37
276.012	-32.94
276.228	10.07
276.444	3.93
276.659	18.26
276.875	65.36
277.09	8.02
277.306	-4.27
277.521	22.36
277.737	-4.27
277.952	3.93
278.168	51.03
278.383	-2.22
278.599	32.6
278.814	22.36
279.03	-16.55
279.245	46.93
279.461	-37.03
279.676	-10.41
279.892	65.36
280.107	-2.22
280.322	30.55
280.538	83.8
280.753	28.5
280.969	114.52
281.184	57.17
281.399	42.84
281.615	22.36
281.83	1.88
282.045	89.94
282.26	106.32
282.476	-4.27
282.691	30.55
282.906	-49.32
283.122	-53.42
283.337	-18.6
283.552	94.04
283.767	18.26
283.983	20.31
284.198	67.41
284.413	42.84
284.628	22.36
284.843	71.51
285.058	5.97
285.274	16.21
285.489	-4.27
285.704	55.12
285.919	22.36
286.134	28.5
286.349	44.88
286.564	24.4
286.779	137.04
286.995	26.45
287.21	-0.17
287.425	79.7
287.64	5.97
287.855	36.69
288.07	22.36
288.285	38.74
288.5	-4.27
288.715	85.84
288.93	91.99
289.145	59.22
289.36	3.93
289.575	8.02
289.79	36.69
290.004	59.22
290.219	51.03
290.434	-2.22
290.649	94.04
290.864	-8.36
291.079	12.12
291.294	24.4
291.509	18.26
291.724	20.31
291.938	8.02
292.153	-0.17
292.368	96.08
292.583	87.89
292.798	36.69
293.012	85.84
293.227	-28.84
293.442	28.5
293.657	16.21
293.871	-28.84
294.086	24.4
294.301	38.74
294.516	65.36
294.73	44.88
294.945	-32.94
295.16	79.7
295.374	12.12
295.589	40.79
295.804	18.26
296.018	71.51
296.233	71.51
296.447	69.46
296.662	51.03
296.877	34.64
297.091	32.6
297.306	59.22
297.52	22.36
297.735	36.69
297.949	73.56
298.164	-18.6
298.378	-0.17
298.593	24.4
298.807	67.41
299.022	69.46
299.236	26.45
299.451	3.93
299.665	24.4
299.88	77.65
300.094	18.26
300.309	94.04
300.523	5.97
300.737	36.69
300.952	-14.51
301.166	75.6
301.381	-12.46
301.595	-37.03
301.809	61.27
302.024	75.6
302.238	-28.84
302.452	8.02
302.667	12.12
302.881	91.99
303.095	73.56
303.309	75.6
303.524	5.97
303.738	46.93
303.952	-6.31
304.166	8.02
304.381	16.21
304.595	96.08
304.809	77.65
305.023	69.46
305.237	-24.75
305.452	-49.32
305.666	14.17
305.88	38.74
306.094	69.46
306.308	34.64
306.522	-2.22
306.736	-6.31
306.95	63.32
307.164	51.03
307.379	65.36
307.593	38.74
307.807	28.5
308.021	34.64
308.235	67.41
308.449	20.31
308.663	83.8
308.877	38.74
309.091	44.88
309.305	-6.31
309.519	5.97
309.733	73.56
309.947	18.26
310.161	40.79
310.374	-20.65
310.588	75.6
310.802	10.07
311.016	38.74
311.23	28.5
311.444	106.32
311.658	51.03
311.872	73.56
312.085	14.17
312.299	67.41
312.513	-4.27
312.727	36.69
312.941	53.08
313.154	32.6
313.368	20.31
313.582	20.31
313.796	-2.22
314.009	71.51
314.223	10.07
314.437	73.56
314.651	10.07
314.864	34.64
315.078	73.56
315.292	26.45
315.505	55.12
315.719	63.32
315.933	12.12
316.146	-30.89
316.36	46.93
316.573	22.36
316.787	112.47
317.001	57.17
317.214	-20.65
317.428	46.93
317.641	-39.08
317.855	26.45
318.068	36.69
318.282	-4.27
318.495	22.36
318.709	-12.46
318.922	-51.37
319.136	48.98
319.349	51.03
319.563	30.55
319.776	-47.27
319.99	42.84
320.203	67.41
320.417	3.93
320.63	65.36
320.843	75.6
321.057	38.74
321.27	87.89
321.483	10.07
321.697	22.36
321.91	10.07
322.124	22.36
322.337	5.97
322.55	34.64
322.763	38.74
322.977	-14.51
323.19	71.51
323.403	28.5
323.617	24.4
323.83	32.6
324.043	-20.65
324.256	3.93
324.469	18.26
324.683	44.88
324.896	-4.27
325.109	28.5
325.322	59.22
325.535	55.12
325.748	-10.41
325.962	71.51
326.175	-0.17
326.388	38.74
326.601	77.65
326.814	20.31
327.027	59.22
327.24	73.56
327.453	-24.75
327.666	91.99
327.879	26.45
328.092	75.6
328.305	34.64
328.518	-0.17
328.731	-16.55
328.944	-30.89
329.157	3.93
329.37	-73.9
329.583	81.75
329.796	61.27
330.009	-61.61
330.222	48.98
330.435	1.88
330.648	69.46
330.861	61.27
331.073	91.99
331.286	30.55
331.499	79.7
331.712	34.64
331.925	-0.17
332.138	-20.65
332.35	89.94
332.563	53.08
332.776	55.12
332.989	55.12
333.202	75.6
333.414	46.93
333.627	61.27
333.84	46.93
334.053	3.93
334.265	-24.75
334.478	22.36
334.691	36.69
334.903	-39.08
335.116	87.89
335.329	-47.27
335.541	96.08
335.754	10.07
335.966	-39.08
336.179	-0.17
336.392	-18.6
336.604	48.98
336.817	-24.75
337.029	77.65
337.242	44.88
337.454	44.88
337.667	-4.27
337.88	44.88
338.092	36.69
338.305	44.88
338.517	108.37
338.729	42.84
338.942	71.51
339.154	77.65
339.367	59.22
339.579	48.98
339.792	73.56
340.004	8.02
340.217	53.08
340.429	10.07
340.641	55.12
340.854	5.97
341.066	36.69
341.278	48.98
341.491	36.69
341.703	24.4
341.915	48.98
342.128	55.12
342.34	79.7
342.552	-6.31
342.764	-18.6
342.977	-4.27
343.189	44.88
343.401	8.02
343.613	36.69
343.826	48.98
344.038	57.17
344.25	44.88
344.462	5.97
344.674	114.52
344.886	12.12
345.099	42.84
345.311	30.55
345.523	91.99
345.735	57.17
345.947	12.12
346.159	34.64
346.371	34.64
346.583	30.55
346.795	102.23
347.007	28.5
347.219	94.04
347.431	83.8
347.643	18.26
347.855	8.02
348.067	28.5
348.279	32.6
348.491	42.84
348.703	3.93
348.915	38.74
349.127	28.5
349.339	69.46
349.551	-32.94
349.763	102.23
349.975	1.88
350.187	10.07
350.399	67.41
350.61	-34.99
350.822	87.89
351.034	12.12
351.246	-26.79
351.458	28.5
351.669	30.55
351.881	116.56
352.093	42.84
352.305	73.56
352.517	44.88
352.728	51.03
352.94	28.5
353.152	30.55
353.363	-12.46
353.575	34.64
353.787	110.42
353.999	-14.51
354.21	79.7
354.422	44.88
354.633	-2.22
354.845	110.42
355.057	22.36
355.268	-2.22
355.48	30.55
355.692	114.52
355.903	48.98
356.115	22.36
356.326	28.5
356.538	55.12
356.749	42.84
356.961	122.71
357.172	48.98
357.384	71.51
357.595	28.5
357.807	-16.55
358.018	30.55
358.23	51.03
358.441	51.03
358.653	61.27
358.864	83.8
359.075	-6.31
359.287	30.55
359.498	53.08
359.709	24.4
359.921	10.07
360.132	1.88
360.344	44.88
360.555	71.51
360.766	14.17
360.977	87.89
361.189	85.84
361.4	-16.55
361.611	3.93
361.823	100.18
362.034	55.12
362.245	40.79
362.456	22.36
362.667	94.04
362.879	8.02
363.09	-6.31
363.301	5.97
363.512	16.21
363.723	120.66
363.935	12.12
364.146	51.03
364.357	-34.99
364.568	-14.51
364.779	-6.31
364.99	71.51
365.201	40.79
365.412	79.7
365.623	-0.17
365.834	79.7
366.045	75.6
366.256	106.32
366.467	83.8
366.678	26.45
366.889	-63.66
367.1	-2.22
367.311	-28.84
367.522	22.36
367.733	-6.31
367.944	-22.7
368.155	83.8
368.366	67.41
368.577	65.36
368.788	12.12
368.999	36.69
369.209	42.84
369.42	22.36
369.631	55.12
369.842	1.88
370.053	10.07
370.264	-4.27
370.474	65.36
370.685	-12.46
370.896	-10.41
371.107	67.41
371.317	87.89
371.528	16.21
371.739	81.75
371.95	-28.84
372.16	20.31
372.371	-2.22
372.582	36.69
372.792	73.56
373.003	48.98
373.214	42.84
373.424	106.32
373.635	42.84
373.846	61.27
374.056	-6.31
374.267	61.27
374.477	10.07
374.688	104.28
374.898	73.56
375.109	63.32
375.319	32.6
375.53	5.97
375.74	96.08
375.951	73.56
376.161	71.51
376.372	44.88
376.582	36.69
376.793	1.88
377.003	69.46
377.214	53.08
377.424	79.7
377.635	85.84
377.845	8.02
378.055	122.71
378.266	-10.41
378.476	16.21
378.686	26.45
378.897	81.75
379.107	-4.27
379.317	100.18
379.528	65.36
379.738	118.61
379.948	32.6
380.158	69.46
380.369	16.21
380.579	1.88
380.789	10.07
380.999	102.23
381.21	91.99
381.42	85.84
381.63	-14.51
381.84	-12.46
382.05	-39.08
382.261	87.89
382.471	18.26
382.681	38.74
382.891	42.84
383.101	5.97
383.311	-37.03
383.521	46.93
383.731	77.65
383.941	61.27
384.151	67.41
384.361	30.55
384.571	1.88
384.781	91.99
384.991	38.74
385.201	96.08
385.411	94.04
385.621	34.64
385.831	26.45
386.041	10.07
386.251	-6.31
386.461	55.12
386.671	67.41
386.881	26.45
387.091	51.03
387.301	28.5
387.511	-59.56
387.72	71.51
387.93	10.07
388.14	48.98
388.35	-47.27
388.56	40.79
388.769	59.22
388.979	108.37
389.189	59.22
389.399	38.74
389.609	48.98
389.818	87.89
390.028	83.8
390.238	104.28
390.447	116.56
390.657	46.93
390.867	44.88
391.076	46.93
391.286	18.26
391.496	57.17
391.705	24.4
391.915	96.08
392.125	61.27
392.334	98.13
392.544	5.97
392.753	77.65
392.963	61.27
393.172	44.88
393.382	16.21
393.591	51.03
393.801	48.98
394.01	-2.22
394.22	32.6
394.429	18.26
394.639	108.37
394.848	79.7
395.058	48.98
395.267	69.46
395.477	46.93
395.686	89.94
395.895	22.36
396.105	65.36
396.314	73.56
396.524	28.5
396.733	-6.31
396.942	61.27
397.152	26.45
397.361	126.8
397.57	122.71
397.78	67.41
397.989	135
398.198	79.7
398.407	83.8
398.617	61.27
398.826	-20.65
399.035	5.97
399.244	18.26
399.453	30.55
399.663	94.04
399.872	173.91
400.081	124.76
400.29	67.41
400.499	22.36
400.708	98.13
400.917	126.8
401.127	81.75
401.336	112.47
401.545	71.51
401.754	81.75
401.963	151.38
402.172	22.36
402.381	112.47
402.59	116.56
402.799	128.85
403.008	108.37
403.217	106.32
403.426	36.69
403.635	130.9
403.844	69.46
404.053	116.56
404.262	79.7
404.471	151.38
404.68	71.51
404.888	106.32
405.097	110.42
405.306	106.32
405.515	108.37
405.724	28.5
405.933	112.47
406.142	98.13
406.35	96.08
406.559	169.81
406.768	155.47
406.977	135
407.185	112.47
407.394	116.56
407.603	194.39
407.812	190.29
408.02	178
408.229	180.05
408.438	141.14
408.646	87.89
408.855	180.05
409.064	194.39
409.272	196.43
409.481	212.82
409.69	161.62
409.898	161.62
410.107	235.35
410.315	249.68
410.524	157.52
410.733	202.58
410.941	218.96
411.15	249.68
411.358	247.63
411.567	229.2
411.775	278.35
411.984	251.73
412.192	311.12
412.401	300.88
412.609	317.26
412.818	282.45
413.026	286.54
413.234	300.88
413.443	298.83
413.651	300.88
413.86	339.79
414.068	382.8
414.276	261.97
414.485	477.01
414.693	374.61
414.901	513.87
415.11	393.04
415.318	501.58
415.526	370.51
415.734	499.53
415.943	417.61
416.151	442.19
416.359	538.45
416.567	540.49
416.776	495.44
416.984	620.36
417.192	593.74
417.4	634.7
417.608	593.74
417.817	671.56
418.025	649.04
418.233	778.06
418.441	687.95
418.649	671.56
418.857	814.92
419.065	843.59
419.273	667.47
419.481	851.78
419.689	857.93
419.897	866.12
420.105	997.19
420.313	964.42
420.521	923.46
420.729	1034.05
420.937	1062.73
421.145	1058.63
421.353	1095.49
421.561	1232.71
421.769	1144.64
421.977	1224.51
422.185	1242.95
422.393	1361.73
422.601	1343.3
422.809	1400.64
423.017	1464.13
423.224	1529.66
423.432	1492.8
423.64	1460.03
423.848	1732.41
424.056	1611.58
424.263	1685.31
424.471	1648.44
424.679	1783.61
424.887	1900.34
425.094	1988.41
425.302	1986.36
425.51	2078.52
425.718	2133.81
425.925	2127.67
426.133	2234.16
426.341	2279.22
426.548	2373.43
426.756	2363.19
426.964	2381.62
427.171	2535.21
427.379	2680.62
427.586	2731.82
427.794	2746.16
428.001	2879.27
428.209	3010.34
428.417	2953
428.624	3092.26
428.832	3143.46
429.039	3276.58
429.247	3262.24
429.454	3479.33
429.662	3559.2
429.869	3411.75
430.076	3684.13
430.284	3604.25
430.491	3710.75
430.699	4024.09
430.906	3987.22
431.114	3841.82
431.321	4157.21
431.528	4271.89
431.736	4622.09
431.943	4708.11
432.15	4632.33
432.358	4683.53
432.565	4935.43
432.772	4939.53
432.979	5056.26
433.187	5238.53
433.394	5248.77
433.601	5682.94
433.808	5668.61
434.016	5703.42
434.223	6086.39
434.43	6323.96
434.637	6096.63
434.844	6500.08
435.052	6629.1
435.259	6491.89
435.466	6680.3
435.673	6522.61
435.88	6936.3
436.087	7452.39
436.294	7272.17
436.501	7237.35
436.708	7407.33
436.915	7683.81
437.122	8099.55
437.329	7884.51
437.537	8208.09
437.743	8275.67
437.95	8304.34
438.157	8873.68
438.364	9014.99
438.571	9055.95
438.778	9086.67
438.985	9731.78
439.192	9479.88
439.399	9922.24
439.606	9557.7
439.813	10098.36
440.02	10925.74
440.227	10522.29
440.433	10280.63
440.64	10671.79
440.847	10677.94
441.054	11136.68
441.261	11673.25
441.467	11673.25
441.674	11824.8
441.881	12250.78
442.088	12252.83
442.294	12148.38
442.501	12484.25
442.708	12633.75
442.914	13219.47
443.121	13590.15
443.328	13409.93
443.534	14466.68
443.741	13760.13
443.948	13622.92
444.154	14485.11
444.361	14724.72
444.568	14671.48
444.774	14861.94
444.981	14808.69
445.187	15339.12
445.394	16062.05
445.6	15883.87
445.807	17245.77
446.013	16770.65
446.22	16696.92
446.426	17473.1
446.633	17505.87
446.839	18189.89
447.046	17614.41
447.252	18535.99
447.459	18419.26
447.665	18472.51
447.871	19410.48
448.078	19981.86
448.284	19127.86
448.491	19922.47
448.697	20663.83
448.903	21028.37
449.11	21081.62
449.316	20665.88
449.522	21165.59
449.728	21618.19
449.935	21593.61
450.141	21927.43
450.347	22107.65
450.553	21317.14
450.76	21648.91
450.966	22590.97
451.172	22302.21
451.378	22879.74
451.584	22283.78
451.791	22926.84
451.997	22818.3
452.203	23303.67
452.409	23363.06
452.615	23447.02
452.821	22535.68
453.027	22156.8
453.233	23545.33
453.44	22758.91
453.646	22910.46
453.852	22920.7
454.058	22961.65
454.264	22566.4
454.47	23076.34
454.676	22349.31
454.882	23207.41
455.088	21184.02
455.294	21409.29
455.5	21716.49
455.705	21759.5
455.911	21179.92
456.117	20803.1
456.323	20803.1
456.529	19467.82
456.735	20235.81
456.941	19938.85
457.147	19439.15
457.352	18923.06
457.558	18685.5
457.764	18712.12
457.97	18556.47
458.176	18044.48
458.381	18060.87
458.587	17274.45
458.793	17258.06
458.999	16303.71
459.204	17479.24
459.41	16930.39
459.616	15867.49
459.821	15818.34
460.027	15838.82
460.233	15662.69
460.438	14737.01
460.644	15117.93
460.85	14188.16
461.055	14106.24
461.261	14149.25
461.466	13139.6
461.672	12680.85
461.878	13647.49
462.083	12668.56
462.289	12453.53
462.494	12297.88
462.7	11849.38
462.905	11529.89
463.111	11884.19
463.316	11853.47
463.522	11611.81
463.727	11648.68
463.932	11691.68
464.138	11720.35
464.343	11898.53
464.549	11294.38
464.754	11654.82
464.959	11441.83
465.165	11787.94
465.37	10915.5
465.575	10890.93
465.781	11282.09
465.986	11452.07
466.191	10925.74
466.397	10710.71
466.602	10151.61
466.807	10575.54
467.012	10446.52
467.218	10368.7
467.423	10493.62
467.628	10462.9
467.833	10895.02
468.038	10426.04
468.244	10161.85
468.449	10555.06
