Data from USB4F104151__50__12-53-55-694.txt Node

Date: Fri Mar 14 12:53:55 EDT 2025
User: louis
Spectrometer: USB4F10415
Trigger mode: 4
Integration Time (sec): 1.000000E-2
Scans to average: 1
Electric dark correction enabled: true
Nonlinearity correction enabled: false
Boxcar width: 0
XAxis mode: Wavelengths
Number of Pixels in Spectrum: 3648
>>>>>Begin Spectral Data<<<<<
178.204	-32.94
178.424	-32.94
178.644	-32.94
178.864	-94.38
179.084	-61.61
179.304	59.22
179.524	-16.55
179.744	-26.79
179.964	10.07
180.184	-30.89
180.404	-43.18
180.624	-41.13
180.844	83.8
181.064	32.6
181.283	42.84
181.503	-45.23
181.723	-24.75
181.943	-12.46
182.163	32.6
182.383	-16.55
182.602	-45.23
182.822	24.4
183.042	67.41
183.262	48.98
183.482	10.07
183.701	-37.03
183.921	10.07
184.141	-0.17
184.361	-24.75
184.58	46.93
184.8	-26.79
185.02	-4.27
185.239	-6.31
185.459	40.79
185.679	3.93
185.898	61.27
186.118	65.36
186.338	-0.17
186.557	51.03
186.777	63.32
186.997	59.22
187.216	-55.47
187.436	1.88
187.655	38.74
187.875	34.64
188.095	57.17
188.314	42.84
188.534	-6.31
188.753	20.31
188.973	14.17
189.192	10.07
189.412	-0.17
189.631	-39.08
189.851	34.64
190.07	48.98
190.29	-63.66
190.509	46.93
190.729	-34.99
190.948	16.21
191.168	51.03
191.387	10.07
191.607	53.08
191.826	-10.41
192.045	36.69
192.265	-12.46
192.484	36.69
192.704	14.17
192.923	12.12
193.142	28.5
193.362	46.93
193.581	48.98
193.8	36.69
194.02	8.02
194.239	3.93
194.458	18.26
194.678	51.03
194.897	3.93
195.116	-18.6
195.335	10.07
195.555	42.84
195.774	20.31
195.993	69.46
196.212	-22.7
196.432	20.31
196.651	44.88
196.87	20.31
197.089	-18.6
197.308	-8.36
197.528	48.98
197.747	-41.13
197.966	8.02
198.185	-0.17
198.404	1.88
198.623	24.4
198.842	1.88
199.062	46.93
199.281	42.84
199.5	1.88
199.719	63.32
199.938	-6.31
200.157	28.5
200.376	-0.17
200.595	40.79
200.814	-2.22
201.033	-49.32
201.252	34.64
201.471	42.84
201.69	-22.7
201.909	65.36
202.128	46.93
202.347	36.69
202.566	-8.36
202.785	32.6
203.004	-6.31
203.223	18.26
203.442	26.45
203.661	-4.27
203.879	-2.22
204.098	69.46
204.317	12.12
204.536	48.98
204.755	-26.79
204.974	48.98
205.193	61.27
205.411	8.02
205.63	81.75
205.849	14.17
206.068	-37.03
206.287	-14.51
206.505	-12.46
206.724	38.74
206.943	-18.6
207.162	10.07
207.381	-8.36
207.599	44.88
207.818	-6.31
208.037	-0.17
208.255	48.98
208.474	16.21
208.693	20.31
208.911	5.97
209.13	40.79
209.349	26.45
209.567	30.55
209.786	-8.36
210.005	3.93
210.223	51.03
210.442	-24.75
210.661	40.79
210.879	-20.65
211.098	10.07
211.316	12.12
211.535	120.66
211.753	-16.55
211.972	69.46
212.191	-53.42
212.409	-39.08
212.628	53.08
212.846	26.45
213.065	-14.51
213.283	71.51
213.502	-22.7
213.72	32.6
213.938	-12.46
214.157	122.71
214.375	28.5
214.594	12.12
214.812	-6.31
215.031	36.69
215.249	-10.41
215.467	-16.55
215.686	-73.9
215.904	42.84
216.122	26.45
216.341	10.07
216.559	-4.27
216.778	28.5
216.996	8.02
217.214	-47.27
217.432	8.02
217.651	10.07
217.869	-12.46
218.087	46.93
218.306	34.64
218.524	-24.75
218.742	-12.46
218.96	-18.6
219.179	8.02
219.397	34.64
219.615	96.08
219.833	-0.17
220.051	-18.6
220.27	51.03
220.488	73.56
220.706	59.22
220.924	-20.65
221.142	-39.08
221.36	22.36
221.578	16.21
221.796	-12.46
222.015	83.8
222.233	-12.46
222.451	28.5
222.669	63.32
222.887	5.97
223.105	1.88
223.323	44.88
223.541	48.98
223.759	30.55
223.977	36.69
224.195	85.84
224.413	53.08
224.631	28.5
224.849	65.36
225.067	83.8
225.285	96.08
225.503	-18.6
225.721	8.02
225.939	48.98
226.157	116.56
226.375	10.07
226.592	3.93
226.81	83.8
227.028	-59.56
227.246	79.7
227.464	30.55
227.682	42.84
227.9	12.12
228.117	1.88
228.335	-8.36
228.553	32.6
228.771	-0.17
228.989	14.17
229.206	-26.79
229.424	30.55
229.642	26.45
229.86	26.45
230.077	-14.51
230.295	-0.17
230.513	24.4
230.731	53.08
230.948	-47.27
231.166	-39.08
231.384	-6.31
231.601	32.6
231.819	42.84
232.037	8.02
232.254	32.6
232.472	32.6
232.689	57.17
232.907	51.03
233.125	5.97
233.342	-34.99
233.56	-18.6
233.777	-16.55
233.995	32.6
234.213	28.5
234.43	-41.13
234.648	51.03
234.865	-2.22
235.083	51.03
235.3	-32.94
235.518	-39.08
235.735	32.6
235.953	20.31
236.17	14.17
236.388	30.55
236.605	-2.22
236.822	3.93
237.04	53.08
237.257	-10.41
237.475	24.4
237.692	5.97
237.909	5.97
238.127	46.93
238.344	-8.36
238.562	-14.51
238.779	-2.22
238.996	18.26
239.214	-34.99
239.431	48.98
239.648	32.6
239.865	36.69
240.083	10.07
240.3	32.6
240.517	1.88
240.735	10.07
240.952	67.41
241.169	18.26
241.386	46.93
241.603	51.03
241.821	44.88
242.038	26.45
242.255	10.07
242.472	59.22
242.689	-4.27
242.907	36.69
243.124	24.4
243.341	-2.22
243.558	53.08
243.775	-10.41
243.992	-49.32
244.209	34.64
244.426	77.65
244.643	57.17
244.86	14.17
245.078	16.21
245.295	-0.17
245.512	48.98
245.729	-28.84
245.946	-2.22
246.163	-26.79
246.38	12.12
246.597	77.65
246.814	-20.65
247.031	12.12
247.248	116.56
247.464	112.47
247.681	65.36
247.898	-14.51
248.115	42.84
248.332	34.64
248.549	-14.51
248.766	-45.23
248.983	65.36
249.2	63.32
249.417	106.32
249.633	16.21
249.85	-22.7
250.067	-26.79
250.284	-6.31
250.501	10.07
250.717	42.84
250.934	5.97
251.151	57.17
251.368	10.07
251.585	8.02
251.801	32.6
252.018	42.84
252.235	-8.36
252.451	18.26
252.668	40.79
252.885	22.36
253.102	16.21
253.318	83.8
253.535	-10.41
253.752	91.99
253.968	-39.08
254.185	10.07
254.401	-2.22
254.618	42.84
254.835	-8.36
255.051	87.89
255.268	26.45
255.484	61.27
255.701	10.07
255.917	-4.27
256.134	24.4
256.351	-2.22
256.567	59.22
256.784	57.17
257	42.84
257.217	53.08
257.433	59.22
257.65	46.93
257.866	-2.22
258.082	-0.17
258.299	14.17
258.515	61.27
258.732	-14.51
258.948	65.36
259.165	42.84
259.381	-10.41
259.597	48.98
259.814	22.36
260.03	-22.7
260.246	-8.36
260.463	46.93
260.679	30.55
260.895	38.74
261.112	30.55
261.328	-30.89
261.544	12.12
261.761	12.12
261.977	-12.46
262.193	-0.17
262.409	51.03
262.626	-20.65
262.842	16.21
263.058	-30.89
263.274	-28.84
263.49	18.26
263.707	-6.31
263.923	51.03
264.139	3.93
264.355	22.36
264.571	-0.17
264.787	55.12
265.004	51.03
265.22	34.64
265.436	-12.46
265.652	-39.08
265.868	16.21
266.084	34.64
266.3	-6.31
266.516	42.84
266.732	10.07
266.948	-10.41
267.164	53.08
267.38	30.55
267.596	-24.75
267.812	-4.27
268.028	5.97
268.244	3.93
268.46	85.84
268.676	53.08
268.892	-6.31
269.108	-4.27
269.324	73.56
269.54	75.6
269.756	71.51
269.972	-8.36
270.188	12.12
270.403	32.6
270.619	42.84
270.835	71.51
271.051	14.17
271.267	16.21
271.483	59.22
271.698	38.74
271.914	-45.23
272.13	-28.84
272.346	-41.13
272.562	79.7
272.777	-10.41
272.993	-10.41
273.209	16.21
273.425	10.07
273.64	10.07
273.856	87.89
274.072	53.08
274.287	-53.42
274.503	12.12
274.719	28.5
274.934	-14.51
275.15	18.26
275.366	-8.36
275.581	-20.65
275.797	89.94
276.012	18.26
276.228	122.71
276.444	55.12
276.659	67.41
276.875	-53.42
277.09	14.17
277.306	-12.46
277.521	16.21
277.737	-6.31
277.952	-39.08
278.168	1.88
278.383	65.36
278.599	-0.17
278.814	-59.56
279.03	3.93
279.245	-12.46
279.461	63.32
279.676	32.6
279.892	26.45
280.107	-41.13
280.322	30.55
280.538	36.69
280.753	30.55
280.969	81.75
281.184	30.55
281.399	28.5
281.615	14.17
281.83	22.36
282.045	-39.08
282.26	14.17
282.476	14.17
282.691	10.07
282.906	14.17
283.122	5.97
283.337	53.08
283.552	30.55
283.767	-20.65
283.983	-6.31
284.198	40.79
284.413	22.36
284.628	32.6
284.843	42.84
285.058	10.07
285.274	69.46
285.489	-18.6
285.704	28.5
285.919	-34.99
286.134	63.32
286.349	-8.36
286.564	22.36
286.779	-2.22
286.995	-16.55
287.21	-32.94
287.425	5.97
287.64	-2.22
287.855	44.88
288.07	40.79
288.285	36.69
288.5	22.36
288.715	63.32
288.93	48.98
289.145	-18.6
289.36	-41.13
289.575	67.41
289.79	40.79
290.004	-22.7
290.219	73.56
290.434	-6.31
290.649	8.02
290.864	26.45
291.079	32.6
291.294	20.31
291.509	-0.17
291.724	3.93
291.938	5.97
292.153	-8.36
292.368	42.84
292.583	46.93
292.798	5.97
293.012	24.4
293.227	42.84
293.442	-14.51
293.657	20.31
293.871	-2.22
294.086	12.12
294.301	-16.55
294.516	63.32
294.73	24.4
294.945	-6.31
295.16	-0.17
295.374	5.97
295.589	-14.51
295.804	18.26
296.018	-57.51
296.233	-53.42
296.447	32.6
296.662	-6.31
296.877	51.03
297.091	59.22
297.306	57.17
297.52	30.55
297.735	24.4
297.949	24.4
298.164	-16.55
298.378	-4.27
298.593	87.89
298.807	8.02
299.022	67.41
299.236	28.5
299.451	53.08
299.665	42.84
299.88	40.79
300.094	32.6
300.309	32.6
300.523	-4.27
300.737	14.17
300.952	22.36
301.166	10.07
301.381	69.46
301.595	48.98
301.809	24.4
302.024	51.03
302.238	16.21
302.452	-37.03
302.667	42.84
302.881	79.7
303.095	16.21
303.309	-90.28
303.524	24.4
303.738	32.6
303.952	-65.71
304.166	46.93
304.381	-22.7
304.595	18.26
304.809	20.31
305.023	26.45
305.237	8.02
305.452	53.08
305.666	-0.17
305.88	44.88
306.094	-37.03
306.308	24.4
306.522	32.6
306.736	38.74
306.95	-22.7
307.164	44.88
307.379	-43.18
307.593	-0.17
307.807	61.27
308.021	38.74
308.235	24.4
308.449	-20.65
308.663	71.51
308.877	36.69
309.091	-12.46
309.305	-26.79
309.519	38.74
309.733	77.65
309.947	-12.46
310.161	44.88
310.374	-18.6
310.588	-32.94
310.802	46.93
311.016	34.64
311.23	48.98
311.444	8.02
311.658	16.21
311.872	-45.23
312.085	1.88
312.299	16.21
312.513	94.04
312.727	-16.55
312.941	61.27
313.154	-0.17
313.368	22.36
313.582	57.17
313.796	18.26
314.009	12.12
314.223	22.36
314.437	59.22
314.651	67.41
314.864	38.74
315.078	-14.51
315.292	-14.51
315.505	-4.27
315.719	53.08
315.933	53.08
316.146	98.13
316.36	-16.55
316.573	36.69
316.787	28.5
317.001	40.79
317.214	-37.03
317.428	-37.03
317.641	-14.51
317.855	34.64
318.068	-12.46
318.282	91.99
318.495	-12.46
318.709	75.6
318.922	8.02
319.136	63.32
319.349	-18.6
319.563	42.84
319.776	48.98
319.99	-14.51
320.203	71.51
320.417	-24.75
320.63	-20.65
320.843	8.02
321.057	63.32
321.27	59.22
321.483	-39.08
321.697	46.93
321.91	59.22
322.124	81.75
322.337	-30.89
322.55	-10.41
322.763	3.93
322.977	22.36
323.19	10.07
323.403	8.02
323.617	1.88
323.83	98.13
324.043	63.32
324.256	-45.23
324.469	30.55
324.683	24.4
324.896	-6.31
325.109	28.5
325.322	-18.6
325.535	61.27
325.748	-22.7
325.962	42.84
326.175	-16.55
326.388	42.84
326.601	69.46
326.814	-14.51
327.027	63.32
327.24	32.6
327.453	14.17
327.666	73.56
327.879	114.52
328.092	3.93
328.305	-10.41
328.518	-6.31
328.731	26.45
328.944	14.17
329.157	-14.51
329.37	32.6
329.583	75.6
329.796	67.41
330.009	-14.51
330.222	5.97
330.435	36.69
330.648	48.98
330.861	-28.84
331.073	44.88
331.286	-26.79
331.499	120.66
331.712	-6.31
331.925	53.08
332.138	135
332.35	-32.94
332.563	-32.94
332.776	32.6
332.989	-24.75
333.202	61.27
333.414	3.93
333.627	-71.85
333.84	24.4
334.053	46.93
334.265	51.03
334.478	-39.08
334.691	-24.75
334.903	-24.75
335.116	53.08
335.329	-2.22
335.541	18.26
335.754	16.21
335.966	5.97
336.179	5.97
336.392	-4.27
336.604	8.02
336.817	-39.08
337.029	-0.17
337.242	38.74
337.454	5.97
337.667	16.21
337.88	28.5
338.092	22.36
338.305	-28.84
338.517	34.64
338.729	67.41
338.942	-2.22
339.154	81.75
339.367	65.36
339.579	38.74
339.792	-4.27
340.004	16.21
340.217	-80.04
340.429	22.36
340.641	-39.08
340.854	34.64
341.066	1.88
341.278	24.4
341.491	-43.18
341.703	24.4
341.915	-45.23
342.128	8.02
342.34	53.08
342.552	32.6
342.764	-37.03
342.977	51.03
343.189	-8.36
343.401	-45.23
343.613	81.75
343.826	-16.55
344.038	-6.31
344.25	1.88
344.462	5.97
344.674	30.55
344.886	55.12
345.099	65.36
345.311	26.45
345.523	122.71
345.735	120.66
345.947	12.12
346.159	28.5
346.371	36.69
346.583	12.12
346.795	65.36
347.007	59.22
347.219	40.79
347.431	51.03
347.643	67.41
347.855	32.6
348.067	57.17
348.279	48.98
348.491	36.69
348.703	1.88
348.915	-4.27
349.127	20.31
349.339	-18.6
349.551	-39.08
349.763	83.8
349.975	-69.8
350.187	-28.84
350.399	-6.31
350.61	32.6
350.822	-0.17
351.034	63.32
351.246	48.98
351.458	36.69
351.669	14.17
351.881	-6.31
352.093	-65.71
352.305	55.12
352.517	85.84
352.728	12.12
352.94	83.8
353.152	-49.32
353.363	-8.36
353.575	34.64
353.787	-6.31
353.999	-4.27
354.21	40.79
354.422	-39.08
354.633	-24.75
354.845	-39.08
355.057	1.88
355.268	59.22
355.48	42.84
355.692	51.03
355.903	16.21
356.115	34.64
356.326	-2.22
356.538	75.6
356.749	38.74
356.961	87.89
357.172	124.76
357.384	-16.55
357.595	26.45
357.807	32.6
358.018	5.97
358.23	14.17
358.441	-0.17
358.653	12.12
358.864	-10.41
359.075	12.12
359.287	-22.7
359.498	69.46
359.709	28.5
359.921	28.5
360.132	18.26
360.344	44.88
360.555	104.28
360.766	69.46
360.977	-12.46
361.189	40.79
361.4	63.32
361.611	-14.51
361.823	-12.46
362.034	-4.27
362.245	-37.03
362.456	-32.94
362.667	-22.7
362.879	-22.7
363.09	-20.65
363.301	16.21
363.512	57.17
363.723	46.93
363.935	32.6
364.146	38.74
364.357	8.02
364.568	42.84
364.779	-43.18
364.99	-14.51
365.201	-22.7
365.412	26.45
365.623	-37.03
365.834	-4.27
366.045	-22.7
366.256	3.93
366.467	69.46
366.678	-12.46
366.889	69.46
367.1	-28.84
367.311	42.84
367.522	28.5
367.733	73.56
367.944	-6.31
368.155	32.6
368.366	59.22
368.577	8.02
368.788	96.08
368.999	-28.84
369.209	38.74
369.42	14.17
369.631	16.21
369.842	1.88
370.053	-14.51
370.264	77.65
370.474	81.75
370.685	-26.79
370.896	-37.03
371.107	44.88
371.317	36.69
371.528	-0.17
371.739	77.65
371.95	75.6
372.16	26.45
372.371	28.5
372.582	38.74
372.792	-41.13
373.003	-55.47
373.214	20.31
373.424	30.55
373.635	-2.22
373.846	-2.22
374.056	48.98
374.267	-43.18
374.477	83.8
374.688	30.55
374.898	-2.22
375.109	3.93
375.319	77.65
375.53	57.17
375.74	-8.36
375.951	77.65
376.161	59.22
376.372	8.02
376.582	61.27
376.793	5.97
377.003	20.31
377.214	79.7
377.424	63.32
377.635	65.36
377.845	-18.6
378.055	-16.55
378.266	61.27
378.476	26.45
378.686	28.5
378.897	16.21
379.107	-12.46
379.317	79.7
379.528	61.27
379.738	22.36
379.948	26.45
380.158	71.51
380.369	26.45
380.579	63.32
380.789	1.88
380.999	-18.6
381.21	14.17
381.42	10.07
381.63	77.65
381.84	20.31
382.05	14.17
382.261	65.36
382.471	26.45
382.681	71.51
382.891	67.41
383.101	63.32
383.311	42.84
383.521	1.88
383.731	-16.55
383.941	51.03
384.151	118.61
384.361	48.98
384.571	-26.79
384.781	3.93
384.991	30.55
385.201	46.93
385.411	5.97
385.621	44.88
385.831	44.88
386.041	106.32
386.251	-16.55
386.461	40.79
386.671	-4.27
386.881	36.69
387.091	-10.41
387.301	26.45
387.511	61.27
387.72	38.74
387.93	42.84
388.14	55.12
388.35	53.08
388.56	65.36
388.769	63.32
388.979	44.88
389.189	-12.46
389.399	-2.22
389.609	14.17
389.818	53.08
390.028	-34.99
390.238	94.04
390.447	34.64
390.657	73.56
390.867	-16.55
391.076	-28.84
391.286	-12.46
391.496	-22.7
391.705	38.74
391.915	57.17
392.125	104.28
392.334	10.07
392.544	16.21
392.753	61.27
392.963	16.21
393.172	36.69
393.382	87.89
393.591	79.7
393.801	-32.94
394.01	89.94
394.22	-12.46
394.429	12.12
394.639	-0.17
394.848	65.36
395.058	61.27
395.267	63.32
395.477	-4.27
395.686	75.6
395.895	96.08
396.105	77.65
396.314	18.26
396.524	42.84
396.733	85.84
396.942	24.4
397.152	67.41
397.361	79.7
397.57	16.21
397.78	40.79
397.989	57.17
398.198	112.47
398.407	-28.84
398.617	-14.51
398.826	-14.51
399.035	69.46
399.244	36.69
399.453	61.27
399.663	32.6
399.872	91.99
400.081	3.93
400.29	-0.17
400.499	32.6
400.708	85.84
400.917	71.51
401.127	-8.36
401.336	-2.22
401.545	73.56
401.754	36.69
401.963	100.18
402.172	34.64
402.381	12.12
402.59	-22.7
402.799	69.46
403.008	20.31
403.217	16.21
403.426	57.17
403.635	32.6
403.844	30.55
404.053	81.75
404.262	94.04
404.471	59.22
404.68	30.55
404.888	38.74
405.097	-4.27
405.306	5.97
405.515	61.27
405.724	44.88
405.933	51.03
406.142	-47.27
406.35	71.51
406.559	59.22
406.768	-22.7
406.977	83.8
407.185	22.36
407.394	130.9
407.603	51.03
407.812	75.6
408.02	75.6
408.229	67.41
408.438	71.51
408.646	24.4
408.855	30.55
409.064	57.17
409.272	65.36
409.481	73.56
409.69	100.18
409.898	75.6
410.107	44.88
410.315	85.84
410.524	38.74
410.733	79.7
410.941	87.89
411.15	153.43
411.358	83.8
411.567	79.7
411.775	-59.56
411.984	79.7
412.192	100.18
412.401	118.61
412.609	153.43
412.818	118.61
413.026	122.71
413.234	57.17
413.443	204.63
413.651	98.13
413.86	100.18
414.068	128.85
414.276	22.36
414.485	132.95
414.693	196.43
414.901	190.29
415.11	139.09
415.318	163.67
415.526	157.52
415.734	206.67
415.943	167.76
416.151	155.47
416.359	122.71
416.567	163.67
416.776	157.52
416.984	165.71
417.192	241.49
417.4	188.24
417.608	163.67
417.817	243.54
418.025	270.16
418.233	243.54
418.441	235.35
418.649	313.17
418.857	208.72
419.065	266.07
419.273	311.12
419.481	223.06
419.689	229.2
419.897	288.59
420.105	270.16
420.313	223.06
420.521	270.16
420.729	294.74
420.937	364.37
421.145	423.76
421.353	329.55
421.561	323.41
421.769	446.29
421.977	429.9
422.185	384.85
422.393	345.94
422.601	436.05
422.809	444.24
423.017	366.42
423.224	464.72
423.432	534.35
423.64	425.81
423.848	487.25
424.056	485.2
424.263	520.01
424.471	538.45
424.679	503.63
424.887	567.12
425.094	560.97
425.302	649.04
425.51	593.74
425.718	599.88
425.925	665.42
426.133	626.51
426.341	685.9
426.548	761.67
426.756	790.35
426.964	741.19
427.171	857.93
427.379	765.77
427.586	714.57
427.794	806.73
428.001	859.98
428.209	948.04
428.417	935.75
428.624	909.13
428.832	948.04
429.039	896.84
429.247	941.89
429.454	1007.43
429.662	1177.41
429.869	1101.64
430.076	1101.64
430.284	1050.44
430.491	1165.12
430.699	1179.46
430.906	1204.03
431.114	1212.23
431.321	1326.91
431.528	1236.8
431.736	1439.55
431.943	1410.88
432.15	1478.46
432.358	1406.78
432.565	1451.84
432.772	1482.56
432.979	1625.92
433.187	1623.87
433.394	1580.86
433.601	1611.58
433.808	1683.26
434.016	1802.04
434.223	1716.03
434.43	1834.81
434.637	1898.3
434.844	1969.98
435.052	1998.65
435.259	1974.07
435.466	2006.84
435.673	1998.65
435.88	2094.9
436.087	2273.07
436.294	2158.39
436.501	2236.21
436.708	2217.78
436.915	2363.19
437.122	2354.99
437.329	2318.13
437.537	2496.3
437.743	2617.13
437.95	2524.97
438.157	2643.76
438.364	2647.85
438.571	2817.83
438.778	2875.18
438.985	3032.87
439.192	2817.83
439.399	2922.28
439.606	2813.74
439.813	3030.82
440.02	3223.33
440.227	3276.58
440.433	3168.04
440.64	3256.1
440.847	3247.91
441.054	3290.92
441.261	3544.86
441.467	3501.86
441.674	3641.12
441.881	3700.51
442.088	3798.81
442.294	3706.65
442.501	3792.67
442.708	3708.7
442.914	3847.96
443.121	4069.14
443.328	4017.94
443.534	4419.35
443.741	4292.37
443.948	4075.29
444.154	4390.67
444.361	4296.47
444.568	4450.07
444.774	4300.56
444.981	4491.02
445.187	4661.01
445.394	4955.91
445.6	4632.33
445.807	5158.66
446.013	4964.11
446.22	5035.78
446.426	5230.34
446.633	5330.69
446.839	5437.19
447.046	5332.74
447.252	5572.35
447.459	5615.36
447.665	5502.72
447.871	5873.4
448.078	5897.98
448.284	5891.84
448.491	5924.6
448.697	6143.74
448.903	6254.33
449.11	6399.73
449.316	6326
449.522	6342.39
449.728	6575.86
449.935	6504.18
450.141	6512.37
450.347	6657.78
450.553	6389.49
450.76	6700.78
450.966	6772.46
451.172	6797.04
451.378	6975.21
451.584	6856.43
451.791	7102.18
451.997	6901.48
452.203	6909.68
452.409	7110.38
452.615	7028.46
452.821	6731.5
453.027	6803.18
453.233	7118.57
453.44	6915.82
453.646	6797.04
453.852	6979.31
454.058	7012.07
454.264	6831.85
454.47	7016.17
454.676	6772.46
454.882	7048.94
455.088	6401.78
455.294	6524.66
455.5	6692.59
455.705	6723.31
455.911	6442.74
456.117	6311.67
456.323	6178.55
456.529	5771.01
456.735	6344.44
456.941	6006.52
457.147	5959.42
457.352	5861.12
457.558	5723.9
457.764	5768.96
457.97	5728
458.176	5547.78
458.381	5617.41
458.587	5330.69
458.793	5291.78
458.999	5078.79
459.204	5490.43
459.41	5375.75
459.616	5005.06
459.821	4910.86
460.027	4781.84
460.233	4910.86
460.438	4615.95
460.644	4704.01
460.85	4316.95
461.055	4470.55
461.261	4341.52
461.466	4011.8
461.672	3995.42
461.878	4226.84
462.083	4075.29
462.289	3884.83
462.494	3831.58
462.7	3694.36
462.905	3583.77
463.111	3682.08
463.316	3807
463.522	3737.37
463.727	3716.89
463.932	3778.33
464.138	3602.21
464.343	3680.03
464.549	3661.6
464.754	3581.73
464.959	3540.77
465.165	3643.17
465.37	3532.58
465.575	3325.73
465.781	3473.18
465.986	3596.06
466.191	3487.52
466.397	3354.4
466.602	3178.28
466.807	3276.58
467.012	3362.59
467.218	3231.52
467.423	3438.37
467.628	3262.24
467.833	3452.7
468.038	3385.12
468.244	3262.24
468.449	3288.87
468.654	3313.44
468.859	3295.01
469.064	3239.72
469.269	3163.94
469.474	3120.93
469.679	3190.56
469.885	3100.45
470.09	3122.98
470.295	3098.41
470.5	2955.05
470.705	3125.03
470.91	3012.39
