Data from USB4F104151__34__12-53-40-265.txt Node

Date: Fri Mar 14 12:53:40 EDT 2025
User: louis
Spectrometer: USB4F10415
Trigger mode: 4
Integration Time (sec): 1.000000E-2
Scans to average: 1
Electric dark correction enabled: true
Nonlinearity correction enabled: false
Boxcar width: 0
XAxis mode: Wavelengths
Number of Pixels in Spectrum: 3648
>>>>>Begin Spectral Data<<<<<
178.204	-93.69
178.424	-93.69
178.644	-93.69
178.864	-17.92
179.084	31.23
179.304	43.52
179.524	51.71
179.744	-30.21
179.964	23.04
180.184	0.51
180.404	10.75
180.624	-36.35
180.844	-38.4
181.064	-1.54
181.283	6.66
181.503	-48.64
181.723	18.94
181.943	-7.68
182.163	59.9
182.383	35.33
182.602	-3.58
182.822	37.38
183.042	18.94
183.262	-1.54
183.482	-5.63
183.701	-19.97
183.921	-15.87
184.141	29.18
184.361	27.14
184.58	-54.78
184.8	-26.11
185.02	37.38
185.239	8.7
185.459	23.04
185.679	51.71
185.898	-9.73
186.118	23.04
186.338	18.94
186.557	31.23
186.777	53.76
186.997	51.71
187.216	18.94
187.436	23.04
187.655	47.62
187.875	45.57
188.095	4.61
188.314	41.47
188.534	-26.11
188.753	16.9
188.973	20.99
189.192	70.14
189.412	-34.3
189.631	10.75
189.851	4.61
190.07	115.2
190.29	129.53
190.509	47.62
190.729	74.24
190.948	2.56
191.168	109.05
191.387	-5.63
191.607	-7.68
191.826	76.29
192.045	-56.83
192.265	-60.93
192.484	64
192.704	-17.92
192.923	45.57
193.142	47.62
193.362	66.05
193.581	-52.74
193.8	66.05
194.02	23.04
194.239	-24.06
194.458	-3.58
194.678	12.8
194.897	53.76
195.116	37.38
195.335	88.57
195.555	35.33
195.774	8.7
195.993	-34.3
196.212	39.42
196.432	31.23
196.651	18.94
196.87	23.04
197.089	68.09
197.308	12.8
197.528	18.94
197.747	10.75
197.966	23.04
198.185	102.91
198.404	31.23
198.623	45.57
198.842	72.19
199.062	61.95
199.281	68.09
199.5	29.18
199.719	2.56
199.938	102.91
200.157	68.09
200.376	31.23
200.595	80.38
200.814	37.38
201.033	4.61
201.252	4.61
201.471	35.33
201.69	88.57
201.909	84.48
202.128	-1.54
202.347	10.75
202.566	12.8
202.785	55.81
203.004	59.9
203.223	64
203.442	18.94
203.661	-5.63
203.879	53.76
204.098	4.61
204.317	27.14
204.536	-15.87
204.755	-7.68
204.974	27.14
205.193	39.42
205.411	113.15
205.63	68.09
205.849	102.91
206.068	64
206.287	27.14
206.505	59.9
206.724	-83.45
206.943	-50.69
207.162	66.05
207.381	55.81
207.599	47.62
207.818	29.18
208.037	102.91
208.255	0.51
208.474	18.94
208.693	92.67
208.911	74.24
209.13	59.9
209.349	86.53
209.567	76.29
209.786	113.15
210.005	-34.3
210.223	-38.4
210.442	70.14
210.661	53.76
210.879	29.18
211.098	16.9
211.316	66.05
211.535	53.76
211.753	-11.78
211.972	41.47
212.191	49.66
212.409	6.66
212.628	-28.16
212.846	2.56
213.065	66.05
213.283	23.04
213.502	-1.54
213.72	4.61
213.938	39.42
214.157	-5.63
214.375	41.47
214.594	14.85
214.812	39.42
215.031	-1.54
215.249	43.52
215.467	70.14
215.686	4.61
215.904	29.18
216.122	41.47
216.341	20.99
216.559	51.71
216.778	-3.58
216.996	6.66
217.214	-22.02
217.432	59.9
217.651	-3.58
217.869	45.57
218.087	23.04
218.306	53.76
218.524	14.85
218.742	20.99
218.96	49.66
219.179	66.05
219.397	53.76
219.615	55.81
219.833	33.28
220.051	27.14
220.27	-36.35
220.488	115.2
220.706	49.66
220.924	102.91
221.142	12.8
221.36	14.85
221.578	12.8
221.796	68.09
222.015	-24.06
222.233	14.85
222.451	43.52
222.669	4.61
222.887	45.57
223.105	10.75
223.323	43.52
223.541	20.99
223.759	33.28
223.977	94.72
224.195	51.71
224.413	-13.82
224.631	29.18
224.849	33.28
225.067	33.28
225.285	-22.02
225.503	51.71
225.721	-11.78
225.939	72.19
226.157	2.56
226.375	47.62
226.592	55.81
226.81	18.94
227.028	98.81
227.246	33.28
227.464	-13.82
227.682	109.05
227.9	53.76
228.117	-22.02
228.335	-17.92
228.553	-5.63
228.771	33.28
228.989	94.72
229.206	-3.58
229.424	25.09
229.642	-19.97
229.86	35.33
230.077	74.24
230.295	-42.5
230.513	55.81
230.731	92.67
230.948	33.28
231.166	16.9
231.384	61.95
231.601	57.86
231.819	43.52
232.037	39.42
232.254	84.48
232.472	35.33
232.689	-46.59
232.907	8.7
233.125	55.81
233.342	-11.78
233.56	43.52
233.777	86.53
233.995	-38.4
234.213	57.86
234.43	18.94
234.648	72.19
234.865	37.38
235.083	88.57
235.3	64
235.518	10.75
235.735	12.8
235.953	61.95
236.17	-1.54
236.388	59.9
236.605	16.9
236.822	117.25
237.04	55.81
237.257	29.18
237.475	-7.68
237.692	49.66
237.909	37.38
238.127	10.75
238.344	4.61
238.562	49.66
238.779	41.47
238.996	61.95
239.214	45.57
239.431	29.18
239.648	70.14
239.865	45.57
240.083	68.09
240.3	-3.58
240.517	20.99
240.735	-1.54
240.952	123.39
241.169	47.62
241.386	31.23
241.603	27.14
241.821	33.28
242.038	82.43
242.255	68.09
242.472	18.94
242.689	51.71
242.907	35.33
243.124	23.04
243.341	43.52
243.558	-5.63
243.775	57.86
243.992	-15.87
244.209	86.53
244.426	57.86
244.643	39.42
244.86	-5.63
245.078	37.38
245.295	-11.78
245.512	70.14
245.729	37.38
245.946	25.09
246.163	35.33
246.38	100.86
246.597	33.28
246.814	55.81
247.031	107.01
247.248	4.61
247.464	39.42
247.681	16.9
247.898	84.48
248.115	47.62
248.332	98.81
248.549	100.86
248.766	2.56
248.983	72.19
249.2	51.71
249.417	35.33
249.633	80.38
249.85	109.05
250.067	-56.83
250.284	27.14
250.501	64
250.717	90.62
250.934	66.05
251.151	57.86
251.368	45.57
251.585	10.75
251.801	12.8
252.018	68.09
252.235	55.81
252.451	51.71
252.668	14.85
252.885	53.76
253.102	66.05
253.318	10.75
253.535	14.85
253.752	27.14
253.968	41.47
254.185	-38.4
254.401	10.75
254.618	35.33
254.835	35.33
255.051	18.94
255.268	68.09
255.484	35.33
255.701	-19.97
255.917	10.75
256.134	4.61
256.351	61.95
256.567	39.42
256.784	39.42
257	-19.97
257.217	20.99
257.433	25.09
257.65	41.47
257.866	55.81
258.082	-9.73
258.299	82.43
258.515	-28.16
258.732	35.33
258.948	35.33
259.165	39.42
259.381	61.95
259.597	35.33
259.814	14.85
260.03	0.51
260.246	74.24
260.463	76.29
260.679	98.81
260.895	102.91
261.112	88.57
261.328	68.09
261.544	47.62
261.761	41.47
261.977	10.75
262.193	14.85
262.409	2.56
262.626	14.85
262.842	133.63
263.058	39.42
263.274	70.14
263.49	41.47
263.707	2.56
263.923	76.29
264.139	8.7
264.355	37.38
264.571	53.76
264.787	104.96
265.004	25.09
265.22	51.71
265.436	59.9
265.652	27.14
265.868	-19.97
266.084	23.04
266.3	-30.21
266.516	43.52
266.732	-3.58
266.948	33.28
267.164	66.05
267.38	-9.73
267.596	-22.02
267.812	43.52
268.028	-15.87
268.244	51.71
268.46	37.38
268.676	-30.21
268.892	53.76
269.108	12.8
269.324	84.48
269.54	29.18
269.756	27.14
269.972	-11.78
270.188	74.24
270.403	39.42
270.619	23.04
270.835	25.09
271.051	-30.21
271.267	90.62
271.483	61.95
271.698	14.85
271.914	80.38
272.13	70.14
272.346	20.99
272.562	-7.68
272.777	74.24
272.993	41.47
273.209	18.94
273.425	78.33
273.64	8.7
273.856	86.53
274.072	47.62
274.287	37.38
274.503	86.53
274.719	-24.06
274.934	31.23
275.15	-5.63
275.366	82.43
275.581	-11.78
275.797	27.14
276.012	0.51
276.228	129.53
276.444	35.33
276.659	53.76
276.875	33.28
277.09	96.77
277.306	-1.54
277.521	133.63
277.737	-5.63
277.952	72.19
278.168	-26.11
278.383	76.29
278.599	-9.73
278.814	53.76
279.03	-17.92
279.245	31.23
279.461	49.66
279.676	-58.88
279.892	-32.26
280.107	20.99
280.322	-19.97
280.538	64
280.753	12.8
280.969	-85.5
281.184	115.2
281.399	80.38
281.615	127.49
281.83	-19.97
282.045	27.14
282.26	53.76
282.476	14.85
282.691	70.14
282.906	104.96
283.122	-28.16
283.337	-32.26
283.552	43.52
283.767	16.9
283.983	107.01
284.198	6.66
284.413	82.43
284.628	68.09
284.843	14.85
285.058	33.28
285.274	100.86
285.489	8.7
285.704	6.66
285.919	92.67
286.134	6.66
286.349	-11.78
286.564	64
286.779	51.71
286.995	86.53
287.21	47.62
287.425	47.62
287.64	82.43
287.855	76.29
288.07	20.99
288.285	80.38
288.5	72.19
288.715	59.9
288.93	35.33
289.145	59.9
289.36	57.86
289.575	-11.78
289.79	53.76
290.004	29.18
290.219	20.99
290.434	53.76
290.649	18.94
290.864	61.95
291.079	-1.54
291.294	10.75
291.509	33.28
291.724	80.38
291.938	20.99
292.153	68.09
292.368	25.09
292.583	102.91
292.798	-28.16
293.012	-30.21
293.227	84.48
293.442	64
293.657	14.85
293.871	-30.21
294.086	90.62
294.301	53.76
294.516	45.57
294.73	74.24
294.945	25.09
295.16	-22.02
295.374	94.72
295.589	70.14
295.804	-32.26
296.018	-44.54
296.233	25.09
296.447	27.14
296.662	10.75
296.877	162.3
297.091	47.62
297.306	57.86
297.52	102.91
297.735	115.2
297.949	25.09
298.164	29.18
298.378	37.38
298.593	-28.16
298.807	23.04
299.022	45.57
299.236	76.29
299.451	66.05
299.665	0.51
299.88	14.85
300.094	53.76
300.309	6.66
300.523	70.14
300.737	59.9
300.952	86.53
301.166	96.77
301.381	-30.21
301.595	35.33
301.809	-7.68
302.024	92.67
302.238	-1.54
302.452	53.76
302.667	-15.87
302.881	180.73
303.095	86.53
303.309	45.57
303.524	20.99
303.738	47.62
303.952	-19.97
304.166	72.19
304.381	64
304.595	66.05
304.809	14.85
305.023	29.18
305.237	41.47
305.452	29.18
305.666	41.47
305.88	70.14
306.094	98.81
306.308	23.04
306.522	23.04
306.736	35.33
306.95	86.53
307.164	20.99
307.379	8.7
307.593	51.71
307.807	43.52
308.021	59.9
308.235	33.28
308.449	27.14
308.663	92.67
308.877	80.38
309.091	18.94
309.305	61.95
309.519	37.38
309.733	27.14
309.947	-15.87
310.161	51.71
310.374	33.28
310.588	-3.58
310.802	27.14
311.016	-13.82
311.23	-30.21
311.444	23.04
311.658	53.76
311.872	111.1
312.085	82.43
312.299	25.09
312.513	82.43
312.727	-3.58
312.941	55.81
313.154	137.73
313.368	96.77
313.582	33.28
313.796	100.86
314.009	90.62
314.223	68.09
314.437	-17.92
314.651	-30.21
314.864	31.23
315.078	-1.54
315.292	78.33
315.505	70.14
315.719	-3.58
315.933	51.71
316.146	10.75
316.36	31.23
316.573	14.85
316.787	45.57
317.001	59.9
317.214	33.28
317.428	8.7
317.641	49.66
317.855	57.86
318.068	18.94
318.282	6.66
318.495	59.9
318.709	12.8
318.922	-36.35
319.136	139.77
319.349	78.33
319.563	-60.93
319.776	41.47
319.99	2.56
320.203	-17.92
320.417	45.57
320.63	123.39
320.843	113.15
321.057	6.66
321.27	14.85
321.483	37.38
321.697	18.94
321.91	-52.74
322.124	51.71
322.337	49.66
322.55	20.99
322.763	98.81
322.977	51.71
323.19	6.66
323.403	92.67
323.617	25.09
323.83	125.44
324.043	64
324.256	-17.92
324.469	-22.02
324.683	64
324.896	6.66
325.109	33.28
325.322	12.8
325.535	27.14
325.748	35.33
325.962	25.09
326.175	31.23
326.388	23.04
326.601	152.06
326.814	49.66
327.027	16.9
327.24	92.67
327.453	14.85
327.666	76.29
327.879	-17.92
328.092	92.67
328.305	72.19
328.518	47.62
328.731	-22.02
328.944	66.05
329.157	-13.82
329.37	-13.82
329.583	4.61
329.796	129.53
330.009	90.62
330.222	2.56
330.435	25.09
330.648	4.61
330.861	16.9
331.073	16.9
331.286	53.76
331.499	43.52
331.712	64
331.925	53.76
332.138	117.25
332.35	31.23
332.563	43.52
332.776	92.67
332.989	20.99
333.202	102.91
333.414	-17.92
333.627	61.95
333.84	6.66
334.053	29.18
334.265	51.71
334.478	33.28
334.691	49.66
334.903	61.95
335.116	-5.63
335.329	57.86
335.541	39.42
335.754	10.75
335.966	8.7
336.179	-3.58
336.392	98.81
336.604	55.81
336.817	41.47
337.029	100.86
337.242	31.23
337.454	123.39
337.667	-1.54
337.88	35.33
338.092	111.1
338.305	55.81
338.517	27.14
338.729	53.76
338.942	14.85
339.154	39.42
339.367	64
339.579	39.42
339.792	25.09
340.004	70.14
340.217	47.62
340.429	31.23
340.641	90.62
340.854	10.75
341.066	31.23
341.278	119.29
341.491	57.86
341.703	10.75
341.915	-7.68
342.128	86.53
342.34	70.14
342.552	35.33
342.764	25.09
342.977	88.57
343.189	74.24
343.401	125.44
343.613	78.33
343.826	20.99
344.038	57.86
344.25	45.57
344.462	49.66
344.674	115.2
344.886	29.18
345.099	27.14
345.311	107.01
345.523	-3.58
345.735	18.94
345.947	127.49
346.159	-9.73
346.371	37.38
346.583	14.85
346.795	102.91
347.007	47.62
347.219	25.09
347.431	53.76
347.643	41.47
347.855	18.94
348.067	76.29
348.279	18.94
348.491	100.86
348.703	94.72
348.915	10.75
349.127	102.91
349.339	78.33
349.551	35.33
349.763	82.43
349.975	29.18
350.187	43.52
350.399	49.66
350.61	49.66
350.822	31.23
351.034	37.38
351.246	-9.73
351.458	20.99
351.669	72.19
351.881	-32.26
352.093	55.81
352.305	18.94
352.517	68.09
352.728	92.67
352.94	51.71
353.152	111.1
353.363	59.9
353.575	84.48
353.787	12.8
353.999	72.19
354.21	84.48
354.422	27.14
354.633	18.94
354.845	37.38
355.057	33.28
355.268	78.33
355.48	66.05
355.692	-7.68
355.903	64
356.115	37.38
356.326	27.14
356.538	88.57
356.749	115.2
356.961	47.62
357.172	53.76
357.384	72.19
357.595	12.8
357.807	168.45
358.018	-28.16
358.23	68.09
358.441	147.97
358.653	10.75
358.864	59.9
359.075	35.33
359.287	29.18
359.498	70.14
359.709	133.63
359.921	55.81
360.132	57.86
360.344	123.39
360.555	-1.54
360.766	23.04
360.977	72.19
361.189	141.82
361.4	27.14
361.611	102.91
361.823	66.05
362.034	41.47
362.245	-13.82
362.456	84.48
362.667	66.05
362.879	-24.06
363.09	29.18
363.301	72.19
363.512	25.09
363.723	61.95
363.935	-7.68
364.146	53.76
364.357	4.61
364.568	80.38
364.779	68.09
364.99	39.42
365.201	41.47
365.412	25.09
365.623	-30.21
365.834	27.14
366.045	43.52
366.256	53.76
366.467	23.04
366.678	12.8
366.889	2.56
367.1	51.71
367.311	94.72
367.522	59.9
367.733	51.71
367.944	47.62
368.155	90.62
368.366	37.38
368.577	76.29
368.788	-5.63
368.999	-13.82
369.209	55.81
369.42	27.14
369.631	55.81
369.842	-36.35
370.053	135.68
370.264	94.72
370.474	-5.63
370.685	59.9
370.896	47.62
371.107	31.23
371.317	127.49
371.528	37.38
371.739	33.28
371.95	-65.02
372.16	12.8
372.371	121.34
372.582	72.19
372.792	-3.58
373.003	39.42
373.214	8.7
373.424	53.76
373.635	53.76
373.846	119.29
374.056	80.38
374.267	16.9
374.477	94.72
374.688	33.28
374.898	35.33
375.109	111.1
375.319	37.38
375.53	102.91
375.74	2.56
375.951	37.38
376.161	14.85
376.372	66.05
376.582	12.8
376.793	23.04
377.003	-9.73
377.214	6.66
377.424	23.04
377.635	88.57
377.845	-44.54
378.055	68.09
378.266	51.71
378.476	-9.73
378.686	-42.5
378.897	16.9
379.107	111.1
379.317	37.38
379.528	37.38
379.738	29.18
379.948	43.52
380.158	78.33
380.369	109.05
380.579	47.62
380.789	64
380.999	53.76
381.21	25.09
381.42	111.1
381.63	86.53
381.84	64
382.05	-9.73
382.261	57.86
382.471	53.76
382.681	51.71
382.891	90.62
383.101	64
383.311	2.56
383.521	59.9
383.731	76.29
383.941	100.86
384.151	33.28
384.361	70.14
384.571	35.33
384.781	10.75
384.991	74.24
385.201	35.33
385.411	49.66
385.621	76.29
385.831	90.62
386.041	59.9
386.251	129.53
386.461	68.09
386.671	0.51
386.881	88.57
387.091	6.66
387.301	90.62
387.511	49.66
387.72	117.25
387.93	59.9
388.14	74.24
388.35	27.14
388.56	80.38
388.769	68.09
388.979	102.91
389.189	57.86
389.399	84.48
389.609	82.43
389.818	113.15
390.028	78.33
390.238	78.33
390.447	41.47
390.657	31.23
390.867	66.05
391.076	121.34
391.286	20.99
391.496	57.86
391.705	43.52
391.915	53.76
392.125	90.62
392.334	94.72
392.544	35.33
392.753	45.57
392.963	45.57
393.172	20.99
393.382	14.85
393.591	43.52
393.801	2.56
394.01	84.48
394.22	64
394.429	86.53
394.639	37.38
394.848	125.44
395.058	92.67
395.267	68.09
395.477	-32.26
395.686	86.53
395.895	16.9
396.105	113.15
396.314	80.38
396.524	117.25
396.733	64
396.942	123.39
397.152	61.95
397.361	29.18
397.57	64
397.78	129.53
397.989	80.38
398.198	35.33
398.407	76.29
398.617	53.76
398.826	-32.26
399.035	98.81
399.244	76.29
399.453	119.29
399.663	66.05
399.872	111.1
400.081	86.53
400.29	86.53
400.499	129.53
400.708	107.01
400.917	90.62
401.127	141.82
401.336	88.57
401.545	80.38
401.754	41.47
401.963	68.09
402.172	166.4
402.381	-17.92
402.59	68.09
402.799	43.52
403.008	78.33
403.217	117.25
403.426	107.01
403.635	150.01
403.844	109.05
404.053	80.38
404.262	121.34
404.471	96.77
404.68	133.63
404.888	78.33
405.097	78.33
405.306	94.72
405.515	86.53
405.724	8.7
405.933	94.72
406.142	129.53
406.35	139.77
406.559	150.01
406.768	76.29
406.977	123.39
407.185	123.39
407.394	147.97
407.603	111.1
407.812	84.48
408.02	184.83
408.229	184.83
408.438	121.34
408.646	166.4
408.855	207.36
409.064	152.06
409.272	143.87
409.481	195.07
409.69	205.31
409.898	131.58
410.107	121.34
410.315	158.21
410.524	121.34
410.733	213.5
410.941	170.49
411.15	227.84
411.358	188.93
411.567	213.5
411.775	182.78
411.984	172.54
412.192	264.7
412.401	205.31
412.609	287.23
412.818	246.27
413.026	229.88
413.234	350.71
413.443	291.32
413.651	276.99
413.86	291.32
414.068	360.95
414.276	365.05
414.485	254.46
414.693	334.33
414.901	381.43
415.11	383.48
415.318	377.34
415.526	315.9
415.734	348.67
415.943	412.15
416.151	453.11
416.359	408.06
416.567	463.35
416.776	479.74
416.984	434.68
417.192	475.64
417.4	567.8
417.608	494.07
417.817	588.28
418.025	516.6
418.233	612.85
418.441	571.9
418.649	621.05
418.857	588.28
419.065	659.96
419.273	580.09
419.481	643.57
419.689	733.68
419.897	803.32
420.105	766.45
420.313	715.25
420.521	813.56
420.729	862.71
420.937	827.89
421.145	858.61
421.353	936.43
421.561	1018.35
421.769	870.9
421.977	1004.02
422.185	950.77
422.393	1034.74
422.601	1192.43
422.809	1083.89
423.017	1102.32
423.224	1272.3
423.432	1247.72
423.64	1219.05
423.848	1354.22
424.056	1257.96
424.263	1452.52
424.471	1360.36
424.679	1384.94
424.887	1477.1
425.094	1538.54
425.302	1534.44
425.51	1642.98
425.718	1634.79
425.925	1661.41
426.133	1694.18
426.341	1851.88
426.548	1970.66
426.756	1923.55
426.964	1931.75
427.171	1948.13
427.379	2120.16
427.586	1991.14
427.794	2189.79
428.001	2281.95
428.209	2380.25
428.417	2286.05
428.624	2597.34
428.832	2443.74
429.039	2587.1
429.247	2568.66
429.454	2656.73
429.662	2879.96
429.869	2738.65
430.076	2886.1
430.284	2836.95
430.491	2953.68
430.699	2992.59
430.906	3191.25
431.114	3072.47
431.321	3156.43
431.528	3314.13
431.736	3590.6
431.943	3705.29
432.15	3574.22
432.358	3660.23
432.565	3928.52
432.772	3951.04
432.979	4123.07
433.187	4157.89
433.394	4118.98
433.601	4313.53
433.808	4520.38
434.016	4381.12
434.223	4424.12
434.43	4843.96
434.637	4858.29
434.844	5132.72
435.052	5206.45
435.259	5165.49
435.466	5136.82
435.673	5167.54
435.88	5552.56
436.087	5892.52
436.294	5775.78
436.501	5554.6
436.708	5843.37
436.915	6039.97
437.122	6285.73
437.329	6183.33
437.537	6410.65
437.743	6547.87
437.95	6502.81
438.157	6822.3
438.364	7020.95
438.571	7072.15
438.778	7227.79
438.985	7772.55
439.192	7471.5
439.399	7764.36
439.606	7565.71
439.813	7778.7
440.02	8374.66
440.227	8518.01
440.433	8120.71
440.64	8462.72
440.847	8386.94
441.054	8728.95
441.261	9345.39
441.467	9101.69
441.674	9228.66
441.881	9754.99
442.088	9548.14
442.294	9347.44
442.501	9871.72
442.708	10107.24
442.914	10563.93
443.121	10860.89
443.328	10387.81
443.534	11252.05
443.741	10959.19
443.948	10709.34
444.154	11675.98
444.361	11524.43
444.568	11471.18
444.774	11635.02
444.981	11723.09
445.187	12202.31
445.394	12656.96
445.6	12634.43
445.807	13746.48
446.013	12986.68
446.22	13416.76
446.426	13666.61
446.633	13900.08
446.839	14600.48
447.046	13992.23
447.252	14596.39
447.459	14659.87
447.665	14672.16
447.871	15243.54
448.078	16087.31
448.284	15302.93
448.491	15743.25
448.697	16261.38
448.903	16644.35
449.11	16611.59
449.316	16271.62
449.522	16869.63
449.728	17068.28
449.935	17279.22
450.141	17316.09
450.347	17854.7
450.553	17209.59
450.76	17510.64
450.966	18309.35
451.172	17576.18
451.378	18313.45
451.584	17893.61
451.791	18188.52
451.997	18106.6
452.203	18731.23
452.409	18690.27
452.615	18491.62
452.821	17832.18
453.027	17422.58
453.233	18510.05
453.44	17977.58
453.646	18127.08
453.852	18110.7
454.058	18419.94
454.264	17854.7
454.47	18215.15
454.676	17582.32
454.882	18356.46
455.088	16716.03
455.294	16955.65
455.5	17277.18
455.705	17412.34
455.911	16742.66
456.117	16640.26
456.323	16212.23
456.529	15632.66
456.735	15976.72
456.941	15722.77
457.147	15337.75
457.352	14960.92
457.558	14934.3
457.764	14911.77
457.97	14678.3
458.176	14278.95
458.381	14168.36
458.587	13527.35
458.793	13521.2
458.999	12960.06
459.204	13740.33
459.41	13187.38
459.616	12622.14
459.821	12646.72
460.027	12546.37
460.233	12224.84
460.438	11557.2
460.644	11991.37
460.85	11151.7
461.055	11053.4
461.261	10957.14
461.466	10203.49
461.672	9974.12
461.878	10690.91
462.083	9877.87
462.289	10021.22
462.494	9630.06
462.7	9320.82
462.905	9021.81
463.111	9210.23
463.316	9365.87
463.522	9179.51
463.727	9093.49
463.932	9068.92
464.138	8907.13
464.343	9267.57
464.549	8948.09
464.754	9288.05
464.959	9032.05
465.165	9058.68
465.37	8843.64
465.575	8501.63
465.781	8812.92
465.986	8946.04
466.191	8558.97
466.397	8350.08
466.602	8036.74
466.807	8436.1
467.012	8276.35
467.218	8391.04
467.423	8149.38
467.628	8337.79
467.833	8659.32
468.038	8405.38
468.244	8067.46
468.449	8204.67
468.654	8198.53
468.859	8032.65
469.064	7905.67
469.269	7711.11
469.474	7797.13
