Data from USB4F104151__4__12-53-04-689.txt Node

Date: Fri Mar 14 12:53:04 EDT 2025
User: louis
Spectrometer: USB4F10415
Trigger mode: 4
Integration Time (sec): 1.000000E-2
Scans to average: 1
Electric dark correction enabled: true
Nonlinearity correction enabled: false
Boxcar width: 0
XAxis mode: Wavelengths
Number of Pixels in Spectrum: 3648
>>>>>Begin Spectral Data<<<<<
178.204	15.7
178.424	15.7
178.644	15.7
178.864	-60.07
179.084	-19.11
179.304	5.46
179.524	34.13
179.744	17.75
179.964	-23.21
180.184	17.75
180.404	25.94
180.624	-72.36
180.844	-15.02
181.064	-15.02
181.283	13.65
181.503	17.75
181.723	-6.83
181.943	-29.35
182.163	79.19
182.383	38.23
182.602	50.52
182.822	30.04
183.042	1.37
183.262	17.75
183.482	54.61
183.701	-12.97
183.921	36.18
184.141	19.8
184.361	-8.87
184.58	-68.27
184.8	34.13
185.02	27.99
185.239	71
185.459	-41.64
185.679	89.43
185.898	-0.68
186.118	116.05
186.338	23.89
186.557	25.94
186.777	62.8
186.997	40.28
187.216	-39.59
187.436	1.37
187.655	-10.92
187.875	46.42
188.095	-27.31
188.314	54.61
188.534	40.28
188.753	-6.83
188.973	25.94
189.192	5.46
189.412	23.89
189.631	38.23
189.851	23.89
190.07	56.66
190.29	-33.45
190.509	23.89
190.729	46.42
190.948	50.52
191.168	11.61
191.387	25.94
191.607	30.04
191.826	50.52
192.045	-29.35
192.265	-33.45
192.484	5.46
192.704	48.47
192.923	-25.26
193.142	52.56
193.362	-55.98
193.581	71
193.8	38.23
194.02	23.89
194.239	-43.69
194.458	3.41
194.678	-39.59
194.897	87.38
195.116	46.42
195.335	-10.92
195.555	62.8
195.774	-12.97
195.993	42.32
196.212	32.08
196.432	5.46
196.651	15.7
196.87	-23.21
197.089	-37.55
197.308	38.23
197.528	91.48
197.747	89.43
197.966	93.52
198.185	95.57
198.404	-45.74
198.623	30.04
198.842	-35.5
199.062	30.04
199.281	-31.4
199.5	7.51
199.719	1.37
199.938	38.23
200.157	9.56
200.376	3.41
200.595	-6.83
200.814	23.89
201.033	42.32
201.252	25.94
201.471	-25.26
201.69	-12.97
201.909	-31.4
202.128	30.04
202.347	40.28
202.566	68.95
202.785	42.32
203.004	3.41
203.223	-4.78
203.442	15.7
203.661	58.71
203.879	30.04
204.098	58.71
204.317	-27.31
204.536	79.19
204.755	-4.78
204.974	9.56
205.193	44.37
205.411	-2.73
205.63	54.61
205.849	-60.07
206.068	-25.26
206.287	56.66
206.505	-31.4
206.724	-53.93
206.943	56.66
207.162	-27.31
207.381	-90.79
207.599	-39.59
207.818	-15.02
208.037	79.19
208.255	13.65
208.474	54.61
208.693	-2.73
208.911	62.8
209.13	19.8
209.349	17.75
209.567	15.7
209.786	52.56
210.005	25.94
210.223	25.94
210.442	38.23
210.661	17.75
210.879	-0.68
211.098	68.95
211.316	5.46
211.535	75.09
211.753	17.75
211.972	42.32
212.191	71
212.409	-43.69
212.628	89.43
212.846	-8.87
213.065	-12.97
213.283	87.38
213.502	-12.97
213.72	23.89
213.938	17.75
214.157	19.8
214.375	114
214.594	38.23
214.812	-2.73
215.031	25.94
215.249	44.37
215.467	66.9
215.686	-0.68
215.904	38.23
216.122	91.48
216.341	30.04
216.559	-39.59
216.778	21.84
216.996	36.18
217.214	13.65
217.432	66.9
217.651	11.61
217.869	56.66
218.087	40.28
218.306	-39.59
218.524	60.76
218.742	-17.07
218.96	19.8
219.179	5.46
219.397	13.65
219.615	17.75
219.833	21.84
220.051	9.56
220.27	54.61
220.488	40.28
220.706	-23.21
220.924	-10.92
221.142	5.46
221.36	42.32
221.578	9.56
221.796	-45.74
222.015	48.47
222.233	93.52
222.451	54.61
222.669	40.28
222.887	48.47
223.105	32.08
223.323	11.61
223.541	25.94
223.759	7.51
223.977	89.43
224.195	32.08
224.413	60.76
224.631	97.62
224.849	40.28
225.067	11.61
225.285	56.66
225.503	40.28
225.721	52.56
225.939	42.32
226.157	-2.73
226.375	89.43
226.592	64.85
226.81	1.37
227.028	-19.11
227.246	9.56
227.464	27.99
227.682	62.8
227.9	32.08
228.117	52.56
228.335	-33.45
228.553	30.04
228.771	38.23
228.989	71
229.206	-10.92
229.424	-4.78
229.642	42.32
229.86	-8.87
230.077	3.41
230.295	-10.92
230.513	-10.92
230.731	25.94
230.948	-0.68
231.166	62.8
231.384	50.52
231.601	23.89
231.819	40.28
232.037	1.37
232.254	23.89
232.472	13.65
232.689	25.94
232.907	58.71
233.125	62.8
233.342	38.23
233.56	-23.21
233.777	11.61
233.995	7.51
234.213	38.23
234.43	19.8
234.648	-2.73
234.865	-29.35
235.083	89.43
235.3	9.56
235.518	48.47
235.735	52.56
235.953	81.24
236.17	-17.07
236.388	42.32
236.605	89.43
236.822	30.04
237.04	15.7
237.257	30.04
237.475	23.89
237.692	23.89
237.909	40.28
238.127	-8.87
238.344	27.99
238.562	23.89
238.779	-4.78
238.996	11.61
239.214	-2.73
239.431	17.75
239.648	32.08
239.865	66.9
240.083	60.76
240.3	62.8
240.517	50.52
240.735	13.65
240.952	23.89
241.169	-4.78
241.386	50.52
241.603	13.65
241.821	-2.73
242.038	89.43
242.255	9.56
242.472	13.65
242.689	46.42
242.907	42.32
243.124	11.61
243.341	30.04
243.558	-17.07
243.775	68.95
243.992	-10.92
244.209	62.8
244.426	-8.87
244.643	19.8
244.86	-25.26
245.078	62.8
245.295	32.08
245.512	68.95
245.729	79.19
245.946	19.8
246.163	30.04
246.38	79.19
246.597	25.94
246.814	62.8
247.031	-6.83
247.248	99.67
247.464	50.52
247.681	-12.97
247.898	-41.64
248.115	-2.73
248.332	-12.97
248.549	60.76
248.766	-35.5
248.983	-25.26
249.2	-43.69
249.417	17.75
249.633	17.75
249.85	89.43
250.067	-64.17
250.284	-6.83
250.501	-8.87
250.717	34.13
250.934	64.85
251.151	32.08
251.368	83.28
251.585	-0.68
251.801	-2.73
252.018	21.84
252.235	-74.41
252.451	-49.83
252.668	54.61
252.885	75.09
253.102	-17.07
253.318	-4.78
253.535	21.84
253.752	48.47
253.968	23.89
254.185	38.23
254.401	68.95
254.618	-41.64
254.835	19.8
255.051	42.32
255.268	66.9
255.484	71
255.701	52.56
255.917	150.87
256.134	-8.87
256.351	-19.11
256.567	40.28
256.784	79.19
257	50.52
257.217	23.89
257.433	85.33
257.65	48.47
257.866	64.85
258.082	7.51
258.299	27.99
258.515	54.61
258.732	-12.97
258.948	5.46
259.165	27.99
259.381	64.85
259.597	-66.22
259.814	21.84
260.03	17.75
260.246	30.04
260.463	21.84
260.679	32.08
260.895	-2.73
261.112	23.89
261.328	15.7
261.544	44.37
261.761	54.61
261.977	-17.07
262.193	40.28
262.409	11.61
262.626	44.37
262.842	1.37
263.058	17.75
263.274	71
263.49	-0.68
263.707	62.8
263.923	54.61
264.139	-4.78
264.355	25.94
264.571	40.28
264.787	-0.68
265.004	-12.97
265.22	44.37
265.436	-15.02
265.652	40.28
265.868	40.28
266.084	-31.4
266.3	89.43
266.516	19.8
266.732	52.56
266.948	19.8
267.164	-0.68
267.38	27.99
267.596	56.66
267.812	19.8
268.028	3.41
268.244	-17.07
268.46	87.38
268.676	-15.02
268.892	52.56
269.108	30.04
269.324	54.61
269.54	7.51
269.756	38.23
269.972	-88.75
270.188	19.8
270.403	17.75
270.619	68.95
270.835	1.37
271.051	58.71
271.267	48.47
271.483	77.14
271.698	46.42
271.914	44.37
272.13	-39.59
272.346	-0.68
272.562	75.09
272.777	75.09
272.993	-27.31
273.209	1.37
273.425	5.46
273.64	85.33
273.856	62.8
274.072	25.94
274.287	-15.02
274.503	34.13
274.719	60.76
274.934	11.61
275.15	13.65
275.366	11.61
275.581	3.41
275.797	89.43
276.012	50.52
276.228	27.99
276.444	38.23
276.659	79.19
276.875	38.23
277.09	27.99
277.306	73.04
277.521	77.14
277.737	83.28
277.952	38.23
278.168	62.8
278.383	-21.16
278.599	-41.64
278.814	-23.21
279.03	-96.94
279.245	30.04
279.461	87.38
279.676	30.04
279.892	-15.02
280.107	9.56
280.322	-17.07
280.538	36.18
280.753	50.52
280.969	56.66
281.184	7.51
281.399	91.48
281.615	-12.97
281.83	97.62
282.045	7.51
282.26	9.56
282.476	-21.16
282.691	73.04
282.906	34.13
283.122	44.37
283.337	-10.92
283.552	7.51
283.767	56.66
283.983	81.24
284.198	-39.59
284.413	5.46
284.628	-25.26
284.843	21.84
285.058	-25.26
285.274	9.56
285.489	17.75
285.704	54.61
285.919	107.86
286.134	1.37
286.349	58.71
286.564	-0.68
286.779	52.56
286.995	56.66
287.21	-12.97
287.425	7.51
287.64	30.04
287.855	50.52
288.07	-6.83
288.285	42.32
288.5	-39.59
288.715	58.71
288.93	40.28
289.145	62.8
289.36	3.41
289.575	17.75
289.79	15.7
290.004	27.99
290.219	120.15
290.434	27.99
290.649	-12.97
290.864	9.56
291.079	66.9
291.294	56.66
291.509	-19.11
291.724	71
291.938	60.76
292.153	62.8
292.368	-29.35
292.583	1.37
292.798	17.75
293.012	52.56
293.227	79.19
293.442	30.04
293.657	50.52
293.871	32.08
294.086	-6.83
294.301	116.05
294.516	56.66
294.73	99.67
294.945	9.56
295.16	23.89
295.374	62.8
295.589	85.33
295.804	3.41
296.018	25.94
296.233	21.84
296.447	40.28
296.662	27.99
296.877	40.28
297.091	105.81
297.306	42.32
297.52	81.24
297.735	66.9
297.949	-12.97
298.164	36.18
298.378	50.52
298.593	5.46
298.807	3.41
299.022	-12.97
299.236	-0.68
299.451	23.89
299.665	36.18
299.88	19.8
300.094	-41.64
300.309	27.99
300.523	-0.68
300.737	40.28
300.952	75.09
301.166	-19.11
301.381	46.42
301.595	54.61
301.809	-35.5
302.024	11.61
302.238	7.51
302.452	-29.35
302.667	-15.02
302.881	56.66
303.095	3.41
303.309	40.28
303.524	34.13
303.738	-17.07
303.952	54.61
304.166	56.66
304.381	-15.02
304.595	62.8
304.809	34.13
305.023	58.71
305.237	38.23
305.452	7.51
305.666	95.57
305.88	30.04
306.094	46.42
306.308	36.18
306.522	11.61
306.736	21.84
306.95	1.37
307.164	60.76
307.379	40.28
307.593	13.65
307.807	17.75
308.021	52.56
308.235	54.61
308.449	3.41
308.663	32.08
308.877	38.23
309.091	95.57
309.305	46.42
309.519	-4.78
309.733	30.04
309.947	11.61
310.161	85.33
310.374	38.23
310.588	81.24
310.802	-25.26
311.016	30.04
311.23	21.84
311.444	56.66
311.658	71
311.872	30.04
312.085	15.7
312.299	38.23
312.513	-33.45
312.727	34.13
312.941	-25.26
313.154	50.52
313.368	9.56
313.582	48.47
313.796	-25.26
314.009	19.8
314.223	-8.87
314.437	165.2
314.651	7.51
314.864	19.8
315.078	21.84
315.292	-45.74
315.505	30.04
315.719	95.57
315.933	-23.21
316.146	60.76
316.36	-64.17
316.573	66.9
316.787	11.61
317.001	30.04
317.214	9.56
317.428	128.34
317.641	7.51
317.855	64.85
318.068	-17.07
318.282	77.14
318.495	52.56
318.709	-31.4
318.922	-0.68
319.136	114
319.349	83.28
319.563	91.48
319.776	60.76
319.99	30.04
320.203	9.56
320.417	44.37
320.63	64.85
320.843	85.33
321.057	107.86
321.27	91.48
321.483	19.8
321.697	95.57
321.91	-15.02
322.124	34.13
322.337	40.28
322.55	7.51
322.763	71
322.977	40.28
323.19	46.42
323.403	50.52
323.617	71
323.83	40.28
324.043	132.44
324.256	38.23
324.469	-0.68
324.683	52.56
324.896	-35.5
325.109	19.8
325.322	11.61
325.535	-25.26
325.748	36.18
325.962	27.99
326.175	1.37
326.388	56.66
326.601	38.23
326.814	-6.83
327.027	87.38
327.24	-2.73
327.453	7.51
327.666	48.47
327.879	-10.92
328.092	9.56
328.305	60.76
328.518	19.8
328.731	71
328.944	25.94
329.157	25.94
329.37	1.37
329.583	9.56
329.796	48.47
330.009	1.37
330.222	34.13
330.435	19.8
330.648	68.95
330.861	54.61
331.073	9.56
331.286	54.61
331.499	87.38
331.712	19.8
331.925	5.46
332.138	34.13
332.35	5.46
332.563	-39.59
332.776	19.8
332.989	46.42
333.202	40.28
333.414	68.95
333.627	-27.31
333.84	9.56
334.053	38.23
334.265	-25.26
334.478	32.08
334.691	-29.35
334.903	48.47
335.116	7.51
335.329	44.37
335.541	3.41
335.754	124.24
335.966	-19.11
336.179	42.32
336.392	71
336.604	71
336.817	68.95
337.029	71
337.242	91.48
337.454	68.95
337.667	38.23
337.88	93.52
338.092	9.56
338.305	11.61
338.517	25.94
338.729	58.71
338.942	7.51
339.154	-15.02
339.367	15.7
339.579	21.84
339.792	-12.97
340.004	58.71
340.217	56.66
340.429	13.65
340.641	9.56
340.854	9.56
341.066	40.28
341.278	-10.92
341.491	27.99
341.703	32.08
341.915	91.48
342.128	97.62
342.34	66.9
342.552	46.42
342.764	3.41
342.977	42.32
343.189	62.8
343.401	-29.35
343.613	-8.87
343.826	81.24
344.038	23.89
344.25	15.7
344.462	-62.12
344.674	-10.92
344.886	5.46
345.099	38.23
345.311	17.75
345.523	21.84
345.735	27.99
345.947	13.65
346.159	54.61
346.371	93.52
346.583	3.41
346.795	23.89
347.007	68.95
347.219	25.94
347.431	-15.02
347.643	42.32
347.855	23.89
348.067	48.47
348.279	3.41
348.491	-2.73
348.703	93.52
348.915	50.52
349.127	-43.69
349.339	-37.55
349.551	17.75
349.763	44.37
349.975	-35.5
350.187	73.04
350.399	5.46
350.61	13.65
350.822	46.42
351.034	23.89
351.246	58.71
351.458	-17.07
351.669	50.52
351.881	79.19
352.093	97.62
352.305	42.32
352.517	-12.97
352.728	73.04
352.94	-27.31
353.152	-8.87
353.363	27.99
353.575	68.95
353.787	40.28
353.999	64.85
354.21	25.94
354.422	21.84
354.633	56.66
354.845	73.04
355.057	54.61
355.268	75.09
355.48	27.99
355.692	34.13
355.903	5.46
356.115	54.61
356.326	50.52
356.538	52.56
356.749	27.99
356.961	62.8
357.172	91.48
357.384	19.8
357.595	25.94
357.807	5.46
358.018	11.61
358.23	-8.87
358.441	87.38
358.653	40.28
358.864	17.75
359.075	54.61
359.287	68.95
359.498	81.24
359.709	36.18
359.921	111.96
360.132	85.33
360.344	-15.02
360.555	60.76
360.766	32.08
360.977	68.95
361.189	128.34
361.4	-21.16
361.611	-6.83
361.823	-0.68
362.034	60.76
362.245	9.56
362.456	21.84
362.667	52.56
362.879	73.04
363.09	32.08
363.301	60.76
363.512	38.23
363.723	68.95
363.935	38.23
364.146	73.04
364.357	-4.78
364.568	83.28
364.779	-8.87
364.99	62.8
365.201	-25.26
365.412	27.99
365.623	25.94
365.834	64.85
366.045	52.56
366.256	54.61
366.467	27.99
366.678	71
366.889	38.23
367.1	77.14
367.311	-17.07
367.522	23.89
367.733	36.18
367.944	73.04
368.155	50.52
368.366	56.66
368.577	75.09
368.788	54.61
368.999	-21.16
369.209	68.95
369.42	75.09
369.631	56.66
369.842	30.04
370.053	-35.5
370.264	9.56
370.474	50.52
370.685	56.66
370.896	46.42
371.107	87.38
371.317	52.56
371.528	-12.97
371.739	79.19
371.95	9.56
372.16	27.99
372.371	60.76
372.582	71
372.792	-41.64
373.003	32.08
373.214	68.95
373.424	97.62
373.635	3.41
373.846	62.8
374.056	87.38
374.267	36.18
374.477	105.81
374.688	-35.5
374.898	-29.35
375.109	38.23
375.319	5.46
375.53	128.34
375.74	-31.4
375.951	75.09
376.161	111.96
376.372	95.57
376.582	27.99
376.793	83.28
377.003	38.23
377.214	40.28
377.424	-21.16
377.635	34.13
377.845	89.43
378.055	40.28
378.266	13.65
378.476	44.37
378.686	44.37
378.897	46.42
379.107	99.67
379.317	36.18
379.528	95.57
379.738	64.85
379.948	-6.83
380.158	66.9
380.369	60.76
380.579	13.65
380.789	-12.97
380.999	23.89
381.21	71
381.42	85.33
381.63	-0.68
381.84	13.65
382.05	50.52
382.261	62.8
382.471	114
382.681	46.42
382.891	85.33
383.101	46.42
383.311	-0.68
383.521	30.04
383.731	122.2
383.941	89.43
384.151	13.65
384.361	32.08
384.571	73.04
384.781	93.52
384.991	79.19
385.201	68.95
385.411	7.51
385.621	99.67
385.831	144.72
386.041	62.8
386.251	46.42
386.461	89.43
386.671	75.09
386.881	25.94
387.091	52.56
387.301	58.71
387.511	52.56
387.72	77.14
387.93	30.04
388.14	50.52
388.35	-12.97
388.56	32.08
388.769	54.61
388.979	66.9
389.189	32.08
389.399	111.96
389.609	9.56
389.818	-23.21
390.028	58.71
390.238	48.47
390.447	40.28
390.657	46.42
390.867	50.52
391.076	27.99
391.286	54.61
391.496	64.85
391.705	85.33
391.915	73.04
392.125	93.52
392.334	-6.83
392.544	64.85
392.753	50.52
392.963	126.29
393.172	99.67
393.382	95.57
393.591	101.72
393.801	107.86
394.01	91.48
394.22	17.75
394.429	64.85
394.639	19.8
394.848	109.91
395.058	52.56
395.267	44.37
395.477	64.85
395.686	-17.07
395.895	114
396.105	99.67
396.314	58.71
396.524	56.66
396.733	50.52
396.942	89.43
397.152	73.04
397.361	79.19
397.57	89.43
397.78	54.61
397.989	50.52
398.198	83.28
398.407	73.04
398.617	81.24
398.826	89.43
399.035	40.28
399.244	77.14
399.453	91.48
399.663	56.66
399.872	54.61
400.081	85.33
400.29	138.58
400.499	62.8
400.708	130.39
400.917	138.58
401.127	111.96
401.336	44.37
401.545	109.91
401.754	107.86
401.963	13.65
402.172	114
402.381	105.81
402.59	25.94
402.799	73.04
403.008	99.67
403.217	142.68
403.426	3.41
403.635	97.62
403.844	97.62
404.053	91.48
404.262	169.3
404.471	150.87
404.68	77.14
404.888	68.95
405.097	159.06
405.306	152.91
405.515	66.9
405.724	105.81
405.933	101.72
406.142	111.96
406.35	144.72
406.559	148.82
406.768	109.91
406.977	154.96
407.185	128.34
407.394	142.68
407.603	154.96
407.812	150.87
408.02	114
408.229	105.81
408.438	193.87
408.646	71
408.855	130.39
409.064	165.2
409.272	187.73
409.481	240.98
409.69	300.37
409.898	179.54
410.107	214.35
410.315	290.13
410.524	232.79
410.733	253.27
410.941	191.83
411.15	273.75
411.358	212.31
411.567	367.95
411.775	247.12
411.984	302.42
412.192	329.04
412.401	243.03
412.609	281.94
412.818	333.14
413.026	222.55
413.234	312.66
413.443	357.71
413.651	367.95
413.86	439.63
414.068	394.58
414.276	435.53
414.485	439.63
414.693	509.26
414.901	527.69
415.11	441.68
415.318	505.17
415.526	546.12
415.734	542.03
415.943	496.97
416.151	529.74
416.359	660.81
416.567	578.89
416.776	623.95
416.984	709.96
417.192	677.19
417.4	679.24
417.608	664.91
417.817	714.06
418.025	759.11
418.233	783.69
418.441	834.89
418.649	824.65
418.857	851.27
419.065	892.23
419.273	824.65
419.481	884.04
419.689	1060.17
419.897	1039.69
420.105	1129.8
420.313	1117.51
420.521	1097.03
420.729	1058.12
420.937	1193.28
421.145	1205.57
421.353	1217.86
421.561	1258.82
421.769	1303.87
421.977	1316.16
422.185	1342.78
422.393	1400.13
422.601	1488.19
422.809	1414.46
423.017	1561.92
423.224	1580.35
423.432	1674.56
423.64	1688.89
423.848	1817.91
424.056	1813.82
424.263	1869.11
424.471	1914.17
424.679	1987.89
424.887	2139.44
425.094	2071.86
425.302	2116.92
425.51	2250.03
425.718	2446.64
425.925	2360.63
426.133	2411.82
426.341	2602.29
426.548	2546.99
426.756	2735.4
426.964	2819.37
427.171	2907.43
427.379	2911.53
427.586	2979.11
427.794	3065.13
428.001	3183.91
428.209	3407.14
428.417	3327.27
428.624	3538.21
428.832	3568.93
429.039	3478.82
429.247	3480.86
429.454	3859.74
429.662	4179.22
429.869	3841.31
430.076	4125.97
430.284	4023.58
430.491	4236.56
430.699	4420.88
430.906	4441.36
431.114	4510.99
431.321	4719.89
431.528	4814.09
431.736	5076.23
431.943	5274.88
432.15	5145.86
432.358	5248.26
432.565	5477.63
432.772	5590.27
432.979	5831.93
433.187	5823.74
433.394	5985.53
433.601	6401.27
433.808	6358.26
434.016	6329.59
434.223	6704.37
434.43	7105.77
434.637	6753.52
434.844	7396.58
435.052	7298.28
435.259	7349.48
435.466	7484.64
435.673	7599.33
435.88	7898.33
436.087	8406.23
436.294	8176.86
436.501	8187.1
436.708	8371.41
436.915	8699.09
437.122	8989.9
437.329	8856.78
437.537	9379.01
437.743	9194.7
437.95	9395.4
438.157	9848
438.364	10048.7
438.571	10132.67
438.778	10310.84
438.985	11203.75
439.192	10847.41
439.399	11001.01
439.606	10882.22
439.813	11457.7
440.02	12084.38
440.227	11932.83
440.433	11742.37
440.64	12199.07
440.847	12043.42
441.054	12504.21
441.261	13126.8
441.467	12907.66
441.674	13145.23
441.881	13755.52
442.088	13943.94
442.294	13419.66
442.501	14062.72
442.708	14400.63
442.914	14894.19
443.121	15416.43
443.328	14894.19
443.534	16223.33
443.741	15838.31
443.948	15467.63
444.154	16897.11
444.361	16325.72
444.568	16792.66
444.774	16565.34
444.981	16856.15
445.187	17499.21
445.394	17949.76
445.6	17849.41
445.807	19516.46
446.013	18662.46
446.22	19070
446.426	19641.39
446.633	19919.91
446.839	21013.52
447.046	19747.88
447.252	21165.07
447.459	21232.66
447.665	21132.31
447.871	21672.97
448.078	22748.15
448.284	21933.06
448.491	22172.67
448.697	23288.82
448.903	23733.23
449.11	23571.44
449.316	23528.43
449.522	23708.65
449.728	24155.11
449.935	24599.52
450.141	24654.81
450.347	25183.19
450.553	24558.56
450.76	24728.54
450.966	25801.68
451.172	25123.8
451.378	25918.41
451.584	25328.59
451.791	25773
451.997	26414.02
452.203	26387.39
452.409	26383.3
452.615	26002.38
452.821	25310.16
453.027	25031.64
453.233	26340.29
453.44	25392.08
453.646	25621.45
453.852	25791.44
454.058	26063.82
454.264	25363.41
454.47	25732.04
454.676	25334.74
454.882	25996.23
455.088	23753.71
455.294	24296.42
455.5	24486.88
455.705	24765.4
455.911	23923.69
456.117	23342.07
456.323	23196.66
456.529	21965.83
456.735	23122.93
456.941	22287.36
457.147	21935.11
457.352	21357.58
457.558	21183.51
457.764	20976.66
457.97	20847.64
458.176	20390.94
458.381	20341.79
458.587	19311.66
458.793	19399.73
458.999	18400.32
459.204	19532.84
459.41	19078.19
459.616	17716.29
459.821	17759.3
460.027	17933.38
460.233	17534.03
460.438	16839.76
460.644	17040.47
460.85	15869.03
461.055	15756.39
461.261	15936.61
461.466	14916.72
461.672	14320.76
461.878	15107.18
462.083	14242.94
462.289	14091.39
462.494	13819.01
462.7	13085.84
462.905	13055.12
463.111	13036.69
463.316	13325.45
463.522	13057.17
463.727	13266.06
463.932	13159.56
464.138	12977.3
464.343	12971.15
464.549	12784.79
464.754	13345.93
464.959	13073.55
465.165	12864.66
465.37	12430.49
465.575	12111
465.781	12520.6
465.986	12678.29
466.191	12547.22
466.397	11875.49
466.602	11445.41
466.807	11889.82
467.012	11781.28
467.218	11599.01
467.423	11560.1
467.628	11709.6
467.833	12207.26
468.038	11895.97
468.244	11396.26
468.449	11881.63
468.654	11582.63
468.859	11390.12
469.064	11414.7
469.269	10867.89
