Data from USB4F104151__20__12-53-23-148.txt Node

Date: Fri Mar 14 12:53:23 EDT 2025
User: louis
Spectrometer: USB4F10415
Trigger mode: 4
Integration Time (sec): 1.000000E-2
Scans to average: 1
Electric dark correction enabled: true
Nonlinearity correction enabled: false
Boxcar width: 0
XAxis mode: Wavelengths
Number of Pixels in Spectrum: 3648
>>>>>Begin Spectral Data<<<<<
178.204	-27.14
178.424	-27.14
178.644	-27.14
178.864	-86.53
179.084	-33.28
179.304	-8.7
179.524	30.21
179.744	-41.47
179.964	62.98
180.184	-18.94
180.404	22.02
180.624	-23.04
180.844	-37.38
181.064	-41.47
181.283	-0.51
181.503	15.87
181.723	40.45
181.943	-4.61
182.163	24.06
182.383	19.97
182.602	30.21
182.822	15.87
183.042	46.59
183.262	-49.66
183.482	24.06
183.701	-20.99
183.921	1.54
184.141	-74.24
184.361	24.06
184.58	-57.86
184.8	9.73
185.02	-12.8
185.239	24.06
185.459	-76.29
185.679	34.3
185.898	30.21
186.118	44.54
186.338	-31.23
186.557	-25.09
186.777	1.54
186.997	13.82
187.216	-33.28
187.436	116.22
187.655	-8.7
187.875	73.21
188.095	-2.56
188.314	24.06
188.534	34.3
188.753	73.21
188.973	26.11
189.192	-0.51
189.412	17.92
189.631	34.3
189.851	-25.09
190.07	44.54
190.29	-0.51
190.509	19.97
190.729	3.58
190.948	-14.85
191.168	48.64
191.387	-70.14
191.607	69.12
191.826	13.82
192.045	36.35
192.265	26.11
192.484	34.3
192.704	-78.33
192.923	1.54
193.142	89.6
193.362	44.54
193.581	-10.75
193.8	-39.42
194.02	-16.9
194.239	-6.66
194.458	-0.51
194.678	15.87
194.897	52.74
195.116	-4.61
195.335	22.02
195.555	11.78
195.774	-2.56
195.993	11.78
196.212	-8.7
196.432	-55.81
196.651	1.54
196.87	56.83
197.089	24.06
197.308	-0.51
197.528	-55.81
197.747	-2.56
197.966	-4.61
198.185	-55.81
198.404	22.02
198.623	13.82
198.842	-59.9
199.062	38.4
199.281	28.16
199.5	-8.7
199.719	30.21
199.938	48.64
200.157	9.73
200.376	36.35
200.595	50.69
200.814	-2.56
201.033	52.74
201.252	40.45
201.471	32.26
201.69	56.83
201.909	15.87
202.128	-0.51
202.347	-4.61
202.566	24.06
202.785	38.4
203.004	15.87
203.223	108.03
203.442	1.54
203.661	9.73
203.879	9.73
204.098	65.02
204.317	-23.04
204.536	-10.75
204.755	-53.76
204.974	17.92
205.193	-8.7
205.411	15.87
205.63	-18.94
205.849	-59.9
206.068	32.26
206.287	26.11
206.505	56.83
206.724	83.45
206.943	-0.51
207.162	48.64
207.381	-35.33
207.599	28.16
207.818	1.54
208.037	36.35
208.255	-0.51
208.474	-31.23
208.693	-45.57
208.911	-49.66
209.13	-74.24
209.349	24.06
209.567	-29.18
209.786	-8.7
210.005	-35.33
210.223	87.55
210.442	44.54
210.661	44.54
210.879	-53.76
211.098	3.58
211.316	-10.75
211.535	83.45
211.753	50.69
211.972	34.3
212.191	22.02
212.409	-14.85
212.628	11.78
212.846	17.92
213.065	42.5
213.283	65.02
213.502	50.69
213.72	54.78
213.938	13.82
214.157	-33.28
214.375	13.82
214.594	11.78
214.812	48.64
215.031	-6.66
215.249	11.78
215.467	40.45
215.686	60.93
215.904	48.64
216.122	46.59
216.341	26.11
216.559	22.02
216.778	-55.81
216.996	-23.04
217.214	17.92
217.432	-37.38
217.651	36.35
217.869	36.35
218.087	67.07
218.306	22.02
218.524	44.54
218.742	-27.14
218.96	50.69
219.179	5.63
219.397	5.63
219.615	22.02
219.833	56.83
220.051	54.78
220.27	-37.38
220.488	34.3
220.706	11.78
220.924	24.06
221.142	17.92
221.36	9.73
221.578	30.21
221.796	40.45
222.015	32.26
222.233	-18.94
222.451	-25.09
222.669	-47.62
222.887	44.54
223.105	-39.42
223.323	50.69
223.541	-29.18
223.759	-27.14
223.977	52.74
224.195	-0.51
224.413	13.82
224.631	30.21
224.849	-43.52
225.067	42.5
225.285	24.06
225.503	46.59
225.721	-37.38
225.939	73.21
226.157	7.68
226.375	30.21
226.592	13.82
226.81	87.55
227.028	-10.75
227.246	7.68
227.464	-10.75
227.682	-18.94
227.9	13.82
228.117	112.13
228.335	7.68
228.553	15.87
228.771	-53.76
228.989	-20.99
229.206	81.41
229.424	58.88
229.642	3.58
229.86	56.83
230.077	-68.09
230.295	-0.51
230.513	34.3
230.731	46.59
230.948	67.07
231.166	30.21
231.384	9.73
231.601	-84.48
231.819	-20.99
232.037	-8.7
232.254	42.5
232.472	69.12
232.689	-6.66
232.907	-2.56
233.125	26.11
233.342	-25.09
233.56	-16.9
233.777	15.87
233.995	9.73
234.213	56.83
234.43	28.16
234.648	-25.09
234.865	81.41
235.083	26.11
235.3	58.88
235.518	50.69
235.735	-29.18
235.953	11.78
236.17	15.87
236.388	1.54
236.605	17.92
236.822	-35.33
237.04	-29.18
237.257	24.06
237.475	17.92
237.692	48.64
237.909	48.64
238.127	-23.04
238.344	24.06
238.562	7.68
238.779	62.98
238.996	-16.9
239.214	-23.04
239.431	73.21
239.648	54.78
239.865	-33.28
240.083	46.59
240.3	13.82
240.517	7.68
240.735	79.36
240.952	1.54
241.169	15.87
241.386	-10.75
241.603	-12.8
241.821	-10.75
242.038	30.21
242.255	30.21
242.472	60.93
242.689	17.92
242.907	17.92
243.124	38.4
243.341	-8.7
243.558	36.35
243.775	85.5
243.992	-76.29
244.209	-4.61
244.426	11.78
244.643	24.06
244.86	-4.61
245.078	-31.23
245.295	17.92
245.512	73.21
245.729	-57.86
245.946	-10.75
246.163	24.06
246.38	40.45
246.597	1.54
246.814	65.02
247.031	36.35
247.248	3.58
247.464	52.74
247.681	-23.04
247.898	-31.23
248.115	3.58
248.332	-18.94
248.549	-12.8
248.766	-0.51
248.983	46.59
249.2	-55.81
249.417	7.68
249.633	-55.81
249.85	46.59
250.067	52.74
250.284	34.3
250.501	-10.75
250.717	79.36
250.934	36.35
251.151	-49.66
251.368	-27.14
251.585	24.06
251.801	30.21
252.018	-25.09
252.235	48.64
252.451	15.87
252.668	65.02
252.885	9.73
253.102	3.58
253.318	-25.09
253.535	13.82
253.752	52.74
253.968	9.73
254.185	-39.42
254.401	97.79
254.618	-23.04
254.835	9.73
255.051	-6.66
255.268	-53.76
255.484	60.93
255.701	13.82
255.917	-23.04
256.134	-59.9
256.351	73.21
256.567	9.73
256.784	-14.85
257	40.45
257.217	50.69
257.433	36.35
257.65	24.06
257.866	81.41
258.082	-41.47
258.299	-12.8
258.515	34.3
258.732	46.59
258.948	7.68
259.165	-20.99
259.381	38.4
259.597	-29.18
259.814	69.12
260.03	58.88
260.246	-4.61
260.463	11.78
260.679	44.54
260.895	67.07
261.112	1.54
261.328	19.97
261.544	7.68
261.761	44.54
261.977	13.82
262.193	40.45
262.409	-10.75
262.626	5.63
262.842	34.3
263.058	38.4
263.274	-29.18
263.49	13.82
263.707	-20.99
263.923	-55.81
264.139	-0.51
264.355	62.98
264.571	48.64
264.787	11.78
265.004	52.74
265.22	7.68
265.436	44.54
265.652	7.68
265.868	50.69
266.084	3.58
266.3	34.3
266.516	-29.18
266.732	26.11
266.948	32.26
267.164	42.5
267.38	38.4
267.596	-4.61
267.812	15.87
268.028	48.64
268.244	-49.66
268.46	58.88
268.676	26.11
268.892	50.69
269.108	-4.61
269.324	3.58
269.54	13.82
269.756	7.68
269.972	19.97
270.188	-55.81
270.403	1.54
270.619	58.88
270.835	28.16
271.051	-20.99
271.267	-47.62
271.483	65.02
271.698	62.98
271.914	112.13
272.13	54.78
272.346	32.26
272.562	28.16
272.777	17.92
272.993	24.06
273.209	24.06
273.425	-14.85
273.64	-80.38
273.856	60.93
274.072	44.54
274.287	26.11
274.503	97.79
274.719	15.87
274.934	-6.66
275.15	-49.66
275.366	34.3
275.581	-53.76
275.797	-8.7
276.012	62.98
276.228	3.58
276.444	-23.04
276.659	58.88
276.875	-14.85
277.09	13.82
277.306	89.6
277.521	24.06
277.737	-41.47
277.952	48.64
278.168	108.03
278.383	7.68
278.599	48.64
278.814	24.06
279.03	-10.75
279.245	38.4
279.461	-0.51
279.676	32.26
279.892	19.97
280.107	-20.99
280.322	3.58
280.538	-23.04
280.753	-8.7
280.969	42.5
281.184	3.58
281.399	65.02
281.615	-2.56
281.83	73.21
282.045	3.58
282.26	40.45
282.476	-45.57
282.691	58.88
282.906	38.4
283.122	9.73
283.337	-2.56
283.552	9.73
283.767	5.63
283.983	5.63
284.198	44.54
284.413	-6.66
284.628	15.87
284.843	17.92
285.058	-57.86
285.274	36.35
285.489	-45.57
285.704	99.84
285.919	-47.62
286.134	58.88
286.349	3.58
286.564	15.87
286.779	32.26
286.995	-12.8
287.21	-4.61
287.425	28.16
287.64	15.87
287.855	81.41
288.07	-12.8
288.285	36.35
288.5	1.54
288.715	28.16
288.93	11.78
289.145	85.5
289.36	73.21
289.575	-8.7
289.79	62.98
290.004	-35.33
290.219	52.74
290.434	-16.9
290.649	-53.76
290.864	11.78
291.079	-6.66
291.294	34.3
291.509	-25.09
291.724	44.54
291.938	32.26
292.153	5.63
292.368	-35.33
292.583	69.12
292.798	50.69
293.012	108.03
293.227	42.5
293.442	5.63
293.657	42.5
293.871	-14.85
294.086	-20.99
294.301	-27.14
294.516	32.26
294.73	46.59
294.945	-31.23
295.16	30.21
295.374	-2.56
295.589	1.54
295.804	-6.66
296.018	40.45
296.233	34.3
296.447	7.68
296.662	42.5
296.877	71.17
297.091	-41.47
297.306	110.08
297.52	77.31
297.735	116.22
297.949	11.78
298.164	75.26
298.378	-14.85
298.593	9.73
298.807	-27.14
299.022	28.16
299.236	-29.18
299.451	54.78
299.665	-20.99
299.88	26.11
300.094	-14.85
300.309	-16.9
300.523	99.84
300.737	50.69
300.952	-12.8
301.166	7.68
301.381	9.73
301.595	-8.7
301.809	5.63
302.024	3.58
302.238	62.98
302.452	3.58
302.667	-80.38
302.881	54.78
303.095	44.54
303.309	50.69
303.524	15.87
303.738	24.06
303.952	28.16
304.166	69.12
304.381	36.35
304.595	89.6
304.809	-16.9
305.023	-8.7
305.237	-12.8
305.452	62.98
305.666	-98.81
305.88	44.54
306.094	69.12
306.308	75.26
306.522	32.26
306.736	30.21
306.95	54.78
307.164	48.64
307.379	-10.75
307.593	17.92
307.807	71.17
308.021	-51.71
308.235	22.02
308.449	-10.75
308.663	40.45
308.877	19.97
309.091	34.3
309.305	15.87
309.519	50.69
309.733	44.54
309.947	15.87
310.161	71.17
310.374	40.45
310.588	-18.94
310.802	42.5
311.016	-53.76
311.23	-14.85
311.444	73.21
311.658	24.06
311.872	13.82
312.085	34.3
312.299	79.36
312.513	34.3
312.727	7.68
312.941	32.26
313.154	81.41
313.368	-43.52
313.582	9.73
313.796	28.16
314.009	-23.04
314.223	-53.76
314.437	60.93
314.651	-25.09
314.864	65.02
315.078	46.59
315.292	60.93
315.505	-18.94
315.719	-20.99
315.933	-41.47
316.146	-47.62
316.36	-43.52
316.573	-33.28
316.787	-68.09
317.001	56.83
317.214	-12.8
317.428	42.5
317.641	-18.94
317.855	-4.61
318.068	15.87
318.282	46.59
318.495	56.83
318.709	40.45
318.922	24.06
319.136	7.68
319.349	-41.47
319.563	9.73
319.776	-4.61
319.99	42.5
320.203	81.41
320.417	-0.51
320.63	5.63
320.843	89.6
321.057	-23.04
321.27	52.74
321.483	-6.66
321.697	58.88
321.91	52.74
322.124	26.11
322.337	36.35
322.55	87.55
322.763	15.87
322.977	85.5
323.19	-12.8
323.403	38.4
323.617	42.5
323.83	-12.8
324.043	36.35
324.256	-41.47
324.469	-27.14
324.683	19.97
324.896	-29.18
325.109	13.82
325.322	28.16
325.535	17.92
325.748	-47.62
325.962	30.21
326.175	65.02
326.388	-4.61
326.601	50.69
326.814	-8.7
327.027	44.54
327.24	69.12
327.453	34.3
327.666	91.65
327.879	-14.85
328.092	-82.43
328.305	-10.75
328.518	1.54
328.731	1.54
328.944	15.87
329.157	36.35
329.37	11.78
329.583	38.4
329.796	81.41
330.009	-86.53
330.222	-12.8
330.435	-8.7
330.648	50.69
330.861	28.16
331.073	34.3
331.286	83.45
331.499	40.45
331.712	-6.66
331.925	40.45
332.138	1.54
332.35	19.97
332.563	-8.7
332.776	56.83
332.989	11.78
333.202	-45.57
333.414	9.73
333.627	54.78
333.84	-18.94
334.053	-86.53
334.265	-33.28
334.478	36.35
334.691	-2.56
334.903	36.35
335.116	-53.76
335.329	58.88
335.541	42.5
335.754	62.98
335.966	36.35
336.179	24.06
336.392	15.87
336.604	28.16
336.817	116.22
337.029	-14.85
337.242	32.26
337.454	17.92
337.667	28.16
337.88	50.69
338.092	-4.61
338.305	15.87
338.517	-70.14
338.729	-18.94
338.942	28.16
339.154	7.68
339.367	-10.75
339.579	7.68
339.792	71.17
340.004	48.64
340.217	-27.14
340.429	44.54
340.641	-31.23
340.854	-0.51
341.066	-41.47
341.278	7.68
341.491	40.45
341.703	-16.9
341.915	-29.18
342.128	42.5
342.34	-23.04
342.552	-47.62
342.764	-8.7
342.977	17.92
343.189	38.4
343.401	5.63
343.613	-10.75
343.826	-4.61
344.038	-49.66
344.25	19.97
344.462	52.74
344.674	71.17
344.886	50.69
345.099	7.68
345.311	67.07
345.523	81.41
345.735	65.02
345.947	1.54
346.159	62.98
346.371	32.26
346.583	7.68
346.795	44.54
347.007	-49.66
347.219	114.17
347.431	-31.23
347.643	-41.47
347.855	-10.75
348.067	9.73
348.279	-37.38
348.491	-10.75
348.703	28.16
348.915	32.26
349.127	54.78
349.339	-20.99
349.551	-6.66
349.763	7.68
349.975	24.06
350.187	36.35
350.399	-18.94
350.61	-12.8
350.822	-25.09
351.034	60.93
351.246	48.64
351.458	7.68
351.669	75.26
351.881	110.08
352.093	26.11
352.305	62.98
352.517	7.68
352.728	17.92
352.94	17.92
353.152	-0.51
353.363	-18.94
353.575	11.78
353.787	5.63
353.999	32.26
354.21	-6.66
354.422	69.12
354.633	38.4
354.845	-61.95
355.057	52.74
355.268	108.03
355.48	1.54
355.692	85.5
355.903	46.59
356.115	15.87
356.326	19.97
356.538	-8.7
356.749	-20.99
356.961	28.16
357.172	-12.8
357.384	-20.99
357.595	30.21
357.807	-33.28
358.018	24.06
358.23	34.3
358.441	9.73
358.653	13.82
358.864	38.4
359.075	26.11
359.287	1.54
359.498	34.3
359.709	-23.04
359.921	77.31
360.132	-41.47
360.344	34.3
360.555	-64
360.766	50.69
360.977	1.54
361.189	93.69
361.4	44.54
361.611	62.98
361.823	99.84
362.034	50.69
362.245	7.68
362.456	28.16
362.667	38.4
362.879	46.59
363.09	-0.51
363.301	17.92
363.512	11.78
363.723	26.11
363.935	22.02
364.146	24.06
364.357	26.11
364.568	112.13
364.779	-10.75
364.99	15.87
365.201	54.78
365.412	40.45
365.623	36.35
365.834	-33.28
366.045	65.02
366.256	36.35
366.467	11.78
366.678	60.93
366.889	-47.62
367.1	32.26
367.311	-8.7
367.522	46.59
367.733	32.26
367.944	56.83
368.155	22.02
368.366	19.97
368.577	-57.86
368.788	42.5
368.999	-2.56
369.209	52.74
369.42	22.02
369.631	17.92
369.842	-20.99
370.053	7.68
370.264	105.98
370.474	42.5
370.685	28.16
370.896	24.06
371.107	69.12
371.317	-2.56
371.528	73.21
371.739	-27.14
371.95	17.92
372.16	3.58
372.371	5.63
372.582	77.31
372.792	15.87
373.003	83.45
373.214	-12.8
373.424	44.54
373.635	50.69
373.846	36.35
374.056	13.82
374.267	24.06
374.477	11.78
374.688	62.98
374.898	-20.99
375.109	32.26
375.319	-20.99
375.53	69.12
375.74	75.26
375.951	52.74
376.161	17.92
376.372	75.26
376.582	26.11
376.793	15.87
377.003	-29.18
377.214	-16.9
377.424	40.45
377.635	40.45
377.845	58.88
378.055	60.93
378.266	-27.14
378.476	50.69
378.686	30.21
378.897	-0.51
379.107	28.16
379.317	-20.99
379.528	-25.09
379.738	54.78
379.948	-31.23
380.158	24.06
380.369	58.88
380.579	60.93
380.789	32.26
380.999	13.82
381.21	99.84
381.42	91.65
381.63	-18.94
381.84	73.21
382.05	-35.33
382.261	67.07
382.471	-6.66
382.681	-12.8
382.891	126.46
383.101	-23.04
383.311	-72.19
383.521	83.45
383.731	-8.7
383.941	24.06
384.151	7.68
384.361	77.31
384.571	38.4
384.781	32.26
384.991	77.31
385.201	65.02
385.411	79.36
385.621	32.26
385.831	34.3
386.041	62.98
386.251	-4.61
386.461	65.02
386.671	-43.52
386.881	24.06
387.091	-45.57
387.301	22.02
387.511	11.78
387.72	13.82
387.93	28.16
388.14	77.31
388.35	48.64
388.56	11.78
388.769	50.69
388.979	44.54
389.189	5.63
389.399	46.59
389.609	13.82
389.818	65.02
390.028	7.68
390.238	-23.04
390.447	-31.23
390.657	26.11
390.867	-49.66
391.076	95.74
391.286	15.87
391.496	69.12
391.705	-76.29
391.915	40.45
392.125	99.84
392.334	101.89
392.544	11.78
392.753	-10.75
392.963	7.68
393.172	-18.94
393.382	-2.56
393.591	40.45
393.801	83.45
394.01	7.68
394.22	38.4
394.429	3.58
394.639	-6.66
394.848	105.98
395.058	48.64
395.267	28.16
395.477	-35.33
395.686	52.74
395.895	54.78
396.105	19.97
396.314	65.02
396.524	95.74
396.733	34.3
396.942	44.54
397.152	15.87
397.361	-6.66
397.57	42.5
397.78	40.45
397.989	22.02
398.198	126.46
398.407	40.45
398.617	-16.9
398.826	132.61
399.035	42.5
399.244	83.45
399.453	24.06
399.663	81.41
399.872	62.98
400.081	40.45
400.29	50.69
400.499	73.21
400.708	85.5
400.917	13.82
401.127	38.4
401.336	7.68
401.545	97.79
401.754	75.26
401.963	-41.47
402.172	42.5
402.381	30.21
402.59	30.21
402.799	19.97
403.008	101.89
403.217	71.17
403.426	32.26
403.635	52.74
403.844	7.68
404.053	138.75
404.262	122.37
404.471	48.64
404.68	105.98
404.888	44.54
405.097	65.02
405.306	40.45
405.515	1.54
405.724	-2.56
405.933	91.65
406.142	93.69
406.35	52.74
406.559	-0.51
406.768	85.5
406.977	140.8
407.185	83.45
407.394	132.61
407.603	93.69
407.812	97.79
408.02	126.46
408.229	97.79
408.438	97.79
408.646	89.6
408.855	73.21
409.064	120.32
409.272	73.21
409.481	85.5
409.69	105.98
409.898	159.23
410.107	159.23
410.315	114.17
410.524	130.56
410.733	112.13
410.941	140.8
411.15	118.27
411.358	138.75
411.567	155.13
411.775	85.5
411.984	200.19
412.192	200.19
412.401	280.06
412.609	220.67
412.818	232.96
413.026	157.18
413.234	204.28
413.443	192
413.651	208.38
413.86	204.28
414.068	198.14
414.276	267.77
414.485	278.01
414.693	306.68
414.901	306.68
415.11	249.34
415.318	247.29
415.526	245.24
415.734	325.12
415.943	263.68
416.151	335.35
416.359	370.17
416.567	376.31
416.776	284.16
416.984	407.03
417.192	361.98
417.4	450.04
417.608	368.12
417.817	392.7
418.025	404.99
418.233	382.46
418.441	452.09
418.649	454.14
418.857	482.81
419.065	491
419.273	466.42
419.481	499.19
419.689	484.86
419.897	495.1
420.105	527.86
420.313	574.97
420.521	660.98
420.729	609.78
420.937	617.97
421.145	638.45
421.353	710.13
421.561	708.09
421.769	640.5
421.977	845.3
422.185	722.42
422.393	824.82
422.601	851.44
422.809	892.4
423.017	833.01
423.224	927.22
423.432	916.98
423.64	962.03
423.848	925.17
424.056	919.03
424.263	1101.3
424.471	1066.48
424.679	1172.97
424.887	1113.58
425.094	1207.79
425.302	1220.08
425.51	1207.79
425.718	1291.76
425.925	1271.28
426.133	1402.35
426.341	1424.87
426.548	1492.46
426.756	1484.27
426.964	1541.61
427.171	1566.18
427.379	1592.81
427.586	1603.05
427.794	1584.62
428.001	1801.7
428.209	1922.53
428.417	1779.17
428.624	2057.7
428.832	1979.87
429.039	1916.39
429.247	2020.83
429.454	2280.93
429.662	2223.58
429.869	2174.43
430.076	2336.22
430.284	2336.22
430.491	2297.31
430.699	2332.12
430.906	2522.59
431.114	2614.74
431.321	2678.23
431.528	2743.77
431.736	2835.92
431.943	3167.7
432.15	2885.08
432.358	2917.84
432.565	3110.35
432.772	3061.2
432.979	3132.88
433.187	3272.14
433.394	3206.61
433.601	3489.23
433.808	3444.17
434.016	3433.93
434.223	3597.77
434.43	3927.49
434.637	3802.57
434.844	4134.34
435.052	4169.15
435.259	4120
435.466	4191.68
435.673	4138.43
435.88	4337.09
436.087	4660.66
436.294	4494.78
436.501	4529.59
436.708	4601.27
436.915	4754.87
437.122	4941.24
437.329	4974
437.537	5012.92
437.743	5244.34
437.95	5176.75
438.157	5498.28
438.364	5483.95
438.571	5565.87
438.778	5539.24
438.985	6325.66
439.192	5823.91
439.399	5967.27
439.606	5946.79
439.813	6233.5
440.02	6837.66
440.227	6630.81
440.433	6540.7
440.64	6655.39
440.847	6735.26
441.054	6931.86
441.261	7427.47
441.467	7165.33
441.674	7505.29
441.881	7640.46
442.088	7710.09
442.294	7464.33
442.501	7785.87
442.708	7961.99
442.914	8265.09
443.121	8670.59
443.328	8314.24
443.534	8971.64
443.741	8879.48
443.948	8617.34
444.154	9096.57
444.361	9176.44
444.568	9031.03
444.774	9225.59
444.981	9385.33
445.187	9637.23
445.394	10012.01
445.6	9895.27
445.807	10773.85
446.013	10358.11
446.22	10450.27
446.426	11083.09
446.633	11173.21
446.839	11341.14
447.046	10956.12
447.252	11580.75
447.459	11455.83
447.665	11343.19
447.871	11951.43
448.078	12574.02
448.284	12086.6
448.491	12481.86
448.697	12948.79
448.903	12922.17
449.11	13124.92
449.316	12907.84
449.522	13184.31
449.728	13614.38
449.935	13552.95
450.141	13460.79
450.347	14112.04
450.553	13731.12
450.76	13690.16
450.966	14155.05
451.172	13962.54
451.378	14470.44
451.584	13821.23
451.791	14331.17
451.997	14404.9
452.203	14675.23
452.409	14699.81
452.615	14480.68
452.821	14023.98
453.027	14136.62
453.233	14685.47
453.44	14017.83
453.646	14038.31
453.852	14331.17
454.058	14523.68
454.264	14062.89
454.47	14335.27
454.676	13976.87
454.882	14495.01
455.088	13368.63
455.294	13411.64
455.5	13899.05
455.705	13700.4
455.911	13090.1
456.117	12993.85
456.323	12838.2
456.529	12389.7
456.735	12784.96
456.941	12488
457.147	12180.81
457.352	11738.44
457.558	11683.15
457.764	11429.2
457.97	11427.15
458.176	11251.03
458.381	11208.02
458.587	10823
458.793	10775.9
458.999	10089.83
459.204	10818.91
459.41	10462.56
459.616	10032.49
459.821	9960.81
460.027	9692.52
460.233	9510.25
460.438	9284.98
460.644	9340.27
460.85	9024.89
461.055	8695.16
461.261	8904.06
461.466	8197.51
461.672	7912.84
461.878	8347.01
462.083	7882.12
462.289	7746.95
462.494	7796.11
462.7	7394.7
462.905	7077.27
463.111	7388.56
463.316	7632.27
463.522	7308.69
463.727	7355.79
463.932	7263.63
464.138	7196.05
464.343	7378.32
464.549	7161.23
464.754	7130.52
464.959	7310.74
465.165	7142.8
465.37	6989.21
465.575	6751.64
465.781	7003.54
465.986	7062.93
466.191	6854.04
466.397	6770.07
466.602	6331.81
466.807	6802.84
467.012	6636.95
467.218	6542.75
467.423	6624.67
467.628	6673.82
467.833	6851.99
468.038	6577.56
468.244	6452.64
468.449	6616.48
468.654	6251.94
468.859	6358.43
469.064	6448.54
469.269	6296.99
469.474	6210.98
469.679	6124.96
