Data from USB4F104151__87__12-54-49-078.txt Node

Date: Fri Mar 14 12:54:49 EDT 2025
User: louis
Spectrometer: USB4F10415
Trigger mode: 4
Integration Time (sec): 1.000000E-2
Scans to average: 1
Electric dark correction enabled: true
Nonlinearity correction enabled: false
Boxcar width: 0
XAxis mode: Wavelengths
Number of Pixels in Spectrum: 3648
>>>>>Begin Spectral Data<<<<<
178.204	-73.56
178.424	-73.56
178.644	-73.56
178.864	-83.8
179.084	16.55
179.304	47.27
179.524	-59.22
179.744	22.7
179.964	-12.12
180.184	6.31
180.404	18.6
180.624	18.6
180.844	14.51
181.064	14.51
181.283	-71.51
181.503	-20.31
181.723	20.65
181.943	-14.17
182.163	110.76
182.383	-10.07
182.602	-8.02
182.822	18.6
183.042	-20.31
183.262	-16.21
183.482	39.08
183.701	10.41
183.921	41.13
184.141	71.85
184.361	112.81
184.58	-36.69
184.8	69.8
185.02	-53.08
185.239	65.71
185.459	12.46
185.679	45.23
185.898	-20.31
186.118	55.47
186.338	0.17
186.557	0.17
186.777	12.46
186.997	4.27
187.216	61.61
187.436	63.66
187.655	22.7
187.875	22.7
188.095	-16.21
188.314	12.46
188.534	-32.6
188.753	43.18
188.973	6.31
189.192	67.75
189.412	2.22
189.631	-22.36
189.851	-73.56
190.07	18.6
190.29	53.42
190.509	65.71
190.729	0.17
190.948	80.04
191.168	53.42
191.387	4.27
191.607	49.32
191.826	47.27
192.045	-36.69
192.265	6.31
192.484	4.27
192.704	-71.51
192.923	-38.74
193.142	-75.6
193.362	6.31
193.581	30.89
193.8	16.55
194.02	18.6
194.239	69.8
194.458	6.31
194.678	-26.45
194.897	24.75
195.116	67.75
195.335	90.28
195.555	-18.26
195.774	106.67
195.993	57.51
196.212	26.79
196.432	-12.12
196.651	39.08
196.87	-1.88
197.089	43.18
197.308	12.46
197.528	61.61
197.747	10.41
197.966	84.14
198.185	39.08
198.404	43.18
198.623	-14.17
198.842	71.85
199.062	30.89
199.281	102.57
199.5	43.18
199.719	10.41
199.938	51.37
200.157	-3.93
200.376	0.17
200.595	-8.02
200.814	-14.17
201.033	16.55
201.252	59.56
201.471	55.47
201.69	6.31
201.909	-12.12
202.128	77.99
202.347	-61.27
202.566	26.79
202.785	-12.12
203.004	41.13
203.223	63.66
203.442	34.99
203.661	0.17
203.879	65.71
204.098	8.36
204.317	28.84
204.536	133.29
204.755	-32.6
204.974	41.13
205.193	51.37
205.411	51.37
205.63	16.55
205.849	-10.07
206.068	-20.31
206.287	-38.74
206.505	55.47
206.724	22.7
206.943	-10.07
207.162	8.36
207.381	-12.12
207.599	63.66
207.818	18.6
208.037	-22.36
208.255	20.65
208.474	18.6
208.693	-16.21
208.911	30.89
209.13	69.8
209.349	51.37
209.567	-34.64
209.786	22.7
210.005	8.36
210.223	75.95
210.442	-1.88
210.661	98.47
210.879	-26.45
211.098	28.84
211.316	-28.5
211.535	34.99
211.753	41.13
211.972	39.08
212.191	26.79
212.409	0.17
212.628	51.37
212.846	-1.88
213.065	10.41
213.283	-8.02
213.502	12.46
213.72	-48.98
213.938	47.27
214.157	8.36
214.375	32.94
214.594	30.89
214.812	43.18
215.031	14.51
215.249	30.89
215.467	-26.45
215.686	4.27
215.904	26.79
216.122	32.94
216.341	-24.4
216.559	-30.55
216.778	43.18
216.996	2.22
217.214	0.17
217.432	4.27
217.651	-36.69
217.869	14.51
218.087	20.65
218.306	39.08
218.524	51.37
218.742	-14.17
218.96	6.31
219.179	59.56
219.397	53.42
219.615	-8.02
219.833	-8.02
220.051	43.18
220.27	41.13
220.488	43.18
220.706	26.79
220.924	-14.17
221.142	80.04
221.36	8.36
221.578	22.7
221.796	-10.07
222.015	67.75
222.233	53.42
222.451	37.03
222.669	51.37
222.887	-3.93
223.105	20.65
223.323	71.85
223.541	8.36
223.759	88.23
223.977	14.51
224.195	28.84
224.413	61.61
224.631	-3.93
224.849	100.52
225.067	39.08
225.285	26.79
225.503	-38.74
225.721	12.46
225.939	67.75
226.157	14.51
226.375	32.94
226.592	0.17
226.81	24.75
227.028	-20.31
227.246	10.41
227.464	0.17
227.682	-30.55
227.9	-8.02
228.117	98.47
228.335	53.42
228.553	22.7
228.771	108.71
228.989	0.17
229.206	88.23
229.424	37.03
229.642	22.7
229.86	39.08
230.077	-3.93
230.295	20.65
230.513	22.7
230.731	65.71
230.948	84.14
231.166	57.51
231.384	45.23
231.601	-1.88
231.819	-63.32
232.037	24.75
232.254	26.79
232.472	10.41
232.689	37.03
232.907	24.75
233.125	-1.88
233.342	-30.55
233.56	-42.84
233.777	45.23
233.995	37.03
234.213	112.81
234.43	-12.12
234.648	34.99
234.865	-46.93
235.083	22.7
235.3	-12.12
235.518	28.84
235.735	-16.21
235.953	2.22
236.17	39.08
236.388	2.22
236.605	22.7
236.822	121
237.04	77.99
237.257	18.6
237.475	53.42
237.692	18.6
237.909	22.7
238.127	26.79
238.344	96.43
238.562	14.51
238.779	-20.31
238.996	22.7
239.214	-24.4
239.431	18.6
239.648	18.6
239.865	47.27
240.083	67.75
240.3	45.23
240.517	67.75
240.735	6.31
240.952	45.23
241.169	-28.5
241.386	59.56
241.603	39.08
241.821	16.55
242.038	55.47
242.255	45.23
242.472	-30.55
242.689	-40.79
242.907	75.95
243.124	34.99
243.341	18.6
243.558	16.55
243.775	-18.26
243.992	8.36
244.209	57.51
244.426	20.65
244.643	-10.07
244.86	0.17
245.078	14.51
245.295	-24.4
245.512	20.65
245.729	34.99
245.946	73.9
246.163	88.23
246.38	-24.4
246.597	65.71
246.814	57.51
247.031	-69.46
247.248	10.41
247.464	20.65
247.681	-18.26
247.898	37.03
248.115	-26.45
248.332	-10.07
248.549	2.22
248.766	-14.17
248.983	4.27
249.2	2.22
249.417	34.99
249.633	37.03
249.85	65.71
250.067	-5.97
250.284	-32.6
250.501	8.36
250.717	71.85
250.934	53.42
251.151	82.09
251.368	49.32
251.585	39.08
251.801	32.94
252.018	10.41
252.235	-73.56
252.451	37.03
252.668	8.36
252.885	24.75
253.102	-1.88
253.318	49.32
253.535	28.84
253.752	0.17
253.968	39.08
254.185	12.46
254.401	77.99
254.618	26.79
254.835	-73.56
255.051	84.14
255.268	-22.36
255.484	30.89
255.701	32.94
255.917	73.9
256.134	43.18
256.351	20.65
256.567	96.43
256.784	57.51
257	63.66
257.217	39.08
257.433	16.55
257.65	24.75
257.866	80.04
258.082	14.51
258.299	-8.02
258.515	32.94
258.732	2.22
258.948	-38.74
259.165	-20.31
259.381	14.51
259.597	18.6
259.814	30.89
260.03	88.23
260.246	16.55
260.463	20.65
260.679	51.37
260.895	71.85
261.112	47.27
261.328	-32.6
261.544	-26.45
261.761	26.79
261.977	-32.6
262.193	32.94
262.409	55.47
262.626	4.27
262.842	82.09
263.058	4.27
263.274	32.94
263.49	4.27
263.707	37.03
263.923	49.32
264.139	14.51
264.355	20.65
264.571	26.79
264.787	30.89
265.004	-14.17
265.22	37.03
265.436	-24.4
265.652	51.37
265.868	30.89
266.084	-3.93
266.3	45.23
266.516	63.66
266.732	43.18
266.948	26.79
267.164	-59.22
267.38	53.42
267.596	24.75
267.812	-12.12
268.028	59.56
268.244	26.79
268.46	14.51
268.676	6.31
268.892	8.36
269.108	-20.31
269.324	32.94
269.54	16.55
269.756	-38.74
269.972	-32.6
270.188	12.46
270.403	16.55
270.619	49.32
270.835	6.31
271.051	84.14
271.267	41.13
271.483	8.36
271.698	41.13
271.914	12.46
272.13	45.23
272.346	51.37
272.562	14.51
272.777	41.13
272.993	37.03
273.209	-10.07
273.425	-32.6
273.64	-16.21
273.856	-5.97
274.072	-24.4
274.287	41.13
274.503	4.27
274.719	41.13
274.934	-8.02
275.15	-18.26
275.366	-12.12
275.581	55.47
275.797	-3.93
276.012	-26.45
276.228	6.31
276.444	47.27
276.659	0.17
276.875	-5.97
277.09	12.46
277.306	16.55
277.521	24.75
277.737	30.89
277.952	16.55
278.168	0.17
278.383	43.18
278.599	4.27
278.814	16.55
279.03	63.66
279.245	65.71
279.461	63.66
279.676	63.66
279.892	55.47
280.107	55.47
280.322	12.46
280.538	20.65
280.753	10.41
280.969	43.18
281.184	82.09
281.399	86.19
281.615	37.03
281.83	-5.97
282.045	-30.55
282.26	18.6
282.476	14.51
282.691	12.46
282.906	-30.55
283.122	20.65
283.337	24.75
283.552	55.47
283.767	30.89
283.983	-10.07
284.198	-1.88
284.413	37.03
284.628	-1.88
284.843	2.22
285.058	-20.31
285.274	-18.26
285.489	61.61
285.704	53.42
285.919	55.47
286.134	-40.79
286.349	41.13
286.564	24.75
286.779	51.37
286.995	69.8
287.21	6.31
287.425	2.22
287.64	-12.12
287.855	59.56
288.07	2.22
288.285	-14.17
288.5	-61.27
288.715	8.36
288.93	6.31
289.145	-48.98
289.36	73.9
289.575	-32.6
289.79	-14.17
290.004	106.67
290.219	55.47
290.434	18.6
290.649	0.17
290.864	28.84
291.079	0.17
291.294	39.08
291.509	51.37
291.724	-36.69
291.938	-8.02
292.153	92.33
292.368	-24.4
292.583	8.36
292.798	51.37
293.012	53.42
293.227	55.47
293.442	22.7
293.657	43.18
293.871	30.89
294.086	-10.07
294.301	2.22
294.516	-44.88
294.73	67.75
294.945	16.55
295.16	53.42
295.374	47.27
295.589	-16.21
295.804	73.9
296.018	32.94
296.233	57.51
296.447	-12.12
296.662	24.75
296.877	51.37
297.091	12.46
297.306	20.65
297.52	14.51
297.735	-12.12
297.949	-1.88
298.164	16.55
298.378	-16.21
298.593	26.79
298.807	-10.07
299.022	-3.93
299.236	12.46
299.451	-1.88
299.665	18.6
299.88	90.28
300.094	32.94
300.309	45.23
300.523	57.51
300.737	63.66
300.952	55.47
301.166	90.28
301.381	20.65
301.595	-10.07
301.809	-1.88
302.024	32.94
302.238	45.23
302.452	57.51
302.667	-14.17
302.881	73.9
303.095	51.37
303.309	-51.03
303.524	-26.45
303.738	49.32
303.952	-22.36
304.166	0.17
304.381	-28.5
304.595	30.89
304.809	32.94
305.023	-81.75
305.237	-8.02
305.452	16.55
305.666	67.75
305.88	26.79
306.094	14.51
306.308	22.7
306.522	-5.97
306.736	41.13
306.95	-36.69
307.164	57.51
307.379	65.71
307.593	8.36
307.807	24.75
308.021	2.22
308.235	-42.84
308.449	30.89
308.663	0.17
308.877	24.75
309.091	37.03
309.305	-10.07
309.519	2.22
309.733	-32.6
309.947	110.76
310.161	43.18
310.374	30.89
310.588	90.28
310.802	51.37
311.016	-3.93
311.23	-22.36
311.444	12.46
311.658	-5.97
311.872	12.46
312.085	59.56
312.299	41.13
312.513	67.75
312.727	0.17
312.941	-1.88
313.154	-12.12
313.368	-12.12
313.582	-55.12
313.796	45.23
314.009	24.75
314.223	69.8
314.437	24.75
314.651	12.46
314.864	30.89
315.078	0.17
315.292	-26.45
315.505	-20.31
315.719	67.75
315.933	2.22
316.146	8.36
316.36	22.7
316.573	-14.17
316.787	49.32
317.001	-5.97
317.214	6.31
317.428	88.23
317.641	-14.17
317.855	18.6
318.068	28.84
318.282	26.79
318.495	37.03
318.709	67.75
318.922	34.99
319.136	-12.12
319.349	6.31
319.563	71.85
319.776	12.46
319.99	26.79
320.203	14.51
320.417	55.47
320.63	-10.07
320.843	73.9
321.057	49.32
321.27	51.37
321.483	63.66
321.697	32.94
321.91	-20.31
322.124	49.32
322.337	39.08
322.55	65.71
322.763	73.9
322.977	-65.36
323.19	18.6
323.403	59.56
323.617	69.8
323.83	123.05
324.043	-12.12
324.256	47.27
324.469	65.71
324.683	32.94
324.896	8.36
325.109	49.32
325.322	102.57
325.535	65.71
325.748	-1.88
325.962	30.89
326.175	-3.93
326.388	6.31
326.601	39.08
326.814	43.18
327.027	12.46
327.24	28.84
327.453	14.51
327.666	123.05
327.879	8.36
328.092	39.08
328.305	2.22
328.518	82.09
328.731	18.6
328.944	-1.88
329.157	8.36
329.37	-14.17
329.583	77.99
329.796	75.95
330.009	12.46
330.222	-36.69
330.435	8.36
330.648	24.75
330.861	6.31
331.073	14.51
331.286	6.31
331.499	63.66
331.712	75.95
331.925	69.8
332.138	2.22
332.35	32.94
332.563	26.79
332.776	0.17
332.989	71.85
333.202	47.27
333.414	-30.55
333.627	30.89
333.84	24.75
334.053	6.31
334.265	10.41
334.478	71.85
334.691	43.18
334.903	-8.02
335.116	28.84
335.329	18.6
335.541	55.47
335.754	30.89
335.966	-42.84
336.179	8.36
336.392	-38.74
336.604	34.99
336.817	53.42
337.029	2.22
337.242	82.09
337.454	45.23
337.667	14.51
337.88	51.37
338.092	100.52
338.305	-32.6
338.517	-26.45
338.729	61.61
338.942	43.18
339.154	14.51
339.367	59.56
339.579	18.6
339.792	-8.02
340.004	-1.88
340.217	-48.98
340.429	30.89
340.641	57.51
340.854	34.99
341.066	61.61
341.278	47.27
341.491	55.47
341.703	131.24
341.915	22.7
342.128	57.51
342.34	4.27
342.552	22.7
342.764	20.65
342.977	14.51
343.189	-8.02
343.401	65.71
343.613	37.03
343.826	110.76
344.038	-36.69
344.25	16.55
344.462	-32.6
344.674	24.75
344.886	96.43
345.099	-1.88
345.311	49.32
345.523	47.27
345.735	-3.93
345.947	65.71
346.159	114.86
346.371	80.04
346.583	-20.31
346.795	82.09
347.007	-42.84
347.219	-59.22
347.431	28.84
347.643	45.23
347.855	-34.64
348.067	57.51
348.279	51.37
348.491	16.55
348.703	55.47
348.915	37.03
349.127	-83.8
349.339	53.42
349.551	24.75
349.763	84.14
349.975	-12.12
350.187	-59.22
350.399	16.55
350.61	73.9
350.822	22.7
351.034	2.22
351.246	51.37
351.458	108.71
351.669	55.47
351.881	18.6
352.093	-48.98
352.305	96.43
352.517	57.51
352.728	20.65
352.94	6.31
353.152	34.99
353.363	37.03
353.575	-3.93
353.787	8.36
353.999	10.41
354.21	65.71
354.422	133.29
354.633	77.99
354.845	59.56
355.057	94.38
355.268	34.99
355.48	22.7
355.692	14.51
355.903	2.22
356.115	73.9
356.326	4.27
356.538	-65.36
356.749	53.42
356.961	-5.97
357.172	43.18
357.384	43.18
357.595	16.55
357.807	0.17
358.018	30.89
358.23	6.31
358.441	6.31
358.653	121
358.864	51.37
359.075	49.32
359.287	6.31
359.498	47.27
359.709	39.08
359.921	47.27
360.132	108.71
360.344	34.99
360.555	-51.03
360.766	14.51
360.977	86.19
361.189	102.57
361.4	-5.97
361.611	6.31
361.823	57.51
362.034	6.31
362.245	26.79
362.456	24.75
362.667	6.31
362.879	67.75
363.09	-51.03
363.301	49.32
363.512	121
363.723	63.66
363.935	30.89
364.146	22.7
364.357	26.79
364.568	53.42
364.779	55.47
364.99	63.66
365.201	32.94
365.412	53.42
365.623	8.36
365.834	-10.07
366.045	69.8
366.256	82.09
366.467	2.22
366.678	39.08
366.889	24.75
367.1	49.32
367.311	86.19
367.522	26.79
367.733	-24.4
367.944	26.79
368.155	26.79
368.366	14.51
368.577	39.08
368.788	20.65
368.999	-16.21
369.209	22.7
369.42	61.61
369.631	100.52
369.842	47.27
370.053	84.14
370.264	28.84
370.474	-26.45
370.685	32.94
370.896	26.79
371.107	49.32
371.317	26.79
371.528	8.36
371.739	22.7
371.95	-40.79
372.16	24.75
372.371	-20.31
372.582	8.36
372.792	-3.93
373.003	4.27
373.214	92.33
373.424	20.65
373.635	-55.12
373.846	26.79
374.056	-42.84
374.267	32.94
374.477	94.38
374.688	53.42
374.898	100.52
375.109	34.99
375.319	84.14
375.53	39.08
375.74	55.47
375.951	18.6
376.161	34.99
376.372	22.7
376.582	22.7
376.793	18.6
377.003	108.71
377.214	8.36
377.424	-3.93
377.635	16.55
377.845	28.84
378.055	90.28
378.266	65.71
378.476	6.31
378.686	43.18
378.897	-3.93
379.107	106.67
379.317	10.41
379.528	51.37
379.738	90.28
379.948	0.17
380.158	-8.02
380.369	-20.31
380.579	61.61
380.789	10.41
380.999	41.13
381.21	41.13
381.42	75.95
381.63	-67.41
381.84	84.14
382.05	51.37
382.261	63.66
382.471	20.65
382.681	16.55
382.891	37.03
383.101	104.62
383.311	45.23
383.521	77.99
383.731	-18.26
383.941	77.99
384.151	-65.36
384.361	153.77
384.571	-16.21
384.781	22.7
384.991	32.94
385.201	80.04
385.411	69.8
385.621	63.66
385.831	49.32
386.041	69.8
386.251	67.75
386.461	2.22
386.671	104.62
386.881	16.55
387.091	4.27
387.301	-42.84
387.511	-3.93
387.72	24.75
387.93	32.94
388.14	18.6
388.35	47.27
388.56	47.27
388.769	59.56
388.979	98.47
389.189	67.75
389.399	4.27
389.609	53.42
389.818	-34.64
390.028	16.55
390.238	32.94
390.447	47.27
390.657	39.08
390.867	39.08
391.076	-8.02
391.286	104.62
391.496	39.08
391.705	55.47
391.915	41.13
392.125	16.55
392.334	39.08
392.544	65.71
392.753	30.89
392.963	-8.02
393.172	59.56
393.382	6.31
393.591	104.62
393.801	41.13
394.01	59.56
394.22	-10.07
394.429	59.56
394.639	12.46
394.848	37.03
395.058	71.85
395.267	37.03
395.477	47.27
395.686	86.19
395.895	77.99
396.105	98.47
396.314	63.66
396.524	47.27
396.733	39.08
396.942	129.19
397.152	71.85
397.361	34.99
397.57	131.24
397.78	53.42
397.989	88.23
398.198	28.84
398.407	67.75
398.617	-10.07
398.826	131.24
399.035	22.7
399.244	53.42
399.453	-16.21
399.663	55.47
399.872	2.22
400.081	34.99
400.29	16.55
400.499	73.9
400.708	47.27
400.917	55.47
401.127	80.04
401.336	37.03
401.545	110.76
401.754	57.51
401.963	65.71
402.172	51.37
402.381	30.89
402.59	39.08
402.799	90.28
403.008	112.81
403.217	151.72
403.426	100.52
403.635	145.58
403.844	55.47
404.053	118.95
404.262	61.61
404.471	123.05
404.68	80.04
404.888	57.51
405.097	32.94
405.306	110.76
405.515	108.71
405.724	143.53
405.933	90.28
406.142	104.62
406.35	96.43
406.559	139.43
406.768	49.32
406.977	161.96
407.185	108.71
407.394	51.37
407.603	57.51
407.812	123.05
408.02	129.19
408.229	149.67
408.438	131.24
408.646	77.99
408.855	77.99
409.064	84.14
409.272	71.85
409.481	118.95
409.69	202.92
409.898	153.77
410.107	135.34
410.315	96.43
410.524	137.38
410.733	147.62
410.941	166.06
411.15	188.58
411.358	147.62
411.567	168.1
411.775	141.48
411.984	176.3
412.192	65.71
412.401	157.86
412.609	211.11
412.818	198.82
413.026	211.11
413.234	211.11
413.443	231.59
413.651	258.21
413.86	237.74
414.068	276.65
414.276	260.26
414.485	325.8
414.693	293.03
414.901	385.19
415.11	252.07
415.318	223.4
415.526	317.61
415.734	233.64
415.943	385.19
416.151	329.89
416.359	364.71
416.567	405.67
416.776	338.09
416.984	399.52
417.192	430.24
417.4	405.67
417.608	362.66
417.817	465.06
418.025	473.25
418.233	514.21
418.441	483.49
418.649	432.29
418.857	614.56
419.065	575.65
419.273	544.93
419.481	606.37
419.689	716.96
419.897	782.49
420.105	708.77
420.313	757.92
420.521	723.1
420.729	739.49
420.937	762.02
421.145	827.55
421.353	743.58
421.561	829.6
421.769	897.18
421.977	864.41
422.185	936.09
422.393	1007.77
422.601	1083.55
422.809	997.53
423.017	999.58
423.224	1058.97
423.432	1013.92
423.64	1167.51
423.848	1159.32
424.056	1185.94
424.263	1288.34
424.471	1302.68
424.679	1284.25
424.887	1407.13
425.094	1310.87
425.302	1439.89
425.51	1454.23
425.718	1456.28
425.925	1464.47
426.133	1581.2
426.341	1622.16
426.548	1597.59
426.756	1718.42
426.964	1747.09
427.171	1851.53
427.379	1867.92
427.586	1878.16
427.794	2138.25
428.001	2074.76
428.209	2211.98
428.417	2160.78
428.624	2259.08
428.832	2308.23
429.039	2349.19
429.247	2345.09
429.454	2422.92
429.662	2629.76
429.869	2506.88
430.076	2717.83
430.284	2625.67
430.491	2668.67
430.699	2879.61
430.906	2939.01
431.114	2939.01
431.321	3039.36
431.528	2943.1
431.736	3348.6
431.943	3426.42
432.15	3324.02
432.358	3311.74
432.565	3512.44
432.772	3532.92
432.979	3674.23
433.187	3731.57
433.394	3915.89
433.601	4006
433.808	4114.54
434.016	3991.66
434.223	4157.55
434.43	4505.7
434.637	4354.15
434.844	4722.79
435.052	4739.17
435.259	4692.07
435.466	4622.44
435.673	4874.34
435.88	5142.62
436.087	5249.11
436.294	5314.65
436.501	5288.03
436.708	5234.78
436.915	5546.07
437.122	5693.52
437.329	5720.15
437.537	5953.62
437.743	5992.53
437.95	5834.83
438.157	6264.91
438.364	6398.03
438.571	6473.8
438.778	6486.09
438.985	6934.59
439.192	6754.37
439.399	7002.18
439.606	6824
439.813	7323.71
440.02	7526.46
440.227	7348.28
440.433	7419.96
440.64	7532.6
440.847	7661.62
441.054	7786.55
441.261	8292.4
441.467	8241.2
441.674	8470.57
441.881	8609.83
442.088	8753.19
442.294	8701.99
442.501	8894.5
442.708	9017.38
442.914	9314.33
443.121	9795.61
443.328	9631.77
443.534	10229.77
443.741	9934.87
443.948	9676.82
444.154	10522.63
444.361	10600.46
444.568	10471.43
444.774	10598.41
444.981	10665.99
445.187	11085.83
445.394	11587.58
445.6	11294.72
445.807	12343.28
446.013	11775.99
446.22	11966.45
446.426	12326.89
446.633	12455.92
446.839	13176.8
447.046	12558.32
447.252	13076.45
447.459	13463.52
447.665	13416.41
447.871	13844.44
448.078	14518.22
448.284	13795.29
448.491	14125.01
448.697	14751.69
448.903	15050.69
449.11	14917.58
449.316	14858.18
449.522	15280.07
449.728	15548.35
449.935	15888.31
450.141	15654.84
450.347	16046.01
450.553	15595.45
450.76	15843.26
450.966	16105.4
451.172	16099.25
451.378	16220.08
451.584	16220.08
451.791	16676.78
451.997	16326.58
452.203	17106.85
452.409	16809.9
452.615	16822.19
452.821	16347.06
453.027	16134.07
453.233	16773.03
453.44	16291.76
453.646	16258.99
453.852	16283.57
454.058	16709.55
454.264	16150.45
454.47	16592.81
454.676	15984.57
454.882	16590.77
455.088	14895.05
455.294	15480.77
455.5	15525.82
455.705	15609.79
455.911	15318.98
456.117	14884.81
456.323	14344.14
456.529	14096.34
456.735	14581.71
456.941	14098.39
457.147	13766.62
457.352	13711.32
457.558	13352.93
457.764	13320.16
457.97	13191.14
458.176	12867.56
458.381	12941.29
458.587	12267.5
458.793	12314.61
458.999	11483.13
459.204	12410.86
459.41	12208.11
459.616	11356.16
459.821	11331.58
460.027	11345.92
460.233	10934.28
460.438	10459.15
460.644	10633.22
460.85	10217.49
461.055	10041.36
461.261	9816.08
461.466	9197.6
461.672	8984.61
461.878	9492.51
462.083	9021.47
462.289	8728.61
462.494	8462.38
462.7	8394.79
462.905	7905.33
463.111	8192.05
463.316	8314.92
463.522	8007.73
463.727	8112.17
463.932	8183.85
464.138	8077.36
464.343	8190
464.549	7888.95
464.754	8161.33
464.959	8026.16
465.165	7907.38
465.37	7594.04
465.575	7430.2
465.781	7772.21
465.986	7890.99
466.191	7454.78
466.397	7331.9
466.602	7014.46
466.807	7319.61
467.012	7321.66
467.218	7268.41
467.423	7235.64
467.628	7301.18
467.833	7620.66
468.038	7206.97
468.244	7094.33
468.449	7239.74
468.654	7159.87
468.859	7200.83
469.064	7131.2
469.269	6654.02
469.474	6772.8
469.679	6879.3
