Data from USB4F104151__12__12-53-12-948.txt Node

Date: Fri Mar 14 12:53:12 EDT 2025
User: louis
Spectrometer: USB4F10415
Trigger mode: 4
Integration Time (sec): 1.000000E-2
Scans to average: 1
Electric dark correction enabled: true
Nonlinearity correction enabled: false
Boxcar width: 0
XAxis mode: Wavelengths
Number of Pixels in Spectrum: 3648
>>>>>Begin Spectral Data<<<<<
178.204	-11.95
178.424	-11.95
178.644	-11.95
178.864	14.68
179.084	22.87
179.304	16.73
179.524	8.53
179.744	-11.95
179.964	-20.14
180.184	8.53
180.404	24.92
180.624	0.34
180.844	16.73
181.064	-16.04
181.283	-54.95
181.503	39.25
181.723	-11.95
181.943	18.77
182.163	-16.04
182.383	-36.52
182.602	41.3
182.822	-11.95
183.042	14.68
183.262	-24.23
183.482	53.59
183.701	20.82
183.921	18.77
184.141	80.21
184.361	-36.52
184.58	-24.23
184.8	-5.8
185.02	-5.8
185.239	4.44
185.459	-26.28
185.679	49.49
185.898	-24.23
186.118	31.06
186.338	-11.95
186.557	49.49
186.777	8.53
186.997	76.12
187.216	67.92
187.436	39.25
187.655	-50.86
187.875	51.54
188.095	55.64
188.314	4.44
188.534	51.54
188.753	29.01
188.973	18.77
189.192	47.44
189.412	26.96
189.631	65.88
189.851	47.44
190.07	69.97
190.29	12.63
190.509	-5.8
190.729	18.77
190.948	22.87
191.168	88.4
191.387	4.44
191.607	18.77
191.826	26.96
192.045	-13.99
192.265	82.26
192.484	43.35
192.704	18.77
192.923	69.97
193.142	-54.95
193.362	33.11
193.581	4.44
193.8	12.63
194.02	37.2
194.239	45.4
194.458	92.5
194.678	-57
194.897	10.58
195.116	-3.75
195.335	-13.99
195.555	20.82
195.774	26.96
195.993	10.58
196.212	-3.75
196.432	-13.99
196.651	-3.75
196.87	-18.09
197.089	0.34
197.308	-3.75
197.528	-5.8
197.747	-5.8
197.966	39.25
198.185	104.79
198.404	-38.57
198.623	-7.85
198.842	-3.75
199.062	51.54
199.281	10.58
199.5	57.68
199.719	67.92
199.938	31.06
200.157	49.49
200.376	-30.38
200.595	-18.09
200.814	-50.86
201.033	-1.71
201.252	57.68
201.471	43.35
201.69	24.92
201.909	-26.28
202.128	-9.9
202.347	14.68
202.566	22.87
202.785	24.92
203.004	16.73
203.223	88.4
203.442	43.35
203.661	39.25
203.879	43.35
204.098	55.64
204.317	53.59
204.536	57.68
204.755	-9.9
204.974	37.2
205.193	51.54
205.411	43.35
205.63	-85.67
205.849	26.96
206.068	-18.09
206.287	59.73
206.505	-77.48
206.724	4.44
206.943	-3.75
207.162	49.49
207.381	6.49
207.599	10.58
207.818	-34.47
208.037	26.96
208.255	51.54
208.474	-18.09
208.693	-5.8
208.911	59.73
209.13	-9.9
209.349	10.58
209.567	6.49
209.786	92.5
210.005	-9.9
210.223	2.39
210.442	0.34
210.661	69.97
210.879	-18.09
211.098	80.21
211.316	-9.9
211.535	31.06
211.753	-3.75
211.972	74.07
212.191	-1.71
212.409	-13.99
212.628	53.59
212.846	26.96
213.065	69.97
213.283	125.27
213.502	4.44
213.72	-5.8
213.938	4.44
214.157	-22.19
214.375	14.68
214.594	35.16
214.812	-34.47
215.031	35.16
215.249	65.88
215.467	61.78
215.686	-3.75
215.904	26.96
216.122	33.11
216.341	20.82
216.559	-54.95
216.778	-13.99
216.996	8.53
217.214	26.96
217.432	47.44
217.651	-32.43
217.869	2.39
218.087	65.88
218.306	20.82
218.524	-9.9
218.742	51.54
218.96	-7.85
219.179	-42.67
219.397	-20.14
219.615	-22.19
219.833	61.78
220.051	-77.48
220.27	10.58
220.488	51.54
220.706	39.25
220.924	45.4
221.142	29.01
221.36	53.59
221.578	47.44
221.796	41.3
222.015	29.01
222.233	-32.43
222.451	63.83
222.669	22.87
222.887	51.54
223.105	-95.91
223.323	-3.75
223.541	22.87
223.759	-5.8
223.977	14.68
224.195	86.36
224.413	100.69
224.631	-1.71
224.849	31.06
225.067	-1.71
225.285	16.73
225.503	29.01
225.721	10.58
225.939	-5.8
226.157	51.54
226.375	41.3
226.592	-38.57
226.81	51.54
227.028	57.68
227.246	55.64
227.464	69.97
227.682	18.77
227.9	-79.53
228.117	31.06
228.335	67.92
228.553	100.69
228.771	88.4
228.989	67.92
229.206	-28.33
229.424	18.77
229.642	-24.23
229.86	-13.99
230.077	39.25
230.295	43.35
230.513	53.59
230.731	49.49
230.948	51.54
231.166	55.64
231.384	6.49
231.601	-5.8
231.819	18.77
232.037	-40.62
232.254	59.73
232.472	-20.14
232.689	-18.09
232.907	41.3
233.125	4.44
233.342	22.87
233.56	16.73
233.777	-50.86
233.995	4.44
234.213	-16.04
234.43	-13.99
234.648	-77.48
234.865	67.92
235.083	-1.71
235.3	47.44
235.518	35.16
235.735	55.64
235.953	29.01
236.17	12.63
236.388	41.3
236.605	45.4
236.822	47.44
237.04	104.79
237.257	16.73
237.475	-77.48
237.692	31.06
237.909	-1.71
238.127	16.73
238.344	-13.99
238.562	100.69
238.779	12.63
238.996	20.82
239.214	16.73
239.431	39.25
239.648	49.49
239.865	10.58
240.083	76.12
240.3	47.44
240.517	37.2
240.735	-38.57
240.952	37.2
241.169	84.31
241.386	39.25
241.603	-48.81
241.821	26.96
242.038	-7.85
242.255	67.92
242.472	14.68
242.689	49.49
242.907	2.39
243.124	35.16
243.341	16.73
243.558	16.73
243.775	-52.91
243.992	-28.33
244.209	-18.09
244.426	59.73
244.643	141.65
244.86	2.39
245.078	2.39
245.295	59.73
245.512	78.16
245.729	6.49
245.946	57.68
246.163	47.44
246.38	84.31
246.597	4.44
246.814	61.78
247.031	-7.85
247.248	18.77
247.464	29.01
247.681	98.64
247.898	31.06
248.115	47.44
248.332	37.2
248.549	47.44
248.766	-5.8
248.983	2.39
249.2	72.02
249.417	53.59
249.633	63.83
249.85	-26.28
250.067	-1.71
250.284	-34.47
250.501	59.73
250.717	35.16
250.934	29.01
251.151	-24.23
251.368	-18.09
251.585	-16.04
251.801	-24.23
252.018	16.73
252.235	92.5
252.451	-24.23
252.668	37.2
252.885	-7.85
253.102	6.49
253.318	47.44
253.535	41.3
253.752	-3.75
253.968	8.53
254.185	-9.9
254.401	2.39
254.618	88.4
254.835	76.12
255.051	102.74
255.268	20.82
255.484	2.39
255.701	-30.38
255.917	20.82
256.134	10.58
256.351	8.53
256.567	-7.85
256.784	-5.8
257	6.49
257.217	4.44
257.433	-22.19
257.65	61.78
257.866	10.58
258.082	-28.33
258.299	26.96
258.515	-32.43
258.732	43.35
258.948	-11.95
259.165	29.01
259.381	108.88
259.597	10.58
259.814	24.92
260.03	74.07
260.246	-61.1
260.463	63.83
260.679	74.07
260.895	-3.75
261.112	39.25
261.328	-40.62
261.544	82.26
261.761	-95.91
261.977	-59.05
262.193	59.73
262.409	61.78
262.626	-28.33
262.842	43.35
263.058	-42.67
263.274	10.58
263.49	61.78
263.707	29.01
263.923	-24.23
264.139	-32.43
264.355	-63.15
264.571	61.78
264.787	47.44
265.004	10.58
265.22	8.53
265.436	20.82
265.652	39.25
265.868	2.39
266.084	12.63
266.3	33.11
266.516	51.54
266.732	24.92
266.948	43.35
267.164	61.78
267.38	49.49
267.596	41.3
267.812	37.2
268.028	61.78
268.244	2.39
268.46	-1.71
268.676	4.44
268.892	35.16
269.108	39.25
269.324	31.06
269.54	8.53
269.756	45.4
269.972	-50.86
270.188	67.92
270.403	53.59
270.619	-5.8
270.835	-5.8
271.051	41.3
271.267	14.68
271.483	53.59
271.698	-22.19
271.914	65.88
272.13	-18.09
272.346	53.59
272.562	31.06
272.777	26.96
272.993	-42.67
273.209	31.06
273.425	12.63
273.64	43.35
273.856	-28.33
274.072	61.78
274.287	22.87
274.503	-11.95
274.719	29.01
274.934	112.98
275.15	4.44
275.366	49.49
275.581	4.44
275.797	51.54
276.012	84.31
276.228	29.01
276.444	108.88
276.659	24.92
276.875	8.53
277.09	55.64
277.306	-38.57
277.521	47.44
277.737	22.87
277.952	-36.52
278.168	2.39
278.383	86.36
278.599	-11.95
278.814	78.16
279.03	55.64
279.245	82.26
279.461	45.4
279.676	10.58
279.892	0.34
280.107	-16.04
280.322	4.44
280.538	26.96
280.753	0.34
280.969	51.54
281.184	57.68
281.399	168.27
281.615	12.63
281.83	35.16
282.045	78.16
282.26	59.73
282.476	-13.99
282.691	69.97
282.906	-18.09
283.122	-5.8
283.337	-11.95
283.552	-9.9
283.767	-7.85
283.983	45.4
284.198	18.77
284.413	-20.14
284.628	22.87
284.843	-16.04
285.058	41.3
285.274	-5.8
285.489	41.3
285.704	51.54
285.919	-28.33
286.134	4.44
286.349	43.35
286.564	45.4
286.779	26.96
286.995	14.68
287.21	-30.38
287.425	51.54
287.64	37.2
287.855	26.96
288.07	76.12
288.285	14.68
288.5	26.96
288.715	106.84
288.93	14.68
289.145	39.25
289.36	35.16
289.575	92.5
289.79	69.97
290.004	-18.09
290.219	67.92
290.434	6.49
290.649	16.73
290.864	-18.09
291.079	4.44
291.294	115.03
291.509	37.2
291.724	0.34
291.938	-7.85
292.153	35.16
292.368	-13.99
292.583	-13.99
292.798	61.78
293.012	31.06
293.227	45.4
293.442	-13.99
293.657	-3.75
293.871	-34.47
294.086	16.73
294.301	125.27
294.516	-1.71
294.73	-28.33
294.945	22.87
295.16	41.3
295.374	43.35
295.589	-34.47
295.804	51.54
296.018	18.77
296.233	84.31
296.447	0.34
296.662	12.63
296.877	41.3
297.091	53.59
297.306	20.82
297.52	92.5
297.735	-30.38
297.949	37.2
298.164	43.35
298.378	59.73
298.593	49.49
298.807	18.77
299.022	18.77
299.236	18.77
299.451	45.4
299.665	18.77
299.88	24.92
300.094	8.53
300.309	35.16
300.523	-30.38
300.737	39.25
300.952	67.92
301.166	22.87
301.381	31.06
301.595	-30.38
301.809	12.63
302.024	-5.8
302.238	33.11
302.452	39.25
302.667	43.35
302.881	-20.14
303.095	43.35
303.309	49.49
303.524	65.88
303.738	-5.8
303.952	22.87
304.166	76.12
304.381	-7.85
304.595	65.88
304.809	121.17
305.023	-59.05
305.237	-24.23
305.452	-1.71
305.666	-7.85
305.88	63.83
306.094	-28.33
306.308	-20.14
306.522	-28.33
306.736	37.2
306.95	59.73
307.164	18.77
307.379	55.64
307.593	61.78
307.807	53.59
308.021	14.68
308.235	20.82
308.449	117.08
308.663	-13.99
308.877	59.73
309.091	-3.75
309.305	-13.99
309.519	55.64
309.733	108.88
309.947	-1.71
310.161	35.16
310.374	-18.09
310.588	-3.75
310.802	16.73
311.016	49.49
311.23	20.82
311.444	-48.81
311.658	51.54
311.872	10.58
312.085	-1.71
312.299	-1.71
312.513	100.69
312.727	80.21
312.941	12.63
313.154	108.88
313.368	26.96
313.582	33.11
313.796	6.49
314.009	41.3
314.223	14.68
314.437	-13.99
314.651	-11.95
314.864	22.87
315.078	-100.01
315.292	22.87
315.505	16.73
315.719	10.58
315.933	51.54
316.146	-5.8
316.36	-9.9
316.573	-24.23
316.787	-16.04
317.001	61.78
317.214	-57
317.428	43.35
317.641	69.97
317.855	-34.47
318.068	10.58
318.282	26.96
318.495	35.16
318.709	-5.8
318.922	45.4
319.136	94.55
319.349	43.35
319.563	14.68
319.776	22.87
319.99	8.53
320.203	90.45
320.417	53.59
320.63	-61.1
320.843	47.44
321.057	78.16
321.27	-11.95
321.483	43.35
321.697	53.59
321.91	59.73
322.124	61.78
322.337	35.16
322.55	31.06
322.763	35.16
322.977	33.11
323.19	22.87
323.403	41.3
323.617	29.01
323.83	45.4
324.043	-38.57
324.256	20.82
324.469	18.77
324.683	59.73
324.896	37.2
325.109	0.34
325.322	-54.95
325.535	35.16
325.748	-11.95
325.962	26.96
326.175	39.25
326.388	35.16
326.601	-26.28
326.814	88.4
327.027	98.64
327.24	12.63
327.453	0.34
327.666	53.59
327.879	16.73
328.092	-30.38
328.305	33.11
328.518	35.16
328.731	-50.86
328.944	-22.19
329.157	10.58
329.37	-22.19
329.583	16.73
329.796	69.97
330.009	53.59
330.222	100.69
330.435	14.68
330.648	53.59
330.861	37.2
331.073	-22.19
331.286	14.68
331.499	47.44
331.712	61.78
331.925	-20.14
332.138	-11.95
332.35	24.92
332.563	49.49
332.776	-11.95
332.989	35.16
333.202	43.35
333.414	26.96
333.627	57.68
333.84	-16.04
334.053	39.25
334.265	-67.24
334.478	16.73
334.691	74.07
334.903	59.73
335.116	14.68
335.329	39.25
335.541	26.96
335.754	10.58
335.966	65.88
336.179	-11.95
336.392	49.49
336.604	43.35
336.817	41.3
337.029	-22.19
337.242	61.78
337.454	43.35
337.667	4.44
337.88	45.4
338.092	8.53
338.305	18.77
338.517	0.34
338.729	45.4
338.942	119.12
339.154	31.06
339.367	24.92
339.579	84.31
339.792	16.73
340.004	31.06
340.217	74.07
340.429	33.11
340.641	12.63
340.854	-1.71
341.066	-7.85
341.278	35.16
341.491	47.44
341.703	-20.14
341.915	16.73
342.128	37.2
342.34	-16.04
342.552	-20.14
342.764	-40.62
342.977	12.63
343.189	47.44
343.401	47.44
343.613	-44.71
343.826	49.49
344.038	69.97
344.25	22.87
344.462	39.25
344.674	22.87
344.886	0.34
345.099	72.02
345.311	37.2
345.523	90.45
345.735	-1.71
345.947	12.63
346.159	37.2
346.371	20.82
346.583	-30.38
346.795	29.01
347.007	-16.04
347.219	53.59
347.431	18.77
347.643	53.59
347.855	-5.8
348.067	53.59
348.279	16.73
348.491	41.3
348.703	8.53
348.915	-38.57
349.127	-36.52
349.339	63.83
349.551	14.68
349.763	26.96
349.975	74.07
350.187	84.31
350.399	49.49
350.61	6.49
350.822	33.11
351.034	4.44
351.246	14.68
351.458	4.44
351.669	35.16
351.881	35.16
352.093	6.49
352.305	37.2
352.517	12.63
352.728	10.58
352.94	22.87
353.152	43.35
353.363	143.7
353.575	84.31
353.787	92.5
353.999	88.4
354.21	51.54
354.422	4.44
354.633	-36.52
354.845	12.63
355.057	-13.99
355.268	16.73
355.48	-11.95
355.692	-28.33
355.903	61.78
356.115	112.98
356.326	-42.67
356.538	35.16
356.749	88.4
356.961	29.01
357.172	-5.8
357.384	-11.95
357.595	12.63
357.807	45.4
358.018	188.75
358.23	51.54
358.441	35.16
358.653	29.01
358.864	41.3
359.075	57.68
359.287	18.77
359.498	33.11
359.709	53.59
359.921	26.96
360.132	-36.52
360.344	35.16
360.555	-34.47
360.766	45.4
360.977	39.25
361.189	53.59
361.4	37.2
361.611	24.92
361.823	-3.75
362.034	26.96
362.245	22.87
362.456	80.21
362.667	-5.8
362.879	-11.95
363.09	57.68
363.301	-36.52
363.512	10.58
363.723	63.83
363.935	100.69
364.146	-11.95
364.357	26.96
364.568	18.77
364.779	37.2
364.99	43.35
365.201	14.68
365.412	12.63
365.623	8.53
365.834	26.96
366.045	39.25
366.256	6.49
366.467	-20.14
366.678	-3.75
366.889	18.77
367.1	39.25
367.311	39.25
367.522	92.5
367.733	49.49
367.944	26.96
368.155	49.49
368.366	80.21
368.577	18.77
368.788	90.45
368.999	29.01
369.209	45.4
369.42	57.68
369.631	65.88
369.842	-52.91
370.053	-26.28
370.264	16.73
370.474	10.58
370.685	-18.09
370.896	63.83
371.107	37.2
371.317	51.54
371.528	37.2
371.739	22.87
371.95	110.93
372.16	29.01
372.371	-7.85
372.582	29.01
372.792	88.4
373.003	-1.71
373.214	45.4
373.424	4.44
373.635	37.2
373.846	86.36
374.056	37.2
374.267	39.25
374.477	106.84
374.688	43.35
374.898	43.35
375.109	41.3
375.319	90.45
375.53	39.25
375.74	37.2
375.951	65.88
376.161	22.87
376.372	14.68
376.582	-59.05
376.793	88.4
377.003	-7.85
377.214	102.74
377.424	10.58
377.635	2.39
377.845	-3.75
378.055	12.63
378.266	-11.95
378.476	43.35
378.686	26.96
378.897	35.16
379.107	29.01
379.317	18.77
379.528	-13.99
379.738	35.16
379.948	-61.1
380.158	8.53
380.369	29.01
380.579	65.88
380.789	-30.38
380.999	57.68
381.21	51.54
381.42	-20.14
381.63	24.92
381.84	147.8
382.05	37.2
382.261	26.96
382.471	53.59
382.681	26.96
382.891	31.06
383.101	96.6
383.311	41.3
383.521	74.07
383.731	55.64
383.941	47.44
384.151	31.06
384.361	76.12
384.571	47.44
384.781	41.3
384.991	26.96
385.201	55.64
385.411	53.59
385.621	39.25
385.831	-22.19
386.041	100.69
386.251	-1.71
386.461	65.88
386.671	-5.8
386.881	86.36
387.091	-11.95
387.301	-32.43
387.511	-1.71
387.72	4.44
387.93	16.73
388.14	102.74
388.35	51.54
388.56	76.12
388.769	12.63
388.979	76.12
389.189	-36.52
389.399	80.21
389.609	-5.8
389.818	8.53
390.028	69.97
390.238	84.31
390.447	-18.09
390.657	43.35
390.867	18.77
391.076	47.44
391.286	51.54
391.496	69.97
391.705	6.49
391.915	80.21
392.125	31.06
392.334	51.54
392.544	57.68
392.753	49.49
392.963	-1.71
393.172	49.49
393.382	24.92
393.591	67.92
393.801	20.82
394.01	26.96
394.22	-1.71
394.429	-22.19
394.639	47.44
394.848	59.73
395.058	33.11
395.267	37.2
395.477	90.45
395.686	65.88
395.895	98.64
396.105	82.26
396.314	-13.99
396.524	0.34
396.733	67.92
396.942	84.31
397.152	29.01
397.361	43.35
397.57	102.74
397.78	26.96
397.989	94.55
398.198	76.12
398.407	37.2
398.617	139.6
398.826	65.88
399.035	57.68
399.244	41.3
399.453	51.54
399.663	82.26
399.872	123.22
400.081	98.64
400.29	57.68
400.499	29.01
400.708	49.49
400.917	98.64
401.127	47.44
401.336	26.96
401.545	137.56
401.754	133.46
401.963	92.5
402.172	10.58
402.381	67.92
402.59	102.74
402.799	76.12
403.008	100.69
403.217	8.53
403.426	41.3
403.635	47.44
403.844	59.73
404.053	29.01
404.262	22.87
404.471	129.36
404.68	115.03
404.888	84.31
405.097	78.16
405.306	121.17
405.515	78.16
405.724	55.64
405.933	67.92
406.142	127.32
406.35	112.98
406.559	90.45
406.768	108.88
406.977	112.98
407.185	94.55
407.394	158.03
407.603	92.5
407.812	125.27
408.02	223.57
408.229	190.8
408.438	184.66
408.646	147.8
408.855	155.99
409.064	201.04
409.272	147.8
409.481	205.14
409.69	123.22
409.898	196.95
410.107	117.08
410.315	149.84
410.524	194.9
410.733	192.85
410.941	227.67
411.15	239.95
411.358	244.05
411.567	192.85
411.775	168.27
411.984	250.19
412.192	203.09
412.401	221.52
412.609	178.51
412.818	239.95
413.026	239.95
413.234	348.5
413.443	293.2
413.651	328.02
413.86	352.59
414.068	397.65
414.276	371.02
414.485	305.49
414.693	379.22
414.901	409.94
415.11	407.89
415.318	356.69
415.526	389.46
415.734	498
415.943	395.6
416.151	495.95
416.359	512.33
416.567	493.9
416.776	530.77
416.984	588.11
417.192	543.05
417.4	516.43
417.608	602.44
417.817	643.4
418.025	528.72
418.233	641.36
418.441	575.82
418.649	661.84
418.857	706.89
419.065	827.72
419.273	762.19
419.481	778.57
419.689	887.11
419.897	819.53
420.105	799.05
420.313	860.49
420.521	899.4
420.729	831.82
420.937	987.46
421.145	1014.09
421.353	1009.99
421.561	1098.05
421.769	1104.2
421.977	1198.4
422.185	1188.16
422.393	1210.69
422.601	1290.56
422.809	1186.12
423.017	1274.18
423.224	1370.43
423.432	1337.66
423.64	1395.01
423.848	1499.45
424.056	1526.08
424.263	1540.41
424.471	1599.8
424.679	1546.56
424.887	1636.67
425.094	1761.59
425.302	1773.88
425.51	1829.18
425.718	1921.34
425.925	1947.96
426.133	1902.9
426.341	2076.98
426.548	2238.77
426.756	2234.68
426.964	2275.63
427.171	2386.22
427.379	2445.62
427.586	2447.66
427.794	2509.1
428.001	2582.83
428.209	2842.92
428.417	2812.2
428.624	2746.67
428.832	2947.37
429.039	2818.35
429.247	2922.79
429.454	3143.97
429.662	3305.76
429.869	3162.41
430.076	3432.74
430.284	3201.32
430.491	3316
430.699	3770.65
430.906	3610.91
431.114	3864.86
431.321	3715.36
431.528	3907.87
431.736	4083.99
431.943	4231.44
432.15	4286.74
432.358	4286.74
432.565	4567.31
432.772	4532.5
432.979	4696.33
433.187	5015.82
433.394	4671.76
433.601	5200.13
433.808	5095.69
434.016	5093.64
434.223	5433.6
434.43	5671.17
434.637	5630.21
434.844	5957.88
435.052	6023.42
435.259	6146.3
435.466	6107.38
435.673	6088.95
435.88	6537.46
436.087	6602.99
436.294	6742.25
436.501	6719.73
436.708	6793.45
436.915	6934.76
437.122	7356.65
437.329	7407.84
437.537	7510.24
437.743	7715.04
437.95	7481.57
438.157	8009.95
438.364	8319.19
438.571	8327.38
438.778	8214.74
438.985	9128.14
439.192	8698.06
439.399	8958.16
439.606	8829.13
439.813	9410.76
440.02	9801.92
440.227	9965.76
440.433	9535.68
440.64	9873.6
440.847	9908.41
441.054	10172.6
441.261	10725.55
441.467	10760.37
441.674	11049.13
441.881	11495.59
442.088	11190.44
442.294	11251.88
442.501	11385
442.708	11597.99
442.914	12234.91
443.121	12615.83
443.328	12142.75
443.534	13138.06
443.741	12820.63
443.948	12695.7
444.154	13750.4
444.361	13758.6
444.568	13592.71
444.774	13521.03
444.981	13760.64
445.187	13963.39
445.394	14526.58
445.6	14616.69
445.807	16089.18
446.013	15284.33
446.22	15589.48
446.426	16273.5
446.633	16373.85
446.839	16787.54
447.046	16148.57
447.252	17172.56
447.459	17289.29
447.665	17227.85
447.871	17969.22
448.078	18638.9
448.284	17686.6
448.491	18239.55
448.697	18882.61
448.903	19183.66
449.11	19540.01
449.316	19064.88
449.522	19410.99
449.728	19908.65
449.935	19980.32
450.141	20064.29
450.347	20723.74
450.553	19800.1
450.76	20285.47
450.966	20459.55
451.172	20658.2
451.378	21162
451.584	20594.72
451.791	21387.28
451.997	21141.52
452.203	21563.4
452.409	21747.72
452.615	21501.97
452.821	20701.21
453.027	20492.32
453.233	21483.53
453.44	20590.62
453.646	21133.33
453.852	21334.03
454.058	21286.93
454.264	20725.79
454.47	21217.3
454.676	20813.85
454.882	21215.25
455.088	19589.16
455.294	19943.46
455.5	20295.71
455.705	20389.92
455.911	19748.9
456.117	19132.47
456.323	18958.39
456.529	18206.78
456.735	18784.31
456.941	18309.18
457.147	17987.65
457.352	17328.2
457.558	17330.25
457.764	17154.13
457.97	16777.3
458.176	16380
458.381	16646.23
458.587	15825
458.793	15781.99
458.999	15059.06
459.204	16029.79
459.41	15745.13
459.616	14248.06
459.821	14751.86
460.027	14633.08
460.233	14372.99
460.438	13578.37
460.644	13490.31
460.85	13267.08
461.055	13140.11
461.261	12955.79
461.466	11847.84
461.672	11649.19
461.878	12492.95
462.083	11681.96
462.289	11540.65
462.494	11440.29
462.7	10873.01
462.905	10592.44
463.111	10832.05
463.316	10961.07
463.522	10625.2
463.727	10862.77
463.932	10543.28
464.138	10594.48
464.343	10717.36
464.549	10363.06
464.754	10877.1
464.959	10856.62
465.165	10520.76
465.37	10227.9
465.575	9967.81
465.781	10266.81
465.986	10082.49
466.191	10109.12
466.397	9777.34
466.602	9384.13
466.807	9849.02
467.012	9588.93
467.218	9785.54
467.423	9486.53
467.628	9533.64
467.833	10186.94
468.038	9767.1
468.244	9169.1
468.449	9709.76
468.654	9474.24
468.859	9488.58
469.064	9443.53
