Data from USB4F104151__86__12-54-48-798.txt Node

Date: Fri Mar 14 12:54:48 EDT 2025
User: louis
Spectrometer: USB4F10415
Trigger mode: 4
Integration Time (sec): 1.000000E-2
Scans to average: 1
Electric dark correction enabled: true
Nonlinearity correction enabled: false
Boxcar width: 0
XAxis mode: Wavelengths
Number of Pixels in Spectrum: 3648
>>>>>Begin Spectral Data<<<<<
178.204	-29.35
178.424	-29.35
178.644	-29.35
178.864	-60.07
179.084	44.37
179.304	-2.73
179.524	-6.83
179.744	36.18
179.964	-23.21
180.184	23.89
180.404	-12.97
180.624	42.32
180.844	46.42
181.064	-80.55
181.283	44.37
181.503	1.37
181.723	-68.27
181.943	-33.45
182.163	34.13
182.383	-25.26
182.602	42.32
182.822	79.19
183.042	54.61
183.262	27.99
183.482	38.23
183.701	17.75
183.921	85.33
184.141	-0.68
184.361	38.23
184.58	19.8
184.8	32.08
185.02	46.42
185.239	93.52
185.459	-10.92
185.679	46.42
185.898	42.32
186.118	36.18
186.338	21.85
186.557	-4.78
186.777	27.99
186.997	25.94
187.216	23.89
187.436	-55.98
187.655	-8.87
187.875	111.96
188.095	-8.87
188.314	5.46
188.534	52.56
188.753	13.65
188.973	7.51
189.192	-4.78
189.412	-21.16
189.631	-19.11
189.851	30.04
190.07	32.08
190.29	-8.87
190.509	60.76
190.729	-39.59
190.948	101.72
191.168	7.51
191.387	60.76
191.607	-41.64
191.826	15.7
192.045	58.71
192.265	-94.89
192.484	17.75
192.704	5.46
192.923	54.61
193.142	52.56
193.362	25.94
193.581	-10.92
193.8	-6.83
194.02	-4.78
194.239	-41.64
194.458	13.65
194.678	32.08
194.897	89.43
195.116	-2.73
195.335	-29.35
195.555	-15.02
195.774	21.85
195.993	75.09
196.212	58.71
196.432	-0.68
196.651	46.42
196.87	7.51
197.089	46.42
197.308	-37.55
197.528	58.71
197.747	73.04
197.966	75.09
198.185	3.41
198.404	40.28
198.623	83.28
198.842	101.72
199.062	34.13
199.281	11.61
199.5	-33.45
199.719	-2.73
199.938	-43.69
200.157	-2.73
200.376	32.08
200.595	23.89
200.814	44.37
201.033	19.8
201.252	-19.11
201.471	89.43
201.69	25.94
201.909	36.18
202.128	-15.02
202.347	50.52
202.566	-45.74
202.785	3.41
203.004	-21.16
203.223	152.91
203.442	1.37
203.661	32.08
203.879	73.04
204.098	11.61
204.317	-60.07
204.536	60.76
204.755	46.42
204.974	93.52
205.193	42.32
205.411	97.62
205.63	-23.21
205.849	17.75
206.068	52.56
206.287	54.61
206.505	7.51
206.724	11.61
206.943	3.41
207.162	19.8
207.381	48.47
207.599	-12.97
207.818	30.04
208.037	1.37
208.255	40.28
208.474	-58.03
208.693	13.65
208.911	83.28
209.13	56.66
209.349	30.04
209.567	7.51
209.786	30.04
210.005	-72.36
210.223	85.33
210.442	-15.02
210.661	9.56
210.879	-39.59
211.098	42.32
211.316	-2.73
211.535	101.72
211.753	1.37
211.972	19.8
212.191	19.8
212.409	1.37
212.628	-8.87
212.846	-15.02
213.065	-23.21
213.283	66.9
213.502	34.13
213.72	5.46
213.938	97.62
214.157	54.61
214.375	40.28
214.594	52.56
214.812	17.75
215.031	5.46
215.249	58.71
215.467	46.42
215.686	21.85
215.904	34.13
216.122	66.9
216.341	-82.6
216.559	3.41
216.778	38.23
216.996	3.41
217.214	5.46
217.432	48.47
217.651	95.57
217.869	52.56
218.087	25.94
218.306	-8.87
218.524	48.47
218.742	11.61
218.96	71
219.179	7.51
219.397	-21.16
219.615	-6.83
219.833	52.56
220.051	-10.92
220.27	66.9
220.488	5.46
220.706	5.46
220.924	62.8
221.142	30.04
221.36	77.14
221.578	32.08
221.796	-21.16
222.015	116.05
222.233	15.7
222.451	58.71
222.669	-51.88
222.887	5.46
223.105	-35.5
223.323	23.89
223.541	9.56
223.759	27.99
223.977	58.71
224.195	3.41
224.413	68.95
224.631	32.08
224.849	56.66
225.067	-19.11
225.285	54.61
225.503	1.37
225.721	-39.59
225.939	-21.16
226.157	54.61
226.375	85.33
226.592	7.51
226.81	36.18
227.028	60.76
227.246	-78.51
227.464	-33.45
227.682	17.75
227.9	64.85
228.117	21.85
228.335	38.23
228.553	66.9
228.771	11.61
228.989	64.85
229.206	32.08
229.424	77.14
229.642	19.8
229.86	56.66
230.077	13.65
230.295	111.96
230.513	68.95
230.731	-78.51
230.948	32.08
231.166	103.76
231.384	-64.17
231.601	114
231.819	7.51
232.037	-31.4
232.254	73.04
232.472	60.76
232.689	-62.12
232.907	-10.92
233.125	-10.92
233.342	11.61
233.56	81.24
233.777	32.08
233.995	38.23
234.213	30.04
234.43	75.09
234.648	7.51
234.865	7.51
235.083	11.61
235.3	56.66
235.518	46.42
235.735	-10.92
235.953	30.04
236.17	-10.92
236.388	44.37
236.605	-53.93
236.822	93.52
237.04	52.56
237.257	13.65
237.475	66.9
237.692	36.18
237.909	7.51
238.127	25.94
238.344	62.8
238.562	109.91
238.779	-12.97
238.996	-17.07
239.214	-2.73
239.431	83.28
239.648	-23.21
239.865	-23.21
240.083	34.13
240.3	-21.16
240.517	56.66
240.735	-45.74
240.952	27.99
241.169	17.75
241.386	27.99
241.603	79.19
241.821	5.46
242.038	46.42
242.255	-19.11
242.472	68.95
242.689	17.75
242.907	30.04
243.124	-2.73
243.341	3.41
243.558	19.8
243.775	-2.73
243.992	21.85
244.209	-25.26
244.426	17.75
244.643	107.86
244.86	15.7
245.078	27.99
245.295	32.08
245.512	5.46
245.729	50.52
245.946	-17.07
246.163	-41.64
246.38	58.71
246.597	-27.31
246.814	17.75
247.031	21.85
247.248	58.71
247.464	58.71
247.681	109.91
247.898	36.18
248.115	30.04
248.332	-10.92
248.549	52.56
248.766	85.33
248.983	-55.98
249.2	-27.31
249.417	-43.69
249.633	-39.59
249.85	5.46
250.067	-0.68
250.284	-33.45
250.501	19.8
250.717	15.7
250.934	25.94
251.151	64.85
251.368	-31.4
251.585	-39.59
251.801	30.04
252.018	52.56
252.235	25.94
252.451	32.08
252.668	11.61
252.885	-76.46
253.102	36.18
253.318	15.7
253.535	-27.31
253.752	9.56
253.968	1.37
254.185	-33.45
254.401	-55.98
254.618	23.89
254.835	32.08
255.051	-12.97
255.268	-39.59
255.484	120.15
255.701	34.13
255.917	79.19
256.134	56.66
256.351	81.24
256.567	-8.87
256.784	1.37
257	5.46
257.217	-10.92
257.433	101.72
257.65	13.65
257.866	7.51
258.082	52.56
258.299	34.13
258.515	-27.31
258.732	-17.07
258.948	81.24
259.165	75.09
259.381	19.8
259.597	-2.73
259.814	3.41
260.03	68.95
260.246	62.8
260.463	-0.68
260.679	-21.16
260.895	44.37
261.112	-35.5
261.328	-25.26
261.544	-2.73
261.761	9.56
261.977	60.76
262.193	54.61
262.409	27.99
262.626	44.37
262.842	9.56
263.058	-49.83
263.274	50.52
263.49	-21.16
263.707	3.41
263.923	3.41
264.139	-15.02
264.355	79.19
264.571	-41.64
264.787	32.08
265.004	-58.03
265.22	19.8
265.436	-27.31
265.652	13.65
265.868	95.57
266.084	-43.69
266.3	7.51
266.516	-21.16
266.732	34.13
266.948	75.09
267.164	40.28
267.38	25.94
267.596	17.75
267.812	71
268.028	-45.74
268.244	-0.68
268.46	32.08
268.676	52.56
268.892	7.51
269.108	-0.68
269.324	-23.21
269.54	-4.78
269.756	17.75
269.972	3.41
270.188	126.29
270.403	-6.83
270.619	79.19
270.835	-10.92
271.051	75.09
271.267	38.23
271.483	38.23
271.698	-31.4
271.914	66.9
272.13	-4.78
272.346	-29.35
272.562	15.7
272.777	-23.21
272.993	50.52
273.209	48.47
273.425	-4.78
273.64	-0.68
273.856	17.75
274.072	36.18
274.287	11.61
274.503	62.8
274.719	79.19
274.934	75.09
275.15	42.32
275.366	19.8
275.581	-43.69
275.797	-53.93
276.012	13.65
276.228	-0.68
276.444	-12.97
276.659	44.37
276.875	9.56
277.09	75.09
277.306	-19.11
277.521	36.18
277.737	21.85
277.952	50.52
278.168	-17.07
278.383	27.99
278.599	-6.83
278.814	13.65
279.03	3.41
279.245	64.85
279.461	46.42
279.676	85.33
279.892	5.46
280.107	-21.16
280.322	-19.11
280.538	42.32
280.753	9.56
280.969	64.85
281.184	21.85
281.399	52.56
281.615	44.37
281.83	-31.4
282.045	-12.97
282.26	1.37
282.476	15.7
282.691	-12.97
282.906	44.37
283.122	79.19
283.337	23.89
283.552	-12.97
283.767	7.51
283.983	50.52
284.198	30.04
284.413	52.56
284.628	-2.73
284.843	-12.97
285.058	11.61
285.274	-2.73
285.489	-19.11
285.704	52.56
285.919	9.56
286.134	-2.73
286.349	-49.83
286.564	-6.83
286.779	27.99
286.995	50.52
287.21	-31.4
287.425	17.75
287.64	17.75
287.855	58.71
288.07	36.18
288.285	-25.26
288.5	32.08
288.715	-29.35
288.93	-39.59
289.145	58.71
289.36	32.08
289.575	-19.11
289.79	111.96
290.004	-17.07
290.219	21.85
290.434	-0.68
290.649	-37.55
290.864	48.47
291.079	-33.45
291.294	-19.11
291.509	-27.31
291.724	-27.31
291.938	58.71
292.153	54.61
292.368	75.09
292.583	-19.11
292.798	-23.21
293.012	101.72
293.227	23.89
293.442	11.61
293.657	54.61
293.871	-15.02
294.086	52.56
294.301	36.18
294.516	-4.78
294.73	23.89
294.945	-0.68
295.16	54.61
295.374	42.32
295.589	21.85
295.804	-21.16
296.018	79.19
296.233	13.65
296.447	9.56
296.662	81.24
296.877	11.61
297.091	-21.16
297.306	-2.73
297.52	38.23
297.735	13.65
297.949	-12.97
298.164	36.18
298.378	60.76
298.593	-21.16
298.807	7.51
299.022	23.89
299.236	-15.02
299.451	-2.73
299.665	15.7
299.88	32.08
300.094	19.8
300.309	34.13
300.523	58.71
300.737	77.14
300.952	13.65
301.166	-37.55
301.381	25.94
301.595	36.18
301.809	1.37
302.024	-4.78
302.238	23.89
302.452	1.37
302.667	17.75
302.881	54.61
303.095	-27.31
303.309	30.04
303.524	-27.31
303.738	21.85
303.952	-31.4
304.166	25.94
304.381	-76.46
304.595	36.18
304.809	-27.31
305.023	48.47
305.237	21.85
305.452	5.46
305.666	13.65
305.88	48.47
306.094	30.04
306.308	56.66
306.522	64.85
306.736	48.47
306.95	23.89
307.164	-10.92
307.379	62.8
307.593	40.28
307.807	5.46
308.021	27.99
308.235	40.28
308.449	44.37
308.663	7.51
308.877	-12.97
309.091	13.65
309.305	23.89
309.519	-19.11
309.733	46.42
309.947	-49.83
310.161	36.18
310.374	-8.87
310.588	58.71
310.802	40.28
311.016	64.85
311.23	-6.83
311.444	-47.79
311.658	3.41
311.872	42.32
312.085	89.43
312.299	-33.45
312.513	71
312.727	101.72
312.941	21.85
313.154	52.56
313.368	54.61
313.582	48.47
313.796	-17.07
314.009	36.18
314.223	30.04
314.437	44.37
314.651	83.28
314.864	60.76
315.078	9.56
315.292	93.52
315.505	1.37
315.719	-21.16
315.933	50.52
316.146	13.65
316.36	71
316.573	19.8
316.787	-53.93
317.001	25.94
317.214	71
317.428	48.47
317.641	30.04
317.855	60.76
318.068	34.13
318.282	30.04
318.495	36.18
318.709	27.99
318.922	-2.73
319.136	91.48
319.349	-8.87
319.563	11.61
319.776	38.23
319.99	3.41
320.203	93.52
320.417	-4.78
320.63	38.23
320.843	122.2
321.057	-8.87
321.27	15.7
321.483	30.04
321.697	23.89
321.91	-8.87
322.124	13.65
322.337	-19.11
322.55	48.47
322.763	107.86
322.977	36.18
323.19	9.56
323.403	60.76
323.617	-10.92
323.83	15.7
324.043	32.08
324.256	15.7
324.469	11.61
324.683	71
324.896	3.41
325.109	42.32
325.322	50.52
325.535	52.56
325.748	64.85
325.962	73.04
326.175	48.47
326.388	-12.97
326.601	54.61
326.814	64.85
327.027	-31.4
327.24	93.52
327.453	-41.64
327.666	95.57
327.879	48.47
328.092	101.72
328.305	-31.4
328.518	46.42
328.731	-25.26
328.944	85.33
329.157	30.04
329.37	13.65
329.583	87.38
329.796	56.66
330.009	44.37
330.222	-10.92
330.435	7.51
330.648	36.18
330.861	-74.41
331.073	15.7
331.286	40.28
331.499	17.75
331.712	-19.11
331.925	73.04
332.138	-43.69
332.35	79.19
332.563	87.38
332.776	44.37
332.989	109.91
333.202	3.41
333.414	19.8
333.627	23.89
333.84	-29.35
334.053	87.38
334.265	-10.92
334.478	32.08
334.691	85.33
334.903	-2.73
335.116	73.04
335.329	-12.97
335.541	-21.16
335.754	17.75
335.966	-47.79
336.179	27.99
336.392	3.41
336.604	48.47
336.817	17.75
337.029	56.66
337.242	-29.35
337.454	75.09
337.667	-15.02
337.88	5.46
338.092	-0.68
338.305	-4.78
338.517	-31.4
338.729	42.32
338.942	93.52
339.154	46.42
339.367	-17.07
339.579	17.75
339.792	50.52
340.004	11.61
340.217	58.71
340.429	5.46
340.641	19.8
340.854	25.94
341.066	36.18
341.278	62.8
341.491	15.7
341.703	46.42
341.915	77.14
342.128	27.99
342.34	66.9
342.552	114
342.764	34.13
342.977	-17.07
343.189	-37.55
343.401	1.37
343.613	32.08
343.826	34.13
344.038	60.76
344.25	46.42
344.462	40.28
344.674	71
344.886	64.85
345.099	-4.78
345.311	103.76
345.523	93.52
345.735	5.46
345.947	44.37
346.159	1.37
346.371	54.61
346.583	-2.73
346.795	5.46
347.007	-62.12
347.219	62.8
347.431	9.56
347.643	97.62
347.855	23.89
348.067	44.37
348.279	36.18
348.491	30.04
348.703	38.23
348.915	40.28
349.127	-17.07
349.339	40.28
349.551	66.9
349.763	13.65
349.975	-6.83
350.187	68.95
350.399	19.8
350.61	11.61
350.822	-41.64
351.034	40.28
351.246	27.99
351.458	73.04
351.669	25.94
351.881	21.85
352.093	-15.02
352.305	36.18
352.517	56.66
352.728	21.85
352.94	-53.93
353.152	52.56
353.363	27.99
353.575	3.41
353.787	21.85
353.999	-8.87
354.21	50.52
354.422	27.99
354.633	19.8
354.845	60.76
355.057	11.61
355.268	50.52
355.48	11.61
355.692	44.37
355.903	40.28
356.115	101.72
356.326	5.46
356.538	60.76
356.749	-0.68
356.961	19.8
357.172	-23.21
357.384	68.95
357.595	107.86
357.807	-21.16
358.018	-37.55
358.23	11.61
358.441	73.04
358.653	40.28
358.864	-29.35
359.075	-19.11
359.287	7.51
359.498	68.95
359.709	52.56
359.921	71
360.132	3.41
360.344	-10.92
360.555	-21.16
360.766	25.94
360.977	58.71
361.189	44.37
361.4	-37.55
361.611	-12.97
361.823	13.65
362.034	46.42
362.245	23.89
362.456	-21.16
362.667	-12.97
362.879	23.89
363.09	48.47
363.301	44.37
363.512	62.8
363.723	5.46
363.935	40.28
364.146	50.52
364.357	21.85
364.568	3.41
364.779	30.04
364.99	44.37
365.201	11.61
365.412	23.89
365.623	68.95
365.834	11.61
366.045	40.28
366.256	77.14
366.467	11.61
366.678	87.38
366.889	-29.35
367.1	30.04
367.311	54.61
367.522	60.76
367.733	27.99
367.944	23.89
368.155	40.28
368.366	107.86
368.577	56.66
368.788	-21.16
368.999	27.99
369.209	60.76
369.42	17.75
369.631	-17.07
369.842	75.09
370.053	1.37
370.264	19.8
370.474	27.99
370.685	56.66
370.896	-6.83
371.107	-53.93
371.317	-2.73
371.528	-53.93
371.739	25.94
371.95	38.23
372.16	5.46
372.371	-21.16
372.582	46.42
372.792	32.08
373.003	77.14
373.214	-31.4
373.424	75.09
373.635	1.37
373.846	56.66
374.056	38.23
374.267	62.8
374.477	52.56
374.688	5.46
374.898	3.41
375.109	-2.73
375.319	48.47
375.53	36.18
375.74	36.18
375.951	87.38
376.161	130.39
376.372	66.9
376.582	-17.07
376.793	64.85
377.003	-2.73
377.214	-6.83
377.424	19.8
377.635	27.99
377.845	-62.12
378.055	60.76
378.266	-19.11
378.476	85.33
378.686	85.33
378.897	44.37
379.107	5.46
379.317	11.61
379.528	-0.68
379.738	25.94
379.948	42.32
380.158	42.32
380.369	13.65
380.579	48.47
380.789	66.9
380.999	60.76
381.21	13.65
381.42	40.28
381.63	36.18
381.84	95.57
382.05	15.7
382.261	19.8
382.471	54.61
382.681	46.42
382.891	64.85
383.101	9.56
383.311	15.7
383.521	-17.07
383.731	-4.78
383.941	66.9
384.151	64.85
384.361	9.56
384.571	54.61
384.781	-12.97
384.991	-17.07
385.201	25.94
385.411	136.53
385.621	9.56
385.831	56.66
386.041	56.66
386.251	13.65
386.461	-17.07
386.671	23.89
386.881	3.41
387.091	-25.26
387.301	32.08
387.511	38.23
387.72	99.67
387.93	66.9
388.14	44.37
388.35	17.75
388.56	27.99
388.769	48.47
388.979	-25.26
389.189	36.18
389.399	36.18
389.609	9.56
389.818	1.37
390.028	-17.07
390.238	38.23
390.447	44.37
390.657	32.08
390.867	25.94
391.076	25.94
391.286	-33.45
391.496	32.08
391.705	-41.64
391.915	42.32
392.125	48.47
392.334	23.89
392.544	54.61
392.753	-27.31
392.963	25.94
393.172	32.08
393.382	11.61
393.591	95.57
393.801	7.51
394.01	60.76
394.22	60.76
394.429	114
394.639	62.8
394.848	60.76
395.058	-2.73
395.267	77.14
395.477	27.99
395.686	101.72
395.895	140.63
396.105	27.99
396.314	30.04
396.524	36.18
396.733	32.08
396.942	36.18
397.152	48.47
397.361	48.47
397.57	116.05
397.78	23.89
397.989	34.13
398.198	27.99
398.407	66.9
398.617	60.76
398.826	118.1
399.035	114
399.244	95.57
399.453	58.71
399.663	19.8
399.872	77.14
400.081	-43.69
400.29	122.2
400.499	13.65
400.708	95.57
400.917	-37.55
401.127	62.8
401.336	13.65
401.545	85.33
401.754	-6.83
401.963	13.65
402.172	50.52
402.381	-2.73
402.59	48.47
402.799	62.8
403.008	30.04
403.217	46.42
403.426	58.71
403.635	103.76
403.844	30.04
404.053	60.76
404.262	17.75
404.471	77.14
404.68	66.9
404.888	77.14
405.097	77.14
405.306	-21.16
405.515	77.14
405.724	97.62
405.933	109.91
406.142	103.76
406.35	124.24
406.559	111.96
406.768	36.18
406.977	128.34
407.185	21.85
407.394	126.29
407.603	132.44
407.812	109.91
408.02	128.34
408.229	169.3
408.438	132.44
408.646	140.63
408.855	23.89
409.064	181.59
409.272	71
409.481	173.39
409.69	161.11
409.898	146.77
410.107	83.28
410.315	222.55
410.524	185.68
410.733	177.49
410.941	218.45
411.15	208.21
411.358	89.43
411.567	265.55
411.775	140.63
411.984	200.02
412.192	218.45
412.401	212.31
412.609	212.31
412.818	253.27
413.026	228.69
413.234	138.58
413.443	183.63
413.651	183.63
413.86	281.94
414.068	273.75
414.276	273.75
414.485	304.46
414.693	314.7
414.901	329.04
415.11	259.41
415.318	292.18
415.526	343.38
415.734	365.9
415.943	363.86
416.151	374.1
416.359	365.9
416.567	404.82
416.776	343.38
416.984	421.2
417.192	466.25
417.4	421.2
417.608	439.63
417.817	347.47
418.025	537.93
418.233	515.41
418.441	519.5
418.649	482.64
418.857	613.71
419.065	607.56
419.273	564.56
419.481	623.95
419.689	642.38
419.897	636.24
420.105	617.8
420.313	666.96
420.521	709.96
420.729	677.19
420.937	765.26
421.145	849.22
421.353	824.65
421.561	867.66
421.769	836.94
421.977	908.62
422.185	894.28
422.393	996.68
422.601	1092.93
422.809	945.48
423.017	978.25
423.224	1027.4
423.432	1109.32
423.64	1137.99
423.848	1226.05
424.056	1154.37
424.263	1295.68
424.471	1217.86
424.679	1277.25
424.887	1408.32
425.094	1361.22
425.302	1398.08
425.51	1422.66
425.718	1551.68
425.925	1590.59
426.133	1502.53
426.341	1635.64
426.548	1750.33
426.756	1711.42
426.964	1795.39
427.171	1916.22
427.379	1883.45
427.586	1873.21
427.794	1985.85
428.001	2057.53
428.209	2145.59
428.417	2168.12
428.624	2284.85
428.832	2284.85
429.039	2233.65
429.247	2379.06
429.454	2657.58
429.662	2622.77
429.869	2495.79
430.076	2692.4
430.284	2542.89
430.491	2688.3
430.699	2868.52
430.906	2944.3
431.114	2954.54
431.321	3151.14
431.528	2962.73
431.736	3294.5
431.943	3304.74
432.15	3329.31
432.358	3407.14
432.565	3620.13
432.772	3595.55
432.979	3759.39
433.187	3747.1
433.394	3929.37
433.601	3978.52
433.808	4232.47
434.016	4048.15
434.223	4058.39
434.43	4351.25
434.637	4498.7
434.844	4613.39
435.052	4785.42
435.259	4590.86
435.466	4701.45
435.673	4640.01
435.88	5035.27
436.087	5246.21
436.294	5274.88
436.501	5117.19
436.708	5307.65
436.915	5430.53
437.122	5780.73
437.329	5635.33
437.537	5870.84
437.743	5991.67
437.95	5932.28
438.157	6219
438.364	6431.99
438.571	6153.46
438.778	6448.37
438.985	7062.76
439.192	6804.72
439.399	7019.75
439.606	6767.85
439.813	7333.09
440.02	7660.77
440.227	7423.2
440.433	7412.96
440.64	7769.31
440.847	7544.03
441.054	7693.54
441.261	8256.73
441.467	8269.02
441.674	8250.58
441.881	8660.18
442.088	8651.99
442.294	8879.31
442.501	8883.41
442.708	9073.87
442.914	9344.2
443.121	9772.22
443.328	9510.08
443.534	10122.43
443.741	10005.69
443.948	9725.12
444.154	10472.63
444.361	10632.37
444.568	10482.87
444.774	10583.22
444.981	10790.06
445.187	11150.51
445.394	11435.17
445.6	11261.1
445.807	12280.99
446.013	11916.45
446.22	11979.93
446.426	12534.93
446.633	12582.04
446.839	13159.56
447.046	12659.86
447.252	13470.86
447.459	13212.81
447.665	13184.14
447.871	13921.41
448.078	14523.51
448.284	13823.11
448.491	14050.43
448.697	14955.63
448.903	15201.39
449.11	15174.77
449.316	14799.99
449.522	15084.66
449.728	15555.69
449.935	15584.36
450.141	15922.27
450.347	16100.45
450.553	15584.36
450.76	15793.25
450.966	15942.75
451.172	16235.61
451.378	16770.13
451.584	16000.1
451.791	16598.1
451.997	16536.66
452.203	16882.77
452.409	16780.37
452.615	16778.33
452.821	16053.34
453.027	16016.48
453.233	16686.17
453.44	16493.66
453.646	16297.05
453.852	16288.86
454.058	16743.51
454.264	15983.71
454.47	16571.48
454.676	16065.63
454.882	16647.26
455.088	15295.6
455.294	15426.67
455.5	15533.16
455.705	15731.81
455.911	15373.42
456.117	14912.63
456.323	14953.59
456.529	13798.53
456.735	14560.38
456.941	14148.73
457.147	13812.87
457.352	13646.98
457.558	13362.31
457.764	13286.54
457.97	13223.05
458.176	12844.18
458.381	12825.75
458.587	12319.9
458.793	12242.07
458.999	11506.85
459.204	12336.28
459.41	12018.85
459.616	11392.17
459.821	11087.02
460.027	11115.69
460.233	10845.36
460.438	10489.01
460.644	10382.52
460.85	9934.01
461.055	9872.57
461.261	9950.4
461.466	9198.79
461.672	8920.27
461.878	9544.9
462.083	8883.41
462.289	8785.1
462.494	8762.58
462.7	8269.02
462.905	8086.75
463.111	8492.24
463.316	8432.85
463.522	8004.83
463.727	8291.54
463.932	8113.37
464.138	8142.04
464.343	8076.51
464.549	7898.33
464.754	8099.03
464.959	8234.2
465.165	8049.88
465.37	7709.92
465.575	7322.85
465.781	7984.35
465.986	7720.16
466.191	7458.02
466.397	7460.07
466.602	7025.9
466.807	7513.31
467.012	7318.76
467.218	7511.27
467.423	7376.1
467.628	7253.22
467.833	7634.14
468.038	7296.23
468.244	6948.08
468.449	7290.09
468.654	7212.26
468.859	7042.28
469.064	7089.39
469.269	6896.88
