Data from USB4F104151__67__12-54-13-561.txt Node

Date: Fri Mar 14 12:54:13 EDT 2025
User: louis
Spectrometer: USB4F10415
Trigger mode: 4
Integration Time (sec): 1.000000E-2
Scans to average: 1
Electric dark correction enabled: true
Nonlinearity correction enabled: false
Boxcar width: 0
XAxis mode: Wavelengths
Number of Pixels in Spectrum: 3648
>>>>>Begin Spectral Data<<<<<
178.204	-30.21
178.424	-30.21
178.644	-30.21
178.864	-108.03
179.084	-15.87
179.304	61.95
179.524	20.99
179.744	-36.35
179.964	12.8
180.184	-28.16
180.404	-9.73
180.624	23.04
180.844	-19.97
181.064	-22.02
181.283	-54.78
181.503	-34.3
181.723	86.53
181.943	-7.68
182.163	-46.59
182.383	-69.12
182.602	-22.02
182.822	-17.92
183.042	-67.07
183.262	72.19
183.482	45.57
183.701	-15.87
183.921	-118.27
184.141	-62.98
184.361	-1.54
184.58	-19.97
184.8	-40.45
185.02	-7.68
185.239	18.94
185.459	25.09
185.679	-81.41
185.898	-11.78
186.118	4.61
186.338	-58.88
186.557	-42.5
186.777	-3.58
186.997	10.75
187.216	23.04
187.436	6.66
187.655	14.85
187.875	100.86
188.095	-24.06
188.314	6.66
188.534	-7.68
188.753	-38.4
188.973	-7.68
189.192	-28.16
189.412	-34.3
189.631	-5.63
189.851	4.61
190.07	25.09
190.29	-60.93
190.509	-81.41
190.729	-26.11
190.948	-24.06
191.168	27.14
191.387	-38.4
191.607	-3.58
191.826	31.23
192.045	-52.74
192.265	14.85
192.484	-30.21
192.704	-38.4
192.923	-56.83
193.142	45.57
193.362	-40.45
193.581	31.23
193.8	-13.82
194.02	51.71
194.239	12.8
194.458	-19.97
194.678	29.18
194.897	-58.88
195.116	-5.63
195.335	-93.69
195.555	18.94
195.774	4.61
195.993	8.7
196.212	-54.78
196.432	-44.54
196.651	12.8
196.87	-36.35
197.089	49.66
197.308	-9.73
197.528	31.23
197.747	-69.12
197.966	-56.83
198.185	84.48
198.404	-17.92
198.623	-1.54
198.842	-48.64
199.062	31.23
199.281	35.33
199.5	-11.78
199.719	20.99
199.938	0.51
200.157	45.57
200.376	-19.97
200.595	10.75
200.814	29.18
201.033	-52.74
201.252	-54.78
201.471	-30.21
201.69	20.99
201.909	31.23
202.128	-34.3
202.347	-32.26
202.566	72.19
202.785	-30.21
203.004	-5.63
203.223	47.62
203.442	-9.73
203.661	10.75
203.879	35.33
204.098	-22.02
204.317	-13.82
204.536	-3.58
204.755	-44.54
204.974	16.9
205.193	25.09
205.411	-15.87
205.63	-15.87
205.849	76.29
206.068	16.9
206.287	4.61
206.505	35.33
206.724	-30.21
206.943	0.51
207.162	59.9
207.381	0.51
207.599	18.94
207.818	-46.59
208.037	-17.92
208.255	47.62
208.474	72.19
208.693	-22.02
208.911	39.42
209.13	-15.87
209.349	-26.11
209.567	-38.4
209.786	23.04
210.005	-32.26
210.223	4.61
210.442	-19.97
210.661	-11.78
210.879	16.9
211.098	76.29
211.316	45.57
211.535	-13.82
211.753	27.14
211.972	23.04
212.191	29.18
212.409	-3.58
212.628	-1.54
212.846	-5.63
213.065	23.04
213.283	-46.59
213.502	37.38
213.72	14.85
213.938	-42.5
214.157	-60.93
214.375	6.66
214.594	-91.65
214.812	-69.12
215.031	16.9
215.249	14.85
215.467	-28.16
215.686	-28.16
215.904	10.75
216.122	-34.3
216.341	20.99
216.559	-26.11
216.778	-9.73
216.996	33.28
217.214	20.99
217.432	-9.73
217.651	-9.73
217.869	-13.82
218.087	59.9
218.306	-71.17
218.524	-19.97
218.742	27.14
218.96	-30.21
219.179	35.33
219.397	-46.59
219.615	29.18
219.833	23.04
220.051	-36.35
220.27	2.56
220.488	-40.45
220.706	-19.97
220.924	41.47
221.142	2.56
221.36	-9.73
221.578	-22.02
221.796	78.33
222.015	-3.58
222.233	-67.07
222.451	-13.82
222.669	18.94
222.887	-15.87
223.105	-36.35
223.323	-5.63
223.541	-11.78
223.759	117.25
223.977	-19.97
224.195	57.86
224.413	-65.02
224.631	4.61
224.849	-13.82
225.067	0.51
225.285	25.09
225.503	-110.08
225.721	-28.16
225.939	-3.58
226.157	-17.92
226.375	-1.54
226.592	29.18
226.81	29.18
227.028	20.99
227.246	16.9
227.464	33.28
227.682	-3.58
227.9	49.66
228.117	61.95
228.335	-50.69
228.553	-40.45
228.771	-69.12
228.989	2.56
229.206	-3.58
229.424	-44.54
229.642	-22.02
229.86	-22.02
230.077	8.7
230.295	-62.98
230.513	-62.98
230.731	29.18
230.948	-9.73
231.166	16.9
231.384	-48.64
231.601	18.94
231.819	-17.92
232.037	23.04
232.254	-48.64
232.472	16.9
232.689	-7.68
232.907	25.09
233.125	39.42
233.342	-24.06
233.56	-28.16
233.777	20.99
233.995	-9.73
234.213	64
234.43	45.57
234.648	-7.68
234.865	8.7
235.083	10.75
235.3	-58.88
235.518	35.33
235.735	-85.5
235.953	2.56
236.17	-42.5
236.388	41.47
236.605	-83.45
236.822	8.7
237.04	25.09
237.257	59.9
237.475	31.23
237.692	-9.73
237.909	-44.54
238.127	-19.97
238.344	14.85
238.562	12.8
238.779	18.94
238.996	-15.87
239.214	-32.26
239.431	-38.4
239.648	20.99
239.865	37.38
240.083	0.51
240.3	-3.58
240.517	-34.3
240.735	59.9
240.952	-22.02
241.169	55.81
241.386	-9.73
241.603	70.14
241.821	-42.5
242.038	41.47
242.255	0.51
242.472	-3.58
242.689	41.47
242.907	12.8
243.124	-28.16
243.341	0.51
243.558	92.67
243.775	-22.02
243.992	-75.26
244.209	29.18
244.426	76.29
244.643	35.33
244.86	-54.78
245.078	12.8
245.295	-50.69
245.512	18.94
245.729	-17.92
245.946	-52.74
246.163	-32.26
246.38	92.67
246.597	64
246.814	31.23
247.031	18.94
247.248	74.24
247.464	-1.54
247.681	4.61
247.898	-5.63
248.115	-52.74
248.332	6.66
248.549	-26.11
248.766	70.14
248.983	18.94
249.2	-11.78
249.417	-54.78
249.633	14.85
249.85	37.38
250.067	-54.78
250.284	-22.02
250.501	-28.16
250.717	-17.92
250.934	-26.11
251.151	12.8
251.368	-9.73
251.585	-24.06
251.801	6.66
252.018	25.09
252.235	0.51
252.451	31.23
252.668	-9.73
252.885	20.99
253.102	10.75
253.318	57.86
253.535	-9.73
253.752	-13.82
253.968	-62.98
254.185	-15.87
254.401	-52.74
254.618	-44.54
254.835	-48.64
255.051	20.99
255.268	33.28
255.484	-52.74
255.701	-46.59
255.917	-26.11
256.134	-62.98
256.351	18.94
256.567	-17.92
256.784	10.75
257	-44.54
257.217	2.56
257.433	-7.68
257.65	-7.68
257.866	25.09
258.082	-46.59
258.299	-22.02
258.515	39.42
258.732	-42.5
258.948	10.75
259.165	-24.06
259.381	6.66
259.597	41.47
259.814	41.47
260.03	-30.21
260.246	14.85
260.463	-5.63
260.679	-1.54
260.895	14.85
261.112	33.28
261.328	12.8
261.544	20.99
261.761	37.38
261.977	-28.16
262.193	-17.92
262.409	6.66
262.626	-67.07
262.842	64
263.058	-9.73
263.274	-56.83
263.49	-9.73
263.707	-32.26
263.923	-5.63
264.139	0.51
264.355	-22.02
264.571	-5.63
264.787	23.04
265.004	57.86
265.22	12.8
265.436	-9.73
265.652	55.81
265.868	-50.69
266.084	47.62
266.3	12.8
266.516	2.56
266.732	6.66
266.948	-32.26
267.164	29.18
267.38	-11.78
267.596	-9.73
267.812	2.56
268.028	4.61
268.244	53.76
268.46	29.18
268.676	8.7
268.892	0.51
269.108	-40.45
269.324	-112.13
269.54	57.86
269.756	-13.82
269.972	-30.21
270.188	-3.58
270.403	8.7
270.619	-54.78
270.835	-9.73
271.051	29.18
271.267	-112.13
271.483	18.94
271.698	-34.3
271.914	25.09
272.13	33.28
272.346	14.85
272.562	43.52
272.777	10.75
272.993	0.51
273.209	-40.45
273.425	-62.98
273.64	-108.03
273.856	80.38
274.072	-69.12
274.287	23.04
274.503	-28.16
274.719	-1.54
274.934	-26.11
275.15	-26.11
275.366	72.19
275.581	14.85
275.797	29.18
276.012	4.61
276.228	18.94
276.444	14.85
276.659	23.04
276.875	-32.26
277.09	41.47
277.306	20.99
277.521	68.09
277.737	-13.82
277.952	-1.54
278.168	12.8
278.383	-19.97
278.599	25.09
278.814	-26.11
279.03	12.8
279.245	68.09
279.461	18.94
279.676	8.7
279.892	-13.82
280.107	-17.92
280.322	-15.87
280.538	29.18
280.753	-34.3
280.969	35.33
281.184	-40.45
281.399	-19.97
281.615	29.18
281.83	-81.41
282.045	-19.97
282.26	-26.11
282.476	-46.59
282.691	-17.92
282.906	8.7
283.122	23.04
283.337	-77.31
283.552	8.7
283.767	10.75
283.983	57.86
284.198	-105.98
284.413	45.57
284.628	-75.26
284.843	31.23
285.058	-77.31
285.274	-75.26
285.489	-13.82
285.704	18.94
285.919	-50.69
286.134	-52.74
286.349	-1.54
286.564	-26.11
286.779	-19.97
286.995	61.95
287.21	-22.02
287.425	41.47
287.64	-7.68
287.855	25.09
288.07	66.05
288.285	8.7
288.5	-54.78
288.715	6.66
288.93	27.14
289.145	-28.16
289.36	-26.11
289.575	-11.78
289.79	16.9
290.004	-56.83
290.219	-9.73
290.434	53.76
290.649	43.52
290.864	-34.3
291.079	-54.78
291.294	-11.78
291.509	-7.68
291.724	-28.16
291.938	27.14
292.153	76.29
292.368	-30.21
292.583	18.94
292.798	-36.35
293.012	0.51
293.227	27.14
293.442	-46.59
293.657	-58.88
293.871	-7.68
294.086	-5.63
294.301	12.8
294.516	64
294.73	2.56
294.945	-58.88
295.16	25.09
295.374	33.28
295.589	37.38
295.804	-60.93
296.018	-3.58
296.233	-9.73
296.447	-26.11
296.662	27.14
296.877	-60.93
297.091	-54.78
297.306	2.56
297.52	-58.88
297.735	37.38
297.949	-54.78
298.164	-38.4
298.378	-24.06
298.593	53.76
298.807	-83.45
299.022	47.62
299.236	20.99
299.451	4.61
299.665	23.04
299.88	-11.78
300.094	-9.73
300.309	35.33
300.523	-38.4
300.737	4.61
300.952	-22.02
301.166	-19.97
301.381	-22.02
301.595	-62.98
301.809	-24.06
302.024	51.71
302.238	-30.21
302.452	37.38
302.667	35.33
302.881	10.75
303.095	-40.45
303.309	14.85
303.524	6.66
303.738	31.23
303.952	-38.4
304.166	-1.54
304.381	-34.3
304.595	43.52
304.809	51.71
305.023	-5.63
305.237	43.52
305.452	31.23
305.666	61.95
305.88	-36.35
306.094	35.33
306.308	-17.92
306.522	31.23
306.736	23.04
306.95	-22.02
307.164	-13.82
307.379	-3.58
307.593	10.75
307.807	-26.11
308.021	18.94
308.235	4.61
308.449	23.04
308.663	-60.93
308.877	78.33
309.091	-28.16
309.305	-34.3
309.519	-15.87
309.733	-15.87
309.947	20.99
310.161	4.61
310.374	20.99
310.588	43.52
310.802	-62.98
311.016	59.9
311.23	-40.45
311.444	31.23
311.658	-56.83
311.872	18.94
312.085	41.47
312.299	23.04
312.513	-13.82
312.727	4.61
312.941	-9.73
313.154	-15.87
313.368	16.9
313.582	-7.68
313.796	16.9
314.009	27.14
314.223	25.09
314.437	-17.92
314.651	-44.54
314.864	-34.3
315.078	10.75
315.292	10.75
315.505	-52.74
315.719	6.66
315.933	31.23
316.146	39.42
316.36	-65.02
316.573	35.33
316.787	8.7
317.001	14.85
317.214	16.9
317.428	10.75
317.641	27.14
317.855	49.66
318.068	-15.87
318.282	25.09
318.495	-30.21
318.709	23.04
318.922	35.33
319.136	-19.97
319.349	27.14
319.563	12.8
319.776	29.18
319.99	-15.87
320.203	-24.06
320.417	12.8
320.63	-13.82
320.843	51.71
321.057	25.09
321.27	-15.87
321.483	8.7
321.697	37.38
321.91	25.09
322.124	-13.82
322.337	2.56
322.55	-22.02
322.763	4.61
322.977	35.33
323.19	49.66
323.403	-24.06
323.617	-26.11
323.83	61.95
324.043	33.28
324.256	43.52
324.469	-58.88
324.683	-24.06
324.896	-22.02
325.109	-26.11
325.322	-42.5
325.535	10.75
325.748	57.86
325.962	10.75
326.175	66.05
326.388	43.52
326.601	18.94
326.814	8.7
327.027	47.62
327.24	-11.78
327.453	-40.45
327.666	16.9
327.879	23.04
328.092	68.09
328.305	-38.4
328.518	18.94
328.731	27.14
328.944	6.66
329.157	-19.97
329.37	-58.88
329.583	-22.02
329.796	-9.73
330.009	-15.87
330.222	14.85
330.435	-54.78
330.648	10.75
330.861	-54.78
331.073	-7.68
331.286	-22.02
331.499	37.38
331.712	53.76
331.925	0.51
332.138	2.56
332.35	51.71
332.563	-22.02
332.776	104.96
332.989	6.66
333.202	-40.45
333.414	37.38
333.627	61.95
333.84	-52.74
334.053	-19.97
334.265	37.38
334.478	-48.64
334.691	-54.78
334.903	-1.54
335.116	8.7
335.329	4.61
335.541	6.66
335.754	14.85
335.966	-13.82
336.179	6.66
336.392	49.66
336.604	41.47
336.817	-38.4
337.029	8.7
337.242	-15.87
337.454	53.76
337.667	-81.41
337.88	25.09
338.092	25.09
338.305	16.9
338.517	-19.97
338.729	76.29
338.942	59.9
339.154	-36.35
339.367	-42.5
339.579	-30.21
339.792	18.94
340.004	31.23
340.217	-48.64
340.429	66.05
340.641	10.75
340.854	29.18
341.066	-54.78
341.278	8.7
341.491	41.47
341.703	-110.08
341.915	100.86
342.128	104.96
342.34	-56.83
342.552	-93.69
342.764	35.33
342.977	-36.35
343.189	12.8
343.401	-1.54
343.613	-34.3
343.826	6.66
344.038	20.99
344.25	-15.87
344.462	-48.64
344.674	23.04
344.886	0.51
345.099	-7.68
345.311	-28.16
345.523	-13.82
345.735	-40.45
345.947	12.8
346.159	8.7
346.371	-22.02
346.583	8.7
346.795	-30.21
347.007	-30.21
347.219	20.99
347.431	-79.36
347.643	29.18
347.855	41.47
348.067	45.57
348.279	-26.11
348.491	-15.87
348.703	-19.97
348.915	-42.5
349.127	33.28
349.339	4.61
349.551	-32.26
349.763	68.09
349.975	35.33
350.187	-56.83
350.399	-7.68
350.61	-5.63
350.822	64
351.034	-32.26
351.246	-24.06
351.458	68.09
351.669	20.99
351.881	59.9
352.093	-15.87
352.305	20.99
352.517	-17.92
352.728	-15.87
352.94	27.14
353.152	-11.78
353.363	10.75
353.575	-1.54
353.787	61.95
353.999	18.94
354.21	-22.02
354.422	-13.82
354.633	-1.54
354.845	27.14
355.057	33.28
355.268	-17.92
355.48	12.8
355.692	-3.58
355.903	37.38
356.115	6.66
356.326	-28.16
356.538	25.09
356.749	-73.21
356.961	10.75
357.172	43.52
357.384	-28.16
357.595	2.56
357.807	29.18
358.018	-46.59
358.23	14.85
358.441	25.09
358.653	-7.68
358.864	4.61
359.075	-3.58
359.287	41.47
359.498	8.7
359.709	59.9
359.921	12.8
360.132	61.95
360.344	39.42
360.555	-22.02
360.766	31.23
360.977	-28.16
361.189	6.66
361.4	-7.68
361.611	-17.92
361.823	74.24
362.034	8.7
362.245	-42.5
362.456	2.56
362.667	55.81
362.879	-15.87
363.09	-85.5
363.301	-19.97
363.512	-5.63
363.723	-17.92
363.935	-38.4
364.146	135.68
364.357	47.62
364.568	45.57
364.779	39.42
364.99	2.56
365.201	2.56
365.412	37.38
365.623	-22.02
365.834	25.09
366.045	-73.21
366.256	20.99
366.467	20.99
366.678	47.62
366.889	-32.26
367.1	84.48
367.311	-52.74
367.522	-3.58
367.733	0.51
367.944	45.57
368.155	18.94
368.366	76.29
368.577	-1.54
368.788	-42.5
368.999	23.04
369.209	20.99
369.42	-46.59
369.631	-17.92
369.842	57.86
370.053	-75.26
370.264	-1.54
370.474	37.38
370.685	27.14
370.896	-9.73
371.107	14.85
371.317	31.23
371.528	41.47
371.739	59.9
371.95	-17.92
372.16	23.04
372.371	4.61
372.582	20.99
372.792	16.9
373.003	-5.63
373.214	-9.73
373.424	-13.82
373.635	41.47
373.846	-11.78
374.056	10.75
374.267	12.8
374.477	-11.78
374.688	0.51
374.898	4.61
375.109	53.76
375.319	-5.63
375.53	-1.54
375.74	31.23
375.951	27.14
376.161	55.81
376.372	-85.5
376.582	6.66
376.793	51.71
377.003	-17.92
377.214	-46.59
377.424	-5.63
377.635	66.05
377.845	-9.73
378.055	18.94
378.266	-54.78
378.476	27.14
378.686	23.04
378.897	27.14
379.107	55.81
379.317	-28.16
379.528	12.8
379.738	23.04
379.948	10.75
380.158	23.04
380.369	39.42
380.579	16.9
380.789	-62.98
380.999	0.51
381.21	74.24
381.42	10.75
381.63	-17.92
381.84	6.66
382.05	-9.73
382.261	-46.59
382.471	18.94
382.681	-60.93
382.891	16.9
383.101	27.14
383.311	-46.59
383.521	-26.11
383.731	80.38
383.941	10.75
384.151	-32.26
384.361	55.81
384.571	41.47
384.781	-17.92
384.991	37.38
385.201	61.95
385.411	-52.74
385.621	-5.63
385.831	12.8
386.041	43.52
386.251	49.66
386.461	16.9
386.671	-5.63
386.881	-11.78
387.091	10.75
387.301	23.04
387.511	-22.02
387.72	41.47
387.93	-54.78
388.14	53.76
388.35	59.9
388.56	51.71
388.769	2.56
388.979	18.94
389.189	-52.74
389.399	-50.69
389.609	20.99
389.818	-38.4
390.028	10.75
390.238	14.85
390.447	27.14
390.657	-1.54
390.867	-22.02
391.076	-9.73
391.286	6.66
391.496	72.19
391.705	25.09
391.915	51.71
392.125	-28.16
392.334	-7.68
392.544	-44.54
392.753	39.42
392.963	39.42
393.172	-22.02
393.382	64
393.591	29.18
393.801	92.67
394.01	76.29
394.22	80.38
394.429	29.18
394.639	47.62
394.848	27.14
395.058	47.62
395.267	-17.92
395.477	39.42
395.686	-17.92
395.895	57.86
396.105	18.94
396.314	-32.26
396.524	43.52
396.733	-30.21
396.942	37.38
397.152	47.62
397.361	20.99
397.57	49.66
397.78	80.38
397.989	-24.06
398.198	66.05
398.407	-3.58
398.617	90.62
398.826	80.38
399.035	64
399.244	20.99
399.453	35.33
399.663	27.14
399.872	76.29
400.081	8.7
400.29	139.77
400.499	33.28
400.708	-44.54
400.917	4.61
401.127	86.53
401.336	-7.68
401.545	-3.58
401.754	47.62
401.963	74.24
402.172	59.9
402.381	23.04
402.59	41.47
402.799	-9.73
403.008	59.9
403.217	39.42
403.426	43.52
403.635	35.33
403.844	0.51
404.053	-3.58
404.262	66.05
404.471	51.71
404.68	59.9
404.888	29.18
405.097	78.33
405.306	23.04
405.515	47.62
405.724	66.05
405.933	88.57
406.142	68.09
406.35	86.53
406.559	35.33
406.768	143.87
406.977	117.25
407.185	88.57
407.394	104.96
407.603	51.71
407.812	78.33
408.02	61.95
408.229	123.39
408.438	12.8
408.646	86.53
408.855	100.86
409.064	125.44
409.272	129.53
409.481	94.72
409.69	64
409.898	172.54
410.107	119.29
410.315	186.88
410.524	109.05
410.733	197.12
410.941	170.49
411.15	119.29
411.358	164.35
411.567	256.51
411.775	199.16
411.984	176.64
412.192	172.54
412.401	231.93
412.609	213.5
412.818	150.01
413.026	266.75
413.234	236.03
413.443	258.56
413.651	213.5
413.86	240.12
414.068	274.94
414.276	326.14
414.485	358.91
414.693	352.76
414.901	266.75
415.11	242.17
415.318	311.8
415.526	393.72
415.734	401.91
415.943	418.3
416.151	430.59
416.359	313.85
416.567	301.56
416.776	461.3
416.984	502.26
417.192	442.87
417.4	444.92
417.608	403.96
417.817	545.27
418.025	446.97
418.233	610.81
418.441	522.74
418.649	524.79
418.857	602.61
419.065	692.73
419.273	582.14
419.481	770.55
419.689	686.58
419.897	764.4
420.105	698.87
420.313	694.77
420.521	723.44
420.729	758.26
420.937	733.68
421.145	877.04
421.353	844.28
421.561	862.71
421.769	954.87
421.977	1006.06
422.185	913.91
422.393	944.63
422.601	1112.56
422.809	1141.23
423.017	1036.78
423.224	1165.81
423.432	1159.66
423.64	1251.82
423.848	1219.05
424.056	1280.49
424.263	1303.02
424.471	1389.03
424.679	1511.91
424.887	1505.77
425.094	1534.44
425.302	1454.57
425.51	1579.5
425.718	1659.37
425.925	1579.5
426.133	1640.93
426.341	1845.73
426.548	1855.97
426.756	1808.87
426.964	1946.08
427.171	1974.75
427.379	2007.52
427.586	2144.74
427.794	2150.88
428.001	2251.23
428.209	2376.16
428.417	2449.88
428.624	2451.93
428.832	2464.22
429.039	2443.74
429.247	2458.07
429.454	2726.36
429.662	2910.68
429.869	2669.02
430.076	2951.63
430.284	2734.55
430.491	3017.17
430.699	3097.04
430.906	3109.33
431.114	3117.52
431.321	3189.2
431.528	3361.23
431.736	3510.73
431.943	3682.76
432.15	3674.57
432.358	3889.6
432.565	3752.39
432.772	3946.95
432.979	4110.79
433.187	4016.58
433.394	4139.46
433.601	4444.6
433.808	4448.7
434.016	4358.59
434.223	4669.88
434.43	5052.85
434.637	4794.81
434.844	5040.56
435.052	5011.89
435.259	5128.63
435.466	5257.65
435.673	5269.94
435.88	5454.25
436.087	5976.48
436.294	5835.17
436.501	5560.75
436.708	5796.26
436.915	6082.98
437.122	6263.2
437.329	6351.26
437.537	6685.08
437.743	6513.05
437.95	6429.09
438.157	6982.04
438.364	7004.57
438.571	6955.41
438.778	7051.67
438.985	7721.35
439.192	7534.99
439.399	7745.93
439.606	7440.78
439.813	7922.06
440.02	8440.19
440.227	8350.08
440.433	8343.94
440.64	8726.91
440.847	8405.38
441.054	8550.78
441.261	9296.24
441.467	9273.71
441.674	9337.2
441.881	9726.32
442.088	9593.2
442.294	9462.13
442.501	9810.28
442.708	10185.06
442.914	10279.27
443.121	10840.41
443.328	10473.82
443.534	11096.41
443.741	11055.45
443.948	10770.78
444.154	11575.63
444.361	11454.8
444.568	11723.09
444.774	11751.76
444.981	11823.44
445.187	12024.14
445.394	12509.51
445.6	12435.78
445.807	13642.03
446.013	12978.49
446.22	13361.46
446.426	13932.84
446.633	14045.48
446.839	14418.21
447.046	13674.8
447.252	14694.69
447.459	14731.55
447.665	14539.04
447.871	15264.02
448.078	15890.7
448.284	15042.84
448.491	15345.94
448.697	16079.11
448.903	16427.27
449.11	16584.96
449.316	16400.65
449.522	16550.15
449.728	16797.95
449.935	17389.81
450.141	17180.92
450.347	17377.53
450.553	17131.77
450.76	16957.69
450.966	17893.61
451.172	17701.11
451.378	18262.25
451.584	17735.92
451.791	18045.16
451.997	18028.78
452.203	18518.25
452.409	18489.57
452.615	18084.08
452.821	17914.09
453.027	17342.71
453.233	18606.31
453.44	17821.94
453.646	17924.33
453.852	18372.84
454.058	18393.32
454.264	17678.58
454.47	18133.23
454.676	17740.02
454.882	18372.84
455.088	16673.03
455.294	17246.46
455.5	17262.84
455.705	17512.69
455.911	16810.24
456.117	16419.08
456.323	16374.02
456.529	15620.37
456.735	15997.2
456.941	15694.1
457.147	15460.63
457.352	14862.62
457.558	14735.65
457.764	14870.81
457.97	14465.32
458.176	14227.75
458.381	14407.97
458.587	13836.59
458.793	13701.42
458.999	12806.46
459.204	13840.68
459.41	13572.4
459.616	12609.86
459.821	12673.34
460.027	12466.5
460.233	12396.87
460.438	11739.47
460.644	11893.07
460.85	11331.92
461.055	11080.02
461.261	11223.38
461.466	10178.92
461.672	10094.95
461.878	10807.64
462.083	9924.97
462.289	9888.11
462.494	9773.42
462.7	9361.78
462.905	9218.42
463.111	9486.7
463.316	9490.8
463.522	9269.62
463.727	9361.78
463.932	9447.79
464.138	9179.51
464.343	9337.2
464.549	9111.92
464.754	9218.42
464.959	9195.89
465.165	9214.32
465.37	8718.71
465.575	8628.6
465.781	9046.39
465.986	9017.72
466.191	8747.39
466.397	8440.19
466.602	8130.95
466.807	8511.87
467.012	8393.09
467.218	8225.15
