Data from USB4F104151__81__12-54-47-028.txt Node

Date: Fri Mar 14 12:54:47 EDT 2025
User: louis
Spectrometer: USB4F10415
Trigger mode: 4
Integration Time (sec): 1.000000E-2
Scans to average: 1
Electric dark correction enabled: true
Nonlinearity correction enabled: false
Boxcar width: 0
XAxis mode: Wavelengths
Number of Pixels in Spectrum: 3648
>>>>>Begin Spectral Data<<<<<
178.204	-53.08
178.424	-53.08
178.644	-53.08
178.864	-126.8
179.084	14.51
179.304	-1.88
179.524	-69.46
179.744	2.22
179.964	45.23
180.184	-20.31
180.404	-53.08
180.624	-42.84
180.844	10.41
181.064	4.27
181.283	47.27
181.503	73.9
181.723	4.27
181.943	-46.93
182.163	65.71
182.383	-8.02
182.602	-36.69
182.822	45.23
183.042	-32.6
183.262	-8.02
183.482	-79.7
183.701	2.22
183.921	-34.64
184.141	51.37
184.361	-8.02
184.58	-5.97
184.8	-3.93
185.02	-40.79
185.239	-34.64
185.459	59.56
185.679	6.31
185.898	-22.36
186.118	6.31
186.338	10.41
186.557	-10.07
186.777	-30.55
186.997	32.94
187.216	65.71
187.436	26.79
187.655	-16.21
187.875	75.95
188.095	14.51
188.314	0.17
188.534	-3.93
188.753	43.18
188.973	45.23
189.192	57.51
189.412	-16.21
189.631	10.41
189.851	-34.64
190.07	16.55
190.29	-48.98
190.509	2.22
190.729	0.17
190.948	45.23
191.168	100.52
191.387	16.55
191.607	-18.26
191.826	-16.21
192.045	32.94
192.265	63.66
192.484	-1.88
192.704	28.84
192.923	41.13
193.142	110.76
193.362	-26.45
193.581	-18.26
193.8	-59.22
194.02	63.66
194.239	18.6
194.458	26.79
194.678	-48.98
194.897	-26.45
195.116	-32.6
195.335	49.32
195.555	-36.69
195.774	69.8
195.993	-26.45
196.212	-5.97
196.432	-24.4
196.651	-22.36
196.87	14.51
197.089	16.55
197.308	86.19
197.528	-26.45
197.747	-20.31
197.966	2.22
198.185	16.55
198.404	-16.21
198.623	24.75
198.842	-44.88
199.062	4.27
199.281	16.55
199.5	-10.07
199.719	-8.02
199.938	-18.26
200.157	47.27
200.376	30.89
200.595	16.55
200.814	2.22
201.033	6.31
201.252	59.56
201.471	63.66
201.69	-83.8
201.909	-8.02
202.128	32.94
202.347	-18.26
202.566	-67.41
202.785	-22.36
203.004	47.27
203.223	0.17
203.442	57.51
203.661	-12.12
203.879	-61.27
204.098	30.89
204.317	-30.55
204.536	18.6
204.755	-26.45
204.974	-34.64
205.193	-30.55
205.411	57.51
205.63	-44.88
205.849	-87.89
206.068	-42.84
206.287	-34.64
206.505	-48.98
206.724	-20.31
206.943	22.7
207.162	4.27
207.381	18.6
207.599	-51.03
207.818	-30.55
208.037	34.99
208.255	-16.21
208.474	-24.4
208.693	-73.56
208.911	22.7
209.13	-12.12
209.349	-20.31
209.567	-24.4
209.786	2.22
210.005	12.46
210.223	59.56
210.442	-24.4
210.661	-20.31
210.879	37.03
211.098	-40.79
211.316	-1.88
211.535	18.6
211.753	4.27
211.972	30.89
212.191	20.65
212.409	-24.4
212.628	0.17
212.846	10.41
213.065	28.84
213.283	-24.4
213.502	-30.55
213.72	6.31
213.938	-44.88
214.157	2.22
214.375	32.94
214.594	-8.02
214.812	-38.74
215.031	47.27
215.249	-20.31
215.467	20.65
215.686	20.65
215.904	30.89
216.122	8.36
216.341	16.55
216.559	67.75
216.778	73.9
216.996	-36.69
217.214	-10.07
217.432	6.31
217.651	28.84
217.869	0.17
218.087	14.51
218.306	34.99
218.524	14.51
218.742	-1.88
218.96	63.66
219.179	-79.7
219.397	8.36
219.615	4.27
219.833	61.61
220.051	16.55
220.27	10.41
220.488	-57.17
220.706	-8.02
220.924	-46.93
221.142	2.22
221.36	-28.5
221.578	16.55
221.796	0.17
222.015	59.56
222.233	45.23
222.451	47.27
222.669	16.55
222.887	-1.88
223.105	0.17
223.323	-26.45
223.541	14.51
223.759	2.22
223.977	24.75
224.195	30.89
224.413	-18.26
224.631	-1.88
224.849	24.75
225.067	34.99
225.285	2.22
225.503	30.89
225.721	57.51
225.939	-53.08
226.157	14.51
226.375	37.03
226.592	8.36
226.81	14.51
227.028	32.94
227.246	41.13
227.464	-26.45
227.682	90.28
227.9	45.23
228.117	12.46
228.335	2.22
228.553	-40.79
228.771	24.75
228.989	43.18
229.206	67.75
229.424	-3.93
229.642	41.13
229.86	-34.64
230.077	59.56
230.295	41.13
230.513	-1.88
230.731	-8.02
230.948	-30.55
231.166	-8.02
231.384	4.27
231.601	14.51
231.819	24.75
232.037	-18.26
232.254	-1.88
232.472	-18.26
232.689	-26.45
232.907	-36.69
233.125	-32.6
233.342	-26.45
233.56	55.47
233.777	-30.55
233.995	8.36
234.213	-1.88
234.43	24.75
234.648	-18.26
234.865	-38.74
235.083	45.23
235.3	14.51
235.518	6.31
235.735	30.89
235.953	6.31
236.17	-44.88
236.388	-16.21
236.605	-46.93
236.822	80.04
237.04	34.99
237.257	51.37
237.475	41.13
237.692	-18.26
237.909	-1.88
238.127	59.56
238.344	82.09
238.562	12.46
238.779	-36.69
238.996	-30.55
239.214	-10.07
239.431	67.75
239.648	-30.55
239.865	8.36
240.083	-32.6
240.3	-16.21
240.517	43.18
240.735	-22.36
240.952	-12.12
241.169	14.51
241.386	-22.36
241.603	26.79
241.821	-12.12
242.038	-8.02
242.255	-22.36
242.472	-30.55
242.689	32.94
242.907	30.89
243.124	-16.21
243.341	47.27
243.558	-30.55
243.775	8.36
243.992	-40.79
244.209	-65.36
244.426	71.85
244.643	-1.88
244.86	2.22
245.078	-28.5
245.295	39.08
245.512	14.51
245.729	-22.36
245.946	65.71
246.163	20.65
246.38	37.03
246.597	26.79
246.814	34.99
247.031	53.42
247.248	112.81
247.464	16.55
247.681	2.22
247.898	32.94
248.115	53.42
248.332	8.36
248.549	41.13
248.766	90.28
248.983	75.95
249.2	-40.79
249.417	-26.45
249.633	-3.93
249.85	8.36
250.067	-24.4
250.284	28.84
250.501	53.42
250.717	-42.84
250.934	65.71
251.151	34.99
251.368	-16.21
251.585	63.66
251.801	-12.12
252.018	-32.6
252.235	34.99
252.451	30.89
252.668	10.41
252.885	39.08
253.102	-30.55
253.318	16.55
253.535	14.51
253.752	28.84
253.968	45.23
254.185	14.51
254.401	43.18
254.618	-8.02
254.835	-5.97
255.051	51.37
255.268	-59.22
255.484	47.27
255.701	37.03
255.917	37.03
256.134	2.22
256.351	8.36
256.567	20.65
256.784	59.56
257	-34.64
257.217	8.36
257.433	90.28
257.65	24.75
257.866	-22.36
258.082	-22.36
258.299	14.51
258.515	10.41
258.732	57.51
258.948	-46.93
259.165	-16.21
259.381	32.94
259.597	73.9
259.814	86.19
260.03	-1.88
260.246	-16.21
260.463	49.32
260.679	-12.12
260.895	-5.97
261.112	-20.31
261.328	22.7
261.544	8.36
261.761	-55.12
261.977	12.46
262.193	-3.93
262.409	30.89
262.626	4.27
262.842	-3.93
263.058	-55.12
263.274	65.71
263.49	-8.02
263.707	-1.88
263.923	2.22
264.139	16.55
264.355	-10.07
264.571	18.6
264.787	8.36
265.004	-24.4
265.22	-3.93
265.436	-8.02
265.652	-48.98
265.868	-8.02
266.084	-10.07
266.3	-12.12
266.516	-1.88
266.732	-10.07
266.948	-87.89
267.164	-14.17
267.38	47.27
267.596	-24.4
267.812	39.08
268.028	-20.31
268.244	-36.69
268.46	26.79
268.676	53.42
268.892	16.55
269.108	-16.21
269.324	49.32
269.54	2.22
269.756	-18.26
269.972	2.22
270.188	30.89
270.403	-22.36
270.619	12.46
270.835	-53.08
271.051	51.37
271.267	-1.88
271.483	-20.31
271.698	30.89
271.914	39.08
272.13	-22.36
272.346	65.71
272.562	-69.46
272.777	4.27
272.993	-14.17
273.209	-30.55
273.425	28.84
273.64	67.75
273.856	-48.98
274.072	-40.79
274.287	-8.02
274.503	-16.21
274.719	57.51
274.934	45.23
275.15	-5.97
275.366	-26.45
275.581	-51.03
275.797	2.22
276.012	-24.4
276.228	-14.17
276.444	0.17
276.659	49.32
276.875	-59.22
277.09	55.47
277.306	-44.88
277.521	30.89
277.737	0.17
277.952	-5.97
278.168	-38.74
278.383	-30.55
278.599	-24.4
278.814	18.6
279.03	16.55
279.245	22.7
279.461	22.7
279.676	69.8
279.892	41.13
280.107	8.36
280.322	37.03
280.538	-42.84
280.753	8.36
280.969	22.7
281.184	0.17
281.399	-1.88
281.615	32.94
281.83	-55.12
282.045	-30.55
282.26	-24.4
282.476	-10.07
282.691	47.27
282.906	8.36
283.122	-5.97
283.337	16.55
283.552	6.31
283.767	16.55
283.983	30.89
284.198	22.7
284.413	80.04
284.628	-46.93
284.843	-18.26
285.058	8.36
285.274	41.13
285.489	-44.88
285.704	47.27
285.919	30.89
286.134	-26.45
286.349	26.79
286.564	34.99
286.779	16.55
286.995	22.7
287.21	-8.02
287.425	32.94
287.64	-51.03
287.855	0.17
288.07	37.03
288.285	-8.02
288.5	10.41
288.715	-24.4
288.93	18.6
289.145	32.94
289.36	63.66
289.575	47.27
289.79	43.18
290.004	43.18
290.219	12.46
290.434	-20.31
290.649	49.32
290.864	-16.21
291.079	-16.21
291.294	59.56
291.509	14.51
291.724	-20.31
291.938	-30.55
292.153	34.99
292.368	24.75
292.583	41.13
292.798	-16.21
293.012	28.84
293.227	18.6
293.442	12.46
293.657	12.46
293.871	24.75
294.086	6.31
294.301	-44.88
294.516	-12.12
294.73	10.41
294.945	-44.88
295.16	-16.21
295.374	43.18
295.589	-55.12
295.804	14.51
296.018	-1.88
296.233	34.99
296.447	2.22
296.662	6.31
296.877	30.89
297.091	-32.6
297.306	-32.6
297.52	16.55
297.735	51.37
297.949	-36.69
298.164	14.51
298.378	-71.51
298.593	28.84
298.807	-46.93
299.022	-10.07
299.236	24.75
299.451	51.37
299.665	6.31
299.88	6.31
300.094	6.31
300.309	18.6
300.523	8.36
300.737	24.75
300.952	26.79
301.166	6.31
301.381	39.08
301.595	92.33
301.809	43.18
302.024	14.51
302.238	2.22
302.452	18.6
302.667	-38.74
302.881	10.41
303.095	-20.31
303.309	-16.21
303.524	6.31
303.738	12.46
303.952	16.55
304.166	18.6
304.381	8.36
304.595	96.43
304.809	-42.84
305.023	14.51
305.237	34.99
305.452	-34.64
305.666	32.94
305.88	24.75
306.094	39.08
306.308	-36.69
306.522	-3.93
306.736	16.55
306.95	-10.07
307.164	24.75
307.379	32.94
307.593	12.46
307.807	18.6
308.021	37.03
308.235	92.33
308.449	-51.03
308.663	-34.64
308.877	-16.21
309.091	18.6
309.305	22.7
309.519	-30.55
309.733	-14.17
309.947	-59.22
310.161	51.37
310.374	-18.26
310.588	-5.97
310.802	18.6
311.016	47.27
311.23	-12.12
311.444	28.84
311.658	-16.21
311.872	12.46
312.085	73.9
312.299	-16.21
312.513	12.46
312.727	-46.93
312.941	-8.02
313.154	6.31
313.368	4.27
313.582	47.27
313.796	32.94
314.009	-36.69
314.223	-12.12
314.437	22.7
314.651	4.27
314.864	14.51
315.078	-16.21
315.292	30.89
315.505	-36.69
315.719	18.6
315.933	37.03
316.146	18.6
316.36	-16.21
316.573	-28.5
316.787	-18.26
317.001	118.95
317.214	-20.31
317.428	20.65
317.641	-28.5
317.855	14.51
318.068	-77.65
318.282	10.41
318.495	92.33
318.709	-42.84
318.922	12.46
319.136	22.7
319.349	30.89
319.563	32.94
319.776	47.27
319.99	-28.5
320.203	20.65
320.417	26.79
320.63	-40.79
320.843	14.51
321.057	53.42
321.27	10.41
321.483	14.51
321.697	-40.79
321.91	57.51
322.124	24.75
322.337	6.31
322.55	-94.04
322.763	-14.17
322.977	-20.31
323.19	-16.21
323.403	26.79
323.617	41.13
323.83	30.89
324.043	47.27
324.256	39.08
324.469	-28.5
324.683	-65.36
324.896	28.84
325.109	26.79
325.322	0.17
325.535	53.42
325.748	24.75
325.962	20.65
326.175	34.99
326.388	-3.93
326.601	-42.84
326.814	41.13
327.027	14.51
327.24	82.09
327.453	12.46
327.666	57.51
327.879	47.27
328.092	20.65
328.305	-77.65
328.518	-57.17
328.731	14.51
328.944	8.36
329.157	-5.97
329.37	12.46
329.583	88.23
329.796	6.31
330.009	65.71
330.222	65.71
330.435	16.55
330.648	2.22
330.861	-26.45
331.073	-1.88
331.286	57.51
331.499	30.89
331.712	-61.27
331.925	-10.07
332.138	37.03
332.35	8.36
332.563	-30.55
332.776	14.51
332.989	-30.55
333.202	39.08
333.414	22.7
333.627	39.08
333.84	51.37
334.053	8.36
334.265	-18.26
334.478	75.95
334.691	67.75
334.903	-28.5
335.116	-94.04
335.329	0.17
335.541	2.22
335.754	59.56
335.966	32.94
336.179	47.27
336.392	-51.03
336.604	-3.93
336.817	24.75
337.029	41.13
337.242	55.47
337.454	-18.26
337.667	20.65
337.88	55.47
338.092	30.89
338.305	-10.07
338.517	-26.45
338.729	18.6
338.942	22.7
339.154	69.8
339.367	-36.69
339.579	45.23
339.792	0.17
340.004	39.08
340.217	6.31
340.429	14.51
340.641	37.03
340.854	39.08
341.066	-18.26
341.278	-1.88
341.491	26.79
341.703	51.37
341.915	-48.98
342.128	32.94
342.34	-8.02
342.552	53.42
342.764	-28.5
342.977	16.55
343.189	16.55
343.401	-44.88
343.613	14.51
343.826	12.46
344.038	-28.5
344.25	41.13
344.462	55.47
344.674	65.71
344.886	8.36
345.099	20.65
345.311	16.55
345.523	0.17
345.735	-10.07
345.947	-3.93
346.159	12.46
346.371	-69.46
346.583	43.18
346.795	-18.26
347.007	-38.74
347.219	4.27
347.431	41.13
347.643	6.31
347.855	-5.97
348.067	55.47
348.279	6.31
348.491	-16.21
348.703	26.79
348.915	26.79
349.127	-12.12
349.339	14.51
349.551	14.51
349.763	-24.4
349.975	88.23
350.187	-67.41
350.399	12.46
350.61	57.51
350.822	43.18
351.034	-10.07
351.246	18.6
351.458	32.94
351.669	37.03
351.881	49.32
352.093	-12.12
352.305	6.31
352.517	59.56
352.728	-18.26
352.94	24.75
353.152	41.13
353.363	28.84
353.575	-38.74
353.787	41.13
353.999	-18.26
354.21	26.79
354.422	30.89
354.633	16.55
354.845	92.33
355.057	30.89
355.268	-16.21
355.48	20.65
355.692	-40.79
355.903	43.18
356.115	-67.41
356.326	-1.88
356.538	43.18
356.749	80.04
356.961	28.84
357.172	39.08
357.384	18.6
357.595	-24.4
357.807	-59.22
358.018	-22.36
358.23	18.6
358.441	14.51
358.653	49.32
358.864	10.41
359.075	-1.88
359.287	20.65
359.498	24.75
359.709	-8.02
359.921	-102.23
360.132	65.71
360.344	59.56
360.555	71.85
360.766	57.51
360.977	69.8
361.189	32.94
361.4	-96.08
361.611	-18.26
361.823	47.27
362.034	14.51
362.245	-67.41
362.456	-96.08
362.667	10.41
362.879	49.32
363.09	51.37
363.301	22.7
363.512	-63.32
363.723	-42.84
363.935	8.36
364.146	-36.69
364.357	73.9
364.568	-24.4
364.779	-26.45
364.99	-55.12
365.201	24.75
365.412	12.46
365.623	28.84
365.834	22.7
366.045	45.23
366.256	37.03
366.467	14.51
366.678	30.89
366.889	-5.97
367.1	-30.55
367.311	-73.56
367.522	80.04
367.733	-36.69
367.944	10.41
368.155	-12.12
368.366	-18.26
368.577	75.95
368.788	4.27
368.999	-42.84
369.209	-32.6
369.42	45.23
369.631	34.99
369.842	73.9
370.053	41.13
370.264	-34.64
370.474	6.31
370.685	-38.74
370.896	67.75
371.107	-1.88
371.317	-14.17
371.528	45.23
371.739	-12.12
371.95	75.95
372.16	6.31
372.371	-5.97
372.582	104.62
372.792	22.7
373.003	-26.45
373.214	26.79
373.424	14.51
373.635	24.75
373.846	108.71
374.056	75.95
374.267	4.27
374.477	39.08
374.688	-1.88
374.898	-5.97
375.109	6.31
375.319	-12.12
375.53	53.42
375.74	12.46
375.951	61.61
376.161	-3.93
376.372	67.75
376.582	-65.36
376.793	28.84
377.003	-48.98
377.214	104.62
377.424	63.66
377.635	-59.22
377.845	-32.6
378.055	-34.64
378.266	39.08
378.476	-34.64
378.686	16.55
378.897	49.32
379.107	-26.45
379.317	69.8
379.528	-28.5
379.738	26.79
379.948	-32.6
380.158	-16.21
380.369	16.55
380.579	26.79
380.789	-18.26
380.999	-12.12
381.21	47.27
381.42	0.17
381.63	16.55
381.84	10.41
382.05	34.99
382.261	10.41
382.471	-26.45
382.681	-8.02
382.891	-18.26
383.101	37.03
383.311	75.95
383.521	22.7
383.731	8.36
383.941	90.28
384.151	4.27
384.361	0.17
384.571	-40.79
384.781	63.66
384.991	16.55
385.201	34.99
385.411	6.31
385.621	8.36
385.831	16.55
386.041	4.27
386.251	-44.88
386.461	41.13
386.671	63.66
386.881	-42.84
387.091	10.41
387.301	82.09
387.511	37.03
387.72	41.13
387.93	0.17
388.14	-55.12
388.35	32.94
388.56	51.37
388.769	28.84
388.979	61.61
389.189	39.08
389.399	34.99
389.609	92.33
389.818	18.6
390.028	26.79
390.238	59.56
390.447	16.55
390.657	4.27
390.867	24.75
391.076	-8.02
391.286	0.17
391.496	-26.45
391.705	22.7
391.915	-32.6
392.125	45.23
392.334	16.55
392.544	92.33
392.753	18.6
392.963	-63.32
393.172	45.23
393.382	53.42
393.591	53.42
393.801	51.37
394.01	43.18
394.22	39.08
394.429	55.47
394.639	14.51
394.848	26.79
395.058	-59.22
395.267	22.7
395.477	37.03
395.686	55.47
395.895	18.6
396.105	94.38
396.314	57.51
396.524	41.13
396.733	18.6
396.942	16.55
397.152	-18.26
397.361	65.71
397.57	4.27
397.78	-20.31
397.989	65.71
398.198	98.47
398.407	43.18
398.617	22.7
398.826	-18.26
399.035	41.13
399.244	39.08
399.453	108.71
399.663	55.47
399.872	49.32
400.081	104.62
400.29	90.28
400.499	-26.45
400.708	102.57
400.917	2.22
401.127	63.66
401.336	30.89
401.545	133.29
401.754	0.17
401.963	94.38
402.172	0.17
402.381	47.27
402.59	-32.6
402.799	80.04
403.008	-16.21
403.217	69.8
403.426	-30.55
403.635	65.71
403.844	12.46
404.053	28.84
404.262	86.19
404.471	28.84
404.68	49.32
404.888	-14.17
405.097	75.95
405.306	75.95
405.515	75.95
405.724	-22.36
405.933	57.51
406.142	51.37
406.35	14.51
406.559	65.71
406.768	86.19
406.977	121
407.185	112.81
407.394	88.23
407.603	108.71
407.812	92.33
408.02	73.9
408.229	86.19
408.438	112.81
408.646	143.53
408.855	116.9
409.064	125.1
409.272	24.75
409.481	202.92
409.69	125.1
409.898	137.38
410.107	65.71
410.315	143.53
410.524	143.53
410.733	137.38
410.941	69.8
411.15	86.19
411.358	157.86
411.567	243.88
411.775	159.91
411.984	133.29
412.192	131.24
412.401	241.83
412.609	198.82
412.818	174.25
413.026	241.83
413.234	182.44
413.443	254.12
413.651	166.06
413.86	286.89
414.068	254.12
414.276	239.78
414.485	221.35
414.693	264.36
414.901	276.65
415.11	282.79
415.318	305.32
415.526	311.46
415.734	309.41
415.943	278.69
416.151	348.33
416.359	338.09
416.567	327.85
416.776	403.62
416.984	426.15
417.192	501.92
417.4	475.3
417.608	460.96
417.817	420
418.025	465.06
418.233	506.02
418.441	465.06
418.649	499.88
418.857	536.74
419.065	559.27
419.273	637.09
419.481	651.42
419.689	655.52
419.897	669.86
420.105	651.42
420.313	706.72
420.521	667.81
420.729	604.32
420.937	759.97
421.145	766.11
421.353	796.83
421.561	866.46
421.769	903.32
421.977	878.75
422.185	817.31
422.393	915.61
422.601	995.48
422.809	989.34
423.017	958.62
423.224	1050.78
423.432	1118.36
423.64	1132.7
423.848	1136.79
424.056	1233.05
424.263	1282.2
424.471	1245.34
424.679	1263.77
424.887	1396.89
425.094	1362.07
425.302	1355.93
425.51	1575.06
425.718	1456.28
425.925	1509.52
426.133	1609.87
426.341	1630.35
426.548	1769.62
426.756	1747.09
426.964	1630.35
427.171	1802.38
427.379	1960.08
427.586	1898.64
427.794	1974.41
428.001	2031.76
428.209	2201.74
428.417	2056.33
428.624	2201.74
428.832	2220.17
429.039	2349.19
429.247	2254.98
429.454	2515.08
429.662	2615.43
429.869	2390.15
430.076	2689.15
430.284	2459.78
430.491	2726.02
430.699	2859.14
430.906	2834.56
431.114	2928.77
431.321	3045.5
431.528	3111.04
431.736	3256.44
431.943	3358.84
432.15	3231.87
432.358	3334.26
432.565	3455.09
432.772	3547.25
432.979	3653.75
433.187	3874.93
433.394	3942.51
433.601	4063.34
433.808	4051.05
434.016	4096.11
434.223	4112.49
434.43	4380.78
434.637	4499.56
434.844	4655.2
435.052	4687.97
435.259	4722.79
435.466	4649.06
435.673	4591.72
435.88	5013.6
436.087	5326.94
436.294	5271.64
436.501	5183.58
436.708	5263.45
436.915	5541.97
437.122	5558.36
437.329	5636.18
437.537	5867.6
437.743	5920.85
437.95	5793.87
438.157	6180.94
438.364	6299.72
438.571	6469.7
438.778	6471.75
438.985	6965.31
439.192	6813.76
439.399	6955.07
439.606	6807.62
439.813	7295.04
440.02	7725.11
440.227	7555.13
440.433	7297.08
440.64	7827.51
440.847	7753.78
441.054	7925.81
441.261	8345.64
441.467	8099.89
441.674	8429.61
441.881	8589.35
442.088	8755.24
442.294	8736.81
442.501	9003.04
442.708	9025.57
442.914	9443.35
443.121	9801.75
443.328	9545.75
443.534	10231.82
443.741	9850.9
443.948	9750.55
444.154	10514.44
444.361	10401.8
444.568	10528.78
444.774	10563.59
444.981	10745.86
445.187	10960.9
445.394	11421.69
445.6	11393.02
445.807	12476.4
446.013	11737.08
446.22	12091.38
446.426	12795.88
446.633	12668.91
446.839	13223.9
447.046	12673
447.252	13318.11
447.459	13330.4
447.665	13311.97
447.871	13959.13
448.078	14702.54
448.284	13854.68
448.491	14206.93
448.697	14819.27
448.903	15114.18
449.11	15028.17
449.316	14878.66
449.522	15083.46
449.728	15491.01
449.935	15497.15
450.141	15720.38
450.347	15890.36
450.553	15351.74
450.76	15779.77
450.966	16197.56
451.172	15998.9
451.378	16523.18
451.584	16041.91
451.791	16531.37
451.997	16488.37
452.203	16940.97
452.409	16844.71
452.615	16418.74
452.821	16222.13
453.027	15941.56
453.233	16689.07
453.44	16019.38
453.646	16275.38
453.852	16330.67
454.058	16938.92
454.264	16418.74
454.47	16555.95
454.676	15986.61
454.882	16664.49
455.088	15378.37
455.294	15513.53
455.5	15501.25
455.705	15589.31
455.911	15192
456.117	14911.43
456.323	14655.44
456.529	13842.39
456.735	14471.12
456.941	14116.82
457.147	13764.57
457.352	13424.61
457.558	13391.84
457.764	13316.06
457.97	13129.7
458.176	13121.51
458.381	12718.06
458.587	12138.48
458.793	12253.17
458.999	11806.71
459.204	12427.25
459.41	12017.65
459.616	11175.94
459.821	11026.43
460.027	11102.21
460.233	10825.73
460.438	10543.11
460.644	10563.59
460.85	10041.36
461.055	9992.21
461.261	9801.75
461.466	9168.93
461.672	8957.99
461.878	9650.2
462.083	8874.02
462.289	8695.85
462.494	8673.32
462.7	8294.44
462.905	7886.9
463.111	8347.69
463.316	8241.2
463.522	8067.12
463.727	8298.54
463.932	8296.49
464.138	8151.09
464.343	8083.5
464.549	7778.36
464.754	8171.57
464.959	8118.32
465.165	7913.52
465.37	7700.53
465.575	7565.37
465.781	7772.21
465.986	7852.08
466.191	7555.13
466.397	7460.92
466.602	7247.93
466.807	7483.45
467.012	7219.26
467.218	7262.27
467.423	7161.92
467.628	7075.9
467.833	7499.83
468.038	7206.97
468.244	7075.9
