Data from USB4F104151__8__12-53-09-109.txt Node

Date: Fri Mar 14 12:53:09 EDT 2025
User: louis
Spectrometer: USB4F10415
Trigger mode: 4
Integration Time (sec): 1.000000E-2
Scans to average: 1
Electric dark correction enabled: true
Nonlinearity correction enabled: false
Boxcar width: 0
XAxis mode: Wavelengths
Number of Pixels in Spectrum: 3648
>>>>>Begin Spectral Data<<<<<
178.204	-27.65
178.424	-27.65
178.644	-27.65
178.864	-68.61
179.084	-74.75
179.304	35.84
179.524	-39.94
179.744	-52.22
179.964	60.42
180.184	-33.79
180.404	-9.22
180.624	-39.94
180.844	27.65
181.064	-23.55
181.283	11.26
181.503	66.56
181.723	-3.07
181.943	5.12
182.163	-11.26
182.383	13.31
182.602	23.55
182.822	5.12
183.042	-27.65
183.262	-5.12
183.482	-9.22
183.701	1.02
183.921	-37.89
184.141	-7.17
184.361	-31.74
184.58	-29.7
184.8	35.84
185.02	-39.94
185.239	76.8
185.459	-60.42
185.679	13.31
185.898	15.36
186.118	3.07
186.338	-48.13
186.557	25.6
186.777	-29.7
186.997	-39.94
187.216	-25.6
187.436	46.08
187.655	3.07
187.875	19.46
188.095	-37.89
188.314	27.65
188.534	-23.55
188.753	-29.7
188.973	-5.12
189.192	-9.22
189.412	27.65
189.631	-113.66
189.851	-44.03
190.07	-7.17
190.29	-74.75
190.509	21.5
190.729	-31.74
190.948	-39.94
191.168	7.17
191.387	-64.51
191.607	-62.46
191.826	19.46
192.045	-33.79
192.265	-33.79
192.484	-33.79
192.704	-44.03
192.923	-23.55
193.142	25.6
193.362	19.46
193.581	13.31
193.8	-15.36
194.02	-23.55
194.239	3.07
194.458	27.65
194.678	5.12
194.897	-1.02
195.116	-9.22
195.335	-19.46
195.555	-1.02
195.774	99.33
195.993	58.37
196.212	72.7
196.432	-50.18
196.651	-9.22
196.87	-19.46
197.089	-23.55
197.308	-48.13
197.528	17.41
197.747	-66.56
197.966	99.33
198.185	44.03
198.404	-35.84
198.623	-89.09
198.842	-9.22
199.062	-19.46
199.281	-27.65
199.5	5.12
199.719	-15.36
199.938	52.22
200.157	3.07
200.376	-50.18
200.595	-23.55
200.814	-23.55
201.033	58.37
201.252	76.8
201.471	-33.79
201.69	1.02
201.909	13.31
202.128	-25.6
202.347	-11.26
202.566	-1.02
202.785	29.7
203.004	-9.22
203.223	29.7
203.442	31.74
203.661	-5.12
203.879	72.7
204.098	13.31
204.317	-25.6
204.536	37.89
204.755	-7.17
204.974	3.07
205.193	17.41
205.411	70.65
205.63	-5.12
205.849	-50.18
206.068	-21.5
206.287	17.41
206.505	-37.89
206.724	-13.31
206.943	-46.08
207.162	-21.5
207.381	-56.32
207.599	-19.46
207.818	39.94
208.037	19.46
208.255	-15.36
208.474	-23.55
208.693	11.26
208.911	13.31
209.13	17.41
209.349	-29.7
209.567	-31.74
209.786	-19.46
210.005	9.22
210.223	-17.41
210.442	7.17
210.661	-52.22
210.879	11.26
211.098	-5.12
211.316	-1.02
211.535	21.5
211.753	-48.13
211.972	87.04
212.191	-11.26
212.409	68.61
212.628	-35.84
212.846	-9.22
213.065	50.18
213.283	-19.46
213.502	-31.74
213.72	-15.36
213.938	-21.5
214.157	68.61
214.375	-25.6
214.594	-27.65
214.812	5.12
215.031	13.31
215.249	-44.03
215.467	-39.94
215.686	13.31
215.904	-48.13
216.122	-29.7
216.341	78.85
216.559	-54.27
216.778	33.79
216.996	19.46
217.214	-35.84
217.432	-21.5
217.651	-9.22
217.869	-33.79
218.087	-7.17
218.306	-29.7
218.524	13.31
218.742	-41.98
218.96	39.94
219.179	-29.7
219.397	56.32
219.615	-41.98
219.833	-13.31
220.051	-54.27
220.27	-44.03
220.488	-23.55
220.706	17.41
220.924	-68.61
221.142	41.98
221.36	-13.31
221.578	-48.13
221.796	-23.55
222.015	56.32
222.233	-37.89
222.451	35.84
222.669	19.46
222.887	-13.31
223.105	-89.09
223.323	23.55
223.541	21.5
223.759	-21.5
223.977	-9.22
224.195	-35.84
224.413	-56.32
224.631	-33.79
224.849	13.31
225.067	1.02
225.285	-1.02
225.503	-9.22
225.721	-31.74
225.939	50.18
226.157	-3.07
226.375	62.46
226.592	-35.84
226.81	3.07
227.028	11.26
227.246	-39.94
227.464	-3.07
227.682	48.13
227.9	-25.6
228.117	-3.07
228.335	-17.41
228.553	-60.42
228.771	-48.13
228.989	31.74
229.206	5.12
229.424	-21.5
229.642	-27.65
229.86	39.94
230.077	33.79
230.295	-62.46
230.513	-7.17
230.731	37.89
230.948	-9.22
231.166	60.42
231.384	58.37
231.601	-11.26
231.819	11.26
232.037	7.17
232.254	-78.85
232.472	-17.41
232.689	41.98
232.907	1.02
233.125	15.36
233.342	54.27
233.56	15.36
233.777	15.36
233.995	-5.12
234.213	1.02
234.43	11.26
234.648	5.12
234.865	-97.28
235.083	27.65
235.3	21.5
235.518	11.26
235.735	19.46
235.953	-68.61
236.17	50.18
236.388	-3.07
236.605	46.08
236.822	-13.31
237.04	50.18
237.257	19.46
237.475	-33.79
237.692	21.5
237.909	31.74
238.127	1.02
238.344	25.6
238.562	21.5
238.779	-64.51
238.996	1.02
239.214	19.46
239.431	37.89
239.648	1.02
239.865	-39.94
240.083	9.22
240.3	-17.41
240.517	58.37
240.735	-11.26
240.952	11.26
241.169	19.46
241.386	-5.12
241.603	-9.22
241.821	-7.17
242.038	56.32
242.255	37.89
242.472	13.31
242.689	9.22
242.907	-33.79
243.124	-21.5
243.341	52.22
243.558	-52.22
243.775	35.84
243.992	-3.07
244.209	-15.36
244.426	21.5
244.643	-13.31
244.86	13.31
245.078	39.94
245.295	-19.46
245.512	9.22
245.729	-15.36
245.946	21.5
246.163	-64.51
246.38	39.94
246.597	-37.89
246.814	25.6
247.031	5.12
247.248	50.18
247.464	-66.56
247.681	56.32
247.898	68.61
248.115	33.79
248.332	15.36
248.549	58.37
248.766	-21.5
248.983	13.31
249.2	66.56
249.417	23.55
249.633	-21.5
249.85	-50.18
250.067	44.03
250.284	1.02
250.501	-52.22
250.717	46.08
250.934	-56.32
251.151	-1.02
251.368	-29.7
251.585	46.08
251.801	-19.46
252.018	-1.02
252.235	-39.94
252.451	7.17
252.668	-13.31
252.885	29.7
253.102	-7.17
253.318	31.74
253.535	-62.46
253.752	-11.26
253.968	-37.89
254.185	31.74
254.401	29.7
254.618	-48.13
254.835	-23.55
255.051	95.23
255.268	-60.42
255.484	11.26
255.701	-19.46
255.917	-19.46
256.134	33.79
256.351	-21.5
256.567	-19.46
256.784	-19.46
257	21.5
257.217	-13.31
257.433	21.5
257.65	-29.7
257.866	68.61
258.082	-11.26
258.299	-11.26
258.515	-5.12
258.732	-7.17
258.948	-95.23
259.165	3.07
259.381	54.27
259.597	1.02
259.814	37.89
260.03	33.79
260.246	-37.89
260.463	19.46
260.679	70.65
260.895	17.41
261.112	58.37
261.328	-15.36
261.544	-23.55
261.761	-25.6
261.977	29.7
262.193	-39.94
262.409	-17.41
262.626	29.7
262.842	7.17
263.058	-31.74
263.274	-3.07
263.49	39.94
263.707	7.17
263.923	-60.42
264.139	7.17
264.355	-62.46
264.571	62.46
264.787	-31.74
265.004	33.79
265.22	-48.13
265.436	-3.07
265.652	-1.02
265.868	23.55
266.084	-31.74
266.3	48.13
266.516	-37.89
266.732	-21.5
266.948	48.13
267.164	-33.79
267.38	70.65
267.596	-11.26
267.812	29.7
268.028	15.36
268.244	-5.12
268.46	-19.46
268.676	-9.22
268.892	15.36
269.108	-25.6
269.324	-11.26
269.54	-39.94
269.756	107.52
269.972	7.17
270.188	41.98
270.403	-95.23
270.619	-21.5
270.835	-7.17
271.051	-33.79
271.267	-29.7
271.483	-1.02
271.698	11.26
271.914	25.6
272.13	-11.26
272.346	-35.84
272.562	52.22
272.777	11.26
272.993	-23.55
273.209	-25.6
273.425	-39.94
273.64	-103.42
273.856	-1.02
274.072	3.07
274.287	-29.7
274.503	-11.26
274.719	-74.75
274.934	-7.17
275.15	-119.81
275.366	-29.7
275.581	-5.12
275.797	60.42
276.012	-46.08
276.228	3.07
276.444	9.22
276.659	76.8
276.875	62.46
277.09	44.03
277.306	5.12
277.521	39.94
277.737	1.02
277.952	3.07
278.168	17.41
278.383	-31.74
278.599	-41.98
278.814	-3.07
279.03	-27.65
279.245	23.55
279.461	13.31
279.676	5.12
279.892	-35.84
280.107	-41.98
280.322	9.22
280.538	44.03
280.753	-39.94
280.969	7.17
281.184	-25.6
281.399	60.42
281.615	-35.84
281.83	3.07
282.045	-13.31
282.26	54.27
282.476	1.02
282.691	3.07
282.906	33.79
283.122	-39.94
283.337	-72.7
283.552	46.08
283.767	19.46
283.983	33.79
284.198	25.6
284.413	-31.74
284.628	5.12
284.843	21.5
285.058	-11.26
285.274	3.07
285.489	-39.94
285.704	25.6
285.919	31.74
286.134	-11.26
286.349	44.03
286.564	5.12
286.779	-15.36
286.995	-23.55
287.21	-39.94
287.425	1.02
287.64	-31.74
287.855	15.36
288.07	58.37
288.285	-13.31
288.5	-56.32
288.715	70.65
288.93	17.41
289.145	27.65
289.36	-5.12
289.575	-5.12
289.79	-19.46
290.004	-31.74
290.219	-15.36
290.434	-46.08
290.649	37.89
290.864	31.74
291.079	25.6
291.294	33.79
291.509	25.6
291.724	33.79
291.938	-13.31
292.153	39.94
292.368	3.07
292.583	15.36
292.798	-15.36
293.012	-3.07
293.227	-15.36
293.442	15.36
293.657	15.36
293.871	13.31
294.086	-60.42
294.301	-11.26
294.516	68.61
294.73	11.26
294.945	-21.5
295.16	13.31
295.374	-7.17
295.589	-97.28
295.804	-80.89
296.018	25.6
296.233	99.33
296.447	31.74
296.662	-11.26
296.877	-3.07
297.091	7.17
297.306	5.12
297.52	54.27
297.735	-5.12
297.949	-41.98
298.164	23.55
298.378	25.6
298.593	17.41
298.807	-48.13
299.022	-64.51
299.236	35.84
299.451	5.12
299.665	-23.55
299.88	-11.26
300.094	-29.7
300.309	1.02
300.523	-13.31
300.737	21.5
300.952	64.51
301.166	60.42
301.381	-11.26
301.595	-1.02
301.809	-27.65
302.024	33.79
302.238	-29.7
302.452	35.84
302.667	-1.02
302.881	13.31
303.095	-62.46
303.309	-44.03
303.524	-15.36
303.738	35.84
303.952	-7.17
304.166	-1.02
304.381	9.22
304.595	-7.17
304.809	21.5
305.023	-56.32
305.237	-17.41
305.452	-44.03
305.666	-9.22
305.88	41.98
306.094	7.17
306.308	23.55
306.522	-39.94
306.736	-21.5
306.95	15.36
307.164	23.55
307.379	-31.74
307.593	31.74
307.807	7.17
308.021	25.6
308.235	-41.98
308.449	-25.6
308.663	-25.6
308.877	44.03
309.091	60.42
309.305	-21.5
309.519	-7.17
309.733	-35.84
309.947	-54.27
310.161	27.65
310.374	11.26
310.588	-3.07
310.802	-56.32
311.016	-7.17
311.23	7.17
311.444	35.84
311.658	-23.55
311.872	-5.12
312.085	15.36
312.299	1.02
312.513	9.22
312.727	66.56
312.941	-13.31
313.154	11.26
313.368	-15.36
313.582	-13.31
313.796	37.89
314.009	-62.46
314.223	-7.17
314.437	39.94
314.651	-11.26
314.864	-19.46
315.078	-25.6
315.292	3.07
315.505	-21.5
315.719	11.26
315.933	3.07
316.146	-5.12
316.36	72.7
316.573	25.6
316.787	60.42
317.001	-35.84
317.214	-27.65
317.428	33.79
317.641	3.07
317.855	48.13
318.068	25.6
318.282	-23.55
318.495	58.37
318.709	7.17
318.922	5.12
319.136	-48.13
319.349	-13.31
319.563	29.7
319.776	44.03
319.99	1.02
320.203	-50.18
320.417	15.36
320.63	-80.89
320.843	138.24
321.057	-15.36
321.27	-11.26
321.483	27.65
321.697	44.03
321.91	-1.02
322.124	-1.02
322.337	60.42
322.55	-25.6
322.763	25.6
322.977	-13.31
323.19	-19.46
323.403	33.79
323.617	-1.02
323.83	-29.7
324.043	17.41
324.256	-48.13
324.469	-5.12
324.683	-21.5
324.896	29.7
325.109	-15.36
325.322	-7.17
325.535	25.6
325.748	60.42
325.962	-17.41
326.175	1.02
326.388	13.31
326.601	62.46
326.814	97.28
327.027	66.56
327.24	-25.6
327.453	33.79
327.666	-31.74
327.879	9.22
328.092	21.5
328.305	44.03
328.518	33.79
328.731	-13.31
328.944	52.22
329.157	-13.31
329.37	-15.36
329.583	93.18
329.796	56.32
330.009	39.94
330.222	64.51
330.435	11.26
330.648	37.89
330.861	-35.84
331.073	7.17
331.286	23.55
331.499	29.7
331.712	25.6
331.925	48.13
332.138	35.84
332.35	17.41
332.563	35.84
332.776	1.02
332.989	-17.41
333.202	-37.89
333.414	-60.42
333.627	-7.17
333.84	41.98
334.053	-68.61
334.265	-48.13
334.478	84.99
334.691	5.12
334.903	-31.74
335.116	1.02
335.329	-13.31
335.541	35.84
335.754	23.55
335.966	-60.42
336.179	27.65
336.392	9.22
336.604	-5.12
336.817	-3.07
337.029	78.85
337.242	33.79
337.454	56.32
337.667	62.46
337.88	54.27
338.092	-13.31
338.305	11.26
338.517	-44.03
338.729	11.26
338.942	21.5
339.154	33.79
339.367	-11.26
339.579	52.22
339.792	-13.31
340.004	17.41
340.217	-23.55
340.429	37.89
340.641	3.07
340.854	-41.98
341.066	-44.03
341.278	-19.46
341.491	70.65
341.703	27.65
341.915	9.22
342.128	-5.12
342.34	56.32
342.552	-17.41
342.764	48.13
342.977	-35.84
343.189	35.84
343.401	-62.46
343.613	31.74
343.826	-37.89
344.038	-76.8
344.25	50.18
344.462	-13.31
344.674	66.56
344.886	-60.42
345.099	54.27
345.311	-27.65
345.523	89.09
345.735	-29.7
345.947	27.65
346.159	-46.08
346.371	-7.17
346.583	13.31
346.795	58.37
347.007	9.22
347.219	-15.36
347.431	19.46
347.643	46.08
347.855	-7.17
348.067	101.37
348.279	-19.46
348.491	25.6
348.703	35.84
348.915	3.07
349.127	-31.74
349.339	31.74
349.551	23.55
349.763	21.5
349.975	-29.7
350.187	13.31
350.399	93.18
350.61	31.74
350.822	-1.02
351.034	-52.22
351.246	9.22
351.458	3.07
351.669	13.31
351.881	9.22
352.093	54.27
352.305	74.75
352.517	-46.08
352.728	-39.94
352.94	-56.32
353.152	56.32
353.363	-19.46
353.575	52.22
353.787	31.74
353.999	9.22
354.21	23.55
354.422	9.22
354.633	15.36
354.845	15.36
355.057	41.98
355.268	11.26
355.48	39.94
355.692	25.6
355.903	3.07
356.115	-52.22
356.326	11.26
356.538	9.22
356.749	11.26
356.961	3.07
357.172	5.12
357.384	-15.36
357.595	-39.94
357.807	25.6
358.018	-19.46
358.23	74.75
358.441	66.56
358.653	11.26
358.864	29.7
359.075	27.65
359.287	72.7
359.498	5.12
359.709	21.5
359.921	66.56
360.132	-7.17
360.344	1.02
360.555	7.17
360.766	27.65
360.977	31.74
361.189	50.18
361.4	1.02
361.611	50.18
361.823	89.09
362.034	-3.07
362.245	-11.26
362.456	64.51
362.667	15.36
362.879	64.51
363.09	27.65
363.301	39.94
363.512	-5.12
363.723	50.18
363.935	-64.51
364.146	-21.5
364.357	-33.79
364.568	17.41
364.779	-5.12
364.99	41.98
365.201	11.26
365.412	15.36
365.623	7.17
365.834	-21.5
366.045	66.56
366.256	-41.98
366.467	-11.26
366.678	-5.12
366.889	-39.94
367.1	31.74
367.311	-44.03
367.522	9.22
367.733	-3.07
367.944	46.08
368.155	9.22
368.366	50.18
368.577	27.65
368.788	68.61
368.999	3.07
369.209	-23.55
369.42	21.5
369.631	-1.02
369.842	46.08
370.053	-11.26
370.264	25.6
370.474	19.46
370.685	5.12
370.896	-13.31
371.107	-7.17
371.317	37.89
371.528	-46.08
371.739	-37.89
371.95	-33.79
372.16	15.36
372.371	66.56
372.582	52.22
372.792	21.5
373.003	62.46
373.214	17.41
373.424	-21.5
373.635	-50.18
373.846	52.22
374.056	39.94
374.267	5.12
374.477	39.94
374.688	-11.26
374.898	50.18
375.109	13.31
375.319	-39.94
375.53	50.18
375.74	-9.22
375.951	99.33
376.161	39.94
376.372	23.55
376.582	134.14
376.793	89.09
377.003	3.07
377.214	56.32
377.424	19.46
377.635	48.13
377.845	33.79
378.055	-17.41
378.266	-15.36
378.476	-11.26
378.686	5.12
378.897	76.8
379.107	1.02
379.317	62.46
379.528	15.36
379.738	-58.37
379.948	3.07
380.158	39.94
380.369	23.55
380.579	-5.12
380.789	23.55
380.999	17.41
381.21	13.31
381.42	64.51
381.63	-3.07
381.84	50.18
382.05	-1.02
382.261	56.32
382.471	9.22
382.681	37.89
382.891	-41.98
383.101	29.7
383.311	5.12
383.521	74.75
383.731	-66.56
383.941	31.74
384.151	27.65
384.361	-19.46
384.571	11.26
384.781	11.26
384.991	46.08
385.201	41.98
385.411	21.5
385.621	93.18
385.831	35.84
386.041	111.61
386.251	5.12
386.461	78.85
386.671	15.36
386.881	33.79
387.091	37.89
387.301	29.7
387.511	19.46
387.72	-15.36
387.93	-15.36
388.14	17.41
388.35	-9.22
388.56	-3.07
388.769	9.22
388.979	19.46
389.189	-95.23
389.399	44.03
389.609	17.41
389.818	66.56
390.028	76.8
390.238	-1.02
390.447	7.17
390.657	25.6
390.867	44.03
391.076	9.22
391.286	80.89
391.496	29.7
391.705	-29.7
391.915	72.7
392.125	-29.7
392.334	33.79
392.544	35.84
392.753	62.46
392.963	29.7
393.172	-29.7
393.382	5.12
393.591	72.7
393.801	-29.7
394.01	93.18
394.22	-15.36
394.429	-21.5
394.639	15.36
394.848	109.57
395.058	80.89
395.267	19.46
395.477	70.65
395.686	117.76
395.895	-44.03
396.105	76.8
396.314	58.37
396.524	39.94
396.733	33.79
396.942	17.41
397.152	23.55
397.361	70.65
397.57	56.32
397.78	50.18
397.989	35.84
398.198	107.52
398.407	41.98
398.617	68.61
398.826	-5.12
399.035	5.12
399.244	29.7
399.453	93.18
399.663	68.61
399.872	99.33
400.081	72.7
400.29	84.99
400.499	46.08
400.708	80.89
400.917	97.28
401.127	154.62
401.336	78.85
401.545	62.46
401.754	-9.22
401.963	37.89
402.172	76.8
402.381	87.04
402.59	27.65
402.799	89.09
403.008	15.36
403.217	130.05
403.426	39.94
403.635	111.61
403.844	68.61
404.053	109.57
404.262	29.7
404.471	150.53
404.68	130.05
404.888	109.57
405.097	35.84
405.306	117.76
405.515	29.7
405.724	52.22
405.933	160.77
406.142	181.25
406.35	84.99
406.559	111.61
406.768	68.61
406.977	146.43
407.185	87.04
407.394	37.89
407.603	11.26
407.812	119.81
408.02	123.9
408.229	128
408.438	111.61
408.646	201.72
408.855	134.14
409.064	160.77
409.272	175.1
409.481	173.05
409.69	195.58
409.898	209.92
410.107	164.86
410.315	203.77
410.524	220.16
410.733	205.82
410.941	175.1
411.15	252.92
411.358	265.21
411.567	257.02
411.775	273.4
411.984	281.6
412.192	343.03
412.401	308.22
412.609	289.79
412.818	312.32
413.026	326.65
413.234	306.17
413.443	371.71
413.651	390.14
413.86	377.85
414.068	386.04
414.276	424.95
414.485	424.95
414.693	410.62
414.901	515.06
415.11	447.48
415.318	445.43
415.526	541.69
415.734	510.97
415.943	504.82
416.151	562.17
416.359	560.12
416.567	553.98
416.776	623.61
416.984	668.66
417.192	639.99
417.4	629.75
417.608	680.95
417.817	721.91
418.025	648.18
418.233	775.16
418.441	744.44
418.649	893.94
418.857	883.7
419.065	945.14
419.273	889.84
419.481	893.94
419.689	994.29
419.897	1061.87
420.105	1027.06
420.313	1033.2
420.521	1076.21
420.729	1174.51
420.937	1104.88
421.145	1209.33
421.353	1321.96
421.561	1262.57
421.769	1367.02
421.977	1410.03
422.185	1371.12
422.393	1481.71
422.601	1614.82
422.809	1534.95
423.017	1637.35
423.224	1600.49
423.432	1639.4
423.64	1737.7
423.848	1956.83
424.056	1856.48
424.263	1936.35
424.471	1956.83
424.679	2065.38
424.887	2057.18
425.094	2085.86
425.302	2104.29
425.51	2311.13
425.718	2354.14
425.925	2300.89
426.133	2427.87
426.341	2560.98
426.548	2683.86
426.756	2730.97
426.964	2816.98
427.171	2849.75
427.379	3060.69
427.586	3056.59
427.794	3089.36
428.001	3247.05
428.209	3245.01
428.417	3406.8
428.624	3713.99
428.832	3599.31
429.039	3537.87
429.247	3580.87
429.454	4002.75
429.662	4289.47
429.869	3857.35
430.076	4275.13
430.284	4076.48
430.491	4312
430.699	4563.9
430.906	4494.27
431.114	4543.42
431.321	4869.05
431.528	4834.23
431.736	5133.23
431.943	5452.72
432.15	5333.93
432.358	5327.79
432.565	5665.71
432.772	5594.03
432.979	5749.67
433.187	6187.94
433.394	5954.47
433.601	6374.3
433.808	6466.46
434.016	6429.6
434.223	6644.63
434.43	7259.03
434.637	7084.95
434.844	7433.1
435.052	7365.52
435.259	7646.09
435.466	7576.46
435.673	7443.34
435.88	7854.98
436.087	8467.33
436.294	8500.09
436.501	8201.09
436.708	8565.63
436.915	8756.09
437.122	9251.7
437.329	9177.97
437.537	9601.9
437.743	9401.2
437.95	9284.47
438.157	9847.66
438.364	10251.11
438.571	10341.22
438.778	10371.94
438.985	11316.05
439.192	10853.21
439.399	11170.65
439.606	10916.7
439.813	11582.29
440.02	12366.66
440.227	11912.01
440.433	11850.57
440.64	12335.94
440.847	12374.85
441.054	12628.8
441.261	13482.8
441.467	13310.77
441.674	13751.09
441.881	14144.3
442.088	13986.6
442.294	13939.5
442.501	14504.74
442.708	14531.36
442.914	15162.14
443.121	15760.14
443.328	15266.58
443.534	16700.16
443.741	15989.52
443.948	15921.93
444.154	16947.97
444.361	16913.15
444.568	16884.48
444.774	17068.8
444.981	17230.59
445.187	17793.78
445.394	18342.63
445.6	18281.19
445.807	19905.23
446.013	19065.57
446.22	19491.54
446.426	20349.64
446.633	20425.42
446.839	21467.83
447.046	20388.55
447.252	21383.87
447.459	21738.16
447.665	21385.91
447.871	22301.36
448.078	23282.33
448.284	22133.42
448.491	22612.65
448.697	23861.91
448.903	24054.42
449.11	24193.68
449.316	23962.26
449.522	24324.75
449.728	24894.08
449.935	25217.66
450.141	25498.23
450.347	25797.24
450.553	24887.94
450.76	25047.68
450.966	26016.37
451.172	25819.77
451.378	26677.86
451.584	25834.1
451.791	26610.28
451.997	26489.45
452.203	26985.06
452.409	27028.07
452.615	26860.13
452.821	25746.04
453.027	25477.76
453.233	27042.4
453.44	25883.25
453.646	26217.07
453.852	26540.65
454.058	26597.99
454.264	25891.44
454.47	26636.91
454.676	25752.18
454.882	26624.62
455.088	24609.42
455.294	24822.41
455.5	24900.23
455.705	25430.65
455.911	24429.2
456.117	23956.11
456.323	23384.73
456.529	22770.34
456.735	23440.03
456.941	23212.7
457.147	22514.34
457.352	21721.78
457.558	21662.39
457.764	21420.73
457.97	21170.88
458.176	20880.07
458.381	20560.58
458.587	19886.8
458.793	19735.25
458.999	18655.97
459.204	20056.78
459.41	19434.2
459.616	18105.07
459.821	18082.54
460.027	18012.91
460.233	17648.37
460.438	16777.98
460.644	17191.67
460.85	16345.86
461.055	16173.83
461.261	16345.86
461.466	15153.94
461.672	14455.59
461.878	15387.41
462.083	14482.21
462.289	14273.32
462.494	14134.06
462.7	13374.26
462.905	13151.03
463.111	13509.43
463.316	13855.53
463.522	13286.2
463.727	13597.49
463.932	13351.73
464.138	13136.7
464.343	13187.89
464.549	12944.19
464.754	13425.46
464.959	13173.56
465.165	13194.04
465.37	12577.6
465.575	12188.49
465.781	12839.74
465.986	13079.35
466.191	12647.23
466.397	12178.25
466.602	11658.06
466.807	12045.13
467.012	12116.81
