Data from USB4F104151__44__12-53-50-235.txt Node

Date: Fri Mar 14 12:53:50 EDT 2025
User: louis
Spectrometer: USB4F10415
Trigger mode: 4
Integration Time (sec): 1.000000E-2
Scans to average: 1
Electric dark correction enabled: true
Nonlinearity correction enabled: false
Boxcar width: 0
XAxis mode: Wavelengths
Number of Pixels in Spectrum: 3648
>>>>>Begin Spectral Data<<<<<
178.204	5.97
178.424	5.97
178.644	5.97
178.864	-12.46
179.084	-69.8
179.304	-51.37
179.524	8.02
179.744	28.5
179.964	-22.7
180.184	-30.89
180.404	42.84
180.624	16.21
180.844	-4.27
181.064	-34.99
181.283	32.6
181.503	34.64
181.723	-18.6
181.943	-98.47
182.163	-8.36
182.383	-16.55
182.602	36.69
182.822	-28.84
183.042	30.55
183.262	-16.55
183.482	106.32
183.701	63.32
183.921	-10.41
184.141	-65.71
184.361	51.03
184.58	55.12
184.8	5.97
185.02	-49.32
185.239	69.46
185.459	-24.75
185.679	28.5
185.898	-18.6
186.118	81.75
186.338	48.98
186.557	89.94
186.777	24.4
186.997	46.93
187.216	14.17
187.436	20.31
187.655	3.93
187.875	36.69
188.095	-28.84
188.314	38.74
188.534	10.07
188.753	10.07
188.973	-6.31
189.192	135
189.412	91.99
189.631	36.69
189.851	81.75
190.07	85.84
190.29	48.98
190.509	-24.75
190.729	34.64
190.948	34.64
191.168	108.37
191.387	40.79
191.607	-2.22
191.826	14.17
192.045	-6.31
192.265	59.22
192.484	-28.84
192.704	71.51
192.923	-2.22
193.142	96.08
193.362	73.56
193.581	22.36
193.8	-10.41
194.02	3.93
194.239	-43.18
194.458	-2.22
194.678	57.17
194.897	26.45
195.116	20.31
195.335	12.12
195.555	5.97
195.774	98.13
195.993	24.4
196.212	73.56
196.432	-24.75
196.651	46.93
196.87	-2.22
197.089	118.61
197.308	10.07
197.528	-10.41
197.747	-30.89
197.966	42.84
198.185	61.27
198.404	-10.41
198.623	34.64
198.842	89.94
199.062	-37.03
199.281	53.08
199.5	-20.65
199.719	71.51
199.938	71.51
200.157	-57.51
200.376	104.28
200.595	98.13
200.814	73.56
201.033	51.03
201.252	-71.85
201.471	46.93
201.69	40.79
201.909	46.93
202.128	71.51
202.347	-20.65
202.566	42.84
202.785	10.07
203.004	14.17
203.223	10.07
203.442	48.98
203.661	28.5
203.879	24.4
204.098	-4.27
204.317	-16.55
204.536	-0.17
204.755	-0.17
204.974	-22.7
205.193	16.21
205.411	40.79
205.63	1.88
205.849	-2.22
206.068	10.07
206.287	38.74
206.505	14.17
206.724	-16.55
206.943	20.31
207.162	-41.13
207.381	3.93
207.599	32.6
207.818	30.55
208.037	71.51
208.255	3.93
208.474	8.02
208.693	51.03
208.911	-24.75
209.13	16.21
209.349	73.56
209.567	28.5
209.786	65.36
210.005	87.89
210.223	46.93
210.442	-0.17
210.661	48.98
210.879	28.5
211.098	-24.75
211.316	28.5
211.535	61.27
211.753	5.97
211.972	22.36
212.191	-32.94
212.409	16.21
212.628	-32.94
212.846	-16.55
213.065	-22.7
213.283	83.8
213.502	-6.31
213.72	135
213.938	36.69
214.157	57.17
214.375	44.88
214.594	32.6
214.812	28.5
215.031	77.65
215.249	-49.32
215.467	20.31
215.686	69.46
215.904	-14.51
216.122	53.08
216.341	40.79
216.559	-10.41
216.778	57.17
216.996	14.17
217.214	53.08
217.432	-4.27
217.651	-4.27
217.869	48.98
218.087	1.88
218.306	85.84
218.524	24.4
218.742	38.74
218.96	38.74
219.179	42.84
219.397	-24.75
219.615	46.93
219.833	16.21
220.051	-67.75
220.27	12.12
220.488	53.08
220.706	14.17
220.924	57.17
221.142	1.88
221.36	42.84
221.578	53.08
221.796	53.08
222.015	-61.61
222.233	98.13
222.451	61.27
222.669	-20.65
222.887	65.36
223.105	-28.84
223.323	42.84
223.541	16.21
223.759	12.12
223.977	-2.22
224.195	34.64
224.413	30.55
224.631	94.04
224.849	-45.23
225.067	-24.75
225.285	69.46
225.503	34.64
225.721	38.74
225.939	98.13
226.157	26.45
226.375	10.07
226.592	57.17
226.81	-4.27
227.028	48.98
227.246	-10.41
227.464	106.32
227.682	14.17
227.9	67.41
228.117	-4.27
228.335	30.55
228.553	51.03
228.771	-4.27
228.989	-6.31
229.206	20.31
229.424	20.31
229.642	-12.46
229.86	-75.95
230.077	32.6
230.295	22.36
230.513	81.75
230.731	12.12
230.948	71.51
231.166	22.36
231.384	71.51
231.601	16.21
231.819	28.5
232.037	-10.41
232.254	-4.27
232.472	-2.22
232.689	79.7
232.907	-12.46
233.125	-37.03
233.342	12.12
233.56	-45.23
233.777	-28.84
233.995	-14.51
234.213	51.03
234.43	1.88
234.648	42.84
234.865	18.26
235.083	40.79
235.3	-26.79
235.518	53.08
235.735	-12.46
235.953	38.74
236.17	-18.6
236.388	61.27
236.605	-10.41
236.822	53.08
237.04	26.45
237.257	20.31
237.475	16.21
237.692	55.12
237.909	28.5
238.127	51.03
238.344	5.97
238.562	28.5
238.779	44.88
238.996	-26.79
239.214	16.21
239.431	30.55
239.648	71.51
239.865	8.02
240.083	-20.65
240.3	44.88
240.517	1.88
240.735	-4.27
240.952	12.12
241.169	-6.31
241.386	-30.89
241.603	28.5
241.821	10.07
242.038	-18.6
242.255	18.26
242.472	-18.6
242.689	28.5
242.907	-0.17
243.124	-12.46
243.341	30.55
243.558	-34.99
243.775	59.22
243.992	22.36
244.209	48.98
244.426	-20.65
244.643	38.74
244.86	124.76
245.078	55.12
245.295	69.46
245.512	69.46
245.729	-12.46
245.946	104.28
246.163	1.88
246.38	36.69
246.597	3.93
246.814	10.07
247.031	12.12
247.248	63.32
247.464	73.56
247.681	18.26
247.898	-6.31
248.115	46.93
248.332	24.4
248.549	51.03
248.766	83.8
248.983	22.36
249.2	28.5
249.417	91.99
249.633	10.07
249.85	51.03
250.067	73.56
250.284	34.64
250.501	8.02
250.717	51.03
250.934	-49.32
251.151	16.21
251.368	24.4
251.585	22.36
251.801	-4.27
252.018	3.93
252.235	102.23
252.451	-51.37
252.668	42.84
252.885	40.79
253.102	28.5
253.318	100.18
253.535	-2.22
253.752	24.4
253.968	3.93
254.185	10.07
254.401	3.93
254.618	48.98
254.835	12.12
255.051	151.38
255.268	-80.04
255.484	81.75
255.701	24.4
255.917	40.79
256.134	38.74
256.351	28.5
256.567	20.31
256.784	32.6
257	38.74
257.217	14.17
257.433	81.75
257.65	85.84
257.866	-14.51
258.082	-22.7
258.299	12.12
258.515	46.93
258.732	-80.04
258.948	-24.75
259.165	-10.41
259.381	8.02
259.597	-16.55
259.814	71.51
260.03	38.74
260.246	61.27
260.463	65.36
260.679	63.32
260.895	-20.65
261.112	-26.79
261.328	8.02
261.544	12.12
261.761	1.88
261.977	91.99
262.193	-45.23
262.409	20.31
262.626	20.31
262.842	36.69
263.058	48.98
263.274	-16.55
263.49	22.36
263.707	42.84
263.923	8.02
264.139	-12.46
264.355	10.07
264.571	67.41
264.787	89.94
265.004	71.51
265.22	96.08
265.436	30.55
265.652	22.36
265.868	42.84
266.084	34.64
266.3	48.98
266.516	18.26
266.732	28.5
266.948	-59.56
267.164	22.36
267.38	-2.22
267.596	-37.03
267.812	34.64
268.028	40.79
268.244	3.93
268.46	-61.61
268.676	-0.17
268.892	1.88
269.108	28.5
269.324	28.5
269.54	-20.65
269.756	16.21
269.972	-4.27
270.188	3.93
270.403	10.07
270.619	67.41
270.835	-47.27
271.051	-18.6
271.267	-4.27
271.483	89.94
271.698	26.45
271.914	48.98
272.13	10.07
272.346	40.79
272.562	-26.79
272.777	83.8
272.993	77.65
273.209	46.93
273.425	3.93
273.64	51.03
273.856	8.02
274.072	48.98
274.287	-18.6
274.503	48.98
274.719	51.03
274.934	34.64
275.15	20.31
275.366	16.21
275.581	-10.41
275.797	36.69
276.012	-12.46
276.228	22.36
276.444	3.93
276.659	61.27
276.875	8.02
277.09	12.12
277.306	26.45
277.521	59.22
277.737	61.27
277.952	98.13
278.168	-0.17
278.383	-10.41
278.599	-34.99
278.814	16.21
279.03	26.45
279.245	108.37
279.461	12.12
279.676	104.28
279.892	-10.41
280.107	-22.7
280.322	36.69
280.538	85.84
280.753	28.5
280.969	-2.22
281.184	79.7
281.399	73.56
281.615	59.22
281.83	1.88
282.045	28.5
282.26	-10.41
282.476	-16.55
282.691	65.36
282.906	12.12
283.122	20.31
283.337	20.31
283.552	51.03
283.767	57.17
283.983	1.88
284.198	26.45
284.413	28.5
284.628	22.36
284.843	57.17
285.058	69.46
285.274	65.36
285.489	26.45
285.704	-18.6
285.919	8.02
286.134	38.74
286.349	16.21
286.564	-0.17
286.779	-2.22
286.995	22.36
287.21	55.12
287.425	102.23
287.64	3.93
287.855	30.55
288.07	18.26
288.285	34.64
288.5	20.31
288.715	5.97
288.93	-20.65
289.145	40.79
289.36	-47.27
289.575	14.17
289.79	12.12
290.004	-0.17
290.219	12.12
290.434	130.9
290.649	-4.27
290.864	8.02
291.079	36.69
291.294	65.36
291.509	14.17
291.724	28.5
291.938	44.88
292.153	65.36
292.368	-8.36
292.583	38.74
292.798	3.93
293.012	87.89
293.227	20.31
293.442	73.56
293.657	14.17
293.871	53.08
294.086	-37.03
294.301	20.31
294.516	-67.75
294.73	48.98
294.945	24.4
295.16	30.55
295.374	73.56
295.589	-18.6
295.804	-2.22
296.018	32.6
296.233	34.64
296.447	81.75
296.662	-26.79
296.877	18.26
297.091	40.79
297.306	42.84
297.52	79.7
297.735	18.26
297.949	18.26
298.164	22.36
298.378	38.74
298.593	32.6
298.807	-22.7
299.022	53.08
299.236	71.51
299.451	-4.27
299.665	-65.71
299.88	24.4
300.094	53.08
300.309	59.22
300.523	28.5
300.737	-4.27
300.952	36.69
301.166	12.12
301.381	57.17
301.595	22.36
301.809	1.88
302.024	42.84
302.238	14.17
302.452	36.69
302.667	30.55
302.881	61.27
303.095	69.46
303.309	8.02
303.524	-39.08
303.738	48.98
303.952	51.03
304.166	42.84
304.381	-10.41
304.595	89.94
304.809	32.6
305.023	44.88
305.237	44.88
305.452	44.88
305.666	18.26
305.88	8.02
306.094	28.5
306.308	53.08
306.522	57.17
306.736	-2.22
306.95	71.51
307.164	89.94
307.379	1.88
307.593	14.17
307.807	-16.55
308.021	42.84
308.235	30.55
308.449	12.12
308.663	71.51
308.877	44.88
309.091	53.08
309.305	51.03
309.519	-30.89
309.733	32.6
309.947	69.46
310.161	48.98
310.374	-47.27
310.588	40.79
310.802	69.46
311.016	-18.6
311.23	46.93
311.444	38.74
311.658	-26.79
311.872	-14.51
312.085	51.03
312.299	61.27
312.513	61.27
312.727	42.84
312.941	-39.08
313.154	67.41
313.368	32.6
313.582	26.45
313.796	51.03
314.009	14.17
314.223	-32.94
314.437	44.88
314.651	28.5
314.864	104.28
315.078	36.69
315.292	14.17
315.505	18.26
315.719	87.89
315.933	32.6
316.146	46.93
316.36	14.17
316.573	14.17
316.787	53.08
317.001	73.56
317.214	-8.36
317.428	38.74
317.641	65.36
317.855	5.97
318.068	28.5
318.282	20.31
318.495	89.94
318.709	12.12
318.922	22.36
319.136	61.27
319.349	-14.51
319.563	28.5
319.776	44.88
319.99	83.8
320.203	8.02
320.417	18.26
320.63	73.56
320.843	46.93
321.057	28.5
321.27	18.26
321.483	28.5
321.697	61.27
321.91	48.98
322.124	57.17
322.337	55.12
322.55	59.22
322.763	71.51
322.977	83.8
323.19	20.31
323.403	104.28
323.617	20.31
323.83	65.36
324.043	-2.22
324.256	53.08
324.469	20.31
324.683	38.74
324.896	51.03
325.109	61.27
325.322	38.74
325.535	51.03
325.748	34.64
325.962	-16.55
326.175	73.56
326.388	34.64
326.601	30.55
326.814	36.69
327.027	-2.22
327.24	28.5
327.453	34.64
327.666	59.22
327.879	42.84
328.092	51.03
328.305	48.98
328.518	18.26
328.731	38.74
328.944	75.6
329.157	51.03
329.37	61.27
329.583	46.93
329.796	38.74
330.009	26.45
330.222	83.8
330.435	-37.03
330.648	-6.31
330.861	12.12
331.073	110.42
331.286	36.69
331.499	100.18
331.712	22.36
331.925	-8.36
332.138	18.26
332.35	61.27
332.563	28.5
332.776	16.21
332.989	3.93
333.202	-30.89
333.414	8.02
333.627	3.93
333.84	40.79
334.053	32.6
334.265	48.98
334.478	24.4
334.691	5.97
334.903	10.07
335.116	36.69
335.329	-10.41
335.541	73.56
335.754	42.84
335.966	8.02
336.179	46.93
336.392	16.21
336.604	44.88
336.817	-0.17
337.029	-22.7
337.242	42.84
337.454	114.52
337.667	38.74
337.88	126.8
338.092	89.94
338.305	28.5
338.517	51.03
338.729	5.97
338.942	44.88
339.154	91.99
339.367	36.69
339.579	26.45
339.792	22.36
340.004	63.32
340.217	63.32
340.429	96.08
340.641	38.74
340.854	26.45
341.066	24.4
341.278	30.55
341.491	36.69
341.703	65.36
341.915	53.08
342.128	5.97
342.34	71.51
342.552	44.88
342.764	8.02
342.977	10.07
343.189	3.93
343.401	40.79
343.613	42.84
343.826	42.84
344.038	28.5
344.25	89.94
344.462	91.99
344.674	44.88
344.886	67.41
345.099	20.31
345.311	67.41
345.523	32.6
345.735	30.55
345.947	14.17
346.159	44.88
346.371	28.5
346.583	36.69
346.795	75.6
347.007	3.93
347.219	-12.46
347.431	-16.55
347.643	53.08
347.855	73.56
348.067	75.6
348.279	61.27
348.491	5.97
348.703	102.23
348.915	16.21
349.127	55.12
349.339	44.88
349.551	67.41
349.763	81.75
349.975	16.21
350.187	118.61
350.399	71.51
350.61	106.32
350.822	-12.46
351.034	73.56
351.246	-32.94
351.458	63.32
351.669	48.98
351.881	46.93
352.093	100.18
352.305	16.21
352.517	53.08
352.728	36.69
352.94	22.36
353.152	42.84
353.363	42.84
353.575	71.51
353.787	38.74
353.999	55.12
354.21	67.41
354.422	73.56
354.633	-2.22
354.845	30.55
355.057	34.64
355.268	36.69
355.48	5.97
355.692	-59.56
355.903	91.99
356.115	61.27
356.326	61.27
356.538	51.03
356.749	175.95
356.961	112.47
357.172	-43.18
357.384	30.55
357.595	63.32
357.807	30.55
358.018	5.97
358.23	69.46
358.441	48.98
358.653	38.74
358.864	20.31
359.075	55.12
359.287	38.74
359.498	24.4
359.709	63.32
359.921	40.79
360.132	14.17
360.344	53.08
360.555	26.45
360.766	63.32
360.977	-24.75
361.189	46.93
361.4	44.88
361.611	61.27
361.823	20.31
362.034	34.64
362.245	-32.94
362.456	38.74
362.667	137.04
362.879	59.22
363.09	-37.03
363.301	53.08
363.512	57.17
363.723	63.32
363.935	53.08
364.146	67.41
364.357	24.4
364.568	14.17
364.779	-4.27
364.99	36.69
365.201	3.93
365.412	51.03
365.623	44.88
365.834	34.64
366.045	42.84
366.256	57.17
366.467	-2.22
366.678	-4.27
366.889	44.88
367.1	34.64
367.311	32.6
367.522	-4.27
367.733	85.84
367.944	57.17
368.155	116.56
368.366	24.4
368.577	38.74
368.788	22.36
368.999	18.26
369.209	67.41
369.42	94.04
369.631	63.32
369.842	96.08
370.053	38.74
370.264	-10.41
370.474	81.75
370.685	20.31
370.896	12.12
371.107	75.6
371.317	71.51
371.528	24.4
371.739	38.74
371.95	32.6
372.16	116.56
372.371	28.5
372.582	28.5
372.792	48.98
373.003	-14.51
373.214	57.17
373.424	59.22
373.635	-39.08
373.846	20.31
374.056	46.93
374.267	3.93
374.477	18.26
374.688	79.7
374.898	28.5
375.109	65.36
375.319	63.32
375.53	34.64
375.74	3.93
375.951	55.12
376.161	42.84
376.372	8.02
376.582	73.56
376.793	22.36
377.003	40.79
377.214	55.12
377.424	100.18
377.635	10.07
377.845	32.6
378.055	48.98
378.266	12.12
378.476	40.79
378.686	75.6
378.897	24.4
379.107	28.5
379.317	14.17
379.528	-53.42
379.738	24.4
379.948	-20.65
380.158	110.42
380.369	51.03
380.579	30.55
380.789	-2.22
380.999	30.55
381.21	32.6
381.42	73.56
381.63	94.04
381.84	55.12
382.05	32.6
382.261	73.56
382.471	69.46
382.681	16.21
382.891	61.27
383.101	51.03
383.311	51.03
383.521	5.97
383.731	44.88
383.941	102.23
384.151	108.37
384.361	94.04
384.571	12.12
384.781	114.52
384.991	32.6
385.201	77.65
385.411	24.4
385.621	81.75
385.831	46.93
386.041	96.08
386.251	28.5
386.461	40.79
386.671	85.84
386.881	73.56
387.091	55.12
387.301	69.46
387.511	73.56
387.72	28.5
387.93	36.69
388.14	30.55
388.35	61.27
388.56	118.61
388.769	51.03
388.979	130.9
389.189	16.21
389.399	63.32
389.609	98.13
389.818	61.27
390.028	36.69
390.238	3.93
390.447	71.51
390.657	57.17
390.867	46.93
391.076	28.5
391.286	48.98
391.496	57.17
391.705	55.12
391.915	104.28
392.125	22.36
392.334	34.64
392.544	81.75
392.753	8.02
392.963	112.47
393.172	85.84
393.382	110.42
393.591	36.69
393.801	59.22
394.01	61.27
394.22	75.6
394.429	18.26
394.639	36.69
394.848	77.65
395.058	81.75
395.267	112.47
395.477	69.46
395.686	73.56
395.895	57.17
396.105	130.9
396.314	57.17
396.524	112.47
396.733	10.07
396.942	3.93
397.152	98.13
397.361	22.36
397.57	94.04
397.78	96.08
397.989	81.75
398.198	53.08
398.407	91.99
398.617	83.8
398.826	14.17
399.035	159.57
399.244	71.51
399.453	63.32
399.663	63.32
399.872	30.55
400.081	108.37
400.29	153.43
400.499	81.75
400.708	67.41
400.917	42.84
401.127	30.55
401.336	18.26
401.545	94.04
401.754	108.37
401.963	100.18
402.172	-8.36
402.381	87.89
402.59	65.36
402.799	77.65
403.008	20.31
403.217	85.84
403.426	67.41
403.635	24.4
403.844	124.76
404.053	87.89
404.262	61.27
404.471	110.42
404.68	65.36
404.888	89.94
405.097	77.65
405.306	161.62
405.515	53.08
405.724	175.95
405.933	116.56
406.142	104.28
406.35	159.57
406.559	149.33
406.768	147.28
406.977	200.53
407.185	149.33
407.394	153.43
407.603	59.22
407.812	178
408.02	171.86
408.229	126.8
408.438	194.39
408.646	141.14
408.855	151.38
409.064	227.15
409.272	167.76
409.481	278.35
409.69	245.59
409.898	210.77
410.107	231.25
410.315	165.71
410.524	247.63
410.733	202.58
410.941	278.35
411.15	241.49
411.358	272.21
411.567	292.69
411.775	315.22
411.984	331.6
412.192	280.4
412.401	333.65
412.609	307.02
412.818	399.18
413.026	368.46
413.234	393.04
413.443	315.22
413.651	347.98
413.86	397.14
414.068	386.9
414.276	427.85
414.485	479.05
414.693	409.42
414.901	503.63
415.11	491.34
415.318	511.82
415.526	503.63
415.734	497.49
415.943	520.01
416.151	515.92
416.359	583.5
416.567	593.74
416.776	632.65
416.984	644.94
417.192	642.89
417.4	659.28
417.608	599.88
417.817	757.58
418.025	819.02
418.233	767.82
418.441	667.47
418.649	759.63
418.857	829.26
419.065	902.98
419.273	882.5
419.481	884.55
419.689	972.61
419.897	966.47
420.105	989
420.313	1091.4
420.521	1032.01
420.729	1032.01
420.937	1146.69
421.145	1130.31
421.353	1232.71
421.561	1300.29
421.769	1230.66
421.977	1374.02
422.185	1357.63
422.393	1445.7
422.601	1578.81
422.809	1515.33
423.017	1521.47
423.224	1646.4
423.432	1584.96
423.64	1742.65
423.848	1785.66
424.056	1763.13
424.263	1888.06
424.471	1961.78
424.679	1961.78
424.887	2004.79
425.094	2150.2
425.302	2039.61
425.51	2123.57
425.718	2207.54
425.925	2328.37
426.133	2340.66
426.341	2381.62
426.548	2639.66
426.756	2520.88
426.964	2549.55
427.171	2965.29
427.379	2772.78
427.586	2924.33
427.794	3122.98
428.001	3069.73
428.209	3321.63
428.417	3129.13
428.624	3342.11
428.832	3446.56
429.039	3383.07
429.247	3292.96
429.454	3706.65
429.662	4001.56
429.869	3794.72
430.076	4060.95
430.284	3737.37
430.491	4144.92
430.699	4337.43
430.906	4241.17
431.114	4470.55
431.321	4484.88
431.528	4568.85
431.736	4904.71
431.943	5113.61
432.15	5086.98
432.358	4978.44
432.565	5322.5
432.772	5342.98
432.979	5603.07
433.187	5633.79
433.394	5873.4
433.601	6147.83
433.808	5951.23
434.016	6115.06
434.223	6283
434.43	6831.85
434.637	6567.67
434.844	7167.72
435.052	7100.14
435.259	7212.78
435.466	7159.53
435.673	7141.1
435.88	7626.46
436.087	8103.64
436.294	7921.37
436.501	7796.45
436.708	8175.32
436.915	8208.09
437.122	8642.26
437.329	8636.11
437.537	8867.53
437.743	8916.69
437.95	8957.64
438.157	9287.37
438.364	9643.71
438.571	9563.84
438.778	9733.82
438.985	10546.87
439.192	10208.95
439.399	10661.55
439.606	10409.65
439.813	11005.61
440.02	11458.21
440.227	11499.17
440.433	11036.33
440.64	11669.16
440.847	11660.96
441.054	12095.13
441.261	12818.07
441.467	12523.16
441.674	12807.83
441.881	13252.24
442.088	13219.47
442.294	13029.01
442.501	13313.67
442.708	13844.1
442.914	14329.47
443.121	14845.55
443.328	14505.59
443.534	15640.17
443.741	15083.12
443.948	14839.41
444.154	16164.45
444.361	16121.44
444.568	16019.04
444.774	15912.55
444.981	16158.3
445.187	16658.01
445.394	17358.41
445.6	17102.42
445.807	18837.05
446.013	17790.53
446.22	18263.61
446.426	19203.63
446.633	19058.23
446.839	19893.8
447.046	19107.38
447.252	20012.58
447.459	20221.47
447.665	19975.72
447.871	21055
448.078	22212.1
448.284	20975.13
448.491	21515.79
448.697	22515.2
448.903	22783.48
449.11	22902.26
449.316	22812.15
449.522	22748.67
449.728	23612.91
449.935	23666.16
450.141	23838.19
450.347	24278.5
450.553	23524.85
450.76	23643.63
450.966	24579.55
451.172	24247.78
451.378	24903.13
451.584	24808.92
451.791	25023.96
451.997	24907.23
452.203	25521.62
452.409	25400.79
452.615	25341.39
452.821	24456.67
453.027	24382.95
453.233	25554.38
453.44	24542.69
453.646	24892.89
453.852	24980.95
454.058	25341.39
454.264	24589.79
454.47	25112.02
454.676	24655.33
454.882	25282
455.088	23365.1
455.294	23807.47
455.5	23940.58
455.705	24079.85
455.911	23150.07
456.117	22814.2
456.323	22672.89
456.529	21333.52
456.735	22169.09
456.941	21650.95
457.147	21411.34
457.352	20745.75
457.558	20491.8
457.764	20790.81
457.97	20278.82
458.176	19873.32
458.381	19760.68
458.587	18943.54
458.793	18908.72
458.999	17751.62
459.204	19064.37
459.41	18736.7
459.616	17315.41
459.821	17219.15
460.027	17219.15
460.233	16858.71
460.438	16154.21
460.644	16393.82
460.85	15642.21
461.055	15466.09
461.261	15287.92
461.466	14085.76
461.672	13758.08
461.878	14728.82
462.083	13768.32
462.289	13444.74
462.494	13487.75
462.7	12879.5
462.905	12586.65
463.111	12852.88
463.316	12797.59
463.522	12584.6
463.727	12570.26
463.932	12555.93
464.138	12703.38
464.343	12732.05
464.549	12287.64
464.754	12562.07
464.959	12451.48
465.165	12480.15
465.37	12013.21
465.575	11701.92
465.781	12207.77
465.986	12146.33
466.191	11832.99
466.397	11601.57
466.602	10948.27
466.807	11521.7
467.012	11607.72
467.218	11464.36
467.423	11308.71
467.628	11351.72
467.833	11943.58
468.038	11083.44
468.244	11114.16
468.449	11531.94
468.654	10950.32
468.859	10923.69
