Data from USB4F104151__88__12-54-51-238.txt Node

Date: Fri Mar 14 12:54:51 EDT 2025
User: louis
Spectrometer: USB4F10415
Trigger mode: 4
Integration Time (sec): 1.000000E-2
Scans to average: 1
Electric dark correction enabled: true
Nonlinearity correction enabled: false
Boxcar width: 0
XAxis mode: Wavelengths
Number of Pixels in Spectrum: 3648
>>>>>Begin Spectral Data<<<<<
178.204	-37.55
178.424	-37.55
178.644	-37.55
178.864	-72.36
179.084	-58.03
179.304	-8.87
179.524	32.08
179.744	73.04
179.964	-92.84
180.184	5.46
180.404	17.75
180.624	-37.55
180.844	-64.17
181.064	-33.45
181.283	-10.92
181.503	46.42
181.723	73.04
181.943	-29.35
182.163	-23.21
182.383	30.04
182.602	-0.68
182.822	-23.21
183.042	30.04
183.262	-23.21
183.482	40.28
183.701	17.75
183.921	44.37
184.141	23.89
184.361	48.47
184.58	58.71
184.8	-29.35
185.02	-43.69
185.239	-2.73
185.459	66.9
185.679	1.37
185.898	54.61
186.118	93.52
186.338	-0.68
186.557	-0.68
186.777	15.7
186.997	23.89
187.216	17.75
187.436	54.61
187.655	-19.11
187.875	97.62
188.095	-15.02
188.314	44.37
188.534	50.52
188.753	-8.87
188.973	54.61
189.192	25.94
189.412	19.8
189.631	-41.64
189.851	1.37
190.07	-10.92
190.29	-12.97
190.509	17.75
190.729	62.8
190.948	48.47
191.168	27.99
191.387	21.85
191.607	-21.16
191.826	62.8
192.045	-4.78
192.265	19.8
192.484	7.51
192.704	25.94
192.923	-6.83
193.142	-25.26
193.362	-15.02
193.581	46.42
193.8	9.56
194.02	52.56
194.239	-6.83
194.458	21.85
194.678	-15.02
194.897	46.42
195.116	-33.45
195.335	17.75
195.555	-27.31
195.774	83.28
195.993	30.04
196.212	19.8
196.432	42.32
196.651	-4.78
196.87	62.8
197.089	42.32
197.308	15.7
197.528	64.85
197.747	-19.11
197.966	-47.79
198.185	-37.55
198.404	11.61
198.623	81.24
198.842	1.37
199.062	25.94
199.281	68.95
199.5	48.47
199.719	54.61
199.938	60.76
200.157	13.65
200.376	-64.17
200.595	42.32
200.814	15.7
201.033	79.19
201.252	73.04
201.471	21.85
201.69	-6.83
201.909	-29.35
202.128	19.8
202.347	48.47
202.566	-31.4
202.785	11.61
203.004	-31.4
203.223	50.52
203.442	-60.07
203.661	56.66
203.879	23.89
204.098	-23.21
204.317	36.18
204.536	34.13
204.755	-2.73
204.974	-0.68
205.193	21.85
205.411	81.24
205.63	-6.83
205.849	48.47
206.068	-17.07
206.287	21.85
206.505	68.95
206.724	48.47
206.943	25.94
207.162	66.9
207.381	46.42
207.599	-12.97
207.818	60.76
208.037	44.37
208.255	11.61
208.474	62.8
208.693	-47.79
208.911	-19.11
209.13	-0.68
209.349	64.85
209.567	36.18
209.786	-2.73
210.005	3.41
210.223	11.61
210.442	44.37
210.661	56.66
210.879	-25.26
211.098	56.66
211.316	-10.92
211.535	83.28
211.753	-0.68
211.972	68.95
212.191	-66.22
212.409	-41.64
212.628	-31.4
212.846	-10.92
213.065	54.61
213.283	36.18
213.502	44.37
213.72	1.37
213.938	23.89
214.157	77.14
214.375	23.89
214.594	1.37
214.812	40.28
215.031	11.61
215.249	32.08
215.467	15.7
215.686	83.28
215.904	64.85
216.122	89.43
216.341	15.7
216.559	42.32
216.778	-10.92
216.996	-21.16
217.214	32.08
217.432	-6.83
217.651	-25.26
217.869	11.61
218.087	52.56
218.306	64.85
218.524	17.75
218.742	52.56
218.96	54.61
219.179	44.37
219.397	-47.79
219.615	68.95
219.833	62.8
220.051	-12.97
220.27	-60.07
220.488	-12.97
220.706	54.61
220.924	-80.55
221.142	11.61
221.36	-27.31
221.578	62.8
221.796	9.56
222.015	36.18
222.233	-29.35
222.451	34.13
222.669	1.37
222.887	36.18
223.105	-21.16
223.323	32.08
223.541	-8.87
223.759	15.7
223.977	-53.93
224.195	-2.73
224.413	25.94
224.631	13.65
224.849	1.37
225.067	89.43
225.285	3.41
225.503	-27.31
225.721	-62.12
225.939	-31.4
226.157	48.47
226.375	118.1
226.592	66.9
226.81	54.61
227.028	23.89
227.246	40.28
227.464	13.65
227.682	13.65
227.9	71
228.117	17.75
228.335	19.8
228.553	32.08
228.771	23.89
228.989	9.56
229.206	25.94
229.424	52.56
229.642	23.89
229.86	15.7
230.077	19.8
230.295	23.89
230.513	5.46
230.731	42.32
230.948	79.19
231.166	48.47
231.384	-25.26
231.601	1.37
231.819	-2.73
232.037	73.04
232.254	-23.21
232.472	7.51
232.689	68.95
232.907	13.65
233.125	-19.11
233.342	48.47
233.56	-43.69
233.777	-33.45
233.995	40.28
234.213	7.51
234.43	7.51
234.648	52.56
234.865	30.04
235.083	75.09
235.3	-8.87
235.518	68.95
235.735	15.7
235.953	68.95
236.17	38.23
236.388	83.28
236.605	-27.31
236.822	19.8
237.04	19.8
237.257	38.23
237.475	46.42
237.692	21.85
237.909	52.56
238.127	-27.31
238.344	91.48
238.562	-19.11
238.779	7.51
238.996	13.65
239.214	66.9
239.431	126.29
239.648	34.13
239.865	21.85
240.083	-8.87
240.3	9.56
240.517	19.8
240.735	-2.73
240.952	95.57
241.169	77.14
241.386	30.04
241.603	42.32
241.821	66.9
242.038	95.57
242.255	-8.87
242.472	-82.6
242.689	91.48
242.907	81.24
243.124	77.14
243.341	48.47
243.558	30.04
243.775	40.28
243.992	68.95
244.209	52.56
244.426	103.76
244.643	32.08
244.86	50.52
245.078	-4.78
245.295	60.76
245.512	7.51
245.729	-86.7
245.946	68.95
246.163	7.51
246.38	85.33
246.597	-4.78
246.814	17.75
247.031	7.51
247.248	23.89
247.464	-41.64
247.681	25.94
247.898	15.7
248.115	-23.21
248.332	50.52
248.549	7.51
248.766	40.28
248.983	56.66
249.2	21.85
249.417	-25.26
249.633	107.86
249.85	-31.4
250.067	-25.26
250.284	34.13
250.501	9.56
250.717	7.51
250.934	1.37
251.151	23.89
251.368	17.75
251.585	-2.73
251.801	52.56
252.018	60.76
252.235	44.37
252.451	50.52
252.668	5.46
252.885	-31.4
253.102	-8.87
253.318	-10.92
253.535	-10.92
253.752	111.96
253.968	89.43
254.185	21.85
254.401	11.61
254.618	-15.02
254.835	1.37
255.051	48.47
255.268	-19.11
255.484	15.7
255.701	17.75
255.917	7.51
256.134	46.42
256.351	-2.73
256.567	19.8
256.784	-25.26
257	9.56
257.217	32.08
257.433	27.99
257.65	52.56
257.866	-39.59
258.082	-2.73
258.299	-37.55
258.515	36.18
258.732	52.56
258.948	40.28
259.165	23.89
259.381	5.46
259.597	-8.87
259.814	34.13
260.03	77.14
260.246	93.52
260.463	-33.45
260.679	52.56
260.895	11.61
261.112	3.41
261.328	1.37
261.544	32.08
261.761	-60.07
261.977	-17.07
262.193	19.8
262.409	71
262.626	66.9
262.842	46.42
263.058	-23.21
263.274	42.32
263.49	1.37
263.707	-17.07
263.923	21.85
264.139	21.85
264.355	-31.4
264.571	42.32
264.787	7.51
265.004	60.76
265.22	50.52
265.436	-0.68
265.652	15.7
265.868	66.9
266.084	27.99
266.3	56.66
266.516	-29.35
266.732	-31.4
266.948	44.37
267.164	-68.27
267.38	30.04
267.596	-25.26
267.812	-84.65
268.028	23.89
268.244	-8.87
268.46	52.56
268.676	-19.11
268.892	23.89
269.108	-15.02
269.324	50.52
269.54	40.28
269.756	87.38
269.972	130.39
270.188	73.04
270.403	-37.55
270.619	5.46
270.835	-0.68
271.051	-12.97
271.267	-23.21
271.483	17.75
271.698	87.38
271.914	15.7
272.13	21.85
272.346	48.47
272.562	-49.83
272.777	32.08
272.993	36.18
273.209	64.85
273.425	-8.87
273.64	36.18
273.856	75.09
274.072	73.04
274.287	62.8
274.503	7.51
274.719	-4.78
274.934	50.52
275.15	9.56
275.366	5.46
275.581	15.7
275.797	-4.78
276.012	-41.64
276.228	54.61
276.444	54.61
276.659	91.48
276.875	-23.21
277.09	-51.88
277.306	-74.41
277.521	13.65
277.737	-58.03
277.952	-2.73
278.168	21.85
278.383	5.46
278.599	-0.68
278.814	23.89
279.03	3.41
279.245	44.37
279.461	-15.02
279.676	40.28
279.892	38.23
280.107	52.56
280.322	-66.22
280.538	73.04
280.753	19.8
280.969	46.42
281.184	87.38
281.399	-2.73
281.615	36.18
281.83	-6.83
282.045	-21.16
282.26	13.65
282.476	77.14
282.691	-47.79
282.906	40.28
283.122	15.7
283.337	32.08
283.552	73.04
283.767	34.13
283.983	36.18
284.198	-6.83
284.413	9.56
284.628	114
284.843	73.04
285.058	66.9
285.274	30.04
285.489	-15.02
285.704	-19.11
285.919	68.95
286.134	30.04
286.349	36.18
286.564	34.13
286.779	-29.35
286.995	73.04
287.21	-27.31
287.425	48.47
287.64	-0.68
287.855	-8.87
288.07	17.75
288.285	5.46
288.5	-6.83
288.715	36.18
288.93	-12.97
289.145	19.8
289.36	73.04
289.575	-2.73
289.79	-21.16
290.004	9.56
290.219	-39.59
290.434	9.56
290.649	27.99
290.864	1.37
291.079	87.38
291.294	11.61
291.509	7.51
291.724	32.08
291.938	44.37
292.153	-23.21
292.368	105.81
292.583	42.32
292.798	46.42
293.012	19.8
293.227	25.94
293.442	-47.79
293.657	32.08
293.871	34.13
294.086	30.04
294.301	15.7
294.516	54.61
294.73	89.43
294.945	32.08
295.16	48.47
295.374	-6.83
295.589	38.23
295.804	11.61
296.018	91.48
296.233	5.46
296.447	48.47
296.662	13.65
296.877	64.85
297.091	30.04
297.306	85.33
297.52	48.47
297.735	66.9
297.949	42.32
298.164	32.08
298.378	15.7
298.593	48.47
298.807	52.56
299.022	3.41
299.236	34.13
299.451	-8.87
299.665	9.56
299.88	-23.21
300.094	50.52
300.309	48.47
300.523	19.8
300.737	-4.78
300.952	-10.92
301.166	44.37
301.381	58.71
301.595	-43.69
301.809	-51.88
302.024	-21.16
302.238	-41.64
302.452	56.66
302.667	66.9
302.881	5.46
303.095	23.89
303.309	44.37
303.524	19.8
303.738	-47.79
303.952	36.18
304.166	30.04
304.381	34.13
304.595	23.89
304.809	-6.83
305.023	48.47
305.237	-12.97
305.452	42.32
305.666	11.61
305.88	38.23
306.094	30.04
306.308	81.24
306.522	3.41
306.736	-17.07
306.95	75.09
307.164	25.94
307.379	5.46
307.593	23.89
307.807	48.47
308.021	77.14
308.235	-39.59
308.449	-35.5
308.663	-51.88
308.877	11.61
309.091	-0.68
309.305	-33.45
309.519	-49.83
309.733	-2.73
309.947	23.89
310.161	44.37
310.374	1.37
310.588	19.8
310.802	19.8
311.016	42.32
311.23	1.37
311.444	-0.68
311.658	15.7
311.872	36.18
312.085	91.48
312.299	54.61
312.513	5.46
312.727	-12.97
312.941	-60.07
313.154	9.56
313.368	38.23
313.582	30.04
313.796	-27.31
314.009	-29.35
314.223	42.32
314.437	15.7
314.651	-27.31
314.864	11.61
315.078	68.95
315.292	9.56
315.505	44.37
315.719	-17.07
315.933	-27.31
316.146	-41.64
316.36	-6.83
316.573	27.99
316.787	25.94
317.001	-49.83
317.214	-10.92
317.428	66.9
317.641	-74.41
317.855	40.28
318.068	50.52
318.282	-31.4
318.495	25.94
318.709	-29.35
318.922	15.7
319.136	-0.68
319.349	17.75
319.563	34.13
319.776	27.99
319.99	-12.97
320.203	19.8
320.417	9.56
320.63	36.18
320.843	9.56
321.057	36.18
321.27	56.66
321.483	52.56
321.697	17.75
321.91	48.47
322.124	-35.5
322.337	-2.73
322.55	68.95
322.763	-21.16
322.977	21.85
323.19	1.37
323.403	9.56
323.617	68.95
323.83	-58.03
324.043	54.61
324.256	17.75
324.469	-6.83
324.683	66.9
324.896	-15.02
325.109	-6.83
325.322	-17.07
325.535	38.23
325.748	54.61
325.962	15.7
326.175	40.28
326.388	60.76
326.601	9.56
326.814	36.18
327.027	13.65
327.24	103.76
327.453	34.13
327.666	-4.78
327.879	-6.83
328.092	27.99
328.305	-53.93
328.518	66.9
328.731	5.46
328.944	54.61
329.157	71
329.37	58.71
329.583	-2.73
329.796	48.47
330.009	32.08
330.222	-27.31
330.435	75.09
330.648	56.66
330.861	-19.11
331.073	38.23
331.286	56.66
331.499	71
331.712	3.41
331.925	-27.31
332.138	75.09
332.35	64.85
332.563	-15.02
332.776	27.99
332.989	73.04
333.202	107.86
333.414	58.71
333.627	-10.92
333.84	81.24
334.053	17.75
334.265	40.28
334.478	60.76
334.691	36.18
334.903	48.47
335.116	-8.87
335.329	3.41
335.541	19.8
335.754	-17.07
335.966	-12.97
336.179	71
336.392	25.94
336.604	17.75
336.817	3.41
337.029	17.75
337.242	9.56
337.454	62.8
337.667	13.65
337.88	17.75
338.092	58.71
338.305	93.52
338.517	-70.31
338.729	-23.21
338.942	62.8
339.154	-17.07
339.367	-78.51
339.579	109.91
339.792	32.08
340.004	-19.11
340.217	-10.92
340.429	52.56
340.641	15.7
340.854	-47.79
341.066	-53.93
341.278	3.41
341.491	46.42
341.703	17.75
341.915	-6.83
342.128	48.47
342.34	-19.11
342.552	60.76
342.764	-8.87
342.977	48.47
343.189	9.56
343.401	79.19
343.613	-29.35
343.826	62.8
344.038	32.08
344.25	46.42
344.462	25.94
344.674	-6.83
344.886	109.91
345.099	71
345.311	3.41
345.523	11.61
345.735	-23.21
345.947	34.13
346.159	50.52
346.371	19.8
346.583	42.32
346.795	27.99
347.007	60.76
347.219	73.04
347.431	40.28
347.643	52.56
347.855	-47.79
348.067	89.43
348.279	23.89
348.491	27.99
348.703	30.04
348.915	62.8
349.127	34.13
349.339	128.34
349.551	-33.45
349.763	81.24
349.975	11.61
350.187	77.14
350.399	68.95
350.61	85.33
350.822	42.32
351.034	-8.87
351.246	-6.83
351.458	89.43
351.669	32.08
351.881	71
352.093	-4.78
352.305	9.56
352.517	5.46
352.728	32.08
352.94	15.7
353.152	64.85
353.363	21.85
353.575	116.05
353.787	1.37
353.999	50.52
354.21	-8.87
354.422	48.47
354.633	56.66
354.845	87.38
355.057	17.75
355.268	105.81
355.48	1.37
355.692	75.09
355.903	56.66
356.115	-47.79
356.326	34.13
356.538	89.43
356.749	7.51
356.961	48.47
357.172	-31.4
357.384	-21.16
357.595	50.52
357.807	17.75
358.018	-47.79
358.23	77.14
358.441	-23.21
358.653	-15.02
358.864	-25.26
359.075	7.51
359.287	150.87
359.498	93.52
359.709	64.85
359.921	-23.21
360.132	34.13
360.344	-15.02
360.555	11.61
360.766	11.61
360.977	-0.68
361.189	9.56
361.4	9.56
361.611	40.28
361.823	58.71
362.034	11.61
362.245	17.75
362.456	-25.26
362.667	77.14
362.879	25.94
363.09	44.37
363.301	60.76
363.512	36.18
363.723	-25.26
363.935	-23.21
364.146	38.23
364.357	34.13
364.568	-2.73
364.779	25.94
364.99	62.8
365.201	25.94
365.412	34.13
365.623	-35.5
365.834	60.76
366.045	-15.02
366.256	66.9
366.467	-0.68
366.678	23.89
366.889	-53.93
367.1	27.99
367.311	48.47
367.522	-8.87
367.733	48.47
367.944	-39.59
368.155	-6.83
368.366	-10.92
368.577	17.75
368.788	21.85
368.999	-25.26
369.209	17.75
369.42	60.76
369.631	11.61
369.842	34.13
370.053	1.37
370.264	48.47
370.474	64.85
370.685	136.53
370.896	32.08
371.107	54.61
371.317	-2.73
371.528	109.91
371.739	42.32
371.95	13.65
372.16	1.37
372.371	46.42
372.582	64.85
372.792	58.71
373.003	-15.02
373.214	9.56
373.424	-19.11
373.635	-49.83
373.846	66.9
374.056	62.8
374.267	60.76
374.477	30.04
374.688	9.56
374.898	36.18
375.109	9.56
375.319	17.75
375.53	36.18
375.74	25.94
375.951	50.52
376.161	25.94
376.372	134.48
376.582	40.28
376.793	30.04
377.003	9.56
377.214	77.14
377.424	23.89
377.635	89.43
377.845	68.95
378.055	52.56
378.266	-31.4
378.476	83.28
378.686	48.47
378.897	21.85
379.107	40.28
379.317	120.15
379.528	21.85
379.738	68.95
379.948	-2.73
380.158	83.28
380.369	19.8
380.579	13.65
380.789	3.41
380.999	34.13
381.21	32.08
381.42	97.62
381.63	-17.07
381.84	46.42
382.05	73.04
382.261	-10.92
382.471	40.28
382.681	48.47
382.891	17.75
383.101	27.99
383.311	89.43
383.521	40.28
383.731	23.89
383.941	77.14
384.151	83.28
384.361	-66.22
384.571	32.08
384.781	60.76
384.991	36.18
385.201	25.94
385.411	-25.26
385.621	42.32
385.831	1.37
386.041	32.08
386.251	48.47
386.461	91.48
386.671	-15.02
386.881	32.08
387.091	48.47
387.301	42.32
387.511	34.13
387.72	107.86
387.93	11.61
388.14	-23.21
388.35	-15.02
388.56	105.81
388.769	52.56
388.979	21.85
389.189	3.41
389.399	38.23
389.609	17.75
389.818	46.42
390.028	42.32
390.238	68.95
390.447	-2.73
390.657	77.14
390.867	58.71
391.076	11.61
391.286	52.56
391.496	64.85
391.705	62.8
391.915	30.04
392.125	97.62
392.334	36.18
392.544	36.18
392.753	83.28
392.963	-8.87
393.172	21.85
393.382	68.95
393.591	17.75
393.801	21.85
394.01	30.04
394.22	105.81
394.429	58.71
394.639	-31.4
394.848	64.85
395.058	40.28
395.267	101.72
395.477	32.08
395.686	56.66
395.895	99.67
396.105	21.85
396.314	48.47
396.524	11.61
396.733	36.18
396.942	52.56
397.152	66.9
397.361	64.85
397.57	17.75
397.78	34.13
397.989	27.99
398.198	79.19
398.407	-10.92
398.617	48.47
398.826	-10.92
399.035	13.65
399.244	1.37
399.453	7.51
399.663	40.28
399.872	87.38
400.081	54.61
400.29	38.23
400.499	52.56
400.708	66.9
400.917	93.52
401.127	50.52
401.336	3.41
401.545	99.67
401.754	81.24
401.963	103.76
402.172	21.85
402.381	66.9
402.59	50.52
402.799	58.71
403.008	134.48
403.217	36.18
403.426	91.48
403.635	97.62
403.844	-4.78
404.053	85.33
404.262	46.42
404.471	66.9
404.68	99.67
404.888	3.41
405.097	91.48
405.306	60.76
405.515	144.72
405.724	132.44
405.933	60.76
406.142	75.09
406.35	105.81
406.559	-15.02
406.768	128.34
406.977	140.63
407.185	23.89
407.394	103.76
407.603	99.67
407.812	122.2
408.02	111.96
408.229	134.48
408.438	97.62
408.646	138.58
408.855	165.2
409.064	97.62
409.272	122.2
409.481	163.15
409.69	183.63
409.898	159.06
410.107	130.39
410.315	128.34
410.524	261.46
410.733	238.93
410.941	273.75
411.15	240.98
411.358	212.31
411.567	249.17
411.775	226.64
411.984	109.91
412.192	234.83
412.401	206.16
412.609	247.12
412.818	359.76
413.026	253.27
413.234	306.51
413.443	247.12
413.651	240.98
413.86	310.61
414.068	378.19
414.276	247.12
414.485	335.18
414.693	324.94
414.901	355.66
415.11	279.89
415.318	378.19
415.526	406.86
415.734	382.29
415.943	361.81
416.151	421.2
416.359	394.58
416.567	396.62
416.776	425.29
416.984	494.93
417.192	507.21
417.4	429.39
417.608	464.21
417.817	482.64
418.025	525.65
418.233	603.47
418.441	494.93
418.649	576.84
418.857	601.42
419.065	736.59
419.273	650.57
419.481	644.43
419.689	800.07
419.897	730.44
420.105	808.27
420.313	773.45
420.521	851.27
420.729	814.41
420.937	916.81
421.145	888.14
421.353	875.85
421.561	990.53
421.769	955.72
421.977	1033.54
422.185	1074.5
422.393	1088.84
422.601	1133.89
422.809	1166.66
423.017	1142.08
423.224	1289.54
423.432	1252.67
423.64	1211.71
423.848	1461.57
424.056	1359.17
424.263	1393.98
424.471	1375.55
424.679	1447.23
424.887	1596.73
425.094	1604.92
425.302	1582.4
425.51	1733.95
425.718	1664.32
425.925	1758.52
426.133	1744.19
426.341	1910.07
426.548	2057.53
426.756	1901.88
426.964	1969.46
427.171	2184.5
427.379	2202.93
427.586	2223.41
427.794	2260.27
428.001	2377.01
428.209	2415.92
428.417	2456.88
428.624	2602.29
428.832	2647.34
429.039	2596.14
429.247	2635.05
429.454	2907.43
429.662	2925.86
429.869	2858.28
430.076	2987.3
430.284	2950.44
430.491	3009.83
430.699	3192.1
430.906	3212.58
431.114	3411.23
431.321	3433.76
431.528	3546.4
431.736	3642.65
431.943	3939.61
432.15	3861.79
432.358	3777.82
432.565	4005.14
432.772	4193.56
432.979	4275.48
433.187	4295.96
433.394	4232.47
433.601	4597.01
433.808	4605.2
434.016	4568.34
434.223	4787.47
434.43	5018.89
434.637	4939.02
434.844	5258.5
435.052	5401.86
435.259	5350.66
435.466	5379.33
435.673	5481.73
435.88	5713.15
436.087	6094.07
436.294	6057.21
436.501	5727.49
436.708	6073.59
436.915	6159.61
437.122	6483.19
437.329	6479.09
437.537	6620.4
437.743	6769.9
437.95	6776.05
438.157	7156.97
438.364	7324.9
438.571	7285.99
438.778	7398.63
438.985	8076.51
439.192	7646.43
439.399	7945.44
439.606	7818.46
439.813	8289.49
440.02	8654.03
440.227	8479.96
440.433	8434.9
440.64	8674.51
440.847	8713.42
441.054	9069.77
441.261	9587.91
441.467	9407.69
441.674	9696.45
441.881	9979.07
442.088	10054.84
442.294	9880.77
442.501	10183.87
442.708	10417.33
442.914	10702
443.121	11144.36
443.328	10865.84
443.534	11685.03
443.741	11261.1
443.948	11201.71
444.154	12170.4
444.361	12024.99
444.568	11926.69
444.774	11844.77
444.981	12311.71
445.187	12653.72
445.394	13120.65
445.6	12971.15
445.807	14171.26
446.013	13624.45
446.22	14013.57
446.426	14353.53
446.633	14685.3
446.839	15039.6
447.046	14400.63
447.252	15185.01
447.459	15328.36
447.665	15041.65
447.871	15901.79
448.078	16612.44
448.284	15912.03
448.491	16469.08
448.697	16641.11
448.903	17044.56
449.11	17271.89
449.316	16854.1
449.522	17558.6
449.728	17617.99
449.935	17706.06
450.141	17859.65
450.347	18168.9
450.553	17693.77
450.76	17826.89
450.966	18455.61
451.172	18295.87
451.378	19024.95
451.584	18551.87
451.791	18994.23
451.997	18947.12
452.203	19024.95
452.409	19170.35
452.615	18897.97
452.821	18336.83
453.027	18160.7
453.233	19180.59
453.44	18426.94
453.646	18523.19
453.852	18781.24
454.058	19156.02
454.264	18490.43
454.47	18957.36
454.676	18451.52
454.882	19209.26
455.088	17355.85
455.294	17736.77
455.5	18056.26
455.705	18084.93
455.911	17531.98
456.117	17112.14
456.323	17015.89
456.529	16180.32
456.735	16831.57
456.941	16446.55
457.147	16051.3
457.352	15438.95
457.558	15547.5
457.764	15342.7
457.97	15113.33
458.176	14783.6
458.381	14550.14
458.587	13847.68
458.793	13720.71
458.999	13364.36
459.204	14294.14
459.41	14083.2
459.616	13059.21
459.821	13016.21
460.027	12936.34
460.233	12410.01
460.438	12049.57
460.644	12108.96
460.85	11494.57
461.055	11535.53
461.261	11414.7
461.466	10620.08
461.672	10267.83
461.878	11062.44
462.083	10448.05
462.289	9946.3
462.494	9979.07
462.7	9354.44
462.905	9061.58
463.111	9669.83
463.316	9755.84
463.522	9546.95
463.727	9510.08
463.932	9493.7
464.138	9405.64
464.343	9413.83
464.549	9024.72
464.754	9401.54
464.959	9231.56
465.165	9166.03
465.37	8920.27
465.575	8711.38
465.781	9043.15
465.986	9006.28
466.191	8813.77
466.397	8477.91
466.602	8217.82
466.807	8529.11
467.012	8488.15
467.218	8262.87
467.423	8412.37
467.628	8500.44
467.833	8565.97
468.038	8326.36
468.244	8158.42
468.449	8410.33
468.654	8109.27
468.859	8053.98
469.064	8295.64
469.269	7914.72
