Data from USB4F104151__80__12-54-43-639.txt Node

Date: Fri Mar 14 12:54:43 EDT 2025
User: louis
Spectrometer: USB4F10415
Trigger mode: 4
Integration Time (sec): 1.000000E-2
Scans to average: 1
Electric dark correction enabled: true
Nonlinearity correction enabled: false
Boxcar width: 0
XAxis mode: Wavelengths
Number of Pixels in Spectrum: 3648
>>>>>Begin Spectral Data<<<<<
178.204	-52.39
178.424	-52.39
178.644	-52.39
178.864	-44.2
179.084	-38.06
179.304	25.43
179.524	4.95
179.744	-29.87
179.964	-27.82
180.184	2.9
180.404	-19.63
180.624	0.85
180.844	2.9
181.064	-54.44
181.283	23.38
181.503	17.24
181.723	54.1
181.943	-38.06
182.163	11.09
182.383	-33.96
182.602	29.52
182.822	2.9
183.042	54.1
183.262	-21.67
183.482	17.24
183.701	27.48
183.921	17.24
184.141	-17.58
184.361	90.96
184.58	-11.43
184.8	-17.58
185.02	-54.44
185.239	15.19
185.459	7
185.679	-15.53
185.898	-23.72
186.118	60.24
186.338	17.24
186.557	50
186.777	39.76
186.997	25.43
187.216	-36.01
187.436	45.91
187.655	45.91
187.875	31.57
188.095	0.85
188.314	9.05
188.534	-21.67
188.753	31.57
188.973	4.95
189.192	17.24
189.412	37.72
189.631	-1.19
189.851	-1.19
190.07	-40.11
190.29	43.86
190.509	93.01
190.729	-38.06
190.948	-15.53
191.168	62.29
191.387	21.33
191.607	-17.58
191.826	31.57
192.045	21.33
192.265	68.44
192.484	27.48
192.704	-7.34
192.923	-79.02
193.142	74.58
193.362	9.05
193.581	41.81
193.8	-3.24
194.02	-15.53
194.239	60.24
194.458	9.05
194.678	13.14
194.897	-15.53
195.116	4.95
195.335	39.76
195.555	21.33
195.774	54.1
195.993	27.48
196.212	9.05
196.432	17.24
196.651	41.81
196.87	7
197.089	50
197.308	23.38
197.528	56.15
197.747	35.67
197.966	-33.96
198.185	23.38
198.404	-46.25
198.623	23.38
198.842	4.95
199.062	2.9
199.281	33.62
199.5	58.2
199.719	-9.39
199.938	43.86
200.157	76.63
200.376	62.29
200.595	-38.06
200.814	21.33
201.033	88.92
201.252	-7.34
201.471	25.43
201.69	56.15
201.909	70.48
202.128	7
202.347	23.38
202.566	0.85
202.785	-11.43
203.004	-25.77
203.223	-38.06
203.442	78.68
203.661	52.05
203.879	29.52
204.098	41.81
204.317	-19.63
204.536	50
204.755	21.33
204.974	9.05
205.193	35.67
205.411	-9.39
205.63	72.53
205.849	29.52
206.068	37.72
206.287	-42.15
206.505	23.38
206.724	0.85
206.943	9.05
207.162	45.91
207.381	47.96
207.599	27.48
207.818	2.9
208.037	115.54
208.255	-7.34
208.474	101.2
208.693	33.62
208.911	-13.48
209.13	25.43
209.349	-7.34
209.567	-9.39
209.786	7
210.005	15.19
210.223	23.38
210.442	-21.67
210.661	-13.48
210.879	72.53
211.098	64.34
211.316	13.14
211.535	90.96
211.753	56.15
211.972	45.91
212.191	27.48
212.409	7
212.628	15.19
212.846	15.19
213.065	35.67
213.283	-7.34
213.502	52.05
213.72	68.44
213.938	21.33
214.157	62.29
214.375	45.91
214.594	-33.96
214.812	-9.39
215.031	29.52
215.249	-19.63
215.467	45.91
215.686	60.24
215.904	35.67
216.122	27.48
216.341	33.62
216.559	-13.48
216.778	21.33
216.996	13.14
217.214	-85.16
217.432	-27.82
217.651	-31.91
217.869	-5.29
218.087	29.52
218.306	72.53
218.524	-31.91
218.742	4.95
218.96	84.82
219.179	-7.34
219.397	7
219.615	7
219.833	35.67
220.051	9.05
220.27	41.81
220.488	-29.87
220.706	35.67
220.924	4.95
221.142	23.38
221.36	-46.25
221.578	54.1
221.796	47.96
222.015	97.11
222.233	-7.34
222.451	68.44
222.669	31.57
222.887	23.38
223.105	-17.58
223.323	-44.2
223.541	-25.77
223.759	47.96
223.977	-66.73
224.195	9.05
224.413	99.16
224.631	27.48
224.849	52.05
225.067	74.58
225.285	-9.39
225.503	29.52
225.721	-40.11
225.939	2.9
226.157	76.63
226.375	37.72
226.592	9.05
226.81	58.2
227.028	-58.54
227.246	37.72
227.464	-7.34
227.682	64.34
227.9	31.57
228.117	13.14
228.335	76.63
228.553	60.24
228.771	37.72
228.989	72.53
229.206	-15.53
229.424	37.72
229.642	15.19
229.86	95.06
230.077	37.72
230.295	-9.39
230.513	17.24
230.731	-7.34
230.948	99.16
231.166	23.38
231.384	97.11
231.601	-11.43
231.819	-33.96
232.037	-25.77
232.254	4.95
232.472	-17.58
232.689	29.52
232.907	27.48
233.125	25.43
233.342	-3.24
233.56	27.48
233.777	27.48
233.995	-27.82
234.213	74.58
234.43	-27.82
234.648	41.81
234.865	21.33
235.083	-15.53
235.3	37.72
235.518	-7.34
235.735	13.14
235.953	86.87
236.17	-9.39
236.388	43.86
236.605	25.43
236.822	58.2
237.04	47.96
237.257	62.29
237.475	56.15
237.692	9.05
237.909	97.11
238.127	4.95
238.344	33.62
238.562	129.88
238.779	43.86
238.996	17.24
239.214	41.81
239.431	13.14
239.648	-1.19
239.865	56.15
240.083	-33.96
240.3	-27.82
240.517	-31.91
240.735	-21.67
240.952	74.58
241.169	7
241.386	23.38
241.603	25.43
241.821	-42.15
242.038	43.86
242.255	37.72
242.472	-25.77
242.689	62.29
242.907	37.72
243.124	43.86
243.341	7
243.558	7
243.775	39.76
243.992	45.91
244.209	50
244.426	15.19
244.643	-9.39
244.86	0.85
245.078	58.2
245.295	-3.24
245.512	-56.49
245.729	7
245.946	31.57
246.163	9.05
246.38	11.09
246.597	52.05
246.814	-27.82
247.031	-62.63
247.248	17.24
247.464	35.67
247.681	39.76
247.898	33.62
248.115	27.48
248.332	19.29
248.549	17.24
248.766	13.14
248.983	15.19
249.2	47.96
249.417	64.34
249.633	103.25
249.85	27.48
250.067	-27.82
250.284	25.43
250.501	45.91
250.717	9.05
250.934	-1.19
251.151	-7.34
251.368	-23.72
251.585	66.39
251.801	-5.29
252.018	27.48
252.235	-36.01
252.451	23.38
252.668	-38.06
252.885	31.57
253.102	33.62
253.318	82.77
253.535	17.24
253.752	-42.15
253.968	-33.96
254.185	39.76
254.401	11.09
254.618	37.72
254.835	35.67
255.051	35.67
255.268	-15.53
255.484	25.43
255.701	-19.63
255.917	50
256.134	29.52
256.351	0.85
256.567	-21.67
256.784	4.95
257	7
257.217	25.43
257.433	13.14
257.65	4.95
257.866	52.05
258.082	-56.49
258.299	-11.43
258.515	13.14
258.732	-27.82
258.948	76.63
259.165	50
259.381	2.9
259.597	54.1
259.814	2.9
260.03	-52.39
260.246	0.85
260.463	70.48
260.679	21.33
260.895	-13.48
261.112	23.38
261.328	-44.2
261.544	-11.43
261.761	107.35
261.977	15.19
262.193	-21.67
262.409	64.34
262.626	47.96
262.842	80.72
263.058	-29.87
263.274	-1.19
263.49	13.14
263.707	31.57
263.923	13.14
264.139	2.9
264.355	88.92
264.571	68.44
264.787	15.19
265.004	131.92
265.22	-27.82
265.436	9.05
265.652	21.33
265.868	41.81
266.084	23.38
266.3	93.01
266.516	-33.96
266.732	-1.19
266.948	11.09
267.164	9.05
267.38	35.67
267.596	-19.63
267.812	31.57
268.028	15.19
268.244	15.19
268.46	43.86
268.676	-9.39
268.892	-1.19
269.108	-54.44
269.324	15.19
269.54	39.76
269.756	47.96
269.972	33.62
270.188	39.76
270.403	2.9
270.619	9.05
270.835	-31.91
271.051	17.24
271.267	17.24
271.483	-48.3
271.698	-1.19
271.914	43.86
272.13	58.2
272.346	-3.24
272.562	-9.39
272.777	72.53
272.993	-31.91
273.209	43.86
273.425	-33.96
273.64	19.29
273.856	-36.01
274.072	107.35
274.287	19.29
274.503	-1.19
274.719	64.34
274.934	29.52
275.15	37.72
275.366	97.11
275.581	-29.87
275.797	15.19
276.012	-15.53
276.228	17.24
276.444	86.87
276.659	15.19
276.875	-17.58
277.09	52.05
277.306	7
277.521	39.76
277.737	4.95
277.952	25.43
278.168	-9.39
278.383	23.38
278.599	-48.3
278.814	19.29
279.03	76.63
279.245	-3.24
279.461	9.05
279.676	-36.01
279.892	-29.87
280.107	-15.53
280.322	54.1
280.538	25.43
280.753	25.43
280.969	52.05
281.184	19.29
281.399	97.11
281.615	90.96
281.83	68.44
282.045	31.57
282.26	25.43
282.476	0.85
282.691	7
282.906	2.9
283.122	0.85
283.337	11.09
283.552	23.38
283.767	25.43
283.983	2.9
284.198	21.33
284.413	56.15
284.628	-11.43
284.843	76.63
285.058	-17.58
285.274	-27.82
285.489	23.38
285.704	64.34
285.919	43.86
286.134	41.81
286.349	4.95
286.564	43.86
286.779	-7.34
286.995	39.76
287.21	41.81
287.425	27.48
287.64	-40.11
287.855	56.15
288.07	15.19
288.285	2.9
288.5	29.52
288.715	-21.67
288.93	-31.91
289.145	-29.87
289.36	54.1
289.575	-17.58
289.79	62.29
290.004	35.67
290.219	2.9
290.434	-23.72
290.649	33.62
290.864	25.43
291.079	-23.72
291.294	43.86
291.509	-33.96
291.724	15.19
291.938	25.43
292.153	37.72
292.368	-13.48
292.583	103.25
292.798	47.96
293.012	43.86
293.227	39.76
293.442	-17.58
293.657	56.15
293.871	15.19
294.086	-1.19
294.301	7
294.516	66.39
294.73	29.52
294.945	21.33
295.16	72.53
295.374	21.33
295.589	-70.83
295.804	17.24
296.018	4.95
296.233	72.53
296.447	-29.87
296.662	74.58
296.877	107.35
297.091	115.54
297.306	-19.63
297.52	56.15
297.735	-13.48
297.949	84.82
298.164	90.96
298.378	68.44
298.593	0.85
298.807	33.62
299.022	31.57
299.236	41.81
299.451	17.24
299.665	50
299.88	-54.44
300.094	43.86
300.309	19.29
300.523	-19.63
300.737	-31.91
300.952	-7.34
301.166	-19.63
301.381	19.29
301.595	31.57
301.809	-58.54
302.024	23.38
302.238	-3.24
302.452	9.05
302.667	56.15
302.881	66.39
303.095	47.96
303.309	-7.34
303.524	88.92
303.738	0.85
303.952	23.38
304.166	54.1
304.381	-15.53
304.595	31.57
304.809	50
305.023	7
305.237	-52.39
305.452	-5.29
305.666	-13.48
305.88	88.92
306.094	74.58
306.308	50
306.522	45.91
306.736	93.01
306.95	43.86
307.164	39.76
307.379	19.29
307.593	-1.19
307.807	-25.77
308.021	47.96
308.235	-31.91
308.449	-3.24
308.663	43.86
308.877	41.81
309.091	45.91
309.305	64.34
309.519	39.76
309.733	27.48
309.947	-7.34
310.161	37.72
310.374	50
310.588	0.85
310.802	21.33
311.016	17.24
311.23	43.86
311.444	74.58
311.658	52.05
311.872	86.87
312.085	25.43
312.299	47.96
312.513	56.15
312.727	90.96
312.941	-11.43
313.154	39.76
313.368	82.77
313.582	101.2
313.796	68.44
314.009	80.72
314.223	39.76
314.437	93.01
314.651	7
314.864	-11.43
315.078	-50.35
315.292	45.91
315.505	-7.34
315.719	-3.24
315.933	-1.19
316.146	52.05
316.36	-36.01
316.573	-9.39
316.787	47.96
317.001	64.34
317.214	-25.77
317.428	62.29
317.641	-9.39
317.855	66.39
318.068	43.86
318.282	23.38
318.495	47.96
318.709	64.34
318.922	37.72
319.136	31.57
319.349	82.77
319.563	-33.96
319.776	50
319.99	15.19
320.203	23.38
320.417	25.43
320.63	2.9
320.843	9.05
321.057	7
321.27	9.05
321.483	27.48
321.697	86.87
321.91	39.76
322.124	41.81
322.337	15.19
322.55	33.62
322.763	4.95
322.977	7
323.19	35.67
323.403	41.81
323.617	-13.48
323.83	15.19
324.043	-38.06
324.256	25.43
324.469	11.09
324.683	31.57
324.896	-17.58
325.109	11.09
325.322	9.05
325.535	0.85
325.748	-38.06
325.962	-15.53
326.175	70.48
326.388	109.4
326.601	27.48
326.814	39.76
327.027	183.12
327.24	0.85
327.453	-36.01
327.666	7
327.879	-21.67
328.092	58.2
328.305	66.39
328.518	27.48
328.731	23.38
328.944	27.48
329.157	33.62
329.37	56.15
329.583	21.33
329.796	-50.35
330.009	29.52
330.222	23.38
330.435	25.43
330.648	50
330.861	7
331.073	41.81
331.286	-36.01
331.499	39.76
331.712	2.9
331.925	-5.29
332.138	64.34
332.35	105.3
332.563	58.2
332.776	27.48
332.989	60.24
333.202	47.96
333.414	23.38
333.627	50
333.84	86.87
334.053	33.62
334.265	-54.44
334.478	21.33
334.691	0.85
334.903	60.24
335.116	-40.11
335.329	-11.43
335.541	-17.58
335.754	39.76
335.966	107.35
336.179	15.19
336.392	58.2
336.604	27.48
336.817	43.86
337.029	15.19
337.242	31.57
337.454	99.16
337.667	56.15
337.88	-7.34
338.092	47.96
338.305	-9.39
338.517	-40.11
338.729	39.76
338.942	15.19
339.154	62.29
339.367	-31.91
339.579	60.24
339.792	7
340.004	64.34
340.217	52.05
340.429	93.01
340.641	-15.53
340.854	23.38
341.066	43.86
341.278	93.01
341.491	62.29
341.703	29.52
341.915	-33.96
342.128	66.39
342.34	70.48
342.552	56.15
342.764	25.43
342.977	93.01
343.189	76.63
343.401	70.48
343.613	39.76
343.826	31.57
344.038	86.87
344.25	64.34
344.462	-9.39
344.674	33.62
344.886	2.9
345.099	43.86
345.311	11.09
345.523	50
345.735	25.43
345.947	-9.39
346.159	62.29
346.371	68.44
346.583	25.43
346.795	70.48
347.007	105.3
347.219	45.91
347.431	15.19
347.643	70.48
347.855	76.63
348.067	-7.34
348.279	25.43
348.491	-1.19
348.703	41.81
348.915	72.53
349.127	-7.34
349.339	43.86
349.551	47.96
349.763	107.35
349.975	68.44
350.187	60.24
350.399	15.19
350.61	33.62
350.822	-52.39
351.034	47.96
351.246	11.09
351.458	-17.58
351.669	35.67
351.881	82.77
352.093	58.2
352.305	60.24
352.517	37.72
352.728	-21.67
352.94	-54.44
353.152	13.14
353.363	58.2
353.575	0.85
353.787	52.05
353.999	62.29
354.21	0.85
354.422	-11.43
354.633	88.92
354.845	-21.67
355.057	50
355.268	9.05
355.48	58.2
355.692	7
355.903	-29.87
356.115	27.48
356.326	31.57
356.538	41.81
356.749	15.19
356.961	68.44
357.172	43.86
357.384	-7.34
357.595	66.39
357.807	41.81
358.018	-21.67
358.23	-46.25
358.441	99.16
358.653	64.34
358.864	13.14
359.075	50
359.287	74.58
359.498	56.15
359.709	0.85
359.921	90.96
360.132	70.48
360.344	41.81
360.555	68.44
360.766	88.92
360.977	-42.15
361.189	33.62
361.4	-46.25
361.611	13.14
361.823	33.62
362.034	-7.34
362.245	43.86
362.456	39.76
362.667	37.72
362.879	52.05
363.09	-9.39
363.301	35.67
363.512	62.29
363.723	29.52
363.935	13.14
364.146	19.29
364.357	90.96
364.568	25.43
364.779	-17.58
364.99	17.24
365.201	-15.53
365.412	58.2
365.623	47.96
365.834	50
366.045	-9.39
366.256	7
366.467	27.48
366.678	7
366.889	-13.48
367.1	50
367.311	50
367.522	33.62
367.733	47.96
367.944	90.96
368.155	35.67
368.366	39.76
368.577	41.81
368.788	2.9
368.999	82.77
369.209	72.53
369.42	4.95
369.631	109.4
369.842	-7.34
370.053	64.34
370.264	105.3
370.474	72.53
370.685	68.44
370.896	86.87
371.107	62.29
371.317	-31.91
371.528	41.81
371.739	-23.72
371.95	9.05
372.16	60.24
372.371	45.91
372.582	33.62
372.792	-42.15
373.003	25.43
373.214	70.48
373.424	111.44
373.635	-11.43
373.846	-19.63
374.056	0.85
374.267	-17.58
374.477	-19.63
374.688	2.9
374.898	47.96
375.109	72.53
375.319	52.05
375.53	45.91
375.74	-21.67
375.951	60.24
376.161	-19.63
376.372	33.62
376.582	-3.24
376.793	37.72
377.003	17.24
377.214	-1.19
377.424	11.09
377.635	29.52
377.845	17.24
378.055	29.52
378.266	19.29
378.476	-1.19
378.686	-56.49
378.897	-5.29
379.107	39.76
379.317	-21.67
379.528	17.24
379.738	101.2
379.948	-7.34
380.158	21.33
380.369	47.96
380.579	29.52
380.789	66.39
380.999	35.67
381.21	72.53
381.42	64.34
381.63	52.05
381.84	27.48
382.05	-5.29
382.261	56.15
382.471	9.05
382.681	56.15
382.891	-9.39
383.101	68.44
383.311	25.43
383.521	-13.48
383.731	27.48
383.941	52.05
384.151	17.24
384.361	45.91
384.571	39.76
384.781	82.77
384.991	15.19
385.201	23.38
385.411	39.76
385.621	76.63
385.831	33.62
386.041	50
386.251	29.52
386.461	33.62
386.671	-7.34
386.881	109.4
387.091	17.24
387.301	58.2
387.511	56.15
387.72	72.53
387.93	-15.53
388.14	109.4
388.35	43.86
388.56	84.82
388.769	25.43
388.979	64.34
389.189	43.86
389.399	25.43
389.609	58.2
389.818	80.72
390.028	52.05
390.238	58.2
390.447	11.09
390.657	76.63
390.867	74.58
391.076	43.86
391.286	66.39
391.496	60.24
391.705	29.52
391.915	47.96
392.125	78.68
392.334	41.81
392.544	-38.06
392.753	80.72
392.963	-27.82
393.172	56.15
393.382	41.81
393.591	68.44
393.801	88.92
394.01	76.63
394.22	-19.63
394.429	41.81
394.639	21.33
394.848	107.35
395.058	60.24
395.267	70.48
395.477	74.58
395.686	-36.01
395.895	31.57
396.105	117.59
396.314	-7.34
396.524	37.72
396.733	27.48
396.942	133.97
397.152	0.85
397.361	72.53
397.57	39.76
397.78	23.38
397.989	62.29
398.198	62.29
398.407	88.92
398.617	47.96
398.826	56.15
399.035	119.64
399.244	97.11
399.453	45.91
399.663	-11.43
399.872	111.44
400.081	43.86
400.29	101.2
400.499	52.05
400.708	131.92
400.917	27.48
401.127	31.57
401.336	-23.72
401.545	41.81
401.754	58.2
401.963	72.53
402.172	97.11
402.381	52.05
402.59	-1.19
402.799	113.49
403.008	111.44
403.217	80.72
403.426	95.06
403.635	68.44
403.844	76.63
404.053	43.86
404.262	43.86
404.471	54.1
404.68	33.62
404.888	60.24
405.097	62.29
405.306	115.54
405.515	74.58
405.724	162.64
405.933	176.98
406.142	90.96
406.35	142.16
406.559	125.78
406.768	109.4
406.977	138.07
407.185	125.78
407.394	56.15
407.603	88.92
407.812	43.86
408.02	105.3
408.229	138.07
408.438	156.5
408.646	127.83
408.855	142.16
409.064	181.07
409.272	146.26
409.481	152.4
409.69	176.98
409.898	176.98
410.107	189.27
410.315	187.22
410.524	213.84
410.733	201.55
410.941	179.03
411.15	199.51
411.358	213.84
411.567	174.93
411.775	152.4
411.984	217.94
412.192	189.27
412.401	262.99
412.609	211.79
412.818	312.14
413.026	281.43
413.234	211.79
413.443	287.57
413.651	287.57
413.86	283.47
414.068	234.32
414.276	322.38
414.485	297.81
414.693	297.81
414.901	412.5
415.11	375.63
415.318	428.88
415.526	400.21
415.734	392.02
415.943	475.98
416.151	439.12
416.359	394.06
416.567	463.69
416.776	443.21
416.984	629.58
417.192	562
417.4	449.36
417.608	484.17
417.817	572.24
418.025	570.19
418.233	615.24
418.441	670.54
418.649	566.09
418.857	691.02
419.065	688.97
419.273	693.07
419.481	639.82
419.689	760.65
419.897	817.99
420.105	834.38
420.313	848.71
420.521	848.71
420.729	824.14
420.937	846.66
421.145	1016.65
421.353	1055.56
421.561	1026.89
421.769	961.35
421.977	973.64
422.185	1080.13
422.393	1086.28
422.601	1168.2
422.809	1237.83
423.017	1272.64
423.224	1327.94
423.432	1307.46
423.64	1413.95
423.848	1440.58
424.056	1319.75
424.263	1395.52
424.471	1485.63
424.679	1538.88
424.887	1563.45
425.094	1633.08
425.302	1624.89
425.51	1669.95
425.718	1694.52
425.925	1839.93
426.133	1891.13
426.341	1987.38
426.548	2052.92
426.756	2106.17
426.964	2169.65
427.171	2171.7
427.379	2292.53
427.586	2333.49
427.794	2263.86
428.001	2480.94
428.209	2616.11
428.417	2648.88
428.624	2759.47
428.832	2769.71
429.039	2704.17
429.247	2663.21
429.454	2984.74
429.662	3142.44
429.869	2978.6
430.076	3228.45
430.284	3085.09
430.491	3203.88
430.699	3384.1
430.906	3384.1
431.114	3650.33
431.321	3513.12
431.528	3617.57
431.736	3930.91
431.943	3971.86
432.15	3869.47
432.358	3908.38
432.565	4102.93
432.772	4324.12
432.979	4434.71
433.187	4498.19
433.394	4457.23
433.601	4758.28
433.808	4903.69
434.016	4793.1
434.223	4866.83
434.43	5266.18
434.637	5270.28
434.844	5577.47
435.052	5610.24
435.259	5597.95
435.466	5667.58
435.673	5634.82
435.88	5864.19
436.087	6337.27
436.294	6345.46
436.501	6185.72
436.708	6351.6
436.915	6621.94
437.122	6834.93
437.329	6824.69
437.537	7086.83
437.743	7076.59
437.95	7123.69
438.157	7344.87
438.364	7572.19
438.571	7621.35
438.778	7863.01
438.985	8432.34
439.192	7979.74
439.399	8452.82
439.606	8254.17
439.813	8745.68
440.02	9210.57
440.227	9110.22
440.433	8938.19
440.64	9255.62
440.847	9212.62
441.054	9505.48
441.261	10011.32
441.467	9968.32
441.674	10257.08
441.881	10533.56
442.088	10523.32
442.294	10324.66
442.501	10521.27
442.708	10797.74
442.914	11473.57
443.121	11567.78
443.328	11383.46
443.534	12382.87
443.741	11907.74
443.948	11823.78
444.154	12796.56
444.361	12700.31
444.568	12716.69
444.774	12806.8
444.981	12929.68
445.187	13126.29
445.394	13785.73
445.6	13490.82
445.807	14826.1
446.013	14201.47
446.22	14492.28
446.426	15106.67
446.633	15348.33
446.839	15741.54
447.046	15157.87
447.252	15831.65
447.459	15827.56
447.665	16210.53
447.871	16599.64
448.078	17392.2
448.284	16681.56
448.491	17353.29
448.697	17762.89
448.903	17936.96
449.11	18184.77
449.316	17726.02
449.522	18145.86
449.728	18856.5
449.935	18979.38
450.141	18926.13
450.347	19212.85
450.553	18874.93
450.76	18774.58
450.966	19569.19
451.172	19378.73
451.378	19769.9
451.584	19489.32
451.791	19864.1
451.997	19911.21
452.203	20214.3
452.409	20406.81
452.615	20040.23
452.821	19438.12
453.027	19106.35
453.233	20328.99
453.44	19468.84
453.646	19313.2
453.852	19599.91
454.058	20185.63
454.264	19456.56
454.47	19976.74
454.676	19413.55
454.882	20011.56
455.088	18424.38
455.294	18661.94
455.5	18868.79
455.705	18938.42
455.911	18111.04
456.117	18106.95
456.323	17826.37
456.529	16722.52
456.735	17480.27
456.941	17326.67
457.147	16609.88
457.352	16253.53
457.558	15989.35
457.764	16441.95
457.97	15888.99
458.176	15299.18
458.381	15575.66
458.587	14914.16
458.793	14785.14
458.999	13722.24
459.204	15028.85
459.41	14846.58
459.616	13578.89
459.821	13542.02
460.027	13392.52
460.233	13206.16
460.438	12401.3
460.644	12839.57
460.85	12169.88
461.055	11829.92
461.261	11920.03
461.466	11213.48
461.672	10951.34
461.878	11704.99
462.083	10810.03
462.289	10654.39
462.494	10506.93
462.7	9956.03
462.905	10027.71
463.111	9888.45
463.316	10031.8
463.522	10029.76
463.727	9906.88
463.932	9896.64
464.138	9790.14
464.343	9931.45
464.549	9654.98
464.754	9822.91
464.959	9921.21
465.165	9708.23
465.37	9370.31
465.575	8925.9
465.781	9181.9
465.986	9542.34
466.191	9038.54
466.397	9128.65
466.602	8401.62
466.807	9073.35
467.012	8774.35
467.218	8805.07
467.423	8886.99
467.628	8790.74
467.833	9075.4
468.038	8798.93
468.244	8624.85
468.449	8970.96
468.654	8600.27
468.859	8446.68
469.064	8420.05
469.269	8162.01
469.474	8172.25
469.679	8489.68
469.885	8114.91
470.09	8356.57
470.295	8399.57
