Data from USB4F104151__25__12-53-29-296.txt Node

Date: Fri Mar 14 12:53:29 EDT 2025
User: louis
Spectrometer: USB4F10415
Trigger mode: 4
Integration Time (sec): 1.000000E-2
Scans to average: 1
Electric dark correction enabled: true
Nonlinearity correction enabled: false
Boxcar width: 0
XAxis mode: Wavelengths
Number of Pixels in Spectrum: 3648
>>>>>Begin Spectral Data<<<<<
178.204	-65.19
178.424	-65.19
178.644	-65.19
178.864	-106.15
179.084	-77.48
179.304	-48.81
179.524	-18.09
179.744	-83.63
179.964	59.73
180.184	4.44
180.404	33.11
180.624	69.97
180.844	-40.62
181.064	8.53
181.283	31.06
181.503	-26.28
181.723	10.58
181.943	-61.1
182.163	-11.95
182.383	24.92
182.602	-13.99
182.822	0.34
183.042	-40.62
183.262	-38.57
183.482	-48.81
183.701	-3.75
183.921	20.82
184.141	35.16
184.361	-28.33
184.58	-54.95
184.8	-81.58
185.02	33.11
185.239	37.2
185.459	4.44
185.679	29.01
185.898	-5.8
186.118	4.44
186.338	-26.28
186.557	12.63
186.777	-24.23
186.997	24.92
187.216	-28.33
187.436	41.3
187.655	-59.05
187.875	-44.71
188.095	29.01
188.314	26.96
188.534	14.68
188.753	47.44
188.973	29.01
189.192	0.34
189.412	-40.62
189.631	33.11
189.851	57.68
190.07	-22.19
190.29	-50.86
190.509	41.3
190.729	-54.95
190.948	-7.85
191.168	59.73
191.387	6.49
191.607	2.39
191.826	-5.8
192.045	24.92
192.265	14.68
192.484	18.77
192.704	35.16
192.923	-28.33
193.142	-36.52
193.362	33.11
193.581	65.88
193.8	-38.57
194.02	8.53
194.239	2.39
194.458	-7.85
194.678	26.96
194.897	20.82
195.116	41.3
195.335	-16.04
195.555	-50.86
195.774	-24.23
195.993	6.49
196.212	-13.99
196.432	-32.43
196.651	8.53
196.87	-18.09
197.089	53.59
197.308	-24.23
197.528	-36.52
197.747	-7.85
197.966	-9.9
198.185	2.39
198.404	-28.33
198.623	-1.71
198.842	-7.85
199.062	72.02
199.281	-36.52
199.5	37.2
199.719	-18.09
199.938	20.82
200.157	47.44
200.376	-83.63
200.595	20.82
200.814	61.78
201.033	8.53
201.252	6.49
201.471	67.92
201.69	16.73
201.909	82.26
202.128	10.58
202.347	22.87
202.566	-7.85
202.785	16.73
203.004	8.53
203.223	-7.85
203.442	55.64
203.661	-42.67
203.879	2.39
204.098	-5.8
204.317	-102.06
204.536	8.53
204.755	-50.86
204.974	26.96
205.193	-63.15
205.411	24.92
205.63	29.01
205.849	33.11
206.068	16.73
206.287	26.96
206.505	-11.95
206.724	8.53
206.943	-22.19
207.162	-69.29
207.381	-50.86
207.599	-40.62
207.818	37.2
208.037	-63.15
208.255	4.44
208.474	-7.85
208.693	41.3
208.911	45.4
209.13	18.77
209.349	-30.38
209.567	16.73
209.786	39.25
210.005	-7.85
210.223	2.39
210.442	-30.38
210.661	43.35
210.879	-5.8
211.098	-1.71
211.316	24.92
211.535	-20.14
211.753	-20.14
211.972	0.34
212.191	-22.19
212.409	-11.95
212.628	-24.23
212.846	51.54
213.065	10.58
213.283	-5.8
213.502	-36.52
213.72	2.39
213.938	-32.43
214.157	-11.95
214.375	-1.71
214.594	-13.99
214.812	-7.85
215.031	-32.43
215.249	-36.52
215.467	-34.47
215.686	-5.8
215.904	24.92
216.122	16.73
216.341	8.53
216.559	-50.86
216.778	-32.43
216.996	-5.8
217.214	-3.75
217.432	37.2
217.651	0.34
217.869	-5.8
218.087	24.92
218.306	18.77
218.524	-28.33
218.742	-13.99
218.96	65.88
219.179	10.58
219.397	-26.28
219.615	-13.99
219.833	24.92
220.051	16.73
220.27	16.73
220.488	-24.23
220.706	10.58
220.924	-24.23
221.142	31.06
221.36	-18.09
221.578	-5.8
221.796	37.2
222.015	-40.62
222.233	39.25
222.451	16.73
222.669	24.92
222.887	61.78
223.105	12.63
223.323	-3.75
223.541	2.39
223.759	-1.71
223.977	-32.43
224.195	-32.43
224.413	-73.39
224.631	45.4
224.849	51.54
225.067	59.73
225.285	12.63
225.503	-22.19
225.721	-38.57
225.939	2.39
226.157	-38.57
226.375	45.4
226.592	-18.09
226.81	-18.09
227.028	37.2
227.246	18.77
227.464	-61.1
227.682	-16.04
227.9	39.25
228.117	-57
228.335	-9.9
228.553	18.77
228.771	26.96
228.989	31.06
229.206	-18.09
229.424	18.77
229.642	41.3
229.86	57.68
230.077	-16.04
230.295	26.96
230.513	55.64
230.731	-5.8
230.948	-40.62
231.166	-5.8
231.384	-65.19
231.601	-20.14
231.819	61.78
232.037	-54.95
232.254	-59.05
232.472	-30.38
232.689	-24.23
232.907	-13.99
233.125	20.82
233.342	-13.99
233.56	-57
233.777	14.68
233.995	57.68
234.213	67.92
234.43	-61.1
234.648	-22.19
234.865	-38.57
235.083	37.2
235.3	-22.19
235.518	41.3
235.735	-44.71
235.953	14.68
236.17	-7.85
236.388	-38.57
236.605	-13.99
236.822	2.39
237.04	63.83
237.257	8.53
237.475	-24.23
237.692	0.34
237.909	-3.75
238.127	26.96
238.344	-24.23
238.562	57.68
238.779	-20.14
238.996	24.92
239.214	-7.85
239.431	-20.14
239.648	0.34
239.865	-59.05
240.083	2.39
240.3	49.49
240.517	-7.85
240.735	0.34
240.952	37.2
241.169	43.35
241.386	-34.47
241.603	41.3
241.821	37.2
242.038	-30.38
242.255	59.73
242.472	-40.62
242.689	-69.29
242.907	12.63
243.124	-22.19
243.341	-9.9
243.558	14.68
243.775	22.87
243.992	53.59
244.209	-65.19
244.426	33.11
244.643	14.68
244.86	-26.28
245.078	49.49
245.295	18.77
245.512	8.53
245.729	-13.99
245.946	0.34
246.163	-71.34
246.38	-34.47
246.597	35.16
246.814	-30.38
247.031	-11.95
247.248	59.73
247.464	-34.47
247.681	8.53
247.898	-30.38
248.115	-11.95
248.332	-63.15
248.549	-26.28
248.766	51.54
248.983	-13.99
249.2	-11.95
249.417	45.4
249.633	39.25
249.85	78.16
250.067	12.63
250.284	33.11
250.501	24.92
250.717	-16.04
250.934	-57
251.151	20.82
251.368	-67.24
251.585	14.68
251.801	-18.09
252.018	-7.85
252.235	10.58
252.451	0.34
252.668	37.2
252.885	-20.14
253.102	37.2
253.318	-46.76
253.535	51.54
253.752	8.53
253.968	2.39
254.185	0.34
254.401	39.25
254.618	14.68
254.835	8.53
255.051	-61.1
255.268	10.58
255.484	-83.63
255.701	14.68
255.917	47.44
256.134	-48.81
256.351	0.34
256.567	12.63
256.784	-16.04
257	-28.33
257.217	47.44
257.433	2.39
257.65	82.26
257.866	10.58
258.082	76.12
258.299	4.44
258.515	43.35
258.732	-46.76
258.948	18.77
259.165	53.59
259.381	-69.29
259.597	6.49
259.814	72.02
260.03	49.49
260.246	98.64
260.463	51.54
260.679	-79.53
260.895	-13.99
261.112	-77.48
261.328	-13.99
261.544	-57
261.761	94.55
261.977	-24.23
262.193	-69.29
262.409	53.59
262.626	-32.43
262.842	90.45
263.058	6.49
263.274	-11.95
263.49	-13.99
263.707	61.78
263.923	-16.04
264.139	67.92
264.355	43.35
264.571	41.3
264.787	-44.71
265.004	31.06
265.22	10.58
265.436	6.49
265.652	-30.38
265.868	26.96
266.084	6.49
266.3	-16.04
266.516	14.68
266.732	-69.29
266.948	-48.81
267.164	-20.14
267.38	10.58
267.596	26.96
267.812	67.92
268.028	-24.23
268.244	4.44
268.46	8.53
268.676	-9.9
268.892	-22.19
269.108	20.82
269.324	-36.52
269.54	-61.1
269.756	-40.62
269.972	6.49
270.188	35.16
270.403	12.63
270.619	-75.43
270.835	-9.9
271.051	-48.81
271.267	49.49
271.483	-52.91
271.698	35.16
271.914	49.49
272.13	-7.85
272.346	-48.81
272.562	-36.52
272.777	14.68
272.993	-36.52
273.209	10.58
273.425	-59.05
273.64	0.34
273.856	-42.67
274.072	20.82
274.287	-71.34
274.503	-54.95
274.719	-52.91
274.934	-16.04
275.15	-65.19
275.366	-54.95
275.581	41.3
275.797	8.53
276.012	-22.19
276.228	-3.75
276.444	24.92
276.659	59.73
276.875	-32.43
277.09	0.34
277.306	-71.34
277.521	63.83
277.737	-11.95
277.952	18.77
278.168	-40.62
278.383	-46.76
278.599	18.77
278.814	37.2
279.03	-24.23
279.245	16.73
279.461	74.07
279.676	33.11
279.892	24.92
280.107	16.73
280.322	-48.81
280.538	-3.75
280.753	43.35
280.969	-5.8
281.184	-114.34
281.399	24.92
281.615	-40.62
281.83	24.92
282.045	-5.8
282.26	-5.8
282.476	47.44
282.691	26.96
282.906	12.63
283.122	0.34
283.337	-38.57
283.552	10.58
283.767	2.39
283.983	47.44
284.198	53.59
284.413	20.82
284.628	-42.67
284.843	20.82
285.058	16.73
285.274	35.16
285.489	-40.62
285.704	35.16
285.919	0.34
286.134	-54.95
286.349	-5.8
286.564	24.92
286.779	-9.9
286.995	37.2
287.21	-34.47
287.425	-16.04
287.64	41.3
287.855	31.06
288.07	-48.81
288.285	18.77
288.5	37.2
288.715	-52.91
288.93	35.16
289.145	-11.95
289.36	-61.1
289.575	-11.95
289.79	-20.14
290.004	-69.29
290.219	10.58
290.434	37.2
290.649	37.2
290.864	110.93
291.079	-22.19
291.294	6.49
291.509	51.54
291.724	-13.99
291.938	-87.72
292.153	-30.38
292.368	-34.47
292.583	-81.58
292.798	14.68
293.012	-22.19
293.227	4.44
293.442	12.63
293.657	-18.09
293.871	-24.23
294.086	-32.43
294.301	-46.76
294.516	22.87
294.73	20.82
294.945	-7.85
295.16	29.01
295.374	26.96
295.589	16.73
295.804	16.73
296.018	-7.85
296.233	-34.47
296.447	-18.09
296.662	-24.23
296.877	2.39
297.091	16.73
297.306	51.54
297.52	-1.71
297.735	14.68
297.949	8.53
298.164	39.25
298.378	-89.77
298.593	-18.09
298.807	-7.85
299.022	-71.34
299.236	-11.95
299.451	16.73
299.665	-20.14
299.88	-97.96
300.094	-16.04
300.309	69.97
300.523	-9.9
300.737	16.73
300.952	-18.09
301.166	24.92
301.381	2.39
301.595	-13.99
301.809	2.39
302.024	8.53
302.238	20.82
302.452	2.39
302.667	4.44
302.881	57.68
303.095	45.4
303.309	-16.04
303.524	-34.47
303.738	29.01
303.952	26.96
304.166	-1.71
304.381	-22.19
304.595	59.73
304.809	0.34
305.023	45.4
305.237	2.39
305.452	4.44
305.666	-32.43
305.88	24.92
306.094	20.82
306.308	63.83
306.522	10.58
306.736	24.92
306.95	-54.95
307.164	-3.75
307.379	-16.04
307.593	76.12
307.807	-7.85
308.021	26.96
308.235	-11.95
308.449	41.3
308.663	-28.33
308.877	49.49
309.091	16.73
309.305	39.25
309.519	20.82
309.733	-1.71
309.947	6.49
310.161	16.73
310.374	-57
310.588	-69.29
310.802	14.68
311.016	-28.33
311.23	-54.95
311.444	33.11
311.658	-81.58
311.872	14.68
312.085	2.39
312.299	14.68
312.513	-100.01
312.727	0.34
312.941	-34.47
313.154	-7.85
313.368	20.82
313.582	4.44
313.796	51.54
314.009	-52.91
314.223	45.4
314.437	-3.75
314.651	49.49
314.864	4.44
315.078	-16.04
315.292	-9.9
315.505	-22.19
315.719	92.5
315.933	26.96
316.146	-34.47
316.36	-57
316.573	53.59
316.787	-77.48
317.001	-16.04
317.214	-16.04
317.428	-32.43
317.641	-59.05
317.855	-50.86
318.068	-16.04
318.282	-18.09
318.495	80.21
318.709	61.78
318.922	-28.33
319.136	29.01
319.349	-67.24
319.563	-13.99
319.776	16.73
319.99	-57
320.203	22.87
320.417	35.16
320.63	26.96
320.843	86.36
321.057	26.96
321.27	47.44
321.483	59.73
321.697	-46.76
321.91	-52.91
322.124	-20.14
322.337	18.77
322.55	0.34
322.763	-28.33
322.977	-1.71
323.19	-46.76
323.403	33.11
323.617	22.87
323.83	-61.1
324.043	-20.14
324.256	-38.57
324.469	16.73
324.683	45.4
324.896	-1.71
325.109	86.36
325.322	-36.52
325.535	-69.29
325.748	-44.71
325.962	0.34
326.175	39.25
326.388	-87.72
326.601	-20.14
326.814	24.92
327.027	41.3
327.24	80.21
327.453	-61.1
327.666	-30.38
327.879	37.2
328.092	8.53
328.305	-52.91
328.518	-16.04
328.731	20.82
328.944	-13.99
329.157	-11.95
329.37	-28.33
329.583	14.68
329.796	29.01
330.009	-30.38
330.222	0.34
330.435	14.68
330.648	24.92
330.861	14.68
331.073	-36.52
331.286	-11.95
331.499	4.44
331.712	26.96
331.925	-16.04
332.138	-18.09
332.35	12.63
332.563	8.53
332.776	29.01
332.989	-38.57
333.202	6.49
333.414	2.39
333.627	63.83
333.84	41.3
334.053	-16.04
334.265	-18.09
334.478	8.53
334.691	-83.63
334.903	-40.62
335.116	29.01
335.329	35.16
335.541	14.68
335.754	-5.8
335.966	69.97
336.179	37.2
336.392	-11.95
336.604	0.34
336.817	-1.71
337.029	12.63
337.242	-11.95
337.454	18.77
337.667	2.39
337.88	-13.99
338.092	-26.28
338.305	-13.99
338.517	-22.19
338.729	39.25
338.942	-3.75
339.154	-79.53
339.367	0.34
339.579	12.63
339.792	-63.15
340.004	53.59
340.217	-22.19
340.429	-7.85
340.641	-18.09
340.854	45.4
341.066	-50.86
341.278	20.82
341.491	61.78
341.703	-24.23
341.915	41.3
342.128	20.82
342.34	-32.43
342.552	16.73
342.764	-18.09
342.977	16.73
343.189	-22.19
343.401	-7.85
343.613	-75.43
343.826	-24.23
344.038	4.44
344.25	20.82
344.462	61.78
344.674	-77.48
344.886	-5.8
345.099	24.92
345.311	-93.87
345.523	-32.43
345.735	-22.19
345.947	133.46
346.159	18.77
346.371	-24.23
346.583	-7.85
346.795	-50.86
347.007	-28.33
347.219	-7.85
347.431	0.34
347.643	22.87
347.855	-26.28
348.067	12.63
348.279	20.82
348.491	0.34
348.703	53.59
348.915	33.11
349.127	-32.43
349.339	-5.8
349.551	-61.1
349.763	-44.71
349.975	31.06
350.187	-7.85
350.399	-1.71
350.61	18.77
350.822	-28.33
351.034	8.53
351.246	-34.47
351.458	-48.81
351.669	-63.15
351.881	20.82
352.093	16.73
352.305	69.97
352.517	-65.19
352.728	-28.33
352.94	-13.99
353.152	98.64
353.363	-22.19
353.575	-16.04
353.787	6.49
353.999	-9.9
354.21	67.92
354.422	-52.91
354.633	-100.01
354.845	-67.24
355.057	-63.15
355.268	65.88
355.48	-48.81
355.692	8.53
355.903	-30.38
356.115	31.06
356.326	-11.95
356.538	16.73
356.749	-22.19
356.961	67.92
357.172	-13.99
357.384	-28.33
357.595	-3.75
357.807	20.82
358.018	31.06
358.23	98.64
358.441	29.01
358.653	33.11
358.864	-20.14
359.075	24.92
359.287	-5.8
359.498	72.02
359.709	16.73
359.921	-3.75
360.132	12.63
360.344	-44.71
360.555	-5.8
360.766	16.73
360.977	-7.85
361.189	-5.8
361.4	-44.71
361.611	-32.43
361.823	61.78
362.034	-65.19
362.245	10.58
362.456	-24.23
362.667	82.26
362.879	-11.95
363.09	-63.15
363.301	-7.85
363.512	-48.81
363.723	0.34
363.935	-20.14
364.146	35.16
364.357	-7.85
364.568	20.82
364.779	35.16
364.99	100.69
365.201	20.82
365.412	2.39
365.623	-1.71
365.834	-16.04
366.045	-54.95
366.256	-38.57
366.467	-24.23
366.678	47.44
366.889	-11.95
367.1	-34.47
367.311	-24.23
367.522	18.77
367.733	22.87
367.944	133.46
368.155	-16.04
368.366	14.68
368.577	-30.38
368.788	31.06
368.999	57.68
369.209	-1.71
369.42	18.77
369.631	51.54
369.842	-7.85
370.053	74.07
370.264	67.92
370.474	-20.14
370.685	0.34
370.896	-79.53
371.107	16.73
371.317	2.39
371.528	-16.04
371.739	-7.85
371.95	69.97
372.16	4.44
372.371	-18.09
372.582	-52.91
372.792	-48.81
373.003	-26.28
373.214	59.73
373.424	-1.71
373.635	10.58
373.846	47.44
374.056	-69.29
374.267	74.07
374.477	35.16
374.688	-42.67
374.898	51.54
375.109	43.35
375.319	14.68
375.53	51.54
375.74	39.25
375.951	49.49
376.161	35.16
376.372	-63.15
376.582	-32.43
376.793	10.58
377.003	-34.47
377.214	86.36
377.424	20.82
377.635	59.73
377.845	-9.9
378.055	-24.23
378.266	20.82
378.476	39.25
378.686	31.06
378.897	67.92
379.107	-11.95
379.317	-26.28
379.528	-46.76
379.738	2.39
379.948	45.4
380.158	18.77
380.369	51.54
380.579	29.01
380.789	49.49
380.999	-52.91
381.21	49.49
381.42	41.3
381.63	-3.75
381.84	-1.71
382.05	45.4
382.261	29.01
382.471	-5.8
382.681	-9.9
382.891	-22.19
383.101	65.88
383.311	33.11
383.521	-22.19
383.731	12.63
383.941	84.31
384.151	-18.09
384.361	-3.75
384.571	45.4
384.781	29.01
384.991	31.06
385.201	29.01
385.411	-5.8
385.621	-32.43
385.831	-106.15
386.041	8.53
386.251	35.16
386.461	2.39
386.671	24.92
386.881	12.63
387.091	67.92
387.301	18.77
387.511	2.39
387.72	-40.62
387.93	-16.04
388.14	-34.47
388.35	24.92
388.56	4.44
388.769	-3.75
388.979	33.11
389.189	-11.95
389.399	0.34
389.609	43.35
389.818	59.73
390.028	-22.19
390.238	51.54
390.447	12.63
390.657	-13.99
390.867	-5.8
391.076	98.64
391.286	49.49
391.496	16.73
391.705	-20.14
391.915	59.73
392.125	-18.09
392.334	-9.9
392.544	117.08
392.753	-48.81
392.963	-65.19
393.172	65.88
393.382	-26.28
393.591	16.73
393.801	-13.99
394.01	26.96
394.22	-24.23
394.429	41.3
394.639	8.53
394.848	65.88
395.058	-9.9
395.267	29.01
395.477	35.16
395.686	-26.28
395.895	-24.23
396.105	-38.57
396.314	8.53
396.524	-13.99
396.733	8.53
396.942	12.63
397.152	39.25
397.361	16.73
397.57	-38.57
397.78	29.01
397.989	78.16
398.198	65.88
398.407	-65.19
398.617	59.73
398.826	-1.71
399.035	20.82
399.244	57.68
399.453	55.64
399.663	53.59
399.872	22.87
400.081	-34.47
400.29	10.58
400.499	-1.71
400.708	76.12
400.917	12.63
401.127	-16.04
401.336	37.2
401.545	16.73
401.754	14.68
401.963	8.53
402.172	18.77
402.381	-13.99
402.59	57.68
402.799	16.73
403.008	35.16
403.217	0.34
403.426	65.88
403.635	-3.75
403.844	22.87
404.053	-57
404.262	24.92
404.471	45.4
404.68	24.92
404.888	43.35
405.097	-30.38
405.306	-30.38
405.515	53.59
405.724	-18.09
405.933	49.49
406.142	37.2
406.35	18.77
406.559	-40.62
406.768	-3.75
406.977	-22.19
407.185	2.39
407.394	-42.67
407.603	115.03
407.812	-28.33
408.02	24.92
408.229	31.06
408.438	0.34
408.646	78.16
408.855	69.97
409.064	43.35
409.272	6.49
409.481	20.82
409.69	-24.23
409.898	33.11
410.107	57.68
410.315	16.73
410.524	35.16
410.733	76.12
410.941	4.44
411.15	37.2
411.358	41.3
411.567	45.4
411.775	53.59
411.984	55.64
412.192	53.59
412.401	78.16
412.609	59.73
412.818	37.2
413.026	90.45
413.234	110.93
413.443	59.73
413.651	137.56
413.86	86.36
414.068	65.88
414.276	80.21
414.485	74.07
414.693	84.31
414.901	129.36
415.11	123.22
415.318	133.46
415.526	82.26
415.734	137.56
415.943	125.27
416.151	162.13
416.359	172.37
416.567	147.8
416.776	123.22
416.984	133.46
417.192	119.12
417.4	129.36
417.608	186.71
417.817	94.55
418.025	125.27
418.233	164.18
418.441	223.57
418.649	143.7
418.857	254.29
419.065	215.38
419.273	141.65
419.481	162.13
419.689	237.91
419.897	344.4
420.105	205.14
420.313	227.67
420.521	217.43
420.729	231.76
420.937	254.29
421.145	321.87
421.353	299.34
421.561	297.3
421.769	323.92
421.977	325.97
422.185	315.73
422.393	278.87
422.601	356.69
422.809	303.44
423.017	401.74
423.224	379.22
423.432	393.55
423.64	495.95
423.848	522.57
424.056	411.98
424.263	434.51
424.471	473.42
424.679	500.05
424.887	442.7
425.094	532.81
425.302	452.94
425.51	571.72
425.718	577.87
425.925	532.81
426.133	645.45
426.341	590.16
426.548	637.26
426.756	588.11
426.964	594.25
427.171	612.68
427.379	706.89
427.586	700.75
427.794	655.69
428.001	811.34
428.209	780.62
428.417	833.86
428.624	772.43
428.832	866.63
429.039	905.54
429.247	786.76
429.454	891.21
429.662	1007.94
429.869	907.59
430.076	942.41
430.284	975.17
430.491	1012.04
430.699	1050.95
430.906	1016.13
431.114	1110.34
431.321	1091.91
431.528	1104.2
431.736	1268.03
431.943	1259.84
432.15	1173.83
432.358	1233.22
432.565	1360.19
432.772	1319.23
432.979	1298.75
433.187	1345.86
433.394	1349.95
433.601	1433.92
433.808	1507.65
434.016	1468.73
434.223	1548.61
434.43	1630.52
434.637	1620.28
434.844	1679.68
435.052	1683.77
435.259	1784.12
435.466	1632.57
435.673	1737.02
435.88	1765.69
436.087	1943.86
436.294	1907
436.501	1812.79
436.708	1814.84
436.915	2048.31
437.122	2027.83
437.329	2019.64
437.537	2148.66
437.743	2216.24
437.95	2113.85
438.157	2345.27
438.364	2349.36
438.571	2302.26
438.778	2320.69
438.985	2578.73
439.192	2396.46
439.399	2416.94
439.606	2527.53
439.813	2640.17
440.02	2797.87
440.227	2730.28
440.433	2638.13
440.64	2853.16
440.847	2756.91
441.054	2853.16
441.261	3115.3
441.467	2928.94
441.674	3078.44
441.881	3252.52
442.088	3148.07
442.294	3213.6
442.501	3215.65
442.708	3432.74
442.914	3518.75
443.121	3660.06
443.328	3580.19
443.534	3768.6
443.741	3688.73
443.948	3737.88
444.154	3989.78
444.361	3795.23
444.568	3868.95
444.774	3954.97
444.981	3891.48
445.187	3899.67
445.394	4106.52
445.6	4131.09
445.807	4491.54
446.013	4448.53
446.22	4552.98
446.426	4600.08
446.633	4692.24
446.839	4806.92
447.046	4532.5
447.252	4763.92
447.459	4878.6
447.665	4888.84
447.871	5177.61
448.078	5505.28
448.284	5120.26
448.491	5292.29
448.697	5445.89
448.903	5626.11
449.11	5611.78
449.316	5423.36
449.522	5509.38
449.728	5746.94
449.935	5712.13
450.141	5859.58
450.347	5945.59
450.553	5697.79
450.76	5724.41
450.966	6037.75
451.172	5972.22
451.378	6021.37
451.584	6088.95
451.791	6029.56
451.997	6107.38
452.203	6191.35
452.409	6332.66
452.615	6072.57
452.821	5859.58
453.027	5861.63
453.233	6457.59
453.44	5898.49
453.646	5982.46
453.852	6000.89
454.058	6195.45
454.264	5902.59
454.47	6203.64
454.676	6023.42
454.882	6318.32
455.088	5576.96
455.294	5683.45
455.5	5724.41
455.705	5792
455.911	5576.96
456.117	5548.29
456.323	5402.88
456.529	5120.26
456.735	5374.21
456.941	5267.72
457.147	5187.85
457.352	5083.4
457.558	5011.72
457.764	4942.09
457.97	4909.32
458.176	4727.05
458.381	4802.83
458.587	4526.35
458.793	4466.96
458.999	4172.05
459.204	4532.5
459.41	4540.69
459.616	4208.92
459.821	4253.97
460.027	4239.64
460.233	4147.48
460.438	3981.59
460.644	3993.88
460.85	3893.53
461.055	3764.51
461.261	3741.98
461.466	3305.76
461.672	3363.11
461.878	3498.27
462.083	3377.44
462.289	3205.41
462.494	3178.79
462.7	3100.97
462.905	2976.04
463.111	3113.25
463.316	3100.97
463.522	3156.26
463.727	3107.11
463.932	3193.12
464.138	3133.73
464.343	3008.81
464.549	2916.65
464.754	3094.82
464.959	3074.34
465.165	3060.01
465.37	2973.99
465.575	2877.74
465.781	2951.46
465.986	2916.65
466.191	2949.42
466.397	2761
466.602	2791.72
466.807	2785.58
467.012	2781.48
467.218	2746.67
467.423	2806.06
467.628	2683.18
467.833	3080.49
468.038	2799.91
468.244	2720.04
468.449	2867.5
468.654	2799.91
468.859	2728.24
469.064	2613.55
469.269	2515.25
