Data from USB4F104151__89__12-54-51-542.txt Node

Date: Fri Mar 14 12:54:51 EDT 2025
User: louis
Spectrometer: USB4F10415
Trigger mode: 4
Integration Time (sec): 1.000000E-2
Scans to average: 1
Electric dark correction enabled: true
Nonlinearity correction enabled: false
Boxcar width: 0
XAxis mode: Wavelengths
Number of Pixels in Spectrum: 3648
>>>>>Begin Spectral Data<<<<<
178.204	-25.09
178.424	-25.09
178.644	-25.09
178.864	-92.67
179.084	-0.51
179.304	-57.86
179.524	11.78
179.744	-41.47
179.964	7.68
180.184	3.58
180.404	67.07
180.624	22.02
180.844	28.16
181.064	-6.66
181.283	-39.42
181.503	17.92
181.723	-12.8
181.943	42.5
182.163	44.54
182.383	1.54
182.602	34.3
182.822	22.02
183.042	5.63
183.262	62.98
183.482	-59.9
183.701	11.78
183.921	24.06
184.141	42.5
184.361	11.78
184.58	-8.7
184.8	67.07
185.02	-43.52
185.239	32.26
185.459	11.78
185.679	-59.9
185.898	42.5
186.118	36.35
186.338	44.54
186.557	1.54
186.777	-33.28
186.997	17.92
187.216	48.64
187.436	77.31
187.655	22.02
187.875	112.13
188.095	-12.8
188.314	28.16
188.534	91.65
188.753	69.12
188.973	36.35
189.192	56.83
189.412	24.06
189.631	7.68
189.851	54.78
190.07	1.54
190.29	-31.23
190.509	38.4
190.729	22.02
190.948	58.88
191.168	24.06
191.387	28.16
191.607	15.87
191.826	26.11
192.045	85.5
192.265	11.78
192.484	-31.23
192.704	22.02
192.923	13.82
193.142	28.16
193.362	22.02
193.581	32.26
193.8	22.02
194.02	52.74
194.239	71.17
194.458	19.97
194.678	-41.47
194.897	40.45
195.116	-8.7
195.335	-8.7
195.555	50.69
195.774	67.07
195.993	-47.62
196.212	24.06
196.432	-64
196.651	19.97
196.87	24.06
197.089	79.36
197.308	58.88
197.528	26.11
197.747	11.78
197.966	44.54
198.185	7.68
198.404	32.26
198.623	36.35
198.842	-23.04
199.062	17.92
199.281	75.26
199.5	11.78
199.719	-14.85
199.938	56.83
200.157	52.74
200.376	-8.7
200.595	36.35
200.814	30.21
201.033	71.17
201.252	79.36
201.471	48.64
201.69	13.82
201.909	30.21
202.128	-10.75
202.347	101.89
202.566	-18.94
202.785	-16.9
203.004	99.84
203.223	52.74
203.442	11.78
203.661	42.5
203.879	22.02
204.098	101.89
204.317	48.64
204.536	58.88
204.755	85.5
204.974	75.26
205.193	32.26
205.411	79.36
205.63	44.54
205.849	56.83
206.068	17.92
206.287	22.02
206.505	-0.51
206.724	13.82
206.943	-10.75
207.162	-35.33
207.381	75.26
207.599	-41.47
207.818	-2.56
208.037	32.26
208.255	34.3
208.474	32.26
208.693	50.69
208.911	-10.75
209.13	-2.56
209.349	19.97
209.567	56.83
209.786	1.54
210.005	56.83
210.223	-2.56
210.442	-27.14
210.661	-6.66
210.879	73.21
211.098	67.07
211.316	9.73
211.535	28.16
211.753	5.63
211.972	26.11
212.191	34.3
212.409	28.16
212.628	-10.75
212.846	56.83
213.065	-61.95
213.283	-27.14
213.502	-39.42
213.72	58.88
213.938	22.02
214.157	22.02
214.375	-12.8
214.594	36.35
214.812	30.21
215.031	-12.8
215.249	-16.9
215.467	89.6
215.686	-27.14
215.904	24.06
216.122	19.97
216.341	44.54
216.559	77.31
216.778	-6.66
216.996	101.89
217.214	48.64
217.432	42.5
217.651	-37.38
217.869	83.45
218.087	44.54
218.306	30.21
218.524	38.4
218.742	81.41
218.96	-4.61
219.179	60.93
219.397	22.02
219.615	11.78
219.833	71.17
220.051	9.73
220.27	69.12
220.488	5.63
220.706	34.3
220.924	-25.09
221.142	-12.8
221.36	30.21
221.578	-6.66
221.796	28.16
222.015	42.5
222.233	128.51
222.451	54.78
222.669	36.35
222.887	42.5
223.105	38.4
223.323	3.58
223.541	-20.99
223.759	17.92
223.977	-6.66
224.195	60.93
224.413	73.21
224.631	32.26
224.849	81.41
225.067	50.69
225.285	58.88
225.503	73.21
225.721	9.73
225.939	5.63
226.157	44.54
226.375	71.17
226.592	-37.38
226.81	32.26
227.028	-39.42
227.246	22.02
227.464	58.88
227.682	-6.66
227.9	58.88
228.117	11.78
228.335	46.59
228.553	112.13
228.771	-39.42
228.989	-8.7
229.206	54.78
229.424	58.88
229.642	71.17
229.86	1.54
230.077	24.06
230.295	101.89
230.513	-6.66
230.731	126.46
230.948	83.45
231.166	3.58
231.384	38.4
231.601	3.58
231.819	52.74
232.037	71.17
232.254	50.69
232.472	73.21
232.689	11.78
232.907	24.06
233.125	91.65
233.342	77.31
233.56	40.45
233.777	-14.85
233.995	22.02
234.213	62.98
234.43	17.92
234.648	42.5
234.865	-41.47
235.083	44.54
235.3	15.87
235.518	24.06
235.735	5.63
235.953	1.54
236.17	-0.51
236.388	15.87
236.605	62.98
236.822	118.27
237.04	22.02
237.257	36.35
237.475	-25.09
237.692	54.78
237.909	40.45
238.127	-6.66
238.344	-6.66
238.562	-8.7
238.779	108.03
238.996	105.98
239.214	19.97
239.431	1.54
239.648	-2.56
239.865	11.78
240.083	50.69
240.3	46.59
240.517	11.78
240.735	-6.66
240.952	120.32
241.169	62.98
241.386	56.83
241.603	44.54
241.821	34.3
242.038	34.3
242.255	36.35
242.472	54.78
242.689	-2.56
242.907	-31.23
243.124	13.82
243.341	-14.85
243.558	42.5
243.775	44.54
243.992	50.69
244.209	71.17
244.426	73.21
244.643	-4.61
244.86	-43.52
245.078	19.97
245.295	36.35
245.512	-43.52
245.729	9.73
245.946	1.54
246.163	11.78
246.38	44.54
246.597	36.35
246.814	-27.14
247.031	19.97
247.248	28.16
247.464	-29.18
247.681	71.17
247.898	36.35
248.115	19.97
248.332	34.3
248.549	103.93
248.766	65.02
248.983	67.07
249.2	36.35
249.417	1.54
249.633	-4.61
249.85	89.6
250.067	77.31
250.284	38.4
250.501	-6.66
250.717	-6.66
250.934	67.07
251.151	13.82
251.368	19.97
251.585	81.41
251.801	-27.14
252.018	26.11
252.235	46.59
252.451	19.97
252.668	62.98
252.885	48.64
253.102	73.21
253.318	71.17
253.535	44.54
253.752	15.87
253.968	9.73
254.185	26.11
254.401	26.11
254.618	-27.14
254.835	69.12
255.051	110.08
255.268	46.59
255.484	46.59
255.701	24.06
255.917	19.97
256.134	-8.7
256.351	65.02
256.567	-76.29
256.784	69.12
257	-64
257.217	7.68
257.433	32.26
257.65	91.65
257.866	40.45
258.082	-2.56
258.299	-18.94
258.515	130.56
258.732	24.06
258.948	52.74
259.165	50.69
259.381	17.92
259.597	81.41
259.814	-12.8
260.03	7.68
260.246	101.89
260.463	65.02
260.679	22.02
260.895	17.92
261.112	71.17
261.328	44.54
261.544	7.68
261.761	81.41
261.977	65.02
262.193	-25.09
262.409	81.41
262.626	42.5
262.842	46.59
263.058	22.02
263.274	-29.18
263.49	-29.18
263.707	42.5
263.923	7.68
264.139	34.3
264.355	87.55
264.571	44.54
264.787	71.17
265.004	58.88
265.22	71.17
265.436	24.06
265.652	30.21
265.868	13.82
266.084	46.59
266.3	30.21
266.516	-14.85
266.732	108.03
266.948	48.64
267.164	22.02
267.38	50.69
267.596	81.41
267.812	9.73
268.028	30.21
268.244	48.64
268.46	28.16
268.676	42.5
268.892	1.54
269.108	7.68
269.324	-2.56
269.54	67.07
269.756	40.45
269.972	-45.57
270.188	71.17
270.403	48.64
270.619	95.74
270.835	81.41
271.051	60.93
271.267	5.63
271.483	77.31
271.698	77.31
271.914	73.21
272.13	17.92
272.346	48.64
272.562	-31.23
272.777	79.36
272.993	-20.99
273.209	-12.8
273.425	-4.61
273.64	91.65
273.856	58.88
274.072	-2.56
274.287	42.5
274.503	26.11
274.719	85.5
274.934	71.17
275.15	73.21
275.366	65.02
275.581	50.69
275.797	22.02
276.012	-4.61
276.228	32.26
276.444	7.68
276.659	62.98
276.875	77.31
277.09	38.4
277.306	-31.23
277.521	28.16
277.737	34.3
277.952	65.02
278.168	-35.33
278.383	38.4
278.599	-4.61
278.814	112.13
279.03	15.87
279.245	-2.56
279.461	62.98
279.676	118.27
279.892	-53.76
280.107	132.61
280.322	11.78
280.538	44.54
280.753	-68.09
280.969	-53.76
281.184	-41.47
281.399	58.88
281.615	-10.75
281.83	75.26
282.045	69.12
282.26	44.54
282.476	15.87
282.691	-2.56
282.906	48.64
283.122	-6.66
283.337	48.64
283.552	15.87
283.767	87.55
283.983	19.97
284.198	-6.66
284.413	67.07
284.628	-18.94
284.843	50.69
285.058	24.06
285.274	5.63
285.489	38.4
285.704	22.02
285.919	81.41
286.134	5.63
286.349	-0.51
286.564	5.63
286.779	112.13
286.995	87.55
287.21	-12.8
287.425	22.02
287.64	-10.75
287.855	50.69
288.07	28.16
288.285	3.58
288.5	110.08
288.715	71.17
288.93	34.3
289.145	34.3
289.36	38.4
289.575	56.83
289.79	50.69
290.004	3.58
290.219	32.26
290.434	-2.56
290.649	32.26
290.864	34.3
291.079	50.69
291.294	5.63
291.509	85.5
291.724	108.03
291.938	40.45
292.153	34.3
292.368	-12.8
292.583	60.93
292.798	87.55
293.012	34.3
293.227	-49.66
293.442	-37.38
293.657	-31.23
293.871	108.03
294.086	71.17
294.301	46.59
294.516	15.87
294.73	91.65
294.945	-45.57
295.16	32.26
295.374	9.73
295.589	71.17
295.804	32.26
296.018	44.54
296.233	46.59
296.447	58.88
296.662	19.97
296.877	97.79
297.091	34.3
297.306	1.54
297.52	44.54
297.735	56.83
297.949	-10.75
298.164	-6.66
298.378	26.11
298.593	38.4
298.807	36.35
299.022	19.97
299.236	38.4
299.451	-6.66
299.665	56.83
299.88	65.02
300.094	-25.09
300.309	13.82
300.523	73.21
300.737	42.5
300.952	91.65
301.166	89.6
301.381	-27.14
301.595	56.83
301.809	-33.28
302.024	19.97
302.238	-33.28
302.452	71.17
302.667	7.68
302.881	38.4
303.095	-16.9
303.309	52.74
303.524	54.78
303.738	32.26
303.952	44.54
304.166	13.82
304.381	-41.47
304.595	128.51
304.809	9.73
305.023	28.16
305.237	-78.33
305.452	85.5
305.666	56.83
305.88	48.64
306.094	40.45
306.308	28.16
306.522	15.87
306.736	38.4
306.95	34.3
307.164	3.58
307.379	-16.9
307.593	67.07
307.807	110.08
308.021	110.08
308.235	42.5
308.449	93.69
308.663	26.11
308.877	58.88
309.091	44.54
309.305	32.26
309.519	75.26
309.733	22.02
309.947	13.82
310.161	17.92
310.374	112.13
310.588	44.54
310.802	9.73
311.016	83.45
311.23	124.41
311.444	58.88
311.658	87.55
311.872	-43.52
312.085	138.75
312.299	-2.56
312.513	-25.09
312.727	15.87
312.941	85.5
313.154	-25.09
313.368	42.5
313.582	54.78
313.796	73.21
314.009	46.59
314.223	69.12
314.437	-10.75
314.651	26.11
314.864	9.73
315.078	40.45
315.292	116.22
315.505	19.97
315.719	7.68
315.933	-31.23
316.146	-4.61
316.36	-37.38
316.573	114.17
316.787	77.31
317.001	67.07
317.214	87.55
317.428	32.26
317.641	36.35
317.855	11.78
318.068	52.74
318.282	60.93
318.495	54.78
318.709	32.26
318.922	-41.47
319.136	-25.09
319.349	24.06
319.563	56.83
319.776	42.5
319.99	52.74
320.203	67.07
320.417	44.54
320.63	-0.51
320.843	22.02
321.057	54.78
321.27	3.58
321.483	69.12
321.697	22.02
321.91	52.74
322.124	36.35
322.337	38.4
322.55	1.54
322.763	5.63
322.977	22.02
323.19	52.74
323.403	30.21
323.617	-12.8
323.83	79.36
324.043	36.35
324.256	124.41
324.469	-29.18
324.683	75.26
324.896	-2.56
325.109	15.87
325.322	46.59
325.535	13.82
325.748	-29.18
325.962	54.78
326.175	15.87
326.388	11.78
326.601	89.6
326.814	9.73
327.027	30.21
327.24	34.3
327.453	-18.94
327.666	11.78
327.879	54.78
328.092	40.45
328.305	71.17
328.518	40.45
328.731	-25.09
328.944	-20.99
329.157	28.16
329.37	-14.85
329.583	46.59
329.796	58.88
330.009	-6.66
330.222	67.07
330.435	19.97
330.648	-43.52
330.861	69.12
331.073	-12.8
331.286	34.3
331.499	89.6
331.712	-16.9
331.925	26.11
332.138	30.21
332.35	83.45
332.563	30.21
332.776	11.78
332.989	-14.85
333.202	58.88
333.414	-2.56
333.627	75.26
333.84	116.22
334.053	77.31
334.265	24.06
334.478	52.74
334.691	67.07
334.903	116.22
335.116	-6.66
335.329	26.11
335.541	-47.62
335.754	56.83
335.966	15.87
336.179	9.73
336.392	89.6
336.604	-10.75
336.817	65.02
337.029	19.97
337.242	7.68
337.454	42.5
337.667	38.4
337.88	-20.99
338.092	28.16
338.305	50.69
338.517	42.5
338.729	83.45
338.942	11.78
339.154	28.16
339.367	75.26
339.579	15.87
339.792	19.97
340.004	9.73
340.217	17.92
340.429	79.36
340.641	11.78
340.854	87.55
341.066	56.83
341.278	26.11
341.491	38.4
341.703	40.45
341.915	17.92
342.128	9.73
342.34	-25.09
342.552	38.4
342.764	1.54
342.977	32.26
343.189	46.59
343.401	-20.99
343.613	77.31
343.826	69.12
344.038	71.17
344.25	-14.85
344.462	-49.66
344.674	-0.51
344.886	65.02
345.099	116.22
345.311	-16.9
345.523	77.31
345.735	75.26
345.947	32.26
346.159	36.35
346.371	28.16
346.583	65.02
346.795	38.4
347.007	69.12
347.219	22.02
347.431	11.78
347.643	99.84
347.855	-6.66
348.067	5.63
348.279	-25.09
348.491	5.63
348.703	24.06
348.915	-12.8
349.127	56.83
349.339	87.55
349.551	32.26
349.763	58.88
349.975	62.98
350.187	32.26
350.399	19.97
350.61	32.26
350.822	54.78
351.034	15.87
351.246	54.78
351.458	-53.76
351.669	38.4
351.881	19.97
352.093	-20.99
352.305	-16.9
352.517	42.5
352.728	26.11
352.94	26.11
353.152	28.16
353.363	24.06
353.575	58.88
353.787	30.21
353.999	75.26
354.21	40.45
354.422	-76.29
354.633	17.92
354.845	-20.99
355.057	69.12
355.268	58.88
355.48	46.59
355.692	-47.62
355.903	-8.7
356.115	65.02
356.326	-29.18
356.538	32.26
356.749	32.26
356.961	26.11
357.172	42.5
357.384	24.06
357.595	17.92
357.807	52.74
358.018	30.21
358.23	42.5
358.441	60.93
358.653	-29.18
358.864	1.54
359.075	48.64
359.287	79.36
359.498	93.69
359.709	-4.61
359.921	62.98
360.132	60.93
360.344	58.88
360.555	17.92
360.766	56.83
360.977	44.54
361.189	28.16
361.4	71.17
361.611	36.35
361.823	97.79
362.034	50.69
362.245	44.54
362.456	-18.94
362.667	42.5
362.879	93.69
363.09	11.78
363.301	58.88
363.512	52.74
363.723	11.78
363.935	42.5
364.146	128.51
364.357	52.74
364.568	-14.85
364.779	56.83
364.99	17.92
365.201	46.59
365.412	-39.42
365.623	93.69
365.834	22.02
366.045	48.64
366.256	1.54
366.467	17.92
366.678	116.22
366.889	-8.7
367.1	46.59
367.311	65.02
367.522	62.98
367.733	34.3
367.944	28.16
368.155	5.63
368.366	34.3
368.577	19.97
368.788	40.45
368.999	85.5
369.209	81.41
369.42	93.69
369.631	81.41
369.842	34.3
370.053	83.45
370.264	40.45
370.474	26.11
370.685	44.54
370.896	75.26
371.107	36.35
371.317	69.12
371.528	56.83
371.739	17.92
371.95	-47.62
372.16	142.85
372.371	32.26
372.582	60.93
372.792	50.69
373.003	-12.8
373.214	19.97
373.424	54.78
373.635	40.45
373.846	75.26
374.056	13.82
374.267	112.13
374.477	-8.7
374.688	28.16
374.898	75.26
375.109	17.92
375.319	13.82
375.53	91.65
375.74	108.03
375.951	-23.04
376.161	42.5
376.372	85.5
376.582	-4.61
376.793	85.5
377.003	67.07
377.214	3.58
377.424	77.31
377.635	15.87
377.845	48.64
378.055	114.17
378.266	15.87
378.476	42.5
378.686	60.93
378.897	40.45
379.107	13.82
379.317	9.73
379.528	34.3
379.738	65.02
379.948	24.06
380.158	87.55
380.369	44.54
380.579	-8.7
380.789	26.11
380.999	87.55
381.21	87.55
381.42	48.64
381.63	-16.9
381.84	15.87
382.05	5.63
382.261	87.55
382.471	73.21
382.681	95.74
382.891	73.21
383.101	-2.56
383.311	42.5
383.521	-4.61
383.731	67.07
383.941	62.98
384.151	11.78
384.361	28.16
384.571	77.31
384.781	65.02
384.991	22.02
385.201	46.59
385.411	26.11
385.621	26.11
385.831	28.16
386.041	5.63
386.251	3.58
386.461	26.11
386.671	9.73
386.881	110.08
387.091	1.54
387.301	24.06
387.511	42.5
387.72	28.16
387.93	81.41
388.14	9.73
388.35	52.74
388.56	83.45
388.769	54.78
388.979	1.54
389.189	13.82
389.399	91.65
389.609	91.65
389.818	87.55
390.028	44.54
390.238	19.97
390.447	-0.51
390.657	73.21
390.867	26.11
391.076	-6.66
391.286	101.89
391.496	89.6
391.705	65.02
391.915	93.69
392.125	17.92
392.334	50.69
392.544	56.83
392.753	24.06
392.963	56.83
393.172	73.21
393.382	28.16
393.591	91.65
393.801	7.68
394.01	95.74
394.22	65.02
394.429	108.03
394.639	19.97
394.848	69.12
395.058	71.17
395.267	132.61
395.477	118.27
395.686	46.59
395.895	89.6
396.105	87.55
396.314	42.5
396.524	116.22
396.733	62.98
396.942	103.93
397.152	69.12
397.361	73.21
397.57	108.03
397.78	83.45
397.989	50.69
398.198	116.22
398.407	75.26
398.617	153.09
398.826	42.5
399.035	93.69
399.244	103.93
399.453	99.84
399.663	108.03
399.872	48.64
400.081	54.78
400.29	46.59
400.499	38.4
400.708	75.26
400.917	93.69
401.127	142.85
401.336	91.65
401.545	153.09
401.754	58.88
401.963	108.03
402.172	5.63
402.381	73.21
402.59	62.98
402.799	58.88
403.008	56.83
403.217	103.93
403.426	73.21
403.635	103.93
403.844	99.84
404.053	69.12
404.262	60.93
404.471	67.07
404.68	110.08
404.888	134.65
405.097	138.75
405.306	103.93
405.515	99.84
405.724	120.32
405.933	58.88
406.142	56.83
406.35	177.66
406.559	83.45
406.768	148.99
406.977	97.79
407.185	91.65
407.394	173.57
407.603	58.88
407.812	75.26
408.02	153.09
408.229	173.57
408.438	101.89
408.646	134.65
408.855	110.08
409.064	124.41
409.272	105.98
409.481	128.51
409.69	208.38
409.898	161.28
410.107	206.33
410.315	181.76
410.524	116.22
410.733	171.52
410.941	153.09
411.15	194.05
411.358	206.33
411.567	189.95
411.775	214.52
411.984	239.1
412.192	192
412.401	261.63
412.609	290.3
412.818	269.82
413.026	251.39
413.234	355.83
413.443	253.44
413.651	259.58
413.86	187.9
414.068	306.68
414.276	370.17
414.485	321.02
414.693	323.07
414.901	361.98
415.11	345.59
415.318	308.73
415.526	407.03
415.734	415.23
415.943	413.18
416.151	462.33
416.359	419.32
416.567	421.37
416.776	390.65
416.984	484.86
417.192	583.16
417.4	493.05
417.608	579.06
417.817	509.43
418.025	622.07
418.233	564.73
418.441	556.54
418.649	554.49
418.857	703.99
419.065	656.89
419.273	712.18
419.481	693.75
419.689	833.01
419.897	755.19
420.105	765.43
420.313	814.58
420.521	779.76
420.729	808.44
420.937	798.2
421.145	898.55
421.353	966.13
421.561	931.31
421.769	962.03
421.977	1031.66
422.185	1011.18
422.393	1011.18
422.601	1222.13
422.809	1236.46
423.017	1175.02
423.224	1279.47
423.432	1320.43
423.64	1271.28
423.848	1408.49
424.056	1345
424.263	1471.98
424.471	1420.78
424.679	1486.31
424.887	1590.76
425.094	1607.14
425.302	1588.71
425.51	1646.05
425.718	1760.74
425.925	1732.07
426.133	1873.38
426.341	1889.76
426.548	2139.62
426.756	1951.2
426.964	1902.05
427.171	2192.86
427.379	2252.25
427.586	2244.06
427.794	2244.06
428.001	2428.38
428.209	2600.41
428.417	2356.7
428.624	2581.98
428.832	2596.31
429.039	2614.74
429.247	2614.74
429.454	2815.45
429.662	3040.72
429.869	2751.96
430.076	3030.48
430.284	2942.42
430.491	3012.05
430.699	3141.07
430.906	3304.91
431.114	3245.52
431.321	3425.74
431.528	3626.44
431.736	3857.86
431.943	3929.54
432.15	3755.46
432.358	3630.54
432.565	3935.68
432.772	4005.31
432.979	4304.32
433.187	4228.54
433.394	4335.04
433.601	4607.42
433.808	4748.73
434.016	4617.66
434.223	4883.89
434.43	5197.23
434.637	5051.83
434.844	5350.83
435.052	5381.55
435.259	5377.45
435.466	5391.79
435.673	5430.7
435.88	5574.06
436.087	5952.93
436.294	5895.59
436.501	5934.5
436.708	6036.9
436.915	6157.73
437.122	6403.49
437.329	6497.69
437.537	6593.95
437.743	6663.58
437.95	6641.05
438.157	7097.75
438.364	7359.89
438.571	7376.27
438.778	7306.64
438.985	7884.17
439.192	7499.15
439.399	7945.61
439.606	7662.99
439.813	8377.73
440.02	8807.8
440.227	8617.34
440.433	8562.05
440.64	8885.62
440.847	8619.39
441.054	8955.26
441.261	9409.9
441.467	9512.3
441.674	9635.18
441.881	9839.98
442.088	9856.36
442.294	9950.57
442.501	10216.8
442.708	10474.85
442.914	10732.89
443.121	11386.19
443.328	10904.92
443.534	11677.01
443.741	11595.09
443.948	11265.36
444.154	12043.59
444.361	12092.74
444.568	12090.7
444.774	12145.99
444.981	12102.98
445.187	12412.23
445.394	13022.52
445.6	12938.55
445.807	13964.59
446.013	13600.05
446.22	13874.48
446.426	14275.88
446.633	14482.72
446.839	14978.33
447.046	14419.24
447.252	15250.71
447.459	15519
447.665	14984.48
447.871	15594.77
448.078	16733.44
448.284	15824.14
448.491	16266.5
448.697	16944.38
448.903	17075.45
449.11	17188.09
449.316	16985.34
449.522	17233.15
449.728	17605.88
449.935	17788.14
450.141	17886.45
450.347	18076.91
450.553	17982.7
450.76	17786.1
450.966	18517.22
451.172	18066.67
451.378	18928.86
451.584	18545.89
451.791	19078.36
451.997	18945.25
452.203	19225.82
452.409	19281.11
452.615	18859.23
452.821	18388.2
453.027	18154.73
453.233	18871.52
453.44	18517.22
453.646	18601.19
453.852	18640.1
454.058	19322.07
454.264	18320.62
454.47	19021.02
454.676	18488.55
454.882	19051.74
455.088	17566.96
455.294	17685.75
455.5	17974.51
455.705	18081
455.911	17513.72
456.117	17110.27
456.323	16792.83
456.529	16022.8
456.735	16766.21
456.941	16190.73
457.147	15891.73
457.352	15531.28
457.558	15230.23
457.764	15297.81
457.97	15295.77
458.176	14691.62
458.381	14714.14
458.587	13743.41
458.793	13825.33
458.999	13159.74
459.204	14193.96
459.41	13731.12
459.616	12883.26
459.821	12963.13
460.027	12997.95
460.233	12553.54
460.438	11965.77
460.644	12100.94
460.85	11586.9
461.055	11281.75
461.261	11371.86
461.466	10556.77
461.672	10263.91
461.878	10929.5
462.083	10184.04
462.289	9993.58
462.494	9989.48
462.7	9377.14
462.905	9207.16
463.111	9661.8
463.316	9723.24
463.522	9428.34
463.727	9366.9
463.932	9350.51
464.138	9330.03
464.343	9373.04
464.549	9123.19
464.754	9389.42
464.959	9235.83
465.165	9284.98
465.37	8797.56
465.575	8768.89
465.781	9051.51
465.986	9035.13
466.191	8727.93
466.397	8457.6
466.602	8152.45
466.807	8344.96
467.012	8381.82
467.218	8355.2
467.423	8347.01
467.628	8234.37
467.833	8756.6
468.038	8422.78
468.244	8048.01
468.449	8488.32
468.654	8363.39
468.859	8007.05
469.064	8052.1
469.269	7738.76
469.474	7873.93
469.679	7933.32
