Data from USB4F104151__41__12-53-49-355.txt Node

Date: Fri Mar 14 12:53:49 EDT 2025
User: louis
Spectrometer: USB4F10415
Trigger mode: 4
Integration Time (sec): 1.000000E-2
Scans to average: 1
Electric dark correction enabled: true
Nonlinearity correction enabled: false
Boxcar width: 0
XAxis mode: Wavelengths
Number of Pixels in Spectrum: 3648
>>>>>Begin Spectral Data<<<<<
178.204	-3.24
178.424	-3.24
178.644	-3.24
178.864	-17.58
179.084	-3.24
179.304	19.29
179.524	52.05
179.744	-83.11
179.964	41.81
180.184	-115.88
180.404	0.85
180.624	29.52
180.844	21.33
181.064	-48.3
181.283	29.52
181.503	66.39
181.723	-13.48
181.943	-36.01
182.163	113.49
182.383	41.81
182.602	93.01
182.822	25.43
183.042	0.85
183.262	41.81
183.482	66.39
183.701	9.05
183.921	31.57
184.141	25.43
184.361	62.29
184.58	-3.24
184.8	15.19
185.02	17.24
185.239	82.77
185.459	47.96
185.679	60.24
185.898	117.59
186.118	15.19
186.338	35.67
186.557	117.59
186.777	-5.29
186.997	2.9
187.216	60.24
187.436	13.14
187.655	43.86
187.875	27.48
188.095	66.39
188.314	142.16
188.534	56.15
188.753	31.57
188.973	99.16
189.192	60.24
189.412	37.72
189.631	19.29
189.851	29.52
190.07	-15.53
190.29	27.48
190.509	50
190.729	-3.24
190.948	11.09
191.168	54.1
191.387	7
191.607	43.86
191.826	11.09
192.045	13.14
192.265	21.33
192.484	70.48
192.704	76.63
192.923	70.48
193.142	23.38
193.362	97.11
193.581	47.96
193.8	35.67
194.02	27.48
194.239	54.1
194.458	56.15
194.678	27.48
194.897	90.96
195.116	-11.43
195.335	19.29
195.555	37.72
195.774	25.43
195.993	76.63
196.212	60.24
196.432	37.72
196.651	54.1
196.87	86.87
197.089	105.3
197.308	99.16
197.528	97.11
197.747	-1.19
197.966	-1.19
198.185	-3.24
198.404	58.2
198.623	-19.63
198.842	80.72
199.062	25.43
199.281	70.48
199.5	25.43
199.719	60.24
199.938	56.15
200.157	-3.24
200.376	62.29
200.595	74.58
200.814	136.02
201.033	-5.29
201.252	11.09
201.471	68.44
201.69	33.62
201.909	25.43
202.128	60.24
202.347	23.38
202.566	31.57
202.785	17.24
203.004	60.24
203.223	37.72
203.442	-29.87
203.661	133.97
203.879	-56.49
204.098	62.29
204.317	68.44
204.536	27.48
204.755	50
204.974	64.34
205.193	-13.48
205.411	-9.39
205.63	39.76
205.849	43.86
206.068	-42.15
206.287	17.24
206.505	50
206.724	56.15
206.943	68.44
207.162	76.63
207.381	-23.72
207.599	23.38
207.818	37.72
208.037	37.72
208.255	7
208.474	-25.77
208.693	68.44
208.911	72.53
209.13	95.06
209.349	7
209.567	47.96
209.786	31.57
210.005	27.48
210.223	45.91
210.442	-5.29
210.661	37.72
210.879	17.24
211.098	19.29
211.316	-23.72
211.535	15.19
211.753	80.72
211.972	66.39
212.191	54.1
212.409	37.72
212.628	62.29
212.846	52.05
213.065	54.1
213.283	56.15
213.502	43.86
213.72	41.81
213.938	54.1
214.157	31.57
214.375	35.67
214.594	78.68
214.812	47.96
215.031	74.58
215.249	31.57
215.467	60.24
215.686	-38.06
215.904	25.43
216.122	15.19
216.341	7
216.559	31.57
216.778	4.95
216.996	70.48
217.214	7
217.432	52.05
217.651	66.39
217.869	2.9
218.087	4.95
218.306	-5.29
218.524	25.43
218.742	31.57
218.96	9.05
219.179	33.62
219.397	17.24
219.615	76.63
219.833	41.81
220.051	62.29
220.27	33.62
220.488	56.15
220.706	19.29
220.924	72.53
221.142	23.38
221.36	54.1
221.578	25.43
221.796	54.1
222.015	99.16
222.233	62.29
222.451	37.72
222.669	76.63
222.887	19.29
223.105	54.1
223.323	37.72
223.541	29.52
223.759	15.19
223.977	17.24
224.195	-15.53
224.413	-7.34
224.631	62.29
224.849	93.01
225.067	82.77
225.285	-1.19
225.503	-13.48
225.721	-29.87
225.939	29.52
226.157	78.68
226.375	-1.19
226.592	84.82
226.81	37.72
227.028	41.81
227.246	35.67
227.464	68.44
227.682	93.01
227.9	115.54
228.117	21.33
228.335	19.29
228.553	-29.87
228.771	45.91
228.989	35.67
229.206	21.33
229.424	-5.29
229.642	13.14
229.86	35.67
230.077	76.63
230.295	13.14
230.513	-11.43
230.731	-11.43
230.948	33.62
231.166	99.16
231.384	15.19
231.601	60.24
231.819	45.91
232.037	2.9
232.254	47.96
232.472	7
232.689	29.52
232.907	64.34
233.125	-7.34
233.342	58.2
233.56	74.58
233.777	93.01
233.995	25.43
234.213	70.48
234.43	60.24
234.648	19.29
234.865	33.62
235.083	76.63
235.3	-11.43
235.518	60.24
235.735	56.15
235.953	68.44
236.17	37.72
236.388	39.76
236.605	99.16
236.822	-38.06
237.04	43.86
237.257	70.48
237.475	60.24
237.692	105.3
237.909	29.52
238.127	78.68
238.344	4.95
238.562	76.63
238.779	-19.63
238.996	58.2
239.214	84.82
239.431	70.48
239.648	29.52
239.865	88.92
240.083	82.77
240.3	103.25
240.517	43.86
240.735	68.44
240.952	0.85
241.169	56.15
241.386	80.72
241.603	72.53
241.821	35.67
242.038	64.34
242.255	-36.01
242.472	-19.63
242.689	60.24
242.907	-21.67
243.124	76.63
243.341	2.9
243.558	78.68
243.775	84.82
243.992	99.16
244.209	-1.19
244.426	39.76
244.643	54.1
244.86	-23.72
245.078	25.43
245.295	21.33
245.512	47.96
245.729	13.14
245.946	29.52
246.163	101.2
246.38	64.34
246.597	0.85
246.814	-25.77
247.031	0.85
247.248	103.25
247.464	33.62
247.681	37.72
247.898	103.25
248.115	68.44
248.332	70.48
248.549	47.96
248.766	35.67
248.983	80.72
249.2	2.9
249.417	43.86
249.633	-5.29
249.85	60.24
250.067	76.63
250.284	74.58
250.501	15.19
250.717	2.9
250.934	21.33
251.151	62.29
251.368	19.29
251.585	72.53
251.801	70.48
252.018	80.72
252.235	58.2
252.451	15.19
252.668	31.57
252.885	54.1
253.102	62.29
253.318	62.29
253.535	62.29
253.752	74.58
253.968	27.48
254.185	13.14
254.401	50
254.618	52.05
254.835	56.15
255.051	45.91
255.268	-3.24
255.484	74.58
255.701	35.67
255.917	60.24
256.134	115.54
256.351	21.33
256.567	64.34
256.784	43.86
257	60.24
257.217	37.72
257.433	47.96
257.65	2.9
257.866	-17.58
258.082	52.05
258.299	-5.29
258.515	74.58
258.732	45.91
258.948	82.77
259.165	19.29
259.381	76.63
259.597	99.16
259.814	56.15
260.03	31.57
260.246	43.86
260.463	11.09
260.679	93.01
260.895	35.67
261.112	50
261.328	-19.63
261.544	82.77
261.761	95.06
261.977	37.72
262.193	7
262.409	70.48
262.626	68.44
262.842	-27.82
263.058	-19.63
263.274	11.09
263.49	78.68
263.707	62.29
263.923	56.15
264.139	11.09
264.355	-70.83
264.571	90.96
264.787	82.77
265.004	52.05
265.22	117.59
265.436	-38.06
265.652	68.44
265.868	37.72
266.084	0.85
266.3	27.48
266.516	-25.77
266.732	66.39
266.948	11.09
267.164	76.63
267.38	62.29
267.596	45.91
267.812	82.77
268.028	-3.24
268.244	19.29
268.46	29.52
268.676	84.82
268.892	25.43
269.108	117.59
269.324	23.38
269.54	-15.53
269.756	78.68
269.972	84.82
270.188	15.19
270.403	47.96
270.619	47.96
270.835	43.86
271.051	54.1
271.267	45.91
271.483	-15.53
271.698	13.14
271.914	76.63
272.13	78.68
272.346	41.81
272.562	35.67
272.777	121.68
272.993	31.57
273.209	2.9
273.425	17.24
273.64	27.48
273.856	56.15
274.072	35.67
274.287	27.48
274.503	-29.87
274.719	27.48
274.934	52.05
275.15	64.34
275.366	113.49
275.581	-15.53
275.797	56.15
276.012	66.39
276.228	64.34
276.444	58.2
276.659	19.29
276.875	13.14
277.09	70.48
277.306	43.86
277.521	21.33
277.737	101.2
277.952	138.07
278.168	117.59
278.383	43.86
278.599	52.05
278.814	11.09
279.03	35.67
279.245	60.24
279.461	-42.15
279.676	47.96
279.892	35.67
280.107	113.49
280.322	-54.44
280.538	4.95
280.753	80.72
280.969	56.15
281.184	103.25
281.399	70.48
281.615	4.95
281.83	70.48
282.045	-46.25
282.26	9.05
282.476	64.34
282.691	17.24
282.906	27.48
283.122	54.1
283.337	80.72
283.552	62.29
283.767	84.82
283.983	31.57
284.198	-3.24
284.413	7
284.628	4.95
284.843	21.33
285.058	29.52
285.274	25.43
285.489	60.24
285.704	66.39
285.919	-17.58
286.134	123.73
286.349	35.67
286.564	35.67
286.779	93.01
286.995	-1.19
287.21	78.68
287.425	-3.24
287.64	0.85
287.855	29.52
288.07	2.9
288.285	82.77
288.5	127.83
288.715	86.87
288.93	4.95
289.145	54.1
289.36	50
289.575	113.49
289.79	90.96
290.004	25.43
290.219	86.87
290.434	64.34
290.649	31.57
290.864	-15.53
291.079	86.87
291.294	52.05
291.509	37.72
291.724	27.48
291.938	90.96
292.153	7
292.368	25.43
292.583	80.72
292.798	90.96
293.012	93.01
293.227	88.92
293.442	39.76
293.657	76.63
293.871	70.48
294.086	33.62
294.301	54.1
294.516	74.58
294.73	62.29
294.945	-15.53
295.16	125.78
295.374	50
295.589	31.57
295.804	39.76
296.018	88.92
296.233	54.1
296.447	27.48
296.662	41.81
296.877	35.67
297.091	-29.87
297.306	95.06
297.52	47.96
297.735	90.96
297.949	52.05
298.164	4.95
298.378	50
298.593	4.95
298.807	72.53
299.022	56.15
299.236	148.31
299.451	17.24
299.665	47.96
299.88	13.14
300.094	-1.19
300.309	29.52
300.523	56.15
300.737	82.77
300.952	47.96
301.166	35.67
301.381	45.91
301.595	-3.24
301.809	113.49
302.024	13.14
302.238	101.2
302.452	68.44
302.667	74.58
302.881	-7.34
303.095	45.91
303.309	84.82
303.524	76.63
303.738	136.02
303.952	11.09
304.166	101.2
304.381	21.33
304.595	144.21
304.809	39.76
305.023	-7.34
305.237	62.29
305.452	115.54
305.666	45.91
305.88	23.38
306.094	60.24
306.308	86.87
306.522	72.53
306.736	56.15
306.95	35.67
307.164	127.83
307.379	45.91
307.593	23.38
307.807	76.63
308.021	70.48
308.235	4.95
308.449	70.48
308.663	109.4
308.877	146.26
309.091	50
309.305	52.05
309.519	88.92
309.733	-25.77
309.947	0.85
310.161	-1.19
310.374	70.48
310.588	97.11
310.802	50
311.016	62.29
311.23	43.86
311.444	0.85
311.658	56.15
311.872	-31.91
312.085	95.06
312.299	56.15
312.513	52.05
312.727	0.85
312.941	15.19
313.154	107.35
313.368	76.63
313.582	35.67
313.796	11.09
314.009	50
314.223	86.87
314.437	27.48
314.651	21.33
314.864	45.91
315.078	86.87
315.292	68.44
315.505	52.05
315.719	27.48
315.933	54.1
316.146	84.82
316.36	17.24
316.573	52.05
316.787	9.05
317.001	68.44
317.214	50
317.428	-5.29
317.641	62.29
317.855	37.72
318.068	60.24
318.282	35.67
318.495	15.19
318.709	60.24
318.922	68.44
319.136	105.3
319.349	60.24
319.563	72.53
319.776	27.48
319.99	64.34
320.203	33.62
320.417	31.57
320.63	56.15
320.843	31.57
321.057	52.05
321.27	84.82
321.483	113.49
321.697	76.63
321.91	-1.19
322.124	2.9
322.337	0.85
322.55	86.87
322.763	82.77
322.977	64.34
323.19	23.38
323.403	95.06
323.617	68.44
323.83	101.2
324.043	58.2
324.256	-11.43
324.469	72.53
324.683	4.95
324.896	33.62
325.109	58.2
325.322	-1.19
325.535	41.81
325.748	84.82
325.962	17.24
326.175	-23.72
326.388	76.63
326.601	80.72
326.814	4.95
327.027	27.48
327.24	125.78
327.453	31.57
327.666	-5.29
327.879	31.57
328.092	111.44
328.305	99.16
328.518	-15.53
328.731	37.72
328.944	70.48
329.157	21.33
329.37	4.95
329.583	111.44
329.796	123.73
330.009	45.91
330.222	78.68
330.435	74.58
330.648	52.05
330.861	9.05
331.073	50
331.286	23.38
331.499	-13.48
331.712	41.81
331.925	72.53
332.138	82.77
332.35	86.87
332.563	-1.19
332.776	84.82
332.989	15.19
333.202	115.54
333.414	29.52
333.627	43.86
333.84	19.29
334.053	68.44
334.265	33.62
334.478	76.63
334.691	11.09
334.903	62.29
335.116	99.16
335.329	76.63
335.541	56.15
335.754	21.33
335.966	-1.19
336.179	72.53
336.392	72.53
336.604	95.06
336.817	125.78
337.029	90.96
337.242	27.48
337.454	-11.43
337.667	15.19
337.88	93.01
338.092	82.77
338.305	17.24
338.517	-72.87
338.729	95.06
338.942	17.24
339.154	21.33
339.367	101.2
339.579	95.06
339.792	101.2
340.004	95.06
340.217	82.77
340.429	47.96
340.641	54.1
340.854	82.77
341.066	33.62
341.278	103.25
341.491	27.48
341.703	37.72
341.915	-56.49
342.128	84.82
342.34	66.39
342.552	58.2
342.764	74.58
342.977	64.34
343.189	66.39
343.401	119.64
343.613	52.05
343.826	105.3
344.038	27.48
344.25	60.24
344.462	70.48
344.674	82.77
344.886	31.57
345.099	39.76
345.311	82.77
345.523	7
345.735	-1.19
345.947	105.3
346.159	45.91
346.371	58.2
346.583	68.44
346.795	4.95
347.007	125.78
347.219	54.1
347.431	0.85
347.643	88.92
347.855	74.58
348.067	11.09
348.279	64.34
348.491	90.96
348.703	-21.67
348.915	95.06
349.127	29.52
349.339	80.72
349.551	58.2
349.763	113.49
349.975	80.72
350.187	64.34
350.399	39.76
350.61	152.4
350.822	27.48
351.034	80.72
351.246	-1.19
351.458	50
351.669	56.15
351.881	76.63
352.093	68.44
352.305	0.85
352.517	60.24
352.728	82.77
352.94	-33.96
353.152	109.4
353.363	76.63
353.575	50
353.787	-1.19
353.999	84.82
354.21	13.14
354.422	47.96
354.633	27.48
354.845	37.72
355.057	70.48
355.268	39.76
355.48	7
355.692	99.16
355.903	-7.34
356.115	121.68
356.326	64.34
356.538	90.96
356.749	80.72
356.961	121.68
357.172	45.91
357.384	93.01
357.595	-3.24
357.807	80.72
358.018	72.53
358.23	105.3
358.441	7
358.653	97.11
358.864	-27.82
359.075	133.97
359.287	54.1
359.498	82.77
359.709	35.67
359.921	33.62
360.132	-1.19
360.344	127.83
360.555	4.95
360.766	58.2
360.977	-21.67
361.189	54.1
361.4	78.68
361.611	50
361.823	103.25
362.034	21.33
362.245	86.87
362.456	19.29
362.667	58.2
362.879	2.9
363.09	25.43
363.301	72.53
363.512	58.2
363.723	78.68
363.935	17.24
364.146	66.39
364.357	90.96
364.568	74.58
364.779	84.82
364.99	-17.58
365.201	90.96
365.412	0.85
365.623	95.06
365.834	47.96
366.045	45.91
366.256	45.91
366.467	80.72
366.678	133.97
366.889	-3.24
367.1	41.81
367.311	64.34
367.522	29.52
367.733	50
367.944	52.05
368.155	43.86
368.366	50
368.577	72.53
368.788	43.86
368.999	103.25
369.209	64.34
369.42	78.68
369.631	72.53
369.842	68.44
370.053	121.68
370.264	47.96
370.474	117.59
370.685	99.16
370.896	-1.19
371.107	84.82
371.317	86.87
371.528	-46.25
371.739	76.63
371.95	105.3
372.16	88.92
372.371	88.92
372.582	52.05
372.792	97.11
373.003	74.58
373.214	54.1
373.424	37.72
373.635	111.44
373.846	50
374.056	-1.19
374.267	58.2
374.477	37.72
374.688	78.68
374.898	47.96
375.109	15.19
375.319	93.01
375.53	113.49
375.74	33.62
375.951	31.57
376.161	60.24
376.372	56.15
376.582	41.81
376.793	86.87
377.003	101.2
377.214	76.63
377.424	21.33
377.635	90.96
377.845	50
378.055	43.86
378.266	183.12
378.476	74.58
378.686	60.24
378.897	95.06
379.107	76.63
379.317	56.15
379.528	64.34
379.738	45.91
379.948	47.96
380.158	86.87
380.369	41.81
380.579	66.39
380.789	88.92
380.999	109.4
381.21	82.77
381.42	74.58
381.63	29.52
381.84	47.96
382.05	95.06
382.261	78.68
382.471	115.54
382.681	64.34
382.891	21.33
383.101	88.92
383.311	37.72
383.521	2.9
383.731	21.33
383.941	78.68
384.151	56.15
384.361	150.36
384.571	80.72
384.781	95.06
384.991	62.29
385.201	60.24
385.411	62.29
385.621	93.01
385.831	133.97
386.041	109.4
386.251	74.58
386.461	2.9
386.671	74.58
386.881	133.97
387.091	60.24
387.301	-1.19
387.511	97.11
387.72	-1.19
387.93	-1.19
388.14	78.68
388.35	27.48
388.56	84.82
388.769	101.2
388.979	76.63
389.189	66.39
389.399	33.62
389.609	39.76
389.818	68.44
390.028	13.14
390.238	64.34
390.447	121.68
390.657	66.39
390.867	41.81
391.076	21.33
391.286	31.57
391.496	43.86
391.705	99.16
391.915	80.72
392.125	52.05
392.334	82.77
392.544	103.25
392.753	88.92
392.963	103.25
393.172	133.97
393.382	45.91
393.591	41.81
393.801	25.43
394.01	19.29
394.22	125.78
394.429	80.72
394.639	111.44
394.848	47.96
395.058	56.15
395.267	101.2
395.477	107.35
395.686	101.2
395.895	99.16
396.105	103.25
396.314	52.05
396.524	90.96
396.733	115.54
396.942	88.92
397.152	105.3
397.361	37.72
397.57	52.05
397.78	72.53
397.989	82.77
398.198	95.06
398.407	13.14
398.617	152.4
398.826	95.06
399.035	99.16
399.244	170.83
399.453	125.78
399.663	138.07
399.872	70.48
400.081	86.87
400.29	138.07
400.499	21.33
400.708	39.76
400.917	82.77
401.127	119.64
401.336	78.68
401.545	142.16
401.754	45.91
401.963	84.82
402.172	113.49
402.381	99.16
402.59	35.67
402.799	107.35
403.008	95.06
403.217	58.2
403.426	97.11
403.635	29.52
403.844	111.44
404.053	47.96
404.262	68.44
404.471	140.12
404.68	133.97
404.888	82.77
405.097	133.97
405.306	82.77
405.515	105.3
405.724	197.46
405.933	187.22
406.142	97.11
406.35	119.64
406.559	138.07
406.768	179.03
406.977	160.59
407.185	160.59
407.394	148.31
407.603	160.59
407.812	158.55
408.02	160.59
408.229	191.31
408.438	136.02
408.646	170.83
408.855	234.32
409.064	219.99
409.272	129.88
409.481	297.81
409.69	230.23
409.898	201.55
410.107	189.27
410.315	244.56
410.524	226.13
410.733	346.96
410.941	228.18
411.15	271.19
411.358	279.38
411.567	322.38
411.775	312.14
411.984	340.82
412.192	404.3
412.401	295.76
412.609	299.86
412.818	363.34
413.026	435.02
413.234	441.17
413.443	392.02
413.651	418.64
413.86	320.34
414.068	398.16
414.276	506.7
414.485	437.07
414.693	418.64
414.901	451.41
415.11	396.11
415.318	453.45
415.526	500.56
415.734	506.7
415.943	570.19
416.151	504.65
416.359	555.85
416.567	521.04
416.776	648.01
416.984	586.57
417.192	768.84
417.4	625.48
417.608	645.96
417.817	809.8
418.025	697.16
418.233	834.38
418.441	731.98
418.649	879.43
418.857	871.24
419.065	856.9
419.273	897.86
419.481	904.01
419.689	975.69
419.897	944.97
420.105	901.96
420.313	1082.18
420.521	1125.19
420.729	1108.8
420.937	1051.46
421.145	1203.01
421.353	1262.4
421.561	1219.39
421.769	1329.99
421.977	1389.38
422.185	1344.32
422.393	1411.9
422.601	1483.58
422.809	1557.31
423.017	1573.69
423.224	1628.99
423.432	1657.66
423.64	1626.94
423.848	1794.87
424.056	1690.43
424.263	1911.61
424.471	1897.27
424.679	1913.66
424.887	2048.82
425.094	2038.58
425.302	2093.88
425.51	2132.79
425.718	2249.52
425.925	2224.95
426.133	2478.9
426.341	2396.98
426.548	2657.07
426.756	2573.1
426.964	2646.83
427.171	2749.23
427.379	2978.6
427.586	2892.59
427.794	3050.28
428.001	3015.46
428.209	3349.28
428.417	3201.83
428.624	3423.01
428.832	3447.58
429.039	3437.34
429.247	3449.63
429.454	3863.32
429.662	3871.51
429.869	3566.37
430.076	4010.78
430.284	3713.82
430.491	4068.12
430.699	4295.44
430.906	4176.66
431.114	4338.45
431.321	4455.19
431.528	4518.67
431.736	4836.11
431.943	5178.12
432.15	5120.78
432.358	5094.15
432.565	5298.95
432.772	5399.3
432.979	5532.42
433.187	5702.4
433.394	5739.26
433.601	6167.29
433.808	6073.08
434.016	6224.63
434.223	6365.94
434.43	6757.1
434.637	6605.55
434.844	6892.27
435.052	7269.09
435.259	7129.83
435.466	7287.53
435.673	7240.42
435.88	7586.53
436.087	8008.41
436.294	8121.05
436.501	7842.53
436.708	8016.6
436.915	8434.39
437.122	8651.47
437.329	8751.82
437.537	8717.01
437.743	9122.51
437.95	8850.13
438.157	9310.92
438.364	9708.23
438.571	9665.22
438.778	9933.5
438.985	10658.48
439.192	10445.49
439.399	10556.08
439.606	10496.69
439.813	11174.57
440.02	11715.23
440.227	11465.38
440.433	11393.7
440.64	11780.77
440.847	11678.37
441.054	11885.22
441.261	12880.53
441.467	12610.2
441.674	12849.81
441.881	13200.01
442.088	13341.32
442.294	13308.55
442.501	13372.04
442.708	13484.68
442.914	14113.41
443.121	14830.2
443.328	14680.69
443.534	15362.67
443.741	15297.13
443.948	15034.99
444.154	15938.15
444.361	15868.52
444.568	16104.03
444.774	16007.78
444.981	16337.5
445.187	16767.57
445.394	17437.26
445.6	17459.79
445.807	18987.57
446.013	18029.12
446.22	18377.28
446.426	19161.65
446.633	19364.4
446.839	20011.56
447.046	19323.44
447.252	20288.03
447.459	20281.89
447.665	20269.6
447.871	21344.78
448.078	22075.91
448.284	20814.36
448.491	21391.89
448.697	22397.44
448.903	22436.35
449.11	23169.52
449.316	22534.65
449.522	23026.17
449.728	23751.15
449.935	23892.46
450.141	23781.87
450.347	24127.97
450.553	23552.49
450.76	23648.75
450.966	24566.24
451.172	24588.77
451.378	25117.14
451.584	24506.85
451.791	25250.26
451.997	25225.68
452.203	25776.59
452.409	25506.26
452.615	25504.21
452.821	24611.29
453.027	24134.12
453.233	25772.49
453.44	24443.36
453.646	25065.94
453.852	25035.22
454.058	25516.5
454.264	24519.14
454.47	24910.3
454.676	24293.86
454.882	25706.96
455.088	23314.93
455.294	23472.62
455.5	23855.59
455.705	24050.15
455.911	23417.33
456.117	22950.39
456.323	22596.09
456.529	21096.98
456.735	22424.06
456.941	21934.6
457.147	20883.99
457.352	20859.42
457.558	20714.01
457.764	20550.17
457.97	20263.46
458.176	19653.16
458.381	19728.94
458.587	18862.65
458.793	18713.14
458.999	17850.95
459.204	18934.32
459.41	18498.11
459.616	17451.6
459.821	17275.47
460.027	17445.45
460.233	16822.87
460.438	15868.52
460.644	16441.95
460.85	15575.66
461.055	15084.14
461.261	15252.08
461.466	14191.23
461.672	13673.09
461.878	14766.71
462.083	13865.6
462.289	13539.97
462.494	13421.19
462.7	12688.02
462.905	12505.75
463.111	12812.95
463.316	12954.26
463.522	12587.67
463.727	12823.19
463.932	12825.23
464.138	12616.34
464.343	12602.01
464.549	12001.95
464.754	12771.99
464.959	12839.57
465.165	12540.57
465.37	12020.38
465.575	11768.48
465.781	12210.84
465.986	12296.86
466.191	11844.26
466.397	11621.03
466.602	11096.75
466.807	11313.83
467.012	11387.56
467.218	11330.22
467.423	11414.18
467.628	11440.81
467.833	11782.82
468.038	11252.39
468.244	11262.63
468.449	11459.24
468.654	11227.82
468.859	11008.69
469.064	11348.65
469.269	10439.35
469.474	10693.3
