Data from USB4F104151__27__12-53-36-206.txt Node

Date: Fri Mar 14 12:53:36 EDT 2025
User: louis
Spectrometer: USB4F10415
Trigger mode: 4
Integration Time (sec): 1.000000E-2
Scans to average: 1
Electric dark correction enabled: true
Nonlinearity correction enabled: false
Boxcar width: 0
XAxis mode: Wavelengths
Number of Pixels in Spectrum: 3648
>>>>>Begin Spectral Data<<<<<
178.204	-33.11
178.424	-33.11
178.644	-33.11
178.864	-90.45
179.084	-6.49
179.304	-59.73
179.524	22.19
179.744	-14.68
179.964	-45.4
180.184	67.24
180.404	126.63
180.624	3.75
180.844	-29.01
181.064	3.75
181.283	-53.59
181.503	-24.92
181.723	3.75
181.943	-43.35
182.163	-0.34
182.383	36.52
182.602	22.19
182.822	5.8
183.042	71.34
183.262	38.57
183.482	-57.68
183.701	-2.39
183.921	-4.44
184.141	59.05
184.361	44.71
184.58	-31.06
184.8	30.38
185.02	28.33
185.239	-18.77
185.459	24.23
185.679	57
185.898	18.09
186.118	13.99
186.338	-16.73
186.557	-0.34
186.777	11.95
186.997	3.75
187.216	42.67
187.436	-12.63
187.655	30.38
187.875	-2.39
188.095	7.85
188.314	-41.3
188.534	13.99
188.753	-24.92
188.973	-22.87
189.192	65.19
189.412	48.81
189.631	-31.06
189.851	20.14
190.07	13.99
190.29	9.9
190.509	26.28
190.729	-2.39
190.948	44.71
191.168	83.63
191.387	9.9
191.607	5.8
191.826	63.15
192.045	34.47
192.265	42.67
192.484	85.67
192.704	-4.44
192.923	11.95
193.142	63.15
193.362	-61.78
193.581	71.34
193.8	28.33
194.02	46.76
194.239	7.85
194.458	18.09
194.678	36.52
194.897	-29.01
195.116	52.91
195.335	-20.82
195.555	11.95
195.774	50.86
195.993	65.19
196.212	-22.87
196.432	18.09
196.651	95.91
196.87	13.99
197.089	9.9
197.308	-22.87
197.528	59.05
197.747	-14.68
197.966	-2.39
198.185	-26.96
198.404	-0.34
198.623	-0.34
198.842	52.91
199.062	-20.82
199.281	40.62
199.5	50.86
199.719	11.95
199.938	1.71
200.157	5.8
200.376	52.91
200.595	26.28
200.814	-37.2
201.033	13.99
201.252	65.19
201.471	-18.77
201.69	50.86
201.909	-26.96
202.128	22.19
202.347	65.19
202.566	46.76
202.785	28.33
203.004	-2.39
203.223	-10.58
203.442	-4.44
203.661	5.8
203.879	32.43
204.098	28.33
204.317	44.71
204.536	59.05
204.755	28.33
204.974	52.91
205.193	-16.73
205.411	38.57
205.63	-16.73
205.849	48.81
206.068	-4.44
206.287	-2.39
206.505	42.67
206.724	61.1
206.943	-29.01
207.162	40.62
207.381	-2.39
207.599	32.43
207.818	9.9
208.037	24.23
208.255	-53.59
208.474	36.52
208.693	26.28
208.911	-22.87
209.13	-80.21
209.349	42.67
209.567	3.75
209.786	79.53
210.005	-26.96
210.223	11.95
210.442	16.04
210.661	-65.88
210.879	13.99
211.098	3.75
211.316	38.57
211.535	85.67
211.753	13.99
211.972	32.43
212.191	32.43
212.409	16.04
212.628	7.85
212.846	-6.49
213.065	-16.73
213.283	26.28
213.502	-102.74
213.72	1.71
213.938	44.71
214.157	28.33
214.375	-22.87
214.594	-53.59
214.812	11.95
215.031	-94.55
215.249	38.57
215.467	-18.77
215.686	-39.25
215.904	24.23
216.122	-49.49
216.341	40.62
216.559	-31.06
216.778	3.75
216.996	1.71
217.214	34.47
217.432	-41.3
217.651	-33.11
217.869	-31.06
218.087	5.8
218.306	5.8
218.524	36.52
218.742	20.14
218.96	9.9
219.179	-22.87
219.397	48.81
219.615	-45.4
219.833	-47.44
220.051	-45.4
220.27	48.81
220.488	-2.39
220.706	13.99
220.924	-2.39
221.142	-10.58
221.36	42.67
221.578	5.8
221.796	63.15
222.015	34.47
222.233	-22.87
222.451	34.47
222.669	-31.06
222.887	34.47
223.105	57
223.323	46.76
223.541	-2.39
223.759	3.75
223.977	-10.58
224.195	-8.53
224.413	38.57
224.631	32.43
224.849	3.75
225.067	-4.44
225.285	5.8
225.503	-35.16
225.721	-0.34
225.939	7.85
226.157	-41.3
226.375	42.67
226.592	85.67
226.81	1.71
227.028	13.99
227.246	26.28
227.464	26.28
227.682	-39.25
227.9	-29.01
228.117	30.38
228.335	-18.77
228.553	3.75
228.771	32.43
228.989	-37.2
229.206	79.53
229.424	34.47
229.642	-12.63
229.86	26.28
230.077	-6.49
230.295	87.72
230.513	-72.02
230.731	-31.06
230.948	57
231.166	-20.82
231.384	38.57
231.601	42.67
231.819	46.76
232.037	-14.68
232.254	63.15
232.472	26.28
232.689	-12.63
232.907	34.47
233.125	-14.68
233.342	63.15
233.56	18.09
233.777	38.57
233.995	7.85
234.213	16.04
234.43	22.19
234.648	-6.49
234.865	3.75
235.083	9.9
235.3	-12.63
235.518	40.62
235.735	1.71
235.953	18.09
236.17	120.49
236.388	-39.25
236.605	-78.16
236.822	-22.87
237.04	32.43
237.257	22.19
237.475	-31.06
237.692	40.62
237.909	48.81
238.127	44.71
238.344	18.09
238.562	-2.39
238.779	-10.58
238.996	71.34
239.214	-45.4
239.431	30.38
239.648	38.57
239.865	34.47
240.083	67.24
240.3	34.47
240.517	18.09
240.735	18.09
240.952	61.1
241.169	-35.16
241.386	79.53
241.603	13.99
241.821	-14.68
242.038	-6.49
242.255	69.29
242.472	-2.39
242.689	20.14
242.907	124.58
243.124	-22.87
243.341	-10.58
243.558	3.75
243.775	-29.01
243.992	30.38
244.209	18.09
244.426	-24.92
244.643	91.82
244.86	16.04
245.078	30.38
245.295	11.95
245.512	81.58
245.729	40.62
245.946	71.34
246.163	30.38
246.38	-10.58
246.597	34.47
246.814	-53.59
247.031	-59.73
247.248	61.1
247.464	13.99
247.681	-0.34
247.898	13.99
248.115	9.9
248.332	32.43
248.549	9.9
248.766	13.99
248.983	3.75
249.2	100.01
249.417	28.33
249.633	-20.82
249.85	-4.44
250.067	-33.11
250.284	-4.44
250.501	44.71
250.717	-6.49
250.934	30.38
251.151	13.99
251.368	-43.35
251.585	34.47
251.801	44.71
252.018	36.52
252.235	-4.44
252.451	-86.36
252.668	50.86
252.885	28.33
253.102	-10.58
253.318	50.86
253.535	61.1
253.752	-51.54
253.968	40.62
254.185	81.58
254.401	-31.06
254.618	26.28
254.835	-4.44
255.051	7.85
255.268	-26.96
255.484	26.28
255.701	-8.53
255.917	-49.49
256.134	1.71
256.351	50.86
256.567	-100.69
256.784	63.15
257	-35.16
257.217	-47.44
257.433	18.09
257.65	-16.73
257.866	13.99
258.082	-14.68
258.299	-8.53
258.515	18.09
258.732	-18.77
258.948	26.28
259.165	34.47
259.381	16.04
259.597	54.95
259.814	-10.58
260.03	52.91
260.246	20.14
260.463	5.8
260.679	30.38
260.895	16.04
261.112	20.14
261.328	48.81
261.544	-12.63
261.761	65.19
261.977	3.75
262.193	24.23
262.409	42.67
262.626	3.75
262.842	24.23
263.058	50.86
263.274	50.86
263.49	-10.58
263.707	61.1
263.923	7.85
264.139	34.47
264.355	20.14
264.571	124.58
264.787	11.95
265.004	44.71
265.22	32.43
265.436	13.99
265.652	-6.49
265.868	30.38
266.084	-20.82
266.3	13.99
266.516	40.62
266.732	28.33
266.948	18.09
267.164	59.05
267.38	-4.44
267.596	20.14
267.812	24.23
268.028	7.85
268.244	-84.31
268.46	59.05
268.676	-4.44
268.892	24.23
269.108	30.38
269.324	83.63
269.54	18.09
269.756	85.67
269.972	52.91
270.188	-57.68
270.403	-39.25
270.619	1.71
270.835	30.38
271.051	9.9
271.267	83.63
271.483	36.52
271.698	-29.01
271.914	22.19
272.13	30.38
272.346	-41.3
272.562	59.05
272.777	40.62
272.993	-12.63
273.209	59.05
273.425	30.38
273.64	-24.92
273.856	-10.58
274.072	52.91
274.287	48.81
274.503	3.75
274.719	-18.77
274.934	-8.53
275.15	-12.63
275.366	-0.34
275.581	20.14
275.797	-0.34
276.012	-47.44
276.228	-47.44
276.444	75.43
276.659	5.8
276.875	-35.16
277.09	-0.34
277.306	5.8
277.521	9.9
277.737	22.19
277.952	3.75
278.168	79.53
278.383	5.8
278.599	20.14
278.814	28.33
279.03	73.39
279.245	44.71
279.461	20.14
279.676	52.91
279.892	26.28
280.107	52.91
280.322	3.75
280.538	32.43
280.753	-22.87
280.969	77.48
281.184	46.76
281.399	36.52
281.615	24.23
281.83	-12.63
282.045	5.8
282.26	-29.01
282.476	-16.73
282.691	34.47
282.906	18.09
283.122	-37.2
283.337	-39.25
283.552	-20.82
283.767	5.8
283.983	44.71
284.198	91.82
284.413	36.52
284.628	-39.25
284.843	44.71
285.058	83.63
285.274	38.57
285.489	-6.49
285.704	91.82
285.919	18.09
286.134	61.1
286.349	9.9
286.564	69.29
286.779	34.47
286.995	-0.34
287.21	13.99
287.425	5.8
287.64	-2.39
287.855	1.71
288.07	-22.87
288.285	38.57
288.5	91.82
288.715	24.23
288.93	65.19
289.145	18.09
289.36	1.71
289.575	3.75
289.79	34.47
290.004	102.06
290.219	34.47
290.434	-47.44
290.649	61.1
290.864	65.19
291.079	13.99
291.294	-8.53
291.509	44.71
291.724	32.43
291.938	-20.82
292.153	36.52
292.368	73.39
292.583	24.23
292.798	22.19
293.012	91.82
293.227	30.38
293.442	30.38
293.657	57
293.871	9.9
294.086	9.9
294.301	38.57
294.516	79.53
294.73	13.99
294.945	-20.82
295.16	87.72
295.374	63.15
295.589	61.1
295.804	-31.06
296.018	-37.2
296.233	36.52
296.447	-31.06
296.662	-80.21
296.877	7.85
297.091	-8.53
297.306	18.09
297.52	-18.77
297.735	65.19
297.949	3.75
298.164	28.33
298.378	59.05
298.593	52.91
298.807	46.76
299.022	20.14
299.236	20.14
299.451	73.39
299.665	130.73
299.88	34.47
300.094	1.71
300.309	63.15
300.523	44.71
300.737	118.44
300.952	20.14
301.166	46.76
301.381	1.71
301.595	1.71
301.809	30.38
302.024	-10.58
302.238	52.91
302.452	-2.39
302.667	61.1
302.881	54.95
303.095	26.28
303.309	11.95
303.524	-43.35
303.738	36.52
303.952	-10.58
304.166	5.8
304.381	28.33
304.595	9.9
304.809	87.72
305.023	11.95
305.237	50.86
305.452	28.33
305.666	13.99
305.88	36.52
306.094	46.76
306.308	36.52
306.522	5.8
306.736	-26.96
306.95	75.43
307.164	-57.68
307.379	9.9
307.593	5.8
307.807	26.28
308.021	54.95
308.235	3.75
308.449	32.43
308.663	48.81
308.877	28.33
309.091	24.23
309.305	32.43
309.519	-49.49
309.733	-53.59
309.947	-4.44
310.161	61.1
310.374	26.28
310.588	9.9
310.802	83.63
311.016	20.14
311.23	-26.96
311.444	48.81
311.658	22.19
311.872	-2.39
312.085	65.19
312.299	89.77
312.513	24.23
312.727	52.91
312.941	-33.11
313.154	75.43
313.368	18.09
313.582	52.91
313.796	5.8
314.009	36.52
314.223	54.95
314.437	22.19
314.651	46.76
314.864	28.33
315.078	97.96
315.292	-2.39
315.505	52.91
315.719	44.71
315.933	46.76
316.146	-16.73
316.36	83.63
316.573	9.9
316.787	26.28
317.001	69.29
317.214	28.33
317.428	-10.58
317.641	20.14
317.855	42.67
318.068	-16.73
318.282	91.82
318.495	63.15
318.709	26.28
318.922	83.63
319.136	34.47
319.349	38.57
319.563	-12.63
319.776	44.71
319.99	-0.34
320.203	-53.59
320.417	24.23
320.63	9.9
320.843	61.1
321.057	77.48
321.27	52.91
321.483	-45.4
321.697	120.49
321.91	42.67
322.124	-6.49
322.337	48.81
322.55	-8.53
322.763	34.47
322.977	36.52
323.19	-35.16
323.403	3.75
323.617	40.62
323.83	42.67
324.043	11.95
324.256	59.05
324.469	-12.63
324.683	1.71
324.896	7.85
325.109	-37.2
325.322	46.76
325.535	81.58
325.748	-4.44
325.962	30.38
326.175	40.62
326.388	32.43
326.601	-8.53
326.814	71.34
327.027	38.57
327.24	79.53
327.453	34.47
327.666	67.24
327.879	34.47
328.092	-26.96
328.305	110.25
328.518	26.28
328.731	18.09
328.944	38.57
329.157	36.52
329.37	52.91
329.583	24.23
329.796	50.86
330.009	-55.64
330.222	59.05
330.435	89.77
330.648	-6.49
330.861	69.29
331.073	28.33
331.286	-14.68
331.499	-24.92
331.712	36.52
331.925	52.91
332.138	9.9
332.35	1.71
332.563	-47.44
332.776	54.95
332.989	61.1
333.202	34.47
333.414	3.75
333.627	34.47
333.84	1.71
334.053	34.47
334.265	-4.44
334.478	50.86
334.691	18.09
334.903	67.24
335.116	28.33
335.329	61.1
335.541	-39.25
335.754	50.86
335.966	20.14
336.179	79.53
336.392	-12.63
336.604	1.71
336.817	71.34
337.029	-43.35
337.242	38.57
337.454	50.86
337.667	-18.77
337.88	83.63
338.092	-18.77
338.305	38.57
338.517	75.43
338.729	52.91
338.942	3.75
339.154	-12.63
339.367	-14.68
339.579	1.71
339.792	57
340.004	40.62
340.217	13.99
340.429	32.43
340.641	38.57
340.854	7.85
341.066	30.38
341.278	77.48
341.491	44.71
341.703	-2.39
341.915	22.19
342.128	9.9
342.34	-18.77
342.552	30.38
342.764	-10.58
342.977	77.48
343.189	34.47
343.401	71.34
343.613	5.8
343.826	20.14
344.038	77.48
344.25	18.09
344.462	48.81
344.674	18.09
344.886	34.47
345.099	36.52
345.311	-12.63
345.523	16.04
345.735	-0.34
345.947	32.43
346.159	28.33
346.371	-29.01
346.583	28.33
346.795	26.28
347.007	79.53
347.219	85.67
347.431	44.71
347.643	34.47
347.855	-18.77
348.067	-14.68
348.279	-22.87
348.491	52.91
348.703	95.91
348.915	30.38
349.127	3.75
349.339	104.11
349.551	38.57
349.763	65.19
349.975	-24.92
350.187	91.82
350.399	18.09
350.61	73.39
350.822	36.52
351.034	42.67
351.246	91.82
351.458	69.29
351.669	75.43
351.881	95.91
352.093	79.53
352.305	40.62
352.517	-14.68
352.728	40.62
352.94	16.04
353.152	120.49
353.363	38.57
353.575	59.05
353.787	54.95
353.999	7.85
354.21	30.38
354.422	77.48
354.633	30.38
354.845	36.52
355.057	63.15
355.268	42.67
355.48	48.81
355.692	-24.92
355.903	110.25
356.115	34.47
356.326	-2.39
356.538	-14.68
356.749	5.8
356.961	26.28
357.172	42.67
357.384	-20.82
357.595	24.23
357.807	-29.01
358.018	-10.58
358.23	11.95
358.441	93.87
358.653	11.95
358.864	34.47
359.075	69.29
359.287	-4.44
359.498	61.1
359.709	18.09
359.921	63.15
360.132	69.29
360.344	-12.63
360.555	1.71
360.766	18.09
360.977	34.47
361.189	69.29
361.4	1.71
361.611	18.09
361.823	5.8
362.034	-37.2
362.245	9.9
362.456	-8.53
362.667	-2.39
362.879	81.58
363.09	81.58
363.301	-0.34
363.512	18.09
363.723	36.52
363.935	1.71
364.146	11.95
364.357	20.14
364.568	89.77
364.779	42.67
364.99	89.77
365.201	-26.96
365.412	36.52
365.623	32.43
365.834	65.19
366.045	30.38
366.256	34.47
366.467	48.81
366.678	50.86
366.889	16.04
367.1	34.47
367.311	46.76
367.522	89.77
367.733	3.75
367.944	52.91
368.155	-18.77
368.366	67.24
368.577	63.15
368.788	3.75
368.999	57
369.209	-2.39
369.42	36.52
369.631	67.24
369.842	79.53
370.053	1.71
370.264	91.82
370.474	89.77
370.685	-2.39
370.896	-35.16
371.107	83.63
371.317	42.67
371.528	9.9
371.739	48.81
371.95	16.04
372.16	100.01
372.371	-12.63
372.582	79.53
372.792	13.99
373.003	87.72
373.214	44.71
373.424	-22.87
373.635	7.85
373.846	65.19
374.056	93.87
374.267	24.23
374.477	59.05
374.688	9.9
374.898	13.99
375.109	-6.49
375.319	67.24
375.53	26.28
375.74	85.67
375.951	26.28
376.161	34.47
376.372	61.1
376.582	-22.87
376.793	40.62
377.003	7.85
377.214	93.87
377.424	1.71
377.635	30.38
377.845	38.57
378.055	13.99
378.266	30.38
378.476	20.14
378.686	108.2
378.897	108.2
379.107	22.19
379.317	-33.11
379.528	106.15
379.738	40.62
379.948	9.9
380.158	18.09
380.369	97.96
380.579	42.67
380.789	-2.39
380.999	63.15
381.21	40.62
381.42	16.04
381.63	-6.49
381.84	36.52
382.05	87.72
382.261	102.06
382.471	40.62
382.681	112.3
382.891	48.81
383.101	7.85
383.311	-24.92
383.521	77.48
383.731	3.75
383.941	11.95
384.151	24.23
384.361	77.48
384.571	81.58
384.781	65.19
384.991	93.87
385.201	1.71
385.411	77.48
385.621	79.53
385.831	73.39
386.041	104.11
386.251	57
386.461	3.75
386.671	69.29
386.881	75.43
387.091	34.47
387.301	3.75
387.511	59.05
387.72	48.81
387.93	40.62
388.14	59.05
388.35	32.43
388.56	59.05
388.769	77.48
388.979	77.48
389.189	79.53
389.399	1.71
389.609	18.09
389.818	9.9
390.028	9.9
390.238	100.01
390.447	61.1
390.657	46.76
390.867	67.24
391.076	61.1
391.286	42.67
391.496	79.53
391.705	-8.53
391.915	79.53
392.125	18.09
392.334	26.28
392.544	57
392.753	13.99
392.963	42.67
393.172	75.43
393.382	79.53
393.591	85.67
393.801	5.8
394.01	50.86
394.22	61.1
394.429	100.01
394.639	-4.44
394.848	28.33
395.058	54.95
395.267	132.78
395.477	3.75
395.686	100.01
395.895	77.48
396.105	89.77
396.314	44.71
396.524	128.68
396.733	20.14
396.942	44.71
397.152	102.06
397.361	34.47
397.57	38.57
397.78	48.81
397.989	50.86
398.198	48.81
398.407	18.09
398.617	22.19
398.826	85.67
399.035	91.82
399.244	24.23
399.453	85.67
399.663	108.2
399.872	100.01
400.081	89.77
400.29	93.87
400.499	73.39
400.708	97.96
400.917	44.71
401.127	77.48
401.336	52.91
401.545	100.01
401.754	36.52
401.963	83.63
402.172	9.9
402.381	112.3
402.59	106.15
402.799	22.19
403.008	30.38
403.217	44.71
403.426	124.58
403.635	89.77
403.844	75.43
404.053	-18.77
404.262	59.05
404.471	145.06
404.68	89.77
404.888	110.25
405.097	63.15
405.306	130.73
405.515	77.48
405.724	79.53
405.933	79.53
406.142	124.58
406.35	102.06
406.559	149.16
406.768	138.92
406.977	165.54
407.185	69.29
407.394	143.02
407.603	61.1
407.812	157.35
408.02	71.34
408.229	112.3
408.438	122.54
408.646	138.92
408.855	167.59
409.064	161.45
409.272	179.88
409.481	157.35
409.69	165.54
409.898	253.61
410.107	210.6
410.315	179.88
410.524	237.22
410.733	214.7
410.941	276.13
411.15	208.55
411.358	198.31
411.567	204.46
411.775	269.99
411.984	241.32
412.192	229.03
412.401	261.8
412.609	304.81
412.818	294.57
413.026	292.52
413.234	317.09
413.443	243.37
413.651	349.86
413.86	319.14
414.068	317.09
414.276	235.18
414.485	364.2
414.693	349.86
414.901	310.95
415.11	466.6
415.318	407.2
415.526	482.98
415.734	427.68
415.943	382.63
416.151	546.47
416.359	462.5
416.567	515.75
416.776	392.87
416.984	544.42
417.192	556.71
417.4	544.42
417.608	640.67
417.817	538.27
418.025	583.33
418.233	691.87
418.441	599.71
418.649	679.58
418.857	747.17
419.065	691.87
419.273	816.8
419.481	718.5
419.689	784.03
419.897	788.13
420.105	820.89
420.313	923.29
420.521	894.62
420.729	908.96
420.937	978.59
421.145	1033.88
421.353	1099.42
421.561	982.68
421.769	1076.89
421.977	1113.75
422.185	1218.2
422.393	1156.76
422.601	1277.59
422.809	1203.86
423.017	1265.3
423.224	1271.45
423.432	1388.18
423.64	1427.09
423.848	1498.77
424.056	1521.3
424.263	1597.07
424.471	1529.49
424.679	1556.11
424.887	1687.18
425.094	1760.91
425.302	1767.06
425.51	1842.83
425.718	1922.7
425.925	2002.57
426.133	1930.89
426.341	2115.21
426.548	2143.88
426.756	2053.77
426.964	2168.46
427.171	2322.06
427.379	2418.31
427.586	2430.6
427.794	2373.25
428.001	2612.87
428.209	2768.51
428.417	2809.47
428.624	2893.44
428.832	2934.4
429.039	2813.57
429.247	2854.53
429.454	3227.26
429.662	3382.9
429.869	3137.15
430.076	3436.15
430.284	3360.38
430.491	3493.49
430.699	3671.67
430.906	3499.64
431.114	3579.51
431.321	3706.48
431.528	3870.32
431.736	4179.56
431.943	4312.68
432.15	4079.21
432.358	4247.15
432.565	4468.33
432.772	4378.22
432.979	4765.28
433.187	4882.02
433.394	4765.28
433.601	5066.33
433.808	5275.23
434.016	5037.66
434.223	5389.91
434.43	5662.29
434.637	5568.09
434.844	6022.73
435.052	6002.26
435.259	5985.87
435.466	6225.48
435.673	5969.49
435.88	6450.76
436.087	6553.16
436.294	6745.67
436.501	6653.51
436.708	6643.27
436.915	6989.38
437.122	7325.24
437.329	7265.85
437.537	7376.44
437.743	7546.42
437.95	7564.86
438.157	7956.02
438.364	8166.96
438.571	8273.45
438.778	8222.25
438.985	8967.71
439.192	8652.33
439.399	9094.69
439.606	8504.87
439.813	9131.55
440.02	9694.74
440.227	9559.58
440.433	9537.05
440.64	9901.59
440.847	9688.6
441.054	10061.33
441.261	10481.16
441.467	10741.25
441.674	10759.69
441.881	11404.8
442.088	10987.01
442.294	11056.64
442.501	11390.46
442.708	11671.03
442.914	12320.24
443.121	12506.6
443.328	12195.31
443.534	13073.89
443.741	12809.7
443.948	12539.37
444.154	13600.22
444.361	13714.91
444.568	13456.86
444.774	13762.01
444.981	13643.23
445.187	14200.27
445.394	14407.12
445.6	14689.74
445.807	15740.35
446.013	15308.23
446.22	15783.35
446.426	16104.88
446.633	16158.13
446.839	16813.48
447.046	15969.72
447.252	16967.08
447.459	17065.38
447.665	17227.17
447.871	17792.41
448.078	18621.84
448.284	17726.88
448.491	17950.1
448.697	18681.23
448.903	19006.86
449.11	19357.06
449.316	18685.33
449.522	19158.41
449.728	19932.54
449.935	19905.91
450.141	20063.61
450.347	20366.71
450.553	19815.8
450.76	20137.34
450.966	20622.7
451.172	20606.32
451.378	21187.94
451.584	20575.6
451.791	21210.47
451.997	21013.87
452.203	21382.5
452.409	21448.04
452.615	21558.63
452.821	20407.67
453.027	20530.55
453.233	21353.83
453.44	20579.7
453.646	20657.52
453.852	20958.57
454.058	21398.88
454.264	20622.7
454.47	21132.65
454.676	20352.37
454.882	21269.86
455.088	19563.9
455.294	19858.81
455.5	20235.64
455.705	20235.64
455.911	19676.54
456.117	19062.15
456.323	18533.78
456.529	17876.38
456.735	18738.57
456.941	18171.29
457.147	17708.44
457.352	17290.66
457.558	17223.08
457.764	17057.19
457.97	16915.88
458.176	16643.5
458.381	16659.88
458.587	15816.12
458.793	15578.56
458.999	14831.05
459.204	16020.92
459.41	15508.93
459.616	14507.47
459.821	14575.05
460.027	14452.17
460.233	14144.98
460.438	13688.28
460.644	13675.99
460.85	12996.07
461.055	12729.83
461.261	12908.01
461.466	12062.19
461.672	11560.44
461.878	12504.56
462.083	11374.08
462.289	11439.61
462.494	11558.39
462.7	10901
462.905	10554.89
463.111	10743.3
463.316	10931.72
463.522	10708.49
463.727	10645
463.932	10688.01
464.138	10724.87
464.343	10556.94
464.549	10446.35
464.754	10634.76
464.959	10450.44
465.165	10462.73
465.37	9995.79
465.575	9784.85
465.781	10032.66
465.986	10343.95
466.191	9905.68
466.397	9704.98
466.602	9285.15
466.807	9649.69
467.012	9643.54
467.218	9522.71
467.423	9494.04
467.628	9446.94
467.833	9881.11
468.038	9604.63
468.244	9195.04
468.449	9723.41
468.654	9309.72
468.859	9391.64
469.064	9291.29
469.269	8719.91
