Data from USB4F104151__39__12-53-44-835.txt Node

Date: Fri Mar 14 12:53:44 EDT 2025
User: louis
Spectrometer: USB4F10415
Trigger mode: 4
Integration Time (sec): 1.000000E-2
Scans to average: 1
Electric dark correction enabled: true
Nonlinearity correction enabled: false
Boxcar width: 0
XAxis mode: Wavelengths
Number of Pixels in Spectrum: 3648
>>>>>Begin Spectral Data<<<<<
178.204	-12.29
178.424	-12.29
178.644	-12.29
178.864	-61.44
179.084	-73.73
179.304	-22.53
179.524	22.53
179.744	2.05
179.964	77.82
180.184	-6.14
180.404	24.58
180.624	-28.67
180.844	-12.29
181.064	-81.92
181.283	34.82
181.503	-8.19
181.723	-2.05
181.943	0
182.163	0
182.383	6.14
182.602	0
182.822	12.29
183.042	8.19
183.262	-10.24
183.482	38.91
183.701	53.25
183.921	16.38
184.141	-22.53
184.361	63.49
184.58	-10.24
184.8	-71.68
185.02	0
185.239	16.38
185.459	6.14
185.679	8.19
185.898	-12.29
186.118	71.68
186.338	22.53
186.557	-12.29
186.777	-30.72
186.997	49.15
187.216	-10.24
187.436	18.43
187.655	-22.53
187.875	-2.05
188.095	63.49
188.314	-24.58
188.534	40.96
188.753	18.43
188.973	8.19
189.192	32.77
189.412	14.34
189.631	38.91
189.851	22.53
190.07	16.38
190.29	24.58
190.509	30.72
190.729	-14.34
190.948	45.06
191.168	73.73
191.387	69.63
191.607	38.91
191.826	55.3
192.045	6.14
192.265	61.44
192.484	34.82
192.704	-30.72
192.923	24.58
193.142	38.91
193.362	83.97
193.581	59.39
193.8	24.58
194.02	-4.1
194.239	67.58
194.458	71.68
194.678	43.01
194.897	8.19
195.116	22.53
195.335	-32.77
195.555	-51.2
195.774	-28.67
195.993	22.53
196.212	-47.1
196.432	-10.24
196.651	-16.38
196.87	-18.43
197.089	75.77
197.308	2.05
197.528	55.3
197.747	6.14
197.966	18.43
198.185	65.54
198.404	26.62
198.623	61.44
198.842	-40.96
199.062	57.34
199.281	26.62
199.5	61.44
199.719	51.2
199.938	53.25
200.157	57.34
200.376	14.34
200.595	47.1
200.814	63.49
201.033	-73.73
201.252	40.96
201.471	-30.72
201.69	-4.1
201.909	40.96
202.128	-47.1
202.347	65.54
202.566	83.97
202.785	-43.01
203.004	40.96
203.223	16.38
203.442	106.49
203.661	-53.25
203.879	45.06
204.098	-36.86
204.317	8.19
204.536	-2.05
204.755	-4.1
204.974	86.01
205.193	-4.1
205.411	94.21
205.63	26.62
205.849	18.43
206.068	-8.19
206.287	79.87
206.505	53.25
206.724	43.01
206.943	2.05
207.162	26.62
207.381	20.48
207.599	-6.14
207.818	79.87
208.037	-2.05
208.255	8.19
208.474	65.54
208.693	86.01
208.911	16.38
209.13	38.91
209.349	63.49
209.567	-10.24
209.786	4.1
210.005	-10.24
210.223	32.77
210.442	10.24
210.661	-24.58
210.879	61.44
211.098	18.43
211.316	53.25
211.535	-14.34
211.753	16.38
211.972	40.96
212.191	47.1
212.409	-2.05
212.628	40.96
212.846	10.24
213.065	-14.34
213.283	22.53
213.502	-43.01
213.72	-10.24
213.938	81.92
214.157	-12.29
214.375	-34.82
214.594	32.77
214.812	65.54
215.031	-22.53
215.249	4.1
215.467	2.05
215.686	49.15
215.904	65.54
216.122	49.15
216.341	6.14
216.559	2.05
216.778	-2.05
216.996	-22.53
217.214	6.14
217.432	8.19
217.651	38.91
217.869	-6.14
218.087	12.29
218.306	-8.19
218.524	57.34
218.742	22.53
218.96	86.01
219.179	36.86
219.397	-8.19
219.615	36.86
219.833	34.82
220.051	-6.14
220.27	14.34
220.488	22.53
220.706	51.2
220.924	-63.49
221.142	-10.24
221.36	43.01
221.578	-10.24
221.796	-38.91
222.015	-30.72
222.233	34.82
222.451	30.72
222.669	28.67
222.887	16.38
223.105	40.96
223.323	102.4
223.541	-45.06
223.759	32.77
223.977	32.77
224.195	79.87
224.413	8.19
224.631	6.14
224.849	18.43
225.067	-4.1
225.285	47.1
225.503	24.58
225.721	-36.86
225.939	30.72
226.157	24.58
226.375	26.62
226.592	-4.1
226.81	53.25
227.028	57.34
227.246	47.1
227.464	8.19
227.682	-22.53
227.9	36.86
228.117	-10.24
228.335	47.1
228.553	34.82
228.771	43.01
228.989	40.96
229.206	-32.77
229.424	67.58
229.642	10.24
229.86	14.34
230.077	77.82
230.295	32.77
230.513	0
230.731	2.05
230.948	98.3
231.166	57.34
231.384	12.29
231.601	-8.19
231.819	26.62
232.037	-10.24
232.254	-20.48
232.472	-16.38
232.689	-16.38
232.907	18.43
233.125	34.82
233.342	14.34
233.56	47.1
233.777	-16.38
233.995	49.15
234.213	69.63
234.43	45.06
234.648	26.62
234.865	14.34
235.083	-14.34
235.3	-26.62
235.518	40.96
235.735	57.34
235.953	40.96
236.17	20.48
236.388	-71.68
236.605	40.96
236.822	131.07
237.04	-2.05
237.257	92.16
237.475	-53.25
237.692	30.72
237.909	28.67
238.127	61.44
238.344	18.43
238.562	-8.19
238.779	57.34
238.996	22.53
239.214	16.38
239.431	112.64
239.648	24.58
239.865	-22.53
240.083	51.2
240.3	16.38
240.517	-4.1
240.735	65.54
240.952	-43.01
241.169	59.39
241.386	-26.62
241.603	10.24
241.821	43.01
242.038	-6.14
242.255	38.91
242.472	-4.1
242.689	-10.24
242.907	24.58
243.124	18.43
243.341	69.63
243.558	61.44
243.775	-40.96
243.992	86.01
244.209	57.34
244.426	65.54
244.643	47.1
244.86	6.14
245.078	34.82
245.295	28.67
245.512	-24.58
245.729	-10.24
245.946	24.58
246.163	6.14
246.38	75.77
246.597	20.48
246.814	133.12
247.031	-6.14
247.248	32.77
247.464	98.3
247.681	51.2
247.898	34.82
248.115	67.58
248.332	-8.19
248.549	104.45
248.766	26.62
248.983	-2.05
249.2	-14.34
249.417	-8.19
249.633	47.1
249.85	59.39
250.067	83.97
250.284	30.72
250.501	57.34
250.717	30.72
250.934	-4.1
251.151	-14.34
251.368	20.48
251.585	6.14
251.801	2.05
252.018	22.53
252.235	55.3
252.451	-2.05
252.668	-6.14
252.885	49.15
253.102	0
253.318	24.58
253.535	61.44
253.752	6.14
253.968	8.19
254.185	-10.24
254.401	12.29
254.618	63.49
254.835	4.1
255.051	55.3
255.268	55.3
255.484	22.53
255.701	-14.34
255.917	34.82
256.134	22.53
256.351	71.68
256.567	-57.34
256.784	10.24
257	-51.2
257.217	51.2
257.433	-34.82
257.65	32.77
257.866	26.62
258.082	32.77
258.299	30.72
258.515	-8.19
258.732	10.24
258.948	59.39
259.165	63.49
259.381	32.77
259.597	-59.39
259.814	-2.05
260.03	88.06
260.246	30.72
260.463	-16.38
260.679	-10.24
260.895	36.86
261.112	81.92
261.328	16.38
261.544	10.24
261.761	79.87
261.977	79.87
262.193	-77.82
262.409	55.3
262.626	30.72
262.842	47.1
263.058	-47.1
263.274	131.07
263.49	34.82
263.707	34.82
263.923	34.82
264.139	24.58
264.355	-59.39
264.571	40.96
264.787	28.67
265.004	40.96
265.22	32.77
265.436	16.38
265.652	-30.72
265.868	83.97
266.084	49.15
266.3	30.72
266.516	-6.14
266.732	14.34
266.948	-14.34
267.164	-10.24
267.38	0
267.596	63.49
267.812	24.58
268.028	34.82
268.244	-77.82
268.46	40.96
268.676	51.2
268.892	14.34
269.108	-8.19
269.324	6.14
269.54	0
269.756	22.53
269.972	30.72
270.188	77.82
270.403	30.72
270.619	83.97
270.835	63.49
271.051	24.58
271.267	14.34
271.483	14.34
271.698	14.34
271.914	28.67
272.13	59.39
272.346	63.49
272.562	-8.19
272.777	63.49
272.993	20.48
273.209	-30.72
273.425	18.43
273.64	-20.48
273.856	18.43
274.072	-2.05
274.287	-14.34
274.503	47.1
274.719	28.67
274.934	-8.19
275.15	28.67
275.366	45.06
275.581	94.21
275.797	38.91
276.012	57.34
276.228	49.15
276.444	45.06
276.659	133.12
276.875	10.24
277.09	0
277.306	20.48
277.521	49.15
277.737	40.96
277.952	6.14
278.168	55.3
278.383	22.53
278.599	-79.87
278.814	38.91
279.03	-8.19
279.245	104.45
279.461	10.24
279.676	43.01
279.892	-28.67
280.107	-28.67
280.322	69.63
280.538	36.86
280.753	26.62
280.969	45.06
281.184	-16.38
281.399	20.48
281.615	24.58
281.83	90.11
282.045	20.48
282.26	45.06
282.476	30.72
282.691	30.72
282.906	-14.34
283.122	-18.43
283.337	-26.62
283.552	38.91
283.767	32.77
283.983	14.34
284.198	-6.14
284.413	32.77
284.628	47.1
284.843	20.48
285.058	8.19
285.274	55.3
285.489	-2.05
285.704	4.1
285.919	36.86
286.134	-26.62
286.349	43.01
286.564	40.96
286.779	92.16
286.995	10.24
287.21	-38.91
287.425	32.77
287.64	12.29
287.855	4.1
288.07	-26.62
288.285	65.54
288.5	28.67
288.715	49.15
288.93	59.39
289.145	10.24
289.36	26.62
289.575	67.58
289.79	53.25
290.004	38.91
290.219	32.77
290.434	55.3
290.649	-26.62
290.864	55.3
291.079	67.58
291.294	8.19
291.509	73.73
291.724	-77.82
291.938	-57.34
292.153	10.24
292.368	-36.86
292.583	-2.05
292.798	8.19
293.012	63.49
293.227	43.01
293.442	6.14
293.657	65.54
293.871	-10.24
294.086	20.48
294.301	49.15
294.516	34.82
294.73	55.3
294.945	24.58
295.16	-2.05
295.374	18.43
295.589	-51.2
295.804	61.44
296.018	12.29
296.233	16.38
296.447	36.86
296.662	36.86
296.877	34.82
297.091	20.48
297.306	20.48
297.52	-20.48
297.735	14.34
297.949	43.01
298.164	124.93
298.378	12.29
298.593	47.1
298.807	86.01
299.022	-40.96
299.236	77.82
299.451	12.29
299.665	53.25
299.88	43.01
300.094	45.06
300.309	71.68
300.523	-16.38
300.737	12.29
300.952	61.44
301.166	32.77
301.381	49.15
301.595	57.34
301.809	59.39
302.024	-20.48
302.238	-12.29
302.452	34.82
302.667	14.34
302.881	18.43
303.095	24.58
303.309	36.86
303.524	57.34
303.738	18.43
303.952	-22.53
304.166	30.72
304.381	28.67
304.595	63.49
304.809	24.58
305.023	137.21
305.237	57.34
305.452	24.58
305.666	24.58
305.88	61.44
306.094	6.14
306.308	51.2
306.522	49.15
306.736	-4.1
306.95	36.86
307.164	18.43
307.379	57.34
307.593	73.73
307.807	65.54
308.021	24.58
308.235	83.97
308.449	-45.06
308.663	63.49
308.877	-2.05
309.091	-4.1
309.305	6.14
309.519	24.58
309.733	100.35
309.947	14.34
310.161	26.62
310.374	106.49
310.588	77.82
310.802	6.14
311.016	-6.14
311.23	65.54
311.444	-10.24
311.658	124.93
311.872	12.29
312.085	55.3
312.299	53.25
312.513	-8.19
312.727	14.34
312.941	112.64
313.154	-14.34
313.368	65.54
313.582	67.58
313.796	45.06
314.009	20.48
314.223	32.77
314.437	-57.34
314.651	-24.58
314.864	49.15
315.078	-26.62
315.292	104.45
315.505	-26.62
315.719	47.1
315.933	-34.82
316.146	69.63
316.36	47.1
316.573	71.68
316.787	18.43
317.001	30.72
317.214	67.58
317.428	38.91
317.641	-20.48
317.855	6.14
318.068	53.25
318.282	-8.19
318.495	71.68
318.709	-4.1
318.922	6.14
319.136	-30.72
319.349	98.3
319.563	45.06
319.776	45.06
319.99	53.25
320.203	8.19
320.417	24.58
320.63	79.87
320.843	45.06
321.057	75.77
321.27	32.77
321.483	-57.34
321.697	77.82
321.91	-28.67
322.124	-16.38
322.337	20.48
322.55	-67.58
322.763	40.96
322.977	-6.14
323.19	53.25
323.403	30.72
323.617	8.19
323.83	40.96
324.043	-16.38
324.256	4.1
324.469	49.15
324.683	10.24
324.896	40.96
325.109	0
325.322	106.49
325.535	47.1
325.748	40.96
325.962	73.73
326.175	0
326.388	40.96
326.601	20.48
326.814	-10.24
327.027	63.49
327.24	57.34
327.453	83.97
327.666	6.14
327.879	24.58
328.092	30.72
328.305	-24.58
328.518	71.68
328.731	18.43
328.944	16.38
329.157	8.19
329.37	49.15
329.583	86.01
329.796	86.01
330.009	-20.48
330.222	-4.1
330.435	-4.1
330.648	-8.19
330.861	43.01
331.073	51.2
331.286	67.58
331.499	36.86
331.712	-12.29
331.925	10.24
332.138	36.86
332.35	73.73
332.563	45.06
332.776	77.82
332.989	-26.62
333.202	14.34
333.414	53.25
333.627	-4.1
333.84	-22.53
334.053	55.3
334.265	-8.19
334.478	-20.48
334.691	20.48
334.903	14.34
335.116	16.38
335.329	75.77
335.541	24.58
335.754	12.29
335.966	-34.82
336.179	51.2
336.392	57.34
336.604	20.48
336.817	2.05
337.029	28.67
337.242	26.62
337.454	55.3
337.667	-4.1
337.88	16.38
338.092	8.19
338.305	-24.58
338.517	34.82
338.729	53.25
338.942	14.34
339.154	38.91
339.367	47.1
339.579	38.91
339.792	36.86
340.004	-16.38
340.217	47.1
340.429	49.15
340.641	8.19
340.854	-22.53
341.066	-12.29
341.278	43.01
341.491	69.63
341.703	110.59
341.915	47.1
342.128	49.15
342.34	81.92
342.552	32.77
342.764	47.1
342.977	24.58
343.189	90.11
343.401	116.73
343.613	8.19
343.826	59.39
344.038	-67.58
344.25	30.72
344.462	10.24
344.674	-10.24
344.886	77.82
345.099	-45.06
345.311	-16.38
345.523	57.34
345.735	0
345.947	71.68
346.159	-2.05
346.371	59.39
346.583	47.1
346.795	67.58
347.007	0
347.219	47.1
347.431	59.39
347.643	-18.43
347.855	43.01
348.067	51.2
348.279	77.82
348.491	-18.43
348.703	86.01
348.915	-26.62
349.127	36.86
349.339	55.3
349.551	-18.43
349.763	86.01
349.975	63.49
350.187	90.11
350.399	55.3
350.61	6.14
350.822	-22.53
351.034	114.69
351.246	34.82
351.458	22.53
351.669	47.1
351.881	73.73
352.093	-38.91
352.305	94.21
352.517	40.96
352.728	40.96
352.94	-14.34
353.152	57.34
353.363	45.06
353.575	47.1
353.787	32.77
353.999	2.05
354.21	-14.34
354.422	57.34
354.633	-30.72
354.845	16.38
355.057	86.01
355.268	32.77
355.48	67.58
355.692	-47.1
355.903	71.68
356.115	47.1
356.326	28.67
356.538	-30.72
356.749	81.92
356.961	106.49
357.172	69.63
357.384	4.1
357.595	36.86
357.807	38.91
358.018	14.34
358.23	47.1
358.441	49.15
358.653	30.72
358.864	67.58
359.075	22.53
359.287	114.69
359.498	28.67
359.709	-49.15
359.921	51.2
360.132	-8.19
360.344	4.1
360.555	28.67
360.766	20.48
360.977	2.05
361.189	-12.29
361.4	18.43
361.611	61.44
361.823	18.43
362.034	79.87
362.245	38.91
362.456	-10.24
362.667	51.2
362.879	-16.38
363.09	22.53
363.301	88.06
363.512	22.53
363.723	14.34
363.935	14.34
364.146	45.06
364.357	86.01
364.568	124.93
364.779	14.34
364.99	61.44
365.201	-2.05
365.412	36.86
365.623	-14.34
365.834	-20.48
366.045	24.58
366.256	79.87
366.467	69.63
366.678	-40.96
366.889	18.43
367.1	90.11
367.311	14.34
367.522	71.68
367.733	8.19
367.944	65.54
368.155	32.77
368.366	110.59
368.577	45.06
368.788	67.58
368.999	14.34
369.209	16.38
369.42	49.15
369.631	77.82
369.842	30.72
370.053	-24.58
370.264	26.62
370.474	10.24
370.685	43.01
370.896	67.58
371.107	65.54
371.317	-8.19
371.528	18.43
371.739	49.15
371.95	94.21
372.16	36.86
372.371	6.14
372.582	49.15
372.792	26.62
373.003	34.82
373.214	30.72
373.424	30.72
373.635	30.72
373.846	81.92
374.056	59.39
374.267	112.64
374.477	-6.14
374.688	14.34
374.898	120.83
375.109	26.62
375.319	-16.38
375.53	26.62
375.74	-4.1
375.951	0
376.161	38.91
376.372	104.45
376.582	63.49
376.793	57.34
377.003	-18.43
377.214	-24.58
377.424	53.25
377.635	38.91
377.845	94.21
378.055	73.73
378.266	47.1
378.476	-30.72
378.686	32.77
378.897	-10.24
379.107	120.83
379.317	73.73
379.528	6.14
379.738	38.91
379.948	-10.24
380.158	86.01
380.369	67.58
380.579	71.68
380.789	40.96
380.999	22.53
381.21	79.87
381.42	63.49
381.63	26.62
381.84	90.11
382.05	40.96
382.261	47.1
382.471	-12.29
382.681	43.01
382.891	22.53
383.101	40.96
383.311	49.15
383.521	-8.19
383.731	36.86
383.941	83.97
384.151	-12.29
384.361	32.77
384.571	10.24
384.781	59.39
384.991	49.15
385.201	28.67
385.411	116.73
385.621	40.96
385.831	20.48
386.041	90.11
386.251	67.58
386.461	59.39
386.671	51.2
386.881	75.77
387.091	32.77
387.301	47.1
387.511	0
387.72	0
387.93	55.3
388.14	-30.72
388.35	20.48
388.56	67.58
388.769	-8.19
388.979	75.77
389.189	63.49
389.399	71.68
389.609	63.49
389.818	59.39
390.028	57.34
390.238	53.25
390.447	32.77
390.657	0
390.867	65.54
391.076	2.05
391.286	6.14
391.496	-8.19
391.705	65.54
391.915	86.01
392.125	20.48
392.334	10.24
392.544	77.82
392.753	73.73
392.963	112.64
393.172	47.1
393.382	-8.19
393.591	122.88
393.801	32.77
394.01	-20.48
394.22	63.49
394.429	65.54
394.639	96.25
394.848	57.34
395.058	34.82
395.267	38.91
395.477	57.34
395.686	-4.1
395.895	32.77
396.105	88.06
396.314	6.14
396.524	63.49
396.733	71.68
396.942	71.68
397.152	-16.38
397.361	55.3
397.57	26.62
397.78	63.49
397.989	36.86
398.198	88.06
398.407	73.73
398.617	83.97
398.826	34.82
399.035	104.45
399.244	114.69
399.453	116.73
399.663	96.25
399.872	20.48
400.081	12.29
400.29	157.69
400.499	47.1
400.708	10.24
400.917	53.25
401.127	116.73
401.336	86.01
401.545	55.3
401.754	43.01
401.963	83.97
402.172	53.25
402.381	73.73
402.59	129.02
402.799	120.83
403.008	106.49
403.217	141.31
403.426	8.19
403.635	38.91
403.844	110.59
404.053	77.82
404.262	36.86
404.471	20.48
404.68	47.1
404.888	81.92
405.097	83.97
405.306	100.35
405.515	51.2
405.724	86.01
405.933	86.01
406.142	98.3
406.35	112.64
406.559	133.12
406.768	98.3
406.977	131.07
407.185	75.77
407.394	98.3
407.603	65.54
407.812	143.36
408.02	151.55
408.229	151.55
408.438	124.93
408.646	114.69
408.855	104.45
409.064	120.83
409.272	122.88
409.481	149.5
409.69	110.59
409.898	124.93
410.107	149.5
410.315	172.03
410.524	129.02
410.733	204.8
410.941	219.13
411.15	192.51
411.358	176.13
411.567	249.85
411.775	237.56
411.984	192.51
412.192	284.67
412.401	292.86
412.609	268.28
412.818	321.53
413.026	344.06
413.234	270.33
413.443	253.95
413.651	282.62
413.86	262.14
414.068	317.44
414.276	266.24
414.485	362.49
414.693	333.82
414.901	411.64
415.11	356.35
415.318	374.78
415.526	348.15
415.734	391.16
415.943	419.83
416.151	415.74
416.359	360.44
416.567	448.51
416.776	565.24
416.984	540.66
417.192	428.03
417.4	505.85
417.608	481.27
417.817	434.17
418.025	604.15
418.233	561.14
418.441	573.43
418.649	622.58
418.857	610.29
419.065	661.49
419.273	620.53
419.481	632.82
419.689	684.02
419.897	712.69
420.105	767.99
420.313	808.95
420.521	847.86
420.729	899.06
420.937	899.06
421.145	956.4
421.353	972.79
421.561	991.22
421.769	1026.03
421.977	989.17
422.185	1040.37
422.393	1132.53
422.601	1087.47
422.809	1134.57
423.017	1226.73
423.224	1249.26
423.432	1275.88
423.64	1267.69
423.848	1456.11
424.056	1333.23
424.263	1513.45
424.471	1495.02
424.679	1507.3
424.887	1531.88
425.094	1673.19
425.302	1613.8
425.51	1779.68
425.718	1765.35
425.925	1789.92
426.133	1826.79
426.341	1949.67
426.548	1888.23
426.756	1976.29
426.964	2004.96
427.171	2252.77
427.379	2213.85
427.586	2285.53
427.794	2297.82
428.001	2428.89
428.209	2537.43
428.417	2246.62
428.624	2695.13
428.832	2607.06
429.039	2580.44
429.247	2615.26
429.454	2858.96
429.662	3084.24
429.869	2965.46
430.076	3117.01
430.284	3049.43
430.491	3147.73
430.699	3260.37
430.906	3127.25
431.114	3184.59
431.321	3332.05
431.528	3551.18
431.736	3633.1
431.943	3946.44
432.15	3692.49
432.358	3885
432.565	3938.24
432.772	4069.31
432.979	4210.62
433.187	4399.04
433.394	4433.85
433.601	4550.59
433.808	4591.55
434.016	4620.22
434.223	4849.59
434.43	5193.65
434.637	5060.53
434.844	5261.23
435.052	5633.96
435.259	5386.16
435.466	5441.45
435.673	5380.01
435.88	5824.42
436.087	5994.4
436.294	6059.94
436.501	6053.8
436.708	6139.81
436.915	6287.26
437.122	6668.19
437.329	6590.36
437.537	6674.33
437.743	6985.62
437.95	6850.46
438.157	7088.02
438.364	7393.17
438.571	7446.41
438.778	7409.55
438.985	8353.66
439.192	7720.84
439.399	8003.46
439.606	7784.33
439.813	8486.78
440.02	8781.69
440.227	8667
440.433	8470.4
440.64	8951.67
440.847	8728.44
441.054	9070.45
441.261	9713.52
441.467	9586.54
441.674	9777
441.881	10114.92
442.088	9777
442.294	10045.29
442.501	10069.86
442.708	10458.98
442.914	10966.87
443.121	11134.81
443.328	10919.77
443.534	11935.56
443.741	11546.45
443.948	11169.62
444.154	12279.62
444.361	11896.65
444.568	12144.45
444.774	12103.5
444.981	12482.37
445.187	12648.26
445.394	13346.61
445.6	13209.4
445.807	14401.32
446.013	13575.98
446.22	14032.68
446.426	14477.09
446.633	14765.85
446.839	15058.71
447.046	14595.87
447.252	15363.86
447.459	15425.3
447.665	15275.8
447.871	15920.91
448.078	16826.11
448.284	15900.43
448.491	16328.45
448.697	17084.16
448.903	17166.07
449.11	17297.14
449.316	17135.35
449.522	17493.75
449.728	17907.44
449.935	17796.85
450.141	18102
450.347	18448.1
450.553	17901.29
450.76	17985.26
450.966	18700
451.172	18734.82
451.378	19132.12
451.584	18591.46
451.791	19154.65
451.997	19009.25
452.203	19279.58
452.409	19128.03
452.615	19433.18
452.821	18360.04
453.027	18310.89
453.233	19482.33
453.44	18650.85
453.646	18550.5
453.852	18706.15
454.058	19259.1
454.264	18489.06
454.47	18894.56
454.676	18390.76
454.882	19091.16
455.088	17428.21
455.294	17737.46
455.5	18050.8
455.705	18171.63
455.911	17702.64
456.117	17161.98
456.323	16998.14
456.529	16021.26
456.735	16899.84
456.941	16426.76
457.147	16064.27
457.352	15523.6
457.558	15298.33
457.764	15468.31
457.97	15101.72
458.176	14800.67
458.381	14819.1
458.587	13805.36
458.793	14260.01
458.999	13317.94
459.204	14233.38
459.41	14004.01
459.616	13100.86
459.821	12986.17
460.027	13053.75
460.233	12767.04
460.438	12097.35
460.644	12085.06
460.85	11509.58
461.055	11444.05
461.261	11501.39
461.466	10749.79
461.672	10395.49
461.878	11085.65
462.083	10274.66
462.289	9985.9
462.494	10014.57
462.7	9617.26
462.905	9236.34
463.111	9760.62
463.316	9647.98
463.522	9625.45
463.727	9434.99
463.932	9514.86
464.138	9521.01
464.343	9465.71
464.549	9017.21
464.754	9488.24
464.959	9396.08
465.165	9394.03
465.37	8896.38
465.575	8963.96
465.781	9095.03
465.986	9222
466.191	8839.03
466.397	8552.32
466.602	8066.95
466.807	8556.41
467.012	8716.15
467.218	8449.92
467.423	8384.38
467.628	8396.67
467.833	8726.39
468.038	8664.96
468.244	8044.42
468.449	8566.65
468.654	8351.62
468.859	8189.83
469.064	8001.41
469.269	7788.43
469.474	8009.61
469.679	8163.2
469.885	7931.78
