Data from USB4F104151__63__12-54-09-802.txt Node

Date: Fri Mar 14 12:54:09 EDT 2025
User: louis
Spectrometer: USB4F10415
Trigger mode: 4
Integration Time (sec): 1.000000E-2
Scans to average: 1
Electric dark correction enabled: true
Nonlinearity correction enabled: false
Boxcar width: 0
XAxis mode: Wavelengths
Number of Pixels in Spectrum: 3648
>>>>>Begin Spectral Data<<<<<
178.204	-20.48
178.424	-20.48
178.644	-20.48
178.864	6.14
179.084	40.96
179.304	36.86
179.524	18.43
179.744	8.19
179.964	-8.19
180.184	-45.06
180.404	-14.34
180.624	-2.05
180.844	28.67
181.064	-14.34
181.283	4.1
181.503	12.29
181.723	-24.58
181.943	-51.2
182.163	28.67
182.383	-26.62
182.602	-36.86
182.822	2.05
183.042	24.58
183.262	61.44
183.482	79.87
183.701	8.19
183.921	-8.19
184.141	53.25
184.361	45.06
184.58	2.05
184.8	-24.58
185.02	30.72
185.239	-8.19
185.459	-32.77
185.679	34.82
185.898	-12.29
186.118	-36.86
186.338	6.14
186.557	98.3
186.777	-8.19
186.997	8.19
187.216	10.24
187.436	26.62
187.655	-69.63
187.875	63.49
188.095	-8.19
188.314	28.67
188.534	77.82
188.753	6.14
188.973	-12.29
189.192	77.82
189.412	32.77
189.631	-10.24
189.851	59.39
190.07	73.73
190.29	0
190.509	40.96
190.729	-14.34
190.948	88.06
191.168	36.86
191.387	0
191.607	-12.29
191.826	-32.77
192.045	-26.62
192.265	30.72
192.484	65.54
192.704	36.86
192.923	-10.24
193.142	61.44
193.362	32.77
193.581	40.96
193.8	24.58
194.02	51.2
194.239	-18.43
194.458	-14.34
194.678	-12.29
194.897	45.06
195.116	49.15
195.335	16.38
195.555	32.77
195.774	59.39
195.993	34.82
196.212	-40.96
196.432	-47.1
196.651	28.67
196.87	-12.29
197.089	83.97
197.308	30.72
197.528	26.62
197.747	24.58
197.966	40.96
198.185	6.14
198.404	28.67
198.623	40.96
198.842	18.43
199.062	36.86
199.281	32.77
199.5	30.72
199.719	53.25
199.938	-16.38
200.157	24.58
200.376	-24.58
200.595	2.05
200.814	-22.53
201.033	-28.67
201.252	32.77
201.471	34.82
201.69	57.34
201.909	55.3
202.128	4.1
202.347	-12.29
202.566	20.48
202.785	43.01
203.004	20.48
203.223	28.67
203.442	22.53
203.661	47.1
203.879	36.86
204.098	-47.1
204.317	12.29
204.536	67.58
204.755	63.49
204.974	-2.05
205.193	-28.67
205.411	51.2
205.63	94.21
205.849	51.2
206.068	20.48
206.287	22.53
206.505	0
206.724	69.63
206.943	-34.82
207.162	2.05
207.381	-16.38
207.599	-30.72
207.818	8.19
208.037	30.72
208.255	38.91
208.474	-49.15
208.693	73.73
208.911	55.3
209.13	-20.48
209.349	63.49
209.567	67.58
209.786	86.01
210.005	-18.43
210.223	32.77
210.442	-8.19
210.661	-30.72
210.879	26.62
211.098	73.73
211.316	-51.2
211.535	53.25
211.753	59.39
211.972	26.62
212.191	10.24
212.409	71.68
212.628	-24.58
212.846	-32.77
213.065	43.01
213.283	77.82
213.502	-8.19
213.72	55.3
213.938	20.48
214.157	47.1
214.375	-32.77
214.594	-38.91
214.812	-32.77
215.031	92.16
215.249	100.35
215.467	96.25
215.686	0
215.904	32.77
216.122	-36.86
216.341	47.1
216.559	55.3
216.778	65.54
216.996	16.38
217.214	61.44
217.432	-4.1
217.651	-34.82
217.869	-6.14
218.087	86.01
218.306	-4.1
218.524	83.97
218.742	-36.86
218.96	57.34
219.179	-14.34
219.397	73.73
219.615	61.44
219.833	-57.34
220.051	8.19
220.27	-4.1
220.488	22.53
220.706	81.92
220.924	24.58
221.142	0
221.36	-32.77
221.578	67.58
221.796	34.82
222.015	22.53
222.233	-55.3
222.451	22.53
222.669	0
222.887	86.01
223.105	-8.19
223.323	-2.05
223.541	16.38
223.759	28.67
223.977	51.2
224.195	63.49
224.413	-36.86
224.631	26.62
224.849	16.38
225.067	34.82
225.285	75.77
225.503	61.44
225.721	34.82
225.939	65.54
226.157	45.06
226.375	40.96
226.592	-4.1
226.81	59.39
227.028	-22.53
227.246	12.29
227.464	47.1
227.682	10.24
227.9	73.73
228.117	24.58
228.335	55.3
228.553	10.24
228.771	-14.34
228.989	0
229.206	18.43
229.424	0
229.642	16.38
229.86	4.1
230.077	0
230.295	61.44
230.513	0
230.731	57.34
230.948	8.19
231.166	67.58
231.384	43.01
231.601	49.15
231.819	-26.62
232.037	-2.05
232.254	47.1
232.472	75.77
232.689	40.96
232.907	34.82
233.125	57.34
233.342	94.21
233.56	18.43
233.777	16.38
233.995	40.96
234.213	65.54
234.43	2.05
234.648	16.38
234.865	22.53
235.083	16.38
235.3	59.39
235.518	10.24
235.735	8.19
235.953	34.82
236.17	-10.24
236.388	34.82
236.605	34.82
236.822	-8.19
237.04	34.82
237.257	-8.19
237.475	32.77
237.692	45.06
237.909	32.77
238.127	28.67
238.344	34.82
238.562	59.39
238.779	36.86
238.996	-40.96
239.214	-53.25
239.431	2.05
239.648	36.86
239.865	16.38
240.083	120.83
240.3	26.62
240.517	8.19
240.735	30.72
240.952	57.34
241.169	-16.38
241.386	45.06
241.603	-16.38
241.821	106.49
242.038	88.06
242.255	36.86
242.472	57.34
242.689	57.34
242.907	-28.67
243.124	38.91
243.341	86.01
243.558	4.1
243.775	0
243.992	-34.82
244.209	43.01
244.426	45.06
244.643	2.05
244.86	57.34
245.078	-45.06
245.295	-8.19
245.512	26.62
245.729	45.06
245.946	83.97
246.163	49.15
246.38	8.19
246.597	-24.58
246.814	-10.24
247.031	14.34
247.248	43.01
247.464	12.29
247.681	28.67
247.898	43.01
248.115	26.62
248.332	-18.43
248.549	69.63
248.766	28.67
248.983	47.1
249.2	14.34
249.417	61.44
249.633	34.82
249.85	24.58
250.067	67.58
250.284	-8.19
250.501	2.05
250.717	36.86
250.934	-6.14
251.151	43.01
251.368	-4.1
251.585	6.14
251.801	16.38
252.018	22.53
252.235	40.96
252.451	20.48
252.668	36.86
252.885	71.68
253.102	36.86
253.318	-36.86
253.535	40.96
253.752	10.24
253.968	-8.19
254.185	4.1
254.401	38.91
254.618	36.86
254.835	-16.38
255.051	43.01
255.268	-2.05
255.484	43.01
255.701	-20.48
255.917	8.19
256.134	8.19
256.351	92.16
256.567	-30.72
256.784	51.2
257	-36.86
257.217	14.34
257.433	26.62
257.65	51.2
257.866	10.24
258.082	-6.14
258.299	63.49
258.515	55.3
258.732	22.53
258.948	-6.14
259.165	71.68
259.381	26.62
259.597	34.82
259.814	4.1
260.03	-6.14
260.246	-4.1
260.463	47.1
260.679	77.82
260.895	-53.25
261.112	26.62
261.328	34.82
261.544	55.3
261.761	32.77
261.977	-26.62
262.193	-2.05
262.409	8.19
262.626	55.3
262.842	-24.58
263.058	0
263.274	118.78
263.49	100.35
263.707	34.82
263.923	-38.91
264.139	100.35
264.355	2.05
264.571	61.44
264.787	90.11
265.004	51.2
265.22	22.53
265.436	10.24
265.652	4.1
265.868	73.73
266.084	-6.14
266.3	98.3
266.516	-81.92
266.732	0
266.948	28.67
267.164	67.58
267.38	-47.1
267.596	49.15
267.812	-4.1
268.028	71.68
268.244	24.58
268.46	22.53
268.676	-43.01
268.892	73.73
269.108	51.2
269.324	12.29
269.54	-14.34
269.756	90.11
269.972	49.15
270.188	-36.86
270.403	-2.05
270.619	65.54
270.835	4.1
271.051	0
271.267	2.05
271.483	16.38
271.698	26.62
271.914	24.58
272.13	40.96
272.346	43.01
272.562	26.62
272.777	24.58
272.993	-18.43
273.209	57.34
273.425	34.82
273.64	63.49
273.856	71.68
274.072	-20.48
274.287	53.25
274.503	20.48
274.719	49.15
274.934	-28.67
275.15	-59.39
275.366	53.25
275.581	40.96
275.797	-30.72
276.012	4.1
276.228	2.05
276.444	-61.44
276.659	28.67
276.875	22.53
277.09	45.06
277.306	81.92
277.521	14.34
277.737	-55.3
277.952	96.25
278.168	83.97
278.383	106.49
278.599	79.87
278.814	63.49
279.03	-16.38
279.245	61.44
279.461	90.11
279.676	75.77
279.892	-14.34
280.107	92.16
280.322	20.48
280.538	-43.01
280.753	40.96
280.969	90.11
281.184	57.34
281.399	24.58
281.615	40.96
281.83	34.82
282.045	12.29
282.26	-32.77
282.476	-6.14
282.691	-4.1
282.906	51.2
283.122	98.3
283.337	-51.2
283.552	59.39
283.767	8.19
283.983	49.15
284.198	34.82
284.413	77.82
284.628	55.3
284.843	20.48
285.058	79.87
285.274	2.05
285.489	0
285.704	71.68
285.919	10.24
286.134	34.82
286.349	-65.54
286.564	71.68
286.779	2.05
286.995	34.82
287.21	16.38
287.425	43.01
287.64	14.34
287.855	-30.72
288.07	-36.86
288.285	-20.48
288.5	-8.19
288.715	65.54
288.93	18.43
289.145	59.39
289.36	102.4
289.575	77.82
289.79	86.01
290.004	-16.38
290.219	47.1
290.434	2.05
290.649	2.05
290.864	2.05
291.079	83.97
291.294	-34.82
291.509	45.06
291.724	40.96
291.938	110.59
292.153	34.82
292.368	65.54
292.583	16.38
292.798	-18.43
293.012	59.39
293.227	51.2
293.442	28.67
293.657	24.58
293.871	83.97
294.086	-16.38
294.301	75.77
294.516	83.97
294.73	32.77
294.945	8.19
295.16	-30.72
295.374	22.53
295.589	94.21
295.804	79.87
296.018	0
296.233	57.34
296.447	-20.48
296.662	14.34
296.877	53.25
297.091	47.1
297.306	-4.1
297.52	6.14
297.735	38.91
297.949	51.2
298.164	51.2
298.378	2.05
298.593	77.82
298.807	10.24
299.022	40.96
299.236	73.73
299.451	43.01
299.665	12.29
299.88	59.39
300.094	24.58
300.309	65.54
300.523	-45.06
300.737	18.43
300.952	59.39
301.166	55.3
301.381	-8.19
301.595	88.06
301.809	12.29
302.024	73.73
302.238	-24.58
302.452	16.38
302.667	20.48
302.881	0
303.095	24.58
303.309	63.49
303.524	-6.14
303.738	108.54
303.952	67.58
304.166	18.43
304.381	-2.05
304.595	51.2
304.809	57.34
305.023	40.96
305.237	26.62
305.452	36.86
305.666	30.72
305.88	77.82
306.094	16.38
306.308	20.48
306.522	71.68
306.736	83.97
306.95	-2.05
307.164	24.58
307.379	26.62
307.593	77.82
307.807	-57.34
308.021	22.53
308.235	10.24
308.449	49.15
308.663	34.82
308.877	24.58
309.091	59.39
309.305	24.58
309.519	55.3
309.733	18.43
309.947	26.62
310.161	69.63
310.374	81.92
310.588	10.24
310.802	-6.14
311.016	4.1
311.23	-18.43
311.444	6.14
311.658	81.92
311.872	-30.72
312.085	65.54
312.299	36.86
312.513	34.82
312.727	30.72
312.941	34.82
313.154	24.58
313.368	40.96
313.582	71.68
313.796	65.54
314.009	49.15
314.223	-2.05
314.437	75.77
314.651	47.1
314.864	34.82
315.078	4.1
315.292	16.38
315.505	12.29
315.719	47.1
315.933	26.62
316.146	98.3
316.36	26.62
316.573	2.05
316.787	6.14
317.001	106.49
317.214	26.62
317.428	-10.24
317.641	18.43
317.855	8.19
318.068	12.29
318.282	22.53
318.495	86.01
318.709	92.16
318.922	32.77
319.136	-16.38
319.349	49.15
319.563	86.01
319.776	14.34
319.99	34.82
320.203	47.1
320.417	57.34
320.63	16.38
320.843	51.2
321.057	-16.38
321.27	43.01
321.483	104.45
321.697	-14.34
321.91	-30.72
322.124	34.82
322.337	-24.58
322.55	-18.43
322.763	65.54
322.977	47.1
323.19	-28.67
323.403	18.43
323.617	51.2
323.83	92.16
324.043	-22.53
324.256	30.72
324.469	-4.1
324.683	131.07
324.896	14.34
325.109	16.38
325.322	-20.48
325.535	-12.29
325.748	-14.34
325.962	59.39
326.175	12.29
326.388	45.06
326.601	53.25
326.814	110.59
327.027	90.11
327.24	81.92
327.453	24.58
327.666	-28.67
327.879	8.19
328.092	4.1
328.305	73.73
328.518	-20.48
328.731	-8.19
328.944	79.87
329.157	-30.72
329.37	2.05
329.583	65.54
329.796	8.19
330.009	49.15
330.222	79.87
330.435	32.77
330.648	8.19
330.861	10.24
331.073	57.34
331.286	81.92
331.499	-30.72
331.712	8.19
331.925	-34.82
332.138	63.49
332.35	83.97
332.563	45.06
332.776	0
332.989	20.48
333.202	-6.14
333.414	-24.58
333.627	0
333.84	16.38
334.053	104.45
334.265	22.53
334.478	-8.19
334.691	-14.34
334.903	69.63
335.116	61.44
335.329	51.2
335.541	94.21
335.754	22.53
335.966	-14.34
336.179	4.1
336.392	-26.62
336.604	2.05
336.817	40.96
337.029	4.1
337.242	55.3
337.454	20.48
337.667	51.2
337.88	0
338.092	16.38
338.305	112.64
338.517	16.38
338.729	43.01
338.942	12.29
339.154	69.63
339.367	28.67
339.579	77.82
339.792	36.86
340.004	92.16
340.217	32.77
340.429	75.77
340.641	-10.24
340.854	51.2
341.066	57.34
341.278	32.77
341.491	77.82
341.703	-43.01
341.915	24.58
342.128	69.63
342.34	71.68
342.552	24.58
342.764	51.2
342.977	34.82
343.189	59.39
343.401	2.05
343.613	51.2
343.826	18.43
344.038	32.77
344.25	71.68
344.462	34.82
344.674	71.68
344.886	-24.58
345.099	34.82
345.311	77.82
345.523	47.1
345.735	59.39
345.947	69.63
346.159	10.24
346.371	20.48
346.583	59.39
346.795	61.44
347.007	16.38
347.219	94.21
347.431	24.58
347.643	2.05
347.855	22.53
348.067	-8.19
348.279	-32.77
348.491	65.54
348.703	-18.43
348.915	47.1
349.127	28.67
349.339	-18.43
349.551	36.86
349.763	8.19
349.975	94.21
350.187	0
350.399	18.43
350.61	-4.1
350.822	20.48
351.034	-12.29
351.246	-14.34
351.458	139.26
351.669	63.49
351.881	69.63
352.093	63.49
352.305	14.34
352.517	-40.96
352.728	86.01
352.94	45.06
353.152	79.87
353.363	32.77
353.575	16.38
353.787	-81.92
353.999	104.45
354.21	104.45
354.422	45.06
354.633	49.15
354.845	-32.77
355.057	-8.19
355.268	51.2
355.48	24.58
355.692	51.2
355.903	61.44
356.115	20.48
356.326	-14.34
356.538	83.97
356.749	36.86
356.961	-2.05
357.172	-10.24
357.384	16.38
357.595	8.19
357.807	122.88
358.018	-12.29
358.23	-18.43
358.441	-6.14
358.653	102.4
358.864	-43.01
359.075	63.49
359.287	34.82
359.498	110.59
359.709	108.54
359.921	63.49
360.132	49.15
360.344	43.01
360.555	59.39
360.766	67.58
360.977	32.77
361.189	34.82
361.4	32.77
361.611	30.72
361.823	-4.1
362.034	-4.1
362.245	71.68
362.456	55.3
362.667	86.01
362.879	32.77
363.09	83.97
363.301	67.58
363.512	77.82
363.723	51.2
363.935	106.49
364.146	100.35
364.357	28.67
364.568	28.67
364.779	36.86
364.99	40.96
365.201	65.54
365.412	-16.38
365.623	6.14
365.834	73.73
366.045	81.92
366.256	118.78
366.467	98.3
366.678	53.25
366.889	55.3
367.1	81.92
367.311	55.3
367.522	4.1
367.733	28.67
367.944	59.39
368.155	38.91
368.366	10.24
368.577	-14.34
368.788	-4.1
368.999	40.96
369.209	51.2
369.42	65.54
369.631	69.63
369.842	51.2
370.053	28.67
370.264	14.34
370.474	69.63
370.685	36.86
370.896	32.77
371.107	14.34
371.317	12.29
371.528	86.01
371.739	55.3
371.95	38.91
372.16	20.48
372.371	55.3
372.582	81.92
372.792	38.91
373.003	67.58
373.214	-16.38
373.424	40.96
373.635	-6.14
373.846	38.91
374.056	83.97
374.267	10.24
374.477	6.14
374.688	32.77
374.898	28.67
375.109	-12.29
375.319	53.25
375.53	32.77
375.74	69.63
375.951	18.43
376.161	28.67
376.372	20.48
376.582	120.83
376.793	77.82
377.003	34.82
377.214	63.49
377.424	-4.1
377.635	20.48
377.845	59.39
378.055	-6.14
378.266	16.38
378.476	73.73
378.686	14.34
378.897	124.93
379.107	16.38
379.317	61.44
379.528	71.68
379.738	55.3
379.948	-51.2
380.158	45.06
380.369	-10.24
380.579	90.11
380.789	122.88
380.999	16.38
381.21	88.06
381.42	71.68
381.63	-34.82
381.84	90.11
382.05	0
382.261	131.07
382.471	18.43
382.681	43.01
382.891	100.35
383.101	108.54
383.311	34.82
383.521	53.25
383.731	49.15
383.941	106.49
384.151	98.3
384.361	59.39
384.571	67.58
384.781	75.77
384.991	71.68
385.201	106.49
385.411	47.1
385.621	16.38
385.831	73.73
386.041	81.92
386.251	47.1
386.461	79.87
386.671	108.54
386.881	43.01
387.091	32.77
387.301	38.91
387.511	81.92
387.72	30.72
387.93	45.06
388.14	24.58
388.35	-4.1
388.56	69.63
388.769	40.96
388.979	77.82
389.189	79.87
389.399	28.67
389.609	88.06
389.818	12.29
390.028	122.88
390.238	47.1
390.447	4.1
390.657	53.25
390.867	32.77
391.076	-8.19
391.286	108.54
391.496	110.59
391.705	30.72
391.915	88.06
392.125	98.3
392.334	106.49
392.544	69.63
392.753	30.72
392.963	88.06
393.172	20.48
393.382	79.87
393.591	106.49
393.801	-4.1
394.01	139.26
394.22	153.6
394.429	28.67
394.639	51.2
394.848	63.49
395.058	151.55
395.267	34.82
395.477	38.91
395.686	88.06
395.895	90.11
396.105	102.4
396.314	94.21
396.524	124.93
396.733	47.1
396.942	114.69
397.152	77.82
397.361	20.48
397.57	108.54
397.78	49.15
397.989	83.97
398.198	141.31
398.407	120.83
398.617	92.16
398.826	34.82
399.035	-6.14
399.244	-24.58
399.453	108.54
399.663	65.54
399.872	59.39
400.081	47.1
400.29	129.02
400.499	-16.38
400.708	112.64
400.917	57.34
401.127	61.44
401.336	104.45
401.545	106.49
401.754	55.3
401.963	16.38
402.172	141.31
402.381	65.54
402.59	67.58
402.799	69.63
403.008	18.43
403.217	86.01
403.426	96.25
403.635	79.87
403.844	57.34
404.053	145.41
404.262	57.34
404.471	92.16
404.68	167.93
404.888	86.01
405.097	65.54
405.306	106.49
405.515	143.36
405.724	94.21
405.933	98.3
406.142	65.54
406.35	196.61
406.559	73.73
406.768	151.55
406.977	114.69
407.185	137.21
407.394	163.84
407.603	57.34
407.812	112.64
408.02	172.03
408.229	204.8
408.438	202.75
408.646	180.22
408.855	131.07
409.064	169.98
409.272	106.49
409.481	223.23
409.69	221.18
409.898	169.98
410.107	190.46
410.315	251.9
410.524	159.74
410.733	227.32
410.941	188.41
411.15	266.24
411.358	215.04
411.567	174.08
411.775	282.62
411.984	284.67
412.192	299
412.401	270.33
412.609	270.33
412.818	337.91
413.026	262.14
413.234	348.15
413.443	307.2
413.651	292.86
413.86	286.72
414.068	327.67
414.276	358.39
414.485	360.44
414.693	280.57
414.901	401.4
415.11	376.83
415.318	499.7
415.526	587.77
415.734	458.74
415.943	442.36
416.151	514.04
416.359	532.47
416.567	442.36
416.776	509.94
416.984	624.63
417.192	645.11
417.4	585.72
417.608	559.1
417.817	608.25
418.025	651.25
418.233	774.13
418.441	759.8
418.649	774.13
418.857	794.61
419.065	794.61
419.273	808.95
419.481	835.57
419.689	870.39
419.897	931.83
420.105	948.21
420.313	950.26
420.521	1038.32
420.729	948.21
420.937	1089.52
421.145	1062.9
421.353	1056.75
421.561	1224.69
421.769	1216.49
421.977	1189.87
422.185	1269.74
422.393	1316.84
422.601	1427.43
422.809	1318.89
423.017	1427.43
423.224	1488.87
423.432	1439.72
423.64	1501.16
423.848	1652.71
424.056	1609.7
424.263	1636.33
424.471	1730.53
424.679	1687.53
424.887	1863.65
425.094	1855.46
425.302	2023.39
425.51	2056.16
425.718	2076.64
425.925	2068.45
426.133	2267.1
426.341	2289.63
426.548	2475.99
426.756	2310.11
426.964	2443.23
427.171	2658.26
427.379	2580.44
427.586	2553.82
427.794	2758.61
428.001	2924.5
428.209	2967.51
428.417	2928.6
428.624	3067.86
428.832	3180.5
429.039	3198.93
429.247	3102.67
429.454	3485.64
429.662	3598.28
429.869	3536.84
430.076	3755.97
430.284	3532.75
430.491	3684.3
430.699	3983.3
430.906	4003.78
431.114	4022.21
431.321	4321.21
431.528	4290.49
431.736	4614.07
431.943	4628.41
432.15	4571.07
432.358	4769.72
432.565	4802.49
432.772	4874.17
432.979	5257.14
433.187	5193.65
433.394	5113.78
433.601	5660.59
433.808	5611.43
434.016	5676.97
434.223	5828.52
434.43	6354.85
434.637	6266.78
434.844	6635.42
435.052	6596.51
435.259	6717.34
435.466	6633.37
435.673	6662.04
435.88	7196.56
436.087	7358.35
436.294	7225.23
436.501	7122.84
436.708	7387.02
436.915	7786.38
437.122	8019.85
437.329	7956.36
437.537	8120.2
437.743	8341.38
437.95	8355.71
438.157	8726.39
438.364	8920.95
438.571	9138.04
438.778	9107.32
438.985	9789.29
439.192	9627.5
439.399	9658.22
439.606	9654.12
439.813	10180.45
440.02	10702.68
440.227	10471.26
440.433	10428.26
440.64	10528.61
440.847	10757.98
441.054	10925.91
441.261	11595.6
441.467	11452.24
441.674	11892.55
441.881	12261.19
442.088	12136.26
442.294	11986.76
442.501	12480.32
442.708	12556.1
442.914	12984.12
443.121	13561.65
443.328	13395.76
443.534	14262.05
443.741	13801.26
443.948	13526.83
444.154	14733.09
444.361	14679.84
444.568	14675.74
444.774	14708.51
444.981	14737.18
445.187	15234.84
445.394	15820.56
445.6	15687.44
445.807	17245.94
446.013	16580.35
446.22	16973.56
446.426	17448.69
446.633	17782.51
446.839	18292.46
447.046	17366.77
447.252	18454.25
447.459	18564.84
447.665	18423.53
447.871	19334.87
448.078	20326.09
448.284	19009.25
448.491	19486.42
448.697	20348.62
448.903	20860.61
449.11	21100.22
449.316	20606.66
449.522	20915.9
449.728	21616.31
449.935	21630.65
450.141	21741.24
450.347	22412.97
450.553	21382.84
450.76	22066.86
450.966	22697.64
451.172	22449.83
451.378	22697.64
451.584	22556.33
451.791	22945.44
451.997	22863.52
452.203	23303.84
452.409	23430.81
452.615	23105.18
452.821	22455.98
453.027	22300.33
453.233	23086.75
453.44	22591.14
453.646	22730.41
453.852	22847.14
454.058	23203.49
454.264	22513.32
454.47	23074.46
454.676	22406.83
454.882	23314.08
455.088	21266.11
455.294	21630.65
455.5	21825.2
455.705	22111.92
455.911	21231.29
456.117	20876.99
456.323	20567.75
456.529	19445.46
456.735	20440.78
456.941	19973.84
457.147	19314.39
457.352	19189.47
457.558	19048.16
457.764	18968.29
457.97	18390.76
458.176	18022.12
458.381	17997.55
458.587	17221.37
458.793	16983.8
458.999	16256.78
459.204	17426.17
459.41	17028.86
459.616	15771.41
459.821	15935.24
460.027	15808.27
460.233	15589.14
460.438	14765.85
460.644	14880.54
460.85	14298.92
461.055	13993.77
461.261	14171.94
461.466	12894.01
461.672	12828.48
461.878	13451.06
462.083	12846.91
462.289	12375.88
462.494	12171.08
462.7	11837.26
462.905	11579.22
463.111	11894.6
463.316	11990.86
463.522	11833.16
463.727	11898.7
463.932	11796.3
464.138	11528.02
464.343	11542.35
464.549	11267.92
464.754	11738.96
464.959	11585.36
465.165	11409.23
465.37	11106.13
465.575	10741.6
465.781	11241.3
465.986	11298.64
466.191	10762.08
466.397	10741.6
466.602	9996.14
466.807	10553.18
467.012	10676.06
467.218	10448.74
467.423	10303.33
467.628	10258.28
467.833	10930.01
468.038	10551.13
468.244	10286.95
468.449	10667.87
468.654	10186.6
468.859	10162.02
469.064	9924.46
469.269	9690.99
469.474	9930.6
469.679	9965.42
