Data from USB4F104151__101__12-55-00-047.txt Node

Date: Fri Mar 14 12:55:00 EDT 2025
User: louis
Spectrometer: USB4F10415
Trigger mode: 4
Integration Time (sec): 1.000000E-2
Scans to average: 1
Electric dark correction enabled: true
Nonlinearity correction enabled: false
Boxcar width: 0
XAxis mode: Wavelengths
Number of Pixels in Spectrum: 3648
>>>>>Begin Spectral Data<<<<<
178.204	-16.9
178.424	-16.9
178.644	-16.9
178.864	-90.62
179.084	-107.01
179.304	13.82
179.524	30.21
179.744	-23.04
179.964	-35.33
180.184	-14.85
180.404	81.41
180.624	-37.38
180.844	5.63
181.064	-25.09
181.283	1.54
181.503	-45.57
181.723	48.64
181.943	-59.9
182.163	-2.56
182.383	-35.33
182.602	-43.52
182.822	-4.61
183.042	75.26
183.262	-117.25
183.482	1.54
183.701	-47.62
183.921	28.16
184.141	-8.7
184.361	-53.76
184.58	-16.9
184.8	-6.66
185.02	32.26
185.239	46.59
185.459	-29.18
185.679	-25.09
185.898	19.97
186.118	-25.09
186.338	-6.66
186.557	15.87
186.777	-57.86
186.997	-14.85
187.216	-94.72
187.436	-25.09
187.655	-12.8
187.875	11.78
188.095	-14.85
188.314	-6.66
188.534	-35.33
188.753	-66.05
188.973	-45.57
189.192	3.58
189.412	-51.71
189.631	-14.85
189.851	-8.7
190.07	-47.62
190.29	5.63
190.509	54.78
190.729	9.73
190.948	-41.47
191.168	-25.09
191.387	-25.09
191.607	-59.9
191.826	112.13
192.045	-10.75
192.265	-31.23
192.484	-27.14
192.704	26.11
192.923	-88.57
193.142	60.93
193.362	46.59
193.581	1.54
193.8	19.97
194.02	24.06
194.239	56.83
194.458	-12.8
194.678	3.58
194.897	-25.09
195.116	30.21
195.335	-57.86
195.555	-23.04
195.774	60.93
195.993	22.02
196.212	-4.61
196.432	-39.42
196.651	7.68
196.87	-47.62
197.089	30.21
197.308	9.73
197.528	-74.24
197.747	-33.28
197.966	30.21
198.185	-18.94
198.404	-12.8
198.623	-37.38
198.842	7.68
199.062	-82.43
199.281	30.21
199.5	-35.33
199.719	32.26
199.938	-49.66
200.157	28.16
200.376	-2.56
200.595	19.97
200.814	-6.66
201.033	30.21
201.252	-55.81
201.471	32.26
201.69	3.58
201.909	38.4
202.128	-90.62
202.347	-68.09
202.566	-35.33
202.785	38.4
203.004	-27.14
203.223	22.02
203.442	-27.14
203.661	-8.7
203.879	-76.29
204.098	24.06
204.317	-64
204.536	34.3
204.755	46.59
204.974	91.65
205.193	-12.8
205.411	-4.61
205.63	89.6
205.849	38.4
206.068	32.26
206.287	-43.52
206.505	-94.72
206.724	-27.14
206.943	1.54
207.162	-59.9
207.381	9.73
207.599	3.58
207.818	-12.8
208.037	42.5
208.255	9.73
208.474	40.45
208.693	24.06
208.911	67.07
209.13	15.87
209.349	-18.94
209.567	-16.9
209.786	-41.47
210.005	-2.56
210.223	24.06
210.442	-14.85
210.661	-18.94
210.879	-39.42
211.098	-2.56
211.316	42.5
211.535	73.21
211.753	-53.76
211.972	-39.42
212.191	-33.28
212.409	-80.38
212.628	-8.7
212.846	-41.47
213.065	-6.66
213.283	19.97
213.502	3.58
213.72	-27.14
213.938	-31.23
214.157	9.73
214.375	-55.81
214.594	-59.9
214.812	-74.24
215.031	7.68
215.249	-8.7
215.467	-16.9
215.686	-18.94
215.904	62.98
216.122	-4.61
216.341	30.21
216.559	11.78
216.778	30.21
216.996	-45.57
217.214	-10.75
217.432	-4.61
217.651	19.97
217.869	-41.47
218.087	-8.7
218.306	-18.94
218.524	54.78
218.742	-59.9
218.96	-92.67
219.179	-74.24
219.397	1.54
219.615	30.21
219.833	71.17
220.051	54.78
220.27	38.4
220.488	-25.09
220.706	1.54
220.924	56.83
221.142	15.87
221.36	-37.38
221.578	-45.57
221.796	46.59
222.015	24.06
222.233	19.97
222.451	52.74
222.669	-29.18
222.887	44.54
223.105	-12.8
223.323	69.12
223.541	-25.09
223.759	24.06
223.977	-12.8
224.195	17.92
224.413	-49.66
224.631	28.16
224.849	-0.51
225.067	32.26
225.285	-43.52
225.503	-41.47
225.721	-16.9
225.939	-25.09
226.157	5.63
226.375	24.06
226.592	-35.33
226.81	-41.47
227.028	-16.9
227.246	-39.42
227.464	-55.81
227.682	-2.56
227.9	30.21
228.117	54.78
228.335	24.06
228.553	-10.75
228.771	-25.09
228.989	7.68
229.206	1.54
229.424	-10.75
229.642	44.54
229.86	11.78
230.077	-23.04
230.295	11.78
230.513	15.87
230.731	-10.75
230.948	26.11
231.166	56.83
231.384	-64
231.601	-57.86
231.819	-29.18
232.037	79.36
232.254	-27.14
232.472	-4.61
232.689	3.58
232.907	22.02
233.125	-10.75
233.342	24.06
233.56	75.26
233.777	-10.75
233.995	40.45
234.213	5.63
234.43	46.59
234.648	-41.47
234.865	-23.04
235.083	-18.94
235.3	-45.57
235.518	-100.86
235.735	40.45
235.953	15.87
236.17	24.06
236.388	-27.14
236.605	67.07
236.822	-27.14
237.04	-43.52
237.257	13.82
237.475	-57.86
237.692	-27.14
237.909	-51.71
238.127	32.26
238.344	-47.62
238.562	-2.56
238.779	-41.47
238.996	1.54
239.214	13.82
239.431	-74.24
239.648	-49.66
239.865	30.21
240.083	3.58
240.3	17.92
240.517	19.97
240.735	9.73
240.952	-20.99
241.169	-43.52
241.386	-10.75
241.603	34.3
241.821	-31.23
242.038	40.45
242.255	-16.9
242.472	-49.66
242.689	-18.94
242.907	-12.8
243.124	15.87
243.341	24.06
243.558	-41.47
243.775	-10.75
243.992	-57.86
244.209	1.54
244.426	-2.56
244.643	-37.38
244.86	-31.23
245.078	5.63
245.295	7.68
245.512	-8.7
245.729	-23.04
245.946	5.63
246.163	-20.99
246.38	46.59
246.597	-16.9
246.814	-49.66
247.031	-29.18
247.248	13.82
247.464	81.41
247.681	65.02
247.898	11.78
248.115	-59.9
248.332	9.73
248.549	-41.47
248.766	9.73
248.983	-53.76
249.2	69.12
249.417	-80.38
249.633	3.58
249.85	22.02
250.067	-20.99
250.284	9.73
250.501	30.21
250.717	40.45
250.934	-27.14
251.151	-49.66
251.368	54.78
251.585	38.4
251.801	5.63
252.018	-31.23
252.235	9.73
252.451	48.64
252.668	32.26
252.885	5.63
253.102	5.63
253.318	11.78
253.535	5.63
253.752	-25.09
253.968	-31.23
254.185	46.59
254.401	-6.66
254.618	-8.7
254.835	22.02
255.051	95.74
255.268	-25.09
255.484	9.73
255.701	-33.28
255.917	-31.23
256.134	15.87
256.351	-66.05
256.567	-35.33
256.784	32.26
257	-61.95
257.217	26.11
257.433	38.4
257.65	9.73
257.866	-29.18
258.082	-39.42
258.299	-29.18
258.515	19.97
258.732	-57.86
258.948	-16.9
259.165	-64
259.381	-98.81
259.597	30.21
259.814	11.78
260.03	-37.38
260.246	-35.33
260.463	28.16
260.679	-10.75
260.895	-8.7
261.112	-2.56
261.328	-8.7
261.544	-23.04
261.761	15.87
261.977	7.68
262.193	-33.28
262.409	26.11
262.626	-59.9
262.842	-14.85
263.058	42.5
263.274	15.87
263.49	44.54
263.707	24.06
263.923	38.4
264.139	-0.51
264.355	-66.05
264.571	-18.94
264.787	-82.43
265.004	32.26
265.22	-16.9
265.436	54.78
265.652	7.68
265.868	13.82
266.084	-8.7
266.3	42.5
266.516	26.11
266.732	42.5
266.948	-18.94
267.164	75.26
267.38	9.73
267.596	3.58
267.812	-61.95
268.028	-0.51
268.244	-72.19
268.46	15.87
268.676	-4.61
268.892	-39.42
269.108	-64
269.324	-33.28
269.54	-33.28
269.756	-2.56
269.972	-10.75
270.188	93.69
270.403	-25.09
270.619	5.63
270.835	11.78
271.051	75.26
271.267	17.92
271.483	30.21
271.698	-29.18
271.914	5.63
272.13	-6.66
272.346	-4.61
272.562	1.54
272.777	7.68
272.993	58.88
273.209	19.97
273.425	48.64
273.64	19.97
273.856	-10.75
274.072	1.54
274.287	-25.09
274.503	1.54
274.719	11.78
274.934	32.26
275.15	-4.61
275.366	-31.23
275.581	-64
275.797	-10.75
276.012	7.68
276.228	-27.14
276.444	5.63
276.659	54.78
276.875	-2.56
277.09	-6.66
277.306	38.4
277.521	-18.94
277.737	-35.33
277.952	83.45
278.168	-66.05
278.383	67.07
278.599	-47.62
278.814	-2.56
279.03	-10.75
279.245	32.26
279.461	17.92
279.676	-8.7
279.892	40.45
280.107	-14.85
280.322	-47.62
280.538	-55.81
280.753	-29.18
280.969	-29.18
281.184	46.59
281.399	13.82
281.615	38.4
281.83	17.92
282.045	1.54
282.26	-49.66
282.476	-23.04
282.691	-2.56
282.906	-10.75
283.122	32.26
283.337	-55.81
283.552	22.02
283.767	-53.76
283.983	13.82
284.198	7.68
284.413	-8.7
284.628	34.3
284.843	34.3
285.058	-23.04
285.274	-10.75
285.489	-113.15
285.704	46.59
285.919	15.87
286.134	32.26
286.349	-43.52
286.564	22.02
286.779	-29.18
286.995	-10.75
287.21	-39.42
287.425	3.58
287.64	-51.71
287.855	38.4
288.07	42.5
288.285	-23.04
288.5	7.68
288.715	42.5
288.93	38.4
289.145	42.5
289.36	30.21
289.575	-39.42
289.79	-37.38
290.004	-25.09
290.219	-29.18
290.434	-61.95
290.649	-8.7
290.864	-39.42
291.079	-29.18
291.294	19.97
291.509	-37.38
291.724	-61.95
291.938	9.73
292.153	-6.66
292.368	1.54
292.583	17.92
292.798	-27.14
293.012	-0.51
293.227	-31.23
293.442	-10.75
293.657	24.06
293.871	19.97
294.086	-18.94
294.301	42.5
294.516	-18.94
294.73	-25.09
294.945	-14.85
295.16	-49.66
295.374	-64
295.589	71.17
295.804	-25.09
296.018	46.59
296.233	32.26
296.447	-41.47
296.662	-12.8
296.877	28.16
297.091	7.68
297.306	36.35
297.52	34.3
297.735	67.07
297.949	-8.7
298.164	-35.33
298.378	-43.52
298.593	-90.62
298.807	-92.67
299.022	-8.7
299.236	-14.85
299.451	44.54
299.665	1.54
299.88	7.68
300.094	34.3
300.309	-25.09
300.523	-74.24
300.737	67.07
300.952	-51.71
301.166	-27.14
301.381	42.5
301.595	65.02
301.809	-20.99
302.024	-2.56
302.238	24.06
302.452	19.97
302.667	-27.14
302.881	-59.9
303.095	-14.85
303.309	58.88
303.524	17.92
303.738	-68.09
303.952	-2.56
304.166	-78.33
304.381	-10.75
304.595	22.02
304.809	-37.38
305.023	32.26
305.237	22.02
305.452	95.74
305.666	-0.51
305.88	5.63
306.094	-14.85
306.308	1.54
306.522	34.3
306.736	-66.05
306.95	-6.66
307.164	-20.99
307.379	-59.9
307.593	15.87
307.807	13.82
308.021	34.3
308.235	-29.18
308.449	-25.09
308.663	-45.57
308.877	-2.56
309.091	-80.38
309.305	-8.7
309.519	26.11
309.733	56.83
309.947	-41.47
310.161	-4.61
310.374	-53.76
310.588	-59.9
310.802	-66.05
311.016	13.82
311.23	22.02
311.444	-20.99
311.658	-4.61
311.872	24.06
312.085	-29.18
312.299	48.64
312.513	5.63
312.727	9.73
312.941	11.78
313.154	-43.52
313.368	-16.9
313.582	-8.7
313.796	13.82
314.009	54.78
314.223	9.73
314.437	52.74
314.651	19.97
314.864	9.73
315.078	-104.96
315.292	-80.38
315.505	-39.42
315.719	38.4
315.933	-49.66
316.146	-33.28
316.36	1.54
316.573	22.02
316.787	-25.09
317.001	-25.09
317.214	11.78
317.428	13.82
317.641	34.3
317.855	-0.51
318.068	1.54
318.282	40.45
318.495	11.78
318.709	-35.33
318.922	-16.9
319.136	-14.85
319.349	54.78
319.563	5.63
319.776	15.87
319.99	-33.28
320.203	-45.57
320.417	-29.18
320.63	-31.23
320.843	-39.42
321.057	36.35
321.27	32.26
321.483	40.45
321.697	38.4
321.91	-57.86
322.124	-37.38
322.337	26.11
322.55	9.73
322.763	-90.62
322.977	9.73
323.19	42.5
323.403	-53.76
323.617	-8.7
323.83	-23.04
324.043	75.26
324.256	32.26
324.469	-18.94
324.683	17.92
324.896	-6.66
325.109	-57.86
325.322	17.92
325.535	48.64
325.748	38.4
325.962	38.4
326.175	-53.76
326.388	-33.28
326.601	40.45
326.814	-0.51
327.027	-12.8
327.24	30.21
327.453	-66.05
327.666	3.58
327.879	-14.85
328.092	105.98
328.305	-25.09
328.518	24.06
328.731	-27.14
328.944	19.97
329.157	-2.56
329.37	34.3
329.583	13.82
329.796	15.87
330.009	-25.09
330.222	5.63
330.435	-23.04
330.648	22.02
330.861	-14.85
331.073	11.78
331.286	-14.85
331.499	5.63
331.712	-2.56
331.925	46.59
332.138	-18.94
332.35	-10.75
332.563	-8.7
332.776	22.02
332.989	-49.66
333.202	-12.8
333.414	5.63
333.627	11.78
333.84	-0.51
334.053	-47.62
334.265	11.78
334.478	34.3
334.691	24.06
334.903	-14.85
335.116	-10.75
335.329	-39.42
335.541	52.74
335.754	-20.99
335.966	-29.18
336.179	69.12
336.392	-10.75
336.604	-16.9
336.817	22.02
337.029	-68.09
337.242	-12.8
337.454	-61.95
337.667	-0.51
337.88	5.63
338.092	-39.42
338.305	15.87
338.517	-29.18
338.729	24.06
338.942	3.58
339.154	-29.18
339.367	5.63
339.579	-16.9
339.792	-27.14
340.004	26.11
340.217	54.78
340.429	24.06
340.641	17.92
340.854	-74.24
341.066	-47.62
341.278	-12.8
341.491	-8.7
341.703	13.82
341.915	32.26
342.128	50.69
342.34	-53.76
342.552	-25.09
342.764	3.58
342.977	-53.76
343.189	-14.85
343.401	15.87
343.613	54.78
343.826	-10.75
344.038	46.59
344.25	3.58
344.462	-72.19
344.674	52.74
344.886	15.87
345.099	-2.56
345.311	-41.47
345.523	-33.28
345.735	17.92
345.947	-18.94
346.159	75.26
346.371	-6.66
346.583	1.54
346.795	9.73
347.007	-33.28
347.219	24.06
347.431	3.58
347.643	9.73
347.855	-37.38
348.067	13.82
348.279	50.69
348.491	101.89
348.703	-47.62
348.915	30.21
349.127	-68.09
349.339	11.78
349.551	-14.85
349.763	-27.14
349.975	5.63
350.187	-37.38
350.399	-0.51
350.61	62.98
350.822	-84.48
351.034	34.3
351.246	7.68
351.458	30.21
351.669	-20.99
351.881	73.21
352.093	-10.75
352.305	54.78
352.517	15.87
352.728	44.54
352.94	19.97
353.152	-0.51
353.363	-2.56
353.575	-55.81
353.787	52.74
353.999	15.87
354.21	40.45
354.422	54.78
354.633	26.11
354.845	-27.14
355.057	1.54
355.268	19.97
355.48	40.45
355.692	-25.09
355.903	46.59
356.115	15.87
356.326	5.63
356.538	81.41
356.749	5.63
356.961	1.54
357.172	-14.85
357.384	-33.28
357.595	-0.51
357.807	5.63
358.018	24.06
358.23	5.63
358.441	-16.9
358.653	7.68
358.864	-31.23
359.075	-2.56
359.287	50.69
359.498	-53.76
359.709	-23.04
359.921	22.02
360.132	-37.38
360.344	15.87
360.555	-53.76
360.766	5.63
360.977	-12.8
361.189	1.54
361.4	56.83
361.611	62.98
361.823	-16.9
362.034	48.64
362.245	32.26
362.456	-45.57
362.667	24.06
362.879	-35.33
363.09	62.98
363.301	-0.51
363.512	5.63
363.723	-84.48
363.935	71.17
364.146	46.59
364.357	-31.23
364.568	-6.66
364.779	-39.42
364.99	-16.9
365.201	-18.94
365.412	-4.61
365.623	24.06
365.834	17.92
366.045	32.26
366.256	28.16
366.467	24.06
366.678	-49.66
366.889	-45.57
367.1	-47.62
367.311	24.06
367.522	-0.51
367.733	-90.62
367.944	-6.66
368.155	28.16
368.366	-31.23
368.577	71.17
368.788	-16.9
368.999	-6.66
369.209	79.36
369.42	24.06
369.631	65.02
369.842	-53.76
370.053	32.26
370.264	1.54
370.474	-39.42
370.685	48.64
370.896	-64
371.107	38.4
371.317	3.58
371.528	7.68
371.739	62.98
371.95	40.45
372.16	30.21
372.371	-64
372.582	-0.51
372.792	-41.47
373.003	24.06
373.214	11.78
373.424	-6.66
373.635	-10.75
373.846	50.69
374.056	9.73
374.267	-51.71
374.477	19.97
374.688	-8.7
374.898	91.65
375.109	69.12
375.319	48.64
375.53	-16.9
375.74	-35.33
375.951	-14.85
376.161	-6.66
376.372	3.58
376.582	-35.33
376.793	3.58
377.003	-10.75
377.214	50.69
377.424	24.06
377.635	15.87
377.845	-12.8
378.055	34.3
378.266	-33.28
378.476	-10.75
378.686	50.69
378.897	28.16
379.107	5.63
379.317	103.93
379.528	-10.75
379.738	-29.18
379.948	-6.66
380.158	32.26
380.369	50.69
380.579	-39.42
380.789	58.88
380.999	65.02
381.21	30.21
381.42	46.59
381.63	-27.14
381.84	-6.66
382.05	30.21
382.261	87.55
382.471	5.63
382.681	38.4
382.891	-39.42
383.101	15.87
383.311	-6.66
383.521	22.02
383.731	36.35
383.941	-14.85
384.151	-25.09
384.361	24.06
384.571	38.4
384.781	58.88
384.991	54.78
385.201	13.82
385.411	-35.33
385.621	26.11
385.831	15.87
386.041	79.36
386.251	-43.52
386.461	-27.14
386.671	75.26
386.881	48.64
387.091	1.54
387.301	17.92
387.511	73.21
387.72	-72.19
387.93	52.74
388.14	77.31
388.35	24.06
388.56	-2.56
388.769	13.82
388.979	-4.61
389.189	-33.28
389.399	24.06
389.609	-49.66
389.818	40.45
390.028	-41.47
390.238	38.4
390.447	-16.9
390.657	15.87
390.867	-2.56
391.076	-64
391.286	15.87
391.496	32.26
391.705	-6.66
391.915	-2.56
392.125	17.92
392.334	-4.61
392.544	-27.14
392.753	46.59
392.963	26.11
393.172	26.11
393.382	-37.38
393.591	26.11
393.801	38.4
394.01	-4.61
394.22	5.63
394.429	30.21
394.639	-23.04
394.848	-25.09
395.058	36.35
395.267	34.3
395.477	9.73
395.686	-25.09
395.895	22.02
396.105	-0.51
396.314	60.93
396.524	19.97
396.733	3.58
396.942	54.78
397.152	30.21
397.361	44.54
397.57	50.69
397.78	22.02
397.989	-31.23
398.198	11.78
398.407	-6.66
398.617	52.74
398.826	65.02
399.035	-0.51
399.244	58.88
399.453	7.68
399.663	36.35
399.872	93.69
400.081	58.88
400.29	46.59
400.499	-35.33
400.708	77.31
400.917	65.02
401.127	7.68
401.336	13.82
401.545	-6.66
401.754	-51.71
401.963	11.78
402.172	40.45
402.381	67.07
402.59	69.12
402.799	-51.71
403.008	7.68
403.217	58.88
403.426	5.63
403.635	26.11
403.844	42.5
404.053	28.16
404.262	19.97
404.471	30.21
404.68	40.45
404.888	34.3
405.097	-27.14
405.306	81.41
405.515	54.78
405.724	38.4
405.933	79.36
406.142	38.4
406.35	46.59
406.559	73.21
406.768	81.41
406.977	83.45
407.185	17.92
407.394	81.41
407.603	79.36
407.812	54.78
408.02	40.45
408.229	85.5
408.438	132.61
408.646	65.02
408.855	110.08
409.064	30.21
409.272	30.21
409.481	144.89
409.69	46.59
409.898	91.65
410.107	122.37
410.315	140.8
410.524	62.98
410.733	91.65
410.941	132.61
411.15	79.36
411.358	122.37
411.567	120.32
411.775	50.69
411.984	118.27
412.192	144.89
412.401	138.75
412.609	179.71
412.818	189.95
413.026	128.51
413.234	177.66
413.443	91.65
413.651	153.09
413.86	148.99
414.068	214.52
414.276	228.86
414.485	179.71
414.693	187.9
414.901	171.52
415.11	192
415.318	239.1
415.526	189.95
415.734	200.19
415.943	202.24
416.151	349.69
416.359	239.1
416.567	253.44
416.776	226.81
416.984	261.63
417.192	241.15
417.4	275.96
417.608	282.11
417.817	339.45
418.025	329.21
418.233	327.16
418.441	312.83
418.649	357.88
418.857	425.47
419.065	359.93
419.273	386.55
419.481	423.42
419.689	388.6
419.897	458.23
420.105	421.37
420.313	476.66
420.521	534.01
420.729	495.1
420.937	423.42
421.145	503.29
421.353	419.32
421.561	642.55
421.769	622.07
421.977	636.41
422.185	583.16
422.393	673.27
422.601	761.33
422.809	699.89
423.017	787.96
423.224	708.09
423.432	843.25
423.64	775.67
423.848	941.55
424.056	814.58
424.263	845.3
424.471	962.03
424.679	894.45
424.887	955.89
425.094	974.32
425.302	1005.04
425.51	941.55
425.718	1138.16
425.925	1039.86
426.133	1158.64
426.341	1136.11
426.548	1218.03
426.756	1215.98
426.964	1215.98
427.171	1275.37
427.379	1291.76
427.586	1394.15
427.794	1414.63
428.001	1420.78
428.209	1480.17
428.417	1551.85
428.624	1676.77
428.832	1629.67
429.039	1560.04
429.247	1547.75
429.454	1697.25
429.662	1922.53
429.869	1795.56
430.076	1965.54
430.284	1781.22
430.491	1897.96
430.699	1914.34
430.906	1955.3
431.114	1988.07
431.321	2104.8
431.528	2184.67
431.736	2280.93
431.943	2387.42
432.15	2422.24
432.358	2317.79
432.565	2434.52
432.772	2463.19
432.979	2653.66
433.187	2563.54
433.394	2590.17
433.601	2807.25
433.808	2860.5
434.016	2747.86
434.223	3003.86
434.43	3268.05
434.637	2966.99
434.844	3239.37
435.052	3304.91
435.259	3339.73
435.466	3364.3
435.673	3374.54
435.88	3438.03
436.087	3648.97
436.294	3737.03
436.501	3620.3
436.708	3724.74
436.915	3792.33
437.122	3888.58
437.329	3982.79
437.537	4126.15
437.743	4201.92
437.95	4150.72
438.157	4492.73
438.364	4570.55
438.571	4455.87
438.778	4570.55
438.985	5004.72
439.192	4574.65
439.399	4834.74
439.606	4728.25
439.813	5141.94
440.02	5273.01
440.227	5285.3
440.433	5176.75
440.64	5447.08
440.847	5303.73
441.054	5639.59
441.261	5819.82
441.467	5741.99
441.674	5680.55
441.881	6124.96
442.088	6034.85
442.294	6139.3
442.501	6219.17
442.708	6415.77
442.914	6636.95
443.121	6903.19
443.328	6696.35
443.534	7214.48
443.741	7083.41
443.948	7001.49
444.154	7480.72
444.361	7290.26
444.568	7486.86
444.774	7611.79
444.981	7396.75
445.187	7640.46
445.394	8168.84
445.6	7957.89
445.807	8734.07
446.013	8256.9
446.22	8521.09
446.426	8789.37
446.633	8902.01
446.839	9358.71
447.046	8852.86
447.252	9356.66
447.459	9297.27
447.665	9373.04
447.871	9749.87
448.078	10149.22
448.284	9645.42
448.491	10036.58
448.697	10237.28
448.903	10556.77
449.11	10675.55
449.316	10528.1
449.522	10497.38
449.728	11050.33
449.935	11015.51
450.141	11134.29
450.347	11216.21
450.553	10917.21
450.76	11009.37
450.966	11255.12
451.172	11609.42
451.378	11662.67
451.584	11488.59
451.791	11547.98
451.997	11384.15
452.203	11885.9
452.409	11844.94
452.615	11662.67
452.821	11248.98
453.027	11326.8
453.233	11580.75
453.44	11425.11
453.646	11388.24
453.852	11636.05
454.058	11607.37
454.264	11265.36
454.47	11588.94
454.676	11136.34
454.882	11664.72
455.088	10689.88
455.294	10872.15
455.5	10970.46
455.705	11025.75
455.911	10562.91
456.117	10714.46
456.323	10364.26
456.529	9674.09
456.735	10153.32
456.941	9844.07
457.147	9559.41
457.352	9430.38
457.558	9381.23
457.764	9545.07
457.97	9350.51
458.176	9129.33
458.381	8859
458.587	8488.32
458.793	8721.79
458.999	8093.06
459.204	8815.99
459.41	8453.5
459.616	8068.48
459.821	7888.26
460.027	7722.38
460.233	7835.02
460.438	7503.25
460.644	7372.18
460.85	7075.22
461.055	7116.18
461.261	6882.71
461.466	6552.99
461.672	6086.05
461.878	6790.55
462.083	6253.98
462.289	6096.29
462.494	6045.09
462.7	5752.23
462.905	5586.35
463.111	5848.49
463.316	5791.14
463.522	5645.74
463.727	5647.79
463.932	5774.76
464.138	5631.4
464.343	5856.68
464.549	5531.05
464.754	5756.33
464.959	5694.89
465.165	5750.18
465.37	5371.31
465.575	5195.18
465.781	5447.08
465.986	5406.13
466.191	5240.24
466.397	5139.89
466.602	5039.54
466.807	5141.94
467.012	5088.69
467.218	5131.7
467.423	5049.78
467.628	5043.64
467.833	5303.73
468.038	4996.53
468.244	4865.46
468.449	5154.23
