Data from USB4F104151__31__12-53-39-385.txt Node

Date: Fri Mar 14 12:53:39 EDT 2025
User: louis
Spectrometer: USB4F10415
Trigger mode: 4
Integration Time (sec): 1.000000E-2
Scans to average: 1
Electric dark correction enabled: true
Nonlinearity correction enabled: false
Boxcar width: 0
XAxis mode: Wavelengths
Number of Pixels in Spectrum: 3648
>>>>>Begin Spectral Data<<<<<
178.204	-0.17
178.424	-0.17
178.644	-0.17
178.864	-65.71
179.084	-16.55
179.304	-45.23
179.524	-32.94
179.744	30.55
179.964	-6.31
180.184	1.88
180.404	1.88
180.624	16.21
180.844	-24.75
181.064	28.5
181.283	36.69
181.503	-14.51
181.723	8.02
181.943	-49.32
182.163	94.04
182.383	-6.31
182.602	53.08
182.822	57.17
183.042	16.21
183.262	-75.95
183.482	-43.18
183.701	-16.55
183.921	55.12
184.141	-8.36
184.361	16.21
184.58	-22.7
184.8	40.79
185.02	16.21
185.239	48.98
185.459	38.74
185.679	14.17
185.898	65.36
186.118	51.03
186.338	61.27
186.557	-37.03
186.777	-18.6
186.997	-0.17
187.216	3.93
187.436	79.7
187.655	26.45
187.875	65.36
188.095	-26.79
188.314	38.74
188.534	59.22
188.753	51.03
188.973	8.02
189.192	-18.6
189.412	55.12
189.631	96.08
189.851	40.79
190.07	85.84
190.29	75.6
190.509	14.17
190.729	-10.41
190.948	48.98
191.168	38.74
191.387	-20.65
191.607	-4.27
191.826	100.18
192.045	34.64
192.265	79.7
192.484	57.17
192.704	-104.62
192.923	65.36
193.142	116.56
193.362	16.21
193.581	20.31
193.8	-22.7
194.02	57.17
194.239	14.17
194.458	34.64
194.678	77.65
194.897	24.4
195.116	96.08
195.335	40.79
195.555	34.64
195.774	3.93
195.993	40.79
196.212	28.5
196.432	53.08
196.651	-28.84
196.87	67.41
197.089	79.7
197.308	-51.37
197.528	22.36
197.747	1.88
197.966	22.36
198.185	87.89
198.404	36.69
198.623	139.09
198.842	22.36
199.062	53.08
199.281	63.32
199.5	67.41
199.719	40.79
199.938	46.93
200.157	89.94
200.376	40.79
200.595	65.36
200.814	-0.17
201.033	55.12
201.252	42.84
201.471	32.6
201.69	26.45
201.909	63.32
202.128	5.97
202.347	65.36
202.566	22.36
202.785	132.95
203.004	-14.51
203.223	8.02
203.442	102.23
203.661	-18.6
203.879	38.74
204.098	16.21
204.317	32.6
204.536	77.65
204.755	26.45
204.974	20.31
205.193	44.88
205.411	116.56
205.63	12.12
205.849	63.32
206.068	57.17
206.287	32.6
206.505	87.89
206.724	55.12
206.943	-8.36
207.162	-2.22
207.381	-59.56
207.599	44.88
207.818	24.4
208.037	51.03
208.255	81.75
208.474	-14.51
208.693	96.08
208.911	30.55
209.13	26.45
209.349	38.74
209.567	59.22
209.786	79.7
210.005	34.64
210.223	5.97
210.442	51.03
210.661	98.13
210.879	30.55
211.098	-12.46
211.316	1.88
211.535	91.99
211.753	16.21
211.972	69.46
212.191	-26.79
212.409	26.45
212.628	-20.65
212.846	59.22
213.065	10.07
213.283	53.08
213.502	63.32
213.72	63.32
213.938	20.31
214.157	42.84
214.375	106.32
214.594	85.84
214.812	-24.75
215.031	48.98
215.249	104.28
215.467	34.64
215.686	-59.56
215.904	46.93
216.122	67.41
216.341	63.32
216.559	-41.13
216.778	73.56
216.996	87.89
217.214	34.64
217.432	12.12
217.651	30.55
217.869	38.74
218.087	46.93
218.306	57.17
218.524	30.55
218.742	12.12
218.96	89.94
219.179	-4.27
219.397	28.5
219.615	-8.36
219.833	14.17
220.051	51.03
220.27	81.75
220.488	57.17
220.706	36.69
220.924	8.02
221.142	40.79
221.36	87.89
221.578	-4.27
221.796	61.27
222.015	57.17
222.233	120.66
222.451	89.94
222.669	106.32
222.887	32.6
223.105	-8.36
223.323	73.56
223.541	91.99
223.759	57.17
223.977	-37.03
224.195	65.36
224.413	16.21
224.631	34.64
224.849	30.55
225.067	59.22
225.285	85.84
225.503	8.02
225.721	67.41
225.939	1.88
226.157	42.84
226.375	26.45
226.592	24.4
226.81	26.45
227.028	-8.36
227.246	73.56
227.464	87.89
227.682	67.41
227.9	63.32
228.117	28.5
228.335	30.55
228.553	87.89
228.771	28.5
228.989	22.36
229.206	61.27
229.424	94.04
229.642	51.03
229.86	118.61
230.077	91.99
230.295	69.46
230.513	48.98
230.731	79.7
230.948	36.69
231.166	36.69
231.384	-16.55
231.601	-16.55
231.819	8.02
232.037	91.99
232.254	65.36
232.472	8.02
232.689	67.41
232.907	34.64
233.125	116.56
233.342	87.89
233.56	-6.31
233.777	55.12
233.995	38.74
234.213	30.55
234.43	118.61
234.648	59.22
234.865	-26.79
235.083	79.7
235.3	67.41
235.518	81.75
235.735	53.08
235.953	59.22
236.17	75.6
236.388	40.79
236.605	10.07
236.822	85.84
237.04	55.12
237.257	44.88
237.475	34.64
237.692	118.61
237.909	-16.55
238.127	110.42
238.344	-4.27
238.562	63.32
238.779	94.04
238.996	53.08
239.214	85.84
239.431	30.55
239.648	75.6
239.865	28.5
240.083	26.45
240.3	112.47
240.517	-8.36
240.735	63.32
240.952	38.74
241.169	83.8
241.386	12.12
241.603	100.18
241.821	-2.22
242.038	55.12
242.255	73.56
242.472	-14.51
242.689	24.4
242.907	63.32
243.124	89.94
243.341	34.64
243.558	51.03
243.775	40.79
243.992	118.61
244.209	-14.51
244.426	32.6
244.643	24.4
244.86	48.98
245.078	42.84
245.295	87.89
245.512	59.22
245.729	36.69
245.946	77.65
246.163	-16.55
246.38	34.64
246.597	81.75
246.814	-0.17
247.031	-37.03
247.248	75.6
247.464	24.4
247.681	-18.6
247.898	63.32
248.115	38.74
248.332	14.17
248.549	22.36
248.766	104.28
248.983	71.51
249.2	75.6
249.417	63.32
249.633	22.36
249.85	-18.6
250.067	24.4
250.284	-32.94
250.501	108.37
250.717	46.93
250.934	-26.79
251.151	22.36
251.368	51.03
251.585	57.17
251.801	5.97
252.018	12.12
252.235	12.12
252.451	65.36
252.668	57.17
252.885	59.22
253.102	28.5
253.318	30.55
253.535	65.36
253.752	26.45
253.968	5.97
254.185	57.17
254.401	30.55
254.618	-22.7
254.835	14.17
255.051	28.5
255.268	53.08
255.484	98.13
255.701	-32.94
255.917	98.13
256.134	30.55
256.351	53.08
256.567	-28.84
256.784	65.36
257	55.12
257.217	63.32
257.433	14.17
257.65	22.36
257.866	132.95
258.082	-2.22
258.299	18.26
258.515	34.64
258.732	40.79
258.948	53.08
259.165	-4.27
259.381	89.94
259.597	59.22
259.814	63.32
260.03	51.03
260.246	151.38
260.463	-6.31
260.679	77.65
260.895	-8.36
261.112	44.88
261.328	110.42
261.544	63.32
261.761	81.75
261.977	-32.94
262.193	-10.41
262.409	36.69
262.626	14.17
262.842	77.65
263.058	18.26
263.274	3.93
263.49	57.17
263.707	128.85
263.923	12.12
264.139	30.55
264.355	77.65
264.571	28.5
264.787	53.08
265.004	94.04
265.22	32.6
265.436	3.93
265.652	28.5
265.868	30.55
266.084	83.8
266.3	8.02
266.516	1.88
266.732	-28.84
266.948	73.56
267.164	36.69
267.38	14.17
267.596	22.36
267.812	122.71
268.028	-20.65
268.244	32.6
268.46	157.52
268.676	77.65
268.892	100.18
269.108	38.74
269.324	94.04
269.54	5.97
269.756	32.6
269.972	-55.47
270.188	104.28
270.403	-2.22
270.619	32.6
270.835	-26.79
271.051	-0.17
271.267	59.22
271.483	53.08
271.698	-6.31
271.914	44.88
272.13	59.22
272.346	38.74
272.562	5.97
272.777	83.8
272.993	12.12
273.209	59.22
273.425	38.74
273.64	61.27
273.856	83.8
274.072	-4.27
274.287	40.79
274.503	108.37
274.719	-8.36
274.934	89.94
275.15	36.69
275.366	-39.08
275.581	26.45
275.797	1.88
276.012	3.93
276.228	20.31
276.444	3.93
276.659	-12.46
276.875	8.02
277.09	-24.75
277.306	98.13
277.521	32.6
277.737	1.88
277.952	81.75
278.168	8.02
278.383	12.12
278.599	34.64
278.814	3.93
279.03	1.88
279.245	67.41
279.461	79.7
279.676	63.32
279.892	77.65
280.107	-10.41
280.322	77.65
280.538	67.41
280.753	26.45
280.969	3.93
281.184	10.07
281.399	106.32
281.615	42.84
281.83	30.55
282.045	18.26
282.26	85.84
282.476	83.8
282.691	42.84
282.906	87.89
283.122	24.4
283.337	30.55
283.552	12.12
283.767	-30.89
283.983	67.41
284.198	-6.31
284.413	87.89
284.628	-16.55
284.843	14.17
285.058	10.07
285.274	124.76
285.489	-45.23
285.704	53.08
285.919	36.69
286.134	63.32
286.349	5.97
286.564	73.56
286.779	100.18
286.995	20.31
287.21	73.56
287.425	87.89
287.64	48.98
287.855	10.07
288.07	65.36
288.285	32.6
288.5	59.22
288.715	34.64
288.93	-39.08
289.145	59.22
289.36	12.12
289.575	10.07
289.79	46.93
290.004	-26.79
290.219	48.98
290.434	116.56
290.649	18.26
290.864	24.4
291.079	10.07
291.294	55.12
291.509	14.17
291.724	32.6
291.938	36.69
292.153	55.12
292.368	-6.31
292.583	12.12
292.798	38.74
293.012	28.5
293.227	30.55
293.442	100.18
293.657	38.74
293.871	96.08
294.086	3.93
294.301	55.12
294.516	-2.22
294.73	55.12
294.945	46.93
295.16	-18.6
295.374	102.23
295.589	-0.17
295.804	63.32
296.018	34.64
296.233	65.36
296.447	87.89
296.662	46.93
296.877	44.88
297.091	12.12
297.306	63.32
297.52	55.12
297.735	81.75
297.949	63.32
298.164	59.22
298.378	83.8
298.593	116.56
298.807	16.21
299.022	38.74
299.236	32.6
299.451	22.36
299.665	20.31
299.88	57.17
300.094	65.36
300.309	79.7
300.523	83.8
300.737	42.84
300.952	-0.17
301.166	71.51
301.381	28.5
301.595	71.51
301.809	85.84
302.024	-32.94
302.238	26.45
302.452	51.03
302.667	89.94
302.881	44.88
303.095	71.51
303.309	69.46
303.524	-26.79
303.738	22.36
303.952	91.99
304.166	46.93
304.381	61.27
304.595	34.64
304.809	71.51
305.023	-4.27
305.237	3.93
305.452	83.8
305.666	46.93
305.88	3.93
306.094	40.79
306.308	69.46
306.522	67.41
306.736	38.74
306.95	24.4
307.164	-39.08
307.379	55.12
307.593	18.26
307.807	63.32
308.021	77.65
308.235	53.08
308.449	-2.22
308.663	22.36
308.877	89.94
309.091	94.04
309.305	122.71
309.519	79.7
309.733	36.69
309.947	-4.27
310.161	16.21
310.374	32.6
310.588	73.56
310.802	81.75
311.016	87.89
311.23	42.84
311.444	-49.32
311.658	75.6
311.872	28.5
312.085	73.56
312.299	112.47
312.513	53.08
312.727	30.55
312.941	26.45
313.154	10.07
313.368	75.6
313.582	57.17
313.796	38.74
314.009	55.12
314.223	59.22
314.437	3.93
314.651	24.4
314.864	34.64
315.078	14.17
315.292	87.89
315.505	38.74
315.719	126.8
315.933	38.74
316.146	83.8
316.36	3.93
316.573	79.7
316.787	55.12
317.001	87.89
317.214	59.22
317.428	55.12
317.641	28.5
317.855	65.36
318.068	24.4
318.282	-18.6
318.495	61.27
318.709	20.31
318.922	53.08
319.136	5.97
319.349	-14.51
319.563	34.64
319.776	65.36
319.99	96.08
320.203	32.6
320.417	100.18
320.63	3.93
320.843	67.41
321.057	46.93
321.27	24.4
321.483	59.22
321.697	116.56
321.91	65.36
322.124	32.6
322.337	34.64
322.55	48.98
322.763	71.51
322.977	55.12
323.19	24.4
323.403	61.27
323.617	57.17
323.83	51.03
324.043	32.6
324.256	14.17
324.469	46.93
324.683	57.17
324.896	22.36
325.109	24.4
325.322	12.12
325.535	112.47
325.748	65.36
325.962	24.4
326.175	-2.22
326.388	67.41
326.601	42.84
326.814	22.36
327.027	28.5
327.24	100.18
327.453	46.93
327.666	75.6
327.879	-2.22
328.092	96.08
328.305	85.84
328.518	104.28
328.731	79.7
328.944	59.22
329.157	14.17
329.37	102.23
329.583	38.74
329.796	24.4
330.009	65.36
330.222	46.93
330.435	46.93
330.648	8.02
330.861	48.98
331.073	55.12
331.286	102.23
331.499	100.18
331.712	3.93
331.925	-18.6
332.138	94.04
332.35	83.8
332.563	-6.31
332.776	75.6
332.989	22.36
333.202	46.93
333.414	14.17
333.627	75.6
333.84	120.66
334.053	108.37
334.265	1.88
334.478	16.21
334.691	59.22
334.903	36.69
335.116	61.27
335.329	55.12
335.541	-2.22
335.754	126.8
335.966	42.84
336.179	46.93
336.392	18.26
336.604	16.21
336.817	108.37
337.029	65.36
337.242	126.8
337.454	171.86
337.667	-18.6
337.88	85.84
338.092	118.61
338.305	73.56
338.517	12.12
338.729	34.64
338.942	36.69
339.154	89.94
339.367	12.12
339.579	-6.31
339.792	55.12
340.004	34.64
340.217	116.56
340.429	81.75
340.641	51.03
340.854	40.79
341.066	48.98
341.278	110.42
341.491	46.93
341.703	112.47
341.915	-14.51
342.128	75.6
342.34	1.88
342.552	10.07
342.764	18.26
342.977	16.21
343.189	28.5
343.401	79.7
343.613	130.9
343.826	69.46
344.038	26.45
344.25	42.84
344.462	53.08
344.674	34.64
344.886	55.12
345.099	-0.17
345.311	135
345.523	61.27
345.735	67.41
345.947	30.55
346.159	16.21
346.371	8.02
346.583	44.88
346.795	63.32
347.007	-24.75
347.219	48.98
347.431	18.26
347.643	71.51
347.855	79.7
348.067	108.37
348.279	44.88
348.491	73.56
348.703	59.22
348.915	-4.27
349.127	65.36
349.339	77.65
349.551	65.36
349.763	48.98
349.975	87.89
350.187	83.8
350.399	26.45
350.61	81.75
350.822	51.03
351.034	61.27
351.246	24.4
351.458	94.04
351.669	46.93
351.881	16.21
352.093	75.6
352.305	89.94
352.517	12.12
352.728	75.6
352.94	75.6
353.152	-20.65
353.363	81.75
353.575	87.89
353.787	18.26
353.999	40.79
354.21	44.88
354.422	51.03
354.633	89.94
354.845	30.55
355.057	67.41
355.268	16.21
355.48	87.89
355.692	40.79
355.903	30.55
356.115	-4.27
356.326	42.84
356.538	40.79
356.749	14.17
356.961	34.64
357.172	63.32
357.384	63.32
357.595	122.71
357.807	55.12
358.018	77.65
358.23	57.17
358.441	71.51
358.653	104.28
358.864	-18.6
359.075	87.89
359.287	16.21
359.498	36.69
359.709	79.7
359.921	61.27
360.132	30.55
360.344	36.69
360.555	30.55
360.766	75.6
360.977	10.07
361.189	3.93
361.4	53.08
361.611	91.99
361.823	51.03
362.034	63.32
362.245	5.97
362.456	26.45
362.667	94.04
362.879	59.22
363.09	79.7
363.301	32.6
363.512	57.17
363.723	44.88
363.935	102.23
364.146	36.69
364.357	34.64
364.568	51.03
364.779	-22.7
364.99	139.09
365.201	44.88
365.412	71.51
365.623	69.46
365.834	57.17
366.045	75.6
366.256	22.36
366.467	32.6
366.678	57.17
366.889	53.08
367.1	104.28
367.311	87.89
367.522	61.27
367.733	14.17
367.944	53.08
368.155	114.52
368.366	116.56
368.577	59.22
368.788	69.46
368.999	67.41
369.209	106.32
369.42	126.8
369.631	91.99
369.842	81.75
370.053	91.99
370.264	34.64
370.474	79.7
370.685	91.99
370.896	8.02
371.107	46.93
371.317	67.41
371.528	65.36
371.739	100.18
371.95	73.56
372.16	89.94
372.371	-0.17
372.582	83.8
372.792	71.51
373.003	-8.36
373.214	14.17
373.424	55.12
373.635	67.41
373.846	85.84
374.056	94.04
374.267	28.5
374.477	40.79
374.688	63.32
374.898	40.79
375.109	20.31
375.319	14.17
375.53	79.7
375.74	110.42
375.951	30.55
376.161	73.56
376.372	98.13
376.582	77.65
376.793	-0.17
377.003	-18.6
377.214	61.27
377.424	-4.27
377.635	48.98
377.845	65.36
378.055	32.6
378.266	32.6
378.476	-6.31
378.686	20.31
378.897	69.46
379.107	32.6
379.317	8.02
379.528	94.04
379.738	20.31
379.948	40.79
380.158	96.08
380.369	24.4
380.579	24.4
380.789	24.4
380.999	81.75
381.21	65.36
381.42	65.36
381.63	44.88
381.84	96.08
382.05	132.95
382.261	91.99
382.471	94.04
382.681	30.55
382.891	55.12
383.101	12.12
383.311	-2.22
383.521	69.46
383.731	34.64
383.941	71.51
384.151	10.07
384.361	14.17
384.571	100.18
384.781	44.88
384.991	75.6
385.201	163.67
385.411	26.45
385.621	-12.46
385.831	12.12
386.041	118.61
386.251	42.84
386.461	22.36
386.671	75.6
386.881	67.41
387.091	22.36
387.301	40.79
387.511	38.74
387.72	26.45
387.93	135
388.14	42.84
388.35	89.94
388.56	112.47
388.769	91.99
388.979	75.6
389.189	100.18
389.399	69.46
389.609	24.4
389.818	135
390.028	48.98
390.238	112.47
390.447	16.21
390.657	32.6
390.867	-6.31
391.076	59.22
391.286	-8.36
391.496	81.75
391.705	38.74
391.915	128.85
392.125	16.21
392.334	10.07
392.544	18.26
392.753	44.88
392.963	75.6
393.172	81.75
393.382	38.74
393.591	126.8
393.801	51.03
394.01	112.47
394.22	96.08
394.429	91.99
394.639	81.75
394.848	12.12
395.058	91.99
395.267	-4.27
395.477	112.47
395.686	96.08
395.895	73.56
396.105	120.66
396.314	44.88
396.524	8.02
396.733	120.66
396.942	98.13
397.152	61.27
397.361	132.95
397.57	114.52
397.78	108.37
397.989	155.47
398.198	81.75
398.407	26.45
398.617	38.74
398.826	94.04
399.035	53.08
399.244	75.6
399.453	98.13
399.663	89.94
399.872	26.45
400.081	120.66
400.29	81.75
400.499	57.17
400.708	132.95
400.917	106.32
401.127	130.9
401.336	81.75
401.545	165.71
401.754	61.27
401.963	130.9
402.172	79.7
402.381	83.8
402.59	104.28
402.799	57.17
403.008	12.12
403.217	100.18
403.426	122.71
403.635	79.7
403.844	53.08
404.053	114.52
404.262	98.13
404.471	110.42
404.68	128.85
404.888	79.7
405.097	71.51
405.306	161.62
405.515	114.52
405.724	112.47
405.933	139.09
406.142	153.43
406.35	91.99
406.559	71.51
406.768	178
406.977	173.91
407.185	124.76
407.394	132.95
407.603	98.13
407.812	122.71
408.02	104.28
408.229	104.28
408.438	157.52
408.646	87.89
408.855	108.37
409.064	108.37
409.272	184.15
409.481	202.58
409.69	147.28
409.898	200.53
410.107	268.11
410.315	200.53
410.524	214.87
410.733	112.47
410.941	221.01
411.15	233.3
411.358	241.49
411.567	212.82
411.775	247.63
411.984	225.11
412.192	268.11
412.401	229.2
412.609	210.77
412.818	270.16
413.026	227.15
413.234	319.31
413.443	270.16
413.651	352.08
413.86	231.25
414.068	311.12
414.276	341.84
414.485	257.87
414.693	374.61
414.901	380.75
415.11	440.14
415.318	315.22
415.526	374.61
415.734	458.57
415.943	384.85
416.151	464.72
416.359	401.23
416.567	546.64
416.776	485.2
416.984	544.59
417.192	464.72
417.4	532.3
417.608	515.92
417.817	571.21
418.025	606.03
418.233	526.16
418.441	534.35
418.649	618.32
418.857	622.41
419.065	634.7
419.273	659.28
419.481	722.76
419.689	757.58
419.897	849.74
420.105	788.3
420.313	759.63
420.521	802.63
420.729	814.92
420.937	792.39
421.145	962.37
421.353	900.94
421.561	993.09
421.769	907.08
421.977	1029.96
422.185	886.6
422.393	1105.73
422.601	1247.04
422.809	1118.02
423.017	1173.32
423.224	1163.08
423.432	1267.52
423.64	1195.84
423.848	1242.95
424.056	1351.49
424.263	1462.08
424.471	1285.95
424.679	1382.21
424.887	1556.29
425.094	1529.66
425.302	1564.48
425.51	1619.77
425.718	1611.58
425.925	1687.36
426.133	1703.74
426.341	1812.28
426.548	1998.65
426.756	1994.55
426.964	2008.89
427.171	2017.08
427.379	2086.71
427.586	1992.5
427.794	2234.16
428.001	2307.89
428.209	2477.87
428.417	2332.47
428.624	2547.5
428.832	2443.06
429.039	2606.89
429.247	2494.26
429.454	2606.89
429.662	2864.94
429.869	2860.84
430.076	2875.18
430.284	2967.34
430.491	2998.06
430.699	3219.24
430.906	3147.56
431.114	3102.5
431.321	3350.31
431.528	3413.79
431.736	3567.39
431.943	3692.32
432.15	3671.84
432.358	3723.04
432.565	3876.63
432.772	3917.59
432.979	4073.24
433.187	3985.18
433.394	4149.01
433.601	4593.42
433.808	4486.93
434.016	4386.58
434.223	4435.73
434.43	4957.96
434.637	4800.27
434.844	5156.61
435.052	5156.61
435.259	5117.7
435.466	5224.2
435.673	5226.25
435.88	5502.72
436.087	5779.2
436.294	5938.94
436.501	5664.51
436.708	5875.45
436.915	6016.76
437.122	6332.15
437.329	6426.36
437.537	6500.08
437.743	6561.52
437.95	6459.12
438.157	6934.25
438.364	7134.95
438.571	7233.25
438.778	7263.97
438.985	7755.49
439.192	7542.5
439.399	7837.41
439.606	7694.05
439.813	8017.63
440.02	8500.95
440.227	8351.45
440.433	8062.68
440.64	8517.33
440.847	8419.03
441.054	8648.4
441.261	9215.69
441.467	9076.43
441.674	9391.81
441.881	9647.81
442.088	9541.32
442.294	9666.24
442.501	9742.02
442.708	10006.2
442.914	10591.92
443.121	11038.38
443.328	10688.18
443.534	11351.72
443.741	10995.37
443.948	11022
444.154	11679.4
444.361	11445.93
444.568	11749.03
444.774	11796.13
444.981	11857.57
445.187	12127.9
445.394	12783.25
445.6	12695.19
445.807	13960.83
446.013	13139.6
446.22	13475.46
446.426	13948.54
446.633	14122.62
446.839	14679.67
447.046	14018.18
447.252	14820.98
447.459	14931.57
447.665	14820.98
447.871	15588.97
448.078	16242.27
448.284	15418.99
448.491	15623.78
448.697	16240.22
448.903	16580.18
449.11	16789.08
449.316	16625.24
449.522	16451.16
449.728	17284.69
449.935	17124.94
450.141	17286.73
450.347	17614.41
450.553	17083.98
450.76	17253.97
450.966	17970.76
451.172	17745.48
451.378	18251.33
451.584	17856.07
451.791	18220.61
451.997	18490.94
452.203	18482.75
452.409	18742.84
452.615	18177.6
452.821	17919.56
453.027	17561.16
453.233	18705.98
453.44	17788.49
453.646	18077.25
453.852	17931.84
454.058	18454.08
454.264	17888.84
454.47	18400.83
454.676	17856.07
454.882	18611.77
455.088	16752.21
455.294	17071.7
455.5	17256.01
455.705	17587.78
455.911	17073.74
456.117	16420.44
456.323	16350.81
456.529	15441.51
456.735	16338.52
456.941	15631.97
457.147	15580.78
457.352	15068.78
457.558	14749.3
457.764	14900.85
457.97	14630.52
458.176	14315.13
458.381	14331.51
458.587	13741.7
458.793	13667.97
458.999	12973.71
459.204	13858.43
459.41	13526.66
459.616	12385.94
459.821	12662.42
460.027	12633.75
460.233	12369.56
460.438	11765.41
460.644	11919.01
460.85	11400.87
461.055	11130.54
461.261	10997.42
461.466	10221.24
461.672	10124.99
461.878	10727.09
462.083	10051.26
462.289	9750.21
462.494	9864.89
462.7	9082.57
462.905	9082.57
463.111	9676.48
463.316	9475.78
463.522	9090.76
463.727	9250.5
463.932	9275.08
464.138	9164.49
464.343	9109.19
464.549	8845.01
464.754	9424.58
464.959	9051.85
465.165	9270.98
465.37	8715.98
465.575	8754.9
465.781	8933.07
465.986	8758.99
466.191	8675.02
466.397	8376.02
466.602	8042.2
466.807	8294.1
467.012	8201.94
467.218	8371.93
467.423	8124.12
467.628	8277.72
467.833	8761.04
468.038	8408.79
468.244	8015.58
468.449	8445.65
468.654	8064.73
468.859	8052.44
469.064	7941.85
469.269	7638.75
469.474	7663.33
469.679	8031.96
