Data from USB4F104151__3__12-53-04-389.txt Node

Date: Fri Mar 14 12:53:04 EDT 2025
User: louis
Spectrometer: USB4F10415
Trigger mode: 4
Integration Time (sec): 1.000000E-2
Scans to average: 1
Electric dark correction enabled: true
Nonlinearity correction enabled: false
Boxcar width: 0
XAxis mode: Wavelengths
Number of Pixels in Spectrum: 3648
>>>>>Begin Spectral Data<<<<<
178.204	8.02
178.424	8.02
178.644	8.02
178.864	-37.03
179.084	26.45
179.304	61.27
179.524	-59.56
179.744	-45.23
179.964	36.69
180.184	-43.18
180.404	3.93
180.624	-4.27
180.844	38.74
181.064	10.07
181.283	14.17
181.503	28.5
181.723	-41.13
181.943	24.4
182.163	89.94
182.383	36.69
182.602	81.75
182.822	85.84
183.042	36.69
183.262	3.93
183.482	67.41
183.701	71.51
183.921	34.64
184.141	53.08
184.361	55.12
184.58	28.5
184.8	89.94
185.02	28.5
185.239	10.07
185.459	34.64
185.679	51.03
185.898	24.4
186.118	-32.94
186.338	40.79
186.557	-28.84
186.777	32.6
186.997	38.74
187.216	-16.55
187.436	79.7
187.655	77.65
187.875	96.08
188.095	16.21
188.314	-22.7
188.534	57.17
188.753	120.66
188.973	-2.22
189.192	87.89
189.412	18.26
189.631	42.84
189.851	-18.6
190.07	-18.6
190.29	51.03
190.509	51.03
190.729	3.93
190.948	-2.22
191.168	48.98
191.387	-0.17
191.607	63.32
191.826	71.51
192.045	-47.27
192.265	12.12
192.484	8.02
192.704	-39.08
192.923	5.97
193.142	65.36
193.362	79.7
193.581	147.28
193.8	36.69
194.02	85.84
194.239	-22.7
194.458	12.12
194.678	53.08
194.897	91.99
195.116	32.6
195.335	98.13
195.555	67.41
195.774	24.4
195.993	67.41
196.212	46.93
196.432	24.4
196.651	42.84
196.87	30.55
197.089	75.6
197.308	42.84
197.528	12.12
197.747	-106.67
197.966	38.74
198.185	91.99
198.404	16.21
198.623	57.17
198.842	53.08
199.062	18.26
199.281	-2.22
199.5	-12.46
199.719	128.85
199.938	-10.41
200.157	51.03
200.376	73.56
200.595	30.55
200.814	63.32
201.033	-4.27
201.252	20.31
201.471	124.76
201.69	94.04
201.909	81.75
202.128	38.74
202.347	-6.31
202.566	20.31
202.785	44.88
203.004	3.93
203.223	130.9
203.442	77.65
203.661	59.22
203.879	28.5
204.098	44.88
204.317	-24.75
204.536	110.42
204.755	79.7
204.974	85.84
205.193	30.55
205.411	73.56
205.63	10.07
205.849	40.79
206.068	42.84
206.287	61.27
206.505	32.6
206.724	53.08
206.943	151.38
207.162	-4.27
207.381	42.84
207.599	40.79
207.818	79.7
208.037	69.46
208.255	36.69
208.474	112.47
208.693	-26.79
208.911	22.36
209.13	28.5
209.349	16.21
209.567	61.27
209.786	46.93
210.005	87.89
210.223	85.84
210.442	3.93
210.661	108.37
210.879	106.32
211.098	10.07
211.316	91.99
211.535	-0.17
211.753	124.76
211.972	-24.75
212.191	18.26
212.409	53.08
212.628	69.46
212.846	61.27
213.065	26.45
213.283	-0.17
213.502	-43.18
213.72	10.07
213.938	-37.03
214.157	46.93
214.375	77.65
214.594	38.74
214.812	3.93
215.031	108.37
215.249	-0.17
215.467	40.79
215.686	32.6
215.904	48.98
216.122	65.36
216.341	75.6
216.559	-16.55
216.778	132.95
216.996	120.66
217.214	1.88
217.432	42.84
217.651	65.36
217.869	57.17
218.087	18.26
218.306	61.27
218.524	1.88
218.742	44.88
218.96	16.21
219.179	83.8
219.397	55.12
219.615	151.38
219.833	63.32
220.051	10.07
220.27	94.04
220.488	40.79
220.706	-16.55
220.924	77.65
221.142	28.5
221.36	-10.41
221.578	71.51
221.796	42.84
222.015	81.75
222.233	-8.36
222.451	139.09
222.669	34.64
222.887	24.4
223.105	32.6
223.323	112.47
223.541	79.7
223.759	89.94
223.977	63.32
224.195	26.45
224.413	73.56
224.631	91.99
224.849	-6.31
225.067	118.61
225.285	42.84
225.503	40.79
225.721	30.55
225.939	44.88
226.157	28.5
226.375	55.12
226.592	46.93
226.81	67.41
227.028	28.5
227.246	-4.27
227.464	30.55
227.682	79.7
227.9	-2.22
228.117	40.79
228.335	94.04
228.553	5.97
228.771	71.51
228.989	24.4
229.206	26.45
229.424	96.08
229.642	-0.17
229.86	120.66
230.077	26.45
230.295	16.21
230.513	63.32
230.731	24.4
230.948	73.56
231.166	51.03
231.384	-30.89
231.601	-0.17
231.819	14.17
232.037	-4.27
232.254	57.17
232.472	5.97
232.689	73.56
232.907	102.23
233.125	73.56
233.342	73.56
233.56	38.74
233.777	42.84
233.995	1.88
234.213	102.23
234.43	57.17
234.648	-4.27
234.865	26.45
235.083	59.22
235.3	69.46
235.518	69.46
235.735	-16.55
235.953	14.17
236.17	22.36
236.388	81.75
236.605	22.36
236.822	96.08
237.04	102.23
237.257	51.03
237.475	89.94
237.692	44.88
237.909	51.03
238.127	67.41
238.344	51.03
238.562	36.69
238.779	42.84
238.996	42.84
239.214	34.64
239.431	73.56
239.648	-4.27
239.865	89.94
240.083	30.55
240.3	73.56
240.517	26.45
240.735	40.79
240.952	22.36
241.169	65.36
241.386	75.6
241.603	5.97
241.821	75.6
242.038	126.8
242.255	24.4
242.472	132.95
242.689	40.79
242.907	79.7
243.124	61.27
243.341	59.22
243.558	87.89
243.775	-0.17
243.992	85.84
244.209	12.12
244.426	81.75
244.643	75.6
244.86	28.5
245.078	124.76
245.295	24.4
245.512	32.6
245.729	-41.13
245.946	32.6
246.163	69.46
246.38	77.65
246.597	42.84
246.814	73.56
247.031	65.36
247.248	12.12
247.464	55.12
247.681	55.12
247.898	16.21
248.115	124.76
248.332	16.21
248.549	145.24
248.766	102.23
248.983	73.56
249.2	26.45
249.417	36.69
249.633	94.04
249.85	14.17
250.067	98.13
250.284	94.04
250.501	26.45
250.717	71.51
250.934	69.46
251.151	83.8
251.368	65.36
251.585	67.41
251.801	98.13
252.018	81.75
252.235	61.27
252.451	106.32
252.668	40.79
252.885	147.28
253.102	61.27
253.318	-22.7
253.535	8.02
253.752	40.79
253.968	-26.79
254.185	38.74
254.401	65.36
254.618	18.26
254.835	14.17
255.051	34.64
255.268	10.07
255.484	-26.79
255.701	87.89
255.917	38.74
256.134	24.4
256.351	51.03
256.567	87.89
256.784	63.32
257	38.74
257.217	79.7
257.433	38.74
257.65	69.46
257.866	55.12
258.082	1.88
258.299	24.4
258.515	55.12
258.732	24.4
258.948	114.52
259.165	130.9
259.381	91.99
259.597	-37.03
259.814	108.37
260.03	130.9
260.246	14.17
260.463	36.69
260.679	61.27
260.895	22.36
261.112	69.46
261.328	16.21
261.544	77.65
261.761	110.42
261.977	106.32
262.193	51.03
262.409	83.8
262.626	30.55
262.842	48.98
263.058	-16.55
263.274	63.32
263.49	5.97
263.707	65.36
263.923	61.27
264.139	69.46
264.355	30.55
264.571	79.7
264.787	30.55
265.004	67.41
265.22	69.46
265.436	65.36
265.652	75.6
265.868	73.56
266.084	24.4
266.3	44.88
266.516	34.64
266.732	51.03
266.948	55.12
267.164	36.69
267.38	75.6
267.596	46.93
267.812	57.17
268.028	20.31
268.244	100.18
268.46	-0.17
268.676	20.31
268.892	69.46
269.108	57.17
269.324	53.08
269.54	46.93
269.756	98.13
269.972	36.69
270.188	65.36
270.403	59.22
270.619	46.93
270.835	5.97
271.051	61.27
271.267	96.08
271.483	26.45
271.698	42.84
271.914	100.18
272.13	-0.17
272.346	22.36
272.562	67.41
272.777	79.7
272.993	126.8
273.209	147.28
273.425	-6.31
273.64	34.64
273.856	75.6
274.072	87.89
274.287	55.12
274.503	59.22
274.719	149.33
274.934	71.51
275.15	51.03
275.366	53.08
275.581	57.17
275.797	116.56
276.012	10.07
276.228	34.64
276.444	24.4
276.659	81.75
276.875	36.69
277.09	57.17
277.306	63.32
277.521	69.46
277.737	14.17
277.952	81.75
278.168	69.46
278.383	57.17
278.599	-24.75
278.814	81.75
279.03	14.17
279.245	104.28
279.461	48.98
279.676	55.12
279.892	30.55
280.107	108.37
280.322	14.17
280.538	120.66
280.753	65.36
280.969	106.32
281.184	81.75
281.399	135
281.615	67.41
281.83	73.56
282.045	40.79
282.26	73.56
282.476	81.75
282.691	46.93
282.906	57.17
283.122	87.89
283.337	18.26
283.552	89.94
283.767	77.65
283.983	48.98
284.198	55.12
284.413	14.17
284.628	-2.22
284.843	38.74
285.058	32.6
285.274	55.12
285.489	24.4
285.704	-16.55
285.919	120.66
286.134	63.32
286.349	30.55
286.564	69.46
286.779	22.36
286.995	73.56
287.21	22.36
287.425	126.8
287.64	-51.37
287.855	20.31
288.07	102.23
288.285	51.03
288.5	63.32
288.715	24.4
288.93	38.74
289.145	16.21
289.36	-12.46
289.575	63.32
289.79	114.52
290.004	32.6
290.219	22.36
290.434	71.51
290.649	65.36
290.864	-20.65
291.079	12.12
291.294	122.71
291.509	-30.89
291.724	1.88
291.938	-4.27
292.153	5.97
292.368	16.21
292.583	61.27
292.798	28.5
293.012	42.84
293.227	83.8
293.442	24.4
293.657	48.98
293.871	57.17
294.086	34.64
294.301	83.8
294.516	89.94
294.73	71.51
294.945	42.84
295.16	8.02
295.374	30.55
295.589	53.08
295.804	38.74
296.018	69.46
296.233	3.93
296.447	46.93
296.662	69.46
296.877	110.42
297.091	40.79
297.306	75.6
297.52	48.98
297.735	94.04
297.949	-14.51
298.164	-26.79
298.378	79.7
298.593	8.02
298.807	-0.17
299.022	59.22
299.236	79.7
299.451	79.7
299.665	67.41
299.88	112.47
300.094	106.32
300.309	18.26
300.523	42.84
300.737	28.5
300.952	69.46
301.166	22.36
301.381	5.97
301.595	61.27
301.809	44.88
302.024	102.23
302.238	59.22
302.452	116.56
302.667	48.98
302.881	69.46
303.095	75.6
303.309	79.7
303.524	1.88
303.738	57.17
303.952	-2.22
304.166	30.55
304.381	3.93
304.595	59.22
304.809	79.7
305.023	120.66
305.237	77.65
305.452	10.07
305.666	71.51
305.88	112.47
306.094	36.69
306.308	75.6
306.522	102.23
306.736	120.66
306.95	10.07
307.164	32.6
307.379	28.5
307.593	32.6
307.807	104.28
308.021	124.76
308.235	108.37
308.449	79.7
308.663	-6.31
308.877	57.17
309.091	53.08
309.305	104.28
309.519	132.95
309.733	79.7
309.947	-12.46
310.161	55.12
310.374	96.08
310.588	55.12
310.802	63.32
311.016	59.22
311.23	94.04
311.444	-16.55
311.658	51.03
311.872	104.28
312.085	112.47
312.299	71.51
312.513	26.45
312.727	67.41
312.941	20.31
313.154	143.19
313.368	126.8
313.582	18.26
313.796	75.6
314.009	67.41
314.223	32.6
314.437	98.13
314.651	106.32
314.864	71.51
315.078	73.56
315.292	42.84
315.505	26.45
315.719	55.12
315.933	3.93
316.146	40.79
316.36	-43.18
316.573	73.56
316.787	120.66
317.001	63.32
317.214	79.7
317.428	57.17
317.641	48.98
317.855	55.12
318.068	51.03
318.282	22.36
318.495	65.36
318.709	67.41
318.922	67.41
319.136	51.03
319.349	67.41
319.563	91.99
319.776	57.17
319.99	104.28
320.203	89.94
320.417	10.07
320.63	32.6
320.843	98.13
321.057	42.84
321.27	108.37
321.483	59.22
321.697	137.04
321.91	89.94
322.124	55.12
322.337	-16.55
322.55	67.41
322.763	61.27
322.977	48.98
323.19	69.46
323.403	87.89
323.617	8.02
323.83	79.7
324.043	108.37
324.256	55.12
324.469	89.94
324.683	106.32
324.896	38.74
325.109	143.19
325.322	26.45
325.535	32.6
325.748	63.32
325.962	57.17
326.175	12.12
326.388	28.5
326.601	139.09
326.814	91.99
327.027	46.93
327.24	114.52
327.453	48.98
327.666	44.88
327.879	81.75
328.092	61.27
328.305	46.93
328.518	48.98
328.731	36.69
328.944	16.21
329.157	112.47
329.37	85.84
329.583	22.36
329.796	26.45
330.009	57.17
330.222	73.56
330.435	75.6
330.648	44.88
330.861	51.03
331.073	63.32
331.286	38.74
331.499	87.89
331.712	55.12
331.925	30.55
332.138	-0.17
332.35	57.17
332.563	57.17
332.776	104.28
332.989	94.04
333.202	114.52
333.414	79.7
333.627	102.23
333.84	26.45
334.053	87.89
334.265	34.64
334.478	36.69
334.691	28.5
334.903	75.6
335.116	26.45
335.329	-28.84
335.541	46.93
335.754	85.84
335.966	75.6
336.179	8.02
336.392	51.03
336.604	51.03
336.817	77.65
337.029	22.36
337.242	79.7
337.454	102.23
337.667	32.6
337.88	85.84
338.092	63.32
338.305	120.66
338.517	-10.41
338.729	14.17
338.942	128.85
339.154	42.84
339.367	145.24
339.579	112.47
339.792	85.84
340.004	81.75
340.217	77.65
340.429	65.36
340.641	149.33
340.854	57.17
341.066	59.22
341.278	106.32
341.491	114.52
341.703	12.12
341.915	79.7
342.128	130.9
342.34	104.28
342.552	75.6
342.764	122.71
342.977	100.18
343.189	53.08
343.401	59.22
343.613	94.04
343.826	73.56
344.038	65.36
344.25	96.08
344.462	91.99
344.674	79.7
344.886	24.4
345.099	87.89
345.311	16.21
345.523	73.56
345.735	38.74
345.947	30.55
346.159	8.02
346.371	20.31
346.583	128.85
346.795	59.22
347.007	-0.17
347.219	61.27
347.431	53.08
347.643	36.69
347.855	26.45
348.067	110.42
348.279	40.79
348.491	-6.31
348.703	30.55
348.915	57.17
349.127	67.41
349.339	75.6
349.551	18.26
349.763	48.98
349.975	77.65
350.187	73.56
350.399	63.32
350.61	116.56
350.822	59.22
351.034	59.22
351.246	98.13
351.458	75.6
351.669	-4.27
351.881	73.56
352.093	32.6
352.305	81.75
352.517	75.6
352.728	59.22
352.94	14.17
353.152	73.56
353.363	36.69
353.575	98.13
353.787	30.55
353.999	102.23
354.21	75.6
354.422	71.51
354.633	118.61
354.845	36.69
355.057	61.27
355.268	32.6
355.48	132.95
355.692	124.76
355.903	112.47
356.115	63.32
356.326	83.8
356.538	26.45
356.749	71.51
356.961	32.6
357.172	10.07
357.384	79.7
357.595	83.8
357.807	42.84
358.018	71.51
358.23	44.88
358.441	34.64
358.653	16.21
358.864	67.41
359.075	30.55
359.287	79.7
359.498	10.07
359.709	77.65
359.921	61.27
360.132	38.74
360.344	55.12
360.555	32.6
360.766	98.13
360.977	81.75
361.189	69.46
361.4	28.5
361.611	81.75
361.823	24.4
362.034	104.28
362.245	24.4
362.456	61.27
362.667	38.74
362.879	22.36
363.09	87.89
363.301	8.02
363.512	53.08
363.723	14.17
363.935	65.36
364.146	126.8
364.357	75.6
364.568	81.75
364.779	46.93
364.99	14.17
365.201	106.32
365.412	48.98
365.623	79.7
365.834	120.66
366.045	36.69
366.256	67.41
366.467	10.07
366.678	38.74
366.889	34.64
367.1	104.28
367.311	61.27
367.522	171.86
367.733	-24.75
367.944	118.61
368.155	169.81
368.366	85.84
368.577	26.45
368.788	124.76
368.999	-24.75
369.209	38.74
369.42	53.08
369.631	145.24
369.842	55.12
370.053	44.88
370.264	114.52
370.474	55.12
370.685	38.74
370.896	63.32
371.107	61.27
371.317	77.65
371.528	94.04
371.739	94.04
371.95	98.13
372.16	100.18
372.371	81.75
372.582	12.12
372.792	137.04
373.003	71.51
373.214	87.89
373.424	89.94
373.635	24.4
373.846	55.12
374.056	73.56
374.267	53.08
374.477	69.46
374.688	42.84
374.898	91.99
375.109	87.89
375.319	-0.17
375.53	91.99
375.74	106.32
375.951	55.12
376.161	118.61
376.372	106.32
376.582	8.02
376.793	55.12
377.003	71.51
377.214	46.93
377.424	73.56
377.635	32.6
377.845	83.8
378.055	108.37
378.266	53.08
378.476	-2.22
378.686	59.22
378.897	91.99
379.107	53.08
379.317	34.64
379.528	36.69
379.738	8.02
379.948	46.93
380.158	98.13
380.369	57.17
380.579	87.89
380.789	38.74
380.999	85.84
381.21	46.93
381.42	24.4
381.63	57.17
381.84	153.43
382.05	102.23
382.261	24.4
382.471	106.32
382.681	69.46
382.891	147.28
383.101	55.12
383.311	55.12
383.521	81.75
383.731	63.32
383.941	98.13
384.151	112.47
384.361	53.08
384.571	42.84
384.781	77.65
384.991	69.46
385.201	108.37
385.411	61.27
385.621	61.27
385.831	77.65
386.041	71.51
386.251	112.47
386.461	55.12
386.671	53.08
386.881	44.88
387.091	89.94
387.301	165.71
387.511	46.93
387.72	145.24
387.93	100.18
388.14	16.21
388.35	112.47
388.56	59.22
388.769	67.41
388.979	110.42
389.189	69.46
389.399	79.7
389.609	114.52
389.818	143.19
390.028	89.94
390.238	83.8
390.447	126.8
390.657	114.52
390.867	102.23
391.076	87.89
391.286	137.04
391.496	26.45
391.705	73.56
391.915	42.84
392.125	104.28
392.334	61.27
392.544	178
392.753	161.62
392.963	18.26
393.172	26.45
393.382	61.27
393.591	40.79
393.801	65.36
394.01	77.65
394.22	71.51
394.429	77.65
394.639	57.17
394.848	22.36
395.058	69.46
395.267	65.36
395.477	135
395.686	73.56
395.895	42.84
396.105	157.52
396.314	63.32
396.524	102.23
396.733	98.13
396.942	87.89
397.152	75.6
397.361	73.56
397.57	91.99
397.78	55.12
397.989	163.67
398.198	137.04
398.407	145.24
398.617	40.79
398.826	65.36
399.035	16.21
399.244	65.36
399.453	137.04
399.663	48.98
399.872	61.27
400.081	102.23
400.29	79.7
400.499	192.34
400.708	110.42
400.917	141.14
401.127	85.84
401.336	94.04
401.545	151.38
401.754	61.27
401.963	161.62
402.172	155.47
402.381	149.33
402.59	126.8
402.799	147.28
403.008	153.43
403.217	135
403.426	94.04
403.635	120.66
403.844	114.52
404.053	159.57
404.262	108.37
404.471	147.28
404.68	163.67
404.888	55.12
405.097	124.76
405.306	151.38
405.515	161.62
405.724	169.81
405.933	151.38
406.142	120.66
406.35	184.15
406.559	124.76
406.768	182.1
406.977	141.14
407.185	122.71
407.394	210.77
407.603	155.47
407.812	198.48
408.02	184.15
408.229	165.71
408.438	182.1
408.646	180.05
408.855	145.24
409.064	171.86
409.272	278.35
409.481	229.2
409.69	288.59
409.898	194.39
410.107	239.44
410.315	270.16
410.524	180.05
410.733	288.59
410.941	247.63
411.15	343.89
411.358	264.02
411.567	378.7
411.775	366.42
411.984	300.88
412.192	317.26
412.401	311.12
412.609	331.6
412.818	378.7
413.026	411.47
413.234	427.85
413.443	376.66
413.651	401.23
413.86	464.72
414.068	419.66
414.276	436.05
414.485	405.33
414.693	472.91
414.901	495.44
415.11	456.53
415.318	509.77
415.526	554.83
415.734	544.59
415.943	579.4
416.151	573.26
416.359	567.12
416.567	612.17
416.776	642.89
416.984	759.63
417.192	673.61
417.4	763.72
417.608	720.71
417.817	800.59
418.025	816.97
418.233	782.15
418.441	829.26
418.649	872.26
418.857	880.46
419.065	886.6
419.273	905.03
419.481	1009.48
419.689	1013.57
419.897	1099.59
420.105	1107.78
420.313	1101.64
420.521	1095.49
420.729	1158.98
420.937	1118.02
421.145	1206.08
421.353	1298.24
421.561	1230.66
421.769	1341.25
421.977	1349.44
422.185	1371.97
422.393	1417.02
422.601	1609.53
422.809	1570.62
423.017	1599.29
423.224	1744.7
423.432	1693.5
423.64	1816.38
423.848	1728.31
424.056	1777.47
424.263	1998.65
424.471	1881.91
424.679	1965.88
424.887	2148.15
425.094	2258.74
425.302	2260.79
425.51	2230.07
425.718	2254.64
425.925	2395.95
426.133	2535.21
426.341	2592.56
426.548	2731.82
426.756	2727.72
426.964	2705.2
427.171	2924.33
427.379	3061.54
427.586	3071.78
427.794	3231.52
428.001	3180.32
428.209	3481.38
428.417	3260.2
428.624	3548.96
428.832	3530.53
429.039	3503.9
429.247	3594.01
429.454	3925.79
429.662	4132.63
429.869	3798.81
430.076	4290.32
430.284	4120.34
430.491	4185.88
430.699	4448.02
430.906	4466.45
431.114	4409.11
431.321	4697.87
431.528	4763.4
431.736	5003.02
431.943	5388.04
432.15	5308.16
432.358	5193.48
432.565	5480.19
432.772	5596.93
432.979	5873.4
433.187	6029.05
433.394	5936.89
433.601	6481.65
433.808	6229.75
434.016	6401.78
434.223	6584.05
434.43	7022.31
434.637	6876.91
434.844	7202.54
435.052	7311.08
435.259	7554.79
435.466	7483.11
435.673	7272.17
435.88	7964.38
436.087	8429.27
436.294	8275.67
436.501	8212.18
436.708	8361.69
436.915	8482.52
437.122	8949.45
437.329	8957.64
437.537	9141.96
437.743	9430.73
437.95	9395.91
438.157	9823.94
438.364	10213.05
438.571	10092.22
438.778	10350.26
438.985	11165.35
439.192	10671.79
439.399	11091.63
439.606	10895.02
439.813	11685.54
440.02	12082.84
440.227	12164.76
440.433	11853.47
440.64	12383.9
440.847	12033.69
441.054	12226.2
441.261	13160.08
441.467	13115.02
441.674	13328.01
441.881	13723.27
442.088	13794.95
442.294	13715.08
442.501	13870.72
442.708	14595.7
442.914	15054.45
443.121	15609.45
443.328	15171.18
443.534	16272.99
443.741	15812.2
443.948	15672.93
444.154	16975.44
444.361	16680.53
444.568	16879.19
444.774	16776.79
444.981	17024.59
445.187	17344.08
445.394	18247.23
445.6	17987.14
445.807	19719.72
446.013	19015.22
446.22	19279.41
446.426	19928.61
446.633	20100.64
446.839	20495.9
447.046	19930.66
447.252	21171.73
447.459	21087.76
447.665	20973.08
447.871	22029.83
448.078	22750.71
448.284	21892.62
448.491	22248.96
448.697	23340.53
448.903	23662.06
449.11	23625.2
449.316	23535.09
449.522	23885.29
449.728	24534.49
449.935	24593.89
450.141	24585.69
450.347	24917.47
450.553	24415.71
450.76	24808.92
450.966	25527.76
451.172	25361.87
451.378	26078.66
451.584	25232.85
451.791	25826.76
451.997	25777.61
452.203	26279.36
452.409	26602.94
452.615	26557.89
452.821	25218.52
453.027	24780.25
453.233	26488.26
453.44	25353.68
453.646	25556.43
453.852	25886.15
454.058	26172.87
454.264	25425.36
454.47	26011.08
454.676	25320.91
454.882	26193.35
455.088	23983.59
455.294	24483.3
455.5	24888.79
455.705	24626.65
455.911	23903.72
456.117	23682.54
456.323	23299.57
456.529	22050.31
456.735	22916.6
456.941	22246.91
457.147	22072.84
457.352	21372.43
457.558	20948.5
457.764	21102.1
457.97	20708.89
458.176	20430.37
458.381	20495.9
458.587	19398.19
458.793	19506.73
458.999	18351.68
459.204	19711.53
459.41	19230.26
459.616	17903.17
459.821	17970.76
460.027	17694.28
460.233	17227.34
460.438	16563.8
460.644	16985.68
460.85	16051.81
461.055	15810.15
461.261	16080.48
461.466	14564.98
461.672	14253.69
461.878	15189.61
462.083	14134.91
462.289	14069.37
462.494	13696.64
462.7	13215.37
462.905	13016.72
463.111	13393.54
463.316	13475.46
463.522	13186.7
463.727	13176.46
463.932	13174.41
464.138	12994.19
464.343	13065.87
464.549	12656.28
464.754	13203.08
464.959	13076.11
465.165	12936.85
465.37	12418.71
465.575	12031.65
465.781	12535.45
465.986	12701.33
466.191	12439.19
466.397	12078.75
466.602	11419.3
466.807	11878.05
467.012	11896.48
467.218	11814.56
467.423	11640.48
467.628	11753.12
467.833	12232.35
468.038	11722.4
