Data from USB4F104151__29__12-53-36-786.txt Node

Date: Fri Mar 14 12:53:36 EDT 2025
User: louis
Spectrometer: USB4F10415
Trigger mode: 4
Integration Time (sec): 1.000000E-2
Scans to average: 1
Electric dark correction enabled: true
Nonlinearity correction enabled: false
Boxcar width: 0
XAxis mode: Wavelengths
Number of Pixels in Spectrum: 3648
>>>>>Begin Spectral Data<<<<<
178.204	-105.13
178.424	-105.13
178.644	-105.13
178.864	-33.45
179.084	-37.55
179.304	3.41
179.524	3.41
179.744	-27.31
179.964	-29.35
180.184	-12.97
180.404	-27.31
180.624	36.18
180.844	15.7
181.064	-10.92
181.283	-4.78
181.503	30.04
181.723	23.89
181.943	21.84
182.163	42.32
182.383	30.04
182.602	17.75
182.822	-64.17
183.042	36.18
183.262	-29.35
183.482	21.84
183.701	-12.97
183.921	38.23
184.141	-94.89
184.361	19.8
184.58	-43.69
184.8	-90.79
185.02	83.28
185.239	-6.83
185.459	-19.11
185.679	-25.26
185.898	-43.69
186.118	46.42
186.338	13.65
186.557	-27.31
186.777	-41.64
186.997	11.61
187.216	17.75
187.436	1.37
187.655	11.61
187.875	-25.26
188.095	-68.27
188.314	-25.26
188.534	17.75
188.753	-45.74
188.973	17.75
189.192	23.89
189.412	23.89
189.631	-0.68
189.851	11.61
190.07	46.42
190.29	-101.03
190.509	58.71
190.729	-4.78
190.948	3.41
191.168	40.28
191.387	3.41
191.607	30.04
191.826	-6.83
192.045	-10.92
192.265	-6.83
192.484	-29.35
192.704	34.13
192.923	-72.36
193.142	-21.16
193.362	-37.55
193.581	-8.87
193.8	-25.26
194.02	13.65
194.239	-58.03
194.458	46.42
194.678	46.42
194.897	15.7
195.116	15.7
195.335	-80.55
195.555	36.18
195.774	17.75
195.993	15.7
196.212	-45.74
196.432	1.37
196.651	-10.92
196.87	3.41
197.089	-74.41
197.308	93.52
197.528	-0.68
197.747	7.51
197.966	-17.07
198.185	-10.92
198.404	27.99
198.623	9.56
198.842	32.08
199.062	32.08
199.281	-4.78
199.5	-33.45
199.719	73.04
199.938	17.75
200.157	-6.83
200.376	58.71
200.595	71
200.814	-39.59
201.033	-8.87
201.252	3.41
201.471	-10.92
201.69	-2.73
201.909	-2.73
202.128	42.32
202.347	25.94
202.566	-72.36
202.785	32.08
203.004	56.66
203.223	38.23
203.442	-10.92
203.661	64.85
203.879	-80.55
204.098	52.56
204.317	42.32
204.536	9.56
204.755	36.18
204.974	56.66
205.193	-0.68
205.411	13.65
205.63	62.8
205.849	60.76
206.068	42.32
206.287	11.61
206.505	54.61
206.724	3.41
206.943	50.52
207.162	52.56
207.381	-8.87
207.599	9.56
207.818	23.89
208.037	66.9
208.255	-53.93
208.474	-33.45
208.693	9.56
208.911	-8.87
209.13	11.61
209.349	97.62
209.567	54.61
209.786	17.75
210.005	-41.64
210.223	77.14
210.442	-51.88
210.661	-45.74
210.879	-37.55
211.098	5.46
211.316	-15.02
211.535	21.84
211.753	5.46
211.972	-29.35
212.191	-25.26
212.409	7.51
212.628	1.37
212.846	7.51
213.065	-39.59
213.283	23.89
213.502	-60.07
213.72	7.51
213.938	-29.35
214.157	13.65
214.375	71
214.594	15.7
214.812	-37.55
215.031	-33.45
215.249	-25.26
215.467	5.46
215.686	13.65
215.904	27.99
216.122	25.94
216.341	27.99
216.559	-15.02
216.778	9.56
216.996	19.8
217.214	30.04
217.432	-68.27
217.651	-31.4
217.869	-107.18
218.087	-10.92
218.306	-2.73
218.524	9.56
218.742	7.51
218.96	-37.55
219.179	17.75
219.397	7.51
219.615	11.61
219.833	-68.27
220.051	52.56
220.27	-17.07
220.488	3.41
220.706	32.08
220.924	-37.55
221.142	75.09
221.36	-17.07
221.578	-37.55
221.796	13.65
222.015	3.41
222.233	-23.21
222.451	23.89
222.669	15.7
222.887	38.23
223.105	-47.79
223.323	32.08
223.541	-62.12
223.759	30.04
223.977	36.18
224.195	87.38
224.413	1.37
224.631	19.8
224.849	11.61
225.067	3.41
225.285	56.66
225.503	-43.69
225.721	-55.98
225.939	1.37
226.157	27.99
226.375	36.18
226.592	-55.98
226.81	40.28
227.028	-60.07
227.246	83.28
227.464	-68.27
227.682	-4.78
227.9	11.61
228.117	-41.64
228.335	36.18
228.553	9.56
228.771	-2.73
228.989	30.04
229.206	-2.73
229.424	-146.09
229.642	7.51
229.86	-51.88
230.077	-8.87
230.295	-41.64
230.513	11.61
230.731	40.28
230.948	-2.73
231.166	46.42
231.384	1.37
231.601	-2.73
231.819	93.52
232.037	-96.94
232.254	19.8
232.472	15.7
232.689	7.51
232.907	-8.87
233.125	-23.21
233.342	32.08
233.56	-8.87
233.777	-0.68
233.995	-53.93
234.213	-43.69
234.43	36.18
234.648	-15.02
234.865	7.51
235.083	-27.31
235.3	5.46
235.518	15.7
235.735	56.66
235.953	40.28
236.17	-62.12
236.388	52.56
236.605	75.09
236.822	75.09
237.04	25.94
237.257	-23.21
237.475	-21.16
237.692	-12.97
237.909	5.46
238.127	30.04
238.344	-37.55
238.562	-27.31
238.779	17.75
238.996	-0.68
239.214	15.7
239.431	-0.68
239.648	-35.5
239.865	9.56
240.083	-43.69
240.3	-2.73
240.517	17.75
240.735	-15.02
240.952	3.41
241.169	101.72
241.386	40.28
241.603	23.89
241.821	-23.21
242.038	68.95
242.255	48.47
242.472	25.94
242.689	40.28
242.907	-31.4
243.124	11.61
243.341	13.65
243.558	-90.79
243.775	-10.92
243.992	64.85
244.209	56.66
244.426	34.13
244.643	-15.02
244.86	-33.45
245.078	-33.45
245.295	-25.26
245.512	46.42
245.729	-43.69
245.946	-49.83
246.163	7.51
246.38	42.32
246.597	-6.83
246.814	-6.83
247.031	-10.92
247.248	11.61
247.464	87.38
247.681	40.28
247.898	1.37
248.115	-39.59
248.332	-39.59
248.549	-25.26
248.766	42.32
248.983	36.18
249.2	-0.68
249.417	-35.5
249.633	-39.59
249.85	58.71
250.067	36.18
250.284	19.8
250.501	79.19
250.717	-15.02
250.934	34.13
251.151	5.46
251.368	-27.31
251.585	50.52
251.801	3.41
252.018	21.84
252.235	17.75
252.451	64.85
252.668	-10.92
252.885	60.76
253.102	13.65
253.318	23.89
253.535	7.51
253.752	-12.97
253.968	19.8
254.185	7.51
254.401	-23.21
254.618	19.8
254.835	-37.55
255.051	97.62
255.268	38.23
255.484	-12.97
255.701	11.61
255.917	23.89
256.134	5.46
256.351	73.04
256.567	-6.83
256.784	85.33
257	9.56
257.217	27.99
257.433	1.37
257.65	17.75
257.866	34.13
258.082	-2.73
258.299	13.65
258.515	27.99
258.732	-31.4
258.948	-2.73
259.165	-19.11
259.381	-47.79
259.597	-23.21
259.814	64.85
260.03	-45.74
260.246	-58.03
260.463	40.28
260.679	-10.92
260.895	34.13
261.112	-0.68
261.328	21.84
261.544	38.23
261.761	13.65
261.977	-8.87
262.193	15.7
262.409	25.94
262.626	64.85
262.842	111.96
263.058	56.66
263.274	17.75
263.49	23.89
263.707	-0.68
263.923	44.37
264.139	-25.26
264.355	-39.59
264.571	42.32
264.787	5.46
265.004	-37.55
265.22	23.89
265.436	40.28
265.652	11.61
265.868	93.52
266.084	-12.97
266.3	7.51
266.516	19.8
266.732	25.94
266.948	-35.5
267.164	-39.59
267.38	-27.31
267.596	17.75
267.812	-47.79
268.028	-23.21
268.244	-10.92
268.46	40.28
268.676	-33.45
268.892	-43.69
269.108	7.51
269.324	-82.6
269.54	-33.45
269.756	-6.83
269.972	-53.93
270.188	-43.69
270.403	23.89
270.619	3.41
270.835	30.04
271.051	46.42
271.267	42.32
271.483	-39.59
271.698	11.61
271.914	42.32
272.13	-12.97
272.346	5.46
272.562	-10.92
272.777	-31.4
272.993	34.13
273.209	19.8
273.425	21.84
273.64	7.51
273.856	58.71
274.072	-4.78
274.287	36.18
274.503	42.32
274.719	-19.11
274.934	1.37
275.15	-2.73
275.366	-10.92
275.581	-27.31
275.797	15.7
276.012	60.76
276.228	-2.73
276.444	-66.22
276.659	-17.07
276.875	38.23
277.09	40.28
277.306	17.75
277.521	40.28
277.737	-15.02
277.952	99.67
278.168	25.94
278.383	7.51
278.599	-43.69
278.814	7.51
279.03	79.19
279.245	23.89
279.461	46.42
279.676	7.51
279.892	-21.16
280.107	66.9
280.322	75.09
280.538	40.28
280.753	-29.35
280.969	81.24
281.184	25.94
281.399	-6.83
281.615	23.89
281.83	21.84
282.045	36.18
282.26	-31.4
282.476	-51.88
282.691	21.84
282.906	5.46
283.122	85.33
283.337	1.37
283.552	64.85
283.767	-0.68
283.983	-21.16
284.198	36.18
284.413	-10.92
284.628	23.89
284.843	36.18
285.058	21.84
285.274	-47.79
285.489	-12.97
285.704	-10.92
285.919	30.04
286.134	118.1
286.349	21.84
286.564	27.99
286.779	21.84
286.995	-53.93
287.21	11.61
287.425	-6.83
287.64	-37.55
287.855	50.52
288.07	15.7
288.285	19.8
288.5	-23.21
288.715	7.51
288.93	-0.68
289.145	44.37
289.36	34.13
289.575	23.89
289.79	99.67
290.004	52.56
290.219	73.04
290.434	21.84
290.649	-33.45
290.864	-12.97
291.079	66.9
291.294	-21.16
291.509	-64.17
291.724	23.89
291.938	-0.68
292.153	46.42
292.368	-35.5
292.583	52.56
292.798	-29.35
293.012	23.89
293.227	-17.07
293.442	-17.07
293.657	66.9
293.871	15.7
294.086	-15.02
294.301	95.57
294.516	46.42
294.73	85.33
294.945	3.41
295.16	-37.55
295.374	-17.07
295.589	56.66
295.804	-17.07
296.018	48.47
296.233	32.08
296.447	1.37
296.662	-2.73
296.877	-12.97
297.091	1.37
297.306	21.84
297.52	-10.92
297.735	-0.68
297.949	17.75
298.164	-23.21
298.378	11.61
298.593	15.7
298.807	-33.45
299.022	15.7
299.236	9.56
299.451	-29.35
299.665	36.18
299.88	-39.59
300.094	23.89
300.309	-0.68
300.523	9.56
300.737	105.81
300.952	34.13
301.166	52.56
301.381	11.61
301.595	-33.45
301.809	-60.07
302.024	-23.21
302.238	38.23
302.452	21.84
302.667	48.47
302.881	-37.55
303.095	-60.07
303.309	17.75
303.524	-23.21
303.738	1.37
303.952	-8.87
304.166	30.04
304.381	-55.98
304.595	40.28
304.809	17.75
305.023	30.04
305.237	-10.92
305.452	-19.11
305.666	-35.5
305.88	40.28
306.094	21.84
306.308	-4.78
306.522	-29.35
306.736	-39.59
306.95	56.66
307.164	30.04
307.379	36.18
307.593	50.52
307.807	-82.6
308.021	-39.59
308.235	-80.55
308.449	56.66
308.663	-66.22
308.877	62.8
309.091	21.84
309.305	-25.26
309.519	5.46
309.733	50.52
309.947	-47.79
310.161	32.08
310.374	-25.26
310.588	46.42
310.802	13.65
311.016	-0.68
311.23	7.51
311.444	-23.21
311.658	-23.21
311.872	30.04
312.085	11.61
312.299	40.28
312.513	32.08
312.727	-10.92
312.941	-15.02
313.154	19.8
313.368	-8.87
313.582	-96.94
313.796	-2.73
314.009	79.19
314.223	-4.78
314.437	56.66
314.651	-12.97
314.864	25.94
315.078	11.61
315.292	60.76
315.505	-37.55
315.719	-19.11
315.933	-4.78
316.146	-21.16
316.36	9.56
316.573	38.23
316.787	-0.68
317.001	-17.07
317.214	73.04
317.428	42.32
317.641	34.13
317.855	-19.11
318.068	11.61
318.282	15.7
318.495	-0.68
318.709	-23.21
318.922	21.84
319.136	17.75
319.349	11.61
319.563	9.56
319.776	-6.83
319.99	23.89
320.203	32.08
320.417	-70.31
320.63	-43.69
320.843	-4.78
321.057	52.56
321.27	36.18
321.483	23.89
321.697	42.32
321.91	44.37
322.124	15.7
322.337	-29.35
322.55	-6.83
322.763	79.19
322.977	54.61
323.19	64.85
323.403	-33.45
323.617	-10.92
323.83	56.66
324.043	71
324.256	32.08
324.469	7.51
324.683	21.84
324.896	17.75
325.109	38.23
325.322	-98.99
325.535	-68.27
325.748	-60.07
325.962	-29.35
326.175	5.46
326.388	38.23
326.601	21.84
326.814	36.18
327.027	46.42
327.24	75.09
327.453	11.61
327.666	-8.87
327.879	-51.88
328.092	36.18
328.305	30.04
328.518	19.8
328.731	44.37
328.944	58.71
329.157	30.04
329.37	-27.31
329.583	40.28
329.796	-27.31
330.009	44.37
330.222	71
330.435	42.32
330.648	-25.26
330.861	-47.79
331.073	-15.02
331.286	-47.79
331.499	105.81
331.712	-25.26
331.925	13.65
332.138	36.18
332.35	66.9
332.563	-49.83
332.776	13.65
332.989	38.23
333.202	-21.16
333.414	21.84
333.627	-19.11
333.84	-8.87
334.053	-31.4
334.265	7.51
334.478	40.28
334.691	-66.22
334.903	105.81
335.116	19.8
335.329	46.42
335.541	21.84
335.754	38.23
335.966	-0.68
336.179	48.47
336.392	23.89
336.604	-12.97
336.817	-10.92
337.029	-25.26
337.242	1.37
337.454	32.08
337.667	21.84
337.88	-2.73
338.092	-35.5
338.305	23.89
338.517	-0.68
338.729	21.84
338.942	-47.79
339.154	15.7
339.367	56.66
339.579	38.23
339.792	17.75
340.004	66.9
340.217	48.47
340.429	-8.87
340.641	111.96
340.854	3.41
341.066	21.84
341.278	23.89
341.491	-21.16
341.703	-51.88
341.915	-12.97
342.128	-47.79
342.34	23.89
342.552	23.89
342.764	11.61
342.977	-19.11
343.189	-33.45
343.401	13.65
343.613	-31.4
343.826	-19.11
344.038	44.37
344.25	46.42
344.462	-58.03
344.674	-8.87
344.886	83.28
345.099	71
345.311	50.52
345.523	38.23
345.735	13.65
345.947	44.37
346.159	5.46
346.371	52.56
346.583	50.52
346.795	32.08
347.007	23.89
347.219	5.46
347.431	71
347.643	23.89
347.855	36.18
348.067	60.76
348.279	-2.73
348.491	7.51
348.703	34.13
348.915	-15.02
349.127	-4.78
349.339	-8.87
349.551	5.46
349.763	5.46
349.975	-12.97
350.187	89.43
350.399	7.51
350.61	101.72
350.822	27.99
351.034	21.84
351.246	71
351.458	66.9
351.669	-37.55
351.881	-31.4
352.093	-23.21
352.305	60.76
352.517	62.8
352.728	27.99
352.94	-29.35
353.152	19.8
353.363	-2.73
353.575	30.04
353.787	-51.88
353.999	-49.83
354.21	5.46
354.422	-23.21
354.633	-35.5
354.845	71
355.057	38.23
355.268	-19.11
355.48	9.56
355.692	34.13
355.903	1.37
356.115	7.51
356.326	-2.73
356.538	75.09
356.749	52.56
356.961	30.04
357.172	34.13
357.384	-19.11
357.595	64.85
357.807	1.37
358.018	-19.11
358.23	19.8
358.441	85.33
358.653	40.28
358.864	27.99
359.075	97.62
359.287	-25.26
359.498	38.23
359.709	48.47
359.921	-49.83
360.132	17.75
360.344	75.09
360.555	-21.16
360.766	17.75
360.977	64.85
361.189	73.04
361.4	25.94
361.611	13.65
361.823	-17.07
362.034	38.23
362.245	-74.41
362.456	11.61
362.667	7.51
362.879	23.89
363.09	5.46
363.301	-8.87
363.512	1.37
363.723	21.84
363.935	13.65
364.146	11.61
364.357	38.23
364.568	-19.11
364.779	48.47
364.99	30.04
365.201	25.94
365.412	83.28
365.623	-31.4
365.834	50.52
366.045	-31.4
366.256	54.61
366.467	64.85
366.678	-12.97
366.889	27.99
367.1	58.71
367.311	32.08
367.522	56.66
367.733	36.18
367.944	-8.87
368.155	23.89
368.366	50.52
368.577	60.76
368.788	-8.87
368.999	38.23
369.209	5.46
369.42	42.32
369.631	73.04
369.842	-17.07
370.053	-78.51
370.264	56.66
370.474	25.94
370.685	-60.07
370.896	-35.5
371.107	19.8
371.317	-4.78
371.528	25.94
371.739	25.94
371.95	75.09
372.16	60.76
372.371	27.99
372.582	95.57
372.792	-41.64
373.003	46.42
373.214	56.66
373.424	36.18
373.635	44.37
373.846	17.75
374.056	50.52
374.267	34.13
374.477	11.61
374.688	-2.73
374.898	-12.97
375.109	36.18
375.319	32.08
375.53	73.04
375.74	-8.87
375.951	-17.07
376.161	36.18
376.372	30.04
376.582	9.56
376.793	30.04
377.003	-12.97
377.214	48.47
377.424	-10.92
377.635	5.46
377.845	-12.97
378.055	-23.21
378.266	23.89
378.476	-15.02
378.686	83.28
378.897	89.43
379.107	-2.73
379.317	1.37
379.528	-70.31
379.738	9.56
379.948	-72.36
380.158	-2.73
380.369	58.71
380.579	13.65
380.789	-35.5
380.999	87.38
381.21	9.56
381.42	34.13
381.63	5.46
381.84	68.95
382.05	25.94
382.261	50.52
382.471	83.28
382.681	60.76
382.891	71
383.101	32.08
383.311	-60.07
383.521	40.28
383.731	21.84
383.941	54.61
384.151	7.51
384.361	50.52
384.571	-23.21
384.781	-6.83
384.991	66.9
385.201	38.23
385.411	30.04
385.621	36.18
385.831	-37.55
386.041	81.24
386.251	25.94
386.461	68.95
386.671	17.75
386.881	-2.73
387.091	13.65
387.301	52.56
387.511	-10.92
387.72	73.04
387.93	81.24
388.14	68.95
388.35	-19.11
388.56	5.46
388.769	46.42
388.979	21.84
389.189	40.28
389.399	-17.07
389.609	-31.4
389.818	58.71
390.028	30.04
390.238	-4.78
390.447	21.84
390.657	54.61
390.867	71
391.076	-21.16
391.286	58.71
391.496	30.04
391.705	-2.73
391.915	66.9
392.125	46.42
392.334	13.65
392.544	114
392.753	79.19
392.963	-70.31
393.172	46.42
393.382	40.28
393.591	30.04
393.801	21.84
394.01	48.47
394.22	73.04
394.429	50.52
394.639	118.1
394.848	64.85
395.058	1.37
395.267	36.18
395.477	1.37
395.686	30.04
395.895	73.04
396.105	60.76
396.314	-10.92
396.524	79.19
396.733	3.41
396.942	111.96
397.152	9.56
397.361	103.76
397.57	48.47
397.78	71
397.989	64.85
398.198	109.91
398.407	30.04
398.617	36.18
398.826	56.66
399.035	66.9
399.244	77.14
399.453	87.38
399.663	103.76
399.872	79.19
400.081	-2.73
400.29	87.38
400.499	105.81
400.708	107.86
400.917	-2.73
401.127	-25.26
401.336	54.61
401.545	79.19
401.754	68.95
401.963	38.23
402.172	85.33
402.381	3.41
402.59	75.09
402.799	5.46
403.008	132.44
403.217	132.44
403.426	17.75
403.635	48.47
403.844	89.43
404.053	89.43
404.262	99.67
404.471	81.24
404.68	91.48
404.888	44.37
405.097	75.09
405.306	116.05
405.515	93.52
405.724	126.29
405.933	111.96
406.142	73.04
406.35	83.28
406.559	134.48
406.768	38.23
406.977	136.53
407.185	50.52
407.394	130.39
407.603	93.52
407.812	36.18
408.02	132.44
408.229	97.62
408.438	177.49
408.646	118.1
408.855	95.57
409.064	64.85
409.272	124.24
409.481	191.83
409.69	136.53
409.898	210.26
410.107	154.96
410.315	167.25
410.524	212.31
410.733	128.34
410.941	175.44
411.15	167.25
411.358	175.44
411.567	261.46
411.775	169.3
411.984	238.93
412.192	216.4
412.401	304.46
412.609	234.83
412.818	333.14
413.026	261.46
413.234	249.17
413.443	333.14
413.651	279.89
413.86	355.66
414.068	374.1
414.276	300.37
414.485	286.03
414.693	304.46
414.901	488.78
415.11	437.58
415.318	345.42
415.526	415.05
415.734	433.49
415.943	458.06
416.151	464.21
416.359	390.48
416.567	468.3
416.776	441.68
416.984	593.23
417.192	537.93
417.4	499.02
417.608	507.21
417.817	574.8
418.025	642.38
418.233	642.38
418.441	630.09
418.649	662.86
418.857	765.26
419.065	752.97
419.273	695.63
419.481	791.88
419.689	720.2
419.897	744.78
420.105	828.74
420.313	896.33
420.521	869.7
420.729	916.81
420.937	892.23
421.145	972.1
421.353	961.86
421.561	1142.08
421.769	1078.6
421.977	1168.71
422.185	1121.6
422.393	1267.01
422.601	1312.07
422.809	1226.05
423.017	1248.58
423.224	1301.83
423.432	1400.13
423.64	1316.16
423.848	1508.67
424.056	1457.47
424.263	1572.16
424.471	1613.12
424.679	1563.97
424.887	1631.55
425.094	1674.56
425.302	1740.09
425.51	1846.59
425.718	1854.78
425.925	1871.16
426.133	1924.41
426.341	2049.33
426.548	2137.4
426.756	2196.79
426.964	2219.32
427.171	2290.99
427.379	2379.06
427.586	2493.74
427.794	2610.48
428.001	2641.2
428.209	2749.74
428.417	2680.11
428.624	2909.48
428.832	2927.91
429.039	2938.15
429.247	2848.04
429.454	3159.33
429.662	3347.75
429.869	3134.76
430.076	3265.83
430.284	3241.25
430.491	3489.06
430.699	3663.13
430.906	3622.17
431.114	3609.89
431.321	3792.16
431.528	3798.3
431.736	4125.97
431.943	4357.39
432.15	4132.12
432.358	4271.38
432.565	4394.26
432.772	4508.94
432.979	4713.74
433.187	4801.8
433.394	4883.72
433.601	5248.26
433.808	5014.79
434.016	5119.24
434.223	5391.62
434.43	5848.32
434.637	5436.67
434.844	5876.99
435.052	5963
435.259	5893.37
435.466	6016.25
435.673	6046.97
435.88	6378.74
436.087	6681.84
436.294	6642.93
436.501	6587.63
436.708	6745.33
436.915	7062.76
437.122	7107.82
437.329	7214.31
437.537	7494.88
437.743	7533.79
437.95	7656.67
438.157	7877.85
438.364	8307.93
438.571	8236.25
438.778	8363.22
438.985	9123.02
439.192	8742.1
439.399	8828.11
439.606	8809.68
439.813	9092.3
440.02	9671.87
440.227	9532.61
440.433	9401.54
440.64	10054.84
440.847	9829.57
441.054	10200.25
441.261	10599.6
441.467	10570.93
441.674	10783.92
441.881	11044.01
442.088	11087.02
442.294	11005.1
442.501	11134.12
442.708	11527.33
442.914	11941.02
443.121	12522.65
443.328	12176.54
443.534	13051.02
443.741	12747.92
443.948	12510.36
444.154	13616.26
444.361	13497.48
444.568	13575.3
444.774	13552.77
444.981	13624.45
445.187	14029.95
445.394	14783.6
445.6	14480.5
445.807	16043.1
446.013	15135.85
446.22	15412.33
446.426	16039.01
446.633	16208.99
446.839	16915.54
447.046	16143.45
447.252	17437.77
447.459	17202.25
447.665	16852.05
447.871	17835.08
448.078	18519.1
448.284	17691.72
448.491	18095.17
448.697	18631.74
448.903	19344.43
449.11	19231.79
449.316	18988.08
449.522	19137.59
449.728	19825.7
449.935	19917.86
450.141	19850.28
450.347	20511.77
450.553	19868.71
450.76	20053.03
450.966	20851.74
451.172	20605.98
451.378	20952.09
451.584	20698.14
451.791	21038.1
451.997	20976.66
452.203	21523.47
452.409	21369.87
452.615	21183.51
452.821	20519.96
453.027	20497.44
453.233	21185.55
453.44	20741.14
453.646	20689.95
453.852	20859.93
454.058	21185.55
454.264	20456.48
454.47	21197.84
454.676	20634.65
454.882	21437.45
455.088	19690.54
455.294	19395.63
455.5	19844.13
455.705	20245.54
455.911	19547.18
456.117	18797.62
456.323	18848.82
456.529	18119.74
456.735	18652.22
456.941	18297.92
457.147	17847.36
457.352	17312.85
457.558	17081.42
457.764	16956.5
457.97	16774.23
458.176	16624.73
458.381	16571.48
458.587	15524.97
458.793	15768.68
458.999	14791.8
459.204	15899.75
459.41	15539.3
459.616	14513.27
459.821	14673.01
460.027	14560.38
460.233	14115.97
460.438	13624.45
460.644	13741.19
460.85	12956.82
461.055	12747.92
461.261	13065.36
461.466	12092.57
461.672	11416.74
461.878	12416.15
462.083	11752.61
462.289	11553.96
462.494	11164.84
462.7	10796.21
462.905	10605.75
463.111	10955.95
463.316	10943.66
463.522	10681.52
463.727	10755.25
463.932	10605.75
464.138	10421.43
464.343	10724.53
464.549	10263.74
464.754	10568.88
464.959	10482.87
465.165	10529.97
465.37	10024.12
465.575	9702.59
465.781	10210.49
465.986	10310.84
466.191	9876.67
466.397	9796.8
466.602	9192.65
466.807	9794.75
467.012	9503.94
467.218	9645.25
467.423	9667.78
467.628	9565.38
467.833	9915.58
