Data from USB4F104151__16__12-53-21-788.txt Node

Date: Fri Mar 14 12:53:21 EDT 2025
User: louis
Spectrometer: USB4F10415
Trigger mode: 4
Integration Time (sec): 1.000000E-2
Scans to average: 1
Electric dark correction enabled: true
Nonlinearity correction enabled: false
Boxcar width: 0
XAxis mode: Wavelengths
Number of Pixels in Spectrum: 3648
>>>>>Begin Spectral Data<<<<<
178.204	-56.49
178.424	-56.49
178.644	-56.49
178.864	-25.77
179.084	-52.39
179.304	-58.54
179.524	-11.43
179.744	-23.72
179.964	-3.24
180.184	33.62
180.404	27.48
180.624	45.91
180.844	-50.35
181.064	-15.53
181.283	47.96
181.503	23.38
181.723	-15.53
181.943	11.09
182.163	41.81
182.383	-81.07
182.602	15.19
182.822	-17.58
183.042	-9.39
183.262	33.62
183.482	-46.25
183.701	-9.39
183.921	-76.97
184.141	-44.2
184.361	-17.58
184.58	4.95
184.8	-11.43
185.02	0.85
185.239	58.2
185.459	54.1
185.679	31.57
185.898	19.29
186.118	-50.35
186.338	66.39
186.557	68.44
186.777	74.58
186.997	-13.48
187.216	-21.67
187.436	78.68
187.655	4.95
187.875	56.15
188.095	-93.35
188.314	7
188.534	41.81
188.753	-5.29
188.973	86.87
189.192	11.09
189.412	25.43
189.631	7
189.851	-21.67
190.07	95.06
190.29	47.96
190.509	33.62
190.729	-40.11
190.948	-1.19
191.168	-9.39
191.387	19.29
191.607	41.81
191.826	29.52
192.045	-15.53
192.265	-48.3
192.484	-48.3
192.704	4.95
192.923	-31.91
193.142	-40.11
193.362	-21.67
193.581	62.29
193.8	-40.11
194.02	-21.67
194.239	-38.06
194.458	-36.01
194.678	-5.29
194.897	13.14
195.116	-17.58
195.335	-17.58
195.555	21.33
195.774	-52.39
195.993	-9.39
196.212	52.05
196.432	-11.43
196.651	27.48
196.87	-27.82
197.089	78.68
197.308	-19.63
197.528	56.15
197.747	11.09
197.966	41.81
198.185	76.63
198.404	0.85
198.623	-23.72
198.842	-36.01
199.062	-3.24
199.281	-21.67
199.5	27.48
199.719	39.76
199.938	17.24
200.157	0.85
200.376	-93.35
200.595	0.85
200.814	35.67
201.033	-1.19
201.252	7
201.471	23.38
201.69	-46.25
201.909	-21.67
202.128	62.29
202.347	58.2
202.566	-52.39
202.785	-42.15
203.004	-46.25
203.223	7
203.442	68.44
203.661	27.48
203.879	50
204.098	-40.11
204.317	-19.63
204.536	31.57
204.755	-9.39
204.974	-11.43
205.193	-3.24
205.411	-5.29
205.63	-36.01
205.849	37.72
206.068	-21.67
206.287	23.38
206.505	2.9
206.724	43.86
206.943	15.19
207.162	47.96
207.381	-19.63
207.599	-23.72
207.818	-64.68
208.037	-11.43
208.255	-1.19
208.474	-1.19
208.693	-5.29
208.911	7
209.13	-25.77
209.349	9.05
209.567	19.29
209.786	29.52
210.005	-5.29
210.223	-15.53
210.442	-21.67
210.661	17.24
210.879	9.05
211.098	31.57
211.316	-15.53
211.535	-1.19
211.753	-56.49
211.972	13.14
212.191	0.85
212.409	-7.34
212.628	64.34
212.846	11.09
213.065	-36.01
213.283	-3.24
213.502	60.24
213.72	86.87
213.938	-54.44
214.157	-27.82
214.375	35.67
214.594	-23.72
214.812	-29.87
215.031	17.24
215.249	39.76
215.467	33.62
215.686	23.38
215.904	45.91
216.122	60.24
216.341	62.29
216.559	21.33
216.778	-1.19
216.996	-74.92
217.214	33.62
217.432	15.19
217.651	-36.01
217.869	-1.19
218.087	45.91
218.306	-31.91
218.524	7
218.742	-13.48
218.96	43.86
219.179	50
219.397	33.62
219.615	19.29
219.833	-15.53
220.051	-33.96
220.27	7
220.488	-15.53
220.706	35.67
220.924	27.48
221.142	41.81
221.36	21.33
221.578	17.24
221.796	-23.72
222.015	113.49
222.233	9.05
222.451	11.09
222.669	-25.77
222.887	-3.24
223.105	-3.24
223.323	70.48
223.541	103.25
223.759	19.29
223.977	64.34
224.195	45.91
224.413	-15.53
224.631	62.29
224.849	50
225.067	21.33
225.285	-74.92
225.503	62.29
225.721	23.38
225.939	23.38
226.157	52.05
226.375	33.62
226.592	-33.96
226.81	17.24
227.028	11.09
227.246	25.43
227.464	25.43
227.682	47.96
227.9	41.81
228.117	54.1
228.335	-54.44
228.553	-1.19
228.771	50
228.989	35.67
229.206	-17.58
229.424	23.38
229.642	15.19
229.86	84.82
230.077	-21.67
230.295	52.05
230.513	15.19
230.731	31.57
230.948	-1.19
231.166	45.91
231.384	-27.82
231.601	33.62
231.819	-13.48
232.037	33.62
232.254	13.14
232.472	11.09
232.689	68.44
232.907	-76.97
233.125	-36.01
233.342	-23.72
233.56	-13.48
233.777	4.95
233.995	29.52
234.213	29.52
234.43	15.19
234.648	-11.43
234.865	19.29
235.083	7
235.3	21.33
235.518	47.96
235.735	-15.53
235.953	33.62
236.17	0.85
236.388	2.9
236.605	-31.91
236.822	-13.48
237.04	-25.77
237.257	13.14
237.475	50
237.692	23.38
237.909	-3.24
238.127	7
238.344	76.63
238.562	13.14
238.779	-52.39
238.996	-40.11
239.214	-15.53
239.431	68.44
239.648	-9.39
239.865	15.19
240.083	-87.21
240.3	31.57
240.517	56.15
240.735	-54.44
240.952	-7.34
241.169	21.33
241.386	-5.29
241.603	70.48
241.821	-19.63
242.038	-17.58
242.255	-27.82
242.472	-19.63
242.689	62.29
242.907	-58.54
243.124	31.57
243.341	4.95
243.558	-15.53
243.775	41.81
243.992	-3.24
244.209	60.24
244.426	0.85
244.643	80.72
244.86	-27.82
245.078	-25.77
245.295	4.95
245.512	-60.59
245.729	-13.48
245.946	-13.48
246.163	4.95
246.38	-27.82
246.597	31.57
246.814	47.96
247.031	29.52
247.248	37.72
247.464	54.1
247.681	2.9
247.898	39.76
248.115	7
248.332	-11.43
248.549	47.96
248.766	21.33
248.983	43.86
249.2	13.14
249.417	58.2
249.633	-38.06
249.85	-64.68
250.067	2.9
250.284	-29.87
250.501	64.34
250.717	-23.72
250.934	45.91
251.151	7
251.368	-27.82
251.585	45.91
251.801	45.91
252.018	82.77
252.235	39.76
252.451	4.95
252.668	-15.53
252.885	80.72
253.102	54.1
253.318	-42.15
253.535	50
253.752	-33.96
253.968	50
254.185	-13.48
254.401	39.76
254.618	37.72
254.835	19.29
255.051	29.52
255.268	-13.48
255.484	29.52
255.701	31.57
255.917	-19.63
256.134	-58.54
256.351	21.33
256.567	-5.29
256.784	21.33
257	-25.77
257.217	21.33
257.433	54.1
257.65	29.52
257.866	-33.96
258.082	-25.77
258.299	-38.06
258.515	58.2
258.732	15.19
258.948	-29.87
259.165	17.24
259.381	31.57
259.597	-36.01
259.814	9.05
260.03	-5.29
260.246	68.44
260.463	11.09
260.679	66.39
260.895	-29.87
261.112	27.48
261.328	-25.77
261.544	-36.01
261.761	60.24
261.977	-50.35
262.193	-31.91
262.409	-21.67
262.626	-23.72
262.842	76.63
263.058	-17.58
263.274	-33.96
263.49	-56.49
263.707	-36.01
263.923	-9.39
264.139	-29.87
264.355	9.05
264.571	58.2
264.787	-48.3
265.004	-5.29
265.22	58.2
265.436	-9.39
265.652	21.33
265.868	-19.63
266.084	0.85
266.3	13.14
266.516	31.57
266.732	41.81
266.948	17.24
267.164	31.57
267.38	33.62
267.596	23.38
267.812	-3.24
268.028	-11.43
268.244	-60.59
268.46	25.43
268.676	56.15
268.892	-17.58
269.108	60.24
269.324	-60.59
269.54	-33.96
269.756	37.72
269.972	-31.91
270.188	93.01
270.403	23.38
270.619	7
270.835	64.34
271.051	50
271.267	-1.19
271.483	52.05
271.698	25.43
271.914	7
272.13	29.52
272.346	0.85
272.562	70.48
272.777	47.96
272.993	2.9
273.209	-50.35
273.425	-5.29
273.64	4.95
273.856	-9.39
274.072	21.33
274.287	7
274.503	19.29
274.719	58.2
274.934	-40.11
275.15	56.15
275.366	-1.19
275.581	-7.34
275.797	11.09
276.012	56.15
276.228	-11.43
276.444	-15.53
276.659	47.96
276.875	-9.39
277.09	-7.34
277.306	33.62
277.521	-5.29
277.737	9.05
277.952	37.72
278.168	33.62
278.383	17.24
278.599	7
278.814	23.38
279.03	27.48
279.245	-1.19
279.461	-5.29
279.676	41.81
279.892	45.91
280.107	11.09
280.322	43.86
280.538	17.24
280.753	-74.92
280.969	-31.91
281.184	23.38
281.399	-23.72
281.615	21.33
281.83	25.43
282.045	58.2
282.26	17.24
282.476	-38.06
282.691	-21.67
282.906	43.86
283.122	21.33
283.337	78.68
283.552	-21.67
283.767	35.67
283.983	50
284.198	13.14
284.413	-11.43
284.628	37.72
284.843	25.43
285.058	45.91
285.274	-19.63
285.489	19.29
285.704	11.09
285.919	-52.39
286.134	-1.19
286.349	-21.67
286.564	-54.44
286.779	50
286.995	27.48
287.21	-64.68
287.425	33.62
287.64	27.48
287.855	-21.67
288.07	-1.19
288.285	58.2
288.5	-48.3
288.715	35.67
288.93	-21.67
289.145	-23.72
289.36	17.24
289.575	-1.19
289.79	37.72
290.004	0.85
290.219	13.14
290.434	-5.29
290.649	-17.58
290.864	50
291.079	-21.67
291.294	-11.43
291.509	62.29
291.724	84.82
291.938	64.34
292.153	50
292.368	-33.96
292.583	-19.63
292.798	-27.82
293.012	15.19
293.227	27.48
293.442	21.33
293.657	56.15
293.871	31.57
294.086	17.24
294.301	27.48
294.516	58.2
294.73	-21.67
294.945	2.9
295.16	29.52
295.374	-29.87
295.589	19.29
295.804	15.19
296.018	41.81
296.233	47.96
296.447	29.52
296.662	-7.34
296.877	7
297.091	45.91
297.306	7
297.52	29.52
297.735	-33.96
297.949	41.81
298.164	64.34
298.378	-27.82
298.593	-38.06
298.807	2.9
299.022	7
299.236	-1.19
299.451	-85.16
299.665	4.95
299.88	-23.72
300.094	-3.24
300.309	-31.91
300.523	-38.06
300.737	103.25
300.952	54.1
301.166	64.34
301.381	39.76
301.595	-38.06
301.809	-1.19
302.024	52.05
302.238	-113.83
302.452	62.29
302.667	-19.63
302.881	72.53
303.095	-50.35
303.309	-17.58
303.524	31.57
303.738	9.05
303.952	9.05
304.166	-44.2
304.381	2.9
304.595	2.9
304.809	35.67
305.023	90.96
305.237	76.63
305.452	21.33
305.666	-17.58
305.88	31.57
306.094	31.57
306.308	88.92
306.522	11.09
306.736	78.68
306.95	-13.48
307.164	-11.43
307.379	-31.91
307.593	-66.73
307.807	52.05
308.021	-15.53
308.235	19.29
308.449	54.1
308.663	43.86
308.877	-42.15
309.091	-48.3
309.305	33.62
309.519	-50.35
309.733	13.14
309.947	-38.06
310.161	-27.82
310.374	-44.2
310.588	13.14
310.802	64.34
311.016	-29.87
311.23	4.95
311.444	15.19
311.658	41.81
311.872	23.38
312.085	15.19
312.299	13.14
312.513	21.33
312.727	15.19
312.941	39.76
313.154	-25.77
313.368	-52.39
313.582	88.92
313.796	39.76
314.009	35.67
314.223	11.09
314.437	15.19
314.651	47.96
314.864	-1.19
315.078	52.05
315.292	-15.53
315.505	-5.29
315.719	66.39
315.933	29.52
316.146	80.72
316.36	-72.87
316.573	27.48
316.787	-29.87
317.001	62.29
317.214	4.95
317.428	-11.43
317.641	-29.87
317.855	-3.24
318.068	-1.19
318.282	86.87
318.495	-36.01
318.709	47.96
318.922	39.76
319.136	21.33
319.349	-13.48
319.563	33.62
319.776	50
319.99	17.24
320.203	-40.11
320.417	-36.01
320.63	52.05
320.843	82.77
321.057	21.33
321.27	-13.48
321.483	56.15
321.697	35.67
321.91	-89.26
322.124	101.2
322.337	19.29
322.55	-1.19
322.763	41.81
322.977	45.91
323.19	-9.39
323.403	15.19
323.617	-5.29
323.83	21.33
324.043	15.19
324.256	78.68
324.469	-64.68
324.683	68.44
324.896	-13.48
325.109	-5.29
325.322	-13.48
325.535	-56.49
325.748	27.48
325.962	70.48
326.175	9.05
326.388	-36.01
326.601	35.67
326.814	7
327.027	11.09
327.24	23.38
327.453	-36.01
327.666	-42.15
327.879	39.76
328.092	60.24
328.305	72.53
328.518	43.86
328.731	2.9
328.944	7
329.157	68.44
329.37	-44.2
329.583	-21.67
329.796	129.88
330.009	-15.53
330.222	31.57
330.435	7
330.648	25.43
330.861	-29.87
331.073	25.43
331.286	-21.67
331.499	21.33
331.712	2.9
331.925	33.62
332.138	25.43
332.35	47.96
332.563	-68.78
332.776	29.52
332.989	68.44
333.202	-13.48
333.414	19.29
333.627	33.62
333.84	-1.19
334.053	-3.24
334.265	70.48
334.478	4.95
334.691	39.76
334.903	15.19
335.116	-42.15
335.329	19.29
335.541	31.57
335.754	50
335.966	15.19
336.179	-48.3
336.392	-42.15
336.604	62.29
336.817	-46.25
337.029	7
337.242	39.76
337.454	19.29
337.667	52.05
337.88	23.38
338.092	-19.63
338.305	78.68
338.517	27.48
338.729	-15.53
338.942	9.05
339.154	-44.2
339.367	21.33
339.579	19.29
339.792	-15.53
340.004	29.52
340.217	-21.67
340.429	-1.19
340.641	-21.67
340.854	43.86
341.066	45.91
341.278	45.91
341.491	41.81
341.703	13.14
341.915	-13.48
342.128	-3.24
342.34	2.9
342.552	-42.15
342.764	23.38
342.977	39.76
343.189	-42.15
343.401	50
343.613	-40.11
343.826	47.96
344.038	50
344.25	66.39
344.462	39.76
344.674	-11.43
344.886	15.19
345.099	31.57
345.311	-17.58
345.523	-25.77
345.735	15.19
345.947	50
346.159	23.38
346.371	-44.2
346.583	2.9
346.795	86.87
347.007	19.29
347.219	82.77
347.431	-19.63
347.643	50
347.855	17.24
348.067	47.96
348.279	-56.49
348.491	13.14
348.703	-1.19
348.915	60.24
349.127	-21.67
349.339	-31.91
349.551	-1.19
349.763	45.91
349.975	-11.43
350.187	39.76
350.399	-31.91
350.61	-9.39
350.822	27.48
351.034	78.68
351.246	50
351.458	54.1
351.669	-36.01
351.881	86.87
352.093	74.58
352.305	39.76
352.517	9.05
352.728	62.29
352.94	-60.59
353.152	-11.43
353.363	-1.19
353.575	-31.91
353.787	15.19
353.999	-29.87
354.21	-62.63
354.422	-13.48
354.633	-17.58
354.845	74.58
355.057	52.05
355.268	109.4
355.48	43.86
355.692	-7.34
355.903	-11.43
356.115	-27.82
356.326	13.14
356.538	-19.63
356.749	58.2
356.961	41.81
357.172	103.25
357.384	-11.43
357.595	109.4
357.807	31.57
358.018	0.85
358.23	72.53
358.441	19.29
358.653	17.24
358.864	-7.34
359.075	17.24
359.287	-72.87
359.498	21.33
359.709	19.29
359.921	72.53
360.132	76.63
360.344	-21.67
360.555	52.05
360.766	0.85
360.977	15.19
361.189	-7.34
361.4	45.91
361.611	50
361.823	-15.53
362.034	72.53
362.245	4.95
362.456	76.63
362.667	-11.43
362.879	41.81
363.09	31.57
363.301	72.53
363.512	29.52
363.723	39.76
363.935	86.87
364.146	7
364.357	-17.58
364.568	50
364.779	27.48
364.99	105.3
365.201	-9.39
365.412	9.05
365.623	-3.24
365.834	-7.34
366.045	25.43
366.256	2.9
366.467	-81.07
366.678	25.43
366.889	37.72
367.1	-15.53
367.311	-11.43
367.522	25.43
367.733	21.33
367.944	33.62
368.155	-23.72
368.366	72.53
368.577	68.44
368.788	2.9
368.999	54.1
369.209	43.86
369.42	35.67
369.631	-29.87
369.842	60.24
370.053	-1.19
370.264	13.14
370.474	25.43
370.685	54.1
370.896	-31.91
371.107	62.29
371.317	17.24
371.528	-11.43
371.739	45.91
371.95	15.19
372.16	41.81
372.371	45.91
372.582	17.24
372.792	13.14
373.003	-23.72
373.214	52.05
373.424	-3.24
373.635	-60.59
373.846	158.55
374.056	11.09
374.267	4.95
374.477	-36.01
374.688	86.87
374.898	-27.82
375.109	-33.96
375.319	-23.72
375.53	47.96
375.74	2.9
375.951	31.57
376.161	9.05
376.372	54.1
376.582	-27.82
376.793	21.33
377.003	72.53
377.214	21.33
377.424	0.85
377.635	4.95
377.845	31.57
378.055	103.25
378.266	-36.01
378.476	31.57
378.686	37.72
378.897	35.67
379.107	-9.39
379.317	-29.87
379.528	39.76
379.738	82.77
379.948	47.96
380.158	-1.19
380.369	39.76
380.579	-56.49
380.789	-36.01
380.999	21.33
381.21	37.72
381.42	33.62
381.63	-13.48
381.84	35.67
382.05	-11.43
382.261	31.57
382.471	-19.63
382.681	74.58
382.891	66.39
383.101	15.19
383.311	62.29
383.521	54.1
383.731	-11.43
383.941	29.52
384.151	25.43
384.361	70.48
384.571	-13.48
384.781	39.76
384.991	35.67
385.201	19.29
385.411	45.91
385.621	45.91
385.831	21.33
386.041	7
386.251	11.09
386.461	93.01
386.671	39.76
386.881	39.76
387.091	-7.34
387.301	33.62
387.511	-17.58
387.72	13.14
387.93	-27.82
388.14	-36.01
388.35	37.72
388.56	95.06
388.769	17.24
388.979	21.33
389.189	0.85
389.399	45.91
389.609	-1.19
389.818	23.38
390.028	7
390.238	17.24
390.447	7
390.657	45.91
390.867	7
391.076	9.05
391.286	-58.54
391.496	31.57
391.705	68.44
391.915	74.58
392.125	13.14
392.334	23.38
392.544	13.14
392.753	43.86
392.963	-15.53
393.172	-15.53
393.382	9.05
393.591	82.77
393.801	76.63
394.01	64.34
394.22	78.68
394.429	13.14
394.639	-1.19
394.848	54.1
395.058	-21.67
395.267	76.63
395.477	19.29
395.686	58.2
395.895	4.95
396.105	39.76
396.314	33.62
396.524	64.34
396.733	-11.43
396.942	37.72
397.152	31.57
397.361	80.72
397.57	15.19
397.78	-13.48
397.989	-13.48
398.198	41.81
398.407	74.58
398.617	74.58
398.826	21.33
399.035	70.48
399.244	54.1
399.453	31.57
399.663	54.1
399.872	68.44
400.081	76.63
400.29	58.2
400.499	103.25
400.708	60.24
400.917	-27.82
401.127	-15.53
401.336	4.95
401.545	23.38
401.754	58.2
401.963	80.72
402.172	13.14
402.381	4.95
402.59	99.16
402.799	-1.19
403.008	97.11
403.217	119.64
403.426	88.92
403.635	29.52
403.844	0.85
404.053	17.24
404.262	37.72
404.471	21.33
404.68	45.91
404.888	80.72
405.097	4.95
405.306	103.25
405.515	64.34
405.724	31.57
405.933	72.53
406.142	97.11
406.35	78.68
406.559	101.2
406.768	54.1
406.977	107.35
407.185	80.72
407.394	60.24
407.603	97.11
407.812	54.1
408.02	115.54
408.229	62.29
408.438	86.87
408.646	56.15
408.855	80.72
409.064	86.87
409.272	121.68
409.481	105.3
409.69	74.58
409.898	187.22
410.107	119.64
410.315	70.48
410.524	76.63
410.733	156.5
410.941	107.35
411.15	97.11
411.358	191.31
411.567	189.27
411.775	160.59
411.984	183.12
412.192	111.44
412.401	205.65
412.609	279.38
412.818	189.27
413.026	154.45
413.234	158.55
413.443	187.22
413.651	136.02
413.86	293.71
414.068	299.86
414.276	281.43
414.485	172.88
414.693	303.95
414.901	320.34
415.11	232.27
415.318	262.99
415.526	299.86
415.734	355.15
415.943	279.38
416.151	318.29
416.359	387.92
416.567	365.39
416.776	301.9
416.984	396.11
417.192	351.06
417.4	349.01
417.608	383.82
417.817	355.15
418.025	381.78
418.233	467.79
418.441	455.5
418.649	545.61
418.857	492.37
419.065	525.13
419.273	465.74
419.481	529.23
419.689	512.85
419.897	605
420.105	527.18
420.313	564.04
420.521	678.73
420.729	654.16
420.937	717.64
421.145	660.3
421.353	656.2
421.561	742.22
421.769	680.78
421.977	799.56
422.185	824.14
422.393	924.49
422.601	785.23
422.809	916.3
423.017	856.9
423.224	854.86
423.432	981.83
423.64	914.25
423.848	987.97
424.056	1049.41
424.263	1065.8
424.471	1106.76
424.679	1155.91
424.887	1147.72
425.094	1203.01
425.302	1196.87
425.51	1237.83
425.718	1303.36
425.925	1334.08
426.133	1309.51
426.341	1413.95
426.548	1465.15
426.756	1567.55
426.964	1557.31
427.171	1696.57
427.379	1592.13
427.586	1717.05
427.794	1751.87
428.001	1758.01
428.209	1911.61
428.417	1821.5
428.624	2140.98
428.832	1874.74
429.039	2026.29
429.247	2057.01
429.454	2317.11
429.662	2263.86
429.869	2380.59
430.076	2378.55
430.284	2233.14
430.491	2374.45
430.699	2464.56
430.906	2542.38
431.114	2612.01
431.321	2673.45
431.528	2630.45
431.736	2908.97
431.943	3015.46
432.15	2908.97
432.358	2927.4
432.565	3054.37
432.772	3046.18
432.979	3289.89
433.187	3435.3
433.394	3435.3
433.601	3543.84
433.808	3519.26
434.016	3562.27
434.223	3580.7
434.43	3910.43
434.637	3918.62
434.844	4121.37
435.052	4211.48
435.259	4123.41
435.466	4160.28
435.673	4236.05
435.88	4395.79
436.087	4772.62
436.294	4668.17
436.501	4590.35
436.708	4584.21
436.915	4709.13
437.122	5047.05
437.329	5040.9
437.537	5100.3
437.743	5411.59
437.95	5249.8
438.157	5481.22
438.364	5700.35
438.571	5747.45
438.778	5602.05
438.985	6247.16
439.192	5927.67
439.399	6181.62
439.606	5980.92
439.813	6372.08
440.02	6724.33
440.227	6773.49
440.433	6601.46
440.64	6804.21
440.847	6748.91
441.054	6992.62
441.261	7518.95
441.467	7262.95
441.674	7443.17
441.881	7684.83
442.088	7684.83
442.294	7475.94
442.501	7828.19
442.708	7836.38
442.914	8205.02
443.121	8714.96
443.328	8530.64
443.534	9120.46
443.741	8723.15
443.948	8692.43
444.154	9419.46
444.361	9208.52
444.568	9222.86
444.774	9325.26
444.981	9530.05
445.187	9695.94
445.394	10265.27
445.6	10027.71
445.807	11219.63
446.013	10375.86
446.22	10562.23
446.426	11109.04
446.633	11135.66
446.839	11688.61
447.046	11199.15
447.252	11713.19
447.459	11965.09
447.665	11782.82
447.871	12464.79
448.078	12952.21
448.284	12227.23
448.491	12524.18
448.697	13050.51
448.903	13255.31
449.11	13177.48
449.316	13261.45
449.522	13417.1
449.728	13779.59
449.935	13746.82
450.141	13816.45
450.347	14148.22
450.553	13591.17
450.76	13896.32
450.966	14324.35
451.172	14058.11
451.378	14688.89
451.584	14250.62
451.791	14484.09
451.997	14455.42
452.203	14658.17
452.409	14926.45
452.615	14834.29
452.821	14488.18
453.027	14150.27
453.233	14903.92
453.44	14213.76
453.646	14209.66
453.852	14336.63
454.058	14680.69
454.264	14293.63
454.47	14684.79
454.676	14494.33
454.882	14860.91
455.088	13410.95
455.294	13550.21
455.5	13886.08
455.705	13881.99
455.911	13476.49
456.117	13058.7
456.323	12886.67
456.529	12427.93
456.735	12882.58
456.941	12737.17
457.147	12343.96
457.352	11887.26
457.558	11827.87
457.764	11868.83
457.97	11766.43
458.176	11322.02
458.381	11483.81
458.587	11002.54
458.793	10881.71
458.999	10164.92
459.204	10961.58
459.41	10760.88
459.616	10048.19
459.821	10281.66
460.027	10267.32
460.233	9964.22
460.438	9290.44
460.644	9409.22
460.85	9155.27
461.055	8837.84
461.261	8813.26
461.466	8088.28
461.672	7918.3
461.878	8594.13
462.083	8147.67
462.289	7840.48
462.494	7746.27
462.7	7361.25
462.905	7230.18
463.111	7566.05
463.316	7480.04
463.522	7293.67
463.727	7398.12
463.932	7437.03
464.138	7291.62
464.343	7385.83
464.549	7269.09
464.754	7432.93
464.959	7279.33
465.165	7371.49
465.37	7129.83
465.575	6757.1
465.781	7070.44
465.986	7185.13
466.191	7043.82
466.397	6664.94
466.602	6411
466.807	6748.91
467.012	6818.54
467.218	6693.62
467.423	6630.13
467.628	6710
467.833	6945.52
468.038	6701.81
468.244	6525.68
468.449	6755.05
468.654	6499.06
468.859	6458.1
469.064	6535.92
469.269	6183.67
469.474	6267.64
469.679	6290.17
469.885	6294.26
