Data from USB4F104151__23__12-53-28-587.txt Node

Date: Fri Mar 14 12:53:28 EDT 2025
User: louis
Spectrometer: USB4F10415
Trigger mode: 4
Integration Time (sec): 1.000000E-2
Scans to average: 1
Electric dark correction enabled: true
Nonlinearity correction enabled: false
Boxcar width: 0
XAxis mode: Wavelengths
Number of Pixels in Spectrum: 3648
>>>>>Begin Spectral Data<<<<<
178.204	-54.1
178.424	-54.1
178.644	-54.1
178.864	-86.87
179.084	-23.38
179.304	-45.91
179.524	-33.62
179.744	-23.38
179.964	-11.09
180.184	7.34
180.404	-23.38
180.624	-4.95
180.844	50.35
181.064	64.68
181.283	58.54
181.503	5.29
181.723	-43.86
181.943	-29.52
182.163	17.58
182.383	52.39
182.602	74.92
182.822	11.43
183.042	-43.86
183.262	5.29
183.482	15.53
183.701	5.29
183.921	66.73
184.141	-41.81
184.361	-9.05
184.58	-7
184.8	72.87
185.02	-60.24
185.239	36.01
185.459	-25.43
185.679	-47.96
185.898	-56.15
186.118	79.02
186.338	38.06
186.557	-45.91
186.777	27.82
186.997	-41.81
187.216	76.97
187.436	62.63
187.655	-2.9
187.875	-0.85
188.095	-17.24
188.314	21.67
188.534	-19.29
188.753	11.43
188.973	-58.2
189.192	-2.9
189.412	-23.38
189.631	48.3
189.851	33.96
190.07	7.34
190.29	36.01
190.509	36.01
190.729	-4.95
190.948	-9.05
191.168	23.72
191.387	11.43
191.607	46.25
191.826	-9.05
192.045	50.35
192.265	60.59
192.484	48.3
192.704	9.39
192.923	-13.14
193.142	83.11
193.362	38.06
193.581	36.01
193.8	-39.76
194.02	-62.29
194.239	19.63
194.458	-13.14
194.678	1.19
194.897	-2.9
195.116	-4.95
195.335	-29.52
195.555	5.29
195.774	68.78
195.993	1.19
196.212	-9.05
196.432	74.92
196.651	-9.05
196.87	-56.15
197.089	23.72
197.308	-4.95
197.528	19.63
197.747	-62.29
197.966	40.11
198.185	1.19
198.404	-54.1
198.623	-29.52
198.842	-27.48
199.062	-2.9
199.281	38.06
199.5	21.67
199.719	56.49
199.938	-47.96
200.157	-31.57
200.376	38.06
200.595	-19.29
200.814	-52.05
201.033	-9.05
201.252	56.49
201.471	27.82
201.69	50.35
201.909	17.58
202.128	-56.15
202.347	52.39
202.566	9.39
202.785	-2.9
203.004	-50
203.223	60.59
203.442	-23.38
203.661	-19.29
203.879	17.58
204.098	-0.85
204.317	-47.96
204.536	-11.09
204.755	7.34
204.974	31.91
205.193	11.43
205.411	33.96
205.63	27.82
205.849	-29.52
206.068	13.48
206.287	17.58
206.505	42.15
206.724	-37.72
206.943	7.34
207.162	25.77
207.381	27.82
207.599	36.01
207.818	-0.85
208.037	7.34
208.255	36.01
208.474	42.15
208.693	-2.9
208.911	52.39
209.13	-4.95
209.349	70.83
209.567	-21.33
209.786	-27.48
210.005	11.43
210.223	-27.48
210.442	38.06
210.661	-21.33
210.879	5.29
211.098	-7
211.316	-93.01
211.535	21.67
211.753	13.48
211.972	27.82
212.191	19.63
212.409	-9.05
212.628	-41.81
212.846	-0.85
213.065	33.96
213.283	31.91
213.502	81.07
213.72	-47.96
213.938	46.25
214.157	79.02
214.375	21.67
214.594	-25.43
214.812	36.01
215.031	85.16
215.249	-13.14
215.467	-37.72
215.686	17.58
215.904	-15.19
216.122	-35.67
216.341	81.07
216.559	-27.48
216.778	38.06
216.996	19.63
217.214	-2.9
217.432	-17.24
217.651	25.77
217.869	-54.1
218.087	-17.24
218.306	83.11
218.524	9.39
218.742	-43.86
218.96	11.43
219.179	11.43
219.397	-0.85
219.615	19.63
219.833	-21.33
220.051	85.16
220.27	48.3
220.488	38.06
220.706	81.07
220.924	122.02
221.142	-19.29
221.36	11.43
221.578	13.48
221.796	-50
222.015	48.3
222.233	-9.05
222.451	29.87
222.669	5.29
222.887	27.82
223.105	-15.19
223.323	1.19
223.541	64.68
223.759	29.87
223.977	60.59
224.195	-2.9
224.413	19.63
224.631	40.11
224.849	-27.48
225.067	-31.57
225.285	-29.52
225.503	-9.05
225.721	-13.14
225.939	40.11
226.157	-62.29
226.375	38.06
226.592	48.3
226.81	-11.09
227.028	-9.05
227.246	36.01
227.464	-27.48
227.682	54.44
227.9	-37.72
228.117	58.54
228.335	-4.95
228.553	72.87
228.771	42.15
228.989	29.87
229.206	48.3
229.424	27.82
229.642	-19.29
229.86	17.58
230.077	-21.33
230.295	56.49
230.513	3.24
230.731	15.53
230.948	27.82
231.166	-11.09
231.384	-7
231.601	31.91
231.819	-58.2
232.037	21.67
232.254	-25.43
232.472	38.06
232.689	9.39
232.907	19.63
233.125	36.01
233.342	-45.91
233.56	-7
233.777	50.35
233.995	-11.09
234.213	-47.96
234.43	11.43
234.648	-45.91
234.865	-21.33
235.083	13.48
235.3	-29.52
235.518	70.83
235.735	21.67
235.953	-17.24
236.17	1.19
236.388	13.48
236.605	-21.33
236.822	7.34
237.04	-74.58
237.257	-13.14
237.475	48.3
237.692	1.19
237.909	81.07
238.127	95.4
238.344	-0.85
238.562	33.96
238.779	-39.76
238.996	-19.29
239.214	23.72
239.431	87.21
239.648	-11.09
239.865	17.58
240.083	-52.05
240.3	38.06
240.517	83.11
240.735	-19.29
240.952	7.34
241.169	-0.85
241.386	62.63
241.603	29.87
241.821	5.29
242.038	66.73
242.255	19.63
242.472	-9.05
242.689	-29.52
242.907	56.49
243.124	-21.33
243.341	-115.54
243.558	-23.38
243.775	52.39
243.992	-68.44
244.209	31.91
244.426	48.3
244.643	-7
244.86	-47.96
245.078	31.91
245.295	29.87
245.512	33.96
245.729	27.82
245.946	50.35
246.163	54.44
246.38	38.06
246.597	11.43
246.814	83.11
247.031	-37.72
247.248	31.91
247.464	79.02
247.681	27.82
247.898	40.11
248.115	-17.24
248.332	11.43
248.549	25.77
248.766	64.68
248.983	97.45
249.2	1.19
249.417	60.59
249.633	-29.52
249.85	-11.09
250.067	-39.76
250.284	-60.24
250.501	-37.72
250.717	52.39
250.934	5.29
251.151	-4.95
251.368	15.53
251.585	105.64
251.801	-39.76
252.018	-13.14
252.235	-17.24
252.451	9.39
252.668	25.77
252.885	15.53
253.102	21.67
253.318	5.29
253.535	-15.19
253.752	-2.9
253.968	-19.29
254.185	3.24
254.401	-23.38
254.618	-0.85
254.835	-39.76
255.051	27.82
255.268	3.24
255.484	-35.67
255.701	7.34
255.917	-2.9
256.134	31.91
256.351	42.15
256.567	58.54
256.784	7.34
257	-25.43
257.217	17.58
257.433	27.82
257.65	1.19
257.866	66.73
258.082	40.11
258.299	27.82
258.515	-45.91
258.732	115.88
258.948	19.63
259.165	-72.53
259.381	11.43
259.597	31.91
259.814	83.11
260.03	27.82
260.246	-21.33
260.463	-4.95
260.679	-33.62
260.895	62.63
261.112	11.43
261.328	33.96
261.544	46.25
261.761	29.87
261.977	-33.62
262.193	7.34
262.409	3.24
262.626	-25.43
262.842	-7
263.058	11.43
263.274	29.87
263.49	13.48
263.707	7.34
263.923	-9.05
264.139	1.19
264.355	11.43
264.571	13.48
264.787	-9.05
265.004	11.43
265.22	33.96
265.436	13.48
265.652	-39.76
265.868	58.54
266.084	-60.24
266.3	79.02
266.516	-31.57
266.732	-11.09
266.948	-56.15
267.164	19.63
267.38	64.68
267.596	54.44
267.812	21.67
268.028	11.43
268.244	46.25
268.46	-43.86
268.676	-23.38
268.892	142.5
269.108	5.29
269.324	-80.72
269.54	38.06
269.756	-4.95
269.972	-29.52
270.188	87.21
270.403	-21.33
270.619	15.53
270.835	-19.29
271.051	-2.9
271.267	-11.09
271.483	-37.72
271.698	36.01
271.914	17.58
272.13	-0.85
272.346	19.63
272.562	-4.95
272.777	7.34
272.993	23.72
273.209	-37.72
273.425	-15.19
273.64	5.29
273.856	25.77
274.072	23.72
274.287	1.19
274.503	9.39
274.719	-50
274.934	15.53
275.15	-41.81
275.366	27.82
275.581	-11.09
275.797	38.06
276.012	38.06
276.228	-2.9
276.444	74.92
276.659	76.97
276.875	42.15
277.09	3.24
277.306	-33.62
277.521	87.21
277.737	50.35
277.952	68.78
278.168	29.87
278.383	-43.86
278.599	5.29
278.814	29.87
279.03	-23.38
279.245	15.53
279.461	19.63
279.676	40.11
279.892	-13.14
280.107	7.34
280.322	-9.05
280.538	36.01
280.753	5.29
280.969	15.53
281.184	3.24
281.399	17.58
281.615	-37.72
281.83	93.35
282.045	-103.25
282.26	-37.72
282.476	-56.15
282.691	7.34
282.906	-17.24
283.122	66.73
283.337	-35.67
283.552	83.11
283.767	21.67
283.983	33.96
284.198	29.87
284.413	-17.24
284.628	-13.14
284.843	-9.05
285.058	29.87
285.274	29.87
285.489	15.53
285.704	1.19
285.919	-41.81
286.134	60.59
286.349	-0.85
286.564	31.91
286.779	31.91
286.995	74.92
287.21	-4.95
287.425	38.06
287.64	27.82
287.855	33.96
288.07	19.63
288.285	74.92
288.5	52.39
288.715	21.67
288.93	-17.24
289.145	-27.48
289.36	87.21
289.575	13.48
289.79	-11.09
290.004	-15.19
290.219	9.39
290.434	-93.01
290.649	56.49
290.864	21.67
291.079	54.44
291.294	-41.81
291.509	17.58
291.724	13.48
291.938	33.96
292.153	-9.05
292.368	17.58
292.583	13.48
292.798	-27.48
293.012	31.91
293.227	54.44
293.442	11.43
293.657	17.58
293.871	1.19
294.086	40.11
294.301	50.35
294.516	-27.48
294.73	68.78
294.945	-11.09
295.16	-52.05
295.374	68.78
295.589	64.68
295.804	-11.09
296.018	5.29
296.233	-29.52
296.447	7.34
296.662	5.29
296.877	54.44
297.091	-23.38
297.306	-27.48
297.52	-9.05
297.735	48.3
297.949	5.29
298.164	52.39
298.378	62.63
298.593	44.2
298.807	-2.9
299.022	27.82
299.236	3.24
299.451	5.29
299.665	56.49
299.88	-19.29
300.094	5.29
300.309	-23.38
300.523	-39.76
300.737	-47.96
300.952	23.72
301.166	-29.52
301.381	19.63
301.595	60.59
301.809	-45.91
302.024	7.34
302.238	11.43
302.452	29.87
302.667	-11.09
302.881	70.83
303.095	60.59
303.309	-17.24
303.524	-37.72
303.738	7.34
303.952	-70.48
304.166	-11.09
304.381	-60.24
304.595	1.19
304.809	42.15
305.023	13.48
305.237	-33.62
305.452	33.96
305.666	70.83
305.88	31.91
306.094	-27.48
306.308	27.82
306.522	-17.24
306.736	19.63
306.95	33.96
307.164	-4.95
307.379	42.15
307.593	27.82
307.807	3.24
308.021	17.58
308.235	3.24
308.449	-58.2
308.663	-0.85
308.877	11.43
309.091	21.67
309.305	38.06
309.519	13.48
309.733	19.63
309.947	11.43
310.161	-17.24
310.374	23.72
310.588	70.83
310.802	-35.67
311.016	15.53
311.23	40.11
311.444	13.48
311.658	17.58
311.872	70.83
312.085	31.91
312.299	44.2
312.513	17.58
312.727	42.15
312.941	38.06
313.154	13.48
313.368	23.72
313.582	-17.24
313.796	21.67
314.009	87.21
314.223	-13.14
314.437	-17.24
314.651	-0.85
314.864	64.68
315.078	-7
315.292	-31.57
315.505	11.43
315.719	5.29
315.933	-27.48
316.146	-50
316.36	-23.38
316.573	36.01
316.787	-27.48
317.001	40.11
317.214	-76.63
317.428	21.67
317.641	-47.96
317.855	48.3
318.068	-4.95
318.282	19.63
318.495	-0.85
318.709	36.01
318.922	13.48
319.136	21.67
319.349	27.82
319.563	-4.95
319.776	-9.05
319.99	-9.05
320.203	25.77
320.417	-17.24
320.63	5.29
320.843	60.59
321.057	-11.09
321.27	56.49
321.483	25.77
321.697	21.67
321.91	5.29
322.124	36.01
322.337	-0.85
322.55	5.29
322.763	-27.48
322.977	-131.92
323.19	68.78
323.403	29.87
323.617	-17.24
323.83	54.44
324.043	-54.1
324.256	85.16
324.469	-9.05
324.683	93.35
324.896	25.77
325.109	19.63
325.322	-45.91
325.535	15.53
325.748	60.59
325.962	9.39
326.175	-21.33
326.388	31.91
326.601	27.82
326.814	23.72
327.027	-9.05
327.24	38.06
327.453	52.39
327.666	23.72
327.879	48.3
328.092	19.63
328.305	-7
328.518	21.67
328.731	-23.38
328.944	54.44
329.157	-15.19
329.37	81.07
329.583	-17.24
329.796	17.58
330.009	-2.9
330.222	-52.05
330.435	-9.05
330.648	-9.05
330.861	54.44
331.073	21.67
331.286	29.87
331.499	-2.9
331.712	-23.38
331.925	40.11
332.138	21.67
332.35	-25.43
332.563	50.35
332.776	7.34
332.989	7.34
333.202	76.97
333.414	3.24
333.627	38.06
333.84	-23.38
334.053	-4.95
334.265	-25.43
334.478	44.2
334.691	21.67
334.903	-23.38
335.116	-4.95
335.329	-17.24
335.541	-19.29
335.754	60.59
335.966	-50
336.179	66.73
336.392	-2.9
336.604	40.11
336.817	-11.09
337.029	27.82
337.242	15.53
337.454	36.01
337.667	29.87
337.88	1.19
338.092	31.91
338.305	-7
338.517	29.87
338.729	-43.86
338.942	31.91
339.154	3.24
339.367	-25.43
339.579	11.43
339.792	5.29
340.004	-21.33
340.217	-33.62
340.429	11.43
340.641	36.01
340.854	-35.67
341.066	11.43
341.278	85.16
341.491	27.82
341.703	-9.05
341.915	-2.9
342.128	1.19
342.34	1.19
342.552	-33.62
342.764	-11.09
342.977	1.19
343.189	7.34
343.401	31.91
343.613	19.63
343.826	-21.33
344.038	36.01
344.25	54.44
344.462	27.82
344.674	42.15
344.886	-39.76
345.099	44.2
345.311	9.39
345.523	-60.24
345.735	7.34
345.947	21.67
346.159	-9.05
346.371	-15.19
346.583	-37.72
346.795	25.77
347.007	-7
347.219	46.25
347.431	48.3
347.643	15.53
347.855	-37.72
348.067	23.72
348.279	46.25
348.491	5.29
348.703	7.34
348.915	42.15
349.127	52.39
349.339	19.63
349.551	9.39
349.763	40.11
349.975	-35.67
350.187	-13.14
350.399	5.29
350.61	62.63
350.822	38.06
351.034	21.67
351.246	-2.9
351.458	44.2
351.669	-13.14
351.881	19.63
352.093	52.39
352.305	-13.14
352.517	-11.09
352.728	146.6
352.94	7.34
353.152	36.01
353.363	-2.9
353.575	38.06
353.787	-19.29
353.999	79.02
354.21	3.24
354.422	-37.72
354.633	-47.96
354.845	36.01
355.057	5.29
355.268	-23.38
355.48	3.24
355.692	56.49
355.903	-0.85
356.115	60.59
356.326	-37.72
356.538	50.35
356.749	11.43
356.961	-35.67
357.172	9.39
357.384	66.73
357.595	27.82
357.807	-25.43
358.018	99.5
358.23	-13.14
358.441	-13.14
358.653	76.97
358.864	-37.72
359.075	64.68
359.287	33.96
359.498	66.73
359.709	-29.52
359.921	44.2
360.132	29.87
360.344	-13.14
360.555	40.11
360.766	99.5
360.977	29.87
361.189	36.01
361.4	-19.29
361.611	36.01
361.823	21.67
362.034	31.91
362.245	-0.85
362.456	-33.62
362.667	29.87
362.879	40.11
363.09	-21.33
363.301	15.53
363.512	66.73
363.723	21.67
363.935	33.96
364.146	44.2
364.357	40.11
364.568	-19.29
364.779	64.68
364.99	-41.81
365.201	31.91
365.412	46.25
365.623	-45.91
365.834	150.7
366.045	-35.67
366.256	7.34
366.467	52.39
366.678	64.68
366.889	21.67
367.1	5.29
367.311	44.2
367.522	79.02
367.733	29.87
367.944	15.53
368.155	-4.95
368.366	50.35
368.577	9.39
368.788	13.48
368.999	-33.62
369.209	-19.29
369.42	27.82
369.631	81.07
369.842	9.39
370.053	66.73
370.264	21.67
370.474	-39.76
370.685	19.63
370.896	-15.19
371.107	21.67
371.317	62.63
371.528	46.25
371.739	-60.24
371.95	9.39
372.16	-31.57
372.371	15.53
372.582	-31.57
372.792	68.78
373.003	46.25
373.214	23.72
373.424	-23.38
373.635	-35.67
373.846	40.11
374.056	19.63
374.267	17.58
374.477	-13.14
374.688	-21.33
374.898	-41.81
375.109	-25.43
375.319	31.91
375.53	48.3
375.74	56.49
375.951	19.63
376.161	-50
376.372	29.87
376.582	17.58
376.793	27.82
377.003	9.39
377.214	44.2
377.424	46.25
377.635	85.16
377.845	5.29
378.055	52.39
378.266	-0.85
378.476	21.67
378.686	-0.85
378.897	-9.05
379.107	-4.95
379.317	-17.24
379.528	5.29
379.738	83.11
379.948	-17.24
380.158	1.19
380.369	60.59
380.579	-37.72
380.789	-0.85
380.999	25.77
381.21	-82.77
381.42	46.25
381.63	7.34
381.84	33.96
382.05	68.78
382.261	40.11
382.471	-52.05
382.681	36.01
382.891	97.45
383.101	-19.29
383.311	36.01
383.521	-37.72
383.731	1.19
383.941	-0.85
384.151	21.67
384.361	17.58
384.571	-29.52
384.781	-37.72
384.991	44.2
385.201	25.77
385.411	42.15
385.621	64.68
385.831	-29.52
386.041	-0.85
386.251	-2.9
386.461	-60.24
386.671	-11.09
386.881	11.43
387.091	50.35
387.301	-25.43
387.511	21.67
387.72	-21.33
387.93	3.24
388.14	7.34
388.35	48.3
388.56	60.59
388.769	42.15
388.979	-2.9
389.189	-88.92
389.399	17.58
389.609	9.39
389.818	3.24
390.028	23.72
390.238	44.2
390.447	19.63
390.657	1.19
390.867	11.43
391.076	-4.95
391.286	-7
391.496	-9.05
391.705	66.73
391.915	38.06
392.125	17.58
392.334	-0.85
392.544	15.53
392.753	-80.72
392.963	23.72
393.172	91.31
393.382	17.58
393.591	52.39
393.801	-4.95
394.01	97.45
394.22	50.35
394.429	66.73
394.639	-23.38
394.848	58.54
395.058	40.11
395.267	-27.48
395.477	62.63
395.686	70.83
395.895	36.01
396.105	36.01
396.314	-52.05
396.524	13.48
396.733	-17.24
396.942	36.01
397.152	-7
397.361	11.43
397.57	-31.57
397.78	-50
397.989	44.2
398.198	17.58
398.407	-62.29
398.617	81.07
398.826	25.77
399.035	56.49
399.244	44.2
399.453	52.39
399.663	70.83
399.872	93.35
400.081	-7
400.29	87.21
400.499	7.34
400.708	103.59
400.917	29.87
401.127	-9.05
401.336	50.35
401.545	50.35
401.754	38.06
401.963	54.44
402.172	-25.43
402.381	19.63
402.59	54.44
402.799	-4.95
403.008	74.92
403.217	40.11
403.426	38.06
403.635	72.87
403.844	52.39
404.053	21.67
404.262	21.67
404.471	93.35
404.68	60.59
404.888	95.4
405.097	72.87
405.306	13.48
405.515	5.29
405.724	17.58
405.933	31.91
406.142	81.07
406.35	44.2
406.559	27.82
406.768	48.3
406.977	76.97
407.185	-15.19
407.394	105.64
407.603	27.82
407.812	5.29
408.02	122.02
408.229	13.48
408.438	54.44
408.646	50.35
408.855	97.45
409.064	60.59
409.272	62.63
409.481	70.83
409.69	40.11
409.898	79.02
410.107	38.06
410.315	93.35
410.524	85.16
410.733	72.87
410.941	60.59
411.15	5.29
411.358	54.44
411.567	60.59
411.775	13.48
411.984	105.64
412.192	91.31
412.401	62.63
412.609	117.93
412.818	54.44
413.026	50.35
413.234	109.74
413.443	95.4
413.651	109.74
413.86	140.46
414.068	173.22
414.276	140.46
414.485	113.83
414.693	109.74
414.901	126.12
415.11	138.41
415.318	165.03
415.526	146.6
415.734	148.65
415.943	50.35
416.151	236.71
416.359	191.66
416.567	119.98
416.776	119.98
416.984	156.84
417.192	173.22
417.4	189.61
417.608	79.02
417.817	173.22
418.025	242.85
418.233	212.14
418.441	203.94
418.649	203.94
418.857	193.7
419.065	195.75
419.273	265.38
419.481	257.19
419.689	326.82
419.897	289.96
420.105	222.38
420.313	242.85
420.521	279.72
420.729	341.16
420.937	308.39
421.145	283.81
421.353	275.62
421.561	318.63
421.769	367.78
421.977	285.86
422.185	373.92
422.393	347.3
422.601	396.45
422.809	437.41
423.017	398.5
423.224	365.73
423.432	421.03
423.64	388.26
423.848	332.97
424.056	464.04
424.263	486.56
424.471	519.33
424.679	455.84
424.887	402.6
425.094	578.72
425.302	578.72
425.51	597.15
425.718	488.61
425.925	593.06
426.133	566.43
426.341	564.39
426.548	705.7
426.756	623.78
426.964	652.45
427.171	662.69
427.379	711.84
427.586	707.74
427.794	715.94
428.001	834.72
428.209	744.61
428.417	720.03
428.624	822.43
428.832	879.77
429.039	801.95
429.247	879.77
429.454	978.08
429.662	969.88
429.869	935.07
430.076	988.32
430.284	1023.13
430.491	1033.37
430.699	1027.23
430.906	1103
431.114	1080.47
431.321	1117.34
431.528	1207.45
431.736	1277.08
431.943	1250.46
432.15	1236.12
432.358	1201.3
432.565	1244.31
432.772	1291.41
432.979	1377.43
433.187	1383.57
433.394	1402.01
433.601	1565.84
433.808	1551.51
434.016	1502.36
434.223	1563.79
434.43	1662.1
434.637	1664.15
434.844	1727.63
435.052	1778.83
435.259	1750.16
435.466	1768.59
435.673	1803.41
435.88	1954.96
436.087	2069.64
436.294	1983.63
436.501	1952.91
436.708	1981.58
436.915	2067.6
437.122	2118.79
437.329	2086.03
437.537	2237.58
437.743	2342.02
437.95	2176.14
438.157	2278.54
438.364	2358.41
438.571	2479.24
438.778	2413.7
438.985	2595.97
439.192	2452.61
439.399	2610.31
439.606	2546.82
439.813	2712.71
440.02	2870.4
440.227	2874.49
440.433	2804.86
440.64	2862.21
440.847	2923.65
441.054	2925.69
441.261	3153.02
441.467	3075.2
441.674	3015.8
441.881	3157.11
442.088	3437.69
442.294	3148.92
442.501	3363.96
442.708	3378.3
442.914	3523.7
443.121	3691.63
443.328	3585.14
443.534	3716.21
443.741	3689.59
443.948	3734.64
444.154	3980.4
444.361	4019.31
444.568	3822.7
444.774	3884.14
444.981	4023.41
445.187	4111.47
445.394	4346.98
445.6	4140.14
445.807	4830.3
446.013	4555.88
446.22	4562.02
446.426	4740.19
446.633	4693.09
446.839	4881.5
447.046	4654.18
447.252	4951.14
447.459	5127.26
447.665	4914.27
447.871	5219.42
448.078	5479.51
448.284	5061.73
448.491	5387.35
448.697	5532.76
448.903	5594.2
449.11	5721.17
449.316	5667.92
449.522	5694.55
449.728	5712.98
449.935	5870.67
450.141	5934.16
450.347	6032.46
450.553	5719.12
450.76	5846.1
450.966	6083.66
451.172	5958.74
451.378	6181.96
451.584	6093.9
451.791	6208.59
451.997	6276.17
452.203	6415.43
452.409	6380.62
452.615	6204.49
452.821	6122.57
453.027	5977.17
453.233	6368.33
453.44	6118.48
453.646	6073.42
453.852	6040.65
454.058	6231.12
454.264	6089.81
454.47	6149.2
454.676	6091.85
454.882	6081.61
455.088	5715.03
455.294	5694.55
455.5	5852.24
455.705	5792.85
455.911	5633.11
456.117	5577.81
456.323	5319.77
456.529	5131.36
456.735	5450.84
456.941	5375.06
457.147	5139.55
457.352	5035.1
457.558	4904.03
457.764	5112.92
457.97	4758.63
458.176	4897.89
458.381	4717.67
458.587	4523.11
458.793	4619.36
458.999	4342.89
459.204	4652.13
459.41	4402.28
459.616	4250.73
459.821	4138.09
460.027	4238.44
460.233	4134
460.438	3935.34
460.644	3884.14
460.85	3890.29
461.055	3941.49
461.261	3775.6
461.466	3400.82
461.672	3296.38
461.878	3605.62
462.083	3445.88
462.289	3232.89
462.494	3396.73
462.7	3138.68
462.905	2991.23
463.111	3279.99
463.316	3257.46
463.522	3036.28
463.727	3224.7
463.932	3126.39
464.138	3060.86
464.343	3083.39
464.549	3024
464.754	3107.96
464.959	3124.35
465.165	3183.74
465.37	2978.94
465.575	3005.56
465.781	2991.23
465.986	2976.89
466.191	2929.79
466.397	2823.3
466.602	2765.95
466.807	2790.53
467.012	3026.04
467.218	2745.47
467.423	2837.63
467.628	2790.53
467.833	2940.03
468.038	2755.71
468.244	2681.99
468.449	2925.69
468.654	2667.65
468.859	2800.77
469.064	2690.18
469.269	2602.11
469.474	2712.71
469.679	2645.12
469.885	2628.74
470.09	2612.35
470.295	2602.11
470.5	2626.69
470.705	2622.59
470.91	2636.93
