Data from USB4F104151__13__12-53-13-209.txt Node

Date: Fri Mar 14 12:53:13 EDT 2025
User: louis
Spectrometer: USB4F10415
Trigger mode: 4
Integration Time (sec): 1.000000E-2
Scans to average: 1
Electric dark correction enabled: true
Nonlinearity correction enabled: false
Boxcar width: 0
XAxis mode: Wavelengths
Number of Pixels in Spectrum: 3648
>>>>>Begin Spectral Data<<<<<
178.204	3.41
178.424	3.41
178.644	3.41
178.864	-29.35
179.084	-78.51
179.304	-39.59
179.524	-45.74
179.744	-25.26
179.964	3.41
180.184	1.37
180.404	60.76
180.624	-12.97
180.844	7.51
181.064	-29.35
181.283	54.61
181.503	52.56
181.723	-27.31
181.943	-23.21
182.163	30.04
182.383	-27.31
182.602	-21.16
182.822	23.89
183.042	21.85
183.262	-23.21
183.482	44.37
183.701	15.7
183.921	5.46
184.141	-12.97
184.361	7.51
184.58	-27.31
184.8	58.71
185.02	15.7
185.239	52.56
185.459	68.95
185.679	71
185.898	-60.07
186.118	13.65
186.338	-27.31
186.557	66.9
186.777	44.37
186.997	11.61
187.216	-21.16
187.436	13.65
187.655	7.51
187.875	-10.92
188.095	30.04
188.314	36.18
188.534	36.18
188.753	5.46
188.973	-0.68
189.192	-4.78
189.412	-49.83
189.631	30.04
189.851	40.28
190.07	60.76
190.29	13.65
190.509	34.13
190.729	5.46
190.948	62.8
191.168	21.85
191.387	62.8
191.607	62.8
191.826	77.14
192.045	23.89
192.265	-25.26
192.484	-27.31
192.704	11.61
192.923	-4.78
193.142	81.24
193.362	52.56
193.581	77.14
193.8	-43.69
194.02	9.56
194.239	-35.5
194.458	46.42
194.678	1.37
194.897	34.13
195.116	64.85
195.335	40.28
195.555	44.37
195.774	52.56
195.993	3.41
196.212	5.46
196.432	-21.16
196.651	50.52
196.87	91.48
197.089	68.95
197.308	40.28
197.528	44.37
197.747	13.65
197.966	66.9
198.185	83.28
198.404	-35.5
198.623	1.37
198.842	58.71
199.062	32.08
199.281	71
199.5	-33.45
199.719	91.48
199.938	-17.07
200.157	-51.88
200.376	19.8
200.595	52.56
200.814	-58.03
201.033	-0.68
201.252	-6.83
201.471	48.47
201.69	44.37
201.909	-23.21
202.128	-39.59
202.347	79.19
202.566	32.08
202.785	13.65
203.004	93.52
203.223	25.94
203.442	23.89
203.661	23.89
203.879	-31.4
204.098	38.23
204.317	27.99
204.536	9.56
204.755	-17.07
204.974	21.85
205.193	38.23
205.411	11.61
205.63	30.04
205.849	79.19
206.068	48.47
206.287	95.57
206.505	44.37
206.724	40.28
206.943	3.41
207.162	27.99
207.381	13.65
207.599	36.18
207.818	89.43
208.037	71
208.255	5.46
208.474	-10.92
208.693	-19.11
208.911	-35.5
209.13	17.75
209.349	-58.03
209.567	-31.4
209.786	27.99
210.005	11.61
210.223	5.46
210.442	27.99
210.661	1.37
210.879	73.04
211.098	66.9
211.316	13.65
211.535	19.8
211.753	19.8
211.972	-4.78
212.191	105.81
212.409	36.18
212.628	54.61
212.846	60.76
213.065	19.8
213.283	23.89
213.502	-49.83
213.72	-4.78
213.938	27.99
214.157	-17.07
214.375	58.71
214.594	-35.5
214.812	25.94
215.031	11.61
215.249	34.13
215.467	-41.64
215.686	5.46
215.904	15.7
216.122	-8.87
216.341	44.37
216.559	73.04
216.778	99.67
216.996	46.42
217.214	13.65
217.432	-8.87
217.651	52.56
217.869	7.51
218.087	50.52
218.306	56.66
218.524	36.18
218.742	-23.21
218.96	-55.98
219.179	75.09
219.397	19.8
219.615	52.56
219.833	32.08
220.051	75.09
220.27	44.37
220.488	34.13
220.706	-0.68
220.924	30.04
221.142	5.46
221.36	7.51
221.578	-6.83
221.796	-25.26
222.015	-12.97
222.233	-4.78
222.451	13.65
222.669	27.99
222.887	36.18
223.105	30.04
223.323	-12.97
223.541	-41.64
223.759	66.9
223.977	27.99
224.195	-2.73
224.413	42.32
224.631	42.32
224.849	75.09
225.067	91.48
225.285	40.28
225.503	-10.92
225.721	25.94
225.939	44.37
226.157	7.51
226.375	68.95
226.592	-33.45
226.81	3.41
227.028	103.76
227.246	107.86
227.464	60.76
227.682	17.75
227.9	62.8
228.117	-8.87
228.335	46.42
228.553	-35.5
228.771	62.8
228.989	-12.97
229.206	3.41
229.424	60.76
229.642	42.32
229.86	30.04
230.077	50.52
230.295	-35.5
230.513	64.85
230.731	68.95
230.948	-8.87
231.166	-4.78
231.384	56.66
231.601	21.85
231.819	48.47
232.037	-27.31
232.254	-27.31
232.472	68.95
232.689	-35.5
232.907	-37.55
233.125	42.32
233.342	116.05
233.56	30.04
233.777	19.8
233.995	48.47
234.213	-12.97
234.43	38.23
234.648	58.71
234.865	19.8
235.083	48.47
235.3	36.18
235.518	50.52
235.735	34.13
235.953	21.85
236.17	21.85
236.388	19.8
236.605	-19.11
236.822	101.72
237.04	19.8
237.257	-2.73
237.475	71
237.692	81.24
237.909	-6.83
238.127	-17.07
238.344	77.14
238.562	64.85
238.779	25.94
238.996	-12.97
239.214	64.85
239.431	75.09
239.648	58.71
239.865	54.61
240.083	11.61
240.3	38.23
240.517	32.08
240.735	13.65
240.952	21.85
241.169	60.76
241.386	11.61
241.603	19.8
241.821	-23.21
242.038	44.37
242.255	50.52
242.472	-33.45
242.689	11.61
242.907	42.32
243.124	5.46
243.341	32.08
243.558	5.46
243.775	56.66
243.992	85.33
244.209	77.14
244.426	44.37
244.643	3.41
244.86	21.85
245.078	56.66
245.295	97.62
245.512	64.85
245.729	60.76
245.946	87.38
246.163	-55.98
246.38	54.61
246.597	42.32
246.814	-8.87
247.031	-25.26
247.248	54.61
247.464	87.38
247.681	7.51
247.898	1.37
248.115	19.8
248.332	3.41
248.549	58.71
248.766	3.41
248.983	15.7
249.2	52.56
249.417	87.38
249.633	-4.78
249.85	-33.45
250.067	75.09
250.284	9.56
250.501	56.66
250.717	64.85
250.934	44.37
251.151	23.89
251.368	36.18
251.585	21.85
251.801	36.18
252.018	-10.92
252.235	68.95
252.451	73.04
252.668	-35.5
252.885	-12.97
253.102	44.37
253.318	9.56
253.535	-2.73
253.752	15.7
253.968	44.37
254.185	54.61
254.401	-12.97
254.618	103.76
254.835	-31.4
255.051	50.52
255.268	-10.92
255.484	19.8
255.701	-25.26
255.917	-0.68
256.134	44.37
256.351	68.95
256.567	5.46
256.784	-0.68
257	-41.64
257.217	56.66
257.433	54.61
257.65	-12.97
257.866	83.28
258.082	9.56
258.299	-19.11
258.515	38.23
258.732	21.85
258.948	54.61
259.165	60.76
259.381	34.13
259.597	-66.22
259.814	73.04
260.03	34.13
260.246	17.75
260.463	-0.68
260.679	48.47
260.895	-2.73
261.112	62.8
261.328	-98.99
261.544	-15.02
261.761	64.85
261.977	21.85
262.193	54.61
262.409	19.8
262.626	79.19
262.842	23.89
263.058	-10.92
263.274	93.52
263.49	-2.73
263.707	23.89
263.923	60.76
264.139	83.28
264.355	-21.16
264.571	93.52
264.787	114
265.004	-29.35
265.22	27.99
265.436	11.61
265.652	-55.98
265.868	68.95
266.084	-27.31
266.3	-6.83
266.516	17.75
266.732	19.8
266.948	-6.83
267.164	30.04
267.38	7.51
267.596	-31.4
267.812	11.61
268.028	11.61
268.244	11.61
268.46	38.23
268.676	-29.35
268.892	15.7
269.108	34.13
269.324	44.37
269.54	17.75
269.756	77.14
269.972	40.28
270.188	13.65
270.403	21.85
270.619	44.37
270.835	30.04
271.051	-8.87
271.267	44.37
271.483	15.7
271.698	66.9
271.914	11.61
272.13	73.04
272.346	17.75
272.562	36.18
272.777	52.56
272.993	-15.02
273.209	13.65
273.425	126.29
273.64	5.46
273.856	-6.83
274.072	42.32
274.287	23.89
274.503	23.89
274.719	19.8
274.934	-31.4
275.15	15.7
275.366	60.76
275.581	46.42
275.797	27.99
276.012	97.62
276.228	107.86
276.444	-17.07
276.659	3.41
276.875	-2.73
277.09	118.1
277.306	-6.83
277.521	48.47
277.737	36.18
277.952	1.37
278.168	19.8
278.383	109.91
278.599	-35.5
278.814	17.75
279.03	-10.92
279.245	79.19
279.461	79.19
279.676	95.57
279.892	32.08
280.107	-0.68
280.322	15.7
280.538	-0.68
280.753	36.18
280.969	89.43
281.184	34.13
281.399	30.04
281.615	-29.35
281.83	48.47
282.045	-21.16
282.26	19.8
282.476	64.85
282.691	25.94
282.906	68.95
283.122	34.13
283.337	27.99
283.552	36.18
283.767	3.41
283.983	-8.87
284.198	23.89
284.413	-8.87
284.628	-47.79
284.843	38.23
285.058	-0.68
285.274	103.76
285.489	-33.45
285.704	34.13
285.919	-15.02
286.134	38.23
286.349	120.15
286.564	-2.73
286.779	52.56
286.995	13.65
287.21	38.23
287.425	21.85
287.64	-96.94
287.855	95.57
288.07	-76.46
288.285	75.09
288.5	5.46
288.715	64.85
288.93	52.56
289.145	32.08
289.36	73.04
289.575	-19.11
289.79	85.33
290.004	60.76
290.219	105.81
290.434	7.51
290.649	23.89
290.864	32.08
291.079	11.61
291.294	30.04
291.509	32.08
291.724	46.42
291.938	30.04
292.153	-6.83
292.368	21.85
292.583	81.24
292.798	77.14
293.012	107.86
293.227	30.04
293.442	25.94
293.657	32.08
293.871	42.32
294.086	9.56
294.301	58.71
294.516	7.51
294.73	54.61
294.945	-117.42
295.16	114
295.374	23.89
295.589	52.56
295.804	54.61
296.018	68.95
296.233	-0.68
296.447	79.19
296.662	3.41
296.877	9.56
297.091	38.23
297.306	54.61
297.52	1.37
297.735	32.08
297.949	34.13
298.164	9.56
298.378	-0.68
298.593	105.81
298.807	36.18
299.022	58.71
299.236	50.52
299.451	19.8
299.665	17.75
299.88	-4.78
300.094	-17.07
300.309	23.89
300.523	-2.73
300.737	77.14
300.952	-27.31
301.166	50.52
301.381	-15.02
301.595	40.28
301.809	-29.35
302.024	7.51
302.238	5.46
302.452	34.13
302.667	27.99
302.881	-45.74
303.095	68.95
303.309	62.8
303.524	-41.64
303.738	32.08
303.952	-35.5
304.166	-35.5
304.381	52.56
304.595	64.85
304.809	44.37
305.023	60.76
305.237	27.99
305.452	71
305.666	46.42
305.88	25.94
306.094	38.23
306.308	48.47
306.522	66.9
306.736	52.56
306.95	42.32
307.164	91.48
307.379	66.9
307.593	114
307.807	60.76
308.021	-12.97
308.235	5.46
308.449	42.32
308.663	-0.68
308.877	44.37
309.091	-0.68
309.305	-29.35
309.519	-8.87
309.733	-19.11
309.947	-43.69
310.161	73.04
310.374	95.57
310.588	-35.5
310.802	-78.51
311.016	-45.74
311.23	11.61
311.444	56.66
311.658	30.04
311.872	44.37
312.085	54.61
312.299	21.85
312.513	32.08
312.727	64.85
312.941	25.94
313.154	54.61
313.368	64.85
313.582	19.8
313.796	17.75
314.009	-12.97
314.223	23.89
314.437	21.85
314.651	23.89
314.864	13.65
315.078	38.23
315.292	30.04
315.505	32.08
315.719	42.32
315.933	54.61
316.146	11.61
316.36	19.8
316.573	73.04
316.787	21.85
317.001	89.43
317.214	56.66
317.428	71
317.641	-2.73
317.855	13.65
318.068	21.85
318.282	38.23
318.495	60.76
318.709	146.77
318.922	64.85
319.136	66.9
319.349	11.61
319.563	56.66
319.776	79.19
319.99	-0.68
320.203	-37.55
320.417	-21.16
320.63	36.18
320.843	73.04
321.057	15.7
321.27	58.71
321.483	-55.98
321.697	48.47
321.91	19.8
322.124	30.04
322.337	91.48
322.55	5.46
322.763	40.28
322.977	60.76
323.19	48.47
323.403	128.34
323.617	-27.31
323.83	38.23
324.043	-17.07
324.256	-8.87
324.469	-31.4
324.683	134.48
324.896	-39.59
325.109	17.75
325.322	19.8
325.535	42.32
325.748	27.99
325.962	-43.69
326.175	-15.02
326.388	-33.45
326.601	23.89
326.814	-8.87
327.027	99.67
327.24	111.96
327.453	-10.92
327.666	79.19
327.879	36.18
328.092	50.52
328.305	36.18
328.518	50.52
328.731	79.19
328.944	46.42
329.157	75.09
329.37	-21.16
329.583	-23.21
329.796	48.47
330.009	34.13
330.222	9.56
330.435	60.76
330.648	40.28
330.861	-2.73
331.073	48.47
331.286	101.72
331.499	114
331.712	48.47
331.925	32.08
332.138	68.95
332.35	58.71
332.563	-23.21
332.776	66.9
332.989	13.65
333.202	-45.74
333.414	21.85
333.627	44.37
333.84	71
334.053	103.76
334.265	38.23
334.478	56.66
334.691	11.61
334.903	56.66
335.116	-27.31
335.329	52.56
335.541	75.09
335.754	-21.16
335.966	44.37
336.179	101.72
336.392	19.8
336.604	19.8
336.817	-8.87
337.029	25.94
337.242	38.23
337.454	95.57
337.667	25.94
337.88	52.56
338.092	30.04
338.305	62.8
338.517	32.08
338.729	120.15
338.942	58.71
339.154	81.24
339.367	-21.16
339.579	95.57
339.792	-17.07
340.004	93.52
340.217	62.8
340.429	-41.64
340.641	42.32
340.854	46.42
341.066	81.24
341.278	30.04
341.491	-21.16
341.703	19.8
341.915	-17.07
342.128	-43.69
342.34	-53.93
342.552	17.75
342.764	64.85
342.977	36.18
343.189	-6.83
343.401	27.99
343.613	-29.35
343.826	99.67
344.038	34.13
344.25	19.8
344.462	62.8
344.674	13.65
344.886	19.8
345.099	36.18
345.311	27.99
345.523	-21.16
345.735	-35.5
345.947	52.56
346.159	5.46
346.371	44.37
346.583	17.75
346.795	120.15
347.007	7.51
347.219	1.37
347.431	48.47
347.643	-0.68
347.855	73.04
348.067	62.8
348.279	30.04
348.491	23.89
348.703	62.8
348.915	99.67
349.127	40.28
349.339	66.9
349.551	-15.02
349.763	126.29
349.975	-10.92
350.187	97.62
350.399	75.09
350.61	83.28
350.822	23.89
351.034	68.95
351.246	58.71
351.458	75.09
351.669	111.96
351.881	21.85
352.093	13.65
352.305	19.8
352.517	7.51
352.728	101.72
352.94	-60.07
353.152	58.71
353.363	52.56
353.575	58.71
353.787	46.42
353.999	60.76
354.21	30.04
354.422	19.8
354.633	68.95
354.845	64.85
355.057	-21.16
355.268	48.47
355.48	5.46
355.692	79.19
355.903	17.75
356.115	34.13
356.326	15.7
356.538	56.66
356.749	58.71
356.961	48.47
357.172	-33.45
357.384	81.24
357.595	54.61
357.807	50.52
358.018	36.18
358.23	7.51
358.441	64.85
358.653	-49.83
358.864	91.48
359.075	5.46
359.287	40.28
359.498	126.29
359.709	32.08
359.921	42.32
360.132	81.24
360.344	36.18
360.555	73.04
360.766	97.62
360.977	77.14
361.189	68.95
361.4	-35.5
361.611	68.95
361.823	58.71
362.034	42.32
362.245	52.56
362.456	122.2
362.667	30.04
362.879	54.61
363.09	54.61
363.301	79.19
363.512	140.63
363.723	25.94
363.935	44.37
364.146	42.32
364.357	118.1
364.568	83.28
364.779	5.46
364.99	66.9
365.201	9.56
365.412	38.23
365.623	68.95
365.834	27.99
366.045	23.89
366.256	40.28
366.467	56.66
366.678	46.42
366.889	9.56
367.1	68.95
367.311	81.24
367.522	38.23
367.733	71
367.944	-51.88
368.155	75.09
368.366	105.81
368.577	21.85
368.788	44.37
368.999	107.86
369.209	23.89
369.42	13.65
369.631	126.29
369.842	85.33
370.053	68.95
370.264	32.08
370.474	-15.02
370.685	27.99
370.896	32.08
371.107	50.52
371.317	75.09
371.528	-10.92
371.739	64.85
371.95	56.66
372.16	64.85
372.371	48.47
372.582	79.19
372.792	36.18
373.003	-0.68
373.214	9.56
373.424	40.28
373.635	19.8
373.846	66.9
374.056	42.32
374.267	23.89
374.477	91.48
374.688	40.28
374.898	40.28
375.109	79.19
375.319	1.37
375.53	93.52
375.74	-35.5
375.951	83.28
376.161	71
376.372	9.56
376.582	17.75
376.793	83.28
377.003	79.19
377.214	-2.73
377.424	38.23
377.635	52.56
377.845	-23.21
378.055	83.28
378.266	11.61
378.476	34.13
378.686	9.56
378.897	64.85
379.107	15.7
379.317	60.76
379.528	-19.11
379.738	58.71
379.948	44.37
380.158	25.94
380.369	25.94
380.579	99.67
380.789	68.95
380.999	21.85
381.21	5.46
381.42	62.8
381.63	48.47
381.84	-6.83
382.05	75.09
382.261	52.56
382.471	77.14
382.681	93.52
382.891	21.85
383.101	21.85
383.311	19.8
383.521	50.52
383.731	40.28
383.941	46.42
384.151	42.32
384.361	66.9
384.571	17.75
384.781	58.71
384.991	25.94
385.201	87.38
385.411	30.04
385.621	50.52
385.831	-23.21
386.041	17.75
386.251	9.56
386.461	87.38
386.671	64.85
386.881	71
387.091	54.61
387.301	130.39
387.511	99.67
387.72	-4.78
387.93	19.8
388.14	30.04
388.35	75.09
388.56	60.76
388.769	-19.11
388.979	87.38
389.189	73.04
389.399	13.65
389.609	140.63
389.818	103.76
390.028	54.61
390.238	87.38
390.447	7.51
390.657	71
390.867	5.46
391.076	85.33
391.286	23.89
391.496	48.47
391.705	66.9
391.915	107.86
392.125	5.46
392.334	77.14
392.544	56.66
392.753	79.19
392.963	34.13
393.172	68.95
393.382	30.04
393.591	109.91
393.801	17.75
394.01	91.48
394.22	87.38
394.429	75.09
394.639	62.8
394.848	77.14
395.058	3.41
395.267	48.47
395.477	42.32
395.686	66.9
395.895	68.95
396.105	75.09
396.314	75.09
396.524	83.28
396.733	34.13
396.942	54.61
397.152	68.95
397.361	58.71
397.57	42.32
397.78	40.28
397.989	101.72
398.198	60.76
398.407	36.18
398.617	34.13
398.826	83.28
399.035	132.44
399.244	130.39
399.453	54.61
399.663	42.32
399.872	97.62
400.081	1.37
400.29	101.72
400.499	83.28
400.708	122.2
400.917	25.94
401.127	105.81
401.336	134.48
401.545	152.92
401.754	83.28
401.963	97.62
402.172	9.56
402.381	97.62
402.59	73.04
402.799	109.91
403.008	105.81
403.217	111.96
403.426	93.52
403.635	109.91
403.844	120.15
404.053	116.05
404.262	97.62
404.471	134.48
404.68	89.43
404.888	68.95
405.097	34.13
405.306	89.43
405.515	179.54
405.724	109.91
405.933	111.96
406.142	42.32
406.35	130.39
406.559	134.48
406.768	32.08
406.977	238.93
407.185	114
407.394	130.39
407.603	79.19
407.812	109.91
408.02	122.2
408.229	191.83
408.438	193.87
408.646	105.81
408.855	202.07
409.064	130.39
409.272	83.28
409.481	191.83
409.69	167.25
409.898	140.63
410.107	189.78
410.315	187.73
410.524	240.98
410.733	169.3
410.941	177.49
411.15	240.98
411.358	232.79
411.567	216.4
411.775	259.41
411.984	275.79
412.192	265.55
412.401	230.74
412.609	294.22
412.818	308.56
413.026	259.41
413.234	249.17
413.443	310.61
413.651	308.56
413.86	265.55
414.068	337.23
414.276	355.66
414.485	406.86
414.693	359.76
414.901	406.86
415.11	464.21
415.318	351.57
415.526	478.54
415.734	380.24
415.943	499.02
416.151	519.5
416.359	513.36
416.567	505.17
416.776	490.83
416.984	472.4
417.192	552.27
417.4	550.22
417.608	564.56
417.817	609.61
418.025	593.23
418.233	699.72
418.441	626
418.649	765.26
418.857	669
419.065	701.77
419.273	791.88
419.481	740.68
419.689	800.07
419.897	859.46
420.105	881.99
420.313	904.52
420.521	873.8
420.729	912.71
420.937	955.72
421.145	1008.97
421.353	1037.64
421.561	1123.65
421.769	1123.65
421.977	1254.72
422.185	1094.98
422.393	1236.29
422.601	1264.96
422.809	1310.02
423.017	1277.25
423.224	1346.88
423.432	1418.56
423.64	1408.32
423.848	1453.38
424.056	1439.04
424.263	1674.56
424.471	1602.88
424.679	1660.22
424.887	1819.96
425.094	1709.37
425.302	1834.3
425.51	1848.63
425.718	1989.94
425.925	1961.27
426.133	2045.24
426.341	2000.18
426.548	2145.59
426.756	2254.13
426.964	2153.78
427.171	2383.15
427.379	2460.98
427.586	2344.24
427.794	2526.51
428.001	2733.36
428.209	2729.26
428.417	2733.36
428.624	2927.91
428.832	2850.09
429.039	2995.5
429.247	2845.99
429.454	3083.56
429.662	3321.12
429.869	3142.95
430.076	3415.33
430.284	3267.88
430.491	3441.95
430.699	3583.26
430.906	3753.24
431.114	3726.62
431.321	3865.88
431.528	3861.79
431.736	4058.39
431.943	4252.95
432.15	4273.43
432.358	4373.78
432.565	4386.07
432.772	4476.18
432.979	4699.41
433.187	4640.01
433.394	4926.73
433.601	5221.64
433.808	5090.57
434.016	5180.68
434.223	5328.13
434.43	5694.72
434.637	5567.74
434.844	5952.76
435.052	5995.77
435.259	6081.78
435.466	6071.54
435.673	5985.53
435.88	6374.64
436.087	6657.26
436.294	6937.84
436.501	6518
436.708	6665.46
436.915	6909.16
437.122	7214.31
437.329	7300.33
437.537	7582.95
437.743	7787.74
437.95	7668.96
438.157	8146.14
438.364	8320.21
438.571	8234.2
438.778	8342.74
438.985	9049.29
439.192	8717.52
439.399	8916.17
439.606	8834.25
439.813	9354.44
440.02	10038.46
440.227	9632.96
440.433	9669.83
440.64	9841.86
440.847	9909.44
441.054	10073.28
441.261	10839.22
441.467	10615.99
441.674	10824.88
441.881	11267.24
442.088	11166.89
442.294	11252.91
442.501	11455.65
442.708	11777.19
442.914	12213.4
443.121	12745.87
443.328	12489.88
443.534	13292.68
443.741	12905.62
443.948	12584.09
444.154	13542.53
444.361	13710.47
444.568	13487.24
444.774	13665.41
444.981	14013.57
445.187	14079.1
445.394	14738.55
445.6	14713.97
445.807	16178.27
446.013	15273.07
446.22	15740.01
446.426	16221.28
446.633	16360.54
446.839	16815.19
447.046	15930.47
447.252	17173.58
447.459	16829.52
447.665	16995.41
447.871	17955.91
448.078	18742.33
448.284	17812.55
448.491	18244.67
448.697	18795.57
448.903	19293.23
449.11	19280.94
449.316	19201.07
449.522	19557.42
449.728	19921.96
449.935	19950.63
450.141	20311.07
450.347	20599.83
450.553	19911.72
450.76	20165.67
450.966	20855.83
451.172	20732.95
451.378	21283.86
451.584	20591.64
451.791	21330.96
451.997	21124.11
452.203	21619.72
452.409	21830.66
452.615	21646.35
452.821	20591.64
453.027	20511.77
453.233	21752.84
453.44	20958.23
453.646	20773.91
453.852	21140.5
454.058	21421.07
454.264	20884.5
454.47	21187.6
454.676	20524.06
454.882	21648.39
455.088	19541.04
455.294	19547.18
455.5	20161.57
455.705	20329.5
455.911	19379.25
456.117	19350.57
456.323	19029.04
456.529	17898.56
456.735	18633.78
456.941	18373.69
457.147	17835.08
457.352	17517.64
457.558	17249.36
457.764	17452.11
457.97	17003.6
458.176	16682.07
458.381	16606.3
458.587	15772.77
458.793	16026.72
458.999	14855.28
459.204	16131.17
459.41	15635.56
459.616	14562.42
459.821	14627.96
460.027	14576.76
460.233	14273.66
460.438	13700.23
460.644	13757.57
460.85	13171.85
461.055	12934.29
461.261	12950.67
461.466	11932.83
461.672	11912.35
461.878	12526.74
462.083	11422.89
462.289	11302.06
462.494	11543.72
462.7	10751.15
462.905	10575.03
463.111	10878.13
463.316	10867.89
463.522	10839.22
463.727	10736.82
463.932	10878.13
464.138	10878.13
464.343	10923.18
464.549	10306.74
464.754	10835.12
464.959	10597.56
465.165	10544.31
465.37	10071.23
465.575	10040.51
465.781	10284.22
465.986	10450.1
466.191	10155.19
466.397	9858.24
466.602	9424.07
466.807	9798.85
467.012	9727.17
467.218	9684.16
467.423	9397.45
467.628	9520.32
467.833	9981.12
468.038	9485.51
468.244	9391.3
468.449	9833.66
468.654	9589.95
468.859	9311.43
469.064	9379.01
