Data from USB4F104151__71__12-54-38-968.txt Node

Date: Fri Mar 14 12:54:38 EDT 2025
User: louis
Spectrometer: USB4F10415
Trigger mode: 4
Integration Time (sec): 1.000000E-2
Scans to average: 1
Electric dark correction enabled: true
Nonlinearity correction enabled: false
Boxcar width: 0
XAxis mode: Wavelengths
Number of Pixels in Spectrum: 3648
>>>>>Begin Spectral Data<<<<<
178.204	-24.4
178.424	-24.4
178.644	-24.4
178.864	-87.89
179.084	-94.04
179.304	-3.93
179.524	18.6
179.744	-8.02
179.964	-28.5
180.184	-26.45
180.404	34.99
180.624	41.13
180.844	-14.17
181.064	-16.21
181.283	-18.26
181.503	59.56
181.723	-38.74
181.943	8.36
182.163	32.94
182.383	-1.88
182.602	-26.45
182.822	28.84
183.042	-5.97
183.262	-3.93
183.482	10.41
183.701	-5.97
183.921	8.36
184.141	0.17
184.361	53.42
184.58	-44.88
184.8	8.36
185.02	-26.45
185.239	43.18
185.459	-61.27
185.679	18.6
185.898	2.22
186.118	43.18
186.338	12.46
186.557	26.79
186.777	-36.69
186.997	-38.74
187.216	10.41
187.436	41.13
187.655	-22.36
187.875	2.22
188.095	-20.31
188.314	22.7
188.534	22.7
188.753	-12.12
188.973	-36.69
189.192	53.42
189.412	-48.98
189.631	4.27
189.851	18.6
190.07	30.89
190.29	14.51
190.509	18.6
190.729	-28.5
190.948	16.55
191.168	26.79
191.387	24.75
191.607	-14.17
191.826	-28.5
192.045	-24.4
192.265	39.08
192.484	65.71
192.704	-30.55
192.923	10.41
193.142	59.56
193.362	-65.36
193.581	-30.55
193.8	-8.02
194.02	86.19
194.239	-3.93
194.458	-36.69
194.678	-69.46
194.897	-106.32
195.116	14.51
195.335	16.55
195.555	-16.21
195.774	34.99
195.993	47.27
196.212	-38.74
196.432	69.8
196.651	-12.12
196.87	-5.97
197.089	57.51
197.308	-12.12
197.528	26.79
197.747	10.41
197.966	-14.17
198.185	59.56
198.404	-14.17
198.623	37.03
198.842	37.03
199.062	-12.12
199.281	16.55
199.5	-24.4
199.719	43.18
199.938	-46.93
200.157	63.66
200.376	6.31
200.595	-18.26
200.814	-14.17
201.033	-28.5
201.252	32.94
201.471	-1.88
201.69	24.75
201.909	22.7
202.128	-20.31
202.347	-22.36
202.566	-5.97
202.785	-12.12
203.004	-14.17
203.223	-34.64
203.442	-10.07
203.661	-118.61
203.879	-3.93
204.098	61.61
204.317	4.27
204.536	8.36
204.755	-5.97
204.974	53.42
205.193	80.04
205.411	28.84
205.63	0.17
205.849	86.19
206.068	14.51
206.287	10.41
206.505	37.03
206.724	-14.17
206.943	6.31
207.162	-38.74
207.381	16.55
207.599	67.75
207.818	-14.17
208.037	10.41
208.255	0.17
208.474	-24.4
208.693	-22.36
208.911	4.27
209.13	18.6
209.349	32.94
209.567	-5.97
209.786	-30.55
210.005	8.36
210.223	18.6
210.442	-57.17
210.661	26.79
210.879	8.36
211.098	20.65
211.316	8.36
211.535	0.17
211.753	37.03
211.972	2.22
212.191	14.51
212.409	18.6
212.628	-42.84
212.846	-16.21
213.065	-10.07
213.283	63.66
213.502	51.37
213.72	43.18
213.938	32.94
214.157	28.84
214.375	-38.74
214.594	32.94
214.812	-28.5
215.031	49.32
215.249	41.13
215.467	73.9
215.686	-77.65
215.904	32.94
216.122	53.42
216.341	12.46
216.559	4.27
216.778	-65.36
216.996	18.6
217.214	32.94
217.432	39.08
217.651	0.17
217.869	-48.98
218.087	10.41
218.306	-16.21
218.524	39.08
218.742	-3.93
218.96	84.14
219.179	0.17
219.397	-22.36
219.615	-28.5
219.833	-73.56
220.051	-71.51
220.27	98.47
220.488	-53.08
220.706	69.8
220.924	22.7
221.142	4.27
221.36	20.65
221.578	73.9
221.796	-14.17
222.015	-14.17
222.233	-81.75
222.451	88.23
222.669	-40.79
222.887	-1.88
223.105	4.27
223.323	-20.31
223.541	-36.69
223.759	55.47
223.977	10.41
224.195	20.65
224.413	-5.97
224.631	-22.36
224.849	26.79
225.067	45.23
225.285	12.46
225.503	4.27
225.721	30.89
225.939	49.32
226.157	61.61
226.375	55.47
226.592	-36.69
226.81	0.17
227.028	-22.36
227.246	-22.36
227.464	-14.17
227.682	51.37
227.9	-24.4
228.117	-14.17
228.335	-57.17
228.553	47.27
228.771	-22.36
228.989	-34.64
229.206	-12.12
229.424	-12.12
229.642	-32.6
229.86	-20.31
230.077	-46.93
230.295	-5.97
230.513	-61.27
230.731	-22.36
230.948	80.04
231.166	28.84
231.384	-28.5
231.601	-65.36
231.819	-14.17
232.037	22.7
232.254	-3.93
232.472	32.94
232.689	-51.03
232.907	-14.17
233.125	12.46
233.342	24.75
233.56	-59.22
233.777	-28.5
233.995	16.55
234.213	90.28
234.43	47.27
234.648	24.75
234.865	-28.5
235.083	-16.21
235.3	8.36
235.518	-30.55
235.735	47.27
235.953	49.32
236.17	-5.97
236.388	18.6
236.605	-20.31
236.822	106.67
237.04	32.94
237.257	22.7
237.475	-28.5
237.692	-14.17
237.909	16.55
238.127	-14.17
238.344	63.66
238.562	12.46
238.779	-57.17
238.996	-32.6
239.214	8.36
239.431	-32.6
239.648	-12.12
239.865	24.75
240.083	30.89
240.3	-44.88
240.517	6.31
240.735	8.36
240.952	-34.64
241.169	92.33
241.386	14.51
241.603	16.55
241.821	-3.93
242.038	-14.17
242.255	10.41
242.472	-65.36
242.689	-8.02
242.907	-46.93
243.124	10.41
243.341	2.22
243.558	20.65
243.775	65.71
243.992	-28.5
244.209	-3.93
244.426	6.31
244.643	-8.02
244.86	-26.45
245.078	28.84
245.295	-55.12
245.512	-12.12
245.729	8.36
245.946	82.09
246.163	6.31
246.38	-3.93
246.597	-3.93
246.814	14.51
247.031	39.08
247.248	71.85
247.464	-34.64
247.681	20.65
247.898	16.55
248.115	-34.64
248.332	6.31
248.549	-36.69
248.766	30.89
248.983	4.27
249.2	34.99
249.417	-16.21
249.633	-55.12
249.85	20.65
250.067	-16.21
250.284	20.65
250.501	20.65
250.717	-20.31
250.934	24.75
251.151	57.51
251.368	-42.84
251.585	100.52
251.801	-40.79
252.018	0.17
252.235	-14.17
252.451	4.27
252.668	-24.4
252.885	77.99
253.102	12.46
253.318	41.13
253.535	-55.12
253.752	-71.51
253.968	8.36
254.185	26.79
254.401	-42.84
254.618	47.27
254.835	6.31
255.051	24.75
255.268	34.99
255.484	-1.88
255.701	-36.69
255.917	45.23
256.134	22.7
256.351	-32.6
256.567	-79.7
256.784	2.22
257	-46.93
257.217	-1.88
257.433	18.6
257.65	-22.36
257.866	0.17
258.082	34.99
258.299	12.46
258.515	57.51
258.732	26.79
258.948	-1.88
259.165	24.75
259.381	-44.88
259.597	-44.88
259.814	-38.74
260.03	45.23
260.246	-3.93
260.463	6.31
260.679	4.27
260.895	30.89
261.112	30.89
261.328	-14.17
261.544	-20.31
261.761	-8.02
261.977	18.6
262.193	96.43
262.409	43.18
262.626	39.08
262.842	77.99
263.058	-44.88
263.274	20.65
263.49	-5.97
263.707	-20.31
263.923	4.27
264.139	10.41
264.355	61.61
264.571	61.61
264.787	-28.5
265.004	30.89
265.22	-5.97
265.436	8.36
265.652	-16.21
265.868	-1.88
266.084	-5.97
266.3	-10.07
266.516	-24.4
266.732	4.27
266.948	49.32
267.164	43.18
267.38	32.94
267.596	51.37
267.812	18.6
268.028	-32.6
268.244	-81.75
268.46	-59.22
268.676	2.22
268.892	39.08
269.108	39.08
269.324	0.17
269.54	-55.12
269.756	26.79
269.972	10.41
270.188	-40.79
270.403	47.27
270.619	-30.55
270.835	-26.45
271.051	-28.5
271.267	8.36
271.483	-14.17
271.698	47.27
271.914	-30.55
272.13	-1.88
272.346	77.99
272.562	-22.36
272.777	-3.93
272.993	-32.6
273.209	12.46
273.425	-1.88
273.64	55.47
273.856	16.55
274.072	53.42
274.287	-55.12
274.503	6.31
274.719	4.27
274.934	16.55
275.15	-51.03
275.366	-46.93
275.581	86.19
275.797	-3.93
276.012	6.31
276.228	71.85
276.444	-51.03
276.659	0.17
276.875	-69.46
277.09	14.51
277.306	10.41
277.521	18.6
277.737	18.6
277.952	-94.04
278.168	49.32
278.383	2.22
278.599	34.99
278.814	-57.17
279.03	-57.17
279.245	82.09
279.461	-42.84
279.676	-30.55
279.892	-96.08
280.107	8.36
280.322	-75.6
280.538	-46.93
280.753	-46.93
280.969	34.99
281.184	28.84
281.399	-22.36
281.615	-1.88
281.83	-26.45
282.045	-75.6
282.26	6.31
282.476	10.41
282.691	49.32
282.906	-12.12
283.122	-55.12
283.337	43.18
283.552	-5.97
283.767	-5.97
283.983	51.37
284.198	-40.79
284.413	57.51
284.628	-59.22
284.843	22.7
285.058	20.65
285.274	55.47
285.489	26.79
285.704	-10.07
285.919	-3.93
286.134	43.18
286.349	53.42
286.564	18.6
286.779	14.51
286.995	43.18
287.21	12.46
287.425	18.6
287.64	43.18
287.855	2.22
288.07	2.22
288.285	34.99
288.5	110.76
288.715	37.03
288.93	-16.21
289.145	37.03
289.36	22.7
289.575	-20.31
289.79	49.32
290.004	18.6
290.219	28.84
290.434	39.08
290.649	-16.21
290.864	-5.97
291.079	32.94
291.294	77.99
291.509	-46.93
291.724	47.27
291.938	-5.97
292.153	-69.46
292.368	-28.5
292.583	34.99
292.798	-5.97
293.012	-10.07
293.227	-38.74
293.442	24.75
293.657	51.37
293.871	-14.17
294.086	-38.74
294.301	-1.88
294.516	34.99
294.73	-3.93
294.945	4.27
295.16	-3.93
295.374	61.61
295.589	6.31
295.804	-32.6
296.018	-26.45
296.233	-14.17
296.447	10.41
296.662	-48.98
296.877	-51.03
297.091	18.6
297.306	67.75
297.52	6.31
297.735	26.79
297.949	-89.94
298.164	-67.41
298.378	-32.6
298.593	-14.17
298.807	-5.97
299.022	30.89
299.236	-14.17
299.451	-14.17
299.665	-1.88
299.88	34.99
300.094	-16.21
300.309	-42.84
300.523	-26.45
300.737	45.23
300.952	-1.88
301.166	-26.45
301.381	-48.98
301.595	51.37
301.809	-48.98
302.024	47.27
302.238	6.31
302.452	-3.93
302.667	26.79
302.881	43.18
303.095	-40.79
303.309	32.94
303.524	18.6
303.738	-3.93
303.952	-42.84
304.166	39.08
304.381	-36.69
304.595	59.56
304.809	-42.84
305.023	-12.12
305.237	39.08
305.452	-38.74
305.666	-46.93
305.88	41.13
306.094	-22.36
306.308	108.71
306.522	-1.88
306.736	45.23
306.95	-8.02
307.164	-40.79
307.379	41.13
307.593	67.75
307.807	30.89
308.021	24.75
308.235	-75.6
308.449	-69.46
308.663	-61.27
308.877	45.23
309.091	-3.93
309.305	39.08
309.519	-34.64
309.733	-32.6
309.947	32.94
310.161	-24.4
310.374	-63.32
310.588	10.41
310.802	-18.26
311.016	-44.88
311.23	4.27
311.444	53.42
311.658	39.08
311.872	43.18
312.085	-34.64
312.299	30.89
312.513	84.14
312.727	-42.84
312.941	90.28
313.154	26.79
313.368	4.27
313.582	86.19
313.796	-59.22
314.009	73.9
314.223	-28.5
314.437	-55.12
314.651	8.36
314.864	-30.55
315.078	59.56
315.292	-10.07
315.505	-5.97
315.719	39.08
315.933	39.08
316.146	32.94
316.36	-5.97
316.573	-10.07
316.787	18.6
317.001	30.89
317.214	59.56
317.428	55.47
317.641	-14.17
317.855	20.65
318.068	-28.5
318.282	59.56
318.495	75.95
318.709	84.14
318.922	51.37
319.136	41.13
319.349	22.7
319.563	8.36
319.776	-16.21
319.99	49.32
320.203	26.79
320.417	-16.21
320.63	26.79
320.843	98.47
321.057	-10.07
321.27	-18.26
321.483	63.66
321.697	4.27
321.91	-44.88
322.124	-69.46
322.337	32.94
322.55	-63.32
322.763	43.18
322.977	92.33
323.19	-3.93
323.403	30.89
323.617	-30.55
323.83	90.28
324.043	-5.97
324.256	-38.74
324.469	-34.64
324.683	-26.45
324.896	37.03
325.109	-10.07
325.322	8.36
325.535	55.47
325.748	63.66
325.962	-10.07
326.175	-51.03
326.388	4.27
326.601	10.41
326.814	22.7
327.027	-10.07
327.24	8.36
327.453	10.41
327.666	-20.31
327.879	-16.21
328.092	-10.07
328.305	8.36
328.518	10.41
328.731	41.13
328.944	14.51
329.157	82.09
329.37	57.51
329.583	14.51
329.796	37.03
330.009	-44.88
330.222	49.32
330.435	-26.45
330.648	57.51
330.861	6.31
331.073	-71.51
331.286	12.46
331.499	6.31
331.712	0.17
331.925	-14.17
332.138	20.65
332.35	-18.26
332.563	-5.97
332.776	-16.21
332.989	-8.02
333.202	14.51
333.414	20.65
333.627	14.51
333.84	-36.69
334.053	-5.97
334.265	28.84
334.478	-3.93
334.691	-38.74
334.903	32.94
335.116	34.99
335.329	30.89
335.541	-34.64
335.754	55.47
335.966	30.89
336.179	30.89
336.392	-32.6
336.604	67.75
336.817	63.66
337.029	6.31
337.242	32.94
337.454	-10.07
337.667	32.94
337.88	-24.4
338.092	28.84
338.305	24.75
338.517	12.46
338.729	-5.97
338.942	-53.08
339.154	4.27
339.367	-30.55
339.579	14.51
339.792	47.27
340.004	26.79
340.217	-38.74
340.429	-38.74
340.641	-20.31
340.854	-22.36
341.066	26.79
341.278	71.85
341.491	51.37
341.703	-81.75
341.915	28.84
342.128	63.66
342.34	45.23
342.552	2.22
342.764	69.8
342.977	12.46
343.189	2.22
343.401	75.95
343.613	-14.17
343.826	-71.51
344.038	-36.69
344.25	2.22
344.462	30.89
344.674	-14.17
344.886	34.99
345.099	10.41
345.311	30.89
345.523	-57.17
345.735	67.75
345.947	-18.26
346.159	-12.12
346.371	6.31
346.583	30.89
346.795	-24.4
347.007	14.51
347.219	39.08
347.431	37.03
347.643	-22.36
347.855	12.46
348.067	26.79
348.279	-63.32
348.491	100.52
348.703	-20.31
348.915	-32.6
349.127	26.79
349.339	32.94
349.551	-46.93
349.763	47.27
349.975	-12.12
350.187	45.23
350.399	45.23
350.61	-5.97
350.822	53.42
351.034	-16.21
351.246	-8.02
351.458	-65.36
351.669	6.31
351.881	-16.21
352.093	8.36
352.305	-18.26
352.517	-1.88
352.728	37.03
352.94	65.71
353.152	-40.79
353.363	51.37
353.575	-8.02
353.787	57.51
353.999	-26.45
354.21	32.94
354.422	24.75
354.633	22.7
354.845	10.41
355.057	32.94
355.268	-28.5
355.48	6.31
355.692	-5.97
355.903	12.46
356.115	-5.97
356.326	20.65
356.538	34.99
356.749	59.56
356.961	-20.31
357.172	-22.36
357.384	18.6
357.595	57.51
357.807	-1.88
358.018	22.7
358.23	16.55
358.441	-38.74
358.653	47.27
358.864	18.6
359.075	4.27
359.287	-36.69
359.498	61.61
359.709	-51.03
359.921	55.47
360.132	-34.64
360.344	-32.6
360.555	8.36
360.766	12.46
360.977	20.65
361.189	-5.97
361.4	-5.97
361.611	-16.21
361.823	65.71
362.034	26.79
362.245	-44.88
362.456	2.22
362.667	-8.02
362.879	32.94
363.09	-48.98
363.301	0.17
363.512	-42.84
363.723	-46.93
363.935	43.18
364.146	-36.69
364.357	-10.07
364.568	-30.55
364.779	18.6
364.99	-5.97
365.201	-5.97
365.412	80.04
365.623	24.75
365.834	12.46
366.045	104.62
366.256	73.9
366.467	-10.07
366.678	59.56
366.889	-5.97
367.1	61.61
367.311	-44.88
367.522	24.75
367.733	0.17
367.944	-5.97
368.155	-36.69
368.366	8.36
368.577	-12.12
368.788	-3.93
368.999	-5.97
369.209	12.46
369.42	100.52
369.631	-26.45
369.842	57.51
370.053	-3.93
370.264	0.17
370.474	37.03
370.685	-10.07
370.896	2.22
371.107	90.28
371.317	2.22
371.528	-34.64
371.739	39.08
371.95	-22.36
372.16	12.46
372.371	30.89
372.582	20.65
372.792	-22.36
373.003	28.84
373.214	6.31
373.424	-46.93
373.635	41.13
373.846	-8.02
374.056	-20.31
374.267	41.13
374.477	-18.26
374.688	57.51
374.898	47.27
375.109	59.56
375.319	-51.03
375.53	80.04
375.74	37.03
375.951	-10.07
376.161	43.18
376.372	63.66
376.582	-81.75
376.793	61.61
377.003	-10.07
377.214	-57.17
377.424	67.75
377.635	32.94
377.845	-63.32
378.055	-34.64
378.266	-10.07
378.476	14.51
378.686	-12.12
378.897	-1.88
379.107	4.27
379.317	26.79
379.528	82.09
379.738	-3.93
379.948	-34.64
380.158	61.61
380.369	59.56
380.579	-3.93
380.789	55.47
380.999	10.41
381.21	26.79
381.42	32.94
381.63	80.04
381.84	39.08
382.05	8.36
382.261	6.31
382.471	61.61
382.681	2.22
382.891	-8.02
383.101	-20.31
383.311	59.56
383.521	63.66
383.731	57.51
383.941	-18.26
384.151	51.37
384.361	30.89
384.571	-63.32
384.781	-48.98
384.991	-10.07
385.201	39.08
385.411	-51.03
385.621	82.09
385.831	59.56
386.041	-20.31
386.251	39.08
386.461	77.99
386.671	8.36
386.881	92.33
387.091	-20.31
387.301	67.75
387.511	4.27
387.72	16.55
387.93	51.37
388.14	-28.5
388.35	-8.02
388.56	-10.07
388.769	0.17
388.979	45.23
389.189	12.46
389.399	43.18
389.609	34.99
389.818	-20.31
390.028	41.13
390.238	8.36
390.447	-38.74
390.657	28.84
390.867	-55.12
391.076	80.04
391.286	53.42
391.496	26.79
391.705	32.94
391.915	75.95
392.125	24.75
392.334	-67.41
392.544	30.89
392.753	-3.93
392.963	-48.98
393.172	-8.02
393.382	61.61
393.591	30.89
393.801	-36.69
394.01	-30.55
394.22	26.79
394.429	6.31
394.639	55.47
394.848	28.84
395.058	4.27
395.267	39.08
395.477	77.99
395.686	-44.88
395.895	69.8
396.105	43.18
396.314	-18.26
396.524	71.85
396.733	69.8
396.942	45.23
397.152	10.41
397.361	14.51
397.57	-16.21
397.78	94.38
397.989	0.17
398.198	53.42
398.407	84.14
398.617	26.79
398.826	41.13
399.035	-3.93
399.244	43.18
399.453	69.8
399.663	41.13
399.872	2.22
400.081	75.95
400.29	84.14
400.499	-3.93
400.708	43.18
400.917	63.66
401.127	127.14
401.336	43.18
401.545	80.04
401.754	51.37
401.963	28.84
402.172	-44.88
402.381	65.71
402.59	14.51
402.799	6.31
403.008	30.89
403.217	80.04
403.426	127.14
403.635	-14.17
403.844	24.75
404.053	137.38
404.262	106.67
404.471	75.95
404.68	106.67
404.888	53.42
405.097	86.19
405.306	59.56
405.515	77.99
405.724	59.56
405.933	63.66
406.142	80.04
406.35	51.37
406.559	12.46
406.768	86.19
406.977	34.99
407.185	47.27
407.394	149.67
407.603	55.47
407.812	102.57
408.02	137.38
408.229	53.42
408.438	84.14
408.646	59.56
408.855	174.25
409.064	110.76
409.272	166.06
409.481	137.38
409.69	116.9
409.898	174.25
410.107	67.75
410.315	164.01
410.524	137.38
410.733	141.48
410.941	116.9
411.15	125.1
411.358	184.49
411.567	112.81
411.775	239.78
411.984	245.93
412.192	149.67
412.401	141.48
412.609	96.43
412.818	204.97
413.026	211.11
413.234	180.39
413.443	252.07
413.651	258.21
413.86	272.55
414.068	266.41
414.276	227.5
414.485	258.21
414.693	243.88
414.901	336.04
415.11	295.08
415.318	325.8
415.526	297.13
415.734	366.76
415.943	362.66
416.151	436.39
416.359	336.04
416.567	399.52
416.776	391.33
416.984	391.33
417.192	458.92
417.4	448.68
417.608	333.99
417.817	479.4
418.025	503.97
418.233	522.4
418.441	479.4
418.649	487.59
418.857	606.37
419.065	618.66
419.273	522.4
419.481	641.18
419.689	606.37
419.897	682.14
420.105	653.47
420.313	725.15
420.521	723.1
420.729	845.98
420.937	766.11
421.145	796.83
421.353	776.35
421.561	870.56
421.769	911.52
421.977	876.7
422.185	845.98
422.393	1005.72
422.601	1058.97
422.809	1054.87
423.017	1108.12
423.224	1110.17
423.432	1177.75
423.64	1206.42
423.848	1157.27
424.056	1251.48
424.263	1265.82
424.471	1306.77
424.679	1304.73
424.887	1409.17
425.094	1454.23
425.302	1474.71
425.51	1484.95
425.718	1554.58
425.925	1523.86
426.133	1562.77
426.341	1648.79
426.548	1742.99
426.756	1740.94
426.964	1820.81
427.171	2001.04
427.379	2011.28
427.586	2154.63
427.794	2136.2
428.001	2048.14
428.209	2263.18
428.417	2185.35
428.624	2363.53
428.832	2375.81
429.039	2384.01
429.247	2400.39
429.454	2652.29
429.662	2719.87
429.869	2558.08
430.076	2691.2
430.284	2744.45
430.491	2797.7
430.699	2936.96
430.906	2932.86
431.114	3002.49
431.321	3119.23
431.528	3133.56
431.736	3371.13
431.943	3547.25
432.15	3561.59
432.358	3469.43
432.565	3741.81
432.772	3754.1
432.979	3848.3
433.187	3897.46
433.394	3895.41
433.601	4317.29
433.808	4180.07
434.016	4235.37
434.223	4229.23
434.43	4558.95
434.637	4515.94
434.844	4847.71
435.052	5027.93
435.259	4964.45
435.466	4917.34
435.673	4989.02
435.88	5281.88
436.087	5468.25
436.294	5523.54
436.501	5374.04
436.708	5568.6
436.915	5660.76
437.122	5896.27
437.329	5883.98
437.537	6080.59
437.743	6334.54
437.95	6182.99
438.157	6598.73
438.364	6748.23
438.571	6633.54
438.778	6694.98
438.985	7344.19
439.192	7034.94
439.399	7245.88
439.606	7082.05
439.813	7467.06
440.02	7950.39
440.227	7811.12
440.433	7888.95
440.64	8116.27
440.847	8017.97
441.054	8032.3
441.261	8579.11
441.467	8587.3
441.674	8933.41
441.881	9109.54
442.088	9123.87
442.294	8978.47
442.501	9230.37
442.708	9431.07
442.914	9748.5
443.121	10344.46
443.328	9924.63
443.534	10672.14
443.741	10389.52
443.948	10278.93
444.154	11110.4
444.361	11175.94
444.568	10934.28
444.774	11046.91
444.981	11233.28
445.187	11436.03
445.394	11943.92
445.6	11683.83
445.807	12990.44
446.013	12400.62
446.22	12728.3
446.426	13383.65
446.633	13299.68
446.839	13731.8
447.046	13350.88
447.252	13887.45
447.459	14133.2
447.665	13987.8
447.871	14690.25
448.078	15472.57
448.284	14450.64
448.491	14731.21
448.697	15439.81
448.903	15796.15
449.11	15828.92
449.316	15591.36
449.522	15978.42
449.728	16209.84
449.935	16469.94
450.141	16525.23
450.347	16689.07
450.553	16246.71
450.76	16402.35
450.966	17076.13
451.172	16906.15
451.378	17545.12
451.584	16975.78
451.791	17416.1
451.997	17123.24
452.203	17584.03
452.409	17749.92
452.615	17430.43
452.821	17172.39
453.027	16795.56
453.233	17477.54
453.44	17090.47
453.646	17147.81
453.852	16940.97
454.058	17354.66
454.264	17078.18
454.47	17190.82
454.676	16811.95
454.882	17440.67
455.088	15744.95
455.294	16121.78
455.5	16433.07
455.705	16596.91
455.911	15679.42
456.117	15550.4
456.323	15605.69
456.529	14460.88
456.735	15118.28
456.941	14729.16
457.147	14485.45
457.352	14131.16
457.558	13830.1
457.764	14063.57
457.97	13752.28
458.176	13236.19
458.381	13520.86
458.587	12724.2
458.793	12851.17
458.999	11954.16
459.204	12933.09
459.41	12484.59
459.616	11829.24
459.821	11737.08
460.027	11710.46
460.233	11403.26
460.438	10967.04
460.644	11298.81
460.85	10432.52
461.055	10262.54
461.261	10459.15
461.466	9652.25
461.672	9443.35
461.878	9816.08
462.083	9316.38
462.289	9060.38
462.494	9041.95
462.7	8556.58
462.905	8511.53
463.111	8853.54
463.316	8794.15
463.522	8542.25
463.727	8566.82
463.932	8667.17
464.138	8429.61
464.343	8622.12
464.549	8321.07
464.754	8384.55
464.959	8486.95
465.165	8368.17
465.37	7942.19
465.575	7925.81
465.781	8075.31
465.986	8183.85
466.191	7907.38
466.397	7536.7
466.602	7393.34
466.807	7792.69
467.012	7735.35
467.218	7692.34
467.423	7335.99
