Data from USB4F104151__78__12-54-43-098.txt Node

Date: Fri Mar 14 12:54:43 EDT 2025
User: louis
Spectrometer: USB4F10415
Trigger mode: 4
Integration Time (sec): 1.000000E-2
Scans to average: 1
Electric dark correction enabled: true
Nonlinearity correction enabled: false
Boxcar width: 0
XAxis mode: Wavelengths
Number of Pixels in Spectrum: 3648
>>>>>Begin Spectral Data<<<<<
178.204	-89.26
178.424	-89.26
178.644	-89.26
178.864	-27.82
179.084	-56.49
179.304	0.85
179.524	-7.34
179.744	-36.01
179.964	-9.39
180.184	-13.48
180.404	41.81
180.624	25.43
180.844	17.24
181.064	-87.21
181.283	90.96
181.503	-5.29
181.723	-17.58
181.943	-44.2
182.163	-36.01
182.383	-15.53
182.602	4.95
182.822	17.24
183.042	56.15
183.262	-31.91
183.482	33.62
183.701	-11.43
183.921	13.14
184.141	64.34
184.361	39.76
184.58	-40.11
184.8	15.19
185.02	15.19
185.239	27.48
185.459	-15.53
185.679	76.63
185.898	-124.07
186.118	31.57
186.338	-13.48
186.557	43.86
186.777	13.14
186.997	-36.01
187.216	-33.96
187.436	-44.2
187.655	9.05
187.875	-31.91
188.095	31.57
188.314	-33.96
188.534	-1.19
188.753	50
188.973	54.1
189.192	9.05
189.412	0.85
189.631	-11.43
189.851	-36.01
190.07	70.48
190.29	4.95
190.509	-7.34
190.729	52.05
190.948	41.81
191.168	78.68
191.387	11.09
191.607	-7.34
191.826	11.09
192.045	2.9
192.265	39.76
192.484	-40.11
192.704	37.72
192.923	-42.15
193.142	84.82
193.362	-19.63
193.581	11.09
193.8	105.3
194.02	35.67
194.239	64.34
194.458	19.29
194.678	-46.25
194.897	37.72
195.116	60.24
195.335	31.57
195.555	-25.77
195.774	25.43
195.993	-23.72
196.212	0.85
196.432	-9.39
196.651	-1.19
196.87	-48.3
197.089	74.58
197.308	2.9
197.528	-17.58
197.747	27.48
197.966	11.09
198.185	-62.63
198.404	-64.68
198.623	56.15
198.842	11.09
199.062	27.48
199.281	39.76
199.5	-31.91
199.719	50
199.938	2.9
200.157	50
200.376	-25.77
200.595	80.72
200.814	-29.87
201.033	58.2
201.252	4.95
201.471	62.29
201.69	11.09
201.909	23.38
202.128	35.67
202.347	-40.11
202.566	-17.58
202.785	-33.96
203.004	-33.96
203.223	-1.19
203.442	-40.11
203.661	-17.58
203.879	4.95
204.098	-33.96
204.317	-9.39
204.536	-93.35
204.755	52.05
204.974	47.96
205.193	4.95
205.411	80.72
205.63	-25.77
205.849	54.1
206.068	-33.96
206.287	-17.58
206.505	4.95
206.724	0.85
206.943	64.34
207.162	-17.58
207.381	-76.97
207.599	47.96
207.818	-15.53
208.037	62.29
208.255	4.95
208.474	2.9
208.693	2.9
208.911	47.96
209.13	33.62
209.349	23.38
209.567	41.81
209.786	35.67
210.005	7
210.223	4.95
210.442	-42.15
210.661	56.15
210.879	47.96
211.098	13.14
211.316	2.9
211.535	58.2
211.753	-7.34
211.972	-31.91
212.191	-36.01
212.409	37.72
212.628	47.96
212.846	-23.72
213.065	35.67
213.283	39.76
213.502	39.76
213.72	7
213.938	-7.34
214.157	15.19
214.375	45.91
214.594	4.95
214.812	17.24
215.031	15.19
215.249	-66.73
215.467	41.81
215.686	7
215.904	0.85
216.122	95.06
216.341	-21.67
216.559	19.29
216.778	0.85
216.996	39.76
217.214	7
217.432	-60.59
217.651	0.85
217.869	15.19
218.087	15.19
218.306	-1.19
218.524	11.09
218.742	-25.77
218.96	109.4
219.179	0.85
219.397	-25.77
219.615	58.2
219.833	52.05
220.051	-3.24
220.27	-44.2
220.488	11.09
220.706	-27.82
220.924	-3.24
221.142	-46.25
221.36	39.76
221.578	-81.07
221.796	62.29
222.015	-42.15
222.233	58.2
222.451	-46.25
222.669	-15.53
222.887	66.39
223.105	11.09
223.323	45.91
223.541	-9.39
223.759	19.29
223.977	-27.82
224.195	68.44
224.413	-33.96
224.631	0.85
224.849	31.57
225.067	58.2
225.285	17.24
225.503	84.82
225.721	-83.11
225.939	47.96
226.157	-3.24
226.375	31.57
226.592	29.52
226.81	9.05
227.028	138.07
227.246	41.81
227.464	2.9
227.682	72.53
227.9	7
228.117	47.96
228.335	7
228.553	11.09
228.771	7
228.989	54.1
229.206	-9.39
229.424	-11.43
229.642	-48.3
229.86	31.57
230.077	-21.67
230.295	62.29
230.513	64.34
230.731	23.38
230.948	56.15
231.166	-13.48
231.384	33.62
231.601	-66.73
231.819	-31.91
232.037	-13.48
232.254	35.67
232.472	25.43
232.689	-48.3
232.907	66.39
233.125	-48.3
233.342	52.05
233.56	-15.53
233.777	37.72
233.995	35.67
234.213	47.96
234.43	9.05
234.648	35.67
234.865	-15.53
235.083	11.09
235.3	9.05
235.518	33.62
235.735	2.9
235.953	-1.19
236.17	9.05
236.388	-83.11
236.605	72.53
236.822	-29.87
237.04	-5.29
237.257	39.76
237.475	-29.87
237.692	-36.01
237.909	13.14
238.127	-25.77
238.344	-31.91
238.562	0.85
238.779	4.95
238.996	-33.96
239.214	15.19
239.431	66.39
239.648	-62.63
239.865	33.62
240.083	105.3
240.3	19.29
240.517	17.24
240.735	66.39
240.952	23.38
241.169	2.9
241.386	-33.96
241.603	-11.43
241.821	21.33
242.038	27.48
242.255	56.15
242.472	29.52
242.689	-7.34
242.907	66.39
243.124	4.95
243.341	76.63
243.558	-48.3
243.775	9.05
243.992	17.24
244.209	52.05
244.426	-9.39
244.643	7
244.86	23.38
245.078	76.63
245.295	25.43
245.512	-19.63
245.729	25.43
245.946	-48.3
246.163	-1.19
246.38	-58.54
246.597	-11.43
246.814	-52.39
247.031	-38.06
247.248	13.14
247.464	58.2
247.681	33.62
247.898	52.05
248.115	-3.24
248.332	-52.39
248.549	-36.01
248.766	11.09
248.983	13.14
249.2	23.38
249.417	-9.39
249.633	-13.48
249.85	62.29
250.067	-15.53
250.284	-25.77
250.501	50
250.717	-25.77
250.934	-25.77
251.151	-21.67
251.368	31.57
251.585	41.81
251.801	56.15
252.018	-17.58
252.235	33.62
252.451	13.14
252.668	66.39
252.885	-11.43
253.102	60.24
253.318	35.67
253.535	7
253.752	-87.21
253.968	-42.15
254.185	-56.49
254.401	52.05
254.618	66.39
254.835	-46.25
255.051	62.29
255.268	2.9
255.484	17.24
255.701	23.38
255.917	52.05
256.134	-17.58
256.351	31.57
256.567	0.85
256.784	-5.29
257	23.38
257.217	-3.24
257.433	2.9
257.65	-31.91
257.866	47.96
258.082	43.86
258.299	39.76
258.515	27.48
258.732	-44.2
258.948	76.63
259.165	56.15
259.381	-15.53
259.597	25.43
259.814	-9.39
260.03	-72.87
260.246	15.19
260.463	-62.63
260.679	-23.72
260.895	-21.67
261.112	-48.3
261.328	-36.01
261.544	-25.77
261.761	76.63
261.977	-1.19
262.193	-1.19
262.409	-56.49
262.626	-29.87
262.842	-11.43
263.058	-13.48
263.274	-9.39
263.49	-15.53
263.707	78.68
263.923	-29.87
264.139	-38.06
264.355	39.76
264.571	31.57
264.787	29.52
265.004	-3.24
265.22	-15.53
265.436	-33.96
265.652	41.81
265.868	-9.39
266.084	93.01
266.3	25.43
266.516	35.67
266.732	25.43
266.948	-46.25
267.164	-1.19
267.38	43.86
267.596	-23.72
267.812	21.33
268.028	27.48
268.244	-7.34
268.46	27.48
268.676	39.76
268.892	-33.96
269.108	23.38
269.324	88.92
269.54	23.38
269.756	62.29
269.972	-72.87
270.188	84.82
270.403	88.92
270.619	72.53
270.835	-11.43
271.051	15.19
271.267	50
271.483	-38.06
271.698	19.29
271.914	-1.19
272.13	64.34
272.346	50
272.562	-42.15
272.777	11.09
272.993	15.19
273.209	-27.82
273.425	4.95
273.64	-7.34
273.856	-48.3
274.072	25.43
274.287	62.29
274.503	-58.54
274.719	-1.19
274.934	2.9
275.15	-15.53
275.366	7
275.581	7
275.797	35.67
276.012	50
276.228	37.72
276.444	31.57
276.659	-1.19
276.875	45.91
277.09	-48.3
277.306	66.39
277.521	17.24
277.737	-79.02
277.952	-7.34
278.168	37.72
278.383	2.9
278.599	-21.67
278.814	64.34
279.03	-25.77
279.245	54.1
279.461	37.72
279.676	47.96
279.892	25.43
280.107	52.05
280.322	-15.53
280.538	-46.25
280.753	41.81
280.969	-21.67
281.184	7
281.399	-5.29
281.615	19.29
281.83	62.29
282.045	15.19
282.26	7
282.476	9.05
282.691	29.52
282.906	84.82
283.122	27.48
283.337	-42.15
283.552	9.05
283.767	84.82
283.983	17.24
284.198	31.57
284.413	-7.34
284.628	-1.19
284.843	11.09
285.058	23.38
285.274	4.95
285.489	-40.11
285.704	13.14
285.919	15.19
286.134	56.15
286.349	66.39
286.564	-1.19
286.779	-1.19
286.995	56.15
287.21	-9.39
287.425	74.58
287.64	-19.63
287.855	60.24
288.07	29.52
288.285	-74.92
288.5	27.48
288.715	-1.19
288.93	-1.19
289.145	33.62
289.36	21.33
289.575	-42.15
289.79	0.85
290.004	39.76
290.219	2.9
290.434	21.33
290.649	-117.93
290.864	21.33
291.079	35.67
291.294	31.57
291.509	0.85
291.724	19.29
291.938	31.57
292.153	47.96
292.368	68.44
292.583	-7.34
292.798	72.53
293.012	17.24
293.227	27.48
293.442	37.72
293.657	39.76
293.871	58.2
294.086	-21.67
294.301	84.82
294.516	25.43
294.73	15.19
294.945	9.05
295.16	39.76
295.374	-3.24
295.589	47.96
295.804	-1.19
296.018	-27.82
296.233	9.05
296.447	-17.58
296.662	15.19
296.877	31.57
297.091	58.2
297.306	33.62
297.52	-19.63
297.735	-5.29
297.949	-36.01
298.164	9.05
298.378	-19.63
298.593	-25.77
298.807	35.67
299.022	2.9
299.236	19.29
299.451	-5.29
299.665	27.48
299.88	-1.19
300.094	47.96
300.309	-33.96
300.523	43.86
300.737	80.72
300.952	11.09
301.166	25.43
301.381	13.14
301.595	-17.58
301.809	41.81
302.024	50
302.238	-23.72
302.452	60.24
302.667	19.29
302.881	58.2
303.095	11.09
303.309	-17.58
303.524	41.81
303.738	-29.87
303.952	-31.91
304.166	-7.34
304.381	-40.11
304.595	17.24
304.809	27.48
305.023	70.48
305.237	-25.77
305.452	-21.67
305.666	66.39
305.88	90.96
306.094	33.62
306.308	74.58
306.522	19.29
306.736	45.91
306.95	58.2
307.164	13.14
307.379	-9.39
307.593	7
307.807	-5.29
308.021	-7.34
308.235	-5.29
308.449	-52.39
308.663	-15.53
308.877	101.2
309.091	2.9
309.305	-21.67
309.519	-33.96
309.733	17.24
309.947	37.72
310.161	-70.83
310.374	47.96
310.588	9.05
310.802	21.33
311.016	82.77
311.23	9.05
311.444	-21.67
311.658	45.91
311.872	41.81
312.085	-1.19
312.299	37.72
312.513	17.24
312.727	17.24
312.941	37.72
313.154	66.39
313.368	4.95
313.582	9.05
313.796	7
314.009	-3.24
314.223	7
314.437	2.9
314.651	23.38
314.864	47.96
315.078	-79.02
315.292	17.24
315.505	-15.53
315.719	-15.53
315.933	7
316.146	-9.39
316.36	-5.29
316.573	23.38
316.787	86.87
317.001	-3.24
317.214	-1.19
317.428	56.15
317.641	-40.11
317.855	58.2
318.068	35.67
318.282	84.82
318.495	9.05
318.709	-1.19
318.922	31.57
319.136	109.4
319.349	7
319.563	17.24
319.776	33.62
319.99	45.91
320.203	54.1
320.417	37.72
320.63	35.67
320.843	43.86
321.057	-5.29
321.27	80.72
321.483	15.19
321.697	-15.53
321.91	17.24
322.124	7
322.337	41.81
322.55	-33.96
322.763	-3.24
322.977	39.76
323.19	-54.44
323.403	9.05
323.617	66.39
323.83	52.05
324.043	11.09
324.256	13.14
324.469	70.48
324.683	70.48
324.896	-17.58
325.109	13.14
325.322	-62.63
325.535	103.25
325.748	-38.06
325.962	0.85
326.175	-19.63
326.388	54.1
326.601	82.77
326.814	31.57
327.027	88.92
327.24	-15.53
327.453	-9.39
327.666	45.91
327.879	35.67
328.092	29.52
328.305	-19.63
328.518	-58.54
328.731	-13.48
328.944	33.62
329.157	31.57
329.37	-29.87
329.583	31.57
329.796	117.59
330.009	17.24
330.222	76.63
330.435	41.81
330.648	41.81
330.861	41.81
331.073	23.38
331.286	-60.59
331.499	9.05
331.712	-7.34
331.925	25.43
332.138	11.09
332.35	17.24
332.563	-38.06
332.776	9.05
332.989	37.72
333.202	2.9
333.414	-5.29
333.627	52.05
333.84	0.85
334.053	47.96
334.265	25.43
334.478	27.48
334.691	15.19
334.903	11.09
335.116	33.62
335.329	56.15
335.541	25.43
335.754	21.33
335.966	-44.2
336.179	13.14
336.392	11.09
336.604	45.91
336.817	41.81
337.029	90.96
337.242	66.39
337.454	47.96
337.667	-27.82
337.88	72.53
338.092	-21.67
338.305	66.39
338.517	47.96
338.729	47.96
338.942	37.72
339.154	7
339.367	-105.64
339.579	0.85
339.792	41.81
340.004	-19.63
340.217	13.14
340.429	45.91
340.641	-9.39
340.854	-17.58
341.066	-36.01
341.278	-1.19
341.491	17.24
341.703	19.29
341.915	7
342.128	-9.39
342.34	15.19
342.552	-5.29
342.764	11.09
342.977	7
343.189	2.9
343.401	-23.72
343.613	7
343.826	-31.91
344.038	9.05
344.25	37.72
344.462	-5.29
344.674	-29.87
344.886	-25.77
345.099	13.14
345.311	72.53
345.523	-44.2
345.735	-33.96
345.947	33.62
346.159	11.09
346.371	74.58
346.583	13.14
346.795	-19.63
347.007	4.95
347.219	0.85
347.431	54.1
347.643	33.62
347.855	4.95
348.067	62.29
348.279	-33.96
348.491	15.19
348.703	56.15
348.915	-23.72
349.127	2.9
349.339	25.43
349.551	4.95
349.763	29.52
349.975	47.96
350.187	41.81
350.399	62.29
350.61	31.57
350.822	39.76
351.034	23.38
351.246	-81.07
351.458	33.62
351.669	39.76
351.881	78.68
352.093	62.29
352.305	-29.87
352.517	-36.01
352.728	2.9
352.94	39.76
353.152	29.52
353.363	15.19
353.575	74.58
353.787	-25.77
353.999	43.86
354.21	68.44
354.422	37.72
354.633	62.29
354.845	74.58
355.057	31.57
355.268	66.39
355.48	-21.67
355.692	58.2
355.903	-29.87
356.115	47.96
356.326	47.96
356.538	21.33
356.749	58.2
356.961	31.57
357.172	37.72
357.384	13.14
357.595	27.48
357.807	-9.39
358.018	39.76
358.23	4.95
358.441	37.72
358.653	7
358.864	-36.01
359.075	-81.07
359.287	7
359.498	2.9
359.709	39.76
359.921	23.38
360.132	56.15
360.344	9.05
360.555	68.44
360.766	-3.24
360.977	52.05
361.189	56.15
361.4	54.1
361.611	37.72
361.823	4.95
362.034	-19.63
362.245	19.29
362.456	-58.54
362.667	29.52
362.879	-17.58
363.09	62.29
363.301	88.92
363.512	-29.87
363.723	80.72
363.935	11.09
364.146	21.33
364.357	33.62
364.568	50
364.779	47.96
364.99	68.44
365.201	27.48
365.412	56.15
365.623	56.15
365.834	15.19
366.045	17.24
366.256	62.29
366.467	37.72
366.678	15.19
366.889	-31.91
367.1	-27.82
367.311	27.48
367.522	56.15
367.733	41.81
367.944	23.38
368.155	19.29
368.366	58.2
368.577	103.25
368.788	23.38
368.999	-31.91
369.209	60.24
369.42	97.11
369.631	15.19
369.842	45.91
370.053	70.48
370.264	-58.54
370.474	17.24
370.685	23.38
370.896	21.33
371.107	17.24
371.317	21.33
371.528	4.95
371.739	-9.39
371.95	-21.67
372.16	47.96
372.371	-3.24
372.582	-27.82
372.792	33.62
373.003	39.76
373.214	27.48
373.424	97.11
373.635	2.9
373.846	37.72
374.056	0.85
374.267	31.57
374.477	-7.34
374.688	23.38
374.898	15.19
375.109	66.39
375.319	19.29
375.53	19.29
375.74	17.24
375.951	37.72
376.161	27.48
376.372	31.57
376.582	-3.24
376.793	47.96
377.003	-74.92
377.214	25.43
377.424	33.62
377.635	45.91
377.845	-33.96
378.055	78.68
378.266	4.95
378.476	31.57
378.686	27.48
378.897	0.85
379.107	-3.24
379.317	64.34
379.528	-36.01
379.738	7
379.948	13.14
380.158	74.58
380.369	4.95
380.579	39.76
380.789	-40.11
380.999	47.96
381.21	47.96
381.42	90.96
381.63	-50.35
381.84	97.11
382.05	64.34
382.261	90.96
382.471	15.19
382.681	-3.24
382.891	29.52
383.101	15.19
383.311	-17.58
383.521	-23.72
383.731	27.48
383.941	15.19
384.151	41.81
384.361	-56.49
384.571	82.77
384.781	27.48
384.991	68.44
385.201	74.58
385.411	119.64
385.621	19.29
385.831	39.76
386.041	9.05
386.251	17.24
386.461	72.53
386.671	29.52
386.881	70.48
387.091	-23.72
387.301	47.96
387.511	-13.48
387.72	76.63
387.93	21.33
388.14	25.43
388.35	41.81
388.56	19.29
388.769	-21.67
388.979	33.62
389.189	64.34
389.399	101.2
389.609	41.81
389.818	72.53
390.028	-15.53
390.238	39.76
390.447	-9.39
390.657	25.43
390.867	70.48
391.076	107.35
391.286	29.52
391.496	33.62
391.705	21.33
391.915	-44.2
392.125	-25.77
392.334	64.34
392.544	2.9
392.753	39.76
392.963	-1.19
393.172	-9.39
393.382	64.34
393.591	93.01
393.801	47.96
394.01	43.86
394.22	35.67
394.429	58.2
394.639	74.58
394.848	99.16
395.058	23.38
395.267	84.82
395.477	-17.58
395.686	-3.24
395.895	50
396.105	60.24
396.314	33.62
396.524	105.3
396.733	72.53
396.942	23.38
397.152	78.68
397.361	62.29
397.57	-31.91
397.78	111.44
397.989	95.06
398.198	60.24
398.407	2.9
398.617	72.53
398.826	-5.29
399.035	7
399.244	25.43
399.453	70.48
399.663	29.52
399.872	88.92
400.081	99.16
400.29	86.87
400.499	119.64
400.708	54.1
400.917	56.15
401.127	88.92
401.336	-9.39
401.545	29.52
401.754	115.54
401.963	127.83
402.172	-3.24
402.381	-1.19
402.59	156.5
402.799	31.57
403.008	25.43
403.217	88.92
403.426	17.24
403.635	25.43
403.844	121.68
404.053	101.2
404.262	86.87
404.471	84.82
404.68	25.43
404.888	95.06
405.097	84.82
405.306	82.77
405.515	43.86
405.724	68.44
405.933	101.2
406.142	111.44
406.35	72.53
406.559	113.49
406.768	113.49
406.977	152.4
407.185	-9.39
407.394	111.44
407.603	97.11
407.812	105.3
408.02	148.31
408.229	97.11
408.438	45.91
408.646	156.5
408.855	150.36
409.064	76.63
409.272	105.3
409.481	142.16
409.69	115.54
409.898	183.12
410.107	127.83
410.315	209.75
410.524	203.6
410.733	250.71
410.941	205.65
411.15	205.65
411.358	213.84
411.567	144.21
411.775	242.51
411.984	228.18
412.192	252.75
412.401	226.13
412.609	279.38
412.818	330.58
413.026	215.89
413.234	265.04
413.443	277.33
413.651	228.18
413.86	295.76
414.068	295.76
414.276	334.67
414.485	318.29
414.693	289.62
414.901	383.82
415.11	353.1
415.318	351.06
415.526	351.06
415.734	426.83
415.943	383.82
416.151	353.1
416.359	486.22
416.567	406.35
416.776	478.03
416.984	521.04
417.192	498.51
417.4	518.99
417.608	492.37
417.817	584.52
418.025	637.77
418.233	643.92
418.441	570.19
418.649	635.72
418.857	611.15
419.065	607.05
419.273	625.48
419.481	805.71
419.689	744.27
419.897	791.37
420.105	768.84
420.313	809.8
420.521	838.47
420.729	768.84
420.937	883.53
421.145	940.87
421.353	1022.79
421.561	1055.56
421.769	1084.23
421.977	1198.92
422.185	1039.17
422.393	1108.8
422.601	1235.78
422.809	1137.48
423.017	1252.16
423.224	1325.89
423.432	1311.55
423.64	1327.94
423.848	1399.62
424.056	1391.42
424.263	1518.4
424.471	1481.53
424.679	1497.92
424.887	1618.75
425.094	1690.43
425.302	1639.23
425.51	1768.25
425.718	1762.11
425.925	1798.97
426.133	1925.94
426.341	1979.19
426.548	2036.53
426.756	2036.53
426.964	2087.73
427.171	2249.52
427.379	2315.06
427.586	2263.86
427.794	2417.46
428.001	2439.98
428.209	2644.78
428.417	2521.9
428.624	2669.36
428.832	2796.33
429.039	2777.9
429.247	2673.45
429.454	3048.23
429.662	3181.35
429.869	3035.94
430.076	3093.29
430.284	3201.83
430.491	3164.97
430.699	3361.57
430.906	3443.49
431.114	3398.43
431.321	3511.07
431.528	3687.2
431.736	3851.03
431.943	3945.24
432.15	3760.92
432.358	3982.1
432.565	4266.77
432.772	4252.44
432.979	4440.85
433.187	4596.5
433.394	4481.81
433.601	4838.16
433.808	4928.27
434.016	4666.13
434.223	4901.64
434.43	5337.86
434.637	5165.83
434.844	5677.82
435.052	5589.76
435.259	5696.25
435.466	5774.08
435.673	5636.86
435.88	5880.57
436.087	6253.3
436.294	6411
436.501	6124.28
436.708	6183.67
436.915	6454
437.122	6849.26
437.329	6785.77
437.537	6935.28
437.743	7213.8
437.95	6992.62
438.157	7459.56
438.364	7791.33
438.571	7658.21
438.778	7785.18
438.985	8331.99
439.192	8219.35
439.399	8456.92
439.606	8149.72
439.813	8786.64
440.02	9063.12
440.227	9018.06
440.433	9018.06
440.64	9298.63
440.847	9110.22
441.054	9405.13
441.261	10132.15
441.467	9870.01
441.674	10214.07
441.881	10625.72
442.088	10541.75
442.294	10488.5
442.501	10816.18
442.708	10861.23
442.914	11203.24
443.121	11958.94
443.328	11500.2
443.534	12313.24
443.741	12182.17
443.948	12024.48
444.154	12661.4
444.361	12780.18
444.568	12753.55
444.774	12868.24
444.981	12825.23
445.187	13269.64
445.394	13511.3
445.6	13560.45
445.807	14973.55
446.013	14463.61
446.22	14604.92
446.426	15145.58
446.633	15473.26
446.839	15989.35
447.046	15178.35
447.252	15968.87
447.459	16124.51
447.665	16198.24
447.871	16611.93
448.078	17576.52
448.284	16665.18
448.491	16986.71
448.697	17687.11
448.903	18340.41
449.11	18344.51
449.316	17994.31
449.522	18391.61
449.728	18790.97
449.935	18911.8
450.141	18924.08
450.347	19169.84
450.553	18489.92
450.76	18766.39
450.966	19556.91
451.172	19327.53
451.378	20056.61
451.584	19710.5
451.791	20027.94
451.997	20152.87
452.203	20593.18
452.409	20269.6
452.615	20138.53
452.821	19495.47
453.027	19208.75
453.233	20527.64
453.44	19382.83
453.646	19860.01
453.852	19939.88
454.058	20257.31
454.264	19397.17
454.47	20003.36
454.676	19507.76
454.882	20128.29
455.088	18555.45
455.294	18663.99
455.5	18973.24
455.705	19159.6
455.911	18328.13
456.117	17945.16
456.323	17877.57
456.529	16915.03
456.735	17590.86
456.941	17246.8
457.147	16765.53
457.352	16276.06
457.558	16325.21
457.764	16198.24
457.97	15817.32
458.176	15493.74
458.381	15334
458.587	14869.11
458.793	14836.34
458.999	14056.06
459.204	14959.22
459.41	14533.24
459.616	13662.85
459.821	13642.37
460.027	13507.21
460.233	13245.07
460.438	12747.41
460.644	12810.9
460.85	12182.17
461.055	12069.53
461.261	11883.17
461.466	11094.7
461.672	10543.8
461.878	11578.02
462.083	10728.11
462.289	10533.56
462.494	10533.56
462.7	10037.95
462.905	9689.79
463.111	10171.07
463.316	10107.58
463.522	10060.48
463.727	9810.62
463.932	9753.28
464.138	9882.3
464.343	9835.2
464.549	9425.61
464.754	10003.13
464.959	9779.9
465.165	9693.89
465.37	9286.34
465.575	9116.36
465.781	9343.69
465.986	9575.11
466.191	9132.75
466.397	8975.05
466.602	8657.62
466.807	8729.3
467.012	8790.74
467.218	8886.99
467.423	8805.07
467.628	8858.32
467.833	8979.15
468.038	8788.69
468.244	8678.1
468.449	8837.84
468.654	8506.07
468.859	8532.69
469.064	8520.4
469.269	8252.12
469.474	8049.37
469.679	8440.53
469.885	8073.95
