Data from USB4F104151__54__12-54-00-733.txt Node

Date: Fri Mar 14 12:54:00 EDT 2025
User: louis
Spectrometer: USB4F10415
Trigger mode: 4
Integration Time (sec): 1.000000E-2
Scans to average: 1
Electric dark correction enabled: true
Nonlinearity correction enabled: false
Boxcar width: 0
XAxis mode: Wavelengths
Number of Pixels in Spectrum: 3648
>>>>>Begin Spectral Data<<<<<
178.204	5.63
178.424	5.63
178.644	5.63
178.864	-74.24
179.084	-10.75
179.304	40.45
179.524	-18.94
179.744	-0.51
179.964	73.21
180.184	-10.75
180.404	-57.86
180.624	28.16
180.844	-2.56
181.064	-18.94
181.283	40.45
181.503	-47.62
181.723	-25.09
181.943	-80.38
182.163	36.35
182.383	-31.23
182.602	-41.47
182.822	11.78
183.042	-2.56
183.262	-12.8
183.482	-25.09
183.701	26.11
183.921	73.21
184.141	-6.66
184.361	17.92
184.58	1.54
184.8	-8.7
185.02	-8.7
185.239	75.26
185.459	26.11
185.679	46.59
185.898	46.59
186.118	-16.9
186.338	7.68
186.557	99.84
186.777	-20.99
186.997	-33.28
187.216	-20.99
187.436	69.12
187.655	-33.28
187.875	58.88
188.095	3.58
188.314	-20.99
188.534	1.54
188.753	3.58
188.973	81.41
189.192	44.54
189.412	-6.66
189.631	56.83
189.851	-33.28
190.07	77.31
190.29	15.87
190.509	24.06
190.729	-49.66
190.948	-29.18
191.168	11.78
191.387	58.88
191.607	71.17
191.826	46.59
192.045	-8.7
192.265	46.59
192.484	-23.04
192.704	9.73
192.923	-2.56
193.142	-0.51
193.362	56.83
193.581	9.73
193.8	24.06
194.02	46.59
194.239	13.82
194.458	34.3
194.678	-0.51
194.897	40.45
195.116	-33.28
195.335	54.78
195.555	46.59
195.774	24.06
195.993	54.78
196.212	-0.51
196.432	-6.66
196.651	48.64
196.87	-90.62
197.089	89.6
197.308	32.26
197.528	-14.85
197.747	9.73
197.966	-41.47
198.185	9.73
198.404	-27.14
198.623	40.45
198.842	36.35
199.062	24.06
199.281	44.54
199.5	24.06
199.719	-6.66
199.938	19.97
200.157	46.59
200.376	48.64
200.595	-4.61
200.814	-8.7
201.033	-18.94
201.252	30.21
201.471	56.83
201.69	30.21
201.909	69.12
202.128	83.45
202.347	93.69
202.566	60.93
202.785	42.5
203.004	-47.62
203.223	36.35
203.442	71.17
203.661	52.74
203.879	3.58
204.098	69.12
204.317	1.54
204.536	50.69
204.755	1.54
204.974	36.35
205.193	89.6
205.411	62.98
205.63	62.98
205.849	71.17
206.068	71.17
206.287	114.17
206.505	15.87
206.724	58.88
206.943	-16.9
207.162	38.4
207.381	42.5
207.599	-6.66
207.818	-27.14
208.037	58.88
208.255	40.45
208.474	9.73
208.693	62.98
208.911	-12.8
209.13	-43.52
209.349	28.16
209.567	7.68
209.786	40.45
210.005	54.78
210.223	-10.75
210.442	-0.51
210.661	32.26
210.879	-35.33
211.098	42.5
211.316	26.11
211.535	50.69
211.753	7.68
211.972	36.35
212.191	22.02
212.409	7.68
212.628	-16.9
212.846	77.31
213.065	30.21
213.283	46.59
213.502	-12.8
213.72	-16.9
213.938	77.31
214.157	13.82
214.375	87.55
214.594	48.64
214.812	62.98
215.031	40.45
215.249	-25.09
215.467	38.4
215.686	17.92
215.904	46.59
216.122	13.82
216.341	116.22
216.559	-2.56
216.778	73.21
216.996	15.87
217.214	73.21
217.432	19.97
217.651	38.4
217.869	65.02
218.087	19.97
218.306	32.26
218.524	71.17
218.742	5.63
218.96	54.78
219.179	97.79
219.397	26.11
219.615	-0.51
219.833	75.26
220.051	60.93
220.27	-33.28
220.488	1.54
220.706	13.82
220.924	-37.38
221.142	-2.56
221.36	128.51
221.578	89.6
221.796	13.82
222.015	26.11
222.233	42.5
222.451	15.87
222.669	24.06
222.887	-18.94
223.105	105.98
223.323	91.65
223.541	19.97
223.759	95.74
223.977	-25.09
224.195	79.36
224.413	46.59
224.631	-2.56
224.849	13.82
225.067	50.69
225.285	-27.14
225.503	60.93
225.721	7.68
225.939	52.74
226.157	62.98
226.375	58.88
226.592	11.78
226.81	48.64
227.028	11.78
227.246	112.13
227.464	69.12
227.682	46.59
227.9	-12.8
228.117	-10.75
228.335	85.5
228.553	28.16
228.771	44.54
228.989	32.26
229.206	-29.18
229.424	-10.75
229.642	67.07
229.86	71.17
230.077	-25.09
230.295	7.68
230.513	44.54
230.731	-14.85
230.948	28.16
231.166	54.78
231.384	19.97
231.601	1.54
231.819	1.54
232.037	-33.28
232.254	-10.75
232.472	95.74
232.689	-10.75
232.907	44.54
233.125	50.69
233.342	58.88
233.56	-2.56
233.777	118.27
233.995	48.64
234.213	-61.95
234.43	-4.61
234.648	87.55
234.865	11.78
235.083	34.3
235.3	-27.14
235.518	7.68
235.735	89.6
235.953	19.97
236.17	9.73
236.388	-16.9
236.605	-14.85
236.822	38.4
237.04	44.54
237.257	69.12
237.475	7.68
237.692	-33.28
237.909	-43.52
238.127	38.4
238.344	79.36
238.562	42.5
238.779	42.5
238.996	-23.04
239.214	17.92
239.431	13.82
239.648	1.54
239.865	34.3
240.083	15.87
240.3	75.26
240.517	40.45
240.735	56.83
240.952	17.92
241.169	-53.76
241.386	56.83
241.603	-12.8
241.821	-47.62
242.038	19.97
242.255	30.21
242.472	-37.38
242.689	-16.9
242.907	13.82
243.124	9.73
243.341	48.64
243.558	15.87
243.775	-25.09
243.992	97.79
244.209	114.17
244.426	11.78
244.643	-8.7
244.86	24.06
245.078	15.87
245.295	46.59
245.512	79.36
245.729	5.63
245.946	91.65
246.163	77.31
246.38	77.31
246.597	22.02
246.814	-10.75
247.031	54.78
247.248	3.58
247.464	36.35
247.681	85.5
247.898	50.69
248.115	54.78
248.332	-2.56
248.549	67.07
248.766	-10.75
248.983	62.98
249.2	62.98
249.417	48.64
249.633	77.31
249.85	-0.51
250.067	22.02
250.284	75.26
250.501	17.92
250.717	56.83
250.934	-45.57
251.151	28.16
251.368	56.83
251.585	19.97
251.801	110.08
252.018	-2.56
252.235	71.17
252.451	-27.14
252.668	48.64
252.885	67.07
253.102	60.93
253.318	26.11
253.535	-18.94
253.752	38.4
253.968	-10.75
254.185	-25.09
254.401	-20.99
254.618	5.63
254.835	26.11
255.051	114.17
255.268	11.78
255.484	54.78
255.701	-14.85
255.917	69.12
256.134	-12.8
256.351	-12.8
256.567	69.12
256.784	26.11
257	44.54
257.217	38.4
257.433	-18.94
257.65	73.21
257.866	30.21
258.082	17.92
258.299	26.11
258.515	9.73
258.732	11.78
258.948	54.78
259.165	-4.61
259.381	-18.94
259.597	54.78
259.814	26.11
260.03	28.16
260.246	26.11
260.463	17.92
260.679	15.87
260.895	-4.61
261.112	54.78
261.328	7.68
261.544	71.17
261.761	48.64
261.977	95.74
262.193	1.54
262.409	22.02
262.626	34.3
262.842	-4.61
263.058	32.26
263.274	34.3
263.49	19.97
263.707	-8.7
263.923	44.54
264.139	38.4
264.355	26.11
264.571	112.13
264.787	89.6
265.004	85.5
265.22	34.3
265.436	7.68
265.652	22.02
265.868	42.5
266.084	-31.23
266.3	48.64
266.516	97.79
266.732	40.45
266.948	26.11
267.164	32.26
267.38	-20.99
267.596	7.68
267.812	-0.51
268.028	7.68
268.244	26.11
268.46	42.5
268.676	-14.85
268.892	24.06
269.108	22.02
269.324	56.83
269.54	114.17
269.756	44.54
269.972	-0.51
270.188	24.06
270.403	1.54
270.619	65.02
270.835	1.54
271.051	-12.8
271.267	46.59
271.483	44.54
271.698	-0.51
271.914	97.79
272.13	1.54
272.346	128.51
272.562	3.58
272.777	40.45
272.993	17.92
273.209	77.31
273.425	-6.66
273.64	3.58
273.856	99.84
274.072	-12.8
274.287	32.26
274.503	13.82
274.719	-14.85
274.934	15.87
275.15	32.26
275.366	50.69
275.581	17.92
275.797	1.54
276.012	40.45
276.228	38.4
276.444	-0.51
276.659	30.21
276.875	-2.56
277.09	73.21
277.306	-12.8
277.521	67.07
277.737	5.63
277.952	36.35
278.168	9.73
278.383	46.59
278.599	46.59
278.814	28.16
279.03	-29.18
279.245	7.68
279.461	48.64
279.676	118.27
279.892	-68.09
280.107	-10.75
280.322	28.16
280.538	15.87
280.753	52.74
280.969	56.83
281.184	11.78
281.399	3.58
281.615	-64
281.83	11.78
282.045	99.84
282.26	-27.14
282.476	-16.9
282.691	40.45
282.906	48.64
283.122	54.78
283.337	46.59
283.552	77.31
283.767	15.87
283.983	52.74
284.198	3.58
284.413	5.63
284.628	56.83
284.843	52.74
285.058	5.63
285.274	75.26
285.489	42.5
285.704	28.16
285.919	28.16
286.134	-10.75
286.349	-55.81
286.564	15.87
286.779	65.02
286.995	-6.66
287.21	48.64
287.425	17.92
287.64	9.73
287.855	-37.38
288.07	13.82
288.285	124.41
288.5	7.68
288.715	11.78
288.93	73.21
289.145	54.78
289.36	32.26
289.575	50.69
289.79	65.02
290.004	22.02
290.219	60.93
290.434	44.54
290.649	50.69
290.864	7.68
291.079	-8.7
291.294	50.69
291.509	5.63
291.724	32.26
291.938	65.02
292.153	73.21
292.368	30.21
292.583	24.06
292.798	50.69
293.012	48.64
293.227	3.58
293.442	42.5
293.657	-43.52
293.871	75.26
294.086	7.68
294.301	40.45
294.516	48.64
294.73	13.82
294.945	-35.33
295.16	7.68
295.374	67.07
295.589	81.41
295.804	13.82
296.018	40.45
296.233	3.58
296.447	5.63
296.662	36.35
296.877	73.21
297.091	9.73
297.306	91.65
297.52	38.4
297.735	-25.09
297.949	5.63
298.164	-20.99
298.378	112.13
298.593	-0.51
298.807	9.73
299.022	48.64
299.236	87.55
299.451	73.21
299.665	-16.9
299.88	28.16
300.094	5.63
300.309	62.98
300.523	56.83
300.737	7.68
300.952	30.21
301.166	38.4
301.381	26.11
301.595	69.12
301.809	-12.8
302.024	69.12
302.238	77.31
302.452	89.6
302.667	-23.04
302.881	58.88
303.095	11.78
303.309	83.45
303.524	9.73
303.738	15.87
303.952	7.68
304.166	65.02
304.381	-66.05
304.595	58.88
304.809	105.98
305.023	42.5
305.237	48.64
305.452	28.16
305.666	28.16
305.88	28.16
306.094	83.45
306.308	91.65
306.522	17.92
306.736	11.78
306.95	67.07
307.164	69.12
307.379	-12.8
307.593	89.6
307.807	73.21
308.021	62.98
308.235	17.92
308.449	-10.75
308.663	7.68
308.877	87.55
309.091	50.69
309.305	-0.51
309.519	34.3
309.733	46.59
309.947	-0.51
310.161	56.83
310.374	83.45
310.588	54.78
310.802	17.92
311.016	40.45
311.23	15.87
311.444	28.16
311.658	89.6
311.872	7.68
312.085	44.54
312.299	83.45
312.513	30.21
312.727	44.54
312.941	5.63
313.154	28.16
313.368	3.58
313.582	38.4
313.796	-4.61
314.009	15.87
314.223	52.74
314.437	22.02
314.651	65.02
314.864	58.88
315.078	13.82
315.292	42.5
315.505	34.3
315.719	-68.09
315.933	-6.66
316.146	28.16
316.36	79.36
316.573	103.93
316.787	3.58
317.001	101.89
317.214	-0.51
317.428	62.98
317.641	-10.75
317.855	-27.14
318.068	36.35
318.282	91.65
318.495	17.92
318.709	38.4
318.922	-31.23
319.136	58.88
319.349	52.74
319.563	83.45
319.776	28.16
319.99	48.64
320.203	22.02
320.417	87.55
320.63	79.36
320.843	114.17
321.057	13.82
321.27	46.59
321.483	79.36
321.697	95.74
321.91	22.02
322.124	89.6
322.337	7.68
322.55	89.6
322.763	69.12
322.977	-2.56
323.19	48.64
323.403	75.26
323.617	79.36
323.83	36.35
324.043	58.88
324.256	22.02
324.469	73.21
324.683	69.12
324.896	-33.28
325.109	85.5
325.322	62.98
325.535	-6.66
325.748	32.26
325.962	-8.7
326.175	-31.23
326.388	52.74
326.601	-0.51
326.814	48.64
327.027	40.45
327.24	-33.28
327.453	101.89
327.666	-35.33
327.879	32.26
328.092	93.69
328.305	36.35
328.518	56.83
328.731	36.35
328.944	5.63
329.157	81.41
329.37	40.45
329.583	-25.09
329.796	71.17
330.009	9.73
330.222	17.92
330.435	11.78
330.648	54.78
330.861	58.88
331.073	36.35
331.286	28.16
331.499	-47.62
331.712	17.92
331.925	46.59
332.138	73.21
332.35	30.21
332.563	28.16
332.776	54.78
332.989	7.68
333.202	-8.7
333.414	67.07
333.627	-0.51
333.84	108.03
334.053	22.02
334.265	67.07
334.478	30.21
334.691	42.5
334.903	42.5
335.116	-12.8
335.329	40.45
335.541	38.4
335.754	-41.47
335.966	81.41
336.179	54.78
336.392	58.88
336.604	99.84
336.817	17.92
337.029	46.59
337.242	54.78
337.454	22.02
337.667	40.45
337.88	56.83
338.092	67.07
338.305	56.83
338.517	22.02
338.729	28.16
338.942	17.92
339.154	54.78
339.367	-35.33
339.579	-25.09
339.792	17.92
340.004	118.27
340.217	-33.28
340.429	13.82
340.641	13.82
340.854	44.54
341.066	22.02
341.278	65.02
341.491	110.08
341.703	83.45
341.915	50.69
342.128	112.13
342.34	9.73
342.552	-12.8
342.764	24.06
342.977	69.12
343.189	83.45
343.401	54.78
343.613	50.69
343.826	30.21
344.038	34.3
344.25	9.73
344.462	62.98
344.674	103.93
344.886	30.21
345.099	46.59
345.311	60.93
345.523	13.82
345.735	-0.51
345.947	22.02
346.159	-27.14
346.371	97.79
346.583	3.58
346.795	54.78
347.007	44.54
347.219	91.65
347.431	15.87
347.643	-2.56
347.855	3.58
348.067	48.64
348.279	15.87
348.491	62.98
348.703	52.74
348.915	38.4
349.127	22.02
349.339	110.08
349.551	30.21
349.763	46.59
349.975	134.65
350.187	54.78
350.399	58.88
350.61	22.02
350.822	75.26
351.034	46.59
351.246	13.82
351.458	28.16
351.669	58.88
351.881	62.98
352.093	89.6
352.305	58.88
352.517	9.73
352.728	79.36
352.94	65.02
353.152	85.5
353.363	13.82
353.575	112.13
353.787	-8.7
353.999	99.84
354.21	19.97
354.422	-12.8
354.633	67.07
354.845	26.11
355.057	38.4
355.268	38.4
355.48	46.59
355.692	26.11
355.903	65.02
356.115	62.98
356.326	-16.9
356.538	85.5
356.749	17.92
356.961	50.69
357.172	30.21
357.384	7.68
357.595	5.63
357.807	30.21
358.018	69.12
358.23	95.74
358.441	30.21
358.653	151.04
358.864	-43.52
359.075	48.64
359.287	-2.56
359.498	54.78
359.709	38.4
359.921	62.98
360.132	77.31
360.344	91.65
360.555	11.78
360.766	19.97
360.977	40.45
361.189	52.74
361.4	-47.62
361.611	38.4
361.823	-16.9
362.034	52.74
362.245	42.5
362.456	85.5
362.667	56.83
362.879	75.26
363.09	-0.51
363.301	30.21
363.512	95.74
363.723	44.54
363.935	108.03
364.146	112.13
364.357	62.98
364.568	83.45
364.779	5.63
364.99	67.07
365.201	73.21
365.412	79.36
365.623	34.3
365.834	120.32
366.045	46.59
366.256	79.36
366.467	50.69
366.678	130.56
366.889	118.27
367.1	79.36
367.311	13.82
367.522	93.69
367.733	89.6
367.944	34.3
368.155	36.35
368.366	67.07
368.577	-2.56
368.788	85.5
368.999	-0.51
369.209	62.98
369.42	34.3
369.631	101.89
369.842	73.21
370.053	62.98
370.264	65.02
370.474	5.63
370.685	105.98
370.896	-8.7
371.107	34.3
371.317	26.11
371.528	42.5
371.739	54.78
371.95	34.3
372.16	38.4
372.371	108.03
372.582	108.03
372.792	32.26
373.003	42.5
373.214	22.02
373.424	95.74
373.635	-18.94
373.846	91.65
374.056	-25.09
374.267	-10.75
374.477	9.73
374.688	-0.51
374.898	65.02
375.109	3.58
375.319	60.93
375.53	73.21
375.74	15.87
375.951	34.3
376.161	42.5
376.372	97.79
376.582	62.98
376.793	54.78
377.003	15.87
377.214	79.36
377.424	56.83
377.635	134.65
377.845	26.11
378.055	114.17
378.266	-41.47
378.476	13.82
378.686	77.31
378.897	15.87
379.107	103.93
379.317	62.98
379.528	-29.18
379.738	118.27
379.948	15.87
380.158	-2.56
380.369	15.87
380.579	52.74
380.789	44.54
380.999	62.98
381.21	34.3
381.42	112.13
381.63	118.27
381.84	79.36
382.05	17.92
382.261	87.55
382.471	52.74
382.681	128.51
382.891	87.55
383.101	116.22
383.311	69.12
383.521	36.35
383.731	42.5
383.941	28.16
384.151	9.73
384.361	79.36
384.571	24.06
384.781	60.93
384.991	46.59
385.201	95.74
385.411	73.21
385.621	38.4
385.831	44.54
386.041	110.08
386.251	103.93
386.461	48.64
386.671	67.07
386.881	62.98
387.091	34.3
387.301	89.6
387.511	5.63
387.72	38.4
387.93	79.36
388.14	30.21
388.35	38.4
388.56	60.93
388.769	22.02
388.979	136.7
389.189	87.55
389.399	56.83
389.609	89.6
389.818	81.41
390.028	73.21
390.238	114.17
390.447	30.21
390.657	9.73
390.867	122.37
391.076	99.84
391.286	54.78
391.496	-10.75
391.705	3.58
391.915	32.26
392.125	44.54
392.334	101.89
392.544	87.55
392.753	-4.61
392.963	97.79
393.172	22.02
393.382	67.07
393.591	58.88
393.801	38.4
394.01	75.26
394.22	85.5
394.429	42.5
394.639	54.78
394.848	60.93
395.058	93.69
395.267	101.89
395.477	126.46
395.686	30.21
395.895	103.93
396.105	19.97
396.314	13.82
396.524	99.84
396.733	60.93
396.942	75.26
397.152	120.32
397.361	103.93
397.57	65.02
397.78	146.94
397.989	124.41
398.198	155.13
398.407	87.55
398.617	116.22
398.826	132.61
399.035	60.93
399.244	81.41
399.453	161.28
399.663	110.08
399.872	85.5
400.081	50.69
400.29	73.21
400.499	73.21
400.708	48.64
400.917	93.69
401.127	103.93
401.336	77.31
401.545	120.32
401.754	138.75
401.963	157.18
402.172	7.68
402.381	95.74
402.59	146.94
402.799	65.02
403.008	24.06
403.217	81.41
403.426	116.22
403.635	97.79
403.844	144.89
404.053	95.74
404.262	112.13
404.471	187.9
404.68	120.32
404.888	97.79
405.097	114.17
405.306	122.37
405.515	73.21
405.724	110.08
405.933	183.81
406.142	171.52
406.35	148.99
406.559	194.05
406.768	148.99
406.977	171.52
407.185	177.66
407.394	220.67
407.603	161.28
407.812	144.89
408.02	206.33
408.229	183.81
408.438	151.04
408.646	134.65
408.855	210.43
409.064	169.47
409.272	214.52
409.481	175.61
409.69	226.81
409.898	169.47
410.107	206.33
410.315	318.97
410.524	278.01
410.733	273.92
410.941	253.44
411.15	224.76
411.358	235
411.567	259.58
411.775	290.3
411.984	316.92
412.192	325.12
412.401	337.4
412.609	357.88
412.818	400.89
413.026	327.16
413.234	396.79
413.443	388.6
413.651	382.46
413.86	462.33
414.068	478.71
414.276	443.9
414.485	431.61
414.693	431.61
414.901	488.95
415.11	468.47
415.318	544.25
415.526	548.34
415.734	617.97
415.943	568.82
416.151	640.5
416.359	577.02
416.567	593.4
416.776	718.33
416.984	744.95
417.192	753.14
417.4	779.76
417.608	656.89
417.817	777.72
418.025	769.52
418.233	839.16
418.441	798.2
418.649	884.21
418.857	894.45
419.065	896.5
419.273	974.32
419.481	976.37
419.689	970.23
419.897	957.94
420.105	1082.86
420.313	1160.69
420.521	1152.49
420.729	1119.73
420.937	1230.32
421.145	1261.04
421.353	1289.71
421.561	1406.44
421.769	1467.88
421.977	1603.05
422.185	1574.38
422.393	1615.34
422.601	1615.34
422.809	1758.69
423.017	1721.83
423.224	1709.54
423.432	1826.28
423.64	1779.17
423.848	2051.55
424.056	1844.71
424.263	2063.84
424.471	2098.66
424.679	2074.08
424.887	2158.05
425.094	2217.44
425.302	2373.08
425.51	2301.4
425.718	2569.69
425.925	2522.59
426.133	2579.93
426.341	2721.24
426.548	2907.6
426.756	2829.78
426.964	2917.84
427.171	3059.15
427.379	3141.07
427.586	3245.52
427.794	3210.7
428.001	3530.19
428.209	3622.34
428.417	3605.96
428.624	3739.08
428.832	3853.77
429.039	3796.42
429.247	3694.02
429.454	4160.96
429.662	4388.29
429.869	4138.43
430.076	4302.27
430.284	4253.12
430.491	4376
430.699	4627.9
430.906	4883.89
431.114	4812.21
431.321	4943.28
431.528	5033.4
431.736	5293.49
431.943	5506.48
432.15	5457.32
432.358	5510.57
432.565	5957.03
432.772	5850.53
432.979	6100.39
433.187	6208.93
433.394	6233.5
433.601	6737.31
433.808	6770.07
434.016	6620.57
434.223	6923.67
434.43	7615.88
434.637	7339.41
434.844	7886.22
435.052	7964.04
435.259	7730.57
435.466	7841.16
435.673	7669.13
435.88	8367.49
436.087	8834.43
436.294	8815.99
436.501	8824.19
436.708	8775.03
436.915	9155.96
437.122	9375.09
437.329	9518.45
437.537	9721.2
437.743	9911.66
437.95	9813.35
438.157	10460.51
438.364	10802.52
438.571	10585.44
438.778	10839.39
438.985	11783.5
439.192	11373.91
439.399	11666.77
439.606	11472.21
439.813	12133.7
440.02	12852.54
440.227	12475.71
440.433	12328.26
440.64	12838.2
440.847	12924.22
441.054	13090.1
441.261	14005.55
441.467	13747.5
441.674	14042.41
441.881	14527.78
442.088	14556.45
442.294	14357.8
442.501	14785.82
442.708	14961.95
442.914	15852.81
443.121	16405.77
443.328	15854.86
443.534	16758.02
443.741	16393.48
443.948	16536.84
444.154	17753.33
444.361	17294.58
444.568	17374.45
444.774	17536.24
444.981	17777.9
445.187	18218.22
445.394	19236.06
445.6	18883.81
445.807	20468.94
446.013	19842.26
446.22	19825.87
446.426	20864.19
446.633	20997.31
446.839	21724.34
447.046	21128.38
447.252	22295.72
447.459	21941.43
447.665	22045.87
447.871	23248.03
448.078	24003.73
448.284	23121.06
448.491	23497.88
448.697	24722.57
448.903	24931.46
449.11	24921.22
449.316	24478.86
449.522	25123.97
449.728	25828.47
449.935	25916.53
450.141	25754.74
450.347	26420.33
450.553	25818.23
450.76	26002.55
450.966	26942.56
451.172	26573.93
451.378	27227.23
451.584	26809.45
451.791	27597.91
451.997	27573.34
452.203	27585.63
452.409	28034.13
452.615	27731.03
452.821	26686.57
453.027	26645.61
453.233	27688.03
453.44	27053.16
453.646	26705
453.852	27219.04
454.058	27722.84
454.264	26752.1
454.47	27370.59
454.676	26614.89
454.882	27757.66
455.088	25224.32
455.294	25875.57
455.5	26158.19
455.705	26494.06
455.911	25121.92
456.117	24716.42
456.323	24423.56
456.529	23469.21
456.735	24054.93
456.941	23829.65
457.147	22987.94
457.352	22246.57
457.558	22477.99
457.764	22224.04
457.97	22148.27
458.176	21626.04
458.381	21570.74
458.587	20329.67
458.793	20432.07
458.999	19426.52
459.204	20911.3
459.41	20067.53
459.616	18830.56
459.821	18705.63
460.027	18824.42
460.233	18511.08
460.438	17661.17
460.644	18164.97
460.85	17007.87
461.055	16778.5
461.261	16745.73
461.466	15150.36
461.672	15125.79
461.878	16153.87
462.083	14902.56
462.289	14853.41
462.494	14544.16
462.7	14071.08
462.905	13554.99
463.111	13972.78
463.316	14226.73
463.522	13970.73
463.727	13968.68
463.932	13974.83
464.138	13583.66
464.343	13575.47
464.549	13471.03
464.754	13888.81
464.959	13794.61
465.165	13651.25
465.37	12981.56
465.575	12836.16
465.781	13456.69
465.986	13577.52
466.191	12934.46
466.397	12508.48
466.602	11973.96
466.807	12694.85
467.012	12514.63
467.218	12512.58
467.423	12508.48
467.628	12504.39
467.833	12901.69
468.038	12373.32
468.244	11867.47
468.449	12684.61
468.654	12244.29
468.859	11984.2
