Data from USB4F104151__93__12-37-08-311.txt Node

Date: Fri Mar 14 12:37:08 EDT 2025
User: louis
Spectrometer: USB4F10415
Trigger mode: 4
Integration Time (sec): 2.000000E-2
Scans to average: 1
Electric dark correction enabled: true
Nonlinearity correction enabled: false
Boxcar width: 0
XAxis mode: Wavelengths
Number of Pixels in Spectrum: 3648
>>>>>Begin Spectral Data<<<<<
178.204	-36.35
178.424	-36.35
178.644	-36.35
178.864	-116.22
179.084	-36.35
179.304	-30.21
179.524	-15.87
179.744	6.66
179.964	16.9
180.184	-26.11
180.404	0.51
180.624	-1.54
180.844	-9.73
181.064	6.66
181.283	41.47
181.503	-42.5
181.723	53.76
181.943	-22.02
182.163	78.33
182.383	-15.87
182.602	29.18
182.822	-3.58
183.042	57.86
183.262	59.9
183.482	76.29
183.701	20.99
183.921	12.8
184.141	-5.63
184.361	14.85
184.58	29.18
184.8	29.18
185.02	0.51
185.239	80.38
185.459	-32.26
185.679	55.81
185.898	66.05
186.118	31.23
186.338	-5.63
186.557	90.62
186.777	-26.11
186.997	10.75
187.216	33.28
187.436	-32.26
187.655	64
187.875	139.77
188.095	-7.68
188.314	43.52
188.534	98.81
188.753	76.29
188.973	61.95
189.192	20.99
189.412	86.53
189.631	119.29
189.851	57.86
190.07	68.09
190.29	16.9
190.509	74.24
190.729	-19.97
190.948	113.15
191.168	221.69
191.387	-9.73
191.607	14.85
191.826	66.05
192.045	29.18
192.265	27.14
192.484	35.33
192.704	68.09
192.923	70.14
193.142	70.14
193.362	160.25
193.581	47.62
193.8	51.71
194.02	23.04
194.239	55.81
194.458	-17.92
194.678	6.66
194.897	33.28
195.116	-7.68
195.335	64
195.555	45.57
195.774	51.71
195.993	8.7
196.212	29.18
196.432	-7.68
196.651	18.94
196.87	-24.06
197.089	61.95
197.308	10.75
197.528	76.29
197.747	49.66
197.966	129.53
198.185	90.62
198.404	35.33
198.623	-3.58
198.842	29.18
199.062	82.43
199.281	102.91
199.5	31.23
199.719	51.71
199.938	147.97
200.157	88.57
200.376	76.29
200.595	111.1
200.814	47.62
201.033	-42.5
201.252	41.47
201.471	55.81
201.69	-3.58
201.909	64
202.128	18.94
202.347	39.42
202.566	61.95
202.785	14.85
203.004	-3.58
203.223	82.43
203.442	29.18
203.661	27.14
203.879	94.72
204.098	57.86
204.317	14.85
204.536	-17.92
204.755	82.43
204.974	96.77
205.193	-3.58
205.411	39.42
205.63	64
205.849	2.56
206.068	94.72
206.287	27.14
206.505	14.85
206.724	57.86
206.943	25.09
207.162	49.66
207.381	123.39
207.599	82.43
207.818	20.99
208.037	35.33
208.255	41.47
208.474	-36.35
208.693	37.38
208.911	107.01
209.13	12.8
209.349	39.42
209.567	18.94
209.786	129.53
210.005	27.14
210.223	43.52
210.442	14.85
210.661	74.24
210.879	8.7
211.098	64
211.316	20.99
211.535	8.7
211.753	72.19
211.972	74.24
212.191	41.47
212.409	51.71
212.628	27.14
212.846	102.91
213.065	-1.54
213.283	111.1
213.502	41.47
213.72	109.05
213.938	37.38
214.157	6.66
214.375	59.9
214.594	72.19
214.812	43.52
215.031	72.19
215.249	2.56
215.467	47.62
215.686	102.91
215.904	33.28
216.122	66.05
216.341	70.14
216.559	31.23
216.778	72.19
216.996	55.81
217.214	53.76
217.432	31.23
217.651	16.9
217.869	39.42
218.087	-13.82
218.306	49.66
218.524	107.01
218.742	31.23
218.96	27.14
219.179	29.18
219.397	51.71
219.615	133.63
219.833	51.71
220.051	55.81
220.27	113.15
220.488	80.38
220.706	88.57
220.924	35.33
221.142	61.95
221.36	64
221.578	59.9
221.796	57.86
222.015	12.8
222.233	-40.45
222.451	88.57
222.669	-36.35
222.887	92.67
223.105	-3.58
223.323	90.62
223.541	-34.3
223.759	10.75
223.977	66.05
224.195	117.25
224.413	92.67
224.631	43.52
224.849	18.94
225.067	100.86
225.285	55.81
225.503	18.94
225.721	70.14
225.939	27.14
226.157	35.33
226.375	133.63
226.592	49.66
226.81	23.04
227.028	76.29
227.246	25.09
227.464	64
227.682	31.23
227.9	35.33
228.117	-1.54
228.335	43.52
228.553	35.33
228.771	84.48
228.989	12.8
229.206	117.25
229.424	-28.16
229.642	-28.16
229.86	84.48
230.077	43.52
230.295	59.9
230.513	33.28
230.731	64
230.948	-17.92
231.166	45.57
231.384	20.99
231.601	33.28
231.819	8.7
232.037	-3.58
232.254	59.9
232.472	66.05
232.689	2.56
232.907	41.47
233.125	59.9
233.342	47.62
233.56	8.7
233.777	115.2
233.995	55.81
234.213	59.9
234.43	33.28
234.648	27.14
234.865	43.52
235.083	23.04
235.3	20.99
235.518	16.9
235.735	8.7
235.953	49.66
236.17	-36.35
236.388	47.62
236.605	37.38
236.822	61.95
237.04	61.95
237.257	20.99
237.475	51.71
237.692	119.29
237.909	94.72
238.127	80.38
238.344	25.09
238.562	39.42
238.779	74.24
238.996	92.67
239.214	78.33
239.431	37.38
239.648	51.71
239.865	-24.06
240.083	37.38
240.3	16.9
240.517	41.47
240.735	-5.63
240.952	43.52
241.169	41.47
241.386	84.48
241.603	74.24
241.821	31.23
242.038	14.85
242.255	-11.78
242.472	53.76
242.689	57.86
242.907	98.81
243.124	115.2
243.341	49.66
243.558	53.76
243.775	66.05
243.992	-7.68
244.209	96.77
244.426	84.48
244.643	-1.54
244.86	70.14
245.078	88.57
245.295	-34.3
245.512	-13.82
245.729	-83.45
245.946	59.9
246.163	72.19
246.38	35.33
246.597	82.43
246.814	23.04
247.031	-13.82
247.248	16.9
247.464	90.62
247.681	61.95
247.898	20.99
248.115	0.51
248.332	20.99
248.549	102.91
248.766	186.88
248.983	123.39
249.2	84.48
249.417	37.38
249.633	20.99
249.85	64
250.067	49.66
250.284	154.11
250.501	41.47
250.717	49.66
250.934	16.9
251.151	-3.58
251.368	43.52
251.585	33.28
251.801	-26.11
252.018	37.38
252.235	-38.4
252.451	31.23
252.668	31.23
252.885	84.48
253.102	88.57
253.318	43.52
253.535	59.9
253.752	74.24
253.968	-28.16
254.185	2.56
254.401	39.42
254.618	57.86
254.835	55.81
255.051	109.05
255.268	104.96
255.484	86.53
255.701	16.9
255.917	107.01
256.134	68.09
256.351	70.14
256.567	12.8
256.784	10.75
257	49.66
257.217	92.67
257.433	59.9
257.65	82.43
257.866	55.81
258.082	119.29
258.299	8.7
258.515	18.94
258.732	-1.54
258.948	2.56
259.165	84.48
259.381	20.99
259.597	129.53
259.814	-3.58
260.03	10.75
260.246	31.23
260.463	55.81
260.679	49.66
260.895	31.23
261.112	59.9
261.328	33.28
261.544	35.33
261.761	14.85
261.977	59.9
262.193	78.33
262.409	39.42
262.626	35.33
262.842	-9.73
263.058	55.81
263.274	37.38
263.49	45.57
263.707	90.62
263.923	66.05
264.139	61.95
264.355	23.04
264.571	86.53
264.787	82.43
265.004	96.77
265.22	43.52
265.436	37.38
265.652	47.62
265.868	82.43
266.084	-52.74
266.3	92.67
266.516	-7.68
266.732	43.52
266.948	49.66
267.164	10.75
267.38	27.14
267.596	-3.58
267.812	51.71
268.028	66.05
268.244	55.81
268.46	41.47
268.676	61.95
268.892	74.24
269.108	102.91
269.324	49.66
269.54	10.75
269.756	84.48
269.972	-5.63
270.188	23.04
270.403	78.33
270.619	70.14
270.835	47.62
271.051	39.42
271.267	64
271.483	90.62
271.698	72.19
271.914	33.28
272.13	92.67
272.346	64
272.562	37.38
272.777	49.66
272.993	45.57
273.209	35.33
273.425	23.04
273.64	-5.63
273.856	127.49
274.072	18.94
274.287	70.14
274.503	57.86
274.719	33.28
274.934	70.14
275.15	8.7
275.366	59.9
275.581	35.33
275.797	10.75
276.012	59.9
276.228	-22.02
276.444	35.33
276.659	8.7
276.875	80.38
277.09	94.72
277.306	84.48
277.521	29.18
277.737	27.14
277.952	37.38
278.168	76.29
278.383	86.53
278.599	-22.02
278.814	43.52
279.03	78.33
279.245	100.86
279.461	-22.02
279.676	88.57
279.892	4.61
280.107	10.75
280.322	68.09
280.538	96.77
280.753	-11.78
280.969	39.42
281.184	39.42
281.399	43.52
281.615	47.62
281.83	-7.68
282.045	-11.78
282.26	14.85
282.476	25.09
282.691	53.76
282.906	23.04
283.122	45.57
283.337	-1.54
283.552	41.47
283.767	66.05
283.983	70.14
284.198	86.53
284.413	59.9
284.628	0.51
284.843	109.05
285.058	76.29
285.274	-28.16
285.489	47.62
285.704	102.91
285.919	80.38
286.134	23.04
286.349	10.75
286.564	-48.64
286.779	14.85
286.995	59.9
287.21	0.51
287.425	82.43
287.64	-15.87
287.855	115.2
288.07	-36.35
288.285	43.52
288.5	61.95
288.715	102.91
288.93	76.29
289.145	18.94
289.36	92.67
289.575	55.81
289.79	109.05
290.004	-24.06
290.219	86.53
290.434	51.71
290.649	61.95
290.864	43.52
291.079	59.9
291.294	49.66
291.509	4.61
291.724	66.05
291.938	66.05
292.153	113.15
292.368	0.51
292.583	33.28
292.798	39.42
293.012	25.09
293.227	14.85
293.442	109.05
293.657	66.05
293.871	-24.06
294.086	55.81
294.301	113.15
294.516	31.23
294.73	37.38
294.945	16.9
295.16	-13.82
295.374	72.19
295.589	131.58
295.804	61.95
296.018	6.66
296.233	59.9
296.447	68.09
296.662	-11.78
296.877	82.43
297.091	129.53
297.306	33.28
297.52	49.66
297.735	51.71
297.949	92.67
298.164	-3.58
298.378	43.52
298.593	90.62
298.807	66.05
299.022	27.14
299.236	82.43
299.451	90.62
299.665	68.09
299.88	37.38
300.094	14.85
300.309	47.62
300.523	74.24
300.737	68.09
300.952	57.86
301.166	49.66
301.381	39.42
301.595	41.47
301.809	64
302.024	51.71
302.238	51.71
302.452	94.72
302.667	41.47
302.881	131.58
303.095	53.76
303.309	47.62
303.524	37.38
303.738	80.38
303.952	37.38
304.166	16.9
304.381	25.09
304.595	68.09
304.809	37.38
305.023	61.95
305.237	-5.63
305.452	39.42
305.666	14.85
305.88	49.66
306.094	6.66
306.308	49.66
306.522	29.18
306.736	80.38
306.95	72.19
307.164	57.86
307.379	49.66
307.593	90.62
307.807	41.47
308.021	92.67
308.235	2.56
308.449	78.33
308.663	2.56
308.877	43.52
309.091	18.94
309.305	29.18
309.519	8.7
309.733	29.18
309.947	31.23
310.161	57.86
310.374	76.29
310.588	76.29
310.802	80.38
311.016	66.05
311.23	76.29
311.444	0.51
311.658	49.66
311.872	53.76
312.085	55.81
312.299	78.33
312.513	33.28
312.727	70.14
312.941	37.38
313.154	0.51
313.368	18.94
313.582	94.72
313.796	66.05
314.009	47.62
314.223	47.62
314.437	49.66
314.651	104.96
314.864	72.19
315.078	59.9
315.292	55.81
315.505	43.52
315.719	76.29
315.933	109.05
316.146	84.48
316.36	72.19
316.573	107.01
316.787	59.9
317.001	102.91
317.214	39.42
317.428	39.42
317.641	16.9
317.855	25.09
318.068	47.62
318.282	66.05
318.495	113.15
318.709	70.14
318.922	76.29
319.136	119.29
319.349	74.24
319.563	86.53
319.776	64
319.99	47.62
320.203	45.57
320.417	45.57
320.63	59.9
320.843	86.53
321.057	-7.68
321.27	90.62
321.483	49.66
321.697	23.04
321.91	129.53
322.124	100.86
322.337	119.29
322.55	45.57
322.763	78.33
322.977	74.24
323.19	-9.73
323.403	-5.63
323.617	72.19
323.83	70.14
324.043	55.81
324.256	152.06
324.469	35.33
324.683	68.09
324.896	12.8
325.109	84.48
325.322	78.33
325.535	39.42
325.748	49.66
325.962	10.75
326.175	10.75
326.388	43.52
326.601	27.14
326.814	-19.97
327.027	18.94
327.24	121.34
327.453	45.57
327.666	76.29
327.879	72.19
328.092	47.62
328.305	59.9
328.518	117.25
328.731	8.7
328.944	100.86
329.157	27.14
329.37	39.42
329.583	70.14
329.796	111.1
330.009	49.66
330.222	10.75
330.435	16.9
330.648	117.25
330.861	39.42
331.073	74.24
331.286	78.33
331.499	31.23
331.712	0.51
331.925	78.33
332.138	76.29
332.35	68.09
332.563	74.24
332.776	68.09
332.989	53.76
333.202	57.86
333.414	104.96
333.627	84.48
333.84	-9.73
334.053	94.72
334.265	-15.87
334.478	72.19
334.691	45.57
334.903	-22.02
335.116	64
335.329	33.28
335.541	72.19
335.754	68.09
335.966	37.38
336.179	33.28
336.392	76.29
336.604	20.99
336.817	10.75
337.029	133.63
337.242	12.8
337.454	96.77
337.667	80.38
337.88	127.49
338.092	57.86
338.305	121.34
338.517	51.71
338.729	102.91
338.942	90.62
339.154	-30.21
339.367	-1.54
339.579	123.39
339.792	59.9
340.004	98.81
340.217	14.85
340.429	166.4
340.641	49.66
340.854	39.42
341.066	51.71
341.278	70.14
341.491	35.33
341.703	84.48
341.915	-17.92
342.128	70.14
342.34	64
342.552	6.66
342.764	57.86
342.977	25.09
343.189	154.11
343.401	90.62
343.613	-15.87
343.826	88.57
344.038	16.9
344.25	88.57
344.462	74.24
344.674	84.48
344.886	90.62
345.099	39.42
345.311	162.3
345.523	20.99
345.735	-30.21
345.947	2.56
346.159	6.66
346.371	64
346.583	49.66
346.795	145.92
347.007	123.39
347.219	137.73
347.431	61.95
347.643	57.86
347.855	18.94
348.067	123.39
348.279	-15.87
348.491	51.71
348.703	49.66
348.915	64
349.127	109.05
349.339	72.19
349.551	92.67
349.763	96.77
349.975	55.81
350.187	125.44
350.399	76.29
350.61	141.82
350.822	33.28
351.034	90.62
351.246	18.94
351.458	55.81
351.669	74.24
351.881	49.66
352.093	23.04
352.305	66.05
352.517	16.9
352.728	96.77
352.94	-50.69
353.152	139.77
353.363	94.72
353.575	47.62
353.787	82.43
353.999	57.86
354.21	80.38
354.422	98.81
354.633	70.14
354.845	90.62
355.057	29.18
355.268	66.05
355.48	43.52
355.692	117.25
355.903	53.76
356.115	84.48
356.326	-50.69
356.538	78.33
356.749	84.48
356.961	115.2
357.172	72.19
357.384	64
357.595	70.14
357.807	57.86
358.018	47.62
358.23	47.62
358.441	121.34
358.653	76.29
358.864	78.33
359.075	94.72
359.287	72.19
359.498	43.52
359.709	66.05
359.921	66.05
360.132	31.23
360.344	82.43
360.555	55.81
360.766	72.19
360.977	74.24
361.189	121.34
361.4	84.48
361.611	92.67
361.823	64
362.034	0.51
362.245	16.9
362.456	20.99
362.667	35.33
362.879	98.81
363.09	57.86
363.301	72.19
363.512	2.56
363.723	76.29
363.935	147.97
364.146	49.66
364.357	23.04
364.568	10.75
364.779	33.28
364.99	117.25
365.201	113.15
365.412	66.05
365.623	70.14
365.834	49.66
366.045	123.39
366.256	154.11
366.467	59.9
366.678	66.05
366.889	74.24
367.1	-24.06
367.311	111.1
367.522	82.43
367.733	0.51
367.944	98.81
368.155	43.52
368.366	64
368.577	107.01
368.788	70.14
368.999	39.42
369.209	115.2
369.42	129.53
369.631	10.75
369.842	57.86
370.053	37.38
370.264	74.24
370.474	-26.11
370.685	109.05
370.896	39.42
371.107	68.09
371.317	51.71
371.528	27.14
371.739	156.16
371.95	68.09
372.16	43.52
372.371	80.38
372.582	115.2
372.792	70.14
373.003	119.29
373.214	104.96
373.424	41.47
373.635	117.25
373.846	125.44
374.056	25.09
374.267	12.8
374.477	131.58
374.688	53.76
374.898	109.05
375.109	119.29
375.319	133.63
375.53	78.33
375.74	72.19
375.951	43.52
376.161	119.29
376.372	59.9
376.582	68.09
376.793	76.29
377.003	94.72
377.214	45.57
377.424	88.57
377.635	8.7
377.845	49.66
378.055	100.86
378.266	23.04
378.476	78.33
378.686	86.53
378.897	178.69
379.107	90.62
379.317	139.77
379.528	45.57
379.738	117.25
379.948	10.75
380.158	-40.45
380.369	102.91
380.579	37.38
380.789	107.01
380.999	141.82
381.21	68.09
381.42	121.34
381.63	16.9
381.84	59.9
382.05	111.1
382.261	104.96
382.471	84.48
382.681	131.58
382.891	61.95
383.101	156.16
383.311	66.05
383.521	86.53
383.731	49.66
383.941	133.63
384.151	59.9
384.361	47.62
384.571	92.67
384.781	98.81
384.991	113.15
385.201	193.02
385.411	0.51
385.621	104.96
385.831	113.15
386.041	53.76
386.251	86.53
386.461	100.86
386.671	74.24
386.881	74.24
387.091	59.9
387.301	129.53
387.511	115.2
387.72	70.14
387.93	123.39
388.14	68.09
388.35	78.33
388.56	82.43
388.769	66.05
388.979	96.77
389.189	113.15
389.399	127.49
389.609	59.9
389.818	147.97
390.028	31.23
390.238	150.01
390.447	31.23
390.657	123.39
390.867	113.15
391.076	113.15
391.286	70.14
391.496	45.57
391.705	74.24
391.915	92.67
392.125	117.25
392.334	166.4
392.544	197.12
392.753	94.72
392.963	111.1
393.172	92.67
393.382	53.76
393.591	217.6
393.801	152.06
394.01	78.33
394.22	137.73
394.429	143.87
394.639	129.53
394.848	98.81
395.058	123.39
395.267	82.43
395.477	90.62
395.686	129.53
395.895	94.72
396.105	156.16
396.314	117.25
396.524	115.2
396.733	129.53
396.942	160.25
397.152	109.05
397.361	98.81
397.57	127.49
397.78	139.77
397.989	107.01
398.198	264.7
398.407	125.44
398.617	233.98
398.826	109.05
399.035	152.06
399.244	98.81
399.453	131.58
399.663	143.87
399.872	133.63
400.081	82.43
400.29	96.77
400.499	119.29
400.708	145.92
400.917	98.81
401.127	172.54
401.336	164.35
401.545	164.35
401.754	168.45
401.963	219.64
402.172	223.74
402.381	107.01
402.59	145.92
402.799	184.83
403.008	188.93
403.217	160.25
403.426	133.63
403.635	156.16
403.844	209.4
404.053	127.49
404.262	164.35
404.471	233.98
404.68	160.25
404.888	131.58
405.097	199.16
405.306	154.11
405.515	197.12
405.724	233.98
405.933	172.54
406.142	207.36
406.35	229.88
406.559	244.22
406.768	283.13
406.977	287.23
407.185	227.84
407.394	268.8
407.603	301.56
407.812	371.19
408.02	281.08
408.229	315.9
408.438	295.42
408.646	305.66
408.855	291.32
409.064	428.54
409.272	363
409.481	348.67
409.69	406.01
409.898	379.39
410.107	381.43
410.315	408.06
410.524	377.34
410.733	406.01
410.941	442.87
411.15	442.87
411.358	424.44
411.567	492.02
411.775	549.37
411.984	502.26
412.192	526.84
412.401	575.99
412.609	582.14
412.818	596.47
413.026	594.42
413.234	662.01
413.443	743.92
413.651	690.68
413.86	702.97
414.068	838.13
414.276	807.41
414.485	793.08
414.693	772.6
414.901	879.09
415.11	944.63
415.318	846.32
415.526	944.63
415.734	942.58
415.943	977.39
416.151	1016.3
416.359	1081.84
416.567	1067.5
416.776	1133.04
416.984	1155.57
417.192	1364.46
417.4	1196.53
417.608	1235.44
417.817	1294.83
418.025	1372.65
418.233	1419.75
418.441	1380.84
418.649	1485.29
418.857	1581.54
419.065	1604.07
419.273	1706.47
419.481	1784.29
419.689	1802.72
419.897	1968.61
420.105	1931.75
420.313	2011.62
420.521	2087.39
420.729	2075.1
420.937	2183.65
421.145	2259.42
421.353	2353.63
421.561	2513.37
421.769	2505.18
421.977	2683.35
422.185	2525.66
422.393	2783.7
422.601	2984.4
422.809	2808.28
423.017	2886.1
423.224	2968.02
423.432	3131.86
423.64	3150.29
423.848	3584.46
424.056	3424.72
424.263	3613.13
424.471	3586.51
424.679	3697.1
424.887	3779.01
425.094	3942.85
425.302	3992
425.51	4053.44
425.718	4336.06
425.925	4250.05
426.133	4463.04
426.341	4762.04
426.548	4950.45
426.756	4987.32
426.964	4940.21
427.171	5267.89
427.379	5515.69
427.586	5525.93
427.794	5859.75
428.001	5949.86
428.209	6187.43
428.417	6023.59
428.624	6519.2
428.832	6640.03
429.039	6504.86
429.247	6672.79
429.454	7184.79
429.662	7733.64
429.869	7070.1
430.076	7676.3
430.284	7295.38
430.491	7715.21
430.699	8331.65
430.906	8262.02
431.114	8331.65
431.321	8618.36
431.528	8954.23
431.736	9490.8
431.943	9853.29
432.15	9542
432.358	9613.68
432.565	10221.92
432.772	9939.3
432.979	10377.57
433.187	10797.4
433.394	10871.13
433.601	11626.83
433.808	11606.35
434.016	11632.97
434.223	12257.6
434.43	12824.89
434.637	12398.91
434.844	13463.86
435.052	13404.47
435.259	13424.95
435.466	13580.59
435.673	13470
435.88	14315.81
436.087	14919.96
436.294	15067.42
436.501	14729.5
436.708	14979.36
436.915	15513.88
437.122	16345.35
437.329	16283.91
437.537	16845.05
437.743	17074.43
437.95	16773.38
438.157	17817.84
438.364	18374.89
438.571	18395.37
438.778	18440.42
438.985	20357.32
439.192	19378.39
439.399	20070.61
439.606	19618
439.813	20527.3
440.02	21553.34
440.227	21608.63
440.433	21444.79
440.64	22177.97
440.847	21995.7
441.054	22526.12
441.261	23799.96
441.467	23455.9
441.674	24184.97
441.881	24715.4
442.088	24889.48
442.294	24688.78
442.501	25421.95
442.708	25712.76
442.914	26712.17
443.121	28033.11
443.328	27383.9
443.534	29435.97
443.741	28674.12
443.948	27723.86
444.154	29849.66
444.361	29855.8
444.568	30285.87
444.774	30277.68
444.981	30320.69
445.187	31238.18
445.394	32417.81
445.6	32366.61
445.807	35479.52
446.013	33841.15
446.22	34316.28
446.426	36065.24
446.633	36153.3
446.839	37367.75
447.046	35725.28
447.252	37857.21
447.459	37885.89
447.665	37687.23
447.871	39348.14
448.078	40753.04
448.284	39176.11
448.491	40099.74
448.697	41541.51
448.903	42477.43
449.11	42747.76
449.316	41342.86
449.522	42512.25
449.728	43685.73
449.935	43978.59
450.141	43618.15
450.347	44382.04
450.553	43669.35
450.76	44269.4
450.966	45961.03
451.172	44605.27
451.378	46108.48
451.584	45418.31
451.791	46241.6
451.997	46440.25
452.203	47003.44
452.409	46899
452.615	46686.01
452.821	44855.12
453.027	44711.77
453.233	46821.17
453.44	45416.27
453.646	45811.52
453.852	46085.95
454.058	46868.28
454.264	45121.36
454.47	46004.03
454.676	45002.58
454.882	46384.96
455.088	42803.06
455.294	43618.15
455.5	43820.9
455.705	44498.78
455.911	42678.13
456.117	41846.66
456.323	41170.83
456.529	39192.49
456.735	40898.45
456.941	39847.84
457.147	38903.73
457.352	37980.09
457.558	37451.72
457.764	37590.98
457.97	36759.5
458.176	36208.6
458.381	36018.14
458.587	34160.63
458.793	34062.33
458.999	32354.32
459.204	34711.53
459.41	33908.73
459.616	31930.39
459.821	32055.32
460.027	31461.41
460.233	31373.35
460.438	29317.18
460.644	29904.95
460.85	28305.49
461.055	28076.12
461.261	27842.65
461.466	26085.49
461.672	24969.35
461.878	26984.55
462.083	25213.06
462.289	24795.27
462.494	24539.27
462.7	23488.67
462.905	22778.02
463.111	23640.22
463.316	23730.33
463.522	23093.41
463.727	22814.88
463.932	23017.63
464.138	22859.94
464.343	23279.77
464.549	22223.02
464.754	22960.29
464.959	22773.92
465.165	22323.37
465.37	21512.38
465.575	21074.11
465.781	22089.9
465.986	22126.77
466.191	21414.07
466.397	20754.63
466.602	20211.92
466.807	20607.17
467.012	20644.04
467.218	20621.51
467.423	20191.44
467.628	20478.15
