Data from USB4F104151__64__12-36-31-535.txt Node

Date: Fri Mar 14 12:36:31 EDT 2025
User: louis
Spectrometer: USB4F10415
Trigger mode: 4
Integration Time (sec): 2.000000E-2
Scans to average: 1
Electric dark correction enabled: true
Nonlinearity correction enabled: false
Boxcar width: 0
XAxis mode: Wavelengths
Number of Pixels in Spectrum: 3648
>>>>>Begin Spectral Data<<<<<
178.204	-62.98
178.424	-62.98
178.644	-62.98
178.864	-93.69
179.084	-83.45
179.304	49.66
179.524	0.51
179.744	51.71
179.964	18.94
180.184	-128.51
180.404	-28.16
180.624	-5.63
180.844	-24.06
181.064	41.47
181.283	39.42
181.503	16.9
181.723	-32.26
181.943	-26.11
182.163	82.43
182.383	72.19
182.602	115.2
182.822	115.2
183.042	82.43
183.262	16.9
183.482	31.23
183.701	-7.68
183.921	37.38
184.141	-11.78
184.361	88.57
184.58	37.38
184.8	47.62
185.02	-19.97
185.239	96.77
185.459	-1.54
185.679	-1.54
185.898	4.61
186.118	53.76
186.338	-40.45
186.557	143.87
186.777	66.05
186.997	53.76
187.216	25.09
187.436	49.66
187.655	25.09
187.875	82.43
188.095	23.04
188.314	45.57
188.534	68.09
188.753	51.71
188.973	74.24
189.192	131.58
189.412	55.81
189.631	27.14
189.851	66.05
190.07	57.86
190.29	41.47
190.509	74.24
190.729	23.04
190.948	55.81
191.168	115.2
191.387	-17.92
191.607	49.66
191.826	33.28
192.045	2.56
192.265	39.42
192.484	25.09
192.704	-5.63
192.923	41.47
193.142	115.2
193.362	16.9
193.581	59.9
193.8	-9.73
194.02	57.86
194.239	49.66
194.458	74.24
194.678	125.44
194.897	80.38
195.116	23.04
195.335	59.9
195.555	27.14
195.774	20.99
195.993	98.81
196.212	35.33
196.432	-56.83
196.651	61.95
196.87	47.62
197.089	35.33
197.308	84.48
197.528	41.47
197.747	35.33
197.966	72.19
198.185	-11.78
198.404	125.44
198.623	47.62
198.842	70.14
199.062	78.33
199.281	25.09
199.5	8.7
199.719	16.9
199.938	39.42
200.157	-1.54
200.376	70.14
200.595	59.9
200.814	107.01
201.033	47.62
201.252	20.99
201.471	80.38
201.69	70.14
201.909	14.85
202.128	37.38
202.347	98.81
202.566	51.71
202.785	29.18
203.004	25.09
203.223	129.53
203.442	0.51
203.661	88.57
203.879	2.56
204.098	96.77
204.317	31.23
204.536	55.81
204.755	-34.3
204.974	14.85
205.193	2.56
205.411	102.91
205.63	16.9
205.849	43.52
206.068	51.71
206.287	57.86
206.505	96.77
206.724	-3.58
206.943	84.48
207.162	55.81
207.381	115.2
207.599	47.62
207.818	86.53
208.037	23.04
208.255	23.04
208.474	16.9
208.693	98.81
208.911	14.85
209.13	6.66
209.349	-42.5
209.567	55.81
209.786	31.23
210.005	-13.82
210.223	-3.58
210.442	37.38
210.661	18.94
210.879	0.51
211.098	100.86
211.316	68.09
211.535	64
211.753	20.99
211.972	68.09
212.191	-1.54
212.409	4.61
212.628	37.38
212.846	-24.06
213.065	0.51
213.283	39.42
213.502	90.62
213.72	45.57
213.938	41.47
214.157	70.14
214.375	-9.73
214.594	64
214.812	39.42
215.031	59.9
215.249	-7.68
215.467	-24.06
215.686	2.56
215.904	43.52
216.122	25.09
216.341	90.62
216.559	6.66
216.778	115.2
216.996	57.86
217.214	23.04
217.432	29.18
217.651	31.23
217.869	27.14
218.087	-24.06
218.306	6.66
218.524	70.14
218.742	-38.4
218.96	152.06
219.179	-15.87
219.397	-13.82
219.615	-9.73
219.833	59.9
220.051	123.39
220.27	96.77
220.488	45.57
220.706	6.66
220.924	102.91
221.142	84.48
221.36	43.52
221.578	96.77
221.796	47.62
222.015	61.95
222.233	61.95
222.451	55.81
222.669	20.99
222.887	92.67
223.105	35.33
223.323	57.86
223.541	4.61
223.759	45.57
223.977	80.38
224.195	61.95
224.413	76.29
224.631	70.14
224.849	117.25
225.067	86.53
225.285	25.09
225.503	29.18
225.721	-17.92
225.939	-54.78
226.157	82.43
226.375	107.01
226.592	-38.4
226.81	113.15
227.028	-1.54
227.246	104.96
227.464	37.38
227.682	35.33
227.9	88.57
228.117	82.43
228.335	123.39
228.553	18.94
228.771	29.18
228.989	86.53
229.206	29.18
229.424	68.09
229.642	92.67
229.86	-22.02
230.077	57.86
230.295	20.99
230.513	2.56
230.731	59.9
230.948	51.71
231.166	64
231.384	6.66
231.601	-5.63
231.819	8.7
232.037	59.9
232.254	31.23
232.472	41.47
232.689	-38.4
232.907	12.8
233.125	14.85
233.342	27.14
233.56	35.33
233.777	72.19
233.995	74.24
234.213	18.94
234.43	35.33
234.648	4.61
234.865	0.51
235.083	47.62
235.3	18.94
235.518	59.9
235.735	100.86
235.953	-1.54
236.17	-46.59
236.388	-7.68
236.605	16.9
236.822	96.77
237.04	86.53
237.257	55.81
237.475	-15.87
237.692	41.47
237.909	53.76
238.127	92.67
238.344	18.94
238.562	84.48
238.779	80.38
238.996	39.42
239.214	33.28
239.431	59.9
239.648	-1.54
239.865	14.85
240.083	8.7
240.3	72.19
240.517	25.09
240.735	20.99
240.952	35.33
241.169	25.09
241.386	107.01
241.603	39.42
241.821	2.56
242.038	53.76
242.255	18.94
242.472	14.85
242.689	33.28
242.907	51.71
243.124	31.23
243.341	45.57
243.558	68.09
243.775	-60.93
243.992	33.28
244.209	43.52
244.426	115.2
244.643	90.62
244.86	76.29
245.078	16.9
245.295	-32.26
245.512	150.01
245.729	23.04
245.946	64
246.163	74.24
246.38	-34.3
246.597	37.38
246.814	31.23
247.031	47.62
247.248	31.23
247.464	70.14
247.681	-3.58
247.898	64
248.115	61.95
248.332	10.75
248.549	45.57
248.766	127.49
248.983	29.18
249.2	74.24
249.417	109.05
249.633	61.95
249.85	27.14
250.067	10.75
250.284	0.51
250.501	-1.54
250.717	61.95
250.934	100.86
251.151	-17.92
251.368	57.86
251.585	2.56
251.801	0.51
252.018	8.7
252.235	109.05
252.451	51.71
252.668	-40.45
252.885	-26.11
253.102	33.28
253.318	129.53
253.535	6.66
253.752	23.04
253.968	23.04
254.185	-9.73
254.401	39.42
254.618	-11.78
254.835	10.75
255.051	29.18
255.268	-7.68
255.484	80.38
255.701	6.66
255.917	43.52
256.134	35.33
256.351	-13.82
256.567	49.66
256.784	29.18
257	33.28
257.217	57.86
257.433	10.75
257.65	-5.63
257.866	121.34
258.082	33.28
258.299	47.62
258.515	27.14
258.732	72.19
258.948	53.76
259.165	45.57
259.381	37.38
259.597	51.71
259.814	51.71
260.03	39.42
260.246	-46.59
260.463	-38.4
260.679	96.77
260.895	-1.54
261.112	82.43
261.328	74.24
261.544	-30.21
261.761	59.9
261.977	135.68
262.193	31.23
262.409	45.57
262.626	53.76
262.842	70.14
263.058	27.14
263.274	39.42
263.49	10.75
263.707	66.05
263.923	27.14
264.139	53.76
264.355	18.94
264.571	125.44
264.787	37.38
265.004	96.77
265.22	8.7
265.436	4.61
265.652	145.92
265.868	20.99
266.084	33.28
266.3	4.61
266.516	45.57
266.732	98.81
266.948	8.7
267.164	43.52
267.38	59.9
267.596	78.33
267.812	88.57
268.028	45.57
268.244	20.99
268.46	6.66
268.676	61.95
268.892	45.57
269.108	-34.3
269.324	31.23
269.54	25.09
269.756	6.66
269.972	43.52
270.188	123.39
270.403	49.66
270.619	109.05
270.835	31.23
271.051	39.42
271.267	33.28
271.483	-1.54
271.698	33.28
271.914	59.9
272.13	47.62
272.346	2.56
272.562	61.95
272.777	68.09
272.993	25.09
273.209	-30.21
273.425	31.23
273.64	43.52
273.856	78.33
274.072	-1.54
274.287	-60.93
274.503	76.29
274.719	64
274.934	86.53
275.15	47.62
275.366	92.67
275.581	-17.92
275.797	90.62
276.012	20.99
276.228	74.24
276.444	59.9
276.659	64
276.875	10.75
277.09	10.75
277.306	94.72
277.521	90.62
277.737	-42.5
277.952	55.81
278.168	37.38
278.383	43.52
278.599	88.57
278.814	16.9
279.03	74.24
279.245	59.9
279.461	68.09
279.676	33.28
279.892	2.56
280.107	2.56
280.322	51.71
280.538	14.85
280.753	51.71
280.969	59.9
281.184	82.43
281.399	84.48
281.615	18.94
281.83	57.86
282.045	14.85
282.26	53.76
282.476	66.05
282.691	125.44
282.906	86.53
283.122	29.18
283.337	35.33
283.552	47.62
283.767	61.95
283.983	133.63
284.198	39.42
284.413	16.9
284.628	-48.64
284.843	76.29
285.058	66.05
285.274	88.57
285.489	2.56
285.704	51.71
285.919	-38.4
286.134	37.38
286.349	-26.11
286.564	102.91
286.779	37.38
286.995	45.57
287.21	10.75
287.425	2.56
287.64	-32.26
287.855	94.72
288.07	-17.92
288.285	14.85
288.5	25.09
288.715	72.19
288.93	-9.73
289.145	82.43
289.36	35.33
289.575	23.04
289.79	35.33
290.004	12.8
290.219	18.94
290.434	94.72
290.649	35.33
290.864	-11.78
291.079	59.9
291.294	45.57
291.509	72.19
291.724	127.49
291.938	90.62
292.153	96.77
292.368	-3.58
292.583	57.86
292.798	29.18
293.012	84.48
293.227	68.09
293.442	-1.54
293.657	47.62
293.871	96.77
294.086	107.01
294.301	86.53
294.516	84.48
294.73	115.2
294.945	64
295.16	82.43
295.374	66.05
295.589	39.42
295.804	45.57
296.018	0.51
296.233	55.81
296.447	80.38
296.662	47.62
296.877	86.53
297.091	90.62
297.306	70.14
297.52	39.42
297.735	86.53
297.949	-50.69
298.164	20.99
298.378	49.66
298.593	88.57
298.807	102.91
299.022	135.68
299.236	156.16
299.451	84.48
299.665	2.56
299.88	4.61
300.094	-26.11
300.309	78.33
300.523	12.8
300.737	78.33
300.952	82.43
301.166	72.19
301.381	-38.4
301.595	64
301.809	8.7
302.024	86.53
302.238	61.95
302.452	109.05
302.667	47.62
302.881	86.53
303.095	43.52
303.309	-9.73
303.524	164.35
303.738	25.09
303.952	37.38
304.166	72.19
304.381	14.85
304.595	12.8
304.809	0.51
305.023	41.47
305.237	68.09
305.452	76.29
305.666	137.73
305.88	37.38
306.094	57.86
306.308	18.94
306.522	33.28
306.736	29.18
306.95	2.56
307.164	137.73
307.379	35.33
307.593	64
307.807	66.05
308.021	84.48
308.235	121.34
308.449	29.18
308.663	78.33
308.877	82.43
309.091	27.14
309.305	80.38
309.519	6.66
309.733	72.19
309.947	70.14
310.161	96.77
310.374	14.85
310.588	86.53
310.802	41.47
311.016	-1.54
311.23	64
311.444	-17.92
311.658	86.53
311.872	107.01
312.085	90.62
312.299	8.7
312.513	82.43
312.727	86.53
312.941	-7.68
313.154	66.05
313.368	-5.63
313.582	64
313.796	6.66
314.009	29.18
314.223	41.47
314.437	37.38
314.651	43.52
314.864	-9.73
315.078	-48.64
315.292	45.57
315.505	20.99
315.719	98.81
315.933	49.66
316.146	66.05
316.36	8.7
316.573	109.05
316.787	70.14
317.001	59.9
317.214	29.18
317.428	86.53
317.641	76.29
317.855	80.38
318.068	43.52
318.282	92.67
318.495	147.97
318.709	-3.58
318.922	43.52
319.136	96.77
319.349	172.54
319.563	86.53
319.776	43.52
319.99	-3.58
320.203	39.42
320.417	35.33
320.63	137.73
320.843	4.61
321.057	57.86
321.27	33.28
321.483	61.95
321.697	88.57
321.91	66.05
322.124	66.05
322.337	76.29
322.55	121.34
322.763	80.38
322.977	104.96
323.19	35.33
323.403	80.38
323.617	107.01
323.83	162.3
324.043	78.33
324.256	41.47
324.469	-60.93
324.683	115.2
324.896	143.87
325.109	51.71
325.322	14.85
325.535	119.29
325.748	41.47
325.962	45.57
326.175	72.19
326.388	68.09
326.601	64
326.814	117.25
327.027	55.81
327.24	111.1
327.453	39.42
327.666	119.29
327.879	107.01
328.092	92.67
328.305	16.9
328.518	84.48
328.731	74.24
328.944	43.52
329.157	12.8
329.37	72.19
329.583	27.14
329.796	53.76
330.009	37.38
330.222	-3.58
330.435	70.14
330.648	76.29
330.861	-58.88
331.073	82.43
331.286	14.85
331.499	72.19
331.712	82.43
331.925	68.09
332.138	78.33
332.35	100.86
332.563	66.05
332.776	84.48
332.989	96.77
333.202	92.67
333.414	-3.58
333.627	51.71
333.84	59.9
334.053	33.28
334.265	16.9
334.478	100.86
334.691	88.57
334.903	64
335.116	43.52
335.329	66.05
335.541	25.09
335.754	82.43
335.966	-32.26
336.179	96.77
336.392	102.91
336.604	53.76
336.817	121.34
337.029	29.18
337.242	-13.82
337.454	-1.54
337.667	43.52
337.88	104.96
338.092	86.53
338.305	35.33
338.517	55.81
338.729	127.49
338.942	86.53
339.154	78.33
339.367	39.42
339.579	45.57
339.792	47.62
340.004	-3.58
340.217	68.09
340.429	55.81
340.641	41.47
340.854	80.38
341.066	66.05
341.278	90.62
341.491	57.86
341.703	96.77
341.915	66.05
342.128	70.14
342.34	64
342.552	68.09
342.764	29.18
342.977	25.09
343.189	90.62
343.401	68.09
343.613	27.14
343.826	90.62
344.038	-11.78
344.25	31.23
344.462	14.85
344.674	37.38
344.886	109.05
345.099	88.57
345.311	57.86
345.523	16.9
345.735	10.75
345.947	86.53
346.159	107.01
346.371	45.57
346.583	41.47
346.795	86.53
347.007	18.94
347.219	86.53
347.431	39.42
347.643	80.38
347.855	39.42
348.067	78.33
348.279	-1.54
348.491	80.38
348.703	102.91
348.915	66.05
349.127	98.81
349.339	78.33
349.551	2.56
349.763	139.77
349.975	23.04
350.187	109.05
350.399	131.58
350.61	94.72
350.822	47.62
351.034	135.68
351.246	100.86
351.458	59.9
351.669	88.57
351.881	59.9
352.093	64
352.305	104.96
352.517	76.29
352.728	98.81
352.94	119.29
353.152	39.42
353.363	94.72
353.575	59.9
353.787	121.34
353.999	100.86
354.21	82.43
354.422	64
354.633	20.99
354.845	68.09
355.057	-19.97
355.268	8.7
355.48	61.95
355.692	68.09
355.903	20.99
356.115	51.71
356.326	88.57
356.538	45.57
356.749	86.53
356.961	64
357.172	94.72
357.384	68.09
357.595	68.09
357.807	100.86
358.018	86.53
358.23	33.28
358.441	45.57
358.653	143.87
358.864	49.66
359.075	133.63
359.287	96.77
359.498	139.77
359.709	49.66
359.921	-34.3
360.132	68.09
360.344	90.62
360.555	123.39
360.766	90.62
360.977	23.04
361.189	113.15
361.4	51.71
361.611	121.34
361.823	145.92
362.034	94.72
362.245	72.19
362.456	92.67
362.667	66.05
362.879	102.91
363.09	121.34
363.301	119.29
363.512	55.81
363.723	23.04
363.935	88.57
364.146	88.57
364.357	35.33
364.568	78.33
364.779	109.05
364.99	72.19
365.201	70.14
365.412	51.71
365.623	55.81
365.834	70.14
366.045	27.14
366.256	27.14
366.467	-9.73
366.678	66.05
366.889	10.75
367.1	72.19
367.311	111.1
367.522	76.29
367.733	90.62
367.944	125.44
368.155	-22.02
368.366	104.96
368.577	98.81
368.788	115.2
368.999	25.09
369.209	0.51
369.42	129.53
369.631	88.57
369.842	33.28
370.053	139.77
370.264	92.67
370.474	82.43
370.685	64
370.896	61.95
371.107	141.82
371.317	66.05
371.528	100.86
371.739	135.68
371.95	141.82
372.16	76.29
372.371	39.42
372.582	61.95
372.792	143.87
373.003	74.24
373.214	135.68
373.424	27.14
373.635	16.9
373.846	88.57
374.056	88.57
374.267	55.81
374.477	59.9
374.688	100.86
374.898	111.1
375.109	64
375.319	64
375.53	141.82
375.74	57.86
375.951	176.64
376.161	41.47
376.372	96.77
376.582	102.91
376.793	143.87
377.003	82.43
377.214	61.95
377.424	127.49
377.635	37.38
377.845	109.05
378.055	123.39
378.266	66.05
378.476	53.76
378.686	31.23
378.897	92.67
379.107	86.53
379.317	98.81
379.528	104.96
379.738	4.61
379.948	94.72
380.158	80.38
380.369	84.48
380.579	84.48
380.789	6.66
380.999	51.71
381.21	129.53
381.42	64
381.63	70.14
381.84	84.48
382.05	80.38
382.261	47.62
382.471	104.96
382.681	154.11
382.891	72.19
383.101	100.86
383.311	10.75
383.521	139.77
383.731	29.18
383.941	84.48
384.151	80.38
384.361	43.52
384.571	127.49
384.781	129.53
384.991	53.76
385.201	102.91
385.411	18.94
385.621	109.05
385.831	90.62
386.041	33.28
386.251	117.25
386.461	123.39
386.671	27.14
386.881	109.05
387.091	39.42
387.301	88.57
387.511	143.87
387.72	57.86
387.93	96.77
388.14	94.72
388.35	98.81
388.56	160.25
388.769	94.72
388.979	86.53
389.189	49.66
389.399	109.05
389.609	72.19
389.818	51.71
390.028	113.15
390.238	82.43
390.447	74.24
390.657	115.2
390.867	25.09
391.076	121.34
391.286	121.34
391.496	61.95
391.705	72.19
391.915	125.44
392.125	82.43
392.334	115.2
392.544	117.25
392.753	92.67
392.963	162.3
393.172	147.97
393.382	123.39
393.591	139.77
393.801	96.77
394.01	143.87
394.22	47.62
394.429	147.97
394.639	80.38
394.848	129.53
395.058	131.58
395.267	92.67
395.477	115.2
395.686	94.72
395.895	145.92
396.105	225.79
396.314	176.64
396.524	137.73
396.733	55.81
396.942	135.68
397.152	164.35
397.361	131.58
397.57	119.29
397.78	137.73
397.989	113.15
398.198	201.21
398.407	84.48
398.617	170.49
398.826	152.06
399.035	41.47
399.244	100.86
399.453	88.57
399.663	186.88
399.872	145.92
400.081	188.93
400.29	213.5
400.499	123.39
400.708	193.02
400.917	115.2
401.127	139.77
401.336	158.21
401.545	150.01
401.754	231.93
401.963	184.83
402.172	154.11
402.381	147.97
402.59	199.16
402.799	172.54
403.008	182.78
403.217	152.06
403.426	199.16
403.635	92.67
403.844	186.88
404.053	164.35
404.262	205.31
404.471	246.27
404.68	256.51
404.888	287.23
405.097	203.26
405.306	215.55
405.515	199.16
405.724	244.22
405.933	184.83
406.142	256.51
406.35	283.13
406.559	262.65
406.768	252.41
406.977	338.43
407.185	293.37
407.394	256.51
407.603	272.89
407.812	289.28
408.02	320
408.229	309.76
408.438	315.9
408.646	369.15
408.855	363
409.064	377.34
409.272	358.91
409.481	442.87
409.69	389.63
409.898	350.71
410.107	399.87
410.315	489.98
410.524	426.49
410.733	494.07
410.941	494.07
411.15	487.93
411.358	516.6
411.567	465.4
411.775	535.03
411.984	625.14
412.192	569.85
412.401	629.24
412.609	745.97
412.818	715.25
413.026	678.39
413.234	743.92
413.443	721.4
413.651	803.32
413.86	782.84
414.068	834.04
414.276	909.81
414.485	903.67
414.693	915.95
414.901	979.44
415.11	991.73
415.318	1016.3
415.526	1114.61
415.734	1092.08
415.943	1133.04
416.151	1180.14
416.359	1247.72
416.567	1290.73
416.776	1274.35
416.984	1362.41
417.192	1386.99
417.4	1257.96
417.608	1313.26
417.817	1505.77
418.025	1475.05
418.233	1651.17
418.441	1602.02
418.649	1745.38
418.857	1817.06
419.065	1798.63
419.273	1839.59
419.481	1935.84
419.689	2085.34
419.897	2097.63
420.105	2200.03
420.313	2210.27
420.521	2263.52
420.729	2353.63
420.937	2404.83
421.145	2443.74
421.353	2681.3
421.561	2724.31
421.769	2750.93
421.977	2906.58
422.185	2888.15
422.393	3054.03
422.601	3375.56
422.809	3287.5
423.017	3332.56
423.224	3445.2
423.432	3539.4
423.64	3658.18
423.848	3809.73
424.056	3768.77
424.263	4090.31
424.471	3973.57
424.679	4188.61
424.887	4383.17
425.094	4356.54
425.302	4532.67
425.51	4569.53
425.718	4901.3
425.925	4733.37
426.133	5036.47
426.341	5319.09
426.548	5591.47
426.756	5679.53
426.964	5667.24
427.171	5884.33
427.379	6068.64
427.586	6244.77
427.794	6336.93
428.001	6756.76
428.209	6869.4
428.417	6994.33
428.624	7322
428.832	7502.22
429.039	7303.57
429.247	7498.13
429.454	7995.78
429.662	8561.02
429.869	7979.4
430.076	8587.64
430.284	8452.48
430.491	8700.28
430.699	9089.4
430.906	9251.19
431.114	9593.2
431.321	9709.93
431.528	9976.17
431.736	10602.85
431.943	10975.58
432.15	10596.7
432.358	10871.13
432.565	11383.12
432.772	11387.22
432.979	12085.58
433.187	12310.85
433.394	12159.3
433.601	12984.63
433.808	13121.85
434.016	13107.51
434.223	13373.75
434.43	14586.15
434.637	14131.5
434.844	14881.05
435.052	15345.94
435.259	15040.79
435.466	15298.84
435.673	15073.56
435.88	16179.47
436.087	16675.07
436.294	16892.16
436.501	16765.18
436.708	16976.12
436.915	17527.03
437.122	18288.87
437.329	18295.02
437.537	18901.22
437.743	19335.38
437.95	18936.03
438.157	20185.29
438.364	20429
438.571	20646.08
438.778	20521.16
438.985	22843.56
439.192	21682.36
439.399	22481.06
439.606	21950.64
439.813	23001.25
440.02	24766.6
440.227	24184.97
440.433	23785.62
440.64	24895.62
440.847	24567.95
441.054	25483.39
441.261	26845.29
441.467	26646.63
441.674	27289.7
441.881	28162.13
442.088	27977.81
442.294	27703.39
442.501	28469.33
442.708	29364.29
442.914	30353.46
443.121	31471.65
443.328	30851.11
443.534	32714.76
443.741	31797.27
443.948	31680.54
444.154	33550.34
444.361	33572.86
444.568	34086.9
444.774	33626.11
444.981	33931.26
445.187	35244.01
445.394	36478.93
445.6	36179.93
445.807	39559.08
446.013	37636.03
446.22	38653.87
446.426	40052.64
446.633	40517.53
446.839	42012.54
447.046	40464.28
447.252	42012.54
447.459	42051.45
447.665	41951.1
447.871	43839.33
448.078	45756.23
448.284	43429.74
448.491	44953.43
448.697	46323.52
448.903	46798.65
449.11	47492.91
449.316	46587.71
449.522	47828.77
449.728	49053.46
449.935	49143.57
450.141	49344.27
450.347	49993.48
450.553	48676.63
450.76	49104.66
450.966	51150.58
451.172	50132.74
451.378	51705.58
451.584	50755.32
451.791	51764.97
451.997	51685.1
452.203	52614.88
452.409	52508.38
452.615	51998.44
452.821	50614.01
453.027	50214.66
453.233	52424.42
453.44	50362.11
453.646	51183.35
453.852	51089.14
454.058	51963.62
454.264	50243.33
454.47	51683.05
454.676	50294.53
454.882	51861.22
455.088	47454
455.294	48238.37
455.5	48750.36
455.705	49379.09
455.911	47650.6
456.117	46782.26
456.323	46090.05
456.529	43913.06
456.735	45711.17
456.941	44767.06
457.147	43630.44
457.352	42485.62
457.558	41996.16
457.764	41987.97
457.97	41398.15
458.176	40492.95
458.381	40619.92
458.587	38598.58
458.793	38637.49
458.999	36444.12
459.204	39008.17
459.41	37976
459.616	35655.65
459.821	35860.44
460.027	35338.21
460.233	34269.17
460.438	32862.22
460.644	33325.06
460.85	31840.28
461.055	30988.33
461.261	31463.46
461.466	28983.37
461.672	28155.99
461.878	30296.11
462.083	27752.54
462.289	27494.49
462.494	27132
462.7	25944.18
462.905	25116.8
463.111	26060.91
463.316	26413.16
463.522	25731.19
463.727	25962.61
463.932	25575.55
464.138	25526.39
464.343	25606.27
464.549	25014.4
464.754	25522.3
464.959	25352.32
465.165	25213.06
465.37	24051.86
465.575	23410.84
465.781	24561.8
465.986	24627.34
466.191	23974.03
466.397	23300.25
466.602	22311.08
466.807	23355.55
467.012	23261.34
467.218	23074.98
467.423	22513.83
