Data from USB4F104151__88__12-36-58-968.txt Node

Date: Fri Mar 14 12:36:58 EDT 2025
User: louis
Spectrometer: USB4F10415
Trigger mode: 4
Integration Time (sec): 2.000000E-2
Scans to average: 1
Electric dark correction enabled: true
Nonlinearity correction enabled: false
Boxcar width: 0
XAxis mode: Wavelengths
Number of Pixels in Spectrum: 3648
>>>>>Begin Spectral Data<<<<<
178.204	-120.49
178.424	-120.49
178.644	-120.49
178.864	-100.01
179.084	-134.82
179.304	-11.95
179.524	-13.99
179.744	6.49
179.964	78.16
180.184	4.44
180.404	-26.28
180.624	-54.95
180.844	-108.2
181.064	24.92
181.283	55.64
181.503	-44.71
181.723	90.45
181.943	-18.09
182.163	72.02
182.383	4.44
182.602	18.77
182.822	35.16
183.042	51.54
183.262	-18.09
183.482	94.55
183.701	-28.33
183.921	57.68
184.141	-40.62
184.361	39.25
184.58	0.34
184.8	20.82
185.02	47.44
185.239	31.06
185.459	98.64
185.679	51.54
185.898	63.83
186.118	39.25
186.338	-36.52
186.557	47.44
186.777	31.06
186.997	-3.75
187.216	-32.43
187.436	78.16
187.655	100.69
187.875	14.68
188.095	-13.99
188.314	-30.38
188.534	20.82
188.753	37.2
188.973	14.68
189.192	90.45
189.412	47.44
189.631	69.97
189.851	10.58
190.07	88.4
190.29	22.87
190.509	65.88
190.729	20.82
190.948	47.44
191.168	88.4
191.387	84.31
191.607	-48.81
191.826	39.25
192.045	24.92
192.265	6.49
192.484	43.35
192.704	26.96
192.923	12.63
193.142	22.87
193.362	24.92
193.581	65.88
193.8	92.5
194.02	26.96
194.239	-26.28
194.458	10.58
194.678	53.59
194.897	65.88
195.116	59.73
195.335	8.53
195.555	-28.33
195.774	74.07
195.993	47.44
196.212	49.49
196.432	84.31
196.651	-50.86
196.87	-16.04
197.089	110.93
197.308	59.73
197.528	39.25
197.747	33.11
197.966	88.4
198.185	123.22
198.404	67.92
198.623	12.63
198.842	108.88
199.062	29.01
199.281	137.56
199.5	-22.19
199.719	51.54
199.938	98.64
200.157	78.16
200.376	16.73
200.595	37.2
200.814	51.54
201.033	69.97
201.252	49.49
201.471	72.02
201.69	10.58
201.909	22.87
202.128	26.96
202.347	-3.75
202.566	-34.47
202.785	33.11
203.004	2.39
203.223	16.73
203.442	47.44
203.661	16.73
203.879	49.49
204.098	49.49
204.317	53.59
204.536	4.44
204.755	63.83
204.974	61.78
205.193	67.92
205.411	16.73
205.63	24.92
205.849	26.96
206.068	14.68
206.287	100.69
206.505	-30.38
206.724	49.49
206.943	-18.09
207.162	14.68
207.381	24.92
207.599	-28.33
207.818	14.68
208.037	43.35
208.255	24.92
208.474	-59.05
208.693	-44.71
208.911	18.77
209.13	43.35
209.349	39.25
209.567	115.03
209.786	24.92
210.005	33.11
210.223	49.49
210.442	49.49
210.661	12.63
210.879	-5.8
211.098	127.32
211.316	4.44
211.535	2.39
211.753	45.4
211.972	65.88
212.191	-57
212.409	16.73
212.628	-3.75
212.846	8.53
213.065	-20.14
213.283	65.88
213.502	35.16
213.72	51.54
213.938	12.63
214.157	10.58
214.375	84.31
214.594	-26.28
214.812	-9.9
215.031	-9.9
215.249	-32.43
215.467	-36.52
215.686	51.54
215.904	92.5
216.122	45.4
216.341	63.83
216.559	92.5
216.778	37.2
216.996	69.97
217.214	-54.95
217.432	67.92
217.651	2.39
217.869	14.68
218.087	-3.75
218.306	33.11
218.524	49.49
218.742	-57
218.96	82.26
219.179	74.07
219.397	10.58
219.615	51.54
219.833	10.58
220.051	18.77
220.27	59.73
220.488	65.88
220.706	61.78
220.924	29.01
221.142	80.21
221.36	22.87
221.578	39.25
221.796	-5.8
222.015	-61.1
222.233	49.49
222.451	78.16
222.669	33.11
222.887	69.97
223.105	51.54
223.323	45.4
223.541	-18.09
223.759	80.21
223.977	59.73
224.195	6.49
224.413	76.12
224.631	-7.85
224.849	33.11
225.067	65.88
225.285	4.44
225.503	-36.52
225.721	-30.38
225.939	10.58
226.157	-3.75
226.375	63.83
226.592	16.73
226.81	39.25
227.028	-7.85
227.246	41.3
227.464	-26.28
227.682	33.11
227.9	6.49
228.117	72.02
228.335	74.07
228.553	31.06
228.771	57.68
228.989	57.68
229.206	39.25
229.424	47.44
229.642	86.36
229.86	2.39
230.077	45.4
230.295	61.78
230.513	16.73
230.731	69.97
230.948	33.11
231.166	26.96
231.384	51.54
231.601	127.32
231.819	59.73
232.037	14.68
232.254	63.83
232.472	-24.23
232.689	12.63
232.907	78.16
233.125	63.83
233.342	33.11
233.56	4.44
233.777	18.77
233.995	2.39
234.213	35.16
234.43	26.96
234.648	47.44
234.865	29.01
235.083	-9.9
235.3	49.49
235.518	31.06
235.735	59.73
235.953	16.73
236.17	2.39
236.388	37.2
236.605	39.25
236.822	43.35
237.04	20.82
237.257	37.2
237.475	-18.09
237.692	37.2
237.909	86.36
238.127	4.44
238.344	16.73
238.562	29.01
238.779	18.77
238.996	78.16
239.214	29.01
239.431	33.11
239.648	41.3
239.865	31.06
240.083	10.58
240.3	43.35
240.517	51.54
240.735	14.68
240.952	18.77
241.169	26.96
241.386	20.82
241.603	49.49
241.821	57.68
242.038	106.84
242.255	78.16
242.472	0.34
242.689	47.44
242.907	-7.85
243.124	0.34
243.341	-9.9
243.558	72.02
243.775	-42.67
243.992	-30.38
244.209	14.68
244.426	-7.85
244.643	41.3
244.86	26.96
245.078	90.45
245.295	76.12
245.512	35.16
245.729	16.73
245.946	65.88
246.163	20.82
246.38	102.74
246.597	-59.05
246.814	2.39
247.031	-18.09
247.248	-13.99
247.464	31.06
247.681	2.39
247.898	80.21
248.115	26.96
248.332	45.4
248.549	-26.28
248.766	37.2
248.983	4.44
249.2	59.73
249.417	37.2
249.633	-42.67
249.85	26.96
250.067	65.88
250.284	39.25
250.501	53.59
250.717	26.96
250.934	-24.23
251.151	47.44
251.368	-13.99
251.585	12.63
251.801	53.59
252.018	37.2
252.235	26.96
252.451	45.4
252.668	10.58
252.885	61.78
253.102	14.68
253.318	63.83
253.535	-3.75
253.752	-24.23
253.968	20.82
254.185	84.31
254.401	45.4
254.618	51.54
254.835	61.78
255.051	65.88
255.268	12.63
255.484	2.39
255.701	37.2
255.917	39.25
256.134	125.27
256.351	31.06
256.567	-85.67
256.784	51.54
257	-3.75
257.217	43.35
257.433	18.77
257.65	80.21
257.866	18.77
258.082	-46.76
258.299	59.73
258.515	100.69
258.732	29.01
258.948	51.54
259.165	4.44
259.381	22.87
259.597	37.2
259.814	104.79
260.03	-20.14
260.246	55.64
260.463	49.49
260.679	72.02
260.895	-3.75
261.112	20.82
261.328	0.34
261.544	41.3
261.761	117.08
261.977	10.58
262.193	10.58
262.409	63.83
262.626	67.92
262.842	86.36
263.058	37.2
263.274	94.55
263.49	61.78
263.707	-11.95
263.923	41.3
264.139	16.73
264.355	69.97
264.571	72.02
264.787	35.16
265.004	39.25
265.22	31.06
265.436	106.84
265.652	-5.8
265.868	-22.19
266.084	-50.86
266.3	35.16
266.516	24.92
266.732	22.87
266.948	-18.09
267.164	31.06
267.38	65.88
267.596	39.25
267.812	31.06
268.028	61.78
268.244	53.59
268.46	112.98
268.676	29.01
268.892	33.11
269.108	39.25
269.324	2.39
269.54	31.06
269.756	37.2
269.972	8.53
270.188	12.63
270.403	31.06
270.619	12.63
270.835	4.44
271.051	12.63
271.267	-9.9
271.483	29.01
271.698	53.59
271.914	35.16
272.13	14.68
272.346	6.49
272.562	53.59
272.777	92.5
272.993	0.34
273.209	45.4
273.425	45.4
273.64	43.35
273.856	31.06
274.072	0.34
274.287	8.53
274.503	37.2
274.719	24.92
274.934	10.58
275.15	16.73
275.366	76.12
275.581	0.34
275.797	59.73
276.012	41.3
276.228	6.49
276.444	74.07
276.659	33.11
276.875	2.39
277.09	72.02
277.306	45.4
277.521	47.44
277.737	37.2
277.952	98.64
278.168	76.12
278.383	41.3
278.599	10.58
278.814	57.68
279.03	24.92
279.245	-7.85
279.461	12.63
279.676	72.02
279.892	45.4
280.107	-63.15
280.322	2.39
280.538	-1.71
280.753	-5.8
280.969	49.49
281.184	29.01
281.399	153.94
281.615	20.82
281.83	65.88
282.045	33.11
282.26	112.98
282.476	63.83
282.691	20.82
282.906	-3.75
283.122	33.11
283.337	14.68
283.552	76.12
283.767	4.44
283.983	43.35
284.198	45.4
284.413	63.83
284.628	-36.52
284.843	76.12
285.058	104.79
285.274	10.58
285.489	39.25
285.704	24.92
285.919	67.92
286.134	14.68
286.349	61.78
286.564	-38.57
286.779	55.64
286.995	43.35
287.21	-44.71
287.425	72.02
287.64	31.06
287.855	74.07
288.07	6.49
288.285	59.73
288.5	78.16
288.715	110.93
288.93	18.77
289.145	37.2
289.36	92.5
289.575	-22.19
289.79	125.27
290.004	65.88
290.219	39.25
290.434	-5.8
290.649	33.11
290.864	-30.38
291.079	-28.33
291.294	84.31
291.509	78.16
291.724	-9.9
291.938	35.16
292.153	86.36
292.368	57.68
292.583	51.54
292.798	37.2
293.012	57.68
293.227	143.7
293.442	22.87
293.657	90.45
293.871	76.12
294.086	14.68
294.301	86.36
294.516	65.88
294.73	6.49
294.945	29.01
295.16	-20.14
295.374	76.12
295.589	67.92
295.804	10.58
296.018	59.73
296.233	104.79
296.447	47.44
296.662	59.73
296.877	49.49
297.091	33.11
297.306	80.21
297.52	-73.39
297.735	26.96
297.949	51.54
298.164	65.88
298.378	-36.52
298.593	74.07
298.807	-5.8
299.022	26.96
299.236	59.73
299.451	61.78
299.665	16.73
299.88	53.59
300.094	55.64
300.309	112.98
300.523	92.5
300.737	31.06
300.952	10.58
301.166	65.88
301.381	4.44
301.595	74.07
301.809	10.58
302.024	82.26
302.238	33.11
302.452	69.97
302.667	90.45
302.881	88.4
303.095	18.77
303.309	61.78
303.524	22.87
303.738	43.35
303.952	-28.33
304.166	57.68
304.381	-1.71
304.595	14.68
304.809	31.06
305.023	31.06
305.237	20.82
305.452	37.2
305.666	65.88
305.88	49.49
306.094	31.06
306.308	51.54
306.522	-9.9
306.736	18.77
306.95	53.59
307.164	135.51
307.379	2.39
307.593	145.75
307.807	63.83
308.021	-3.75
308.235	63.83
308.449	10.58
308.663	-40.62
308.877	106.84
309.091	78.16
309.305	88.4
309.519	-32.43
309.733	100.69
309.947	49.49
310.161	76.12
310.374	22.87
310.588	92.5
310.802	39.25
311.016	-18.09
311.23	47.44
311.444	29.01
311.658	-22.19
311.872	-44.71
312.085	67.92
312.299	31.06
312.513	82.26
312.727	63.83
312.941	49.49
313.154	92.5
313.368	115.03
313.582	98.64
313.796	43.35
314.009	76.12
314.223	80.21
314.437	22.87
314.651	72.02
314.864	80.21
315.078	-44.71
315.292	43.35
315.505	47.44
315.719	47.44
315.933	24.92
316.146	33.11
316.36	63.83
316.573	29.01
316.787	55.64
317.001	88.4
317.214	10.58
317.428	67.92
317.641	92.5
317.855	6.49
318.068	49.49
318.282	41.3
318.495	112.98
318.709	96.6
318.922	-48.81
319.136	80.21
319.349	59.73
319.563	69.97
319.776	39.25
319.99	35.16
320.203	24.92
320.417	55.64
320.63	29.01
320.843	63.83
321.057	39.25
321.27	33.11
321.483	-1.71
321.697	82.26
321.91	110.93
322.124	78.16
322.337	-11.95
322.55	8.53
322.763	20.82
322.977	67.92
323.19	72.02
323.403	125.27
323.617	20.82
323.83	24.92
324.043	-9.9
324.256	10.58
324.469	76.12
324.683	65.88
324.896	12.63
325.109	84.31
325.322	-3.75
325.535	57.68
325.748	47.44
325.962	100.69
326.175	-7.85
326.388	69.97
326.601	112.98
326.814	35.16
327.027	55.64
327.24	106.84
327.453	8.53
327.666	-36.52
327.879	39.25
328.092	84.31
328.305	53.59
328.518	72.02
328.731	12.63
328.944	51.54
329.157	-13.99
329.37	-3.75
329.583	55.64
329.796	115.03
330.009	39.25
330.222	98.64
330.435	18.77
330.648	102.74
330.861	6.49
331.073	35.16
331.286	-32.43
331.499	37.2
331.712	24.92
331.925	80.21
332.138	26.96
332.35	41.3
332.563	-32.43
332.776	88.4
332.989	16.73
333.202	-7.85
333.414	82.26
333.627	39.25
333.84	59.73
334.053	74.07
334.265	-40.62
334.478	18.77
334.691	96.6
334.903	78.16
335.116	12.63
335.329	33.11
335.541	39.25
335.754	141.65
335.966	82.26
336.179	24.92
336.392	53.59
336.604	96.6
336.817	-9.9
337.029	53.59
337.242	31.06
337.454	135.51
337.667	-38.57
337.88	63.83
338.092	84.31
338.305	74.07
338.517	55.64
338.729	61.78
338.942	-5.8
339.154	72.02
339.367	33.11
339.579	63.83
339.792	63.83
340.004	57.68
340.217	37.2
340.429	69.97
340.641	26.96
340.854	-69.29
341.066	12.63
341.278	84.31
341.491	59.73
341.703	61.78
341.915	8.53
342.128	69.97
342.34	108.88
342.552	-1.71
342.764	57.68
342.977	20.82
343.189	29.01
343.401	18.77
343.613	8.53
343.826	39.25
344.038	53.59
344.25	59.73
344.462	55.64
344.674	20.82
344.886	82.26
345.099	51.54
345.311	86.36
345.523	53.59
345.735	-9.9
345.947	29.01
346.159	18.77
346.371	-5.8
346.583	61.78
346.795	61.78
347.007	51.54
347.219	45.4
347.431	-7.85
347.643	33.11
347.855	0.34
348.067	14.68
348.279	6.49
348.491	-13.99
348.703	55.64
348.915	0.34
349.127	69.97
349.339	22.87
349.551	-67.24
349.763	112.98
349.975	69.97
350.187	170.32
350.399	22.87
350.61	112.98
350.822	78.16
351.034	74.07
351.246	92.5
351.458	41.3
351.669	72.02
351.881	55.64
352.093	20.82
352.305	92.5
352.517	65.88
352.728	2.39
352.94	37.2
353.152	121.17
353.363	-40.62
353.575	29.01
353.787	47.44
353.999	82.26
354.21	8.53
354.422	100.69
354.633	43.35
354.845	45.4
355.057	53.59
355.268	51.54
355.48	-3.75
355.692	10.58
355.903	80.21
356.115	-18.09
356.326	-11.95
356.538	86.36
356.749	117.08
356.961	22.87
357.172	22.87
357.384	49.49
357.595	162.13
357.807	37.2
358.018	31.06
358.23	41.3
358.441	53.59
358.653	76.12
358.864	41.3
359.075	98.64
359.287	47.44
359.498	96.6
359.709	112.98
359.921	51.54
360.132	61.78
360.344	96.6
360.555	-3.75
360.766	53.59
360.977	6.49
361.189	14.68
361.4	76.12
361.611	80.21
361.823	69.97
362.034	26.96
362.245	61.78
362.456	86.36
362.667	69.97
362.879	53.59
363.09	55.64
363.301	51.54
363.512	29.01
363.723	47.44
363.935	65.88
364.146	90.45
364.357	2.39
364.568	100.69
364.779	24.92
364.99	57.68
365.201	6.49
365.412	96.6
365.623	4.44
365.834	94.55
366.045	26.96
366.256	29.01
366.467	61.78
366.678	35.16
366.889	65.88
367.1	92.5
367.311	127.32
367.522	53.59
367.733	67.92
367.944	80.21
368.155	20.82
368.366	74.07
368.577	112.98
368.788	78.16
368.999	-1.71
369.209	76.12
369.42	37.2
369.631	119.12
369.842	24.92
370.053	22.87
370.264	92.5
370.474	24.92
370.685	37.2
370.896	4.44
371.107	61.78
371.317	74.07
371.528	-3.75
371.739	57.68
371.95	35.16
372.16	20.82
372.371	-1.71
372.582	49.49
372.792	57.68
373.003	61.78
373.214	57.68
373.424	29.01
373.635	-20.14
373.846	129.36
374.056	141.65
374.267	55.64
374.477	45.4
374.688	-26.28
374.898	96.6
375.109	-16.04
375.319	57.68
375.53	108.88
375.74	65.88
375.951	84.31
376.161	24.92
376.372	92.5
376.582	26.96
376.793	82.26
377.003	67.92
377.214	63.83
377.424	18.77
377.635	147.8
377.845	53.59
378.055	49.49
378.266	22.87
378.476	26.96
378.686	69.97
378.897	43.35
379.107	72.02
379.317	65.88
379.528	168.27
379.738	104.79
379.948	-20.14
380.158	84.31
380.369	67.92
380.579	57.68
380.789	82.26
380.999	82.26
381.21	82.26
381.42	170.32
381.63	41.3
381.84	53.59
382.05	90.45
382.261	123.22
382.471	43.35
382.681	57.68
382.891	74.07
383.101	37.2
383.311	45.4
383.521	18.77
383.731	-9.9
383.941	82.26
384.151	123.22
384.361	108.88
384.571	14.68
384.781	102.74
384.991	151.89
385.201	133.46
385.411	125.27
385.621	119.12
385.831	72.02
386.041	82.26
386.251	39.25
386.461	74.07
386.671	135.51
386.881	72.02
387.091	65.88
387.301	59.73
387.511	-5.8
387.72	39.25
387.93	57.68
388.14	123.22
388.35	72.02
388.56	8.53
388.769	10.58
388.979	78.16
389.189	125.27
389.399	90.45
389.609	35.16
389.818	110.93
390.028	84.31
390.238	76.12
390.447	82.26
390.657	69.97
390.867	49.49
391.076	57.68
391.286	155.99
391.496	94.55
391.705	45.4
391.915	135.51
392.125	145.75
392.334	137.56
392.544	184.66
392.753	90.45
392.963	12.63
393.172	74.07
393.382	92.5
393.591	119.12
393.801	39.25
394.01	51.54
394.22	174.42
394.429	166.23
394.639	86.36
394.848	139.6
395.058	102.74
395.267	78.16
395.477	112.98
395.686	121.17
395.895	112.98
396.105	155.99
396.314	123.22
396.524	65.88
396.733	69.97
396.942	198.99
397.152	90.45
397.361	108.88
397.57	123.22
397.78	106.84
397.989	121.17
398.198	129.36
398.407	98.64
398.617	80.21
398.826	162.13
399.035	168.27
399.244	153.94
399.453	65.88
399.663	137.56
399.872	209.23
400.081	129.36
400.29	145.75
400.499	80.21
400.708	115.03
400.917	172.37
401.127	192.85
401.336	29.01
401.545	162.13
401.754	182.61
401.963	117.08
402.172	188.75
402.381	164.18
402.59	168.27
402.799	94.55
403.008	149.84
403.217	135.51
403.426	184.66
403.635	158.03
403.844	135.51
404.053	119.12
404.262	112.98
404.471	147.8
404.68	168.27
404.888	203.09
405.097	188.75
405.306	244.05
405.515	168.27
405.724	256.34
405.933	282.96
406.142	203.09
406.35	188.75
406.559	293.2
406.768	196.95
406.977	213.33
407.185	278.87
407.394	285.01
407.603	237.91
407.812	313.68
408.02	268.63
408.229	260.43
408.438	280.91
408.646	299.34
408.855	276.82
409.064	330.06
409.272	297.3
409.481	325.97
409.69	332.11
409.898	254.29
410.107	422.22
410.315	325.97
410.524	336.21
410.733	377.17
410.941	459.09
411.15	432.46
411.358	483.66
411.567	481.61
411.775	465.23
411.984	465.23
412.192	532.81
412.401	495.95
412.609	586.06
412.818	641.36
413.026	518.48
413.234	653.64
413.443	670.03
413.651	684.36
413.86	670.03
414.068	719.18
414.276	733.51
414.485	692.55
414.693	801.1
414.901	854.34
415.11	856.39
415.318	880.97
415.526	868.68
415.734	899.4
415.943	960.84
416.151	1046.85
416.359	1048.9
416.567	999.75
416.776	1036.61
416.984	1096
417.192	1106.24
417.4	1173.83
417.608	1204.55
417.817	1247.55
418.025	1229.12
418.233	1417.54
418.441	1280.32
418.649	1411.39
418.857	1524.03
419.065	1564.99
419.273	1464.64
419.481	1550.65
419.689	1597.76
419.897	1786.17
420.105	1831.23
420.313	1904.95
420.521	1909.05
420.729	1872.18
420.937	2038.07
421.145	2191.67
421.353	2242.87
421.561	2349.36
421.769	2267.44
421.977	2408.75
422.185	2355.51
422.393	2543.92
422.601	2713.9
422.809	2636.08
423.017	2730.28
423.224	2775.34
423.432	3012.9
423.64	3035.43
423.848	3148.07
424.056	3129.64
424.263	3313.95
424.471	3414.31
424.679	3465.5
424.887	3539.23
425.094	3731.74
425.302	3778.84
425.51	3957.02
425.718	4098.33
425.925	3993.88
426.133	4294.93
426.341	4366.61
426.548	4653.33
426.756	4700.43
426.964	4780.3
427.171	4987.15
427.379	5232.9
427.586	5169.41
427.794	5277.96
428.001	5527.81
428.209	5789.95
428.417	5798.14
428.624	6234.36
428.832	6197.49
429.039	6043.9
429.247	6138.1
429.454	6889.71
429.662	7141.61
429.869	6807.79
430.076	7231.72
430.284	7053.55
430.491	7145.7
430.699	7561.44
430.906	7665.89
431.114	7772.38
431.321	8149.21
431.528	8294.61
431.736	8911.05
431.943	9296.07
432.15	9117.9
432.358	9015.5
432.565	9646.27
432.772	9543.88
432.979	9994.43
433.187	10014.91
433.394	10268.86
433.601	11067.56
433.808	10965.17
434.016	10842.29
434.223	11391.14
434.43	12044.45
434.637	11940
434.844	12646.55
435.052	12621.97
435.259	12937.36
435.466	12935.31
435.673	12572.82
435.88	13512.84
436.087	14252.16
436.294	14385.27
436.501	13969.54
436.708	14295.16
436.915	14710.9
437.122	15384.68
437.329	15411.31
437.537	15833.19
437.743	16162.91
437.95	15951.97
438.157	16785.49
438.364	17428.56
438.571	17334.35
438.778	17449.04
438.985	19114.03
439.192	18499.64
439.399	18899
439.606	18653.24
439.813	19378.22
440.02	20746.26
440.227	20275.23
440.433	20043.81
440.64	20879.38
440.847	20951.06
441.054	21174.29
441.261	22738.94
441.467	22552.57
441.674	22603.77
441.881	23945.19
442.088	23629.8
442.294	23656.43
442.501	23973.86
442.708	24627.17
442.914	25470.93
443.121	26712
443.328	26081.22
443.534	27908.01
443.741	26730.43
443.948	26591.17
444.154	28518.31
444.361	28338.08
444.568	28465.06
444.774	28245.93
444.981	28780.45
445.187	29831.05
445.394	30947.2
445.6	30764.93
445.807	33707.86
446.013	32261.99
446.22	32669.54
446.426	33791.83
446.633	34207.56
446.839	35227.45
447.046	33992.53
447.252	35598.13
447.459	35903.28
447.665	35415.86
447.871	37601.05
448.078	39063.3
448.284	37216.03
448.491	37596.95
448.697	39341.82
448.903	39960.31
449.11	40500.97
449.316	39632.63
449.522	40349.42
449.728	41524.96
449.935	41694.94
450.141	41658.07
450.347	42692.3
450.553	41463.52
450.76	41930.45
450.966	43316.93
451.172	42651.34
451.378	44166.84
451.584	42870.47
451.791	44138.16
451.997	43890.36
452.203	44531.37
452.409	44756.65
452.615	44549.81
452.821	42770.12
453.027	42350.29
453.233	44408.5
453.44	43136.71
453.646	43044.55
453.852	43814.58
454.058	44207.79
454.264	42542.8
454.47	43579.07
454.676	42856.14
454.882	44441.26
455.088	40179.44
455.294	40980.2
455.5	41404.13
455.705	41756.38
455.911	40136.43
456.117	39640.82
456.323	38883.08
456.529	37310.24
456.735	38709
456.941	37353.24
457.147	36894.5
457.352	35827.51
457.558	35725.11
457.764	35493.69
457.97	35123.01
458.176	34105.16
458.381	34187.08
458.587	32544.61
458.793	32290.66
458.999	30936.96
459.204	32935.77
459.41	31981.42
459.616	30095.24
459.821	29872.01
460.027	30029.71
460.233	29446.04
460.438	27717.55
460.644	28448.68
460.85	26722.24
461.055	26216.39
461.261	26509.25
461.466	24743.9
461.672	23719.92
461.878	25354.19
462.083	23879.66
462.289	23416.82
462.494	22925.3
462.7	21848.07
462.905	21461.01
463.111	22163.46
463.316	22007.81
463.522	21741.58
463.727	21770.25
463.932	21919.75
464.138	21309.46
464.343	21401.61
464.549	21032.98
464.754	21897.22
464.959	21190.67
465.165	21321.74
465.37	20357.15
465.575	19722.28
465.781	20709.4
465.986	20641.82
466.191	20023.33
466.397	19611.69
466.602	18759.74
466.807	19286.06
467.012	19556.39
467.218	19576.87
467.423	19169.33
467.628	19089.46
