Data from USB4F104151__12__12-35-08-944.txt Node

Date: Fri Mar 14 12:35:08 EDT 2025
User: louis
Spectrometer: USB4F10415
Trigger mode: 4
Integration Time (sec): 2.000000E-2
Scans to average: 1
Electric dark correction enabled: true
Nonlinearity correction enabled: false
Boxcar width: 0
XAxis mode: Wavelengths
Number of Pixels in Spectrum: 3648
>>>>>Begin Spectral Data<<<<<
178.204	-58.88
178.424	-58.88
178.644	-58.88
178.864	-83.45
179.084	-75.26
179.304	-46.59
179.524	61.95
179.744	-17.92
179.964	-1.54
180.184	8.7
180.404	31.23
180.624	31.23
180.844	27.14
181.064	-22.02
181.283	-30.21
181.503	-36.35
181.723	-5.63
181.943	-40.45
182.163	45.57
182.383	-28.16
182.602	16.9
182.822	41.47
183.042	37.38
183.262	-19.97
183.482	39.42
183.701	6.66
183.921	43.52
184.141	102.91
184.361	76.29
184.58	18.94
184.8	-42.5
185.02	78.33
185.239	76.29
185.459	-42.5
185.679	27.14
185.898	-50.69
186.118	-5.63
186.338	33.28
186.557	23.04
186.777	-62.98
186.997	-24.06
187.216	29.18
187.436	47.62
187.655	16.9
187.875	10.75
188.095	49.66
188.314	37.38
188.534	37.38
188.753	-11.78
188.973	-1.54
189.192	-26.11
189.412	-1.54
189.631	-11.78
189.851	57.86
190.07	84.48
190.29	39.42
190.509	104.96
190.729	-67.07
190.948	68.09
191.168	104.96
191.387	70.14
191.607	-3.58
191.826	4.61
192.045	57.86
192.265	57.86
192.484	-5.63
192.704	-36.35
192.923	-28.16
193.142	41.47
193.362	57.86
193.581	43.52
193.8	16.9
194.02	70.14
194.239	-32.26
194.458	29.18
194.678	-52.74
194.897	49.66
195.116	18.94
195.335	61.95
195.555	61.95
195.774	-26.11
195.993	43.52
196.212	-32.26
196.432	23.04
196.651	-3.58
196.87	53.76
197.089	23.04
197.308	-28.16
197.528	2.56
197.747	12.8
197.966	61.95
198.185	57.86
198.404	0.51
198.623	-54.78
198.842	39.42
199.062	-5.63
199.281	0.51
199.5	23.04
199.719	35.33
199.938	-3.58
200.157	82.43
200.376	53.76
200.595	33.28
200.814	0.51
201.033	14.85
201.252	45.57
201.471	152.06
201.69	70.14
201.909	-32.26
202.128	53.76
202.347	76.29
202.566	-69.12
202.785	53.76
203.004	-7.68
203.223	-34.3
203.442	66.05
203.661	45.57
203.879	-1.54
204.098	45.57
204.317	-34.3
204.536	23.04
204.755	76.29
204.974	33.28
205.193	0.51
205.411	119.29
205.63	18.94
205.849	-26.11
206.068	2.56
206.287	-58.88
206.505	78.33
206.724	25.09
206.943	14.85
207.162	18.94
207.381	-13.82
207.599	16.9
207.818	45.57
208.037	-50.69
208.255	0.51
208.474	-17.92
208.693	23.04
208.911	47.62
209.13	23.04
209.349	29.18
209.567	2.56
209.786	59.9
210.005	-19.97
210.223	33.28
210.442	-54.78
210.661	59.9
210.879	51.71
211.098	51.71
211.316	64
211.535	41.47
211.753	-85.5
211.972	16.9
212.191	8.7
212.409	16.9
212.628	-1.54
212.846	162.3
213.065	78.33
213.283	76.29
213.502	27.14
213.72	-42.5
213.938	-48.64
214.157	12.8
214.375	53.76
214.594	78.33
214.812	25.09
215.031	-1.54
215.249	14.85
215.467	-48.64
215.686	41.47
215.904	92.67
216.122	51.71
216.341	-36.35
216.559	55.81
216.778	37.38
216.996	25.09
217.214	6.66
217.432	14.85
217.651	-28.16
217.869	-36.35
218.087	86.53
218.306	0.51
218.524	45.57
218.742	20.99
218.96	43.52
219.179	0.51
219.397	4.61
219.615	14.85
219.833	29.18
220.051	-73.21
220.27	23.04
220.488	45.57
220.706	6.66
220.924	31.23
221.142	53.76
221.36	-3.58
221.578	51.71
221.796	-28.16
222.015	-9.73
222.233	51.71
222.451	76.29
222.669	49.66
222.887	74.24
223.105	66.05
223.323	49.66
223.541	18.94
223.759	-71.17
223.977	-58.88
224.195	88.57
224.413	18.94
224.631	4.61
224.849	-15.87
225.067	68.09
225.285	14.85
225.503	74.24
225.721	-54.78
225.939	-5.63
226.157	31.23
226.375	8.7
226.592	-44.54
226.81	12.8
227.028	12.8
227.246	47.62
227.464	35.33
227.682	31.23
227.9	29.18
228.117	88.57
228.335	20.99
228.553	96.77
228.771	4.61
228.989	31.23
229.206	-36.35
229.424	-26.11
229.642	-62.98
229.86	-17.92
230.077	-1.54
230.295	31.23
230.513	20.99
230.731	39.42
230.948	68.09
231.166	-13.82
231.384	57.86
231.601	100.86
231.819	45.57
232.037	27.14
232.254	25.09
232.472	23.04
232.689	12.8
232.907	12.8
233.125	94.72
233.342	2.56
233.56	25.09
233.777	2.56
233.995	-11.78
234.213	-7.68
234.43	72.19
234.648	76.29
234.865	43.52
235.083	74.24
235.3	6.66
235.518	96.77
235.735	31.23
235.953	76.29
236.17	-22.02
236.388	10.75
236.605	-58.88
236.822	-3.58
237.04	76.29
237.257	25.09
237.475	43.52
237.692	78.33
237.909	-65.02
238.127	-28.16
238.344	29.18
238.562	57.86
238.779	113.15
238.996	-17.92
239.214	31.23
239.431	82.43
239.648	23.04
239.865	10.75
240.083	-5.63
240.3	39.42
240.517	12.8
240.735	16.9
240.952	10.75
241.169	-1.54
241.386	-26.11
241.603	-5.63
241.821	18.94
242.038	70.14
242.255	49.66
242.472	33.28
242.689	8.7
242.907	-5.63
243.124	53.76
243.341	59.9
243.558	-7.68
243.775	-60.93
243.992	49.66
244.209	129.53
244.426	43.52
244.643	55.81
244.86	6.66
245.078	4.61
245.295	84.48
245.512	-9.73
245.729	37.38
245.946	80.38
246.163	23.04
246.38	-11.78
246.597	-5.63
246.814	31.23
247.031	68.09
247.248	14.85
247.464	-9.73
247.681	-13.82
247.898	92.67
248.115	27.14
248.332	29.18
248.549	25.09
248.766	47.62
248.983	88.57
249.2	78.33
249.417	37.38
249.633	-46.59
249.85	-9.73
250.067	12.8
250.284	29.18
250.501	53.76
250.717	61.95
250.934	14.85
251.151	-28.16
251.368	-5.63
251.585	82.43
251.801	23.04
252.018	-26.11
252.235	45.57
252.451	39.42
252.668	27.14
252.885	-26.11
253.102	53.76
253.318	51.71
253.535	-1.54
253.752	53.76
253.968	6.66
254.185	18.94
254.401	49.66
254.618	10.75
254.835	14.85
255.051	92.67
255.268	18.94
255.484	53.76
255.701	-28.16
255.917	-54.78
256.134	-7.68
256.351	64
256.567	4.61
256.784	35.33
257	-13.82
257.217	-9.73
257.433	100.86
257.65	20.99
257.866	-13.82
258.082	39.42
258.299	-13.82
258.515	41.47
258.732	-77.31
258.948	-42.5
259.165	14.85
259.381	-44.54
259.597	10.75
259.814	-15.87
260.03	-26.11
260.246	31.23
260.463	12.8
260.679	14.85
260.895	53.76
261.112	70.14
261.328	31.23
261.544	8.7
261.761	90.62
261.977	2.56
262.193	8.7
262.409	94.72
262.626	20.99
262.842	59.9
263.058	-7.68
263.274	41.47
263.49	37.38
263.707	23.04
263.923	88.57
264.139	23.04
264.355	117.25
264.571	33.28
264.787	51.71
265.004	92.67
265.22	68.09
265.436	-13.82
265.652	-46.59
265.868	0.51
266.084	6.66
266.3	25.09
266.516	-52.74
266.732	70.14
266.948	51.71
267.164	-5.63
267.38	55.81
267.596	45.57
267.812	57.86
268.028	41.47
268.244	33.28
268.46	92.67
268.676	10.75
268.892	10.75
269.108	-36.35
269.324	55.81
269.54	25.09
269.756	33.28
269.972	0.51
270.188	12.8
270.403	-3.58
270.619	14.85
270.835	72.19
271.051	2.56
271.267	-13.82
271.483	80.38
271.698	18.94
271.914	37.38
272.13	-62.98
272.346	53.76
272.562	4.61
272.777	12.8
272.993	104.96
273.209	72.19
273.425	-32.26
273.64	49.66
273.856	-36.35
274.072	12.8
274.287	66.05
274.503	27.14
274.719	18.94
274.934	20.99
275.15	39.42
275.366	25.09
275.581	0.51
275.797	12.8
276.012	64
276.228	8.7
276.444	51.71
276.659	25.09
276.875	-15.87
277.09	0.51
277.306	-28.16
277.521	125.44
277.737	4.61
277.952	80.38
278.168	53.76
278.383	115.2
278.599	4.61
278.814	-15.87
279.03	29.18
279.245	102.91
279.461	45.57
279.676	39.42
279.892	49.66
280.107	41.47
280.322	-77.31
280.538	23.04
280.753	45.57
280.969	33.28
281.184	51.71
281.399	-3.58
281.615	55.81
281.83	47.62
282.045	39.42
282.26	10.75
282.476	49.66
282.691	33.28
282.906	59.9
283.122	66.05
283.337	14.85
283.552	45.57
283.767	-32.26
283.983	35.33
284.198	10.75
284.413	53.76
284.628	-5.63
284.843	8.7
285.058	10.75
285.274	-19.97
285.489	4.61
285.704	41.47
285.919	-1.54
286.134	100.86
286.349	66.05
286.564	-32.26
286.779	45.57
286.995	-17.92
287.21	2.56
287.425	74.24
287.64	100.86
287.855	4.61
288.07	45.57
288.285	25.09
288.5	12.8
288.715	43.52
288.93	23.04
289.145	64
289.36	35.33
289.575	39.42
289.79	39.42
290.004	64
290.219	96.77
290.434	-15.87
290.649	61.95
290.864	98.81
291.079	37.38
291.294	37.38
291.509	51.71
291.724	104.96
291.938	-7.68
292.153	37.38
292.368	-9.73
292.583	47.62
292.798	-5.63
293.012	41.47
293.227	2.56
293.442	64
293.657	-26.11
293.871	66.05
294.086	-46.59
294.301	117.25
294.516	74.24
294.73	29.18
294.945	-58.88
295.16	20.99
295.374	61.95
295.589	12.8
295.804	25.09
296.018	29.18
296.233	51.71
296.447	0.51
296.662	-34.3
296.877	92.67
297.091	55.81
297.306	10.75
297.52	10.75
297.735	33.28
297.949	8.7
298.164	64
298.378	39.42
298.593	8.7
298.807	123.39
299.022	25.09
299.236	20.99
299.451	72.19
299.665	-1.54
299.88	53.76
300.094	107.01
300.309	25.09
300.523	37.38
300.737	27.14
300.952	43.52
301.166	4.61
301.381	6.66
301.595	-28.16
301.809	51.71
302.024	57.86
302.238	20.99
302.452	55.81
302.667	-44.54
302.881	66.05
303.095	23.04
303.309	51.71
303.524	49.66
303.738	53.76
303.952	-9.73
304.166	39.42
304.381	-3.58
304.595	45.57
304.809	82.43
305.023	33.28
305.237	4.61
305.452	-7.68
305.666	49.66
305.88	35.33
306.094	45.57
306.308	68.09
306.522	20.99
306.736	104.96
306.95	117.25
307.164	74.24
307.379	39.42
307.593	31.23
307.807	27.14
308.021	59.9
308.235	59.9
308.449	-40.45
308.663	107.01
308.877	119.29
309.091	104.96
309.305	29.18
309.519	-11.78
309.733	94.72
309.947	35.33
310.161	64
310.374	-15.87
310.588	6.66
310.802	49.66
311.016	35.33
311.23	74.24
311.444	86.53
311.658	20.99
311.872	14.85
312.085	90.62
312.299	55.81
312.513	37.38
312.727	2.56
312.941	72.19
313.154	37.38
313.368	41.47
313.582	102.91
313.796	115.2
314.009	59.9
314.223	64
314.437	64
314.651	10.75
314.864	68.09
315.078	35.33
315.292	53.76
315.505	-32.26
315.719	74.24
315.933	-17.92
316.146	39.42
316.36	35.33
316.573	25.09
316.787	51.71
317.001	76.29
317.214	33.28
317.428	57.86
317.641	18.94
317.855	23.04
318.068	23.04
318.282	96.77
318.495	109.05
318.709	43.52
318.922	-9.73
319.136	8.7
319.349	70.14
319.563	27.14
319.776	78.33
319.99	12.8
320.203	20.99
320.417	35.33
320.63	68.09
320.843	59.9
321.057	88.57
321.27	53.76
321.483	33.28
321.697	51.71
321.91	70.14
322.124	0.51
322.337	-44.54
322.55	25.09
322.763	74.24
322.977	43.52
323.19	41.47
323.403	18.94
323.617	41.47
323.83	80.38
324.043	61.95
324.256	72.19
324.469	6.66
324.683	47.62
324.896	47.62
325.109	78.33
325.322	41.47
325.535	66.05
325.748	16.9
325.962	-19.97
326.175	57.86
326.388	68.09
326.601	94.72
326.814	68.09
327.027	121.34
327.24	39.42
327.453	80.38
327.666	68.09
327.879	8.7
328.092	59.9
328.305	86.53
328.518	82.43
328.731	2.56
328.944	29.18
329.157	-15.87
329.37	49.66
329.583	35.33
329.796	92.67
330.009	-38.4
330.222	37.38
330.435	35.33
330.648	2.56
330.861	59.9
331.073	127.49
331.286	29.18
331.499	66.05
331.712	-7.68
331.925	59.9
332.138	27.14
332.35	162.3
332.563	16.9
332.776	39.42
332.989	-7.68
333.202	-7.68
333.414	64
333.627	113.15
333.84	35.33
334.053	72.19
334.265	64
334.478	12.8
334.691	107.01
334.903	92.67
335.116	10.75
335.329	84.48
335.541	-13.82
335.754	70.14
335.966	25.09
336.179	70.14
336.392	59.9
336.604	-26.11
336.817	2.56
337.029	-7.68
337.242	53.76
337.454	68.09
337.667	8.7
337.88	111.1
338.092	6.66
338.305	119.29
338.517	-11.78
338.729	107.01
338.942	59.9
339.154	-11.78
339.367	6.66
339.579	47.62
339.792	107.01
340.004	121.34
340.217	33.28
340.429	123.39
340.641	41.47
340.854	86.53
341.066	33.28
341.278	23.04
341.491	68.09
341.703	57.86
341.915	23.04
342.128	4.61
342.34	57.86
342.552	-24.06
342.764	8.7
342.977	49.66
343.189	49.66
343.401	45.57
343.613	37.38
343.826	14.85
344.038	18.94
344.25	92.67
344.462	37.38
344.674	25.09
344.886	49.66
345.099	61.95
345.311	59.9
345.523	39.42
345.735	55.81
345.947	66.05
346.159	102.91
346.371	66.05
346.583	8.7
346.795	78.33
347.007	-36.35
347.219	135.68
347.431	20.99
347.643	59.9
347.855	59.9
348.067	31.23
348.279	45.57
348.491	119.29
348.703	113.15
348.915	10.75
349.127	55.81
349.339	25.09
349.551	-22.02
349.763	64
349.975	-36.35
350.187	45.57
350.399	33.28
350.61	39.42
350.822	-30.21
351.034	14.85
351.246	0.51
351.458	20.99
351.669	145.92
351.881	49.66
352.093	18.94
352.305	53.76
352.517	61.95
352.728	51.71
352.94	80.38
353.152	16.9
353.363	-9.73
353.575	72.19
353.787	49.66
353.999	25.09
354.21	-5.63
354.422	43.52
354.633	-38.4
354.845	-3.58
355.057	18.94
355.268	25.09
355.48	31.23
355.692	0.51
355.903	33.28
356.115	37.38
356.326	-28.16
356.538	117.25
356.749	0.51
356.961	88.57
357.172	45.57
357.384	-15.87
357.595	98.81
357.807	59.9
358.018	37.38
358.23	64
358.441	16.9
358.653	72.19
358.864	72.19
359.075	37.38
359.287	80.38
359.498	47.62
359.709	94.72
359.921	51.71
360.132	143.87
360.344	80.38
360.555	84.48
360.766	23.04
360.977	6.66
361.189	55.81
361.4	33.28
361.611	61.95
361.823	27.14
362.034	82.43
362.245	10.75
362.456	64
362.667	20.99
362.879	12.8
363.09	180.73
363.301	23.04
363.512	127.49
363.723	-22.02
363.935	-1.54
364.146	107.01
364.357	78.33
364.568	72.19
364.779	0.51
364.99	86.53
365.201	14.85
365.412	107.01
365.623	57.86
365.834	-5.63
366.045	72.19
366.256	80.38
366.467	82.43
366.678	41.47
366.889	100.86
367.1	57.86
367.311	53.76
367.522	43.52
367.733	39.42
367.944	135.68
368.155	45.57
368.366	82.43
368.577	96.77
368.788	68.09
368.999	-5.63
369.209	47.62
369.42	96.77
369.631	127.49
369.842	68.09
370.053	43.52
370.264	45.57
370.474	84.48
370.685	39.42
370.896	66.05
371.107	68.09
371.317	61.95
371.528	20.99
371.739	-3.58
371.95	66.05
372.16	100.86
372.371	47.62
372.582	61.95
372.792	33.28
373.003	2.56
373.214	64
373.424	96.77
373.635	16.9
373.846	90.62
374.056	51.71
374.267	64
374.477	61.95
374.688	92.67
374.898	82.43
375.109	102.91
375.319	53.76
375.53	66.05
375.74	18.94
375.951	92.67
376.161	6.66
376.372	68.09
376.582	31.23
376.793	35.33
377.003	49.66
377.214	-36.35
377.424	92.67
377.635	74.24
377.845	-13.82
378.055	80.38
378.266	-28.16
378.476	80.38
378.686	90.62
378.897	111.1
379.107	-30.21
379.317	115.2
379.528	33.28
379.738	8.7
379.948	-9.73
380.158	90.62
380.369	94.72
380.579	35.33
380.789	31.23
380.999	111.1
381.21	53.76
381.42	86.53
381.63	68.09
381.84	107.01
382.05	35.33
382.261	57.86
382.471	125.44
382.681	104.96
382.891	109.05
383.101	82.43
383.311	-7.68
383.521	117.25
383.731	90.62
383.941	49.66
384.151	68.09
384.361	80.38
384.571	47.62
384.781	88.57
384.991	59.9
385.201	35.33
385.411	80.38
385.621	109.05
385.831	43.52
386.041	53.76
386.251	4.61
386.461	96.77
386.671	23.04
386.881	20.99
387.091	70.14
387.301	117.25
387.511	43.52
387.72	86.53
387.93	64
388.14	72.19
388.35	94.72
388.56	82.43
388.769	43.52
388.979	111.1
389.189	18.94
389.399	45.57
389.609	39.42
389.818	113.15
390.028	47.62
390.238	0.51
390.447	-22.02
390.657	57.86
390.867	43.52
391.076	41.47
391.286	119.29
391.496	86.53
391.705	35.33
391.915	107.01
392.125	125.44
392.334	12.8
392.544	131.58
392.753	61.95
392.963	41.47
393.172	100.86
393.382	98.81
393.591	129.53
393.801	96.77
394.01	117.25
394.22	45.57
394.429	92.67
394.639	45.57
394.848	133.63
395.058	135.68
395.267	113.15
395.477	137.73
395.686	96.77
395.895	141.82
396.105	152.06
396.314	88.57
396.524	68.09
396.733	143.87
396.942	127.49
397.152	64
397.361	111.1
397.57	66.05
397.78	174.59
397.989	82.43
398.198	160.25
398.407	88.57
398.617	145.92
398.826	215.55
399.035	233.98
399.244	92.67
399.453	127.49
399.663	129.53
399.872	170.49
400.081	129.53
400.29	119.29
400.499	147.97
400.708	137.73
400.917	184.83
401.127	150.01
401.336	104.96
401.545	223.74
401.754	154.11
401.963	195.07
402.172	152.06
402.381	139.77
402.59	123.39
402.799	162.3
403.008	164.35
403.217	154.11
403.426	170.49
403.635	225.79
403.844	213.5
404.053	121.34
404.262	80.38
404.471	195.07
404.68	219.64
404.888	150.01
405.097	147.97
405.306	209.4
405.515	264.7
405.724	197.12
405.933	231.93
406.142	225.79
406.35	139.77
406.559	236.03
406.768	221.69
406.977	360.95
407.185	285.18
407.394	303.61
407.603	258.56
407.812	252.41
408.02	291.32
408.229	291.32
408.438	256.51
408.646	246.27
408.855	266.75
409.064	358.91
409.272	348.67
409.481	358.91
409.69	440.83
409.898	430.59
410.107	393.72
410.315	416.25
410.524	373.24
410.733	426.49
410.941	502.26
411.15	438.78
411.358	469.5
411.567	535.03
411.775	483.83
411.984	551.42
412.192	594.42
412.401	551.42
412.609	659.96
412.818	582.14
413.026	627.19
413.234	649.72
413.443	750.07
413.651	655.86
413.86	766.45
414.068	844.28
414.276	862.71
414.485	739.83
414.693	799.22
414.901	840.18
415.11	862.71
415.318	932.34
415.526	954.87
415.734	956.91
415.943	997.87
416.151	1190.38
416.359	1040.88
416.567	1106.42
416.776	1102.32
416.984	1157.61
417.192	1262.06
417.4	1348.08
417.608	1237.49
417.817	1352.17
418.025	1368.56
418.233	1565.16
418.441	1464.81
418.649	1518.06
418.857	1712.61
419.065	1688.04
419.273	1690.09
419.481	1753.57
419.689	1874.4
419.897	1946.08
420.105	2044.38
420.313	2066.91
420.521	2087.39
420.729	2017.76
420.937	2286.05
421.145	2234.85
421.353	2415.07
421.561	2470.36
421.769	2513.37
421.977	2718.17
422.185	2693.59
422.393	2738.65
422.601	2994.64
422.809	2859.48
423.017	2990.55
423.224	3172.82
423.432	3291.6
423.64	3353.04
423.848	3426.76
424.056	3492.3
424.263	3654.09
424.471	3729.86
424.679	3711.43
424.887	3944.9
425.094	4168.13
425.302	4067.78
425.51	4327.87
425.718	4438.46
425.925	4424.12
426.133	4651.45
426.341	4929.97
426.548	4831.67
426.756	5063.09
426.964	5136.82
427.171	5360.05
427.379	5587.37
427.586	5630.38
427.794	5822.89
428.001	6173.09
428.209	6406.56
428.417	6255.01
428.624	6693.27
428.832	6779.29
429.039	6525.34
429.247	6592.92
429.454	7256.47
429.662	7750.03
429.869	7348.62
430.076	7938.44
430.284	7557.52
430.491	7901.58
430.699	8235.39
430.906	8417.66
431.114	8368.51
431.321	8749.43
431.528	8909.18
431.736	9652.59
431.943	10076.52
432.15	9677.16
432.358	9886.06
432.565	10455.39
432.772	10514.78
432.979	10932.57
433.187	11045.21
433.394	11026.78
433.601	11929.93
433.808	12044.62
434.016	11827.53
434.223	12253.51
434.43	13060.41
434.637	12677.44
434.844	13427
435.052	13891.88
435.259	13490.48
435.466	13685.04
435.673	13984.04
435.88	14680.35
436.087	15587.6
436.294	15358.23
436.501	15135
436.708	15468.82
436.915	16023.82
437.122	16476.42
437.329	16859.39
437.537	16998.65
437.743	17205.5
437.95	17068.28
438.157	18122.99
438.364	18667.75
438.571	18737.38
438.778	18735.33
438.985	20619.46
439.192	19673.3
439.399	20478.15
439.606	19808.47
439.813	21022.91
440.02	22380.71
440.227	21868.72
440.433	21702.84
440.64	21885.11
440.847	22284.46
441.054	22927.52
441.261	24285.33
441.467	24125.58
441.674	24500.36
441.881	25366.65
442.088	25231.49
442.294	25114.75
442.501	25798.77
442.708	26341.49
442.914	27144.29
443.121	28477.52
443.328	27662.43
443.534	29593.66
443.741	28962.89
443.948	28242
444.154	30462
444.361	30494.77
444.568	30722.09
444.774	31041.57
444.981	31029.29
445.187	31477.79
445.394	33177.61
445.6	32747.53
445.807	36079.58
446.013	34064.38
446.22	35203.05
446.426	36530.13
446.633	36835.28
446.839	37980.09
447.046	36302.81
447.252	38545.33
447.459	38442.93
447.665	38277.05
447.871	39772.07
448.078	41609.09
448.284	39358.38
448.491	40558.49
448.697	41916.29
448.903	42891.12
449.11	43048.82
449.316	42647.41
449.522	43278.19
449.728	44420.95
449.935	44881.75
450.141	44781.4
450.347	45793.09
450.553	44846.93
450.76	44644.18
450.966	45956.93
451.172	46042.95
451.378	46802.74
451.584	46491.45
451.791	47449.9
451.997	47138.61
452.203	47933.22
452.409	47779.62
452.615	47511.34
452.821	46079.81
453.027	45674.31
453.233	47724.33
453.44	45750.09
453.646	46462.78
453.852	46911.28
454.058	47615.79
454.264	45993.79
454.47	47390.51
454.676	45844.29
454.882	47712.04
455.088	43718.5
455.294	43812.71
455.5	44588.89
455.705	45147.98
455.911	43573.1
456.117	42538.87
456.323	42372.99
456.529	39909.28
456.735	41691.01
456.941	40746.9
457.147	39937.95
457.352	38563.76
457.558	38381.49
457.764	38422.45
457.97	37531.59
458.176	36751.31
458.381	37205.96
458.587	35225.57
458.793	35162.09
458.999	32899.08
459.204	35794.91
459.41	34613.23
459.616	32124.95
459.821	32610.32
460.027	32149.53
460.233	31979.54
460.438	30089.27
460.644	30328.88
460.85	29114.44
461.055	28475.47
461.261	28534.86
461.466	26351.73
461.672	25452.67
461.878	27572.32
462.083	25632.89
462.289	25294.97
462.494	24959.11
462.7	23867.54
462.905	23640.22
463.111	23980.18
463.316	24193.17
463.522	23650.46
463.727	23871.64
463.932	23476.38
464.138	23314.59
464.343	23271.58
464.549	22575.27
464.754	23482.52
464.959	23105.7
465.165	23128.22
465.37	22046.9
465.575	21571.77
465.781	22403.24
465.986	22474.92
466.191	22034.61
466.397	21305.53
466.602	20119.76
466.807	21158.08
467.012	21162.17
467.218	21061.82
467.423	20674.76
467.628	20924.61
