Data from USB4F104151__2__12-34-46-906.txt Node

Date: Fri Mar 14 12:34:46 EDT 2025
User: louis
Spectrometer: USB4F10415
Trigger mode: 4
Integration Time (sec): 2.000000E-2
Scans to average: 1
Electric dark correction enabled: true
Nonlinearity correction enabled: false
Boxcar width: 0
XAxis mode: Wavelengths
Number of Pixels in Spectrum: 3648
>>>>>Begin Spectral Data<<<<<
178.204	-98.13
178.424	-98.13
178.644	-98.13
178.864	-132.95
179.084	-34.64
179.304	-8.02
179.524	-1.88
179.744	-14.17
179.964	24.75
180.184	-36.69
180.404	-14.17
180.624	43.18
180.844	28.84
181.064	-30.55
181.283	63.66
181.503	-42.84
181.723	-12.12
181.943	43.18
182.163	59.56
182.383	-42.84
182.602	26.79
182.822	88.23
183.042	49.32
183.262	24.75
183.482	16.55
183.701	6.31
183.921	39.08
184.141	16.55
184.361	43.18
184.58	-34.64
184.8	-38.74
185.02	63.66
185.239	55.47
185.459	20.65
185.679	-3.93
185.898	-36.69
186.118	16.55
186.338	24.75
186.557	43.18
186.777	-3.93
186.997	14.51
187.216	8.36
187.436	73.9
187.655	-42.84
187.875	59.56
188.095	88.23
188.314	55.47
188.534	-8.02
188.753	73.9
188.973	20.65
189.192	-14.17
189.412	-5.97
189.631	88.23
189.851	-34.64
190.07	22.7
190.29	-1.88
190.509	-38.74
190.729	-18.26
190.948	4.27
191.168	22.7
191.387	94.38
191.607	2.22
191.826	-30.55
192.045	-24.4
192.265	41.13
192.484	24.75
192.704	43.18
192.923	-42.84
193.142	10.41
193.362	32.94
193.581	61.61
193.8	-30.55
194.02	37.03
194.239	14.51
194.458	16.55
194.678	73.9
194.897	69.8
195.116	22.7
195.335	12.46
195.555	30.89
195.774	28.84
195.993	-22.36
196.212	6.31
196.432	6.31
196.651	53.42
196.87	57.51
197.089	73.9
197.308	0.17
197.528	90.28
197.747	41.13
197.966	67.75
198.185	55.47
198.404	-100.18
198.623	41.13
198.842	67.75
199.062	41.13
199.281	20.65
199.5	28.84
199.719	16.55
199.938	34.99
200.157	96.43
200.376	32.94
200.595	131.24
200.814	-8.02
201.033	32.94
201.252	53.42
201.471	88.23
201.69	45.23
201.909	-48.98
202.128	30.89
202.347	-28.5
202.566	-36.69
202.785	16.55
203.004	-14.17
203.223	121
203.442	8.36
203.661	28.84
203.879	59.56
204.098	73.9
204.317	30.89
204.536	2.22
204.755	32.94
204.974	49.32
205.193	14.51
205.411	118.95
205.63	-20.31
205.849	-14.17
206.068	-14.17
206.287	86.19
206.505	-10.07
206.724	10.41
206.943	-3.93
207.162	65.71
207.381	71.85
207.599	45.23
207.818	-18.26
208.037	0.17
208.255	39.08
208.474	43.18
208.693	-16.21
208.911	2.22
209.13	45.23
209.349	53.42
209.567	75.95
209.786	121
210.005	96.43
210.223	6.31
210.442	28.84
210.661	-18.26
210.879	57.51
211.098	14.51
211.316	57.51
211.535	34.99
211.753	80.04
211.972	28.84
212.191	-10.07
212.409	-61.27
212.628	8.36
212.846	22.7
213.065	4.27
213.283	73.9
213.502	12.46
213.72	39.08
213.938	6.31
214.157	77.99
214.375	34.99
214.594	100.52
214.812	-5.97
215.031	39.08
215.249	32.94
215.467	22.7
215.686	0.17
215.904	67.75
216.122	10.41
216.341	16.55
216.559	28.84
216.778	28.84
216.996	14.51
217.214	-22.36
217.432	-12.12
217.651	-55.12
217.869	8.36
218.087	24.75
218.306	61.61
218.524	2.22
218.742	-57.17
218.96	20.65
219.179	20.65
219.397	16.55
219.615	90.28
219.833	30.89
220.051	-40.79
220.27	24.75
220.488	10.41
220.706	41.13
220.924	-22.36
221.142	28.84
221.36	53.42
221.578	59.56
221.796	-36.69
222.015	-18.26
222.233	73.9
222.451	57.51
222.669	90.28
222.887	-3.93
223.105	-10.07
223.323	20.65
223.541	28.84
223.759	-24.4
223.977	-28.5
224.195	141.48
224.413	47.27
224.631	-12.12
224.849	-1.88
225.067	49.32
225.285	8.36
225.503	14.51
225.721	-10.07
225.939	26.79
226.157	4.27
226.375	98.47
226.592	108.71
226.81	-48.98
227.028	43.18
227.246	-3.93
227.464	32.94
227.682	2.22
227.9	73.9
228.117	67.75
228.335	63.66
228.553	-20.31
228.771	0.17
228.989	-3.93
229.206	45.23
229.424	39.08
229.642	20.65
229.86	-26.45
230.077	47.27
230.295	125.1
230.513	49.32
230.731	20.65
230.948	30.89
231.166	28.84
231.384	28.84
231.601	16.55
231.819	47.27
232.037	39.08
232.254	20.65
232.472	34.99
232.689	45.23
232.907	59.56
233.125	-14.17
233.342	49.32
233.56	-20.31
233.777	-48.98
233.995	88.23
234.213	73.9
234.43	-30.55
234.648	20.65
234.865	2.22
235.083	12.46
235.3	-10.07
235.518	55.47
235.735	18.6
235.953	55.47
236.17	16.55
236.388	-14.17
236.605	28.84
236.822	65.71
237.04	59.56
237.257	88.23
237.475	-30.55
237.692	24.75
237.909	-30.55
238.127	-40.79
238.344	73.9
238.562	61.61
238.779	88.23
238.996	41.13
239.214	-59.22
239.431	151.72
239.648	4.27
239.865	80.04
240.083	26.79
240.3	41.13
240.517	0.17
240.735	143.53
240.952	39.08
241.169	96.43
241.386	26.79
241.603	-34.64
241.821	2.22
242.038	-3.93
242.255	22.7
242.472	57.51
242.689	51.37
242.907	75.95
243.124	53.42
243.341	14.51
243.558	2.22
243.775	4.27
243.992	-16.21
244.209	59.56
244.426	77.99
244.643	2.22
244.86	24.75
245.078	28.84
245.295	-1.88
245.512	-12.12
245.729	2.22
245.946	-3.93
246.163	37.03
246.38	16.55
246.597	57.51
246.814	26.79
247.031	8.36
247.248	4.27
247.464	69.8
247.681	34.99
247.898	-40.79
248.115	4.27
248.332	22.7
248.549	47.27
248.766	32.94
248.983	34.99
249.2	49.32
249.417	57.51
249.633	43.18
249.85	26.79
250.067	84.14
250.284	37.03
250.501	59.56
250.717	90.28
250.934	28.84
251.151	59.56
251.368	-10.07
251.585	14.51
251.801	18.6
252.018	26.79
252.235	18.6
252.451	-5.97
252.668	-5.97
252.885	-5.97
253.102	49.32
253.318	59.56
253.535	53.42
253.752	22.7
253.968	47.27
254.185	8.36
254.401	-8.02
254.618	22.7
254.835	6.31
255.051	47.27
255.268	6.31
255.484	6.31
255.701	-8.02
255.917	39.08
256.134	-26.45
256.351	-20.31
256.567	-3.93
256.784	51.37
257	10.41
257.217	-28.5
257.433	-14.17
257.65	8.36
257.866	0.17
258.082	-36.69
258.299	-48.98
258.515	73.9
258.732	63.66
258.948	65.71
259.165	-16.21
259.381	-26.45
259.597	16.55
259.814	77.99
260.03	12.46
260.246	34.99
260.463	14.51
260.679	73.9
260.895	47.27
261.112	43.18
261.328	-26.45
261.544	65.71
261.761	106.67
261.977	41.13
262.193	-3.93
262.409	112.81
262.626	-14.17
262.842	39.08
263.058	20.65
263.274	32.94
263.49	18.6
263.707	51.37
263.923	20.65
264.139	-18.26
264.355	-8.02
264.571	57.51
264.787	39.08
265.004	-67.41
265.22	63.66
265.436	-14.17
265.652	49.32
265.868	10.41
266.084	0.17
266.3	63.66
266.516	12.46
266.732	55.47
266.948	55.47
267.164	90.28
267.38	26.79
267.596	67.75
267.812	51.37
268.028	24.75
268.244	45.23
268.46	49.32
268.676	-18.26
268.892	59.56
269.108	-28.5
269.324	102.57
269.54	88.23
269.756	43.18
269.972	30.89
270.188	-48.98
270.403	-42.84
270.619	34.99
270.835	65.71
271.051	28.84
271.267	32.94
271.483	-18.26
271.698	45.23
271.914	16.55
272.13	28.84
272.346	26.79
272.562	90.28
272.777	-18.26
272.993	53.42
273.209	2.22
273.425	69.8
273.64	32.94
273.856	-3.93
274.072	6.31
274.287	-44.88
274.503	75.95
274.719	55.47
274.934	6.31
275.15	-30.55
275.366	-34.64
275.581	41.13
275.797	-3.93
276.012	18.6
276.228	-5.97
276.444	71.85
276.659	41.13
276.875	49.32
277.09	30.89
277.306	12.46
277.521	-22.36
277.737	65.71
277.952	82.09
278.168	88.23
278.383	20.65
278.599	28.84
278.814	12.46
279.03	2.22
279.245	39.08
279.461	51.37
279.676	0.17
279.892	6.31
280.107	-3.93
280.322	16.55
280.538	37.03
280.753	24.75
280.969	-8.02
281.184	-1.88
281.399	34.99
281.615	-3.93
281.83	-8.02
282.045	-20.31
282.26	26.79
282.476	59.56
282.691	-1.88
282.906	18.6
283.122	77.99
283.337	14.51
283.552	20.65
283.767	8.36
283.983	63.66
284.198	24.75
284.413	22.7
284.628	30.89
284.843	32.94
285.058	114.86
285.274	80.04
285.489	69.8
285.704	88.23
285.919	0.17
286.134	59.56
286.349	6.31
286.564	77.99
286.779	8.36
286.995	-16.21
287.21	-26.45
287.425	-10.07
287.64	-18.26
287.855	59.56
288.07	-28.5
288.285	125.1
288.5	84.14
288.715	-16.21
288.93	2.22
289.145	8.36
289.36	12.46
289.575	39.08
289.79	41.13
290.004	71.85
290.219	26.79
290.434	-5.97
290.649	75.95
290.864	-48.98
291.079	26.79
291.294	57.51
291.509	10.41
291.724	73.9
291.938	51.37
292.153	20.65
292.368	94.38
292.583	77.99
292.798	110.76
293.012	34.99
293.227	-16.21
293.442	2.22
293.657	12.46
293.871	16.55
294.086	73.9
294.301	84.14
294.516	6.31
294.73	90.28
294.945	63.66
295.16	53.42
295.374	127.14
295.589	8.36
295.804	-38.74
296.018	92.33
296.233	51.37
296.447	51.37
296.662	49.32
296.877	0.17
297.091	47.27
297.306	22.7
297.52	69.8
297.735	-75.6
297.949	39.08
298.164	37.03
298.378	30.89
298.593	-34.64
298.807	49.32
299.022	59.56
299.236	65.71
299.451	-3.93
299.665	34.99
299.88	43.18
300.094	43.18
300.309	61.61
300.523	32.94
300.737	53.42
300.952	26.79
301.166	65.71
301.381	47.27
301.595	14.51
301.809	6.31
302.024	65.71
302.238	57.51
302.452	37.03
302.667	8.36
302.881	51.37
303.095	67.75
303.309	69.8
303.524	0.17
303.738	47.27
303.952	32.94
304.166	61.61
304.381	6.31
304.595	69.8
304.809	106.67
305.023	49.32
305.237	6.31
305.452	14.51
305.666	45.23
305.88	-12.12
306.094	41.13
306.308	-10.07
306.522	45.23
306.736	18.6
306.95	20.65
307.164	39.08
307.379	63.66
307.593	73.9
307.807	8.36
308.021	30.89
308.235	0.17
308.449	24.75
308.663	-40.79
308.877	116.9
309.091	30.89
309.305	51.37
309.519	-10.07
309.733	98.47
309.947	-28.5
310.161	49.32
310.374	37.03
310.588	82.09
310.802	6.31
311.016	-18.26
311.23	32.94
311.444	41.13
311.658	18.6
311.872	61.61
312.085	59.56
312.299	45.23
312.513	84.14
312.727	6.31
312.941	55.47
313.154	20.65
313.368	32.94
313.582	59.56
313.796	86.19
314.009	26.79
314.223	4.27
314.437	-12.12
314.651	-12.12
314.864	84.14
315.078	82.09
315.292	37.03
315.505	73.9
315.719	32.94
315.933	-20.31
316.146	30.89
316.36	-1.88
316.573	4.27
316.787	39.08
317.001	106.67
317.214	16.55
317.428	37.03
317.641	22.7
317.855	10.41
318.068	57.51
318.282	55.47
318.495	45.23
318.709	14.51
318.922	-20.31
319.136	61.61
319.349	51.37
319.563	-8.02
319.776	20.65
319.99	-57.17
320.203	59.56
320.417	-16.21
320.63	92.33
320.843	88.23
321.057	88.23
321.27	30.89
321.483	92.33
321.697	55.47
321.91	67.75
322.124	14.51
322.337	28.84
322.55	20.65
322.763	14.51
322.977	41.13
323.19	59.56
323.403	0.17
323.617	-44.88
323.83	65.71
324.043	71.85
324.256	88.23
324.469	73.9
324.683	77.99
324.896	96.43
325.109	30.89
325.322	45.23
325.535	39.08
325.748	73.9
325.962	-18.26
326.175	22.7
326.388	53.42
326.601	-18.26
326.814	0.17
327.027	47.27
327.24	61.61
327.453	-65.36
327.666	37.03
327.879	86.19
328.092	34.99
328.305	-36.69
328.518	98.47
328.731	14.51
328.944	30.89
329.157	28.84
329.37	-5.97
329.583	75.95
329.796	-30.55
330.009	4.27
330.222	69.8
330.435	80.04
330.648	96.43
330.861	14.51
331.073	-16.21
331.286	-3.93
331.499	45.23
331.712	-57.17
331.925	49.32
332.138	69.8
332.35	129.19
332.563	-24.4
332.776	2.22
332.989	20.65
333.202	28.84
333.414	125.1
333.627	55.47
333.84	53.42
334.053	65.71
334.265	96.43
334.478	-5.97
334.691	49.32
334.903	39.08
335.116	-53.08
335.329	51.37
335.541	37.03
335.754	32.94
335.966	2.22
336.179	22.7
336.392	-46.93
336.604	-10.07
336.817	41.13
337.029	73.9
337.242	22.7
337.454	10.41
337.667	10.41
337.88	37.03
338.092	37.03
338.305	112.81
338.517	-16.21
338.729	77.99
338.942	-8.02
339.154	0.17
339.367	-24.4
339.579	-14.17
339.792	41.13
340.004	49.32
340.217	20.65
340.429	77.99
340.641	51.37
340.854	174.25
341.066	26.79
341.278	57.51
341.491	75.95
341.703	20.65
341.915	16.55
342.128	39.08
342.34	30.89
342.552	-5.97
342.764	102.57
342.977	12.46
343.189	16.55
343.401	96.43
343.613	80.04
343.826	16.55
344.038	51.37
344.25	106.67
344.462	55.47
344.674	-26.45
344.886	-24.4
345.099	100.52
345.311	73.9
345.523	116.9
345.735	-38.74
345.947	84.14
346.159	-51.03
346.371	67.75
346.583	14.51
346.795	57.51
347.007	-10.07
347.219	116.9
347.431	12.46
347.643	20.65
347.855	28.84
348.067	24.75
348.279	-3.93
348.491	73.9
348.703	63.66
348.915	71.85
349.127	43.18
349.339	63.66
349.551	49.32
349.763	106.67
349.975	12.46
350.187	80.04
350.399	0.17
350.61	18.6
350.822	104.62
351.034	65.71
351.246	24.75
351.458	30.89
351.669	67.75
351.881	59.56
352.093	43.18
352.305	100.52
352.517	-8.02
352.728	28.84
352.94	37.03
353.152	34.99
353.363	-26.45
353.575	125.1
353.787	26.79
353.999	69.8
354.21	55.47
354.422	-5.97
354.633	47.27
354.845	77.99
355.057	28.84
355.268	0.17
355.48	67.75
355.692	37.03
355.903	-18.26
356.115	77.99
356.326	-24.4
356.538	-5.97
356.749	43.18
356.961	61.61
357.172	6.31
357.384	6.31
357.595	43.18
357.807	20.65
358.018	12.46
358.23	20.65
358.441	55.47
358.653	63.66
358.864	65.71
359.075	41.13
359.287	88.23
359.498	104.62
359.709	102.57
359.921	-40.79
360.132	0.17
360.344	0.17
360.555	61.61
360.766	121
360.977	12.46
361.189	80.04
361.4	-14.17
361.611	92.33
361.823	108.71
362.034	45.23
362.245	-12.12
362.456	28.84
362.667	82.09
362.879	16.55
363.09	69.8
363.301	0.17
363.512	28.84
363.723	49.32
363.935	16.55
364.146	55.47
364.357	2.22
364.568	18.6
364.779	8.36
364.99	137.38
365.201	28.84
365.412	2.22
365.623	98.47
365.834	2.22
366.045	28.84
366.256	118.95
366.467	12.46
366.678	77.99
366.889	-44.88
367.1	-8.02
367.311	14.51
367.522	45.23
367.733	8.36
367.944	24.75
368.155	6.31
368.366	90.28
368.577	45.23
368.788	-40.79
368.999	92.33
369.209	43.18
369.42	88.23
369.631	110.76
369.842	57.51
370.053	57.51
370.264	88.23
370.474	51.37
370.685	55.47
370.896	98.47
371.107	47.27
371.317	4.27
371.528	41.13
371.739	57.51
371.95	37.03
372.16	77.99
372.371	-24.4
372.582	43.18
372.792	125.1
373.003	61.61
373.214	123.05
373.424	65.71
373.635	41.13
373.846	104.62
374.056	82.09
374.267	65.71
374.477	12.46
374.688	47.27
374.898	-38.74
375.109	39.08
375.319	43.18
375.53	84.14
375.74	61.61
375.951	41.13
376.161	39.08
376.372	112.81
376.582	-20.31
376.793	102.57
377.003	59.56
377.214	28.84
377.424	14.51
377.635	73.9
377.845	88.23
378.055	104.62
378.266	-10.07
378.476	24.75
378.686	71.85
378.897	63.66
379.107	24.75
379.317	6.31
379.528	57.51
379.738	14.51
379.948	86.19
380.158	-3.93
380.369	108.71
380.579	-8.02
380.789	32.94
380.999	118.95
381.21	16.55
381.42	82.09
381.63	-5.97
381.84	43.18
382.05	59.56
382.261	80.04
382.471	65.71
382.681	37.03
382.891	104.62
383.101	18.6
383.311	77.99
383.521	4.27
383.731	14.51
383.941	-14.17
384.151	-18.26
384.361	43.18
384.571	-22.36
384.781	28.84
384.991	100.52
385.201	116.9
385.411	94.38
385.621	67.75
385.831	34.99
386.041	59.56
386.251	69.8
386.461	108.71
386.671	32.94
386.881	118.95
387.091	34.99
387.301	-5.97
387.511	24.75
387.72	77.99
387.93	82.09
388.14	80.04
388.35	65.71
388.56	141.48
388.769	39.08
388.979	47.27
389.189	39.08
389.399	86.19
389.609	55.47
389.818	69.8
390.028	57.51
390.238	43.18
390.447	18.6
390.657	32.94
390.867	-8.02
391.076	-51.03
391.286	100.52
391.496	96.43
391.705	30.89
391.915	45.23
392.125	98.47
392.334	45.23
392.544	57.51
392.753	102.57
392.963	67.75
393.172	84.14
393.382	-14.17
393.591	75.95
393.801	-18.26
394.01	102.57
394.22	155.82
394.429	59.56
394.639	41.13
394.848	92.33
395.058	53.42
395.267	51.37
395.477	16.55
395.686	112.81
395.895	86.19
396.105	90.28
396.314	63.66
396.524	86.19
396.733	30.89
396.942	67.75
397.152	69.8
397.361	63.66
397.57	30.89
397.78	84.14
397.989	65.71
398.198	53.42
398.407	131.24
398.617	102.57
398.826	82.09
399.035	94.38
399.244	55.47
399.453	118.95
399.663	75.95
399.872	118.95
400.081	67.75
400.29	108.71
400.499	49.32
400.708	178.34
400.917	82.09
401.127	149.67
401.336	112.81
401.545	88.23
401.754	121
401.963	104.62
402.172	149.67
402.381	80.04
402.59	82.09
402.799	129.19
403.008	149.67
403.217	135.34
403.426	125.1
403.635	63.66
403.844	106.67
404.053	110.76
404.262	102.57
404.471	63.66
404.68	137.38
404.888	39.08
405.097	170.15
405.306	102.57
405.515	139.43
405.724	75.95
405.933	170.15
406.142	166.06
406.35	157.86
406.559	209.06
406.768	112.81
406.977	170.15
407.185	268.45
407.394	225.45
407.603	135.34
407.812	157.86
408.02	237.74
408.229	196.78
408.438	250.02
408.646	188.58
408.855	204.97
409.064	297.13
409.272	315.56
409.481	284.84
409.69	270.5
409.898	258.21
410.107	366.76
410.315	338.09
410.524	282.79
410.733	370.85
410.941	336.04
411.15	338.09
411.358	456.87
411.567	450.72
411.775	346.28
411.984	381.09
412.192	377
412.401	362.66
412.609	407.72
412.818	366.76
413.026	499.88
413.234	456.87
413.443	438.44
413.651	483.49
413.86	426.15
414.068	563.36
414.276	520.35
414.485	540.83
414.693	645.28
414.901	755.87
415.11	678.05
415.318	569.51
415.526	573.6
415.734	624.8
415.943	788.64
416.151	751.78
416.359	825.5
416.567	800.93
416.776	784.54
416.984	886.94
417.192	852.13
417.4	997.53
417.608	835.74
417.817	981.15
418.025	999.58
418.233	1011.87
418.441	1040.54
418.649	1063.07
418.857	1169.56
419.065	1187.99
419.273	1163.42
419.481	1239.19
419.689	1415.32
419.897	1429.65
420.105	1480.85
420.313	1378.45
420.521	1487
420.729	1349.78
420.937	1497.24
421.145	1585.3
421.353	1589.39
421.561	1730.7
421.769	1732.75
421.977	1902.73
422.185	1882.25
422.393	1925.26
422.601	2085
422.809	2089.1
423.017	2042
423.224	2211.98
423.432	2254.98
423.64	2384.01
423.848	2525.32
424.056	2422.92
424.263	2594.95
424.471	2582.66
424.679	2627.71
424.887	2877.57
425.094	2830.46
425.302	2969.73
425.51	2943.1
425.718	3129.47
425.925	3182.71
426.133	3303.54
426.341	3407.99
426.548	3702.9
426.756	3657.84
426.964	3711.09
427.171	3895.41
427.379	3948.65
427.586	3850.35
427.794	4182.12
428.001	4397.16
428.209	4499.56
428.417	4388.97
428.624	4790.37
428.832	4706.4
429.039	4653.16
429.247	4808.8
429.454	5107.8
429.662	5455.96
429.869	5118.04
430.076	5673.04
430.284	5455.96
430.491	5666.9
430.699	6006.86
430.906	5949.52
431.114	6033.49
431.321	6287.43
431.528	6479.94
431.736	6744.13
431.943	6965.31
432.15	6824
432.358	6881.35
432.565	7376.95
432.772	7217.21
432.979	7790.64
433.187	7934
433.394	7757.88
433.601	8321.07
433.808	8233.01
434.016	8396.84
434.223	8747.05
434.43	9074.72
434.637	9123.87
434.844	9564.18
435.052	9668.63
435.259	9746.45
435.466	9717.78
435.673	9613.34
435.88	10373.13
436.087	10870.79
436.294	10811.4
436.501	10565.64
436.708	10741.77
436.915	11378.69
437.122	11722.74
437.329	11614.2
437.537	11974.64
437.743	12204.02
437.95	12185.58
438.157	12554.22
438.364	13359.07
438.571	12896.23
438.778	13328.35
438.985	14409.68
439.192	13924.31
439.399	14557.13
439.606	14129.11
439.813	14923.72
440.02	15906.74
440.227	15476.67
440.433	15429.57
440.64	15824.83
440.847	15787.96
441.054	16068.53
441.261	17242.02
441.467	17268.64
441.674	17383.33
441.881	18018.2
442.088	17928.09
442.294	17901.47
442.501	18216.85
442.708	18585.49
442.914	19353.48
443.121	20070.26
443.328	19679.1
443.534	21182.31
443.741	20615.02
443.948	20330.36
444.154	21737.31
444.361	21340.01
444.568	21909.34
444.774	21557.09
444.981	22001.5
445.187	22681.42
445.394	23478.08
445.6	23426.89
445.807	25556.77
446.013	24583.99
446.22	24936.24
446.426	26027.81
446.633	26289.95
446.839	27064.08
447.046	26085.15
447.252	27318.03
447.459	27059.98
447.665	27275.02
447.871	28305.15
448.078	29464.3
448.284	28270.33
448.491	28946.16
448.697	30336.73
448.903	30797.52
449.11	30807.76
449.316	30482.14
449.522	30965.46
449.728	31844.04
449.935	32065.22
450.141	31626.95
450.347	33081.01
450.553	31532.75
450.76	32319.17
450.966	32966.32
451.172	32816.82
451.378	33662.63
451.584	33050.29
451.791	33679.02
451.997	33789.61
452.203	33996.45
452.409	34641.56
452.615	34113.19
452.821	32927.41
453.027	32722.62
453.233	34221.73
453.44	33019.57
453.646	33189.55
453.852	33531.56
454.058	34256.54
454.264	33023.67
454.47	33746.6
454.676	33040.05
454.882	34254.5
455.088	31117.01
455.294	31430.35
455.5	31612.62
455.705	32614.07
455.911	31030.99
456.117	30566.1
456.323	30031.58
456.529	28655.35
456.735	29689.57
456.941	28935.92
457.147	28712.69
457.352	27727.62
457.558	27440.9
457.764	27524.87
457.97	26720.02
458.176	26310.43
458.381	26550.04
458.587	25046.83
458.793	24751.92
458.999	23600.96
459.204	25507.62
459.41	24844.08
459.616	23226.18
459.821	23248.71
460.027	22890.32
460.233	22587.22
460.438	21593.95
460.644	21743.45
460.85	20907.88
461.055	20350.84
461.261	20268.92
461.466	18837.39
461.672	18333.59
461.878	19511.17
462.083	18251.67
462.289	17917.85
462.494	17670.05
462.7	16961.45
462.905	16543.66
463.111	17258.4
463.316	17110.95
463.522	16568.24
463.727	16725.93
463.932	16738.22
464.138	16682.92
464.343	16474.03
464.549	16222.13
464.754	16609.2
464.959	16390.06
465.165	16637.87
465.37	15820.73
465.575	15157.19
465.781	15908.79
465.986	15878.07
466.191	15359.94
466.397	15208.39
466.602	14374.86
466.807	14942.15
467.012	14958.53
467.218	14692.3
467.423	14462.93
467.628	14776.27
467.833	15460.29
468.038	14776.27
