Data from USB4F104151__59__12-36-26-535.txt Node

Date: Fri Mar 14 12:36:26 EDT 2025
User: louis
Spectrometer: USB4F10415
Trigger mode: 4
Integration Time (sec): 2.000000E-2
Scans to average: 1
Electric dark correction enabled: true
Nonlinearity correction enabled: false
Boxcar width: 0
XAxis mode: Wavelengths
Number of Pixels in Spectrum: 3648
>>>>>Begin Spectral Data<<<<<
178.204	-104.79
178.424	-104.79
178.644	-104.79
178.864	-106.84
179.084	-35.16
179.304	-4.44
179.524	-39.25
179.744	3.75
179.964	-33.11
180.184	-2.39
180.404	-4.44
180.624	3.75
180.844	32.43
181.064	-88.4
181.283	110.25
181.503	9.9
181.723	11.95
181.943	-35.16
182.163	67.24
182.383	77.48
182.602	54.95
182.822	67.24
183.042	36.52
183.262	22.19
183.482	-16.73
183.701	57
183.921	11.95
184.141	32.43
184.361	38.57
184.58	93.87
184.8	75.43
185.02	3.75
185.239	79.53
185.459	34.47
185.679	83.63
185.898	-0.34
186.118	54.95
186.338	63.15
186.557	77.48
186.777	-49.49
186.997	40.62
187.216	20.14
187.436	26.28
187.655	13.99
187.875	40.62
188.095	34.47
188.314	69.29
188.534	138.92
188.753	13.99
188.973	81.58
189.192	13.99
189.412	-24.92
189.631	79.53
189.851	67.24
190.07	48.81
190.29	-41.3
190.509	42.67
190.729	40.62
190.948	38.57
191.168	128.68
191.387	34.47
191.607	18.09
191.826	-2.39
192.045	-16.73
192.265	63.15
192.484	22.19
192.704	57
192.923	77.48
193.142	112.3
193.362	73.39
193.581	36.52
193.8	97.96
194.02	87.72
194.239	48.81
194.458	24.23
194.678	46.76
194.897	48.81
195.116	106.15
195.335	75.43
195.555	102.06
195.774	44.71
195.993	34.47
196.212	69.29
196.432	-8.53
196.651	89.77
196.87	30.38
197.089	194.22
197.308	34.47
197.528	11.95
197.747	65.19
197.966	59.05
198.185	52.91
198.404	5.8
198.623	18.09
198.842	9.9
199.062	147.11
199.281	50.86
199.5	79.53
199.719	91.82
199.938	112.3
200.157	-24.92
200.376	95.91
200.595	-0.34
200.814	22.19
201.033	18.09
201.252	104.11
201.471	140.97
201.69	112.3
201.909	26.28
202.128	50.86
202.347	77.48
202.566	118.44
202.785	-0.34
203.004	20.14
203.223	36.52
203.442	71.34
203.661	46.76
203.879	65.19
204.098	71.34
204.317	102.06
204.536	145.06
204.755	-39.25
204.974	65.19
205.193	44.71
205.411	145.06
205.63	40.62
205.849	3.75
206.068	95.91
206.287	69.29
206.505	95.91
206.724	65.19
206.943	63.15
207.162	116.39
207.381	3.75
207.599	77.48
207.818	63.15
208.037	50.86
208.255	69.29
208.474	38.57
208.693	36.52
208.911	54.95
209.13	61.1
209.349	108.2
209.567	95.91
209.786	155.3
210.005	5.8
210.223	65.19
210.442	-12.63
210.661	75.43
210.879	69.29
211.098	69.29
211.316	91.82
211.535	116.39
211.753	54.95
211.972	114.34
212.191	7.85
212.409	54.95
212.628	26.28
212.846	9.9
213.065	3.75
213.283	24.23
213.502	59.05
213.72	69.29
213.938	73.39
214.157	126.63
214.375	89.77
214.594	102.06
214.812	34.47
215.031	102.06
215.249	54.95
215.467	97.96
215.686	40.62
215.904	48.81
216.122	46.76
216.341	42.67
216.559	93.87
216.778	30.38
216.996	85.67
217.214	-12.63
217.432	38.57
217.651	32.43
217.869	102.06
218.087	102.06
218.306	28.33
218.524	30.38
218.742	83.63
218.96	71.34
219.179	83.63
219.397	5.8
219.615	65.19
219.833	42.67
220.051	7.85
220.27	48.81
220.488	93.87
220.706	122.54
220.924	11.95
221.142	87.72
221.36	16.04
221.578	-20.82
221.796	61.1
222.015	95.91
222.233	9.9
222.451	34.47
222.669	-20.82
222.887	97.96
223.105	20.14
223.323	-0.34
223.541	28.33
223.759	38.57
223.977	18.09
224.195	32.43
224.413	79.53
224.631	100.01
224.849	108.2
225.067	20.14
225.285	18.09
225.503	61.1
225.721	-0.34
225.939	59.05
226.157	50.86
226.375	200.36
226.592	-16.73
226.81	-12.63
227.028	63.15
227.246	52.91
227.464	104.11
227.682	46.76
227.9	46.76
228.117	65.19
228.335	1.71
228.553	54.95
228.771	85.67
228.989	89.77
229.206	59.05
229.424	77.48
229.642	5.8
229.86	71.34
230.077	77.48
230.295	48.81
230.513	44.71
230.731	44.71
230.948	34.47
231.166	77.48
231.384	-6.49
231.601	73.39
231.819	57
232.037	26.28
232.254	13.99
232.472	13.99
232.689	75.43
232.907	-24.92
233.125	16.04
233.342	91.82
233.56	67.24
233.777	-45.4
233.995	13.99
234.213	73.39
234.43	95.91
234.648	116.39
234.865	36.52
235.083	59.05
235.3	89.77
235.518	52.91
235.735	34.47
235.953	-0.34
236.17	110.25
236.388	5.8
236.605	22.19
236.822	77.48
237.04	42.67
237.257	77.48
237.475	26.28
237.692	100.01
237.909	110.25
238.127	16.04
238.344	9.9
238.562	89.77
238.779	18.09
238.996	44.71
239.214	79.53
239.431	54.95
239.648	24.23
239.865	65.19
240.083	-16.73
240.3	28.33
240.517	69.29
240.735	63.15
240.952	32.43
241.169	-20.82
241.386	44.71
241.603	34.47
241.821	-8.53
242.038	61.1
242.255	54.95
242.472	-22.87
242.689	44.71
242.907	104.11
243.124	-18.77
243.341	89.77
243.558	69.29
243.775	54.95
243.992	54.95
244.209	93.87
244.426	87.72
244.643	59.05
244.86	59.05
245.078	46.76
245.295	42.67
245.512	54.95
245.729	11.95
245.946	87.72
246.163	71.34
246.38	59.05
246.597	5.8
246.814	-8.53
247.031	54.95
247.248	28.33
247.464	52.91
247.681	57
247.898	42.67
248.115	75.43
248.332	59.05
248.549	116.39
248.766	32.43
248.983	147.11
249.2	112.3
249.417	106.15
249.633	-16.73
249.85	22.19
250.067	42.67
250.284	120.49
250.501	91.82
250.717	83.63
250.934	38.57
251.151	116.39
251.368	61.1
251.585	22.19
251.801	132.78
252.018	65.19
252.235	44.71
252.451	104.11
252.668	57
252.885	122.54
253.102	71.34
253.318	54.95
253.535	46.76
253.752	87.72
253.968	52.91
254.185	83.63
254.401	59.05
254.618	95.91
254.835	48.81
255.051	46.76
255.268	104.11
255.484	67.24
255.701	63.15
255.917	81.58
256.134	63.15
256.351	20.14
256.567	112.3
256.784	114.34
257	28.33
257.217	38.57
257.433	9.9
257.65	134.82
257.866	85.67
258.082	-8.53
258.299	18.09
258.515	59.05
258.732	42.67
258.948	36.52
259.165	65.19
259.381	95.91
259.597	77.48
259.814	61.1
260.03	28.33
260.246	104.11
260.463	85.67
260.679	71.34
260.895	30.38
261.112	32.43
261.328	71.34
261.544	54.95
261.761	124.58
261.977	65.19
262.193	20.14
262.409	44.71
262.626	52.91
262.842	57
263.058	-2.39
263.274	118.44
263.49	3.75
263.707	44.71
263.923	106.15
264.139	46.76
264.355	52.91
264.571	97.96
264.787	38.57
265.004	54.95
265.22	65.19
265.436	61.1
265.652	24.23
265.868	42.67
266.084	36.52
266.3	32.43
266.516	36.52
266.732	67.24
266.948	42.67
267.164	-35.16
267.38	126.63
267.596	81.58
267.812	93.87
268.028	87.72
268.244	50.86
268.46	85.67
268.676	81.58
268.892	85.67
269.108	69.29
269.324	36.52
269.54	50.86
269.756	5.8
269.972	52.91
270.188	34.47
270.403	67.24
270.619	11.95
270.835	24.23
271.051	42.67
271.267	24.23
271.483	44.71
271.698	112.3
271.914	65.19
272.13	50.86
272.346	57
272.562	7.85
272.777	149.16
272.993	97.96
273.209	116.39
273.425	77.48
273.64	116.39
273.856	46.76
274.072	36.52
274.287	46.76
274.503	116.39
274.719	91.82
274.934	38.57
275.15	65.19
275.366	75.43
275.581	89.77
275.797	85.67
276.012	63.15
276.228	95.91
276.444	71.34
276.659	30.38
276.875	57
277.09	22.19
277.306	116.39
277.521	136.87
277.737	22.19
277.952	57
278.168	54.95
278.383	153.26
278.599	42.67
278.814	93.87
279.03	61.1
279.245	110.25
279.461	52.91
279.676	106.15
279.892	75.43
280.107	57
280.322	5.8
280.538	28.33
280.753	44.71
280.969	128.68
281.184	77.48
281.399	120.49
281.615	40.62
281.83	46.76
282.045	26.28
282.26	57
282.476	95.91
282.691	71.34
282.906	38.57
283.122	71.34
283.337	42.67
283.552	65.19
283.767	26.28
283.983	44.71
284.198	87.72
284.413	71.34
284.628	-47.44
284.843	20.14
285.058	46.76
285.274	-24.92
285.489	28.33
285.704	59.05
285.919	63.15
286.134	71.34
286.349	106.15
286.564	110.25
286.779	97.96
286.995	145.06
287.21	20.14
287.425	79.53
287.64	95.91
287.855	110.25
288.07	46.76
288.285	104.11
288.5	77.48
288.715	136.87
288.93	-14.68
289.145	42.67
289.36	108.2
289.575	79.53
289.79	40.62
290.004	149.16
290.219	48.81
290.434	77.48
290.649	24.23
290.864	11.95
291.079	57
291.294	42.67
291.509	75.43
291.724	85.67
291.938	3.75
292.153	63.15
292.368	63.15
292.583	46.76
292.798	46.76
293.012	104.11
293.227	50.86
293.442	171.69
293.657	93.87
293.871	114.34
294.086	91.82
294.301	79.53
294.516	48.81
294.73	75.43
294.945	89.77
295.16	54.95
295.374	79.53
295.589	59.05
295.804	104.11
296.018	97.96
296.233	124.58
296.447	79.53
296.662	-20.82
296.877	93.87
297.091	87.72
297.306	83.63
297.52	81.58
297.735	114.34
297.949	34.47
298.164	108.2
298.378	1.71
298.593	93.87
298.807	46.76
299.022	48.81
299.236	71.34
299.451	57
299.665	118.44
299.88	42.67
300.094	69.29
300.309	95.91
300.523	48.81
300.737	67.24
300.952	52.91
301.166	28.33
301.381	89.77
301.595	110.25
301.809	40.62
302.024	-4.44
302.238	48.81
302.452	75.43
302.667	32.43
302.881	63.15
303.095	87.72
303.309	46.76
303.524	38.57
303.738	69.29
303.952	65.19
304.166	110.25
304.381	102.06
304.595	138.92
304.809	89.77
305.023	89.77
305.237	-20.82
305.452	95.91
305.666	89.77
305.88	114.34
306.094	79.53
306.308	59.05
306.522	69.29
306.736	79.53
306.95	106.15
307.164	114.34
307.379	102.06
307.593	149.16
307.807	54.95
308.021	52.91
308.235	22.19
308.449	32.43
308.663	22.19
308.877	91.82
309.091	65.19
309.305	97.96
309.519	95.91
309.733	134.82
309.947	46.76
310.161	63.15
310.374	114.34
310.588	126.63
310.802	52.91
311.016	75.43
311.23	61.1
311.444	38.57
311.658	85.67
311.872	97.96
312.085	79.53
312.299	59.05
312.513	9.9
312.727	46.76
312.941	40.62
313.154	112.3
313.368	30.38
313.582	71.34
313.796	104.11
314.009	20.14
314.223	145.06
314.437	106.15
314.651	85.67
314.864	63.15
315.078	67.24
315.292	42.67
315.505	-0.34
315.719	46.76
315.933	151.21
316.146	44.71
316.36	110.25
316.573	165.54
316.787	-24.92
317.001	75.43
317.214	42.67
317.428	91.82
317.641	87.72
317.855	44.71
318.068	38.57
318.282	28.33
318.495	106.15
318.709	169.64
318.922	46.76
319.136	159.4
319.349	91.82
319.563	-8.53
319.776	69.29
319.99	44.71
320.203	61.1
320.417	71.34
320.63	85.67
320.843	38.57
321.057	106.15
321.27	71.34
321.483	75.43
321.697	77.48
321.91	108.2
322.124	26.28
322.337	83.63
322.55	30.38
322.763	118.44
322.977	46.76
323.19	52.91
323.403	81.58
323.617	93.87
323.83	120.49
324.043	34.47
324.256	81.58
324.469	52.91
324.683	65.19
324.896	128.68
325.109	71.34
325.322	77.48
325.535	79.53
325.748	79.53
325.962	95.91
326.175	1.71
326.388	65.19
326.601	67.24
326.814	114.34
327.027	73.39
327.24	122.54
327.453	104.11
327.666	124.58
327.879	48.81
328.092	97.96
328.305	93.87
328.518	63.15
328.731	73.39
328.944	138.92
329.157	73.39
329.37	77.48
329.583	75.43
329.796	102.06
330.009	71.34
330.222	112.3
330.435	81.58
330.648	114.34
330.861	97.96
331.073	67.24
331.286	85.67
331.499	69.29
331.712	71.34
331.925	1.71
332.138	36.52
332.35	87.72
332.563	73.39
332.776	114.34
332.989	50.86
333.202	46.76
333.414	75.43
333.627	89.77
333.84	65.19
334.053	48.81
334.265	157.35
334.478	24.23
334.691	44.71
334.903	104.11
335.116	69.29
335.329	61.1
335.541	24.23
335.754	102.06
335.966	114.34
336.179	120.49
336.392	126.63
336.604	26.28
336.817	40.62
337.029	3.75
337.242	75.43
337.454	63.15
337.667	36.52
337.88	95.91
338.092	52.91
338.305	75.43
338.517	48.81
338.729	136.87
338.942	54.95
339.154	28.33
339.367	83.63
339.579	77.48
339.792	57
340.004	81.58
340.217	54.95
340.429	120.49
340.641	-2.39
340.854	97.96
341.066	-10.58
341.278	69.29
341.491	73.39
341.703	20.14
341.915	77.48
342.128	120.49
342.34	38.57
342.552	79.53
342.764	61.1
342.977	32.43
343.189	24.23
343.401	54.95
343.613	46.76
343.826	89.77
344.038	130.73
344.25	28.33
344.462	13.99
344.674	69.29
344.886	24.23
345.099	79.53
345.311	69.29
345.523	83.63
345.735	40.62
345.947	75.43
346.159	106.15
346.371	122.54
346.583	61.1
346.795	110.25
347.007	65.19
347.219	89.77
347.431	97.96
347.643	110.25
347.855	75.43
348.067	79.53
348.279	38.57
348.491	136.87
348.703	75.43
348.915	71.34
349.127	5.8
349.339	120.49
349.551	130.73
349.763	9.9
349.975	93.87
350.187	11.95
350.399	102.06
350.61	63.15
350.822	79.53
351.034	83.63
351.246	130.73
351.458	61.1
351.669	87.72
351.881	42.67
352.093	42.67
352.305	120.49
352.517	128.68
352.728	69.29
352.94	108.2
353.152	83.63
353.363	11.95
353.575	73.39
353.787	97.96
353.999	155.3
354.21	130.73
354.422	69.29
354.633	87.72
354.845	120.49
355.057	155.3
355.268	108.2
355.48	128.68
355.692	95.91
355.903	3.75
356.115	24.23
356.326	16.04
356.538	163.5
356.749	134.82
356.961	145.06
357.172	73.39
357.384	112.3
357.595	202.41
357.807	52.91
358.018	63.15
358.23	85.67
358.441	110.25
358.653	106.15
358.864	16.04
359.075	22.19
359.287	61.1
359.498	104.11
359.709	89.77
359.921	46.76
360.132	97.96
360.344	171.69
360.555	104.11
360.766	75.43
360.977	102.06
361.189	126.63
361.4	114.34
361.611	120.49
361.823	138.92
362.034	38.57
362.245	26.28
362.456	95.91
362.667	22.19
362.879	54.95
363.09	54.95
363.301	196.26
363.512	13.99
363.723	106.15
363.935	138.92
364.146	112.3
364.357	57
364.568	97.96
364.779	81.58
364.99	132.78
365.201	73.39
365.412	24.23
365.623	-35.16
365.834	153.26
366.045	32.43
366.256	143.02
366.467	122.54
366.678	65.19
366.889	7.85
367.1	65.19
367.311	34.47
367.522	7.85
367.733	40.62
367.944	128.68
368.155	161.45
368.366	83.63
368.577	71.34
368.788	147.11
368.999	85.67
369.209	104.11
369.42	100.01
369.631	116.39
369.842	79.53
370.053	57
370.264	77.48
370.474	46.76
370.685	136.87
370.896	57
371.107	87.72
371.317	59.05
371.528	54.95
371.739	114.34
371.95	106.15
372.16	112.3
372.371	28.33
372.582	95.91
372.792	130.73
373.003	145.06
373.214	89.77
373.424	30.38
373.635	46.76
373.846	165.54
374.056	138.92
374.267	124.58
374.477	46.76
374.688	59.05
374.898	77.48
375.109	169.64
375.319	69.29
375.53	128.68
375.74	155.3
375.951	3.75
376.161	57
376.372	171.69
376.582	59.05
376.793	100.01
377.003	147.11
377.214	100.01
377.424	77.48
377.635	42.67
377.845	85.67
378.055	100.01
378.266	155.3
378.476	11.95
378.686	147.11
378.897	114.34
379.107	97.96
379.317	52.91
379.528	13.99
379.738	159.4
379.948	-6.49
380.158	118.44
380.369	114.34
380.579	57
380.789	63.15
380.999	67.24
381.21	91.82
381.42	50.86
381.63	177.83
381.84	81.58
382.05	145.06
382.261	110.25
382.471	87.72
382.681	71.34
382.891	28.33
383.101	69.29
383.311	79.53
383.521	95.91
383.731	186.02
383.941	151.21
384.151	122.54
384.361	7.85
384.571	122.54
384.781	81.58
384.991	114.34
385.201	89.77
385.411	108.2
385.621	63.15
385.831	11.95
386.041	132.78
386.251	177.83
386.461	181.93
386.671	20.14
386.881	153.26
387.091	138.92
387.301	153.26
387.511	48.81
387.72	157.35
387.93	91.82
388.14	151.21
388.35	147.11
388.56	91.82
388.769	143.02
388.979	110.25
389.189	116.39
389.399	104.11
389.609	65.19
389.818	108.2
390.028	110.25
390.238	102.06
390.447	48.81
390.657	165.54
390.867	124.58
391.076	100.01
391.286	79.53
391.496	61.1
391.705	167.59
391.915	140.97
392.125	218.79
392.334	100.01
392.544	118.44
392.753	140.97
392.963	63.15
393.172	198.31
393.382	128.68
393.591	157.35
393.801	95.91
394.01	147.11
394.22	108.2
394.429	106.15
394.639	73.39
394.848	75.43
395.058	147.11
395.267	181.93
395.477	120.49
395.686	179.88
395.895	167.59
396.105	157.35
396.314	97.96
396.524	143.02
396.733	114.34
396.942	167.59
397.152	173.74
397.361	241.32
397.57	155.3
397.78	163.5
397.989	190.12
398.198	231.08
398.407	181.93
398.617	173.74
398.826	210.6
399.035	177.83
399.244	188.07
399.453	81.58
399.663	149.16
399.872	202.41
400.081	181.93
400.29	171.69
400.499	253.61
400.708	224.94
400.917	171.69
401.127	151.21
401.336	181.93
401.545	216.74
401.754	208.55
401.963	136.87
402.172	210.6
402.381	196.26
402.59	249.51
402.799	179.88
403.008	249.51
403.217	214.7
403.426	183.98
403.635	153.26
403.844	261.8
404.053	179.88
404.262	208.55
404.471	216.74
404.68	251.56
404.888	200.36
405.097	241.32
405.306	317.09
405.515	239.27
405.724	282.28
405.933	274.09
406.142	276.13
406.35	237.22
406.559	292.52
406.768	329.38
406.977	362.15
407.185	300.71
407.394	362.15
407.603	345.77
407.812	267.94
408.02	343.72
408.229	323.24
408.438	321.19
408.646	306.85
408.855	343.72
409.064	442.02
409.272	493.22
409.481	403.11
409.69	425.64
409.898	423.59
410.107	462.5
410.315	523.94
410.524	407.2
410.733	503.46
410.941	523.94
411.15	566.95
411.358	534.18
411.567	566.95
411.775	661.15
411.984	566.95
412.192	695.97
412.401	581.28
412.609	646.82
412.818	720.54
413.026	734.88
413.234	734.88
413.443	781.98
413.651	757.41
413.86	876.19
414.068	827.04
414.276	900.76
414.485	941.72
414.693	921.24
414.901	1097.37
415.11	1029.79
415.318	1025.69
415.526	1103.51
415.734	1195.67
415.943	1181.34
416.151	1189.53
416.359	1177.24
416.567	1244.82
416.776	1275.54
416.984	1541.78
417.192	1324.69
417.4	1486.48
417.608	1523.35
417.817	1509.01
418.025	1617.55
418.233	1748.62
418.441	1756.82
418.649	1865.36
418.857	1939.09
419.065	1916.56
419.273	1908.37
419.481	1924.75
419.689	2086.54
419.897	2145.93
420.105	2213.51
420.313	2397.83
420.521	2360.97
420.729	2371.21
420.937	2473.6
421.145	2561.67
421.353	2584.2
421.561	2991.74
421.769	3053.18
421.977	2989.69
422.185	3008.12
422.393	3057.28
422.601	3411.57
422.809	3495.54
423.017	3417.72
423.224	3620.47
423.432	3671.67
423.64	3776.11
423.848	3970.67
424.056	3896.94
424.263	4085.36
424.471	4185.71
424.679	4286.06
424.887	4488.81
425.094	4697.7
425.302	4656.74
425.51	4865.63
425.718	4914.78
425.925	5191.26
426.133	5289.56
426.341	5527.13
426.548	5674.58
426.756	6071.89
426.964	5709.4
427.171	6245.96
427.379	6448.71
427.586	6661.7
427.794	6714.95
428.001	7102.01
428.209	7347.77
428.417	7153.21
428.624	7720.5
428.832	7661.11
429.039	7745.08
429.247	7634.49
429.454	8449.58
429.662	9164.32
429.869	8338.99
430.076	9023.01
430.284	8748.58
430.491	8961.57
430.699	9522.71
430.906	9631.26
431.114	9924.12
431.321	10413.58
431.528	10399.24
431.736	11073.03
431.943	11546.11
432.15	11075.07
432.358	11312.64
432.565	12033.52
432.772	11871.73
432.979	12574.19
433.187	12815.85
433.394	12836.33
433.601	13737.43
433.808	13583.84
434.016	13762.01
434.223	14194.13
434.43	15234.5
434.637	14730.7
434.844	15535.55
435.052	16305.59
435.259	15717.82
435.466	15949.24
435.673	15732.15
435.88	16782.76
436.087	17894.81
436.294	17878.43
436.501	17380.77
436.708	17862.04
436.915	18408.85
437.122	19258.76
437.329	19219.85
437.537	19864.96
437.743	19932.54
437.95	19897.72
438.157	20989.29
438.364	21394.79
438.571	21624.16
438.778	21720.42
438.985	23633.22
439.192	22863.18
439.399	23409.99
439.606	22834.51
439.813	24436.02
440.02	25847.07
440.227	25496.87
440.433	25220.39
440.64	26051.87
440.847	25877.79
441.054	26314.01
441.261	28077.31
441.467	27716.87
441.674	28372.22
441.881	29416.68
442.088	29254.89
442.294	29025.52
442.501	30041.31
442.708	30512.35
442.914	31616.2
443.121	32707.77
443.328	32292.03
443.534	34108.58
443.741	33330.35
443.948	33133.75
444.154	35626.12
444.361	34981.01
444.568	35067.03
444.774	35513.48
444.981	35904.65
445.187	37020.79
445.394	38470.75
445.6	37864.55
445.807	41464.88
446.013	39992.39
446.22	40758.33
446.426	42343.46
446.633	42204.2
446.839	43836.43
447.046	42134.57
447.252	44385.29
447.459	44567.55
447.665	44194.82
447.871	46246.89
448.078	48116.68
448.284	45693.94
448.491	47303.64
448.697	49292.22
448.903	49736.63
449.11	49861.55
449.316	49361.85
449.522	50066.35
449.728	51231.64
449.935	51852.18
450.141	51495.83
450.347	52867.97
450.553	51202.97
450.76	51710.87
450.966	53310.33
451.172	52720.52
451.378	54510.44
451.584	53091.2
451.791	54324.08
451.997	54295.41
452.203	54934.37
452.409	55411.55
452.615	55042.91
452.821	52933.51
453.027	52110.22
453.233	54879.08
453.44	52947.84
453.646	53601.14
453.852	53547.9
454.058	55112.55
454.264	53154.69
454.47	54578.03
454.676	52743.05
454.882	54739.82
455.088	50477.99
455.294	51248.03
455.5	51706.77
455.705	52075.41
455.911	49783.73
456.117	48829.38
456.323	48667.59
456.529	45980.65
456.735	48251.85
456.941	46808.03
457.147	46117.87
457.352	45102.07
457.558	44428.29
457.764	44684.29
457.97	43654.16
458.176	42767.39
458.381	42920.99
458.587	40774.72
458.793	40731.71
458.999	39091.29
459.204	41522.23
459.41	40729.66
459.616	37751.91
459.821	37700.72
460.027	37497.97
460.233	37106.8
460.438	35230.87
460.644	35488.91
460.85	33651.88
461.055	33541.29
461.261	33399.98
461.466	30571.74
461.672	29846.76
461.878	32007.36
462.083	29650.15
462.289	29621.48
462.494	28904.69
462.7	27925.76
462.905	26971.41
463.111	27587.85
463.316	28077.31
463.522	27145.48
463.727	27520.26
463.932	27251.98
464.138	27002.13
464.343	27188.49
464.549	26570.01
464.754	27331.85
464.959	27176.2
465.165	27129.1
465.37	25795.87
465.575	25208.11
465.781	26180.89
