Data from USB4F104151__5__11-44-29-905.txt Node

Date: Wed Feb 19 11:44:29 EST 2025
User: louis
Spectrometer: USB4F10415
Trigger mode: 4
Integration Time (sec): 2.250200E-1
Scans to average: 1
Electric dark correction enabled: true
Nonlinearity correction enabled: false
Boxcar width: 0
XAxis mode: Wavelengths
Number of Pixels in Spectrum: 3648
>>>>>Begin Spectral Data<<<<<
178.204	-800.59
178.424	-800.59
178.644	-800.59
178.864	-864.07
179.084	-780.11
179.304	202.92
179.524	69.8
179.744	37.03
179.964	-159.57
180.184	217.26
180.404	174.25
180.624	-243.54
180.844	-159.57
181.064	-20.31
181.283	166.06
181.503	-139.09
181.723	-145.24
181.943	-75.6
182.163	342.18
182.383	-264.02
182.602	-245.59
182.822	432.29
183.042	278.69
183.262	-214.87
183.482	-163.67
183.701	215.21
183.921	194.73
184.141	-116.56
184.361	-155.47
184.58	235.69
184.8	295.08
185.02	-237.39
185.239	-104.28
185.459	305.32
185.679	370.85
185.898	-274.26
186.118	-180.05
186.338	198.82
186.557	389.28
186.777	-247.63
186.997	-218.96
187.216	176.3
187.436	481.44
187.655	-79.7
187.875	-77.65
188.095	200.87
188.314	381.09
188.534	-59.22
188.753	-212.82
188.973	358.57
189.192	495.78
189.412	-255.83
189.631	-190.29
189.851	301.22
190.07	448.68
190.29	-243.54
190.509	-182.1
190.729	211.11
190.948	323.75
191.168	-40.79
191.387	-255.83
191.607	243.88
191.826	215.21
192.045	-89.94
192.265	-239.44
192.484	192.68
192.704	164.01
192.923	-118.61
193.142	-116.56
193.362	336.04
193.581	401.57
193.8	-61.27
194.02	-143.19
194.239	223.4
194.458	221.35
194.678	-59.22
194.897	-253.78
195.116	258.21
195.335	213.16
195.555	-216.91
195.774	-214.87
195.993	311.46
196.212	194.73
196.432	-169.81
196.651	-227.15
196.87	149.67
197.089	520.35
197.308	-143.19
197.528	-94.04
197.747	123.05
197.966	94.38
198.185	-44.88
198.404	-241.49
198.623	250.02
198.842	276.65
199.062	-40.79
199.281	-69.46
199.5	266.41
199.719	313.51
199.938	-227.15
200.157	-167.76
200.376	286.89
200.595	366.76
200.814	-143.19
201.033	-81.75
201.252	442.53
201.471	282.79
201.69	-264.02
201.909	-135
202.128	333.99
202.347	313.51
202.566	-132.95
202.785	-315.22
203.004	110.76
203.223	495.78
203.442	-171.86
203.661	-241.49
203.879	303.27
204.098	329.89
204.317	-259.92
204.536	-44.88
204.755	315.56
204.974	241.83
205.193	-268.11
205.411	-75.6
205.63	268.45
205.849	194.73
206.068	-251.73
206.287	-268.11
206.505	307.37
206.724	141.48
206.943	-282.45
207.162	-149.33
207.381	295.08
207.599	100.52
207.818	-57.17
208.037	-249.68
208.255	245.93
208.474	293.03
208.693	-173.91
208.911	-184.15
209.13	360.61
209.349	266.41
209.567	-14.17
209.786	-114.52
210.005	307.37
210.223	260.26
210.442	-339.79
210.661	-268.11
210.879	243.88
211.098	200.87
211.316	-143.19
211.535	-210.77
211.753	217.26
211.972	245.93
212.191	-163.67
212.409	-188.24
212.628	286.89
212.846	61.61
213.065	-296.78
213.283	-151.38
213.502	180.39
213.72	178.34
213.938	-143.19
214.157	-221.01
214.375	317.61
214.594	166.06
214.812	-143.19
215.031	-153.43
215.249	166.06
215.467	213.16
215.686	-143.19
215.904	-180.05
216.122	235.69
216.341	422.05
216.559	-18.26
216.778	-10.07
216.996	465.06
217.214	147.62
217.432	-210.77
217.651	-274.26
217.869	252.07
218.087	188.58
218.306	-188.24
218.524	-282.45
218.742	190.63
218.96	409.76
219.179	-182.1
219.397	-218.96
219.615	469.16
219.833	258.21
220.051	-237.39
220.27	-63.32
220.488	444.58
220.706	174.25
220.924	-255.83
221.142	-223.06
221.36	237.74
221.578	252.07
221.796	-272.21
222.015	-132.95
222.233	241.83
222.451	348.33
222.669	-157.52
222.887	-51.03
223.105	18.6
223.323	137.38
223.541	-196.43
223.759	-116.56
223.977	121
224.195	372.9
224.413	-96.08
224.631	-253.78
224.849	168.1
225.067	465.06
225.285	-141.14
225.503	-218.96
225.721	-71.51
225.939	125.1
226.157	-173.91
226.375	92.33
226.592	131.24
226.81	198.82
227.028	-91.99
227.246	-71.51
227.464	235.69
227.682	268.45
227.9	-151.38
228.117	-110.42
228.335	204.97
228.553	290.98
228.771	-231.25
228.989	-98.13
229.206	250.02
229.424	127.14
229.642	-110.42
229.86	-233.3
230.077	424.1
230.295	135.34
230.513	45.23
230.731	-81.75
230.948	436.39
231.166	401.57
231.384	-128.85
231.601	-198.48
231.819	442.53
232.037	71.85
232.254	-24.4
232.472	-122.71
232.689	127.14
232.907	272.55
233.125	-221.01
233.342	-264.02
233.56	114.86
233.777	164.01
233.995	-235.35
234.213	-77.65
234.43	309.41
234.648	188.58
234.865	-188.24
235.083	-141.14
235.3	233.64
235.518	372.9
235.735	-69.46
235.953	-126.8
236.17	278.69
236.388	133.29
236.605	-26.45
236.822	-102.23
237.04	338.09
237.257	256.17
237.475	-214.87
237.692	-108.37
237.909	311.46
238.127	131.24
238.344	-42.84
238.562	-116.56
238.779	4.27
238.996	96.43
239.214	-65.36
239.431	-151.38
239.648	86.19
239.865	274.6
240.083	-102.23
240.3	-225.11
240.517	108.71
240.735	145.58
240.952	-24.4
241.169	-243.54
241.386	274.6
241.603	207.02
241.821	-229.2
242.038	-130.9
242.255	352.42
242.472	22.7
242.689	-57.17
242.907	-198.48
243.124	145.58
243.341	137.38
243.558	-135
243.775	-188.24
243.992	71.85
244.209	290.98
244.426	-20.31
244.643	-94.04
244.86	118.95
245.078	358.57
245.295	-42.84
245.512	-235.35
245.729	153.77
245.946	227.5
246.163	-124.76
246.38	-225.11
246.597	166.06
246.814	252.07
247.031	-130.9
247.248	-171.86
247.464	268.45
247.681	141.48
247.898	-100.18
248.115	-98.13
248.332	127.14
248.549	290.98
248.766	-22.36
248.983	-153.43
249.2	252.07
249.417	309.41
249.633	-116.56
249.85	-85.84
250.067	143.53
250.284	161.96
250.501	-180.05
250.717	-143.19
250.934	53.42
251.151	131.24
251.368	-81.75
251.585	-155.47
251.801	266.41
252.018	37.03
252.235	4.27
252.451	-225.11
252.668	114.86
252.885	309.41
253.102	-108.37
253.318	-239.44
253.535	98.47
253.752	135.34
253.968	-106.32
254.185	-276.31
254.401	229.54
254.618	295.08
254.835	-85.84
255.051	-149.33
255.268	286.89
255.484	186.54
255.701	-96.08
255.917	-169.81
256.134	-20.31
256.351	118.95
256.567	-194.39
256.784	4.27
257	-20.31
257.217	317.61
257.433	34.99
257.65	-135
257.866	362.66
258.082	37.03
258.299	-186.19
258.515	-151.38
258.732	108.71
258.948	57.51
259.165	-59.22
259.381	-184.15
259.597	266.41
259.814	168.1
260.03	-139.09
260.246	-155.47
260.463	344.23
260.679	340.13
260.895	-46.93
261.112	-55.12
261.328	229.54
261.544	0.17
261.761	-118.61
261.977	-163.67
262.193	63.66
262.409	211.11
262.626	2.22
262.842	-149.33
263.058	63.66
263.274	327.85
263.49	-71.51
263.707	-182.1
263.923	274.6
264.139	-30.55
264.355	-79.7
264.571	10.41
264.787	233.64
265.004	299.17
265.22	-16.21
265.436	-147.28
265.652	67.75
265.868	190.63
266.084	-218.96
266.3	-128.85
266.516	4.27
266.732	151.72
266.948	-69.46
267.164	-210.77
267.38	286.89
267.596	170.15
267.812	4.27
268.028	-53.08
268.244	59.56
268.46	184.49
268.676	-71.51
268.892	24.75
269.108	39.08
269.324	88.23
269.54	-89.94
269.756	-36.69
269.972	8.36
270.188	114.86
270.403	-192.34
270.619	-147.28
270.835	311.46
271.051	166.06
271.267	-173.91
271.483	-87.89
271.698	290.98
271.914	217.26
272.13	-67.41
272.346	-120.66
272.562	211.11
272.777	342.18
272.993	-87.89
273.209	-110.42
273.425	207.02
273.64	-61.27
273.856	-165.71
274.072	-298.83
274.287	123.05
274.503	235.69
274.719	4.27
274.934	-190.29
275.15	-26.45
275.366	151.72
275.581	-184.15
275.797	-161.62
276.012	164.01
276.228	172.2
276.444	-1.88
276.659	88.23
276.875	67.75
277.09	96.43
277.306	-79.7
277.521	-32.6
277.737	77.99
277.952	133.29
278.168	-30.55
278.383	-67.41
278.599	108.71
278.814	247.97
279.03	-132.95
279.245	49.32
279.461	96.43
279.676	243.88
279.892	-98.13
280.107	-149.33
280.322	43.18
280.538	327.85
280.753	-102.23
280.969	-108.37
281.184	254.12
281.399	270.5
281.615	-89.94
281.83	63.66
282.045	-42.84
282.26	59.56
282.476	-91.99
282.691	14.51
282.906	170.15
283.122	118.95
283.337	-91.99
283.552	-48.98
283.767	45.23
283.983	159.91
284.198	-98.13
284.413	-53.08
284.628	-44.88
284.843	184.49
285.058	-77.65
285.274	-102.23
285.489	104.62
285.704	252.07
285.919	-65.36
286.134	-16.21
286.349	170.15
286.564	55.47
286.779	18.6
286.995	-1.88
287.21	-28.5
287.425	153.77
287.64	-87.89
287.855	112.81
288.07	-48.98
288.285	200.87
288.5	34.99
288.715	-55.12
288.93	84.14
289.145	34.99
289.36	-112.47
289.575	-69.46
289.79	321.7
290.004	55.47
290.219	80.04
290.434	-3.93
290.649	65.71
290.864	209.06
291.079	-48.98
291.294	-28.5
291.509	239.78
291.724	110.76
291.938	-51.03
292.153	-83.8
292.368	200.87
292.583	219.3
292.798	-16.21
293.012	-22.36
293.227	110.76
293.442	114.86
293.657	63.66
293.871	-26.45
294.086	174.25
294.301	288.93
294.516	20.65
294.73	61.61
294.945	18.6
295.16	164.01
295.374	-63.32
295.589	4.27
295.804	61.61
296.018	133.29
296.233	-61.27
296.447	14.51
296.662	-12.12
296.877	276.65
297.091	-30.55
297.306	-28.5
297.52	88.23
297.735	174.25
297.949	131.24
298.164	-202.58
298.378	219.3
298.593	41.13
298.807	-12.12
299.022	96.43
299.236	338.09
299.451	77.99
299.665	43.18
299.88	-24.4
300.094	260.26
300.309	137.38
300.523	-51.03
300.737	-46.93
300.952	186.54
301.166	186.54
301.381	-65.36
301.595	-110.42
301.809	139.43
302.024	51.37
302.238	-128.85
302.452	127.14
302.667	131.24
302.881	254.12
303.095	82.09
303.309	-26.45
303.524	-10.07
303.738	125.1
303.952	61.61
304.166	65.71
304.381	-114.52
304.595	331.94
304.809	2.22
305.023	-59.22
305.237	67.75
305.452	129.19
305.666	-48.98
305.88	102.57
306.094	297.13
306.308	211.11
306.522	-77.65
306.736	69.8
306.95	276.65
307.164	10.41
307.379	47.27
307.593	71.85
307.807	329.89
308.021	155.82
308.235	121
308.449	-157.52
308.663	215.21
308.877	487.59
309.091	-22.36
309.305	57.51
309.519	-120.66
309.733	215.21
309.947	-130.9
310.161	34.99
310.374	219.3
310.588	202.92
310.802	6.31
311.016	-77.65
311.23	266.41
311.444	69.8
311.658	-3.93
311.872	211.11
312.085	270.5
312.299	372.9
312.513	75.95
312.727	-128.85
312.941	65.71
313.154	116.9
313.368	45.23
313.582	-44.88
313.796	161.96
314.009	153.77
314.223	155.82
314.437	4.27
314.651	295.08
314.864	14.51
315.078	-42.84
315.292	-38.74
315.505	112.81
315.719	174.25
315.933	71.85
316.146	-159.57
316.36	-18.26
316.573	276.65
316.787	106.67
317.001	65.71
317.214	-5.97
317.428	159.91
317.641	-98.13
317.855	-100.18
318.068	190.63
318.282	166.06
318.495	55.47
318.709	-126.8
318.922	114.86
319.136	352.42
319.349	37.03
319.563	-61.27
319.776	227.5
319.99	-104.28
320.203	47.27
320.417	-34.64
320.63	80.04
320.843	311.46
321.057	88.23
321.27	12.46
321.483	231.59
321.697	227.5
321.91	-44.88
322.124	55.47
322.337	207.02
322.55	12.46
322.763	-65.36
322.977	-24.4
323.19	51.37
323.403	121
323.617	18.6
323.83	172.2
324.043	108.71
324.256	143.53
324.469	-241.49
324.683	110.76
324.896	129.19
325.109	110.76
325.322	-128.85
325.535	-20.31
325.748	358.57
325.962	86.19
326.175	-20.31
326.388	-46.93
326.601	155.82
326.814	43.18
327.027	-53.08
327.24	131.24
327.453	-83.8
327.666	233.64
327.879	174.25
328.092	-65.36
328.305	215.21
328.518	32.94
328.731	-16.21
328.944	-77.65
329.157	149.67
329.37	55.47
329.583	98.47
329.796	51.37
330.009	-38.74
330.222	219.3
330.435	65.71
330.648	-5.97
330.861	116.9
331.073	184.49
331.286	104.62
331.499	-18.26
331.712	92.33
331.925	20.65
332.138	-26.45
332.35	-18.26
332.563	112.81
332.776	422.05
332.989	-32.6
333.202	-91.99
333.414	139.43
333.627	149.67
333.84	-1.88
334.053	61.61
334.265	43.18
334.478	-22.36
334.691	-65.36
334.903	174.25
335.116	94.38
335.329	20.65
335.541	55.47
335.754	293.03
335.966	63.66
336.179	59.56
336.392	4.27
336.604	4.27
336.817	192.68
337.029	217.26
337.242	-112.47
337.454	57.51
337.667	139.43
337.88	323.75
338.092	-10.07
338.305	102.57
338.517	-18.26
338.729	168.1
338.942	22.7
339.154	-38.74
339.367	2.22
339.579	243.88
339.792	-75.6
340.004	37.03
340.217	127.14
340.429	231.59
340.641	-24.4
340.854	-126.8
341.066	202.92
341.278	288.93
341.491	143.53
341.703	-40.79
341.915	47.27
342.128	241.83
342.34	82.09
342.552	-102.23
342.764	200.87
342.977	112.81
343.189	49.32
343.401	49.32
343.613	-38.74
343.826	100.52
344.038	30.89
344.25	90.28
344.462	-12.12
344.674	176.3
344.886	-132.95
345.099	-10.07
345.311	288.93
345.523	63.66
345.735	-106.32
345.947	12.46
346.159	293.03
346.371	102.57
346.583	-42.84
346.795	84.14
347.007	178.34
347.219	215.21
347.431	-44.88
347.643	135.34
347.855	20.65
348.067	313.51
348.279	-94.04
348.491	43.18
348.703	293.03
348.915	55.47
349.127	-73.56
349.339	-10.07
349.551	147.62
349.763	258.21
349.975	47.27
350.187	63.66
350.399	274.6
350.61	145.58
350.822	-108.37
351.034	55.47
351.246	295.08
351.458	172.2
351.669	71.85
351.881	12.46
352.093	293.03
352.305	219.3
352.517	-28.5
352.728	147.62
352.94	164.01
353.152	233.64
353.363	-163.67
353.575	39.08
353.787	407.72
353.999	164.01
354.21	155.82
354.422	-116.56
354.633	108.71
354.845	149.67
355.057	84.14
355.268	47.27
355.48	239.78
355.692	37.03
355.903	20.65
356.115	-108.37
356.326	-108.37
356.538	350.37
356.749	28.84
356.961	151.72
357.172	186.54
357.384	28.84
357.595	131.24
357.807	10.41
358.018	73.9
358.23	123.05
358.441	-48.98
358.653	-28.5
358.864	194.73
359.075	28.84
359.287	-51.03
359.498	32.94
359.709	225.45
359.921	108.71
360.132	32.94
360.344	-44.88
360.555	149.67
360.766	137.38
360.977	-106.32
361.189	-36.69
361.4	194.73
361.611	284.84
361.823	80.04
362.034	24.75
362.245	-32.6
362.456	114.86
362.667	98.47
362.879	-200.53
363.09	282.79
363.301	116.9
363.512	-81.75
363.723	-69.46
363.935	112.81
364.146	250.02
364.357	-71.51
364.568	-36.69
364.779	6.31
364.99	221.35
365.201	-18.26
365.412	102.57
365.623	-34.64
365.834	215.21
366.045	65.71
366.256	37.03
366.467	194.73
366.678	104.62
366.889	-26.45
367.1	-124.76
367.311	235.69
367.522	94.38
367.733	110.76
367.944	-36.69
368.155	121
368.366	211.11
368.577	41.13
368.788	125.1
368.999	131.24
369.209	145.58
369.42	88.23
369.631	307.37
369.842	145.58
370.053	28.84
370.264	-3.93
370.474	-75.6
370.685	272.55
370.896	73.9
371.107	47.27
371.317	-8.02
371.528	161.96
371.739	237.74
371.95	-22.36
372.16	8.36
372.371	-18.26
372.582	82.09
372.792	-1.88
373.003	106.67
373.214	202.92
373.424	139.43
373.635	-26.45
373.846	94.38
374.056	180.39
374.267	168.1
374.477	57.51
374.688	-10.07
374.898	250.02
375.109	188.58
375.319	37.03
375.53	80.04
375.74	219.3
375.951	61.61
376.161	69.8
376.372	14.51
376.582	143.53
376.793	260.26
377.003	-102.23
377.214	-63.32
377.424	213.16
377.635	186.54
377.845	-106.32
378.055	106.67
378.266	-18.26
378.476	135.34
378.686	-61.27
378.897	53.42
379.107	266.41
379.317	172.2
379.528	-73.56
379.738	59.56
379.948	28.84
380.158	145.58
380.369	24.75
380.579	75.95
380.789	133.29
380.999	149.67
381.21	96.43
381.42	110.76
381.63	88.23
381.84	268.45
382.05	63.66
382.261	61.61
382.471	223.4
382.681	24.75
382.891	82.09
383.101	102.57
383.311	-71.51
383.521	22.7
383.731	-67.41
383.941	239.78
384.151	153.77
384.361	18.6
384.571	55.47
384.781	-40.79
384.991	286.89
385.201	372.9
385.411	129.19
385.621	57.51
385.831	235.69
386.041	123.05
386.251	80.04
386.461	80.04
386.671	112.81
386.881	139.43
387.091	16.55
387.301	114.86
387.511	102.57
387.72	118.95
387.93	24.75
388.14	-132.95
388.35	147.62
388.56	323.75
388.769	24.75
388.979	-46.93
389.189	69.8
389.399	198.82
389.609	-24.4
389.818	86.19
390.028	182.44
390.238	135.34
390.447	-14.17
390.657	18.6
390.867	237.74
391.076	-59.22
391.286	20.65
391.496	-77.65
391.705	127.14
391.915	315.56
392.125	-96.08
392.334	45.23
392.544	426.15
392.753	131.24
392.963	20.65
393.172	10.41
393.382	94.38
393.591	295.08
393.801	-8.02
394.01	104.62
394.22	176.3
394.429	88.23
394.639	-34.64
394.848	98.47
395.058	133.29
395.267	84.14
395.477	98.47
395.686	112.81
395.895	422.05
396.105	315.56
396.314	34.99
396.524	43.18
396.733	145.58
396.942	288.93
397.152	4.27
397.361	147.62
397.57	194.73
397.78	114.86
397.989	57.51
398.198	254.12
398.407	49.32
398.617	102.57
398.826	-69.46
399.035	-22.36
399.244	182.44
399.453	145.58
399.663	-73.56
399.872	-87.89
400.081	22.7
400.29	217.26
400.499	-79.7
400.708	131.24
400.917	153.77
401.127	96.43
401.336	-18.26
401.545	323.75
401.754	331.94
401.963	227.5
402.172	22.7
402.381	-59.22
402.59	172.2
402.799	141.48
403.008	100.52
403.217	-20.31
403.426	178.34
403.635	-57.17
403.844	-104.28
404.053	-89.94
404.262	45.23
404.471	305.32
404.68	0.17
404.888	-16.21
405.097	39.08
405.306	151.72
405.515	30.89
405.724	-8.02
405.933	209.06
406.142	250.02
406.35	-5.97
406.559	69.8
406.768	180.39
406.977	372.9
407.185	16.55
407.394	104.62
407.603	37.03
407.812	159.91
408.02	155.82
408.229	90.28
408.438	231.59
408.646	-36.69
408.855	-18.26
409.064	34.99
409.272	139.43
409.481	168.1
409.69	-28.5
409.898	-79.7
410.107	211.11
410.315	166.06
410.524	24.75
410.733	-59.22
410.941	211.11
411.15	280.74
411.358	69.8
411.567	213.16
411.775	39.08
411.984	186.54
412.192	49.32
412.401	-83.8
412.609	356.52
412.818	245.93
413.026	57.51
413.234	-10.07
413.443	106.67
413.651	-67.41
413.86	-116.56
414.068	282.79
414.276	387.24
414.485	104.62
414.693	121
414.901	200.87
415.11	268.45
415.318	32.94
415.526	-20.31
415.734	147.62
415.943	198.82
416.151	331.94
416.359	-36.69
416.567	30.89
416.776	231.59
416.984	174.25
417.192	135.34
417.4	20.65
417.608	98.47
417.817	-83.8
418.025	86.19
418.233	-5.97
418.441	0.17
418.649	14.51
418.857	59.56
419.065	127.14
419.273	57.51
419.481	213.16
419.689	77.99
419.897	-44.88
420.105	4.27
420.313	260.26
420.521	98.47
420.729	88.23
420.937	129.19
421.145	39.08
421.353	59.56
421.561	170.15
421.769	254.12
421.977	22.7
422.185	75.95
422.393	-8.02
422.601	229.54
422.809	196.78
423.017	75.95
423.224	30.89
423.432	153.77
423.64	137.38
423.848	-77.65
424.056	-42.84
424.263	307.37
424.471	131.24
424.679	131.24
424.887	-87.89
425.094	198.82
425.302	229.54
425.51	-96.08
425.718	45.23
425.925	129.19
426.133	0.17
426.341	86.19
426.548	8.36
426.756	121
426.964	211.11
427.171	55.47
427.379	45.23
427.586	131.24
427.794	241.83
428.001	135.34
428.209	-5.97
428.417	377
428.624	225.45
428.832	108.71
429.039	47.27
429.247	61.61
429.454	174.25
429.662	172.2
429.869	14.51
430.076	233.64
430.284	252.07
430.491	106.67
430.699	26.79
430.906	278.69
431.114	151.72
431.321	43.18
431.528	104.62
431.736	159.91
431.943	116.9
432.15	57.51
432.358	-18.26
432.565	336.04
432.772	-114.52
432.979	129.19
433.187	-1.88
433.394	305.32
433.601	69.8
433.808	98.47
434.016	139.43
434.223	137.38
434.43	221.35
434.637	82.09
434.844	235.69
435.052	184.49
435.259	223.4
435.466	45.23
435.673	55.47
435.88	278.69
436.087	258.21
436.294	202.92
436.501	125.1
436.708	209.06
436.915	239.78
437.122	164.01
437.329	-69.46
437.537	198.82
437.743	219.3
437.95	188.58
438.157	53.42
438.364	223.4
438.571	217.26
438.778	4.27
438.985	194.73
439.192	192.68
439.399	145.58
439.606	59.56
439.813	139.43
440.02	393.38
440.227	473.25
440.433	82.09
440.64	151.72
440.847	65.71
441.054	159.91
441.261	143.53
441.467	143.53
441.674	194.73
441.881	383.14
442.088	90.28
442.294	118.95
442.501	381.09
442.708	278.69
442.914	143.53
443.121	69.8
443.328	323.75
443.534	440.48
443.741	123.05
443.948	80.04
444.154	348.33
444.361	448.68
444.568	172.2
444.774	166.06
444.981	108.71
445.187	430.24
445.394	168.1
445.6	170.15
445.807	245.93
446.013	348.33
446.22	-14.17
446.426	194.73
446.633	327.85
446.839	557.22
447.046	94.38
447.252	209.06
447.459	233.64
447.665	266.41
447.871	159.91
448.078	450.72
448.284	454.82
448.491	465.06
448.697	381.09
448.903	260.26
449.11	471.2
449.316	329.89
449.522	440.48
449.728	350.37
449.935	536.74
450.141	385.19
450.347	487.59
450.553	192.68
450.76	516.26
450.966	471.2
451.172	407.72
451.378	297.13
451.584	512.16
451.791	667.81
451.997	460.96
452.203	372.9
452.409	661.66
452.615	737.44
452.821	473.25
453.027	370.85
453.233	792.73
453.44	546.98
453.646	456.87
453.852	563.36
454.058	446.63
454.264	671.9
454.47	661.66
454.676	561.31
454.882	745.63
455.088	684.19
455.294	639.14
455.5	727.2
455.705	841.89
455.911	745.63
456.117	532.64
456.323	669.86
456.529	784.54
456.735	694.43
456.941	577.7
457.147	798.88
457.352	866.46
457.558	643.23
457.764	592.03
457.97	487.59
458.176	825.5
458.381	839.84
458.587	766.11
458.793	731.3
458.999	731.3
459.204	735.39
459.41	678.05
459.616	702.62
459.821	811.17
460.027	663.71
460.233	714.91
460.438	708.77
460.644	757.92
460.85	776.35
461.055	725.15
461.261	714.91
461.466	614.56
461.672	649.38
461.878	567.46
462.083	688.29
462.289	600.23
462.494	622.75
