Data from USB4F104151__4__11-44-19-330.txt Node

Date: Wed Feb 19 11:44:19 EST 2025
User: louis
Spectrometer: USB4F10415
Trigger mode: 4
Integration Time (sec): 2.250200E-1
Scans to average: 1
Electric dark correction enabled: true
Nonlinearity correction enabled: false
Boxcar width: 0
XAxis mode: Wavelengths
Number of Pixels in Spectrum: 3648
>>>>>Begin Spectral Data<<<<<
178.204	-803.15
178.424	-803.15
178.644	-803.15
178.864	-805.19
179.084	-823.62
179.304	153.26
179.524	22.19
179.744	-57.68
179.964	-139.6
180.184	151.21
180.404	192.17
180.624	-223.57
180.844	-127.32
181.064	20.14
181.283	233.13
181.503	-158.03
181.723	-65.88
181.943	3.75
182.163	390.82
182.383	-262.48
182.602	-147.8
182.822	427.68
183.042	241.32
183.262	-162.13
183.482	-166.23
183.701	259.75
183.921	177.83
184.141	-172.37
184.361	-131.41
184.58	243.37
184.8	177.83
185.02	-203.09
185.239	-16.73
185.459	284.33
185.679	382.63
185.898	-299.34
186.118	-264.53
186.338	237.22
186.557	358.05
186.777	-227.67
186.997	-201.04
187.216	130.73
187.436	433.83
187.655	-119.12
187.875	-18.77
188.095	114.34
188.314	368.29
188.534	-84.31
188.753	-221.52
188.973	294.57
189.192	433.83
189.412	-143.7
189.631	-178.51
189.851	349.86
190.07	509.6
190.29	-213.33
190.509	-174.42
190.729	181.93
190.948	396.96
191.168	-125.27
191.387	-141.65
191.607	106.15
191.826	286.37
192.045	-178.51
192.265	-155.99
192.484	392.87
192.704	188.07
192.923	-131.41
193.142	-76.12
193.362	339.62
193.581	296.61
193.8	-67.92
194.02	-69.97
194.239	206.5
194.458	356.01
194.678	-96.6
194.897	-149.84
195.116	358.05
195.335	296.61
195.555	-155.99
195.774	-203.09
195.993	390.82
196.212	153.26
196.432	-69.97
196.651	-242
196.87	229.03
197.089	665.25
197.308	-164.18
197.528	-110.93
197.747	71.34
197.966	233.13
198.185	-55.64
198.404	-272.72
198.623	265.89
198.842	349.86
199.062	-8.53
199.281	-125.27
199.5	294.57
199.719	327.33
199.938	-139.6
200.157	-141.65
200.376	366.25
200.595	384.68
200.814	-145.75
201.033	-164.18
201.252	429.73
201.471	253.61
201.69	-219.47
201.909	-137.56
202.128	218.79
202.347	284.33
202.566	-100.69
202.785	-311.63
203.004	124.58
203.223	534.18
203.442	-190.8
203.661	-242
203.879	308.9
204.098	423.59
204.317	-217.43
204.536	-2.39
204.755	315.05
204.974	308.9
205.193	-270.67
205.411	-53.59
205.63	388.77
205.849	292.52
206.068	-174.42
206.287	-192.85
206.505	384.68
206.724	196.26
206.943	-164.18
207.162	-213.33
207.381	194.22
207.599	204.46
207.818	-80.21
208.037	-307.54
208.255	220.84
208.474	274.09
208.693	-123.22
208.911	-172.37
209.13	300.71
209.349	259.75
209.567	46.76
209.786	-96.6
210.005	333.48
210.223	255.65
210.442	-297.3
210.661	-194.9
210.879	247.46
211.098	245.41
211.316	-112.98
211.535	-133.46
211.753	235.18
211.972	321.19
212.191	-141.65
212.409	-49.49
212.628	327.33
212.846	169.64
213.065	-225.62
213.283	-172.37
213.502	202.41
213.72	247.46
213.938	-205.14
214.157	-186.71
214.375	353.96
214.594	151.21
214.812	-76.12
215.031	-188.75
215.249	222.89
215.467	235.18
215.686	-16.73
215.904	-117.08
216.122	218.79
216.341	417.44
216.559	13.99
216.778	-31.06
216.996	450.21
217.214	192.17
217.432	-184.66
217.651	-264.53
217.869	237.22
218.087	249.51
218.306	-203.09
218.524	-190.8
218.742	177.83
218.96	378.53
219.179	-151.89
219.397	-158.03
219.615	566.95
219.833	366.25
220.051	-96.6
220.27	16.04
220.488	306.85
220.706	333.48
220.924	-207.19
221.142	-155.99
221.36	247.46
221.578	263.85
221.796	-190.8
222.015	-33.11
222.233	278.18
222.451	446.12
222.669	-78.16
222.887	-92.5
223.105	89.77
223.323	212.65
223.541	-137.56
223.759	-86.36
223.977	140.97
224.195	425.64
224.413	-131.41
224.631	-123.22
224.849	310.95
225.067	546.47
225.285	-57.68
225.503	-172.37
225.721	30.38
225.939	292.52
226.157	-84.31
226.375	40.62
226.592	102.06
226.81	112.3
227.028	-31.06
227.246	-129.36
227.464	282.28
227.682	366.25
227.9	-121.17
228.117	-78.16
228.335	329.38
228.553	153.26
228.771	-207.19
228.989	-106.84
229.206	292.52
229.424	177.83
229.642	-102.74
229.86	-119.12
230.077	399.01
230.295	212.65
230.513	-41.3
230.731	-98.64
230.948	446.12
231.166	429.73
231.384	-127.32
231.601	-115.03
231.819	409.25
232.037	69.29
232.254	-123.22
232.472	-74.07
232.689	120.49
232.907	313
233.125	-176.47
233.342	-194.9
233.56	110.25
233.777	194.22
233.995	-162.13
234.213	-14.68
234.43	251.56
234.648	188.07
234.865	-178.51
235.083	38.57
235.3	253.61
235.518	247.46
235.735	-39.25
235.953	-35.16
236.17	253.61
236.388	171.69
236.605	44.71
236.822	-18.77
237.04	366.25
237.257	147.11
237.475	-74.07
237.692	-137.56
237.909	362.15
238.127	102.06
238.344	-22.87
238.562	-74.07
238.779	128.68
238.996	5.8
239.214	-0.34
239.431	-96.6
239.648	188.07
239.865	300.71
240.083	-121.17
240.3	-178.51
240.517	106.15
240.735	183.98
240.952	54.95
241.169	-188.75
241.386	300.71
241.603	136.87
241.821	-133.46
242.038	-90.45
242.255	263.85
242.472	40.62
242.689	-41.3
242.907	-67.92
243.124	186.02
243.341	216.74
243.558	-90.45
243.775	-131.41
243.992	16.04
244.209	360.1
244.426	73.39
244.643	-123.22
244.86	179.88
245.078	296.61
245.295	-59.73
245.512	-166.23
245.729	106.15
245.946	290.47
246.163	-59.73
246.38	-158.03
246.597	280.23
246.814	200.36
247.031	-2.39
247.248	-188.75
247.464	335.53
247.681	198.31
247.898	-43.35
248.115	-12.63
248.332	177.83
248.549	337.57
248.766	16.04
248.983	-49.49
249.2	368.29
249.417	388.77
249.633	-84.31
249.85	-18.77
250.067	97.96
250.284	188.07
250.501	-188.75
250.717	-108.88
250.934	38.57
251.151	239.27
251.368	-47.44
251.585	-139.6
251.801	167.59
252.018	102.06
252.235	93.87
252.451	-129.36
252.668	108.2
252.885	335.53
253.102	1.71
253.318	-131.41
253.535	161.45
253.752	192.17
253.968	-145.75
254.185	-149.84
254.401	159.4
254.618	325.29
254.835	-76.12
255.051	-22.87
255.268	257.7
255.484	241.32
255.701	-8.53
255.917	-74.07
256.134	143.02
256.351	212.65
256.567	-190.8
256.784	11.95
257	-35.16
257.217	280.23
257.433	52.91
257.65	-51.54
257.866	353.96
258.082	-26.96
258.299	-112.98
258.515	-31.06
258.732	110.25
258.948	116.39
259.165	-55.64
259.381	-213.33
259.597	263.85
259.814	140.97
260.03	-147.8
260.246	-78.16
260.463	399.01
260.679	401.06
260.895	-20.82
261.112	-43.35
261.328	196.26
261.544	95.91
261.761	-16.73
261.977	-74.07
262.193	61.1
262.409	245.41
262.626	57
262.842	-67.92
263.058	108.2
263.274	310.95
263.49	-51.54
263.707	-123.22
263.923	388.77
264.139	81.58
264.355	-112.98
264.571	77.48
264.787	288.42
265.004	333.48
265.22	-22.87
265.436	-49.49
265.652	186.02
265.868	231.08
266.084	-198.99
266.3	-131.41
266.516	38.57
266.732	284.33
266.948	-33.11
267.164	-129.36
267.38	345.77
267.596	239.27
267.812	79.53
268.028	-29.01
268.244	114.34
268.46	171.69
268.676	-31.06
268.892	11.95
269.108	42.67
269.324	48.81
269.54	-76.12
269.756	-94.55
269.972	32.43
270.188	128.68
270.403	-88.4
270.619	-61.78
270.835	272.04
271.051	255.65
271.267	-153.94
271.483	-104.79
271.698	243.37
271.914	249.51
272.13	-47.44
272.346	-26.96
272.562	198.31
272.777	448.16
272.993	-57.68
273.209	-149.84
273.425	253.61
273.64	-14.68
273.856	-88.4
274.072	-231.76
274.287	163.5
274.503	231.08
274.719	69.29
274.934	-198.99
275.15	-6.49
275.366	200.36
275.581	-37.2
275.797	-43.35
276.012	194.22
276.228	147.11
276.444	-16.73
276.659	163.5
276.875	59.05
277.09	192.17
277.306	-22.87
277.521	73.39
277.737	167.59
277.952	218.79
278.168	-98.64
278.383	-69.97
278.599	200.36
278.814	280.23
279.03	-39.25
279.245	44.71
279.461	145.06
279.676	235.18
279.892	-100.69
280.107	-98.64
280.322	100.01
280.538	280.23
280.753	-37.2
280.969	-49.49
281.184	204.46
281.399	304.81
281.615	-55.64
281.83	61.1
282.045	32.43
282.26	73.39
282.476	-98.64
282.691	188.07
282.906	181.93
283.122	145.06
283.337	-14.68
283.552	38.57
283.767	75.43
283.983	265.89
284.198	-0.34
284.413	-35.16
284.628	54.95
284.843	114.34
285.058	24.23
285.274	-57.68
285.489	112.3
285.704	237.22
285.919	34.47
286.134	-2.39
286.349	161.45
286.564	149.16
286.779	5.8
286.995	57
287.21	3.75
287.425	286.37
287.64	-22.87
287.855	13.99
288.07	61.1
288.285	284.33
288.5	-2.39
288.715	-22.87
288.93	52.91
289.145	128.68
289.36	13.99
289.575	-10.58
289.79	235.18
290.004	167.59
290.219	83.63
290.434	26.28
290.649	46.76
290.864	179.88
291.079	-10.58
291.294	-10.58
291.509	171.69
291.724	161.45
291.938	-14.68
292.153	-90.45
292.368	161.45
292.583	222.89
292.798	-8.53
293.012	-12.63
293.227	259.75
293.442	175.78
293.657	11.95
293.871	-106.84
294.086	300.71
294.301	319.14
294.516	34.47
294.73	89.77
294.945	44.71
295.16	126.63
295.374	26.28
295.589	67.24
295.804	50.86
296.018	112.3
296.233	-72.02
296.447	40.62
296.662	222.89
296.877	388.77
297.091	128.68
297.306	28.33
297.52	124.58
297.735	163.5
297.949	24.23
298.164	-149.84
298.378	214.7
298.593	36.52
298.807	-2.39
299.022	32.43
299.236	265.89
299.451	126.63
299.665	-22.87
299.88	91.82
300.094	186.02
300.309	165.54
300.523	-12.63
300.737	-86.36
300.952	212.65
301.166	233.13
301.381	-0.34
301.595	-78.16
301.809	128.68
302.024	79.53
302.238	-78.16
302.452	108.2
302.667	122.54
302.881	212.65
303.095	38.57
303.309	52.91
303.524	110.25
303.738	183.98
303.952	48.81
304.166	13.99
304.381	-82.26
304.595	171.69
304.809	65.19
305.023	-35.16
305.237	71.34
305.452	73.39
305.666	-12.63
305.88	52.91
306.094	317.09
306.308	241.32
306.522	-55.64
306.736	81.58
306.95	280.23
307.164	7.85
307.379	61.1
307.593	73.39
307.807	265.89
308.021	210.6
308.235	175.78
308.449	-121.17
308.663	179.88
308.877	450.21
309.091	18.09
309.305	16.04
309.519	-39.25
309.733	329.38
309.947	-65.88
310.161	-2.39
310.374	214.7
310.588	255.65
310.802	-55.64
311.016	22.19
311.23	194.22
311.444	48.81
311.658	79.53
311.872	179.88
312.085	304.81
312.299	310.95
312.513	218.79
312.727	-86.36
312.941	93.87
313.154	206.5
313.368	22.19
313.582	-55.64
313.796	216.74
314.009	169.64
314.223	202.41
314.437	61.1
314.651	210.6
314.864	1.71
315.078	-26.96
315.292	-49.49
315.505	73.39
315.719	196.26
315.933	134.82
316.146	-63.83
316.36	120.49
316.573	224.94
316.787	145.06
317.001	50.86
317.214	9.9
317.428	136.87
317.641	-69.97
317.855	-26.96
318.068	212.65
318.282	153.26
318.495	161.45
318.709	122.54
318.922	255.65
319.136	255.65
319.349	157.35
319.563	-92.5
319.776	214.7
319.99	-41.3
320.203	151.21
320.417	-29.01
320.63	157.35
320.843	274.09
321.057	130.73
321.27	-69.97
321.483	319.14
321.697	259.75
321.91	-0.34
322.124	-6.49
322.337	149.16
322.55	59.05
322.763	73.39
322.977	16.04
323.19	210.6
323.403	87.72
323.617	67.24
323.83	239.27
324.043	181.93
324.256	179.88
324.469	-217.43
324.683	159.4
324.896	149.16
325.109	134.82
325.322	-110.93
325.535	145.06
325.748	257.7
325.962	136.87
326.175	79.53
326.388	-127.32
326.601	306.85
326.814	67.24
327.027	-18.77
327.24	128.68
327.453	-35.16
327.666	181.93
327.879	181.93
328.092	73.39
328.305	255.65
328.518	46.76
328.731	-31.06
328.944	-55.64
329.157	126.63
329.37	87.72
329.583	167.59
329.796	89.77
330.009	59.05
330.222	253.61
330.435	40.62
330.648	13.99
330.861	173.74
331.073	233.13
331.286	100.01
331.499	13.99
331.712	128.68
331.925	114.34
332.138	-12.63
332.35	7.85
332.563	145.06
332.776	255.65
332.989	-10.58
333.202	-90.45
333.414	186.02
333.627	122.54
333.84	-45.4
334.053	85.67
334.265	-8.53
334.478	46.76
334.691	-84.31
334.903	108.2
335.116	138.92
335.329	226.98
335.541	26.28
335.754	259.75
335.966	124.58
336.179	229.03
336.392	18.09
336.604	30.38
336.817	224.94
337.029	280.23
337.242	16.04
337.454	34.47
337.667	267.94
337.88	233.13
338.092	71.34
338.305	93.87
338.517	71.34
338.729	241.32
338.942	65.19
339.154	9.9
339.367	-12.63
339.579	327.33
339.792	-65.88
340.004	89.77
340.217	79.53
340.429	171.69
340.641	-65.88
340.854	-37.2
341.066	124.58
341.278	306.85
341.491	239.27
341.703	-8.53
341.915	63.15
342.128	263.85
342.34	-18.77
342.552	-84.31
342.764	147.11
342.977	149.16
343.189	83.63
343.401	79.53
343.613	52.91
343.826	173.74
344.038	-51.54
344.25	95.91
344.462	85.67
344.674	175.78
344.886	-6.49
345.099	-18.77
345.311	222.89
345.523	177.83
345.735	-158.03
345.947	59.05
346.159	208.55
346.371	194.22
346.583	54.95
346.795	134.82
347.007	132.78
347.219	292.52
347.431	7.85
347.643	145.06
347.855	46.76
348.067	247.46
348.279	-67.92
348.491	-43.35
348.703	249.51
348.915	97.96
349.127	-31.06
349.339	112.3
349.551	157.35
349.763	310.95
349.975	24.23
350.187	126.63
350.399	384.68
350.61	186.02
350.822	13.99
351.034	-14.68
351.246	308.9
351.458	206.5
351.669	93.87
351.881	50.86
352.093	366.25
352.305	265.89
352.517	26.28
352.728	151.21
352.94	153.26
353.152	296.61
353.363	-59.73
353.575	9.9
353.787	417.44
353.999	290.47
354.21	169.64
354.422	-127.32
354.633	192.17
354.845	118.44
355.057	114.34
355.268	-10.58
355.48	333.48
355.692	-8.53
355.903	-47.44
356.115	-110.93
356.326	-10.58
356.538	335.53
356.749	63.15
356.961	114.34
357.172	136.87
357.384	40.62
357.595	257.7
357.807	-35.16
358.018	106.15
358.23	177.83
358.441	57
358.653	-37.2
358.864	149.16
359.075	-2.39
359.287	36.52
359.498	16.04
359.709	169.64
359.921	175.78
360.132	157.35
360.344	7.85
360.555	89.77
360.766	169.64
360.977	-6.49
361.189	-22.87
361.4	75.43
361.611	278.18
361.823	71.34
362.034	-6.49
362.245	18.09
362.456	79.53
362.667	116.39
362.879	-90.45
363.09	161.45
363.301	218.79
363.512	16.04
363.723	-82.26
363.935	42.67
364.146	282.28
364.357	42.67
364.568	-0.34
364.779	-22.87
364.99	284.33
365.201	44.71
365.412	100.01
365.623	54.95
365.834	128.68
366.045	73.39
366.256	28.33
366.467	220.84
366.678	177.83
366.889	-18.77
367.1	-24.92
367.311	374.44
367.522	145.06
367.733	69.29
367.944	34.47
368.155	85.67
368.366	235.18
368.577	136.87
368.788	112.3
368.999	32.43
369.209	126.63
369.42	50.86
369.631	313
369.842	177.83
370.053	67.24
370.264	-41.3
370.474	-55.64
370.685	276.13
370.896	130.73
371.107	3.75
371.317	5.8
371.528	188.07
371.739	378.53
371.95	7.85
372.16	40.62
372.371	-0.34
372.582	112.3
372.792	-10.58
373.003	151.21
373.214	179.88
373.424	192.17
373.635	104.11
373.846	206.5
374.056	134.82
374.267	157.35
374.477	147.11
374.688	3.75
374.898	231.08
375.109	157.35
375.319	26.28
375.53	63.15
375.74	229.03
375.951	38.57
376.161	32.43
376.372	89.77
376.582	104.11
376.793	226.98
377.003	11.95
377.214	22.19
377.424	335.53
377.635	202.41
377.845	-45.4
378.055	44.71
378.266	5.8
378.476	124.58
378.686	71.34
378.897	85.67
379.107	360.1
379.317	231.08
379.528	-57.68
379.738	30.38
379.948	-31.06
380.158	210.6
380.369	44.71
380.579	-2.39
380.789	175.78
380.999	206.5
381.21	204.46
381.42	153.26
381.63	210.6
381.84	306.85
382.05	87.72
382.261	147.11
382.471	308.9
382.681	73.39
382.891	77.48
383.101	93.87
383.311	24.23
383.521	169.64
383.731	-51.54
383.941	163.5
384.151	183.98
384.361	93.87
384.571	16.04
384.781	16.04
384.991	313
385.201	374.44
385.411	163.5
385.621	57
385.831	224.94
386.041	138.92
386.251	40.62
386.461	50.86
386.671	130.73
386.881	159.4
387.091	65.19
387.301	118.44
387.511	196.26
387.72	165.54
387.93	38.57
388.14	-96.6
388.35	163.5
388.56	321.19
388.769	13.99
388.979	-0.34
389.189	57
389.399	87.72
389.609	79.53
389.818	67.24
390.028	261.8
390.238	169.64
390.447	-26.96
390.657	42.67
390.867	138.92
391.076	-2.39
391.286	20.14
391.496	-49.49
391.705	128.68
391.915	407.2
392.125	36.52
392.334	22.19
392.544	329.38
392.753	126.63
392.963	38.57
393.172	52.91
393.382	79.53
393.591	390.82
393.801	-45.4
394.01	67.24
394.22	181.93
394.429	136.87
394.639	112.3
394.848	48.81
395.058	218.79
395.267	179.88
395.477	179.88
395.686	73.39
395.895	439.97
396.105	292.52
396.314	100.01
396.524	40.62
396.733	77.48
396.942	337.57
397.152	-14.68
397.361	126.63
397.57	243.37
397.78	196.26
397.989	153.26
398.198	269.99
398.407	22.19
398.617	112.3
398.826	5.8
399.035	3.75
399.244	206.5
399.453	200.36
399.663	-63.83
399.872	-51.54
400.081	-0.34
400.29	272.04
400.499	1.71
400.708	132.78
400.917	147.11
401.127	59.05
401.336	46.76
401.545	259.75
401.754	327.33
401.963	284.33
402.172	-6.49
402.381	-24.92
402.59	188.07
402.799	198.31
403.008	134.82
403.217	32.43
403.426	186.02
403.635	57
403.844	18.09
404.053	-117.08
404.262	114.34
404.471	265.89
404.68	83.63
404.888	136.87
405.097	89.77
405.306	112.3
405.515	40.62
405.724	-43.35
405.933	317.09
406.142	169.64
406.35	40.62
406.559	26.28
406.768	177.83
406.977	409.25
407.185	46.76
407.394	143.02
407.603	7.85
407.812	112.3
408.02	321.19
408.229	153.26
408.438	239.27
408.646	-20.82
408.855	-8.53
409.064	-22.87
409.272	149.16
409.481	261.8
409.69	-4.44
409.898	-22.87
410.107	222.89
410.315	274.09
410.524	38.57
410.733	16.04
410.941	134.82
411.15	243.37
411.358	65.19
411.567	208.55
411.775	249.51
411.984	179.88
412.192	83.63
412.401	1.71
412.609	388.77
412.818	280.23
413.026	18.09
413.234	1.71
413.443	261.8
413.651	-18.77
413.86	-16.73
414.068	149.16
414.276	409.25
414.485	106.15
414.693	91.82
414.901	253.61
415.11	257.7
415.318	130.73
415.526	30.38
415.734	91.82
415.943	177.83
416.151	347.81
416.359	-20.82
416.567	75.43
416.776	255.65
416.984	222.89
417.192	171.69
417.4	89.77
417.608	153.26
417.817	42.67
418.025	114.34
418.233	145.06
418.441	91.82
418.649	7.85
418.857	-10.58
419.065	108.2
419.273	120.49
419.481	237.22
419.689	44.71
419.897	-8.53
420.105	48.81
420.313	181.93
420.521	118.44
420.729	97.96
420.937	118.44
421.145	75.43
421.353	128.68
421.561	161.45
421.769	245.41
421.977	54.95
422.185	67.24
422.393	97.96
422.601	198.31
422.809	245.41
423.017	81.58
423.224	36.52
423.432	376.48
423.64	116.39
423.848	18.09
424.056	-39.25
424.263	317.09
424.471	165.54
424.679	145.06
424.887	-2.39
425.094	360.1
425.302	202.41
425.51	-135.51
425.718	122.54
425.925	212.65
426.133	57
426.341	128.68
426.548	7.85
426.756	136.87
426.964	259.75
427.171	3.75
427.379	85.67
427.586	149.16
427.794	196.26
428.001	63.15
428.209	79.53
428.417	333.48
428.624	183.98
428.832	108.2
429.039	155.3
429.247	194.22
429.454	181.93
429.662	120.49
429.869	235.18
430.076	243.37
430.284	253.61
430.491	73.39
430.699	69.29
430.906	284.33
431.114	153.26
431.321	157.35
431.528	143.02
431.736	169.64
431.943	183.98
432.15	81.58
432.358	7.85
432.565	448.16
432.772	-153.94
432.979	161.45
433.187	34.47
433.394	394.92
433.601	122.54
433.808	95.91
434.016	222.89
434.223	206.5
434.43	190.12
434.637	24.23
434.844	235.18
435.052	294.57
435.259	202.41
435.466	136.87
435.673	116.39
435.88	288.42
436.087	376.48
436.294	300.71
436.501	259.75
436.708	366.25
436.915	284.33
437.122	290.47
437.329	-10.58
437.537	202.41
437.743	302.76
437.95	257.7
438.157	149.16
438.364	202.41
438.571	300.71
438.778	155.3
438.985	216.74
439.192	386.72
439.399	265.89
439.606	147.11
439.813	331.43
440.02	528.03
440.227	530.08
440.433	198.31
440.64	155.3
440.847	200.36
441.054	251.56
441.261	155.3
441.467	222.89
441.674	218.79
441.881	431.78
442.088	110.25
442.294	159.4
442.501	470.69
442.708	478.88
442.914	122.54
443.121	278.18
443.328	425.64
443.534	583.33
443.741	208.55
443.948	157.35
444.154	546.47
444.361	618.15
444.568	253.61
444.774	267.94
444.981	282.28
445.187	525.99
445.394	358.05
445.6	235.18
445.807	466.6
446.013	456.36
446.22	163.5
446.426	378.53
446.633	509.6
446.839	632.48
447.046	280.23
447.252	409.25
447.459	485.03
447.665	482.98
447.871	337.57
448.078	571.04
448.284	655.01
448.491	702.11
448.697	542.37
448.903	466.6
449.11	589.47
449.316	579.23
449.522	605.86
449.728	605.86
449.935	747.17
450.141	607.91
450.347	644.77
450.553	548.51
450.76	796.32
450.966	769.69
451.172	743.07
451.378	603.81
451.584	788.13
451.791	1013.4
451.997	841.37
452.203	636.58
452.409	947.87
452.615	1003.16
452.821	800.41
453.027	745.12
453.233	1203.86
453.44	1011.36
453.646	728.74
453.852	960.16
454.058	921.24
454.264	1203.86
454.47	1019.55
454.676	937.63
454.882	1263.26
455.088	1160.86
455.294	1027.74
455.5	1154.71
455.705	1355.41
455.911	1212.06
456.117	968.35
456.323	984.73
456.529	1156.76
456.735	1207.96
456.941	1048.22
457.147	1173.14
457.352	1336.98
457.558	1052.31
457.764	1164.95
457.97	1046.17
458.176	1336.98
458.381	1195.67
458.587	1275.54
458.793	1197.72
458.999	1146.52
459.204	1287.83
459.41	1052.31
459.616	1095.32
459.821	1406.61
460.027	1193.62
460.233	1226.39
460.438	1216.15
460.644	1267.35
460.85	1283.74
461.055	1167
461.261	1126.04
461.466	1126.04
461.672	1085.08
461.878	1093.27
462.083	1158.81
462.289	939.68
462.494	1009.31
462.7	1158.81
462.905	974.49
463.111	1322.65
