Data from USB4F104151__13__12-58-29-800.txt Node

Date: Fri Mar 14 12:58:29 EDT 2025
User: louis
Spectrometer: USB4F10415
Trigger mode: 4
Integration Time (sec): 1.000000E-2
Scans to average: 1
Electric dark correction enabled: true
Nonlinearity correction enabled: false
Boxcar width: 0
XAxis mode: Wavelengths
Number of Pixels in Spectrum: 3648
>>>>>Begin Spectral Data<<<<<
178.204	-10.41
178.424	-10.41
178.644	-10.41
178.864	-57.51
179.084	10.07
179.304	-34.99
179.524	-28.84
179.744	-77.99
179.964	-18.6
180.184	3.93
180.404	36.69
180.624	-14.51
180.844	-8.36
181.064	3.93
181.283	53.08
181.503	24.4
181.723	61.27
181.943	57.17
182.163	44.88
182.383	3.93
182.602	108.37
182.822	32.6
183.042	3.93
183.262	-14.51
183.482	32.6
183.701	22.36
183.921	18.26
184.141	16.21
184.361	67.41
184.58	83.8
184.8	67.41
185.02	34.64
185.239	16.21
185.459	-14.51
185.679	55.12
185.898	-34.99
186.118	-39.08
186.338	34.64
186.557	57.17
186.777	57.17
186.997	-55.47
187.216	-10.41
187.436	65.36
187.655	40.79
187.875	38.74
188.095	-12.46
188.314	65.36
188.534	67.41
188.753	36.69
188.973	-26.79
189.192	-6.31
189.412	48.98
189.631	61.27
189.851	71.51
190.07	20.31
190.29	-14.51
190.509	28.5
190.729	69.46
190.948	-6.31
191.168	51.03
191.387	81.75
191.607	-0.17
191.826	-41.13
192.045	38.74
192.265	16.21
192.484	36.69
192.704	83.8
192.923	55.12
193.142	51.03
193.362	28.5
193.581	28.5
193.8	32.6
194.02	46.93
194.239	-47.27
194.458	28.5
194.678	48.98
194.897	81.75
195.116	32.6
195.335	3.93
195.555	3.93
195.774	-6.31
195.993	63.32
196.212	26.45
196.432	-37.03
196.651	87.89
196.87	-37.03
197.089	63.32
197.308	32.6
197.528	91.99
197.747	-28.84
197.966	20.31
198.185	59.22
198.404	28.5
198.623	22.36
198.842	34.64
199.062	65.36
199.281	61.27
199.5	8.02
199.719	40.79
199.938	53.08
200.157	-0.17
200.376	59.22
200.595	124.76
200.814	26.45
201.033	-12.46
201.252	42.84
201.471	18.26
201.69	-47.27
201.909	10.07
202.128	-28.84
202.347	32.6
202.566	-2.22
202.785	-4.27
203.004	20.31
203.223	34.64
203.442	14.17
203.661	12.12
203.879	79.7
204.098	10.07
204.317	85.84
204.536	-2.22
204.755	59.22
204.974	22.36
205.193	-4.27
205.411	77.65
205.63	81.75
205.849	10.07
206.068	69.46
206.287	40.79
206.505	-4.27
206.724	34.64
206.943	42.84
207.162	-0.17
207.381	20.31
207.599	85.84
207.818	44.88
208.037	-59.56
208.255	65.36
208.474	51.03
208.693	22.36
208.911	75.6
209.13	3.93
209.349	14.17
209.567	24.4
209.786	112.47
210.005	26.45
210.223	-4.27
210.442	8.02
210.661	1.88
210.879	-41.13
211.098	48.98
211.316	22.36
211.535	42.84
211.753	28.5
211.972	8.02
212.191	3.93
212.409	28.5
212.628	48.98
212.846	57.17
213.065	57.17
213.283	-2.22
213.502	12.12
213.72	22.36
213.938	-4.27
214.157	-75.95
214.375	42.84
214.594	-10.41
214.812	34.64
215.031	40.79
215.249	55.12
215.467	-24.75
215.686	-14.51
215.904	91.99
216.122	87.89
216.341	59.22
216.559	-14.51
216.778	10.07
216.996	20.31
217.214	-28.84
217.432	22.36
217.651	20.31
217.869	36.69
218.087	46.93
218.306	-57.51
218.524	26.45
218.742	-53.42
218.96	-8.36
219.179	55.12
219.397	61.27
219.615	32.6
219.833	-8.36
220.051	-30.89
220.27	30.55
220.488	48.98
220.706	-0.17
220.924	44.88
221.142	1.88
221.36	26.45
221.578	-47.27
221.796	38.74
222.015	12.12
222.233	-16.55
222.451	128.85
222.669	-4.27
222.887	85.84
223.105	1.88
223.323	-12.46
223.541	34.64
223.759	53.08
223.977	53.08
224.195	57.17
224.413	-0.17
224.631	1.88
224.849	53.08
225.067	24.4
225.285	16.21
225.503	30.55
225.721	16.21
225.939	-59.56
226.157	-30.89
226.375	-12.46
226.592	5.97
226.81	24.4
227.028	53.08
227.246	104.28
227.464	51.03
227.682	30.55
227.9	-73.9
228.117	20.31
228.335	22.36
228.553	20.31
228.771	12.12
228.989	28.5
229.206	-10.41
229.424	-57.51
229.642	14.17
229.86	10.07
230.077	-26.79
230.295	-34.99
230.513	-30.89
230.731	-22.7
230.948	61.27
231.166	26.45
231.384	-45.23
231.601	16.21
231.819	26.45
232.037	42.84
232.254	38.74
232.472	53.08
232.689	-14.51
232.907	18.26
233.125	44.88
233.342	-18.6
233.56	-10.41
233.777	20.31
233.995	-37.03
234.213	40.79
234.43	8.02
234.648	42.84
234.865	20.31
235.083	26.45
235.3	14.17
235.518	46.93
235.735	-88.23
235.953	71.51
236.17	-10.41
236.388	61.27
236.605	-8.36
236.822	-12.46
237.04	40.79
237.257	22.36
237.475	53.08
237.692	-8.36
237.909	34.64
238.127	1.88
238.344	-8.36
238.562	16.21
238.779	1.88
238.996	-45.23
239.214	-24.75
239.431	59.22
239.648	-6.31
239.865	36.69
240.083	-14.51
240.3	-6.31
240.517	63.32
240.735	44.88
240.952	-4.27
241.169	-22.7
241.386	-28.84
241.603	-37.03
241.821	-20.65
242.038	14.17
242.255	44.88
242.472	42.84
242.689	55.12
242.907	34.64
243.124	24.4
243.341	51.03
243.558	-2.22
243.775	12.12
243.992	-43.18
244.209	-10.41
244.426	59.22
244.643	83.8
244.86	57.17
245.078	85.84
245.295	-16.55
245.512	-12.46
245.729	16.21
245.946	-18.6
246.163	8.02
246.38	38.74
246.597	1.88
246.814	-28.84
247.031	-39.08
247.248	28.5
247.464	-28.84
247.681	3.93
247.898	-12.46
248.115	36.69
248.332	-14.51
248.549	-30.89
248.766	53.08
248.983	-6.31
249.2	59.22
249.417	77.65
249.633	46.93
249.85	59.22
250.067	12.12
250.284	65.36
250.501	-53.42
250.717	5.97
250.934	18.26
251.151	24.4
251.368	-37.03
251.585	65.36
251.801	87.89
252.018	5.97
252.235	28.5
252.451	22.36
252.668	-12.46
252.885	89.94
253.102	55.12
253.318	-8.36
253.535	-24.75
253.752	30.55
253.968	12.12
254.185	1.88
254.401	30.55
254.618	24.4
254.835	-51.37
255.051	40.79
255.268	-20.65
255.484	44.88
255.701	-22.7
255.917	36.69
256.134	38.74
256.351	10.07
256.567	-26.79
256.784	46.93
257	38.74
257.217	24.4
257.433	44.88
257.65	-47.27
257.866	26.45
258.082	8.02
258.299	22.36
258.515	18.26
258.732	-28.84
258.948	26.45
259.165	-26.79
259.381	42.84
259.597	36.69
259.814	12.12
260.03	18.26
260.246	28.5
260.463	-6.31
260.679	38.74
260.895	-4.27
261.112	48.98
261.328	12.12
261.544	46.93
261.761	124.76
261.977	28.5
262.193	3.93
262.409	51.03
262.626	34.64
262.842	106.32
263.058	44.88
263.274	-12.46
263.49	-51.37
263.707	63.32
263.923	1.88
264.139	32.6
264.355	32.6
264.571	-2.22
264.787	85.84
265.004	55.12
265.22	-16.55
265.436	-43.18
265.652	26.45
265.868	-8.36
266.084	26.45
266.3	5.97
266.516	63.32
266.732	110.42
266.948	53.08
267.164	24.4
267.38	46.93
267.596	55.12
267.812	63.32
268.028	59.22
268.244	46.93
268.46	28.5
268.676	-26.79
268.892	85.84
269.108	77.65
269.324	28.5
269.54	-43.18
269.756	-20.65
269.972	63.32
270.188	32.6
270.403	16.21
270.619	-39.08
270.835	-22.7
271.051	-2.22
271.267	24.4
271.483	53.08
271.698	-59.56
271.914	8.02
272.13	46.93
272.346	36.69
272.562	-61.61
272.777	-30.89
272.993	16.21
273.209	69.46
273.425	-4.27
273.64	-6.31
273.856	34.64
274.072	-6.31
274.287	18.26
274.503	67.41
274.719	12.12
274.934	1.88
275.15	-47.27
275.366	10.07
275.581	-6.31
275.797	10.07
276.012	18.26
276.228	87.89
276.444	-32.94
276.659	-8.36
276.875	16.21
277.09	-2.22
277.306	-69.8
277.521	59.22
277.737	10.07
277.952	48.98
278.168	-10.41
278.383	28.5
278.599	-45.23
278.814	26.45
279.03	-28.84
279.245	40.79
279.461	67.41
279.676	22.36
279.892	-39.08
280.107	20.31
280.322	-51.37
280.538	36.69
280.753	-2.22
280.969	53.08
281.184	71.51
281.399	147.28
281.615	24.4
281.83	44.88
282.045	-80.04
282.26	79.7
282.476	-14.51
282.691	-0.17
282.906	20.31
283.122	40.79
283.337	32.6
283.552	-28.84
283.767	-16.55
283.983	-2.22
284.198	12.12
284.413	40.79
284.628	24.4
284.843	42.84
285.058	63.32
285.274	55.12
285.489	1.88
285.704	57.17
285.919	-82.09
286.134	-47.27
286.349	20.31
286.564	24.4
286.779	87.89
286.995	69.46
287.21	-53.42
287.425	14.17
287.64	-39.08
287.855	63.32
288.07	-2.22
288.285	20.31
288.5	-20.65
288.715	20.31
288.93	22.36
289.145	-0.17
289.36	67.41
289.575	-4.27
289.79	1.88
290.004	69.46
290.219	42.84
290.434	-51.37
290.649	-69.8
290.864	10.07
291.079	53.08
291.294	-20.65
291.509	32.6
291.724	-10.41
291.938	16.21
292.153	96.08
292.368	-6.31
292.583	22.36
292.798	-26.79
293.012	10.07
293.227	-98.47
293.442	-4.27
293.657	-0.17
293.871	63.32
294.086	48.98
294.301	75.6
294.516	24.4
294.73	61.27
294.945	28.5
295.16	46.93
295.374	51.03
295.589	32.6
295.804	32.6
296.018	79.7
296.233	53.08
296.447	22.36
296.662	149.33
296.877	59.22
297.091	42.84
297.306	77.65
297.52	8.02
297.735	28.5
297.949	18.26
298.164	16.21
298.378	71.51
298.593	61.27
298.807	8.02
299.022	18.26
299.236	-8.36
299.451	24.4
299.665	-73.9
299.88	79.7
300.094	8.02
300.309	-24.75
300.523	5.97
300.737	36.69
300.952	63.32
301.166	91.99
301.381	-28.84
301.595	48.98
301.809	85.84
302.024	34.64
302.238	-12.46
302.452	44.88
302.667	34.64
302.881	104.28
303.095	-22.7
303.309	36.69
303.524	3.93
303.738	36.69
303.952	26.45
304.166	16.21
304.381	36.69
304.595	110.42
304.809	-67.75
305.023	59.22
305.237	14.17
305.452	22.36
305.666	5.97
305.88	59.22
306.094	18.26
306.308	75.6
306.522	5.97
306.736	61.27
306.95	53.08
307.164	14.17
307.379	-51.37
307.593	46.93
307.807	22.36
308.021	53.08
308.235	28.5
308.449	51.03
308.663	-39.08
308.877	22.36
309.091	8.02
309.305	46.93
309.519	55.12
309.733	10.07
309.947	-67.75
310.161	14.17
310.374	59.22
310.588	10.07
310.802	-49.32
311.016	12.12
311.23	16.21
311.444	63.32
311.658	20.31
311.872	12.12
312.085	26.45
312.299	65.36
312.513	79.7
312.727	67.41
312.941	-8.36
313.154	91.99
313.368	10.07
313.582	87.89
313.796	-26.79
314.009	1.88
314.223	14.17
314.437	28.5
314.651	59.22
314.864	-80.04
315.078	77.65
315.292	32.6
315.505	67.41
315.719	79.7
315.933	34.64
316.146	96.08
316.36	16.21
316.573	14.17
316.787	40.79
317.001	-0.17
317.214	53.08
317.428	53.08
317.641	-4.27
317.855	69.46
318.068	10.07
318.282	16.21
318.495	57.17
318.709	42.84
318.922	-6.31
319.136	20.31
319.349	34.64
319.563	79.7
319.776	38.74
319.99	3.93
320.203	98.13
320.417	26.45
320.63	67.41
320.843	14.17
321.057	48.98
321.27	85.84
321.483	-12.46
321.697	69.46
321.91	-20.65
322.124	-30.89
322.337	63.32
322.55	79.7
322.763	-16.55
322.977	-28.84
323.19	-49.32
323.403	12.12
323.617	63.32
323.83	79.7
324.043	5.97
324.256	36.69
324.469	12.12
324.683	-2.22
324.896	28.5
325.109	46.93
325.322	30.55
325.535	36.69
325.748	32.6
325.962	38.74
326.175	-6.31
326.388	110.42
326.601	14.17
326.814	-30.89
327.027	67.41
327.24	94.04
327.453	16.21
327.666	12.12
327.879	-34.99
328.092	28.5
328.305	14.17
328.518	-18.6
328.731	69.46
328.944	10.07
329.157	-2.22
329.37	40.79
329.583	69.46
329.796	79.7
330.009	-55.47
330.222	61.27
330.435	-2.22
330.648	75.6
330.861	48.98
331.073	-61.61
331.286	38.74
331.499	87.89
331.712	44.88
331.925	12.12
332.138	8.02
332.35	42.84
332.563	18.26
332.776	83.8
332.989	18.26
333.202	-55.47
333.414	83.8
333.627	32.6
333.84	26.45
334.053	10.07
334.265	1.88
334.478	51.03
334.691	61.27
334.903	20.31
335.116	-22.7
335.329	-6.31
335.541	-41.13
335.754	51.03
335.966	77.65
336.179	18.26
336.392	44.88
336.604	-39.08
336.817	26.45
337.029	-34.99
337.242	67.41
337.454	-18.6
337.667	30.55
337.88	22.36
338.092	57.17
338.305	32.6
338.517	1.88
338.729	-12.46
338.942	30.55
339.154	108.37
339.367	36.69
339.579	63.32
339.792	1.88
340.004	14.17
340.217	1.88
340.429	102.23
340.641	63.32
340.854	30.55
341.066	8.02
341.278	42.84
341.491	36.69
341.703	38.74
341.915	-20.65
342.128	18.26
342.34	18.26
342.552	20.31
342.764	57.17
342.977	18.26
343.189	67.41
343.401	63.32
343.613	-10.41
343.826	59.22
344.038	20.31
344.25	-12.46
344.462	1.88
344.674	26.45
344.886	-57.51
345.099	-4.27
345.311	61.27
345.523	36.69
345.735	-14.51
345.947	116.56
346.159	36.69
346.371	10.07
346.583	57.17
346.795	28.5
347.007	26.45
347.219	-2.22
347.431	18.26
347.643	55.12
347.855	46.93
348.067	26.45
348.279	-12.46
348.491	59.22
348.703	55.12
348.915	-30.89
349.127	1.88
349.339	3.93
349.551	-49.32
349.763	18.26
349.975	-39.08
350.187	71.51
350.399	-2.22
350.61	65.36
350.822	65.36
351.034	-18.6
351.246	-18.6
351.458	110.42
351.669	22.36
351.881	34.64
352.093	46.93
352.305	28.5
352.517	3.93
352.728	81.75
352.94	40.79
353.152	26.45
353.363	-41.13
353.575	-12.46
353.787	-14.51
353.999	98.13
354.21	-14.51
354.422	61.27
354.633	57.17
354.845	34.64
355.057	-69.8
355.268	10.07
355.48	-32.94
355.692	102.23
355.903	28.5
356.115	30.55
356.326	3.93
356.538	-55.47
356.749	77.65
356.961	67.41
357.172	8.02
357.384	28.5
357.595	44.88
357.807	40.79
358.018	98.13
358.23	14.17
358.441	-61.61
358.653	32.6
358.864	34.64
359.075	57.17
359.287	-14.51
359.498	-12.46
359.709	51.03
359.921	42.84
360.132	48.98
360.344	5.97
360.555	-0.17
360.766	20.31
360.977	-12.46
361.189	20.31
361.4	-14.51
361.611	48.98
361.823	63.32
362.034	32.6
362.245	22.36
362.456	28.5
362.667	24.4
362.879	30.55
363.09	5.97
363.301	59.22
363.512	75.6
363.723	14.17
363.935	48.98
364.146	61.27
364.357	32.6
364.568	22.36
364.779	53.08
364.99	20.31
365.201	-6.31
365.412	85.84
365.623	-16.55
365.834	53.08
366.045	-12.46
366.256	61.27
366.467	85.84
366.678	46.93
366.889	26.45
367.1	-30.89
367.311	14.17
367.522	42.84
367.733	32.6
367.944	26.45
368.155	14.17
368.366	-0.17
368.577	20.31
368.788	30.55
368.999	32.6
369.209	1.88
369.42	8.02
369.631	46.93
369.842	44.88
370.053	-28.84
370.264	51.03
370.474	44.88
370.685	14.17
370.896	-0.17
371.107	67.41
371.317	77.65
371.528	3.93
371.739	30.55
371.95	10.07
372.16	24.4
372.371	67.41
372.582	3.93
372.792	34.64
373.003	77.65
373.214	16.21
373.424	34.64
373.635	59.22
373.846	-37.03
374.056	-6.31
374.267	67.41
374.477	51.03
374.688	38.74
374.898	30.55
375.109	20.31
375.319	-0.17
375.53	51.03
375.74	-4.27
375.951	63.32
376.161	63.32
376.372	91.99
376.582	1.88
376.793	48.98
377.003	75.6
377.214	83.8
377.424	81.75
377.635	53.08
377.845	16.21
378.055	44.88
378.266	-14.51
378.476	51.03
378.686	-4.27
378.897	63.32
379.107	3.93
379.317	34.64
379.528	5.97
379.738	42.84
379.948	94.04
380.158	42.84
380.369	-12.46
380.579	28.5
380.789	8.02
380.999	91.99
381.21	12.12
381.42	75.6
381.63	63.32
381.84	124.76
382.05	18.26
382.261	28.5
382.471	16.21
382.681	55.12
382.891	34.64
383.101	-0.17
383.311	69.46
383.521	-6.31
383.731	94.04
383.941	79.7
384.151	10.07
384.361	44.88
384.571	55.12
384.781	-8.36
384.991	-28.84
385.201	53.08
385.411	-10.41
385.621	34.64
385.831	-10.41
386.041	26.45
386.251	48.98
386.461	5.97
386.671	3.93
386.881	28.5
387.091	91.99
387.301	57.17
387.511	18.26
387.72	-24.75
387.93	-4.27
388.14	61.27
388.35	-4.27
388.56	63.32
388.769	10.07
388.979	77.65
389.189	24.4
389.399	67.41
389.609	61.27
389.818	59.22
390.028	-22.7
390.238	151.38
390.447	8.02
390.657	57.17
390.867	1.88
391.076	38.74
391.286	1.88
391.496	61.27
391.705	34.64
391.915	69.46
392.125	53.08
392.334	59.22
392.544	51.03
392.753	87.89
392.963	55.12
393.172	28.5
393.382	51.03
393.591	55.12
393.801	61.27
394.01	100.18
394.22	-2.22
394.429	59.22
394.639	34.64
394.848	63.32
395.058	18.26
395.267	51.03
395.477	22.36
395.686	51.03
395.895	77.65
396.105	106.32
396.314	124.76
396.524	38.74
396.733	3.93
396.942	30.55
397.152	61.27
397.361	91.99
397.57	69.46
397.78	102.23
397.989	116.56
398.198	89.94
398.407	69.46
398.617	14.17
398.826	98.13
399.035	48.98
399.244	53.08
399.453	40.79
399.663	20.31
399.872	44.88
400.081	55.12
400.29	75.6
400.499	1.88
400.708	173.91
400.917	48.98
401.127	98.13
401.336	87.89
401.545	59.22
401.754	94.04
401.963	94.04
402.172	96.08
402.381	57.17
402.59	108.37
402.799	128.85
403.008	30.55
403.217	126.8
403.426	73.56
403.635	73.56
403.844	124.76
404.053	44.88
404.262	85.84
404.471	79.7
404.68	100.18
404.888	85.84
405.097	100.18
405.306	51.03
405.515	106.32
405.724	63.32
405.933	65.36
406.142	151.38
406.35	102.23
406.559	46.93
406.768	139.09
406.977	89.94
407.185	106.32
407.394	163.67
407.603	149.33
407.812	149.33
408.02	122.71
408.229	192.34
408.438	48.98
408.646	192.34
408.855	100.18
409.064	157.52
409.272	126.8
409.481	186.19
409.69	153.43
409.898	151.38
410.107	200.53
410.315	175.95
410.524	245.59
410.733	282.45
410.941	245.59
411.15	198.48
411.358	190.29
411.567	225.11
411.775	171.86
411.984	280.4
412.192	282.45
412.401	206.67
412.609	225.11
412.818	323.41
413.026	253.78
413.234	229.2
413.443	235.35
413.651	309.07
413.86	304.98
414.068	350.03
414.276	352.08
414.485	253.78
414.693	343.89
414.901	399.18
415.11	247.63
415.318	397.14
415.526	446.29
415.734	491.34
415.943	370.51
416.151	477.01
416.359	421.71
416.567	446.29
416.776	532.3
416.984	460.62
417.192	577.36
417.4	477.01
417.608	487.25
417.817	513.87
418.025	599.88
418.233	610.12
418.441	593.74
418.649	556.88
418.857	661.32
419.065	665.42
419.273	657.23
419.481	796.49
419.689	771.91
419.897	804.68
420.105	816.97
420.313	808.78
420.521	829.26
420.729	833.35
420.937	866.12
421.145	919.37
421.353	1003.33
421.561	1025.86
421.769	993.09
421.977	1113.92
422.185	1099.59
422.393	1193.8
422.601	1339.2
422.809	1240.9
423.017	1244.99
423.224	1296.19
423.432	1345.34
423.64	1316.67
423.848	1480.51
424.056	1474.37
424.263	1431.36
424.471	1449.79
424.679	1627.96
424.887	1670.97
425.094	1728.31
425.302	1720.12
425.51	1701.69
425.718	1861.43
425.925	1969.98
426.133	1888.06
426.341	1974.07
426.548	2037.56
426.756	2010.93
426.964	2168.63
427.171	2291.51
427.379	2332.47
427.586	2369.33
427.794	2459.44
428.001	2643.76
428.209	2678.57
428.417	2559.79
428.624	2737.96
428.832	2768.68
429.039	2770.73
429.247	2764.59
429.454	3043.11
429.662	3172.13
429.869	3073.83
430.076	3264.29
430.284	3254.05
430.491	3258.15
430.699	3473.18
430.906	3452.7
431.114	3565.34
431.321	3585.82
431.528	3620.64
431.736	4056.86
431.943	4126.49
432.15	4040.47
432.358	4110.1
432.565	4271.89
432.772	4376.34
432.979	4413.2
433.187	4572.94
433.394	4521.74
433.601	4982.54
433.808	4839.18
434.016	4826.89
434.223	5095.18
434.43	5400.32
434.637	5107.46
434.844	5580.54
435.052	5664.51
435.259	5508.87
435.466	5701.37
435.673	5725.95
435.88	5998.33
436.087	6401.78
436.294	6252.28
436.501	6260.47
436.708	6336.24
436.915	6485.75
437.122	6936.3
437.329	6807.28
437.537	6975.21
437.743	7319.27
437.95	7216.87
438.157	7476.96
438.364	7648.99
438.571	7800.54
438.778	7710.43
438.985	8615.63
439.192	8158.94
439.399	8505.04
439.606	8142.55
439.813	8677.07
440.02	8986.32
440.227	9078.47
440.433	9045.71
440.64	9387.72
440.847	9428.68
441.054	9469.64
441.261	10096.32
441.467	10047.16
441.674	10194.62
441.881	10460.85
442.088	10612.4
442.294	10360.5
442.501	10622.64
442.708	11032.24
442.914	11392.68
443.121	11876
443.328	11577
443.534	12273.31
443.741	11757.22
443.948	11751.07
444.154	12570.26
444.361	12709.52
444.568	12893.84
444.774	12762.77
444.981	12961.42
445.187	13411.98
445.394	13923.97
445.6	13651.59
445.807	14876.27
446.013	14515.83
446.22	14737.01
446.426	15158.89
446.633	15396.46
446.839	15703.65
447.046	15349.36
447.252	16193.12
447.459	16156.25
447.665	16064.1
447.871	16617.05
448.078	17679.94
448.284	16666.2
448.491	17131.09
448.697	17661.51
448.903	18269.76
449.11	18253.37
449.316	17999.43
449.522	18331.2
449.728	18906.68
449.935	18978.36
450.141	19111.47
450.347	19439.15
450.553	18730.55
450.76	18961.97
450.966	19621.42
451.172	19467.82
451.378	19967.52
451.584	19594.79
451.791	19949.09
451.997	19813.93
452.203	20260.38
452.409	20409.89
452.615	20465.18
452.821	19639.85
453.027	19482.16
453.233	20594.2
453.44	19648.04
453.646	20006.44
453.852	19979.81
454.058	20471.32
454.264	19635.75
454.47	19985.96
454.676	19615.27
454.882	20377.12
455.088	18392.64
455.294	18763.32
455.5	19129.91
455.705	19451.44
455.911	18249.28
456.117	18167.36
456.323	17833.54
456.529	17157.71
456.735	17765.96
456.941	17090.13
457.147	17088.08
457.352	16571.99
457.558	16100.96
457.764	16528.99
457.97	15924.83
458.176	15693.41
458.381	15920.74
458.587	14900.85
458.793	15183.47
458.999	14198.4
459.204	15345.26
459.41	14724.72
459.616	13805.19
459.821	13796.99
460.027	13557.38
460.233	13657.73
460.438	12658.32
460.644	12930.7
460.85	12371.61
461.055	12142.24
461.261	12095.13
461.466	11321
461.672	10876.59
461.878	11601.57
462.083	10864.3
462.289	10811.06
462.494	10442.42
462.7	10284.73
462.905	9758.4
463.111	10106.56
463.316	10159.8
463.522	9889.47
463.727	10165.95
463.932	9961.15
464.138	9813.7
464.343	9926.33
464.549	9479.88
464.754	9998.01
464.959	9756.35
465.165	9895.61
465.37	9426.63
465.575	9144.01
465.781	9629.38
465.986	9662.15
466.191	9131.72
466.397	9072.33
466.602	8554.19
466.807	9025.23
467.012	9033.42
467.218	8677.07
467.423	8853.2
467.628	8789.71
467.833	9402.05
468.038	8851.15
468.244	8650.45
468.449	9000.65
468.654	8646.35
468.859	8689.36
