Data from USB4F104151__11__12-58-27-660.txt Node

Date: Fri Mar 14 12:58:27 EDT 2025
User: louis
Spectrometer: USB4F10415
Trigger mode: 4
Integration Time (sec): 1.000000E-2
Scans to average: 1
Electric dark correction enabled: true
Nonlinearity correction enabled: false
Boxcar width: 0
XAxis mode: Wavelengths
Number of Pixels in Spectrum: 3648
>>>>>Begin Spectral Data<<<<<
178.204	-0.85
178.424	-0.85
178.644	-0.85
178.864	17.58
179.084	-4.95
179.304	44.2
179.524	3.24
179.744	-7
179.964	7.34
180.184	-58.2
180.404	23.72
180.624	-19.29
180.844	29.87
181.064	3.24
181.283	-33.62
181.503	-29.52
181.723	36.01
181.943	27.82
182.163	85.16
182.383	-33.62
182.602	-17.24
182.822	-9.05
183.042	-33.62
183.262	1.19
183.482	-37.72
183.701	-39.76
183.921	1.19
184.141	-21.33
184.361	21.67
184.58	-7
184.8	97.45
185.02	38.06
185.239	15.53
185.459	40.11
185.679	68.78
185.898	9.39
186.118	5.29
186.338	42.15
186.557	40.11
186.777	3.24
186.997	-45.91
187.216	-25.43
187.436	-7
187.655	58.54
187.875	48.3
188.095	-21.33
188.314	15.53
188.534	58.54
188.753	25.77
188.973	40.11
189.192	23.72
189.412	15.53
189.631	48.3
189.851	7.34
190.07	56.49
190.29	25.77
190.509	-50
190.729	-52.05
190.948	23.72
191.168	93.35
191.387	70.83
191.607	36.01
191.826	72.87
192.045	5.29
192.265	56.49
192.484	15.53
192.704	15.53
192.923	5.29
193.142	76.97
193.362	60.59
193.581	3.24
193.8	27.82
194.02	81.07
194.239	11.43
194.458	19.63
194.678	70.83
194.897	60.59
195.116	13.48
195.335	-21.33
195.555	81.07
195.774	42.15
195.993	81.07
196.212	33.96
196.432	17.58
196.651	25.77
196.87	3.24
197.089	76.97
197.308	46.25
197.528	-15.19
197.747	19.63
197.966	27.82
198.185	31.91
198.404	99.5
198.623	103.59
198.842	27.82
199.062	13.48
199.281	19.63
199.5	52.39
199.719	42.15
199.938	23.72
200.157	-11.09
200.376	-11.09
200.595	42.15
200.814	-17.24
201.033	31.91
201.252	3.24
201.471	76.97
201.69	17.58
201.909	33.96
202.128	25.77
202.347	54.44
202.566	-56.15
202.785	25.77
203.004	-19.29
203.223	130.22
203.442	48.3
203.661	31.91
203.879	36.01
204.098	91.31
204.317	-4.95
204.536	5.29
204.755	-31.57
204.974	85.16
205.193	-17.24
205.411	27.82
205.63	48.3
205.849	23.72
206.068	111.78
206.287	17.58
206.505	40.11
206.724	15.53
206.943	19.63
207.162	68.78
207.381	95.4
207.599	23.72
207.818	81.07
208.037	-13.14
208.255	33.96
208.474	-41.81
208.693	-9.05
208.911	62.63
209.13	46.25
209.349	31.91
209.567	79.02
209.786	-15.19
210.005	44.2
210.223	36.01
210.442	83.11
210.661	44.2
210.879	48.3
211.098	25.77
211.316	7.34
211.535	17.58
211.753	76.97
211.972	56.49
212.191	-0.85
212.409	9.39
212.628	25.77
212.846	-0.85
213.065	15.53
213.283	109.74
213.502	38.06
213.72	21.67
213.938	93.35
214.157	46.25
214.375	76.97
214.594	25.77
214.812	1.19
215.031	27.82
215.249	48.3
215.467	115.88
215.686	38.06
215.904	97.45
216.122	-31.57
216.341	70.83
216.559	-25.43
216.778	58.54
216.996	48.3
217.214	52.39
217.432	42.15
217.651	33.96
217.869	1.19
218.087	74.92
218.306	13.48
218.524	44.2
218.742	-4.95
218.96	-7
219.179	5.29
219.397	29.87
219.615	-4.95
219.833	17.58
220.051	-19.29
220.27	50.35
220.488	60.59
220.706	56.49
220.924	21.67
221.142	3.24
221.36	42.15
221.578	9.39
221.796	113.83
222.015	60.59
222.233	72.87
222.451	60.59
222.669	-4.95
222.887	62.63
223.105	11.43
223.323	76.97
223.541	62.63
223.759	115.88
223.977	58.54
224.195	42.15
224.413	83.11
224.631	62.63
224.849	-29.52
225.067	54.44
225.285	-7
225.503	-21.33
225.721	56.49
225.939	-4.95
226.157	25.77
226.375	17.58
226.592	13.48
226.81	23.72
227.028	17.58
227.246	70.83
227.464	64.68
227.682	9.39
227.9	-13.14
228.117	44.2
228.335	3.24
228.553	17.58
228.771	3.24
228.989	27.82
229.206	-9.05
229.424	62.63
229.642	46.25
229.86	40.11
230.077	72.87
230.295	31.91
230.513	36.01
230.731	52.39
230.948	46.25
231.166	44.2
231.384	52.39
231.601	36.01
231.819	46.25
232.037	-17.24
232.254	11.43
232.472	-9.05
232.689	1.19
232.907	60.59
233.125	3.24
233.342	56.49
233.56	50.35
233.777	19.63
233.995	-15.19
234.213	-23.38
234.43	19.63
234.648	42.15
234.865	-25.43
235.083	81.07
235.3	33.96
235.518	25.77
235.735	68.78
235.953	52.39
236.17	38.06
236.388	40.11
236.605	-15.19
236.822	36.01
237.04	48.3
237.257	60.59
237.475	25.77
237.692	29.87
237.909	31.91
238.127	72.87
238.344	19.63
238.562	46.25
238.779	52.39
238.996	17.58
239.214	40.11
239.431	33.96
239.648	66.73
239.865	52.39
240.083	31.91
240.3	17.58
240.517	23.72
240.735	64.68
240.952	-4.95
241.169	38.06
241.386	56.49
241.603	60.59
241.821	33.96
242.038	23.72
242.255	33.96
242.472	23.72
242.689	11.43
242.907	31.91
243.124	42.15
243.341	9.39
243.558	66.73
243.775	42.15
243.992	42.15
244.209	48.3
244.426	36.01
244.643	15.53
244.86	50.35
245.078	-0.85
245.295	50.35
245.512	62.63
245.729	44.2
245.946	70.83
246.163	62.63
246.38	13.48
246.597	5.29
246.814	-13.14
247.031	79.02
247.248	25.77
247.464	40.11
247.681	38.06
247.898	52.39
248.115	64.68
248.332	85.16
248.549	13.48
248.766	44.2
248.983	-0.85
249.2	72.87
249.417	115.88
249.633	31.91
249.85	44.2
250.067	40.11
250.284	81.07
250.501	36.01
250.717	36.01
250.934	21.67
251.151	5.29
251.368	36.01
251.585	36.01
251.801	25.77
252.018	25.77
252.235	52.39
252.451	89.26
252.668	-4.95
252.885	62.63
253.102	15.53
253.318	29.87
253.535	-31.57
253.752	-0.85
253.968	7.34
254.185	1.19
254.401	7.34
254.618	76.97
254.835	46.25
255.051	74.92
255.268	31.91
255.484	48.3
255.701	91.31
255.917	95.4
256.134	48.3
256.351	74.92
256.567	13.48
256.784	64.68
257	23.72
257.217	-33.62
257.433	-13.14
257.65	54.44
257.866	56.49
258.082	72.87
258.299	38.06
258.515	70.83
258.732	27.82
258.948	15.53
259.165	-15.19
259.381	83.11
259.597	60.59
259.814	-17.24
260.03	13.48
260.246	23.72
260.463	81.07
260.679	62.63
260.895	74.92
261.112	-37.72
261.328	93.35
261.544	126.12
261.761	-9.05
261.977	-25.43
262.193	-2.9
262.409	9.39
262.626	79.02
262.842	1.19
263.058	9.39
263.274	17.58
263.49	31.91
263.707	40.11
263.923	46.25
264.139	-62.29
264.355	-7
264.571	42.15
264.787	11.43
265.004	48.3
265.22	46.25
265.436	62.63
265.652	52.39
265.868	29.87
266.084	7.34
266.3	23.72
266.516	42.15
266.732	-15.19
266.948	48.3
267.164	97.45
267.38	48.3
267.596	-39.76
267.812	85.16
268.028	62.63
268.244	11.43
268.46	9.39
268.676	-15.19
268.892	44.2
269.108	-4.95
269.324	7.34
269.54	11.43
269.756	76.97
269.972	48.3
270.188	-37.72
270.403	5.29
270.619	66.73
270.835	7.34
271.051	31.91
271.267	36.01
271.483	36.01
271.698	29.87
271.914	48.3
272.13	60.59
272.346	109.74
272.562	66.73
272.777	54.44
272.993	33.96
273.209	1.19
273.425	60.59
273.64	27.82
273.856	74.92
274.072	36.01
274.287	-11.09
274.503	81.07
274.719	60.59
274.934	85.16
275.15	27.82
275.366	-15.19
275.581	54.44
275.797	-39.76
276.012	-9.05
276.228	56.49
276.444	122.02
276.659	50.35
276.875	33.96
277.09	85.16
277.306	85.16
277.521	33.96
277.737	3.24
277.952	117.93
278.168	15.53
278.383	113.83
278.599	-19.29
278.814	13.48
279.03	85.16
279.245	56.49
279.461	33.96
279.676	11.43
279.892	62.63
280.107	46.25
280.322	66.73
280.538	5.29
280.753	44.2
280.969	44.2
281.184	68.78
281.399	58.54
281.615	40.11
281.83	56.49
282.045	58.54
282.26	56.49
282.476	13.48
282.691	40.11
282.906	31.91
283.122	64.68
283.337	79.02
283.552	31.91
283.767	56.49
283.983	21.67
284.198	85.16
284.413	97.45
284.628	62.63
284.843	60.59
285.058	-11.09
285.274	48.3
285.489	31.91
285.704	-2.9
285.919	-58.2
286.134	36.01
286.349	-17.24
286.564	48.3
286.779	7.34
286.995	17.58
287.21	36.01
287.425	7.34
287.64	29.87
287.855	44.2
288.07	38.06
288.285	-4.95
288.5	81.07
288.715	85.16
288.93	97.45
289.145	-0.85
289.36	7.34
289.575	83.11
289.79	74.92
290.004	72.87
290.219	-29.52
290.434	-97.11
290.649	11.43
290.864	-0.85
291.079	48.3
291.294	36.01
291.509	31.91
291.724	31.91
291.938	-35.67
292.153	76.97
292.368	-25.43
292.583	105.64
292.798	58.54
293.012	-41.81
293.227	29.87
293.442	21.67
293.657	-35.67
293.871	19.63
294.086	9.39
294.301	56.49
294.516	-13.14
294.73	3.24
294.945	36.01
295.16	97.45
295.374	21.67
295.589	44.2
295.804	70.83
296.018	-9.05
296.233	-4.95
296.447	105.64
296.662	76.97
296.877	60.59
297.091	58.54
297.306	52.39
297.52	62.63
297.735	21.67
297.949	56.49
298.164	21.67
298.378	-47.96
298.593	40.11
298.807	5.29
299.022	38.06
299.236	38.06
299.451	27.82
299.665	36.01
299.88	15.53
300.094	13.48
300.309	-4.95
300.523	85.16
300.737	31.91
300.952	64.68
301.166	-13.14
301.381	-7
301.595	11.43
301.809	76.97
302.024	62.63
302.238	15.53
302.452	66.73
302.667	54.44
302.881	89.26
303.095	1.19
303.309	62.63
303.524	25.77
303.738	15.53
303.952	17.58
304.166	91.31
304.381	-17.24
304.595	27.82
304.809	21.67
305.023	109.74
305.237	72.87
305.452	56.49
305.666	62.63
305.88	21.67
306.094	40.11
306.308	17.58
306.522	36.01
306.736	25.77
306.95	81.07
307.164	40.11
307.379	-25.43
307.593	81.07
307.807	1.19
308.021	3.24
308.235	81.07
308.449	-33.62
308.663	105.64
308.877	91.31
309.091	-7
309.305	36.01
309.519	-33.62
309.733	11.43
309.947	38.06
310.161	109.74
310.374	13.48
310.588	48.3
310.802	-41.81
311.016	-9.05
311.23	29.87
311.444	29.87
311.658	40.11
311.872	9.39
312.085	52.39
312.299	50.35
312.513	33.96
312.727	99.5
312.941	60.59
313.154	42.15
313.368	27.82
313.582	74.92
313.796	-4.95
314.009	36.01
314.223	11.43
314.437	97.45
314.651	-7
314.864	58.54
315.078	29.87
315.292	17.58
315.505	23.72
315.719	9.39
315.933	42.15
316.146	38.06
316.36	-17.24
316.573	-0.85
316.787	33.96
317.001	91.31
317.214	48.3
317.428	-9.05
317.641	66.73
317.855	-19.29
318.068	50.35
318.282	-0.85
318.495	36.01
318.709	-19.29
318.922	15.53
319.136	107.69
319.349	46.25
319.563	87.21
319.776	101.55
319.99	31.91
320.203	40.11
320.417	-45.91
320.63	76.97
320.843	105.64
321.057	21.67
321.27	58.54
321.483	48.3
321.697	107.69
321.91	-2.9
322.124	58.54
322.337	126.12
322.55	29.87
322.763	23.72
322.977	50.35
323.19	36.01
323.403	19.63
323.617	91.31
323.83	50.35
324.043	13.48
324.256	31.91
324.469	54.44
324.683	85.16
324.896	-29.52
325.109	56.49
325.322	46.25
325.535	52.39
325.748	-0.85
325.962	3.24
326.175	25.77
326.388	23.72
326.601	91.31
326.814	-31.57
327.027	46.25
327.24	93.35
327.453	36.01
327.666	-25.43
327.879	56.49
328.092	33.96
328.305	-0.85
328.518	111.78
328.731	-47.96
328.944	81.07
329.157	44.2
329.37	11.43
329.583	85.16
329.796	-52.05
330.009	42.15
330.222	29.87
330.435	99.5
330.648	19.63
330.861	62.63
331.073	11.43
331.286	68.78
331.499	44.2
331.712	38.06
331.925	13.48
332.138	48.3
332.35	68.78
332.563	11.43
332.776	-29.52
332.989	-13.14
333.202	60.59
333.414	46.25
333.627	113.83
333.84	36.01
334.053	27.82
334.265	62.63
334.478	89.26
334.691	23.72
334.903	48.3
335.116	-21.33
335.329	31.91
335.541	-27.48
335.754	85.16
335.966	64.68
336.179	42.15
336.392	91.31
336.604	-66.39
336.817	66.73
337.029	36.01
337.242	-52.05
337.454	111.78
337.667	-9.05
337.88	33.96
338.092	58.54
338.305	119.98
338.517	-11.09
338.729	83.11
338.942	38.06
339.154	85.16
339.367	9.39
339.579	66.73
339.792	27.82
340.004	25.77
340.217	40.11
340.429	-15.19
340.641	17.58
340.854	66.73
341.066	44.2
341.278	68.78
341.491	33.96
341.703	29.87
341.915	60.59
342.128	64.68
342.34	48.3
342.552	93.35
342.764	7.34
342.977	81.07
343.189	-9.05
343.401	48.3
343.613	33.96
343.826	81.07
344.038	33.96
344.25	25.77
344.462	58.54
344.674	-4.95
344.886	44.2
345.099	64.68
345.311	-21.33
345.523	87.21
345.735	40.11
345.947	83.11
346.159	-25.43
346.371	97.45
346.583	52.39
346.795	70.83
347.007	66.73
347.219	27.82
347.431	66.73
347.643	89.26
347.855	25.77
348.067	17.58
348.279	13.48
348.491	31.91
348.703	-11.09
348.915	13.48
349.127	52.39
349.339	15.53
349.551	23.72
349.763	56.49
349.975	56.49
350.187	-4.95
350.399	13.48
350.61	33.96
350.822	7.34
351.034	66.73
351.246	27.82
351.458	83.11
351.669	-29.52
351.881	130.22
352.093	42.15
352.305	23.72
352.517	58.54
352.728	50.35
352.94	33.96
353.152	64.68
353.363	9.39
353.575	81.07
353.787	19.63
353.999	50.35
354.21	40.11
354.422	64.68
354.633	31.91
354.845	64.68
355.057	-31.57
355.268	52.39
355.48	87.21
355.692	56.49
355.903	48.3
356.115	64.68
356.326	-13.14
356.538	-11.09
356.749	44.2
356.961	42.15
357.172	60.59
357.384	27.82
357.595	46.25
357.807	50.35
358.018	81.07
358.23	-17.24
358.441	42.15
358.653	89.26
358.864	5.29
359.075	52.39
359.287	21.67
359.498	70.83
359.709	-4.95
359.921	66.73
360.132	17.58
360.344	40.11
360.555	-33.62
360.766	50.35
360.977	-31.57
361.189	1.19
361.4	68.78
361.611	50.35
361.823	46.25
362.034	87.21
362.245	60.59
362.456	15.53
362.667	40.11
362.879	83.11
363.09	95.4
363.301	46.25
363.512	64.68
363.723	13.48
363.935	-25.43
364.146	109.74
364.357	54.44
364.568	33.96
364.779	64.68
364.99	52.39
365.201	-27.48
365.412	72.87
365.623	3.24
365.834	36.01
366.045	64.68
366.256	72.87
366.467	46.25
366.678	38.06
366.889	-13.14
367.1	1.19
367.311	52.39
367.522	36.01
367.733	-21.33
367.944	70.83
368.155	44.2
368.366	154.79
368.577	23.72
368.788	117.93
368.999	79.02
369.209	42.15
369.42	89.26
369.631	132.26
369.842	68.78
370.053	58.54
370.264	38.06
370.474	81.07
370.685	25.77
370.896	23.72
371.107	83.11
371.317	29.87
371.528	58.54
371.739	140.46
371.95	81.07
372.16	132.26
372.371	95.4
372.582	36.01
372.792	33.96
373.003	74.92
373.214	64.68
373.424	91.31
373.635	7.34
373.846	91.31
374.056	56.49
374.267	56.49
374.477	76.97
374.688	-9.05
374.898	17.58
375.109	109.74
375.319	25.77
375.53	15.53
375.74	54.44
375.951	11.43
376.161	56.49
376.372	70.83
376.582	60.59
376.793	156.84
377.003	25.77
377.214	29.87
377.424	62.63
377.635	25.77
377.845	33.96
378.055	15.53
378.266	154.79
378.476	33.96
378.686	-13.14
378.897	31.91
379.107	-7
379.317	13.48
379.528	19.63
379.738	33.96
379.948	9.39
380.158	76.97
380.369	83.11
380.579	64.68
380.789	23.72
380.999	87.21
381.21	89.26
381.42	171.18
381.63	99.5
381.84	81.07
382.05	29.87
382.261	95.4
382.471	-7
382.681	42.15
382.891	54.44
383.101	48.3
383.311	25.77
383.521	-9.05
383.731	44.2
383.941	52.39
384.151	101.55
384.361	68.78
384.571	40.11
384.781	76.97
384.991	99.5
385.201	-31.57
385.411	56.49
385.621	7.34
385.831	64.68
386.041	89.26
386.251	48.3
386.461	7.34
386.671	56.49
386.881	83.11
387.091	48.3
387.301	-9.05
387.511	97.45
387.72	70.83
387.93	-2.9
388.14	99.5
388.35	11.43
388.56	115.88
388.769	25.77
388.979	-21.33
389.189	44.2
389.399	81.07
389.609	1.19
389.818	46.25
390.028	15.53
390.238	31.91
390.447	76.97
390.657	79.02
390.867	68.78
391.076	40.11
391.286	101.55
391.496	44.2
391.705	44.2
391.915	-23.38
392.125	76.97
392.334	50.35
392.544	60.59
392.753	117.93
392.963	40.11
393.172	95.4
393.382	38.06
393.591	148.65
393.801	126.12
394.01	97.45
394.22	54.44
394.429	42.15
394.639	50.35
394.848	46.25
395.058	54.44
395.267	85.16
395.477	89.26
395.686	36.01
395.895	93.35
396.105	-9.05
396.314	58.54
396.524	62.63
396.733	42.15
396.942	72.87
397.152	62.63
397.361	58.54
397.57	79.02
397.78	56.49
397.989	95.4
398.198	72.87
398.407	87.21
398.617	62.63
398.826	87.21
399.035	122.02
399.244	97.45
399.453	154.79
399.663	97.45
399.872	85.16
400.081	91.31
400.29	81.07
400.499	72.87
400.708	91.31
400.917	27.82
401.127	99.5
401.336	72.87
401.545	79.02
401.754	40.11
401.963	31.91
402.172	70.83
402.381	81.07
402.59	89.26
402.799	95.4
403.008	113.83
403.217	66.73
403.426	50.35
403.635	171.18
403.844	87.21
404.053	138.41
404.262	111.78
404.471	142.5
404.68	111.78
404.888	76.97
405.097	103.59
405.306	126.12
405.515	132.26
405.724	101.55
405.933	111.78
406.142	124.07
406.35	101.55
406.559	54.44
406.768	113.83
406.977	134.31
407.185	107.69
407.394	126.12
407.603	81.07
407.812	150.7
408.02	257.19
408.229	167.08
408.438	203.94
408.646	152.74
408.855	160.94
409.064	220.33
409.272	128.17
409.481	124.07
409.69	181.42
409.898	218.28
410.107	218.28
410.315	228.52
410.524	234.66
410.733	246.95
410.941	292.01
411.15	203.94
411.358	253.09
411.567	253.09
411.775	236.71
411.984	302.25
412.192	246.95
412.401	244.9
412.609	285.86
412.818	300.2
413.026	271.53
413.234	341.16
413.443	304.29
413.651	337.06
413.86	304.29
414.068	361.64
414.276	437.41
414.485	457.89
414.693	425.12
414.901	429.22
415.11	406.69
415.318	425.12
415.526	439.46
415.734	570.53
415.943	511.14
416.151	480.42
416.359	486.56
416.567	552.1
416.776	550.05
416.984	591.01
417.192	582.82
417.4	670.88
417.608	572.58
417.817	672.93
418.025	662.69
418.233	799.9
418.441	656.54
418.649	724.13
418.857	779.42
419.065	744.61
419.273	771.23
419.481	820.38
419.689	926.88
419.897	894.11
420.105	904.35
420.313	916.64
420.521	951.45
420.729	992.41
420.937	982.17
421.145	1078.43
421.353	1184.92
421.561	1148.06
421.769	1193.11
421.977	1252.5
422.185	1156.25
422.393	1408.15
422.601	1359
422.809	1262.74
423.017	1412.25
423.224	1449.11
423.432	1621.14
423.64	1471.64
423.848	1631.38
424.056	1553.55
424.263	1658
424.471	1641.62
424.679	1690.77
424.887	1830.03
425.094	1901.71
425.302	1950.86
425.51	2020.49
425.718	2000.01
425.925	2190.47
426.133	2190.47
426.341	2221.19
426.548	2360.45
426.756	2272.39
426.964	2419.85
427.171	2536.58
427.379	2503.81
427.586	2710.66
427.794	2712.71
428.001	2729.09
428.209	2876.54
428.417	2993.28
428.624	3079.29
428.832	3177.59
429.039	3079.29
429.247	3114.11
429.454	3341.43
429.662	3609.72
429.869	3411.06
430.076	3593.33
430.284	3611.76
430.491	3640.44
430.699	3857.52
430.906	3867.76
431.114	3921.01
431.321	4101.23
431.528	4293.74
431.736	4490.34
431.943	4680.8
432.15	4523.11
432.358	4545.64
432.565	4818.02
432.772	4719.71
432.979	5123.16
433.187	5141.6
433.394	5127.26
433.601	5504.09
433.808	5383.26
434.016	5467.22
434.223	5614.68
434.43	6026.32
434.637	5852.24
434.844	6151.24
435.052	6315.08
435.259	6401.1
435.466	6491.21
435.673	6376.52
435.88	6960.19
436.087	7109.69
436.294	7142.46
436.501	7021.63
436.708	7103.55
436.915	7359.55
437.122	7650.36
437.329	7662.65
437.537	7769.14
437.743	7953.46
437.95	8047.66
438.157	8354.86
438.364	8707.11
438.571	8774.69
438.778	8762.4
438.985	9468.95
439.192	9135.14
439.399	9425.95
439.606	9233.44
439.813	9667.61
440.02	10439.69
440.227	10333.2
440.433	10224.65
440.64	10474.51
440.847	10368.01
441.054	10722.31
441.261	11346.94
441.467	11222.02
441.674	11422.72
441.881	11895.8
442.088	11762.68
442.294	11715.58
442.501	12041.2
442.708	12221.42
442.914	12770.28
443.121	13431.77
443.328	13005.8
443.534	14099.41
443.741	13573.08
443.948	13448.16
444.154	14285.78
444.361	14322.64
444.568	14384.08
444.774	14355.41
444.981	14408.65
445.187	14805.96
445.394	15522.75
445.6	15154.12
445.807	16911.27
446.013	16022.45
446.22	16354.23
446.426	17032.1
446.633	17146.79
446.839	17589.15
447.046	16997.29
447.252	18107.29
447.459	18168.73
447.665	18152.34
447.871	19016.58
448.078	19766.14
448.284	18799.5
448.491	19149.7
448.697	19893.12
448.903	20372.34
449.11	20601.71
449.316	20249.46
449.522	20296.56
449.728	20769.65
449.935	21203.82
450.141	21353.32
450.347	21818.21
450.553	21115.75
450.76	21381.99
450.966	22000.47
451.172	21781.34
451.378	22446.93
451.584	21883.74
451.791	22162.26
451.997	22514.52
452.203	22721.36
452.409	23065.42
452.615	22807.37
452.821	21881.69
453.027	21877.6
453.233	22834
453.44	21783.39
453.646	22461.27
453.852	22451.03
454.058	22838.09
454.264	22184.79
454.47	22473.56
454.676	22059.87
454.882	22743.89
455.088	20826.99
455.294	21111.66
455.5	21293.93
455.705	21652.32
455.911	20835.18
456.117	20222.84
456.323	20192.12
456.529	19053.45
456.735	19829.63
456.941	19555.2
457.147	19215.24
457.352	18275.22
457.558	18275.22
457.764	18371.47
457.97	17933.21
458.176	17318.82
458.381	17544.09
458.587	16896.94
458.793	17136.55
458.999	15897.53
459.204	17058.73
459.41	16495.53
459.616	15346.62
459.821	15520.7
460.027	15420.35
460.233	15129.54
460.438	14369.74
460.644	14502.86
460.85	13841.37
461.055	13546.46
461.261	13628.38
461.466	12487.66
461.672	12123.12
461.878	13265.89
462.083	12219.38
462.289	11860.98
462.494	11951.09
462.7	11473.92
462.905	11070.47
463.111	11559.93
463.316	11531.26
463.522	11062.27
463.727	11115.52
463.932	11185.15
464.138	11125.76
464.343	11072.51
464.549	10722.31
464.754	11240.45
464.959	11230.21
465.165	10851.33
465.37	10597.38
465.575	10245.13
465.781	10689.54
465.986	10619.91
466.191	10259.47
466.397	10116.11
466.602	9628.7
466.807	10103.82
467.012	10056.72
467.218	9991.19
467.423	9907.22
467.628	9690.13
467.833	10255.37
468.038	9937.94
468.244	9669.66
468.449	10052.63
468.654	9673.75
468.859	9694.23
469.064	9595.93
