Data from USB4F104151__75__12-59-41-362.txt Node

Date: Fri Mar 14 12:59:41 EDT 2025
User: louis
Spectrometer: USB4F10415
Trigger mode: 4
Integration Time (sec): 1.000000E-2
Scans to average: 1
Electric dark correction enabled: true
Nonlinearity correction enabled: false
Boxcar width: 0
XAxis mode: Wavelengths
Number of Pixels in Spectrum: 3648
>>>>>Begin Spectral Data<<<<<
178.204	-5.29
178.424	-5.29
178.644	-5.29
178.864	-132.26
179.084	-21.67
179.304	-17.58
179.524	19.29
179.744	0.85
179.964	82.77
180.184	-103.59
180.404	29.52
180.624	-3.24
180.844	35.67
181.064	15.19
181.283	13.14
181.503	-62.63
181.723	-9.39
181.943	-31.91
182.163	21.33
182.383	-23.72
182.602	33.62
182.822	-40.11
183.042	-46.25
183.262	-70.83
183.482	-7.34
183.701	-44.2
183.921	-21.67
184.141	-40.11
184.361	-74.92
184.58	19.29
184.8	-27.82
185.02	-21.67
185.239	-79.02
185.459	-17.58
185.679	-36.01
185.898	-58.54
186.118	-11.43
186.338	0.85
186.557	-17.58
186.777	-21.67
186.997	-52.39
187.216	-19.63
187.436	4.95
187.655	-40.11
187.875	-58.54
188.095	-62.63
188.314	-7.34
188.534	-3.24
188.753	-5.29
188.973	-31.91
189.192	-44.2
189.412	-9.39
189.631	23.38
189.851	-68.78
190.07	23.38
190.29	-19.63
190.509	39.76
190.729	-17.58
190.948	-76.97
191.168	-25.77
191.387	17.24
191.607	-117.93
191.826	-13.48
192.045	-56.49
192.265	-15.53
192.484	-1.19
192.704	62.29
192.923	-7.34
193.142	-1.19
193.362	-33.96
193.581	-79.02
193.8	-85.16
194.02	-58.54
194.239	15.19
194.458	13.14
194.678	23.38
194.897	-91.31
195.116	-11.43
195.335	-17.58
195.555	-31.91
195.774	-3.24
195.993	7
196.212	25.43
196.432	-15.53
196.651	-27.82
196.87	11.09
197.089	-27.82
197.308	-29.87
197.528	-11.43
197.747	-7.34
197.966	11.09
198.185	27.48
198.404	-66.73
198.623	0.85
198.842	-23.72
199.062	29.52
199.281	-1.19
199.5	-50.35
199.719	9.05
199.938	52.05
200.157	52.05
200.376	-66.73
200.595	-48.3
200.814	-76.97
201.033	-38.06
201.252	-19.63
201.471	-31.91
201.69	-58.54
201.909	56.15
202.128	37.72
202.347	21.33
202.566	-1.19
202.785	-25.77
203.004	11.09
203.223	17.24
203.442	-31.91
203.661	7
203.879	-27.82
204.098	41.81
204.317	-64.68
204.536	25.43
204.755	-85.16
204.974	-9.39
205.193	-7.34
205.411	-19.63
205.63	2.9
205.849	-74.92
206.068	43.86
206.287	-3.24
206.505	-13.48
206.724	-11.43
206.943	-1.19
207.162	-44.2
207.381	-40.11
207.599	-54.44
207.818	-3.24
208.037	23.38
208.255	47.96
208.474	-23.72
208.693	-70.83
208.911	-19.63
209.13	19.29
209.349	17.24
209.567	-17.58
209.786	37.72
210.005	-15.53
210.223	29.52
210.442	-3.24
210.661	35.67
210.879	-29.87
211.098	-56.49
211.316	35.67
211.535	-17.58
211.753	-23.72
211.972	-21.67
212.191	-72.87
212.409	-81.07
212.628	-105.64
212.846	15.19
213.065	17.24
213.283	7
213.502	29.52
213.72	4.95
213.938	0.85
214.157	-60.59
214.375	-31.91
214.594	-42.15
214.812	82.77
215.031	11.09
215.249	-25.77
215.467	-27.82
215.686	4.95
215.904	2.9
216.122	-11.43
216.341	-21.67
216.559	-48.3
216.778	4.95
216.996	13.14
217.214	35.67
217.432	4.95
217.651	29.52
217.869	4.95
218.087	7
218.306	-42.15
218.524	11.09
218.742	-15.53
218.96	21.33
219.179	-33.96
219.397	33.62
219.615	-3.24
219.833	-33.96
220.051	-99.5
220.27	2.9
220.488	-36.01
220.706	62.29
220.924	-52.39
221.142	-7.34
221.36	-48.3
221.578	-56.49
221.796	-42.15
222.015	13.14
222.233	-44.2
222.451	4.95
222.669	-27.82
222.887	-11.43
223.105	54.1
223.323	-66.73
223.541	21.33
223.759	4.95
223.977	-50.35
224.195	-42.15
224.413	13.14
224.631	-23.72
224.849	-33.96
225.067	4.95
225.285	-13.48
225.503	-15.53
225.721	-68.78
225.939	-42.15
226.157	29.52
226.375	-3.24
226.592	52.05
226.81	-1.19
227.028	31.57
227.246	13.14
227.464	52.05
227.682	-60.59
227.9	-36.01
228.117	-42.15
228.335	0.85
228.553	4.95
228.771	37.72
228.989	13.14
229.206	-56.49
229.424	-23.72
229.642	17.24
229.86	-1.19
230.077	-27.82
230.295	-3.24
230.513	-11.43
230.731	-9.39
230.948	-13.48
231.166	-23.72
231.384	-29.87
231.601	35.67
231.819	-3.24
232.037	7
232.254	-97.45
232.472	-13.48
232.689	-25.77
232.907	29.52
233.125	2.9
233.342	-3.24
233.56	-58.54
233.777	-1.19
233.995	13.14
234.213	45.91
234.43	-40.11
234.648	-46.25
234.865	-23.72
235.083	-58.54
235.3	-27.82
235.518	29.52
235.735	-15.53
235.953	-9.39
236.17	-1.19
236.388	9.05
236.605	2.9
236.822	-83.11
237.04	7
237.257	-9.39
237.475	-7.34
237.692	-38.06
237.909	-11.43
238.127	-60.59
238.344	23.38
238.562	31.57
238.779	2.9
238.996	-15.53
239.214	-56.49
239.431	-19.63
239.648	-17.58
239.865	29.52
240.083	-81.07
240.3	-21.67
240.517	9.05
240.735	-29.87
240.952	27.48
241.169	-40.11
241.386	-9.39
241.603	21.33
241.821	-11.43
242.038	37.72
242.255	9.05
242.472	-23.72
242.689	-29.87
242.907	17.24
243.124	-60.59
243.341	56.15
243.558	-33.96
243.775	-33.96
243.992	-5.29
244.209	-9.39
244.426	-64.68
244.643	-19.63
244.86	-46.25
245.078	37.72
245.295	0.85
245.512	-25.77
245.729	-54.44
245.946	2.9
246.163	15.19
246.38	-29.87
246.597	-36.01
246.814	-9.39
247.031	62.29
247.248	37.72
247.464	-17.58
247.681	-5.29
247.898	-19.63
248.115	-3.24
248.332	-5.29
248.549	-27.82
248.766	-3.24
248.983	-7.34
249.2	-3.24
249.417	50
249.633	0.85
249.85	19.29
250.067	-31.91
250.284	-3.24
250.501	33.62
250.717	-1.19
250.934	70.48
251.151	-19.63
251.368	-27.82
251.585	21.33
251.801	27.48
252.018	25.43
252.235	-5.29
252.451	-38.06
252.668	0.85
252.885	23.38
253.102	-99.5
253.318	-42.15
253.535	39.76
253.752	90.96
253.968	54.1
254.185	13.14
254.401	7
254.618	0.85
254.835	-36.01
255.051	-36.01
255.268	-50.35
255.484	-9.39
255.701	17.24
255.917	2.9
256.134	-27.82
256.351	29.52
256.567	-19.63
256.784	39.76
257	-56.49
257.217	-42.15
257.433	-72.87
257.65	27.48
257.866	29.52
258.082	-83.11
258.299	-44.2
258.515	43.86
258.732	9.05
258.948	-21.67
259.165	27.48
259.381	-68.78
259.597	-50.35
259.814	-36.01
260.03	-19.63
260.246	-3.24
260.463	25.43
260.679	29.52
260.895	-13.48
261.112	-25.77
261.328	-1.19
261.544	-68.78
261.761	-48.3
261.977	25.43
262.193	-38.06
262.409	45.91
262.626	-3.24
262.842	29.52
263.058	-23.72
263.274	60.24
263.49	-50.35
263.707	54.1
263.923	-3.24
264.139	-52.39
264.355	-31.91
264.571	-7.34
264.787	-60.59
265.004	68.44
265.22	-56.49
265.436	27.48
265.652	-17.58
265.868	-52.39
266.084	2.9
266.3	56.15
266.516	-42.15
266.732	23.38
266.948	-40.11
267.164	-3.24
267.38	27.48
267.596	-66.73
267.812	9.05
268.028	-31.91
268.244	4.95
268.46	-44.2
268.676	-25.77
268.892	17.24
269.108	-7.34
269.324	-36.01
269.54	-44.2
269.756	4.95
269.972	0.85
270.188	-52.39
270.403	2.9
270.619	-9.39
270.835	50
271.051	7
271.267	-48.3
271.483	-1.19
271.698	-66.73
271.914	4.95
272.13	-1.19
272.346	-52.39
272.562	0.85
272.777	13.14
272.993	-36.01
273.209	21.33
273.425	-27.82
273.64	-17.58
273.856	-3.24
274.072	7
274.287	-11.43
274.503	-27.82
274.719	52.05
274.934	35.67
275.15	-3.24
275.366	2.9
275.581	15.19
275.797	-11.43
276.012	-50.35
276.228	-46.25
276.444	-31.91
276.659	66.39
276.875	-76.97
277.09	-54.44
277.306	-25.77
277.521	-5.29
277.737	7
277.952	13.14
278.168	19.29
278.383	7
278.599	-25.77
278.814	-25.77
279.03	-13.48
279.245	-27.82
279.461	-33.96
279.676	11.09
279.892	-36.01
280.107	-7.34
280.322	7
280.538	-56.49
280.753	-36.01
280.969	21.33
281.184	58.2
281.399	56.15
281.615	-1.19
281.83	-15.53
282.045	-52.39
282.26	-50.35
282.476	7
282.691	-23.72
282.906	25.43
283.122	-11.43
283.337	56.15
283.552	-15.53
283.767	-54.44
283.983	-3.24
284.198	-48.3
284.413	-1.19
284.628	25.43
284.843	-9.39
285.058	-36.01
285.274	9.05
285.489	-5.29
285.704	-42.15
285.919	-7.34
286.134	-7.34
286.349	-15.53
286.564	-42.15
286.779	4.95
286.995	9.05
287.21	2.9
287.425	7
287.64	9.05
287.855	-5.29
288.07	-60.59
288.285	0.85
288.5	-7.34
288.715	33.62
288.93	-54.44
289.145	15.19
289.36	-42.15
289.575	25.43
289.79	-9.39
290.004	-3.24
290.219	4.95
290.434	-50.35
290.649	-54.44
290.864	-36.01
291.079	-68.78
291.294	-50.35
291.509	25.43
291.724	-76.97
291.938	0.85
292.153	-7.34
292.368	19.29
292.583	13.14
292.798	-3.24
293.012	62.29
293.227	-72.87
293.442	-3.24
293.657	-15.53
293.871	-5.29
294.086	62.29
294.301	23.38
294.516	17.24
294.73	23.38
294.945	7
295.16	-33.96
295.374	-3.24
295.589	-68.78
295.804	-62.63
296.018	-56.49
296.233	35.67
296.447	-31.91
296.662	-25.77
296.877	-42.15
297.091	-74.92
297.306	-17.58
297.52	-1.19
297.735	-29.87
297.949	11.09
298.164	-48.3
298.378	54.1
298.593	21.33
298.807	-3.24
299.022	13.14
299.236	-23.72
299.451	-25.77
299.665	19.29
299.88	13.14
300.094	-23.72
300.309	15.19
300.523	-40.11
300.737	35.67
300.952	-13.48
301.166	-11.43
301.381	-33.96
301.595	23.38
301.809	0.85
302.024	78.68
302.238	-38.06
302.452	9.05
302.667	-72.87
302.881	45.91
303.095	0.85
303.309	-36.01
303.524	-23.72
303.738	21.33
303.952	-11.43
304.166	11.09
304.381	-95.4
304.595	-11.43
304.809	-33.96
305.023	-17.58
305.237	-3.24
305.452	39.76
305.666	-46.25
305.88	-5.29
306.094	-11.43
306.308	45.91
306.522	37.72
306.736	-15.53
306.95	-36.01
307.164	-9.39
307.379	-52.39
307.593	15.19
307.807	-17.58
308.021	33.62
308.235	-36.01
308.449	-36.01
308.663	41.81
308.877	-7.34
309.091	-46.25
309.305	-15.53
309.519	-42.15
309.733	-1.19
309.947	13.14
310.161	13.14
310.374	27.48
310.588	31.57
310.802	-46.25
311.016	-50.35
311.23	-5.29
311.444	-5.29
311.658	-25.77
311.872	37.72
312.085	-13.48
312.299	15.19
312.513	-27.82
312.727	-27.82
312.941	68.44
313.154	-62.63
313.368	19.29
313.582	50
313.796	-29.87
314.009	7
314.223	37.72
314.437	23.38
314.651	-3.24
314.864	25.43
315.078	-42.15
315.292	-42.15
315.505	-54.44
315.719	15.19
315.933	-17.58
316.146	-23.72
316.36	-68.78
316.573	74.58
316.787	17.24
317.001	13.14
317.214	39.76
317.428	2.9
317.641	0.85
317.855	0.85
318.068	-7.34
318.282	21.33
318.495	-15.53
318.709	21.33
318.922	-36.01
319.136	21.33
319.349	37.72
319.563	-25.77
319.776	21.33
319.99	-101.55
320.203	-66.73
320.417	23.38
320.63	-64.68
320.843	41.81
321.057	29.52
321.27	-9.39
321.483	-11.43
321.697	86.87
321.91	27.48
322.124	-7.34
322.337	-15.53
322.55	-38.06
322.763	-27.82
322.977	-40.11
323.19	64.34
323.403	-17.58
323.617	-3.24
323.83	-1.19
324.043	-9.39
324.256	33.62
324.469	-38.06
324.683	-15.53
324.896	13.14
325.109	27.48
325.322	-5.29
325.535	9.05
325.748	27.48
325.962	9.05
326.175	29.52
326.388	-9.39
326.601	-56.49
326.814	-40.11
327.027	17.24
327.24	-13.48
327.453	-36.01
327.666	-31.91
327.879	-25.77
328.092	-19.63
328.305	-11.43
328.518	9.05
328.731	-11.43
328.944	-70.83
329.157	13.14
329.37	-23.72
329.583	41.81
329.796	-40.11
330.009	45.91
330.222	-1.19
330.435	0.85
330.648	27.48
330.861	-62.63
331.073	-27.82
331.286	-36.01
331.499	-15.53
331.712	-27.82
331.925	29.52
332.138	-15.53
332.35	-58.54
332.563	15.19
332.776	76.63
332.989	-13.48
333.202	-27.82
333.414	-42.15
333.627	4.95
333.84	-11.43
334.053	31.57
334.265	-15.53
334.478	4.95
334.691	-25.77
334.903	-9.39
335.116	68.44
335.329	-15.53
335.541	39.76
335.754	4.95
335.966	21.33
336.179	-1.19
336.392	17.24
336.604	-56.49
336.817	-15.53
337.029	52.05
337.242	27.48
337.454	-19.63
337.667	-33.96
337.88	-38.06
338.092	-85.16
338.305	27.48
338.517	23.38
338.729	-19.63
338.942	-17.58
339.154	41.81
339.367	-19.63
339.579	39.76
339.792	43.86
340.004	-29.87
340.217	23.38
340.429	-56.49
340.641	-19.63
340.854	-11.43
341.066	-81.07
341.278	29.52
341.491	-11.43
341.703	2.9
341.915	4.95
342.128	-21.67
342.34	-36.01
342.552	-9.39
342.764	-21.67
342.977	-42.15
343.189	31.57
343.401	-3.24
343.613	-7.34
343.826	-7.34
344.038	-17.58
344.25	-11.43
344.462	17.24
344.674	-5.29
344.886	-1.19
345.099	-15.53
345.311	29.52
345.523	-42.15
345.735	2.9
345.947	-36.01
346.159	35.67
346.371	39.76
346.583	-44.2
346.795	13.14
347.007	2.9
347.219	-19.63
347.431	13.14
347.643	-1.19
347.855	58.2
348.067	15.19
348.279	29.52
348.491	-36.01
348.703	0.85
348.915	11.09
349.127	-36.01
349.339	2.9
349.551	25.43
349.763	-13.48
349.975	23.38
350.187	-48.3
350.399	-70.83
350.61	39.76
350.822	-21.67
351.034	27.48
351.246	-31.91
351.458	35.67
351.669	-3.24
351.881	29.52
352.093	13.14
352.305	4.95
352.517	7
352.728	7
352.94	-33.96
353.152	31.57
353.363	-46.25
353.575	-25.77
353.787	2.9
353.999	-50.35
354.21	-46.25
354.422	-21.67
354.633	-42.15
354.845	37.72
355.057	-19.63
355.268	-25.77
355.48	33.62
355.692	-60.59
355.903	0.85
356.115	11.09
356.326	-74.92
356.538	-17.58
356.749	13.14
356.961	35.67
357.172	-15.53
357.384	45.91
357.595	25.43
357.807	23.38
358.018	-27.82
358.23	-36.01
358.441	-27.82
358.653	-85.16
358.864	-76.97
359.075	-9.39
359.287	-52.39
359.498	31.57
359.709	-42.15
359.921	-74.92
360.132	43.86
360.344	52.05
360.555	-9.39
360.766	-50.35
360.977	-33.96
361.189	7
361.4	17.24
361.611	2.9
361.823	-36.01
362.034	-25.77
362.245	-11.43
362.456	-25.77
362.667	-87.21
362.879	-72.87
363.09	50
363.301	25.43
363.512	-3.24
363.723	4.95
363.935	-31.91
364.146	35.67
364.357	-54.44
364.568	-42.15
364.779	54.1
364.99	-83.11
365.201	-27.82
365.412	-74.92
365.623	7
365.834	-19.63
366.045	-21.67
366.256	13.14
366.467	43.86
366.678	50
366.889	-52.39
367.1	19.29
367.311	-9.39
367.522	47.96
367.733	-48.3
367.944	19.29
368.155	9.05
368.366	-25.77
368.577	13.14
368.788	-50.35
368.999	-70.83
369.209	-5.29
369.42	-27.82
369.631	68.44
369.842	-11.43
370.053	15.19
370.264	-3.24
370.474	47.96
370.685	11.09
370.896	-70.83
371.107	33.62
371.317	15.19
371.528	31.57
371.739	45.91
371.95	13.14
372.16	-25.77
372.371	62.29
372.582	-46.25
372.792	-42.15
373.003	-58.54
373.214	15.19
373.424	-11.43
373.635	-52.39
373.846	-11.43
374.056	-70.83
374.267	-56.49
374.477	7
374.688	0.85
374.898	-5.29
375.109	-21.67
375.319	-9.39
375.53	2.9
375.74	27.48
375.951	39.76
376.161	-87.21
376.372	43.86
376.582	-36.01
376.793	64.34
377.003	-15.53
377.214	4.95
377.424	-31.91
377.635	-17.58
377.845	-27.82
378.055	39.76
378.266	-99.5
378.476	27.48
378.686	-13.48
378.897	-19.63
379.107	29.52
379.317	-27.82
379.528	-7.34
379.738	-25.77
379.948	-48.3
380.158	25.43
380.369	39.76
380.579	-66.73
380.789	29.52
380.999	33.62
381.21	-60.59
381.42	-29.87
381.63	-21.67
381.84	23.38
382.05	56.15
382.261	-58.54
382.471	-19.63
382.681	7
382.891	39.76
383.101	9.05
383.311	-5.29
383.521	33.62
383.731	47.96
383.941	-40.11
384.151	35.67
384.361	-64.68
384.571	-13.48
384.781	-3.24
384.991	47.96
385.201	0.85
385.411	11.09
385.621	19.29
385.831	-23.72
386.041	90.96
386.251	-25.77
386.461	27.48
386.671	2.9
386.881	13.14
387.091	-50.35
387.301	93.01
387.511	13.14
387.72	-52.39
387.93	-36.01
388.14	-95.4
388.35	60.24
388.56	39.76
388.769	-11.43
388.979	-50.35
389.189	-42.15
389.399	-38.06
389.609	23.38
389.818	-3.24
390.028	72.53
390.238	-19.63
390.447	-25.77
390.657	84.82
390.867	80.72
391.076	21.33
391.286	4.95
391.496	68.44
391.705	39.76
391.915	11.09
392.125	21.33
392.334	-36.01
392.544	29.52
392.753	56.15
392.963	11.09
393.172	-42.15
393.382	-19.63
393.591	35.67
393.801	17.24
394.01	33.62
394.22	-56.49
394.429	62.29
394.639	-36.01
394.848	-31.91
395.058	-79.02
395.267	-7.34
395.477	-17.58
395.686	27.48
395.895	27.48
396.105	21.33
396.314	4.95
396.524	9.05
396.733	50
396.942	52.05
397.152	7
397.361	-38.06
397.57	66.39
397.78	35.67
397.989	-9.39
398.198	45.91
398.407	52.05
398.617	35.67
398.826	56.15
399.035	39.76
399.244	-50.35
399.453	-25.77
399.663	29.52
399.872	29.52
400.081	7
400.29	54.1
400.499	33.62
400.708	7
400.917	-13.48
401.127	45.91
401.336	-27.82
401.545	-9.39
401.754	-13.48
401.963	-17.58
402.172	66.39
402.381	-13.48
402.59	-33.96
402.799	-19.63
403.008	52.05
403.217	-46.25
403.426	9.05
403.635	39.76
403.844	7
404.053	17.24
404.262	-9.39
404.471	62.29
404.68	47.96
404.888	13.14
405.097	17.24
405.306	80.72
405.515	121.68
405.724	17.24
405.933	-64.68
406.142	9.05
406.35	37.72
406.559	-21.67
406.768	-58.54
406.977	41.81
407.185	99.16
407.394	54.1
407.603	9.05
407.812	27.48
408.02	54.1
408.229	64.34
408.438	-9.39
408.646	58.2
408.855	111.44
409.064	45.91
409.272	39.76
409.481	121.68
409.69	144.21
409.898	17.24
410.107	66.39
410.315	123.73
410.524	138.07
410.733	129.88
410.941	140.12
411.15	138.07
411.358	11.09
411.567	107.35
411.775	111.44
411.984	107.35
412.192	162.64
412.401	95.06
412.609	138.07
412.818	125.78
413.026	129.88
413.234	84.82
413.443	125.78
413.651	156.5
413.86	172.88
414.068	142.16
414.276	66.39
414.485	185.17
414.693	144.21
414.901	224.08
415.11	183.12
415.318	267.09
415.526	226.13
415.734	195.41
415.943	189.27
416.151	246.61
416.359	281.43
416.567	265.04
416.776	254.8
416.984	269.14
417.192	285.52
417.4	232.27
417.608	316.24
417.817	297.81
418.025	385.87
418.233	389.97
418.441	301.9
418.649	418.64
418.857	332.62
419.065	392.02
419.273	301.9
419.481	396.11
419.689	373.58
419.897	383.82
420.105	459.6
420.313	467.79
420.521	473.93
420.729	514.89
420.937	465.74
421.145	455.5
421.353	473.93
421.561	553.8
421.769	527.18
421.977	545.61
422.185	605
422.393	633.68
422.601	623.44
422.809	664.4
423.017	639.82
423.224	648.01
423.432	721.74
423.64	701.26
423.848	799.56
424.056	742.22
424.263	793.42
424.471	832.33
424.679	813.9
424.887	838.47
425.094	832.33
425.302	918.34
425.51	1037.13
425.718	1010.5
425.925	881.48
426.133	1065.8
426.341	1139.52
426.548	1131.33
426.756	1213.25
426.964	1178.44
427.171	1207.11
427.379	1227.59
427.586	1393.47
427.794	1243.97
428.001	1317.7
428.209	1444.67
428.417	1440.58
428.624	1504.06
428.832	1442.62
429.039	1612.6
429.247	1473.34
429.454	1610.56
429.662	1774.39
429.869	1624.89
430.076	1731.39
430.284	1719.1
430.491	1796.92
430.699	1815.35
430.906	1844.03
431.114	1993.53
431.321	2016.05
431.528	2030.39
431.736	2065.21
431.943	2343.73
432.15	2259.76
432.358	2161.46
432.565	2439.98
432.772	2331.44
432.979	2569.01
433.187	2415.41
433.394	2489.14
433.601	2554.67
433.808	2814.76
434.016	2587.44
434.223	2755.37
434.43	3066.66
434.637	2921.26
434.844	3121.96
435.052	3173.16
435.259	3011.37
435.466	3287.84
435.673	3191.59
435.88	3400.48
436.087	3597.09
436.294	3474.21
436.501	3423.01
436.708	3566.37
436.915	3568.41
437.122	3732.25
437.329	3988.25
437.537	3994.39
437.743	4074.26
437.95	3826.46
438.157	4158.23
438.364	4285.2
438.571	4281.11
438.778	4303.64
438.985	4852.49
439.192	4475.67
439.399	4625.17
439.606	4563.73
439.813	4829.96
440.02	5083.91
440.227	5024.52
440.433	5032.71
440.64	5182.21
440.847	5100.3
441.054	5274.37
441.261	5419.78
441.467	5493.51
441.674	5657.34
441.881	5753.6
442.088	5987.07
442.294	5702.4
442.501	5929.72
442.708	5976.83
442.914	6206.2
443.121	6451.95
443.328	6361.84
443.534	6771.44
443.741	6601.46
443.948	6558.45
444.154	7176.94
444.361	7058.15
444.568	6957.8
444.774	7025.39
444.981	7195.37
445.187	7326.44
445.394	7629.54
445.6	7674.59
445.807	8336.09
446.013	7873.25
446.22	8043.23
446.426	8497.88
446.633	8487.64
446.839	8854.22
447.046	8600.27
447.252	8958.67
447.459	9097.93
447.665	8927.95
447.871	9427.65
448.078	9925.31
448.284	9274.06
448.491	9679.55
448.697	9892.54
448.903	10013.37
449.11	10224.31
449.316	10048.19
449.522	10150.59
449.728	10678.96
449.935	10537.65
450.141	10619.57
450.347	10787.5
450.553	10580.66
450.76	10601.14
450.966	11080.36
451.172	10894
451.378	11420.33
451.584	10975.92
451.791	11203.24
451.997	11197.1
452.203	11326.12
452.409	11561.64
452.615	11362.98
452.821	10850.99
453.027	10965.68
453.233	11420.33
453.44	10949.29
453.646	11027.12
453.852	11242.15
454.058	11477.67
454.264	11113.13
454.47	11252.39
454.676	11082.41
454.882	11367.08
455.088	10425.01
455.294	10644.15
455.5	10621.62
455.705	10844.85
455.911	10312.38
456.117	10117.82
456.323	10101.44
456.529	9474.76
456.735	9994.94
456.941	9714.37
457.147	9523.91
457.352	9456.33
457.558	9194.19
457.764	9147.08
457.97	9159.37
458.176	8848.08
458.381	9059.02
458.587	8487.64
458.793	8651.47
458.999	8194.78
459.204	8596.18
459.41	8362.71
459.616	7836.38
459.821	7860.96
460.027	7793.37
460.233	7639.78
460.438	7199.46
460.644	7367.4
460.85	6961.9
461.055	6920.94
461.261	6910.7
461.466	6476.53
461.672	6218.49
461.878	6691.57
462.083	6005.5
462.289	5942.01
462.494	6241.01
462.7	5774.08
462.905	5616.38
463.111	5808.89
463.316	5794.56
463.522	5718.78
463.727	5542.66
463.932	5686.01
464.138	5513.99
464.343	5640.96
464.549	5372.68
464.754	5772.03
464.959	5612.29
465.165	5657.34
465.37	5352.2
465.575	5239.56
465.781	5466.88
465.986	5344
466.191	5315.33
466.397	5368.58
466.602	4832.01
466.807	5106.44
467.012	4987.66
467.218	5126.92
467.423	4977.42
467.628	5096.2
467.833	5301
