Data from USB4F104151__77__12-59-42-001.txt Node

Date: Fri Mar 14 12:59:42 EDT 2025
User: louis
Spectrometer: USB4F10415
Trigger mode: 4
Integration Time (sec): 1.000000E-2
Scans to average: 1
Electric dark correction enabled: true
Nonlinearity correction enabled: false
Boxcar width: 0
XAxis mode: Wavelengths
Number of Pixels in Spectrum: 3648
>>>>>Begin Spectral Data<<<<<
178.204	-20.48
178.424	-20.48
178.644	-20.48
178.864	-38.91
179.084	-24.58
179.304	-24.58
179.524	14.34
179.744	-38.91
179.964	67.58
180.184	14.34
180.404	2.05
180.624	43.01
180.844	-28.67
181.064	-6.14
181.283	57.34
181.503	-73.73
181.723	-26.62
181.943	-22.53
182.163	-71.68
182.383	-30.72
182.602	32.77
182.822	18.43
183.042	-22.53
183.262	4.1
183.482	-14.34
183.701	0
183.921	2.05
184.141	22.53
184.361	14.34
184.58	-36.86
184.8	-32.77
185.02	-26.62
185.239	67.58
185.459	-14.34
185.679	-49.15
185.898	-2.05
186.118	-2.05
186.338	-34.82
186.557	57.34
186.777	-10.24
186.997	59.39
187.216	-43.01
187.436	34.82
187.655	22.53
187.875	-6.14
188.095	-6.14
188.314	86.01
188.534	-73.73
188.753	12.29
188.973	2.05
189.192	4.1
189.412	-55.3
189.631	0
189.851	-61.44
190.07	-10.24
190.29	-55.3
190.509	8.19
190.729	-8.19
190.948	-2.05
191.168	34.82
191.387	6.14
191.607	-4.1
191.826	71.68
192.045	10.24
192.265	-100.35
192.484	-22.53
192.704	-6.14
192.923	67.58
193.142	-12.29
193.362	4.1
193.581	-20.48
193.8	-45.06
194.02	-57.34
194.239	-73.73
194.458	-47.1
194.678	-38.91
194.897	-36.86
195.116	-43.01
195.335	6.14
195.555	-61.44
195.774	77.82
195.993	-12.29
196.212	-10.24
196.432	61.44
196.651	63.49
196.87	92.16
197.089	36.86
197.308	22.53
197.528	-24.58
197.747	-30.72
197.966	-2.05
198.185	26.62
198.404	-14.34
198.623	-22.53
198.842	-16.38
199.062	26.62
199.281	77.82
199.5	22.53
199.719	6.14
199.938	2.05
200.157	10.24
200.376	43.01
200.595	14.34
200.814	-20.48
201.033	-12.29
201.252	-28.67
201.471	45.06
201.69	12.29
201.909	-36.86
202.128	-18.43
202.347	4.1
202.566	-38.91
202.785	73.73
203.004	-18.43
203.223	-14.34
203.442	10.24
203.661	2.05
203.879	75.77
204.098	-18.43
204.317	-22.53
204.536	2.05
204.755	-63.49
204.974	20.48
205.193	36.86
205.411	51.2
205.63	-16.38
205.849	51.2
206.068	30.72
206.287	-26.62
206.505	4.1
206.724	-10.24
206.943	28.67
207.162	-26.62
207.381	-4.1
207.599	34.82
207.818	-16.38
208.037	67.58
208.255	-24.58
208.474	2.05
208.693	-45.06
208.911	-51.2
209.13	12.29
209.349	6.14
209.567	10.24
209.786	53.25
210.005	-10.24
210.223	-38.91
210.442	-43.01
210.661	-8.19
210.879	-12.29
211.098	-14.34
211.316	-16.38
211.535	-16.38
211.753	34.82
211.972	-75.77
212.191	47.1
212.409	-6.14
212.628	79.87
212.846	57.34
213.065	2.05
213.283	-4.1
213.502	-36.86
213.72	102.4
213.938	30.72
214.157	-43.01
214.375	34.82
214.594	43.01
214.812	36.86
215.031	-36.86
215.249	-26.62
215.467	59.39
215.686	16.38
215.904	14.34
216.122	16.38
216.341	4.1
216.559	2.05
216.778	20.48
216.996	8.19
217.214	-67.58
217.432	20.48
217.651	49.15
217.869	-6.14
218.087	34.82
218.306	-10.24
218.524	-26.62
218.742	14.34
218.96	32.77
219.179	24.58
219.397	-32.77
219.615	-18.43
219.833	-32.77
220.051	-75.77
220.27	30.72
220.488	75.77
220.706	38.91
220.924	32.77
221.142	-57.34
221.36	-65.53
221.578	-12.29
221.796	-32.77
222.015	59.39
222.233	-8.19
222.451	51.2
222.669	-47.1
222.887	20.48
223.105	-22.53
223.323	-10.24
223.541	36.86
223.759	61.44
223.977	-10.24
224.195	-45.06
224.413	14.34
224.631	-63.49
224.849	-2.05
225.067	-18.43
225.285	6.14
225.503	20.48
225.721	-22.53
225.939	45.06
226.157	49.15
226.375	6.14
226.592	-63.49
226.81	-20.48
227.028	10.24
227.246	57.34
227.464	32.77
227.682	0
227.9	-6.14
228.117	43.01
228.335	-6.14
228.553	20.48
228.771	-26.62
228.989	14.34
229.206	-55.3
229.424	-10.24
229.642	18.43
229.86	-30.72
230.077	-12.29
230.295	75.77
230.513	32.77
230.731	24.58
230.948	59.39
231.166	53.25
231.384	-55.3
231.601	26.62
231.819	-10.24
232.037	-30.72
232.254	86.01
232.472	14.34
232.689	-22.53
232.907	4.1
233.125	-53.25
233.342	-32.77
233.56	6.14
233.777	-61.44
233.995	24.58
234.213	-47.1
234.43	-30.72
234.648	20.48
234.865	16.38
235.083	-4.1
235.3	-10.24
235.518	43.01
235.735	-43.01
235.953	30.72
236.17	-4.1
236.388	-26.62
236.605	79.87
236.822	14.34
237.04	-26.62
237.257	30.72
237.475	63.49
237.692	92.16
237.909	24.58
238.127	-4.1
238.344	-26.62
238.562	0
238.779	81.92
238.996	32.77
239.214	112.64
239.431	-16.38
239.648	-10.24
239.865	28.67
240.083	-10.24
240.3	14.34
240.517	8.19
240.735	8.19
240.952	-79.87
241.169	24.58
241.386	38.91
241.603	18.43
241.821	10.24
242.038	-18.43
242.255	-36.86
242.472	6.14
242.689	83.97
242.907	30.72
243.124	-47.1
243.341	71.68
243.558	-59.39
243.775	-30.72
243.992	-65.53
244.209	34.82
244.426	-10.24
244.643	-26.62
244.86	8.19
245.078	4.1
245.295	40.96
245.512	38.91
245.729	16.38
245.946	53.25
246.163	-51.2
246.38	-47.1
246.597	36.86
246.814	26.62
247.031	10.24
247.248	2.05
247.464	20.48
247.681	-36.86
247.898	28.67
248.115	53.25
248.332	-18.43
248.549	0
248.766	18.43
248.983	-30.72
249.2	2.05
249.417	-26.62
249.633	2.05
249.85	22.53
250.067	6.14
250.284	4.1
250.501	-4.1
250.717	73.73
250.934	-34.82
251.151	36.86
251.368	-8.19
251.585	16.38
251.801	53.25
252.018	-22.53
252.235	18.43
252.451	-6.14
252.668	14.34
252.885	-8.19
253.102	-26.62
253.318	69.63
253.535	26.62
253.752	-28.67
253.968	-6.14
254.185	-12.29
254.401	47.1
254.618	-2.05
254.835	6.14
255.051	47.1
255.268	-63.49
255.484	24.58
255.701	10.24
255.917	-20.48
256.134	32.77
256.351	-10.24
256.567	-55.3
256.784	55.3
257	-38.91
257.217	28.67
257.433	0
257.65	71.68
257.866	-14.34
258.082	26.62
258.299	-20.48
258.515	-2.05
258.732	10.24
258.948	26.62
259.165	-22.53
259.381	28.67
259.597	-61.44
259.814	-8.19
260.03	-6.14
260.246	-4.1
260.463	32.77
260.679	34.82
260.895	20.48
261.112	8.19
261.328	2.05
261.544	-14.34
261.761	49.15
261.977	55.3
262.193	-51.2
262.409	28.67
262.626	-20.48
262.842	40.96
263.058	-6.14
263.274	22.53
263.49	-26.62
263.707	-18.43
263.923	8.19
264.139	-43.01
264.355	-2.05
264.571	-26.62
264.787	-43.01
265.004	-8.19
265.22	-38.91
265.436	-45.06
265.652	12.29
265.868	26.62
266.084	30.72
266.3	10.24
266.516	12.29
266.732	-6.14
266.948	26.62
267.164	-59.39
267.38	-88.06
267.596	-20.48
267.812	24.58
268.028	55.3
268.244	57.34
268.46	-20.48
268.676	-47.1
268.892	-34.82
269.108	-12.29
269.324	-51.2
269.54	4.1
269.756	14.34
269.972	38.91
270.188	-24.58
270.403	12.29
270.619	63.49
270.835	53.25
271.051	30.72
271.267	-10.24
271.483	6.14
271.698	16.38
271.914	98.3
272.13	18.43
272.346	-32.77
272.562	53.25
272.777	18.43
272.993	10.24
273.209	2.05
273.425	-71.68
273.64	14.34
273.856	-79.87
274.072	28.67
274.287	-24.58
274.503	51.2
274.719	77.82
274.934	-20.48
275.15	77.82
275.366	-24.58
275.581	22.53
275.797	-8.19
276.012	-36.86
276.228	22.53
276.444	-22.53
276.659	36.86
276.875	-4.1
277.09	40.96
277.306	20.48
277.521	-26.62
277.737	-14.34
277.952	0
278.168	40.96
278.383	36.86
278.599	16.38
278.814	-34.82
279.03	-6.14
279.245	-47.1
279.461	43.01
279.676	75.77
279.892	-47.1
280.107	-12.29
280.322	-24.58
280.538	10.24
280.753	0
280.969	-20.48
281.184	22.53
281.399	34.82
281.615	24.58
281.83	4.1
282.045	4.1
282.26	14.34
282.476	8.19
282.691	12.29
282.906	26.62
283.122	30.72
283.337	-24.58
283.552	-20.48
283.767	-71.68
283.983	28.67
284.198	-98.3
284.413	22.53
284.628	-53.25
284.843	-10.24
285.058	-36.86
285.274	-6.14
285.489	-26.62
285.704	-38.91
285.919	22.53
286.134	43.01
286.349	12.29
286.564	-47.1
286.779	-63.49
286.995	20.48
287.21	40.96
287.425	-12.29
287.64	-38.91
287.855	26.62
288.07	36.86
288.285	-2.05
288.5	28.67
288.715	-28.67
288.93	-20.48
289.145	-24.58
289.36	-34.82
289.575	-53.25
289.79	28.67
290.004	26.62
290.219	28.67
290.434	2.05
290.649	-55.3
290.864	-2.05
291.079	49.15
291.294	18.43
291.509	-34.82
291.724	43.01
291.938	-6.14
292.153	59.39
292.368	-10.24
292.583	-36.86
292.798	-38.91
293.012	40.96
293.227	30.72
293.442	10.24
293.657	-20.48
293.871	71.68
294.086	86.01
294.301	63.49
294.516	-26.62
294.73	18.43
294.945	-12.29
295.16	12.29
295.374	77.82
295.589	-57.34
295.804	-30.72
296.018	-49.15
296.233	-53.25
296.447	12.29
296.662	-16.38
296.877	28.67
297.091	90.11
297.306	10.24
297.52	49.15
297.735	24.58
297.949	36.86
298.164	53.25
298.378	4.1
298.593	10.24
298.807	10.24
299.022	30.72
299.236	38.91
299.451	24.58
299.665	8.19
299.88	12.29
300.094	2.05
300.309	-8.19
300.523	34.82
300.737	12.29
300.952	-63.49
301.166	57.34
301.381	-18.43
301.595	-6.14
301.809	12.29
302.024	30.72
302.238	-12.29
302.452	94.21
302.667	40.96
302.881	26.62
303.095	43.01
303.309	12.29
303.524	-20.48
303.738	22.53
303.952	-45.06
304.166	-18.43
304.381	14.34
304.595	36.86
304.809	6.14
305.023	-55.3
305.237	26.62
305.452	-6.14
305.666	34.82
305.88	81.92
306.094	-28.67
306.308	2.05
306.522	-34.82
306.736	51.2
306.95	-20.48
307.164	63.49
307.379	20.48
307.593	22.53
307.807	30.72
308.021	-12.29
308.235	-65.53
308.449	53.25
308.663	45.06
308.877	12.29
309.091	-4.1
309.305	-2.05
309.519	-47.1
309.733	12.29
309.947	-88.06
310.161	22.53
310.374	-10.24
310.588	53.25
310.802	-47.1
311.016	47.1
311.23	-94.21
311.444	-10.24
311.658	-49.15
311.872	2.05
312.085	14.34
312.299	-18.43
312.513	45.06
312.727	43.01
312.941	20.48
313.154	45.06
313.368	20.48
313.582	61.44
313.796	26.62
314.009	-14.34
314.223	20.48
314.437	-16.38
314.651	-92.16
314.864	53.25
315.078	26.62
315.292	40.96
315.505	40.96
315.719	14.34
315.933	43.01
316.146	36.86
316.36	16.38
316.573	43.01
316.787	-79.87
317.001	77.82
317.214	-6.14
317.428	6.14
317.641	-83.97
317.855	-45.06
318.068	6.14
318.282	2.05
318.495	4.1
318.709	38.91
318.922	18.43
319.136	36.86
319.349	36.86
319.563	2.05
319.776	22.53
319.99	-40.96
320.203	38.91
320.417	-22.53
320.63	45.06
320.843	4.1
321.057	2.05
321.27	-36.86
321.483	32.77
321.697	-2.05
321.91	61.44
322.124	-6.14
322.337	-8.19
322.55	28.67
322.763	38.91
322.977	30.72
323.19	-10.24
323.403	83.97
323.617	-49.15
323.83	-30.72
324.043	10.24
324.256	-20.48
324.469	-22.53
324.683	-2.05
324.896	-12.29
325.109	6.14
325.322	-16.38
325.535	0
325.748	34.82
325.962	12.29
326.175	-47.1
326.388	16.38
326.601	-4.1
326.814	-14.34
327.027	4.1
327.24	-6.14
327.453	-47.1
327.666	36.86
327.879	43.01
328.092	49.15
328.305	47.1
328.518	-22.53
328.731	-34.82
328.944	-2.05
329.157	24.58
329.37	-18.43
329.583	-47.1
329.796	-36.86
330.009	-32.77
330.222	-22.53
330.435	10.24
330.648	69.63
330.861	34.82
331.073	-8.19
331.286	36.86
331.499	30.72
331.712	-67.58
331.925	-61.44
332.138	30.72
332.35	-53.25
332.563	6.14
332.776	-45.06
332.989	-45.06
333.202	14.34
333.414	-86.01
333.627	-12.29
333.84	16.38
334.053	38.91
334.265	0
334.478	-28.67
334.691	-6.14
334.903	-79.87
335.116	-47.1
335.329	-81.92
335.541	-28.67
335.754	114.69
335.966	-16.38
336.179	40.96
336.392	-43.01
336.604	16.38
336.817	67.58
337.029	-24.58
337.242	-16.38
337.454	83.97
337.667	-10.24
337.88	-30.72
338.092	6.14
338.305	-16.38
338.517	-38.91
338.729	-38.91
338.942	34.82
339.154	30.72
339.367	18.43
339.579	-4.1
339.792	-51.2
340.004	-38.91
340.217	-34.82
340.429	83.97
340.641	10.24
340.854	43.01
341.066	6.14
341.278	18.43
341.491	-28.67
341.703	8.19
341.915	36.86
342.128	-47.1
342.34	18.43
342.552	8.19
342.764	34.82
342.977	-61.44
343.189	36.86
343.401	-4.1
343.613	-55.3
343.826	100.35
344.038	18.43
344.25	34.82
344.462	4.1
344.674	0
344.886	20.48
345.099	47.1
345.311	-6.14
345.523	63.49
345.735	-51.2
345.947	36.86
346.159	-36.86
346.371	18.43
346.583	28.67
346.795	38.91
347.007	24.58
347.219	51.2
347.431	30.72
347.643	-18.43
347.855	43.01
348.067	45.06
348.279	133.12
348.491	2.05
348.703	-28.67
348.915	-83.97
349.127	73.73
349.339	8.19
349.551	14.34
349.763	-26.62
349.975	2.05
350.187	16.38
350.399	71.68
350.61	63.49
350.822	-18.43
351.034	-36.86
351.246	18.43
351.458	83.97
351.669	28.67
351.881	34.82
352.093	69.63
352.305	45.06
352.517	81.92
352.728	75.77
352.94	-22.53
353.152	47.1
353.363	-73.73
353.575	-4.1
353.787	-8.19
353.999	4.1
354.21	43.01
354.422	-71.68
354.633	-75.77
354.845	-16.38
355.057	18.43
355.268	38.91
355.48	14.34
355.692	-38.91
355.903	-34.82
356.115	55.3
356.326	8.19
356.538	38.91
356.749	45.06
356.961	43.01
357.172	-12.29
357.384	4.1
357.595	32.77
357.807	-71.68
358.018	-10.24
358.23	10.24
358.441	20.48
358.653	45.06
358.864	28.67
359.075	-59.39
359.287	20.48
359.498	14.34
359.709	-59.39
359.921	34.82
360.132	38.91
360.344	24.58
360.555	-40.96
360.766	16.38
360.977	-83.97
361.189	26.62
361.4	30.72
361.611	-6.14
361.823	6.14
362.034	-59.39
362.245	-53.25
362.456	-36.86
362.667	40.96
362.879	26.62
363.09	71.68
363.301	16.38
363.512	30.72
363.723	-36.86
363.935	-34.82
364.146	4.1
364.357	-47.1
364.568	28.67
364.779	-22.53
364.99	75.77
365.201	-8.19
365.412	26.62
365.623	57.34
365.834	2.05
366.045	53.25
366.256	16.38
366.467	-12.29
366.678	0
366.889	36.86
367.1	-34.82
367.311	16.38
367.522	14.34
367.733	18.43
367.944	45.06
368.155	22.53
368.366	-22.53
368.577	-20.48
368.788	-8.19
368.999	45.06
369.209	-12.29
369.42	-16.38
369.631	-16.38
369.842	106.49
370.053	16.38
370.264	-14.34
370.474	98.3
370.685	-65.53
370.896	22.53
371.107	30.72
371.317	6.14
371.528	-22.53
371.739	63.49
371.95	6.14
372.16	24.58
372.371	-40.96
372.582	36.86
372.792	32.77
373.003	81.92
373.214	22.53
373.424	-53.25
373.635	10.24
373.846	-10.24
374.056	-43.01
374.267	26.62
374.477	6.14
374.688	-43.01
374.898	28.67
375.109	22.53
375.319	86.01
375.53	57.34
375.74	12.29
375.951	114.69
376.161	77.82
376.372	47.1
376.582	-28.67
376.793	28.67
377.003	-18.43
377.214	10.24
377.424	-16.38
377.635	30.72
377.845	6.14
378.055	-2.05
378.266	-69.63
378.476	-20.48
378.686	2.05
378.897	30.72
379.107	24.58
379.317	0
379.528	28.67
379.738	-4.1
379.948	4.1
380.158	6.14
380.369	24.58
380.579	18.43
380.789	-59.39
380.999	86.01
381.21	36.86
381.42	88.06
381.63	-38.91
381.84	8.19
382.05	-8.19
382.261	-2.05
382.471	-40.96
382.681	77.82
382.891	16.38
383.101	20.48
383.311	-8.19
383.521	51.2
383.731	83.97
383.941	43.01
384.151	-71.68
384.361	51.2
384.571	-18.43
384.781	10.24
384.991	20.48
385.201	36.86
385.411	36.86
385.621	53.25
385.831	34.82
386.041	-16.38
386.251	-2.05
386.461	45.06
386.671	-34.82
386.881	-38.91
387.091	0
387.301	36.86
387.511	34.82
387.72	59.39
387.93	-16.38
388.14	-47.1
388.35	45.06
388.56	20.48
388.769	38.91
388.979	12.29
389.189	-8.19
389.399	-12.29
389.609	16.38
389.818	69.63
390.028	28.67
390.238	18.43
390.447	-26.62
390.657	-2.05
390.867	-22.53
391.076	22.53
391.286	6.14
391.496	108.54
391.705	34.82
391.915	-6.14
392.125	61.44
392.334	112.64
392.544	69.63
392.753	-28.67
392.963	-36.86
393.172	36.86
393.382	-45.06
393.591	61.44
393.801	-96.25
394.01	79.87
394.22	43.01
394.429	106.49
394.639	12.29
394.848	18.43
395.058	8.19
395.267	2.05
395.477	28.67
395.686	-26.62
395.895	63.49
396.105	12.29
396.314	12.29
396.524	69.63
396.733	-10.24
396.942	51.2
397.152	-16.38
397.361	4.1
397.57	22.53
397.78	20.48
397.989	10.24
398.198	96.25
398.407	12.29
398.617	-10.24
398.826	45.06
399.035	-12.29
399.244	77.82
399.453	-51.2
399.663	90.11
399.872	63.49
400.081	16.38
400.29	24.58
400.499	-10.24
400.708	18.43
400.917	16.38
401.127	24.58
401.336	-18.43
401.545	83.97
401.754	32.77
401.963	26.62
402.172	-38.91
402.381	18.43
402.59	22.53
402.799	45.06
403.008	102.4
403.217	47.1
403.426	69.63
403.635	61.44
403.844	4.1
404.053	26.62
404.262	-26.62
404.471	4.1
404.68	24.58
404.888	-18.43
405.097	-28.67
405.306	14.34
405.515	47.1
405.724	36.86
405.933	-14.34
406.142	75.77
406.35	30.72
406.559	69.63
406.768	73.73
406.977	26.62
407.185	-49.15
407.394	61.44
407.603	-12.29
407.812	18.43
408.02	63.49
408.229	-6.14
408.438	71.68
408.646	63.49
408.855	106.49
409.064	98.3
409.272	59.39
409.481	104.45
409.69	61.44
409.898	59.39
410.107	86.01
410.315	45.06
410.524	81.92
410.733	81.92
410.941	139.26
411.15	16.38
411.358	96.25
411.567	133.12
411.775	102.4
411.984	118.78
412.192	120.83
412.401	69.63
412.609	112.64
412.818	174.08
413.026	194.56
413.234	133.12
413.443	104.45
413.651	83.97
413.86	149.5
414.068	108.54
414.276	145.41
414.485	145.41
414.693	182.27
414.901	241.66
415.11	190.46
415.318	165.89
415.526	221.18
415.734	241.66
415.943	196.61
416.151	180.22
416.359	176.13
416.567	227.32
416.776	217.08
416.984	264.19
417.192	321.53
417.4	231.42
417.608	315.39
417.817	288.76
418.025	344.06
418.233	327.68
418.441	280.57
418.649	299
418.857	339.96
419.065	423.93
419.273	405.5
419.481	380.92
419.689	385.02
419.897	425.98
420.105	417.79
420.313	430.07
420.521	458.75
420.729	450.55
420.937	522.23
421.145	524.28
421.353	528.38
421.561	516.09
421.769	567.29
421.977	583.67
422.185	555
422.393	573.43
422.601	589.82
422.809	708.6
423.017	696.31
423.224	765.94
423.432	690.17
423.64	628.73
423.848	710.65
424.056	737.27
424.263	751.6
424.471	890.87
424.679	753.65
424.887	946.16
425.094	843.76
425.302	948.21
425.51	907.25
425.718	972.79
425.925	892.91
426.133	993.26
426.341	999.41
426.548	1101.81
426.756	1171.44
426.964	995.31
427.171	1157.1
427.379	1216.49
427.586	1255.4
427.794	1304.56
428.001	1325.04
428.209	1308.65
428.417	1382.38
428.624	1503.21
428.832	1406.95
429.039	1443.82
429.247	1355.76
429.454	1560.55
429.662	1621.99
429.869	1550.31
430.076	1708.01
430.284	1611.75
430.491	1697.77
430.699	1787.88
430.906	1816.55
431.114	1884.13
431.321	1867.75
431.528	1955.81
431.736	2019.3
431.943	2152.42
432.15	2152.42
432.358	2146.27
432.565	2279.39
432.772	2133.98
432.979	2342.88
433.187	2340.83
433.394	2412.51
433.601	2525.15
433.808	2508.76
434.016	2654.17
434.223	2609.11
434.43	2883.54
434.637	2676.7
434.844	2949.07
435.052	3016.66
435.259	2971.6
435.466	3059.67
435.673	2955.22
435.88	3106.77
436.087	3430.35
436.294	3350.48
436.501	3229.65
436.708	3272.65
436.915	3477.45
437.122	3645.38
437.329	3653.58
437.537	3805.13
437.743	3651.53
437.95	3811.27
438.157	4040.64
438.364	3993.54
438.571	4067.27
438.778	4093.89
438.985	4487.1
439.192	4247.49
439.399	4483
439.606	4343.74
439.813	4599.74
440.02	4825.01
440.227	4837.3
440.433	4687.8
440.64	4818.87
440.847	4847.54
441.054	5005.24
441.261	5248.94
441.467	5226.42
441.674	5203.89
441.881	5506.99
442.088	5511.08
442.294	5459.88
442.501	5660.59
442.708	5715.88
442.914	6064.04
443.121	6258.59
443.328	6033.32
443.534	6469.53
443.741	6459.29
443.948	6170.53
444.154	6766.49
444.361	6711.19
444.568	6631.32
444.774	6766.49
444.981	6825.88
445.187	6975.38
445.394	7354.26
445.6	7294.86
445.807	7894.92
446.013	7630.73
446.22	7825.29
446.426	7970.69
446.633	7974.79
446.839	8505.21
447.046	8128.39
447.252	8617.85
447.459	8488.83
447.665	8499.07
447.871	8982.39
448.078	9275.25
448.284	8871.8
448.491	9107.32
448.697	9316.21
448.903	9582.45
449.11	9613.17
449.316	9668.46
449.522	9703.28
449.728	10086.25
449.935	10037.09
450.141	10116.97
450.347	10196.84
450.553	9826.15
450.76	9965.42
450.966	10385.25
451.172	10327.91
451.378	10426.21
451.584	10391.39
451.791	10573.66
451.997	10512.22
452.203	10905.43
452.409	10721.12
452.615	10889.05
452.821	10403.68
453.027	10458.98
453.233	10866.52
453.44	10352.48
453.646	10428.26
453.852	10606.43
454.058	10708.83
454.264	10491.74
454.47	10760.03
454.676	10440.54
454.882	10864.47
455.088	10041.19
455.294	10012.52
455.5	10301.28
455.705	10209.12
455.911	9934.7
456.117	9680.75
456.323	9674.6
456.529	8990.58
456.735	9373.55
456.941	9267.06
457.147	9158.52
457.352	8841.08
457.558	8603.52
457.764	8875.9
457.97	8697.72
458.176	8533.89
458.381	8576.89
458.587	8060.8
458.793	7772.04
458.999	7567.24
459.204	8005.51
459.41	7796.62
459.616	7335.82
459.821	7606.16
460.027	7499.66
460.233	7292.82
460.438	6748.06
460.644	6971.29
460.85	6698.91
461.055	6565.79
461.261	6498.2
461.466	6031.27
461.672	5877.67
461.878	6274.98
462.083	5810.09
462.289	5719.98
462.494	5722.02
462.7	5400.49
462.905	5236.66
463.111	5472.17
463.316	5466.03
463.522	5250.99
463.727	5437.36
463.932	5212.08
464.138	5394.35
464.343	5365.68
464.549	5201.84
464.754	5302.19
464.959	5281.71
465.165	5367.73
465.37	5046.19
465.575	4769.72
465.781	5205.94
465.986	5107.63
466.191	5072.82
466.397	4859.83
466.602	4607.93
466.807	4788.15
467.012	4722.62
467.218	4882.36
467.423	4685.75
467.628	4700.09
467.833	5097.39
468.038	4890.55
468.244	4722.62
468.449	4736.95
468.654	4726.71
468.859	4761.53
469.064	4700.09
