Data from USB4F104151__93__13-00-11-378.txt Node

Date: Fri Mar 14 13:00:11 EDT 2025
User: louis
Spectrometer: USB4F10415
Trigger mode: 4
Integration Time (sec): 1.000000E-2
Scans to average: 1
Electric dark correction enabled: true
Nonlinearity correction enabled: false
Boxcar width: 0
XAxis mode: Wavelengths
Number of Pixels in Spectrum: 3648
>>>>>Begin Spectral Data<<<<<
178.204	-5.8
178.424	-5.8
178.644	-5.8
178.864	-61.1
179.084	-50.86
179.304	96.6
179.524	-3.75
179.744	-26.28
179.964	-48.81
180.184	45.4
180.404	-9.9
180.624	-3.75
180.844	-11.95
181.064	-3.75
181.283	-26.28
181.503	6.49
181.723	-13.99
181.943	22.87
182.163	2.39
182.383	-5.8
182.602	0.34
182.822	-79.53
183.042	8.53
183.262	53.59
183.482	-26.28
183.701	-69.29
183.921	10.58
184.141	-32.43
184.361	-50.86
184.58	-28.33
184.8	-26.28
185.02	-59.05
185.239	20.82
185.459	43.35
185.679	22.87
185.898	-91.82
186.118	20.82
186.338	41.3
186.557	-50.86
186.777	67.92
186.997	6.49
187.216	0.34
187.436	31.06
187.655	-16.04
187.875	-16.04
188.095	8.53
188.314	65.88
188.534	6.49
188.753	45.4
188.973	10.58
189.192	47.44
189.412	55.64
189.631	45.4
189.851	-30.38
190.07	-13.99
190.29	6.49
190.509	4.44
190.729	41.3
190.948	14.68
191.168	-18.09
191.387	-11.95
191.607	26.96
191.826	37.2
192.045	14.68
192.265	4.44
192.484	4.44
192.704	-61.1
192.923	-3.75
193.142	29.01
193.362	29.01
193.581	-9.9
193.8	-1.71
194.02	16.73
194.239	-18.09
194.458	61.78
194.678	-38.57
194.897	-22.19
195.116	65.88
195.335	-3.75
195.555	33.11
195.774	-7.85
195.993	4.44
196.212	-11.95
196.432	-36.52
196.651	49.49
196.87	22.87
197.089	55.64
197.308	-11.95
197.528	2.39
197.747	-26.28
197.966	16.73
198.185	69.97
198.404	-9.9
198.623	29.01
198.842	2.39
199.062	-38.57
199.281	45.4
199.5	-44.71
199.719	16.73
199.938	4.44
200.157	-7.85
200.376	4.44
200.595	-11.95
200.814	-32.43
201.033	29.01
201.252	22.87
201.471	51.54
201.69	4.44
201.909	-34.47
202.128	12.63
202.347	41.3
202.566	-30.38
202.785	0.34
203.004	33.11
203.223	2.39
203.442	37.2
203.661	2.39
203.879	-18.09
204.098	26.96
204.317	-46.76
204.536	26.96
204.755	65.88
204.974	-32.43
205.193	29.01
205.411	29.01
205.63	22.87
205.849	45.4
206.068	-85.67
206.287	-20.14
206.505	-40.62
206.724	-1.71
206.943	16.73
207.162	-59.05
207.381	16.73
207.599	4.44
207.818	14.68
208.037	-36.52
208.255	12.63
208.474	86.36
208.693	-93.87
208.911	-28.33
209.13	-7.85
209.349	14.68
209.567	-1.71
209.786	10.58
210.005	-1.71
210.223	39.25
210.442	14.68
210.661	39.25
210.879	57.68
211.098	49.49
211.316	39.25
211.535	-52.91
211.753	61.78
211.972	47.44
212.191	-75.43
212.409	-13.99
212.628	22.87
212.846	29.01
213.065	18.77
213.283	92.5
213.502	14.68
213.72	16.73
213.938	-36.52
214.157	-3.75
214.375	-42.67
214.594	51.54
214.812	16.73
215.031	37.2
215.249	-36.52
215.467	31.06
215.686	-48.81
215.904	33.11
216.122	39.25
216.341	33.11
216.559	14.68
216.778	12.63
216.996	-18.09
217.214	104.79
217.432	-63.15
217.651	-36.52
217.869	-30.38
218.087	-75.43
218.306	29.01
218.524	84.31
218.742	6.49
218.96	80.21
219.179	53.59
219.397	47.44
219.615	8.53
219.833	72.02
220.051	-28.33
220.27	-18.09
220.488	43.35
220.706	10.58
220.924	12.63
221.142	-34.47
221.36	-1.71
221.578	24.92
221.796	-18.09
222.015	18.77
222.233	6.49
222.451	55.64
222.669	12.63
222.887	22.87
223.105	-18.09
223.323	-3.75
223.541	49.49
223.759	4.44
223.977	-3.75
224.195	72.02
224.413	33.11
224.631	10.58
224.849	-9.9
225.067	39.25
225.285	37.2
225.503	-52.91
225.721	18.77
225.939	31.06
226.157	29.01
226.375	55.64
226.592	18.77
226.81	55.64
227.028	35.16
227.246	10.58
227.464	-1.71
227.682	53.59
227.9	16.73
228.117	4.44
228.335	39.25
228.553	-7.85
228.771	10.58
228.989	12.63
229.206	14.68
229.424	-5.8
229.642	35.16
229.86	57.68
230.077	-11.95
230.295	-11.95
230.513	-24.23
230.731	65.88
230.948	76.12
231.166	-1.71
231.384	16.73
231.601	39.25
231.819	-24.23
232.037	-48.81
232.254	18.77
232.472	12.63
232.689	12.63
232.907	29.01
233.125	20.82
233.342	-13.99
233.56	-3.75
233.777	-32.43
233.995	49.49
234.213	8.53
234.43	47.44
234.648	33.11
234.865	-1.71
235.083	8.53
235.3	-24.23
235.518	96.6
235.735	37.2
235.953	102.74
236.17	-11.95
236.388	80.21
236.605	18.77
236.822	-3.75
237.04	0.34
237.257	22.87
237.475	24.92
237.692	61.78
237.909	16.73
238.127	18.77
238.344	20.82
238.562	45.4
238.779	0.34
238.996	-48.81
239.214	12.63
239.431	-7.85
239.648	-36.52
239.865	-22.19
240.083	24.92
240.3	-5.8
240.517	14.68
240.735	31.06
240.952	-36.52
241.169	65.88
241.386	-20.14
241.603	45.4
241.821	-77.48
242.038	-42.67
242.255	90.45
242.472	-85.67
242.689	35.16
242.907	31.06
243.124	24.92
243.341	10.58
243.558	12.63
243.775	29.01
243.992	37.2
244.209	-32.43
244.426	55.64
244.643	-18.09
244.86	-59.05
245.078	65.88
245.295	18.77
245.512	63.83
245.729	-28.33
245.946	-20.14
246.163	47.44
246.38	78.16
246.597	22.87
246.814	-1.71
247.031	31.06
247.248	20.82
247.464	33.11
247.681	-85.67
247.898	-30.38
248.115	0.34
248.332	-36.52
248.549	47.44
248.766	16.73
248.983	14.68
249.2	35.16
249.417	-50.86
249.633	26.96
249.85	33.11
250.067	-5.8
250.284	24.92
250.501	76.12
250.717	24.92
250.934	12.63
251.151	49.49
251.368	37.2
251.585	47.44
251.801	-3.75
252.018	39.25
252.235	4.44
252.451	-28.33
252.668	-13.99
252.885	22.87
253.102	2.39
253.318	18.77
253.535	-1.71
253.752	-26.28
253.968	37.2
254.185	-3.75
254.401	-11.95
254.618	-5.8
254.835	-46.76
255.051	41.3
255.268	2.39
255.484	-44.71
255.701	-11.95
255.917	-7.85
256.134	39.25
256.351	-5.8
256.567	16.73
256.784	-32.43
257	-52.91
257.217	4.44
257.433	55.64
257.65	-7.85
257.866	33.11
258.082	-11.95
258.299	-16.04
258.515	-7.85
258.732	-34.47
258.948	-65.19
259.165	37.2
259.381	43.35
259.597	-42.67
259.814	8.53
260.03	-5.8
260.246	6.49
260.463	45.4
260.679	-7.85
260.895	-30.38
261.112	-32.43
261.328	-3.75
261.544	-18.09
261.761	76.12
261.977	14.68
262.193	-30.38
262.409	82.26
262.626	33.11
262.842	59.73
263.058	-34.47
263.274	-7.85
263.49	31.06
263.707	78.16
263.923	45.4
264.139	47.44
264.355	-42.67
264.571	8.53
264.787	16.73
265.004	37.2
265.22	49.49
265.436	6.49
265.652	49.49
265.868	53.59
266.084	26.96
266.3	35.16
266.516	-32.43
266.732	-3.75
266.948	0.34
267.164	10.58
267.38	33.11
267.596	67.92
267.812	4.44
268.028	-20.14
268.244	-16.04
268.46	61.78
268.676	33.11
268.892	22.87
269.108	-13.99
269.324	45.4
269.54	12.63
269.756	-32.43
269.972	4.44
270.188	20.82
270.403	-69.29
270.619	29.01
270.835	78.16
271.051	-42.67
271.267	-54.95
271.483	-1.71
271.698	61.78
271.914	55.64
272.13	82.26
272.346	-85.67
272.562	63.83
272.777	102.74
272.993	-42.67
273.209	41.3
273.425	8.53
273.64	-24.23
273.856	8.53
274.072	-5.8
274.287	22.87
274.503	-5.8
274.719	-18.09
274.934	16.73
275.15	14.68
275.366	12.63
275.581	-5.8
275.797	37.2
276.012	31.06
276.228	24.92
276.444	16.73
276.659	18.77
276.875	-20.14
277.09	29.01
277.306	-67.24
277.521	20.82
277.737	-3.75
277.952	-16.04
278.168	14.68
278.383	12.63
278.599	16.73
278.814	-22.19
279.03	57.68
279.245	63.83
279.461	16.73
279.676	22.87
279.892	-7.85
280.107	-3.75
280.322	33.11
280.538	8.53
280.753	14.68
280.969	24.92
281.184	37.2
281.399	96.6
281.615	-81.58
281.83	39.25
282.045	-3.75
282.26	53.59
282.476	-13.99
282.691	-22.19
282.906	98.64
283.122	22.87
283.337	-28.33
283.552	8.53
283.767	8.53
283.983	45.4
284.198	-34.47
284.413	67.92
284.628	-13.99
284.843	-7.85
285.058	6.49
285.274	94.55
285.489	-7.85
285.704	55.64
285.919	-79.53
286.134	80.21
286.349	-20.14
286.564	33.11
286.779	0.34
286.995	39.25
287.21	24.92
287.425	37.2
287.64	-7.85
287.855	26.96
288.07	-42.67
288.285	104.79
288.5	49.49
288.715	-16.04
288.93	14.68
289.145	-3.75
289.36	10.58
289.575	49.49
289.79	-85.67
290.004	20.82
290.219	12.63
290.434	6.49
290.649	-20.14
290.864	14.68
291.079	-28.33
291.294	45.4
291.509	-44.71
291.724	61.78
291.938	72.02
292.153	-11.95
292.368	-32.43
292.583	20.82
292.798	-18.09
293.012	18.77
293.227	-24.23
293.442	12.63
293.657	22.87
293.871	45.4
294.086	10.58
294.301	82.26
294.516	14.68
294.73	53.59
294.945	-11.95
295.16	0.34
295.374	110.93
295.589	53.59
295.804	-34.47
296.018	16.73
296.233	51.54
296.447	33.11
296.662	41.3
296.877	80.21
297.091	6.49
297.306	-34.47
297.52	-1.71
297.735	-11.95
297.949	0.34
298.164	59.73
298.378	31.06
298.593	-59.05
298.807	-38.57
299.022	14.68
299.236	29.01
299.451	86.36
299.665	-40.62
299.88	-30.38
300.094	67.92
300.309	20.82
300.523	22.87
300.737	67.92
300.952	0.34
301.166	-48.81
301.381	12.63
301.595	8.53
301.809	37.2
302.024	-77.48
302.238	43.35
302.452	67.92
302.667	18.77
302.881	0.34
303.095	2.39
303.309	43.35
303.524	-32.43
303.738	69.97
303.952	-22.19
304.166	-13.99
304.381	-57
304.595	47.44
304.809	63.83
305.023	-24.23
305.237	29.01
305.452	55.64
305.666	-24.23
305.88	-1.71
306.094	37.2
306.308	22.87
306.522	2.39
306.736	29.01
306.95	8.53
307.164	12.63
307.379	-13.99
307.593	53.59
307.807	22.87
308.021	69.97
308.235	47.44
308.449	4.44
308.663	63.83
308.877	12.63
309.091	-3.75
309.305	0.34
309.519	4.44
309.733	-3.75
309.947	14.68
310.161	4.44
310.374	-36.52
310.588	41.3
310.802	-85.67
311.016	-44.71
311.23	-18.09
311.444	37.2
311.658	29.01
311.872	14.68
312.085	8.53
312.299	-50.86
312.513	22.87
312.727	-3.75
312.941	63.83
313.154	-3.75
313.368	2.39
313.582	29.01
313.796	18.77
314.009	51.54
314.223	53.59
314.437	29.01
314.651	55.64
314.864	86.36
315.078	-81.58
315.292	16.73
315.505	-40.62
315.719	76.12
315.933	22.87
316.146	80.21
316.36	-11.95
316.573	49.49
316.787	100.69
317.001	80.21
317.214	2.39
317.428	10.58
317.641	2.39
317.855	74.07
318.068	0.34
318.282	43.35
318.495	53.59
318.709	51.54
318.922	69.97
319.136	37.2
319.349	12.63
319.563	22.87
319.776	31.06
319.99	31.06
320.203	78.16
320.417	-18.09
320.63	67.92
320.843	90.45
321.057	20.82
321.27	65.88
321.483	12.63
321.697	22.87
321.91	24.92
322.124	18.77
322.337	78.16
322.55	-42.67
322.763	8.53
322.977	80.21
323.19	-22.19
323.403	-9.9
323.617	4.44
323.83	29.01
324.043	49.49
324.256	33.11
324.469	102.74
324.683	6.49
324.896	74.07
325.109	37.2
325.322	-9.9
325.535	22.87
325.748	-18.09
325.962	76.12
326.175	49.49
326.388	-18.09
326.601	67.92
326.814	-59.05
327.027	-11.95
327.24	12.63
327.453	45.4
327.666	78.16
327.879	-69.29
328.092	10.58
328.305	55.64
328.518	33.11
328.731	-57
328.944	63.83
329.157	49.49
329.37	2.39
329.583	24.92
329.796	92.5
330.009	94.55
330.222	4.44
330.435	22.87
330.648	41.3
330.861	53.59
331.073	31.06
331.286	41.3
331.499	67.92
331.712	-13.99
331.925	61.78
332.138	-46.76
332.35	10.58
332.563	33.11
332.776	45.4
332.989	4.44
333.202	-16.04
333.414	47.44
333.627	-3.75
333.84	88.4
334.053	41.3
334.265	29.01
334.478	10.58
334.691	-24.23
334.903	108.88
335.116	-38.57
335.329	-57
335.541	22.87
335.754	-16.04
335.966	-38.57
336.179	14.68
336.392	-13.99
336.604	16.73
336.817	35.16
337.029	10.58
337.242	37.2
337.454	84.31
337.667	-69.29
337.88	47.44
338.092	20.82
338.305	0.34
338.517	-36.52
338.729	22.87
338.942	-26.28
339.154	82.26
339.367	-1.71
339.579	39.25
339.792	12.63
340.004	49.49
340.217	-18.09
340.429	12.63
340.641	-11.95
340.854	24.92
341.066	-38.57
341.278	16.73
341.491	53.59
341.703	47.44
341.915	24.92
342.128	22.87
342.34	51.54
342.552	51.54
342.764	14.68
342.977	65.88
343.189	10.58
343.401	29.01
343.613	47.44
343.826	33.11
344.038	-30.38
344.25	29.01
344.462	-18.09
344.674	31.06
344.886	10.58
345.099	-3.75
345.311	76.12
345.523	22.87
345.735	20.82
345.947	-11.95
346.159	-9.9
346.371	49.49
346.583	-16.04
346.795	65.88
347.007	41.3
347.219	6.49
347.431	2.39
347.643	78.16
347.855	29.01
348.067	-13.99
348.279	-26.28
348.491	69.97
348.703	63.83
348.915	53.59
349.127	14.68
349.339	69.97
349.551	-54.95
349.763	14.68
349.975	29.01
350.187	39.25
350.399	29.01
350.61	67.92
350.822	14.68
351.034	-20.14
351.246	20.82
351.458	55.64
351.669	24.92
351.881	59.73
352.093	-18.09
352.305	63.83
352.517	31.06
352.728	76.12
352.94	-40.62
353.152	53.59
353.363	72.02
353.575	20.82
353.787	31.06
353.999	45.4
354.21	29.01
354.422	2.39
354.633	-13.99
354.845	-7.85
355.057	29.01
355.268	6.49
355.48	106.84
355.692	0.34
355.903	43.35
356.115	63.83
356.326	55.64
356.538	41.3
356.749	45.4
356.961	39.25
357.172	37.2
357.384	41.3
357.595	24.92
357.807	16.73
358.018	33.11
358.23	24.92
358.441	88.4
358.653	20.82
358.864	20.82
359.075	-7.85
359.287	90.45
359.498	49.49
359.709	-11.95
359.921	20.82
360.132	-26.28
360.344	78.16
360.555	-26.28
360.766	63.83
360.977	22.87
361.189	-42.67
361.4	14.68
361.611	-24.23
361.823	65.88
362.034	45.4
362.245	49.49
362.456	61.78
362.667	96.6
362.879	59.73
363.09	-42.67
363.301	6.49
363.512	0.34
363.723	-7.85
363.935	31.06
364.146	24.92
364.357	12.63
364.568	14.68
364.779	29.01
364.99	16.73
365.201	57.68
365.412	29.01
365.623	-48.81
365.834	-11.95
366.045	33.11
366.256	47.44
366.467	-59.05
366.678	14.68
366.889	-3.75
367.1	49.49
367.311	-7.85
367.522	12.63
367.733	43.35
367.944	-24.23
368.155	45.4
368.366	-52.91
368.577	51.54
368.788	39.25
368.999	-11.95
369.209	16.73
369.42	80.21
369.631	-30.38
369.842	-42.67
370.053	-11.95
370.264	8.53
370.474	-16.04
370.685	16.73
370.896	35.16
371.107	6.49
371.317	39.25
371.528	18.77
371.739	45.4
371.95	45.4
372.16	45.4
372.371	88.4
372.582	14.68
372.792	-16.04
373.003	61.78
373.214	47.44
373.424	29.01
373.635	59.73
373.846	-7.85
374.056	-34.47
374.267	110.93
374.477	90.45
374.688	59.73
374.898	31.06
375.109	10.58
375.319	-54.95
375.53	69.97
375.74	2.39
375.951	47.44
376.161	45.4
376.372	-71.34
376.582	59.73
376.793	-9.9
377.003	53.59
377.214	18.77
377.424	86.36
377.635	22.87
377.845	6.49
378.055	72.02
378.266	94.55
378.476	22.87
378.686	-54.95
378.897	-22.19
379.107	43.35
379.317	16.73
379.528	-1.71
379.738	78.16
379.948	-40.62
380.158	33.11
380.369	74.07
380.579	125.27
380.789	-3.75
380.999	8.53
381.21	69.97
381.42	57.68
381.63	20.82
381.84	49.49
382.05	-1.71
382.261	67.92
382.471	10.58
382.681	45.4
382.891	41.3
383.101	61.78
383.311	-28.33
383.521	0.34
383.731	-32.43
383.941	92.5
384.151	26.96
384.361	29.01
384.571	55.64
384.781	76.12
384.991	6.49
385.201	84.31
385.411	-50.86
385.621	4.44
385.831	-100.01
386.041	35.16
386.251	29.01
386.461	63.83
386.671	-11.95
386.881	29.01
387.091	-1.71
387.301	-3.75
387.511	20.82
387.72	16.73
387.93	-30.38
388.14	33.11
388.35	57.68
388.56	-11.95
388.769	41.3
388.979	-38.57
389.189	43.35
389.399	69.97
389.609	55.64
389.818	18.77
390.028	102.74
390.238	29.01
390.447	-7.85
390.657	43.35
390.867	33.11
391.076	26.96
391.286	-1.71
391.496	20.82
391.705	57.68
391.915	78.16
392.125	86.36
392.334	65.88
392.544	-11.95
392.753	49.49
392.963	20.82
393.172	37.2
393.382	-11.95
393.591	47.44
393.801	76.12
394.01	92.5
394.22	12.63
394.429	0.34
394.639	49.49
394.848	39.25
395.058	29.01
395.267	74.07
395.477	-40.62
395.686	63.83
395.895	37.2
396.105	102.74
396.314	-7.85
396.524	57.68
396.733	41.3
396.942	45.4
397.152	53.59
397.361	14.68
397.57	102.74
397.78	6.49
397.989	39.25
398.198	65.88
398.407	22.87
398.617	88.4
398.826	6.49
399.035	6.49
399.244	47.44
399.453	65.88
399.663	74.07
399.872	172.37
400.081	80.21
400.29	80.21
400.499	-30.38
400.708	22.87
400.917	72.02
401.127	78.16
401.336	26.96
401.545	55.64
401.754	20.82
401.963	39.25
402.172	49.49
402.381	117.08
402.59	61.78
402.799	63.83
403.008	72.02
403.217	110.93
403.426	8.53
403.635	33.11
403.844	49.49
404.053	59.73
404.262	53.59
404.471	53.59
404.68	72.02
404.888	53.59
405.097	106.84
405.306	51.54
405.515	121.17
405.724	110.93
405.933	90.45
406.142	53.59
406.35	74.07
406.559	86.36
406.768	174.42
406.977	90.45
407.185	129.36
407.394	153.94
407.603	82.26
407.812	135.51
408.02	65.88
408.229	164.18
408.438	106.84
408.646	55.64
408.855	121.17
409.064	94.55
409.272	145.75
409.481	94.55
409.69	135.51
409.898	149.84
410.107	139.6
410.315	180.56
410.524	92.5
410.733	143.7
410.941	129.36
411.15	176.47
411.358	147.8
411.567	219.47
411.775	280.91
411.984	233.81
412.192	190.8
412.401	280.91
412.609	287.06
412.818	203.09
413.026	293.2
413.234	211.28
413.443	221.52
413.651	278.87
413.86	242
414.068	328.02
414.276	330.06
414.485	340.3
414.693	246.1
414.901	266.58
415.11	383.31
415.318	282.96
415.526	418.13
415.734	403.79
415.943	414.03
416.151	418.13
416.359	340.3
416.567	403.79
416.776	407.89
416.984	493.9
417.192	514.38
417.4	471.37
417.608	467.28
417.817	614.73
418.025	602.44
418.233	579.92
418.441	622.92
418.649	551.24
418.857	643.4
419.065	639.31
419.273	647.5
419.481	721.23
419.689	805.19
419.897	713.03
420.105	676.17
420.313	749.9
420.521	811.34
420.729	770.38
420.937	774.47
421.145	880.97
421.353	934.22
421.561	1034.57
421.769	1040.71
421.977	1063.24
422.185	1012.04
422.393	1038.66
422.601	1149.25
422.809	1161.54
423.017	1063.24
423.224	1222.98
423.432	1225.03
423.64	1216.83
423.848	1323.33
424.056	1319.23
424.263	1409.34
424.471	1405.25
424.679	1300.8
424.887	1489.21
425.094	1669.44
425.302	1481.02
425.51	1560.89
425.718	1642.81
425.925	1732.92
426.133	1769.79
426.341	1823.03
426.548	2009.4
426.756	1913.14
426.964	2052.41
427.171	2117.94
427.379	2060.6
427.586	2093.37
427.794	2300.21
428.001	2267.44
428.209	2433.33
428.417	2416.94
428.624	2560.3
428.832	2619.69
429.039	2634.03
429.247	2548.01
429.454	2894.12
429.662	2971.94
429.869	2742.57
430.076	3039.53
430.284	2783.53
430.491	2969.9
430.699	3176.74
430.906	3270.95
431.114	3256.61
431.321	3363.11
431.528	3502.37
431.736	3645.73
431.943	3920.15
432.15	3791.13
432.358	3750.17
432.565	3950.87
432.772	4104.47
432.979	4106.52
433.187	4389.14
433.394	4344.08
433.601	4708.62
433.808	4614.41
434.016	4614.41
434.223	4722.96
434.43	5114.12
434.637	4899.08
434.844	5300.48
435.052	5382.4
435.259	5314.82
435.466	5505.28
435.673	5323.01
435.88	5939.45
436.087	5918.97
436.294	6076.66
436.501	5884.16
436.708	6009.08
436.915	6164.73
437.122	6439.16
437.329	6326.52
437.537	6686.96
437.743	6869.23
437.95	6729.97
438.157	7061.74
438.364	7434.47
438.571	7178.47
438.778	7307.49
438.985	8147.16
439.192	7803.1
439.399	7934.17
439.606	7891.16
439.813	8278.23
440.02	8779.98
440.227	8597.71
440.433	8478.93
440.64	8796.37
440.847	8626.39
441.054	8978.64
441.261	9492.68
441.467	9302.22
441.674	9701.57
441.881	10031.29
442.088	9937.09
442.294	9836.74
442.501	10105.02
442.708	10492.09
442.914	10825.9
443.121	11438.25
443.328	10971.31
443.534	11808.93
443.741	11616.42
443.948	11423.91
444.154	12351.64
444.361	12048.54
444.568	12239
444.774	12142.75
444.981	12300.44
445.187	12759.19
445.394	13154.44
445.6	12961.94
445.807	14143.61
446.013	13547.65
446.22	13869.19
446.426	14667.89
446.633	14479.48
446.839	15091.82
447.046	14415.99
447.252	15464.55
447.459	15511.66
447.665	15335.53
447.871	15966.31
448.078	16805.97
448.284	15810.66
448.491	16447.58
448.697	17133.65
448.903	17424.46
449.11	17508.43
449.316	17231.95
449.522	17467.47
449.728	17578.06
449.935	17995.84
450.141	17997.89
450.347	18645.05
450.553	18055.23
450.76	18133.06
450.966	18837.56
451.172	18792.5
451.378	18999.35
451.584	18780.21
451.791	19527.72
451.997	19312.69
452.203	19742.76
452.409	19677.23
452.615	19402.8
452.821	18903.09
453.027	18978.87
453.233	19634.22
453.44	18970.68
453.646	19046.45
453.852	19122.23
454.058	19546.16
454.264	19107.89
454.47	19206.19
454.676	18886.71
454.882	19406.89
455.088	17676.36
455.294	18092.1
455.5	18536.51
455.705	18614.33
455.911	17836.1
456.117	17698.89
456.323	17279.05
456.529	16343.13
456.735	17049.68
456.941	16568.41
457.147	16605.27
457.352	16080.99
457.558	15810.66
457.764	15738.98
457.97	15536.23
458.176	15261.8
458.381	15331.44
458.587	14573.69
458.793	14575.73
458.999	13707.4
459.204	14463.1
459.41	14229.63
459.616	13222.03
459.821	13416.58
460.027	13355.15
460.233	13136.01
460.438	12624.02
460.644	12550.29
460.85	11585.7
461.055	11860.13
461.261	11894.94
461.466	10940.59
461.672	10539.19
461.878	11292.84
462.083	10520.76
462.289	10369.21
462.494	10166.46
462.7	9914.56
462.905	9595.07
463.111	9877.69
463.316	10057.92
463.522	9636.03
463.727	9545.92
463.932	9844.93
464.138	9605.31
464.343	9476.29
464.549	9236.68
464.754	9818.3
464.959	9519.3
465.165	9377.99
465.37	9095.37
465.575	8923.34
465.781	9203.91
465.986	9070.79
466.191	8935.63
466.397	8792.27
466.602	8364.25
466.807	8691.92
467.012	8696.02
467.218	8601.81
467.423	8689.87
467.628	8663.25
467.833	8997.07
468.038	8542.42
468.244	8470.74
468.449	8825.04
468.654	8483.03
468.859	8370.39
