Data from USB4F104151__44__12-59-07-865.txt Node

Date: Fri Mar 14 12:59:07 EDT 2025
User: louis
Spectrometer: USB4F10415
Trigger mode: 4
Integration Time (sec): 1.000000E-2
Scans to average: 1
Electric dark correction enabled: true
Nonlinearity correction enabled: false
Boxcar width: 0
XAxis mode: Wavelengths
Number of Pixels in Spectrum: 3648
>>>>>Begin Spectral Data<<<<<
178.204	-41.13
178.424	-41.13
178.644	-41.13
178.864	-57.51
179.084	-63.66
179.304	18.26
179.524	-80.04
179.744	-51.37
179.964	-47.27
180.184	-14.51
180.404	14.17
180.624	36.69
180.844	40.79
181.064	-2.22
181.283	-22.7
181.503	30.55
181.723	77.65
181.943	-41.13
182.163	42.84
182.383	26.45
182.602	26.45
182.822	-32.94
183.042	-26.79
183.262	20.31
183.482	-63.66
183.701	-26.79
183.921	-20.65
184.141	5.97
184.361	30.55
184.58	40.79
184.8	-67.75
185.02	-57.51
185.239	8.02
185.459	32.6
185.679	-8.36
185.898	-43.18
186.118	55.12
186.338	3.93
186.557	10.07
186.777	-39.08
186.997	-2.22
187.216	-63.66
187.436	-18.6
187.655	5.97
187.875	67.41
188.095	46.93
188.314	30.55
188.534	75.6
188.753	-2.22
188.973	20.31
189.192	40.79
189.412	36.69
189.631	1.88
189.851	48.98
190.07	-94.38
190.29	-20.65
190.509	22.36
190.729	-84.14
190.948	-28.84
191.168	14.17
191.387	79.7
191.607	-28.84
191.826	5.97
192.045	-8.36
192.265	-2.22
192.484	-30.89
192.704	1.88
192.923	-65.71
193.142	30.55
193.362	-14.51
193.581	14.17
193.8	26.45
194.02	-16.55
194.239	28.5
194.458	-12.46
194.678	20.31
194.897	-6.31
195.116	26.45
195.335	14.17
195.555	5.97
195.774	-6.31
195.993	-8.36
196.212	-10.41
196.432	46.93
196.651	3.93
196.87	-57.51
197.089	20.31
197.308	-53.42
197.528	16.21
197.747	-26.79
197.966	-16.55
198.185	75.6
198.404	18.26
198.623	1.88
198.842	-26.79
199.062	1.88
199.281	24.4
199.5	-41.13
199.719	61.27
199.938	1.88
200.157	5.97
200.376	36.69
200.595	57.17
200.814	-4.27
201.033	-22.7
201.252	-4.27
201.471	63.32
201.69	20.31
201.909	53.08
202.128	10.07
202.347	48.98
202.566	-63.66
202.785	-6.31
203.004	-24.75
203.223	-20.65
203.442	-2.22
203.661	28.5
203.879	5.97
204.098	61.27
204.317	20.31
204.536	89.94
204.755	22.36
204.974	-55.47
205.193	34.64
205.411	65.36
205.63	-22.7
205.849	5.97
206.068	-26.79
206.287	-14.51
206.505	-0.17
206.724	18.26
206.943	-20.65
207.162	-16.55
207.381	59.22
207.599	26.45
207.818	3.93
208.037	-34.99
208.255	-73.9
208.474	-20.65
208.693	46.93
208.911	10.07
209.13	-6.31
209.349	42.84
209.567	79.7
209.786	-10.41
210.005	-18.6
210.223	24.4
210.442	-10.41
210.661	18.26
210.879	3.93
211.098	-47.27
211.316	-59.56
211.535	79.7
211.753	-28.84
211.972	18.26
212.191	46.93
212.409	-4.27
212.628	-34.99
212.846	-20.65
213.065	-14.51
213.283	5.97
213.502	44.88
213.72	-59.56
213.938	-6.31
214.157	32.6
214.375	1.88
214.594	-59.56
214.812	-61.61
215.031	-16.55
215.249	10.07
215.467	16.21
215.686	48.98
215.904	3.93
216.122	-67.75
216.341	22.36
216.559	-2.22
216.778	36.69
216.996	-32.94
217.214	55.12
217.432	32.6
217.651	-71.85
217.869	44.88
218.087	-6.31
218.306	-61.61
218.524	59.22
218.742	-26.79
218.96	5.97
219.179	12.12
219.397	55.12
219.615	44.88
219.833	32.6
220.051	-12.46
220.27	55.12
220.488	30.55
220.706	18.26
220.924	8.02
221.142	-41.13
221.36	10.07
221.578	16.21
221.796	38.74
222.015	-18.6
222.233	40.79
222.451	87.89
222.669	-4.27
222.887	81.75
223.105	-57.51
223.323	-0.17
223.541	-28.84
223.759	-2.22
223.977	-26.79
224.195	91.99
224.413	81.75
224.631	65.36
224.849	73.56
225.067	34.64
225.285	-32.94
225.503	38.74
225.721	3.93
225.939	14.17
226.157	51.03
226.375	38.74
226.592	-8.36
226.81	5.97
227.028	28.5
227.246	34.64
227.464	-10.41
227.682	-2.22
227.9	-22.7
228.117	46.93
228.335	24.4
228.553	53.08
228.771	-10.41
228.989	63.32
229.206	5.97
229.424	1.88
229.642	32.6
229.86	10.07
230.077	-0.17
230.295	-10.41
230.513	-0.17
230.731	-10.41
230.948	22.36
231.166	-37.03
231.384	18.26
231.601	30.55
231.819	46.93
232.037	-28.84
232.254	-65.71
232.472	57.17
232.689	75.6
232.907	57.17
233.125	59.22
233.342	46.93
233.56	-32.94
233.777	-51.37
233.995	18.26
234.213	-22.7
234.43	-8.36
234.648	-18.6
234.865	20.31
235.083	-4.27
235.3	40.79
235.518	-24.75
235.735	55.12
235.953	69.46
236.17	26.45
236.388	-22.7
236.605	57.17
236.822	12.12
237.04	18.26
237.257	-37.03
237.475	-22.7
237.692	-47.27
237.909	-32.94
238.127	-16.55
238.344	28.5
238.562	44.88
238.779	-14.51
238.996	-51.37
239.214	-4.27
239.431	22.36
239.648	-6.31
239.865	-41.13
240.083	30.55
240.3	16.21
240.517	-8.36
240.735	-2.22
240.952	-10.41
241.169	63.32
241.386	65.36
241.603	79.7
241.821	24.4
242.038	1.88
242.255	-30.89
242.472	8.02
242.689	55.12
242.907	40.79
243.124	5.97
243.341	-59.56
243.558	-16.55
243.775	63.32
243.992	-43.18
244.209	-18.6
244.426	46.93
244.643	-2.22
244.86	-24.75
245.078	34.64
245.295	30.55
245.512	87.89
245.729	-6.31
245.946	20.31
246.163	8.02
246.38	-18.6
246.597	3.93
246.814	36.69
247.031	42.84
247.248	-4.27
247.464	1.88
247.681	-14.51
247.898	-45.23
248.115	8.02
248.332	-18.6
248.549	36.69
248.766	-80.04
248.983	12.12
249.2	-0.17
249.417	-34.99
249.633	-43.18
249.85	55.12
250.067	-4.27
250.284	14.17
250.501	65.36
250.717	59.22
250.934	-14.51
251.151	42.84
251.368	22.36
251.585	-30.89
251.801	-4.27
252.018	46.93
252.235	18.26
252.451	26.45
252.668	34.64
252.885	-30.89
253.102	-2.22
253.318	14.17
253.535	-43.18
253.752	24.4
253.968	24.4
254.185	-8.36
254.401	14.17
254.618	-37.03
254.835	-12.46
255.051	89.94
255.268	-16.55
255.484	-16.55
255.701	46.93
255.917	20.31
256.134	22.36
256.351	-20.65
256.567	-8.36
256.784	32.6
257	-18.6
257.217	-14.51
257.433	42.84
257.65	-28.84
257.866	65.36
258.082	28.5
258.299	-28.84
258.515	-14.51
258.732	63.32
258.948	40.79
259.165	-45.23
259.381	3.93
259.597	-4.27
259.814	16.21
260.03	-59.56
260.246	57.17
260.463	32.6
260.679	46.93
260.895	14.17
261.112	14.17
261.328	38.74
261.544	18.26
261.761	55.12
261.977	-4.27
262.193	-26.79
262.409	-0.17
262.626	12.12
262.842	10.07
263.058	14.17
263.274	65.36
263.49	3.93
263.707	5.97
263.923	-12.46
264.139	-34.99
264.355	-22.7
264.571	14.17
264.787	44.88
265.004	10.07
265.22	1.88
265.436	8.02
265.652	-4.27
265.868	51.03
266.084	79.7
266.3	10.07
266.516	-4.27
266.732	22.36
266.948	-37.03
267.164	34.64
267.38	77.65
267.596	5.97
267.812	61.27
268.028	-18.6
268.244	-51.37
268.46	-32.94
268.676	-12.46
268.892	30.55
269.108	-22.7
269.324	-12.46
269.54	24.4
269.756	5.97
269.972	-16.55
270.188	48.98
270.403	-4.27
270.619	24.4
270.835	3.93
271.051	38.74
271.267	24.4
271.483	28.5
271.698	-2.22
271.914	69.46
272.13	12.12
272.346	104.28
272.562	63.32
272.777	1.88
272.993	63.32
273.209	-6.31
273.425	38.74
273.64	-37.03
273.856	46.93
274.072	3.93
274.287	-0.17
274.503	10.07
274.719	-32.94
274.934	28.5
275.15	-24.75
275.366	-10.41
275.581	16.21
275.797	16.21
276.012	-16.55
276.228	20.31
276.444	-49.32
276.659	-12.46
276.875	59.22
277.09	63.32
277.306	-24.75
277.521	-26.79
277.737	59.22
277.952	28.5
278.168	67.41
278.383	63.32
278.599	63.32
278.814	3.93
279.03	1.88
279.245	-26.79
279.461	-12.46
279.676	-16.55
279.892	38.74
280.107	-12.46
280.322	-14.51
280.538	24.4
280.753	-22.7
280.969	-104.62
281.184	18.26
281.399	32.6
281.615	-20.65
281.83	-10.41
282.045	-59.56
282.26	10.07
282.476	-28.84
282.691	89.94
282.906	-32.94
283.122	24.4
283.337	3.93
283.552	44.88
283.767	-10.41
283.983	34.64
284.198	-34.99
284.413	42.84
284.628	89.94
284.843	36.69
285.058	-26.79
285.274	-18.6
285.489	-51.37
285.704	48.98
285.919	10.07
286.134	26.45
286.349	-73.9
286.564	22.36
286.779	10.07
286.995	65.36
287.21	69.46
287.425	-0.17
287.64	-69.8
287.855	110.42
288.07	-49.32
288.285	63.32
288.5	51.03
288.715	112.47
288.93	-24.75
289.145	-34.99
289.36	-8.36
289.575	-34.99
289.79	-12.46
290.004	65.36
290.219	85.84
290.434	24.4
290.649	55.12
290.864	-10.41
291.079	26.45
291.294	1.88
291.509	40.79
291.724	30.55
291.938	10.07
292.153	63.32
292.368	12.12
292.583	61.27
292.798	40.79
293.012	38.74
293.227	-6.31
293.442	118.61
293.657	-2.22
293.871	-14.51
294.086	26.45
294.301	-6.31
294.516	5.97
294.73	-59.56
294.945	16.21
295.16	36.69
295.374	38.74
295.589	51.03
295.804	-2.22
296.018	-8.36
296.233	-2.22
296.447	44.88
296.662	44.88
296.877	20.31
297.091	1.88
297.306	32.6
297.52	32.6
297.735	71.51
297.949	69.46
298.164	55.12
298.378	-24.75
298.593	22.36
298.807	-6.31
299.022	24.4
299.236	57.17
299.451	22.36
299.665	-4.27
299.88	57.17
300.094	-2.22
300.309	79.7
300.523	30.55
300.737	65.36
300.952	10.07
301.166	30.55
301.381	32.6
301.595	5.97
301.809	-59.56
302.024	1.88
302.238	-57.51
302.452	53.08
302.667	-37.03
302.881	-0.17
303.095	10.07
303.309	-8.36
303.524	-6.31
303.738	-55.47
303.952	-45.23
304.166	116.56
304.381	-0.17
304.595	102.23
304.809	-100.52
305.023	-22.7
305.237	32.6
305.452	-30.89
305.666	44.88
305.88	42.84
306.094	5.97
306.308	100.18
306.522	24.4
306.736	-22.7
306.95	-39.08
307.164	-43.18
307.379	18.26
307.593	22.36
307.807	1.88
308.021	79.7
308.235	55.12
308.449	8.02
308.663	-57.51
308.877	-4.27
309.091	69.46
309.305	-32.94
309.519	3.93
309.733	10.07
309.947	46.93
310.161	-47.27
310.374	-2.22
310.588	-6.31
310.802	-0.17
311.016	22.36
311.23	3.93
311.444	44.88
311.658	46.93
311.872	40.79
312.085	8.02
312.299	1.88
312.513	46.93
312.727	79.7
312.941	-24.75
313.154	8.02
313.368	-84.14
313.582	57.17
313.796	48.98
314.009	5.97
314.223	46.93
314.437	104.28
314.651	-37.03
314.864	-116.9
315.078	-30.89
315.292	-32.94
315.505	-18.6
315.719	8.02
315.933	-4.27
316.146	1.88
316.36	83.8
316.573	-71.85
316.787	38.74
317.001	30.55
317.214	12.12
317.428	67.41
317.641	18.26
317.855	94.04
318.068	-4.27
318.282	30.55
318.495	-18.6
318.709	36.69
318.922	18.26
319.136	-34.99
319.349	-2.22
319.563	42.84
319.776	-57.51
319.99	-34.99
320.203	-26.79
320.417	-32.94
320.63	-104.62
320.843	38.74
321.057	26.45
321.27	24.4
321.483	-6.31
321.697	63.32
321.91	-2.22
322.124	40.79
322.337	-10.41
322.55	-39.08
322.763	-2.22
322.977	16.21
323.19	46.93
323.403	8.02
323.617	22.36
323.83	28.5
324.043	-49.32
324.256	40.79
324.469	46.93
324.683	3.93
324.896	30.55
325.109	38.74
325.322	-32.94
325.535	55.12
325.748	46.93
325.962	1.88
326.175	5.97
326.388	-12.46
326.601	34.64
326.814	12.12
327.027	30.55
327.24	20.31
327.453	-45.23
327.666	-24.75
327.879	-20.65
328.092	89.94
328.305	-14.51
328.518	24.4
328.731	10.07
328.944	-2.22
329.157	-12.46
329.37	-0.17
329.583	38.74
329.796	-0.17
330.009	-20.65
330.222	24.4
330.435	34.64
330.648	63.32
330.861	53.08
331.073	-55.47
331.286	63.32
331.499	5.97
331.712	-14.51
331.925	1.88
332.138	8.02
332.35	42.84
332.563	-16.55
332.776	26.45
332.989	53.08
333.202	10.07
333.414	3.93
333.627	-8.36
333.84	77.65
334.053	-49.32
334.265	-22.7
334.478	16.21
334.691	-6.31
334.903	87.89
335.116	16.21
335.329	28.5
335.541	-2.22
335.754	89.94
335.966	14.17
336.179	44.88
336.392	-18.6
336.604	85.84
336.817	16.21
337.029	28.5
337.242	77.65
337.454	132.95
337.667	-20.65
337.88	-20.65
338.092	34.64
338.305	-8.36
338.517	3.93
338.729	-2.22
338.942	61.27
339.154	18.26
339.367	-10.41
339.579	-14.51
339.792	42.84
340.004	46.93
340.217	55.12
340.429	12.12
340.641	-30.89
340.854	32.6
341.066	-22.7
341.278	20.31
341.491	-6.31
341.703	5.97
341.915	26.45
342.128	18.26
342.34	-16.55
342.552	-4.27
342.764	57.17
342.977	1.88
343.189	14.17
343.401	-0.17
343.613	-4.27
343.826	16.21
344.038	-18.6
344.25	63.32
344.462	-8.36
344.674	22.36
344.886	40.79
345.099	63.32
345.311	10.07
345.523	63.32
345.735	-10.41
345.947	38.74
346.159	67.41
346.371	46.93
346.583	3.93
346.795	30.55
347.007	-14.51
347.219	26.45
347.431	-34.99
347.643	118.61
347.855	-0.17
348.067	-2.22
348.279	61.27
348.491	98.13
348.703	10.07
348.915	-4.27
349.127	14.17
349.339	40.79
349.551	-28.84
349.763	16.21
349.975	77.65
350.187	16.21
350.399	3.93
350.61	55.12
350.822	-6.31
351.034	-39.08
351.246	-6.31
351.458	46.93
351.669	48.98
351.881	55.12
352.093	16.21
352.305	-16.55
352.517	-51.37
352.728	85.84
352.94	1.88
353.152	5.97
353.363	-2.22
353.575	12.12
353.787	3.93
353.999	20.31
354.21	20.31
354.422	-32.94
354.633	30.55
354.845	-2.22
355.057	-12.46
355.268	30.55
355.48	-69.8
355.692	30.55
355.903	-10.41
356.115	36.69
356.326	16.21
356.538	63.32
356.749	87.89
356.961	16.21
357.172	57.17
357.384	-49.32
357.595	48.98
357.807	30.55
358.018	1.88
358.23	-26.79
358.441	69.46
358.653	-26.79
358.864	-41.13
359.075	32.6
359.287	28.5
359.498	75.6
359.709	5.97
359.921	-20.65
360.132	79.7
360.344	91.99
360.555	16.21
360.766	14.17
360.977	-45.23
361.189	22.36
361.4	-51.37
361.611	96.08
361.823	-6.31
362.034	46.93
362.245	8.02
362.456	44.88
362.667	14.17
362.879	53.08
363.09	18.26
363.301	-2.22
363.512	-18.6
363.723	75.6
363.935	5.97
364.146	-0.17
364.357	12.12
364.568	36.69
364.779	32.6
364.99	57.17
365.201	-80.04
365.412	51.03
365.623	14.17
365.834	38.74
366.045	-10.41
366.256	48.98
366.467	-12.46
366.678	-20.65
366.889	-8.36
367.1	36.69
367.311	26.45
367.522	36.69
367.733	-14.51
367.944	5.97
368.155	5.97
368.366	26.45
368.577	14.17
368.788	110.42
368.999	-2.22
369.209	-6.31
369.42	69.46
369.631	38.74
369.842	5.97
370.053	40.79
370.264	51.03
370.474	-2.22
370.685	-45.23
370.896	-0.17
371.107	-0.17
371.317	20.31
371.528	30.55
371.739	40.79
371.95	51.03
372.16	30.55
372.371	16.21
372.582	40.79
372.792	-8.36
373.003	-26.79
373.214	83.8
373.424	48.98
373.635	-2.22
373.846	61.27
374.056	69.46
374.267	61.27
374.477	-18.6
374.688	42.84
374.898	-53.42
375.109	5.97
375.319	12.12
375.53	38.74
375.74	-26.79
375.951	-20.65
376.161	12.12
376.372	51.03
376.582	30.55
376.793	28.5
377.003	83.8
377.214	63.32
377.424	16.21
377.635	36.69
377.845	-0.17
378.055	30.55
378.266	40.79
378.476	-45.23
378.686	14.17
378.897	51.03
379.107	8.02
379.317	32.6
379.528	34.64
379.738	106.32
379.948	63.32
380.158	30.55
380.369	79.7
380.579	18.26
380.789	55.12
380.999	57.17
381.21	-26.79
381.42	8.02
381.63	22.36
381.84	57.17
382.05	32.6
382.261	-22.7
382.471	32.6
382.681	-26.79
382.891	34.64
383.101	34.64
383.311	-16.55
383.521	55.12
383.731	-32.94
383.941	48.98
384.151	-4.27
384.361	38.74
384.571	30.55
384.781	-37.03
384.991	61.27
385.201	77.65
385.411	73.56
385.621	8.02
385.831	55.12
386.041	10.07
386.251	38.74
386.461	34.64
386.671	-6.31
386.881	-30.89
387.091	32.6
387.301	36.69
387.511	-16.55
387.72	55.12
387.93	18.26
388.14	-6.31
388.35	30.55
388.56	98.13
388.769	8.02
388.979	57.17
389.189	51.03
389.399	63.32
389.609	89.94
389.818	91.99
390.028	30.55
390.238	36.69
390.447	14.17
390.657	26.45
390.867	14.17
391.076	5.97
391.286	-22.7
391.496	12.12
391.705	55.12
391.915	34.64
392.125	36.69
392.334	42.84
392.544	-24.75
392.753	65.36
392.963	51.03
393.172	42.84
393.382	-57.51
393.591	46.93
393.801	20.31
394.01	71.51
394.22	10.07
394.429	46.93
394.639	18.26
394.848	63.32
395.058	69.46
395.267	16.21
395.477	-80.04
395.686	100.18
395.895	71.51
396.105	46.93
396.314	48.98
396.524	28.5
396.733	96.08
396.942	75.6
397.152	30.55
397.361	79.7
397.57	53.08
397.78	73.56
397.989	61.27
398.198	75.6
398.407	22.36
398.617	32.6
398.826	59.22
399.035	34.64
399.244	81.75
399.453	96.08
399.663	22.36
399.872	89.94
400.081	51.03
400.29	96.08
400.499	85.84
400.708	110.42
400.917	3.93
401.127	157.52
401.336	12.12
401.545	67.41
401.754	118.61
401.963	40.79
402.172	-4.27
402.381	16.21
402.59	30.55
402.799	126.8
403.008	85.84
403.217	85.84
403.426	65.36
403.635	83.8
403.844	71.51
404.053	46.93
404.262	63.32
404.471	163.67
404.68	67.41
404.888	65.36
405.097	202.58
405.306	139.09
405.515	143.19
405.724	94.04
405.933	91.99
406.142	112.47
406.35	128.85
406.559	110.42
406.768	61.27
406.977	118.61
407.185	104.28
407.394	155.47
407.603	135
407.812	169.81
408.02	169.81
408.229	190.29
408.438	114.52
408.646	128.85
408.855	57.17
409.064	94.04
409.272	122.71
409.481	188.24
409.69	165.71
409.898	171.86
410.107	120.66
410.315	135
410.524	96.08
410.733	126.8
410.941	173.91
411.15	251.73
411.358	225.11
411.567	188.24
411.775	184.15
411.984	202.58
412.192	210.77
412.401	341.84
412.609	347.98
412.818	296.78
413.026	264.02
413.234	261.97
413.443	245.59
413.651	319.31
413.86	319.31
414.068	329.55
414.276	411.47
414.485	380.75
414.693	401.23
414.901	431.95
415.11	405.33
415.318	415.57
415.526	483.15
415.734	452.43
415.943	517.97
416.151	466.77
416.359	522.06
416.567	450.38
416.776	513.87
416.984	622.41
417.192	548.68
417.4	599.88
417.608	655.18
417.817	663.37
418.025	636.75
418.233	718.67
418.441	642.89
418.649	712.52
418.857	761.67
419.065	765.77
419.273	786.25
419.481	767.82
419.689	835.4
419.897	851.78
420.105	902.98
420.313	839.5
420.521	976.71
420.729	907.08
420.937	966.47
421.145	1017.67
421.353	1079.11
421.561	1140.55
421.769	1122.12
421.977	1300.29
422.185	1277.76
422.393	1210.18
422.601	1398.59
422.809	1300.29
423.017	1298.24
423.224	1431.36
423.432	1517.37
423.64	1464.13
423.848	1605.44
424.056	1603.39
424.263	1650.49
424.471	1799.99
424.679	1705.79
424.887	1777.47
425.094	1951.54
425.302	1939.26
425.51	1877.82
425.718	2002.74
425.925	2002.74
426.133	2172.72
426.341	2182.96
426.548	2234.16
426.756	2285.36
426.964	2285.36
427.171	2457.39
427.379	2508.59
427.586	2635.57
427.794	2596.65
428.001	2735.92
428.209	2795.31
428.417	2780.97
428.624	3112.74
428.832	3053.35
429.039	3051.3
429.247	3059.49
429.454	3419.94
429.662	3690.27
429.869	3170.08
430.076	3675.93
430.284	3329.83
430.491	3784.48
430.699	3768.09
430.906	3755.8
431.114	3966.74
431.321	4001.56
431.528	4151.06
431.736	4400.91
431.943	4697.87
432.15	4558.61
432.358	4548.37
432.565	4882.19
432.772	4691.73
432.979	4773.64
433.187	5097.22
433.394	5097.22
433.601	5394.18
433.808	5480.19
434.016	5302.02
434.223	5564.16
434.43	5988.09
434.637	5801.72
434.844	6172.41
435.052	6299.38
435.259	6469.36
435.466	6309.62
435.673	6297.33
435.88	6786.8
436.087	7241.45
436.294	7104.23
436.501	6979.31
436.708	7016.17
436.915	7370.47
437.122	7552.74
437.329	7507.68
437.537	7714.53
437.743	7984.86
437.95	7913.18
438.157	8208.09
438.364	8687.31
438.571	8541.91
438.778	8548.05
438.985	9379.53
439.192	9008.84
439.399	9240.26
439.606	9187.02
439.813	9643.71
440.02	10333.88
440.227	10032.83
440.433	9932.48
440.64	10327.74
440.847	10331.83
441.054	10411.7
441.261	11441.83
441.467	11095.72
441.674	11447.97
441.881	11572.9
442.088	11710.11
442.294	11486.89
442.501	11949.73
442.708	12068.51
442.914	12699.28
443.121	13164.17
443.328	12760.72
443.534	13530.76
443.741	13409.93
443.948	13262.47
444.154	13911.68
444.361	14204.54
444.568	14161.53
444.774	14087.81
444.981	14386.81
445.187	14745.2
445.394	15441.51
445.6	15199.85
445.807	16772.69
446.013	16037.47
446.22	16338.52
446.426	16873.04
446.633	17061.46
446.839	17653.32
447.046	16887.38
447.252	17839.69
447.459	17831.49
447.665	17835.59
447.871	18775.61
448.078	19424.81
448.284	18763.32
448.491	19303.98
448.697	20006.44
448.903	20061.73
449.11	20532.76
449.316	19834.41
449.522	20553.24
449.728	21038.61
449.935	21231.12
450.141	21370.38
450.347	21478.93
450.553	21034.52
450.76	21282.32
450.966	22091.27
451.172	21687.82
451.378	22580.73
451.584	21921.29
451.791	22590.97
451.997	22416.9
452.203	22930.94
452.409	22846.97
452.615	22724.09
452.821	21728.78
453.027	21816.84
453.233	23039.48
453.44	21933.57
453.646	22146.56
453.852	22445.57
454.058	22631.93
454.264	22093.32
454.47	22246.91
454.676	21558.8
454.882	22715.9
455.088	20784.66
455.294	21296.66
455.5	21536.27
455.705	21552.65
455.911	20590.11
456.117	20155.94
456.323	20108.83
456.529	19177.01
456.735	20125.22
456.941	19439.15
457.147	19164.72
457.352	18480.7
457.558	18288.19
457.764	18466.36
457.97	18093.63
458.176	17524.3
458.381	17679.94
458.587	16674.39
458.793	16895.57
458.999	15853.16
459.204	16969.3
459.41	16465.5
459.616	15335.02
459.821	15474.28
460.027	15472.23
460.233	15050.35
460.438	14216.83
460.644	14347.9
460.85	13919.87
461.055	13559.43
461.261	13688.45
461.466	12607.12
461.672	12314.27
461.878	13239.95
462.083	12328.6
462.289	11857.57
462.494	11845.28
462.7	11185.83
462.905	11038.38
463.111	11472.55
463.316	11359.91
463.522	11204.27
463.727	11187.88
463.932	11099.82
464.138	11333.29
464.343	11030.19
464.549	10872.5
464.754	11179.69
464.959	11024.05
465.165	11065
465.37	10559.16
465.575	10282.68
465.781	10675.89
465.986	11015.85
466.191	10321.59
466.397	10192.57
466.602	9658.05
466.807	10112.7
467.012	10065.6
467.218	10032.83
467.423	9965.25
467.628	9877.18
