Data from USB4F104151__58__12-59-19-264.txt Node

Date: Fri Mar 14 12:59:19 EDT 2025
User: louis
Spectrometer: USB4F10415
Trigger mode: 4
Integration Time (sec): 1.000000E-2
Scans to average: 1
Electric dark correction enabled: true
Nonlinearity correction enabled: false
Boxcar width: 0
XAxis mode: Wavelengths
Number of Pixels in Spectrum: 3648
>>>>>Begin Spectral Data<<<<<
178.204	-49.83
178.424	-49.83
178.644	-49.83
178.864	-51.88
179.084	-80.55
179.304	-47.79
179.524	-0.68
179.744	-12.97
179.964	3.41
180.184	-0.68
180.404	46.42
180.624	-47.79
180.844	-45.74
181.064	-2.73
181.283	34.13
181.503	7.51
181.723	66.9
181.943	-31.4
182.163	36.18
182.383	3.41
182.602	103.76
182.822	-21.16
183.042	-17.07
183.262	-0.68
183.482	68.95
183.701	-35.5
183.921	48.47
184.141	11.61
184.361	38.23
184.58	-41.64
184.8	-39.59
185.02	13.65
185.239	48.47
185.459	13.65
185.679	5.46
185.898	23.89
186.118	54.61
186.338	-47.79
186.557	-17.07
186.777	-15.02
186.997	-29.35
187.216	-53.93
187.436	75.09
187.655	-37.55
187.875	13.65
188.095	-21.16
188.314	75.09
188.534	15.7
188.753	32.08
188.973	11.61
189.192	21.85
189.412	42.32
189.631	5.46
189.851	40.28
190.07	-21.16
190.29	-51.88
190.509	-21.16
190.729	27.99
190.948	32.08
191.168	99.67
191.387	34.13
191.607	27.99
191.826	77.14
192.045	25.94
192.265	13.65
192.484	38.23
192.704	32.08
192.923	11.61
193.142	25.94
193.362	7.51
193.581	-17.07
193.8	-76.46
194.02	-39.59
194.239	25.94
194.458	-41.64
194.678	40.28
194.897	52.56
195.116	-12.97
195.335	17.75
195.555	52.56
195.774	46.42
195.993	64.85
196.212	62.8
196.432	11.61
196.651	-0.68
196.87	-19.11
197.089	-6.83
197.308	46.42
197.528	40.28
197.747	-19.11
197.966	23.89
198.185	-51.88
198.404	-0.68
198.623	44.37
198.842	-12.97
199.062	-4.78
199.281	34.13
199.5	1.37
199.719	-4.78
199.938	-6.83
200.157	7.51
200.376	23.89
200.595	34.13
200.814	-15.02
201.033	13.65
201.252	79.19
201.471	7.51
201.69	40.28
201.909	-41.64
202.128	3.41
202.347	44.37
202.566	34.13
202.785	34.13
203.004	21.85
203.223	5.46
203.442	-45.74
203.661	11.61
203.879	66.9
204.098	-8.87
204.317	-0.68
204.536	73.04
204.755	52.56
204.974	19.8
205.193	38.23
205.411	-17.07
205.63	17.75
205.849	56.66
206.068	19.8
206.287	66.9
206.505	-4.78
206.724	21.85
206.943	-2.73
207.162	40.28
207.381	116.05
207.599	25.94
207.818	-0.68
208.037	71
208.255	-15.02
208.474	15.7
208.693	-53.93
208.911	42.32
209.13	34.13
209.349	21.85
209.567	-17.07
209.786	-23.21
210.005	40.28
210.223	36.18
210.442	42.32
210.661	-0.68
210.879	42.32
211.098	44.37
211.316	62.8
211.535	50.52
211.753	50.52
211.972	64.85
212.191	40.28
212.409	19.8
212.628	38.23
212.846	21.85
213.065	-0.68
213.283	48.47
213.502	7.51
213.72	17.75
213.938	-29.35
214.157	75.09
214.375	-47.79
214.594	7.51
214.812	42.32
215.031	60.76
215.249	-4.78
215.467	-10.92
215.686	46.42
215.904	48.47
216.122	7.51
216.341	5.46
216.559	77.14
216.778	5.46
216.996	50.52
217.214	15.7
217.432	32.08
217.651	34.13
217.869	27.99
218.087	-8.87
218.306	-23.21
218.524	54.61
218.742	-31.4
218.96	-45.74
219.179	91.48
219.397	19.8
219.615	7.51
219.833	1.37
220.051	38.23
220.27	11.61
220.488	40.28
220.706	89.43
220.924	-25.26
221.142	97.62
221.36	48.47
221.578	15.7
221.796	81.24
222.015	13.65
222.233	-0.68
222.451	101.72
222.669	83.28
222.887	48.47
223.105	66.9
223.323	-17.07
223.541	-37.55
223.759	58.71
223.977	-4.78
224.195	-25.26
224.413	23.89
224.631	83.28
224.849	9.56
225.067	46.42
225.285	9.56
225.503	7.51
225.721	-25.26
225.939	-45.74
226.157	17.75
226.375	-12.97
226.592	-15.02
226.81	27.99
227.028	-15.02
227.246	44.37
227.464	-10.92
227.682	-2.73
227.9	1.37
228.117	58.71
228.335	62.8
228.553	-6.83
228.771	-53.93
228.989	5.46
229.206	-29.35
229.424	1.37
229.642	-45.74
229.86	58.71
230.077	-25.26
230.295	42.32
230.513	1.37
230.731	17.75
230.948	11.61
231.166	21.85
231.384	73.04
231.601	56.66
231.819	36.18
232.037	27.99
232.254	-33.45
232.472	-10.92
232.689	75.09
232.907	64.85
233.125	17.75
233.342	-47.79
233.56	25.94
233.777	9.56
233.995	3.41
234.213	42.32
234.43	-15.02
234.648	68.95
234.865	27.99
235.083	56.66
235.3	32.08
235.518	-8.87
235.735	-41.64
235.953	7.51
236.17	7.51
236.388	15.7
236.605	46.42
236.822	68.95
237.04	-10.92
237.257	87.38
237.475	25.94
237.692	79.19
237.909	58.71
238.127	5.46
238.344	11.61
238.562	58.71
238.779	-51.88
238.996	62.8
239.214	52.56
239.431	27.99
239.648	7.51
239.865	64.85
240.083	7.51
240.3	-8.87
240.517	11.61
240.735	46.42
240.952	58.71
241.169	7.51
241.386	-25.26
241.603	44.37
241.821	3.41
242.038	52.56
242.255	1.37
242.472	52.56
242.689	7.51
242.907	9.56
243.124	13.65
243.341	56.66
243.558	13.65
243.775	-25.26
243.992	64.85
244.209	81.24
244.426	-2.73
244.643	30.04
244.86	105.81
245.078	9.56
245.295	48.47
245.512	-58.03
245.729	3.41
245.946	15.7
246.163	44.37
246.38	36.18
246.597	-25.26
246.814	23.89
247.031	5.46
247.248	-60.07
247.464	27.99
247.681	-6.83
247.898	38.23
248.115	32.08
248.332	-23.21
248.549	-6.83
248.766	27.99
248.983	81.24
249.2	64.85
249.417	77.14
249.633	44.37
249.85	9.56
250.067	-17.07
250.284	-10.92
250.501	77.14
250.717	23.89
250.934	36.18
251.151	7.51
251.368	71
251.585	-12.97
251.801	9.56
252.018	-41.64
252.235	103.76
252.451	97.62
252.668	56.66
252.885	5.46
253.102	-12.97
253.318	40.28
253.535	83.28
253.752	11.61
253.968	17.75
254.185	-6.83
254.401	36.18
254.618	56.66
254.835	-12.97
255.051	34.13
255.268	3.41
255.484	91.48
255.701	-12.97
255.917	32.08
256.134	-4.78
256.351	9.56
256.567	-17.07
256.784	56.66
257	-29.35
257.217	11.61
257.433	23.89
257.65	-35.5
257.866	36.18
258.082	48.47
258.299	60.76
258.515	101.72
258.732	17.75
258.948	103.76
259.165	-35.5
259.381	15.7
259.597	9.56
259.814	38.23
260.03	1.37
260.246	116.05
260.463	-19.11
260.679	15.7
260.895	75.09
261.112	11.61
261.328	62.8
261.544	-29.35
261.761	50.52
261.977	7.51
262.193	34.13
262.409	66.9
262.626	-8.87
262.842	56.66
263.058	27.99
263.274	-0.68
263.49	50.52
263.707	25.94
263.923	75.09
264.139	19.8
264.355	34.13
264.571	-0.68
264.787	-33.45
265.004	5.46
265.22	19.8
265.436	9.56
265.652	50.52
265.868	58.71
266.084	7.51
266.3	75.09
266.516	50.52
266.732	15.7
266.948	7.51
267.164	95.57
267.38	36.18
267.596	9.56
267.812	46.42
268.028	11.61
268.244	56.66
268.46	-4.78
268.676	-2.73
268.892	27.99
269.108	-17.07
269.324	42.32
269.54	19.8
269.756	11.61
269.972	-15.02
270.188	44.37
270.403	5.46
270.619	38.23
270.835	-17.07
271.051	97.62
271.267	-4.78
271.483	60.76
271.698	-0.68
271.914	36.18
272.13	1.37
272.346	-0.68
272.562	9.56
272.777	48.47
272.993	-23.21
273.209	50.52
273.425	64.85
273.64	68.95
273.856	-15.02
274.072	66.9
274.287	42.32
274.503	13.65
274.719	17.75
274.934	17.75
275.15	-2.73
275.366	5.46
275.581	7.51
275.797	56.66
276.012	79.19
276.228	1.37
276.444	62.8
276.659	32.08
276.875	58.71
277.09	44.37
277.306	17.75
277.521	27.99
277.737	-17.07
277.952	81.24
278.168	50.52
278.383	13.65
278.599	-0.68
278.814	-33.45
279.03	19.8
279.245	54.61
279.461	34.13
279.676	32.08
279.892	30.04
280.107	68.95
280.322	11.61
280.538	-6.83
280.753	-45.74
280.969	87.38
281.184	60.76
281.399	34.13
281.615	40.28
281.83	105.81
282.045	-47.79
282.26	56.66
282.476	62.8
282.691	27.99
282.906	93.52
283.122	52.56
283.337	40.28
283.552	-15.02
283.767	71
283.983	66.9
284.198	-15.02
284.413	23.89
284.628	25.94
284.843	85.33
285.058	9.56
285.274	56.66
285.489	15.7
285.704	44.37
285.919	-39.59
286.134	-0.68
286.349	-10.92
286.564	19.8
286.779	-12.97
286.995	95.57
287.21	-55.98
287.425	73.04
287.64	64.85
287.855	71
288.07	73.04
288.285	-23.21
288.5	83.28
288.715	66.9
288.93	93.52
289.145	34.13
289.36	48.47
289.575	40.28
289.79	-41.64
290.004	40.28
290.219	54.61
290.434	23.89
290.649	85.33
290.864	40.28
291.079	19.8
291.294	-2.73
291.509	30.04
291.724	-25.26
291.938	9.56
292.153	-15.02
292.368	-0.68
292.583	40.28
292.798	-39.59
293.012	25.94
293.227	34.13
293.442	19.8
293.657	40.28
293.871	50.52
294.086	75.09
294.301	116.05
294.516	9.56
294.73	46.42
294.945	-43.69
295.16	15.7
295.374	42.32
295.589	9.56
295.804	-4.78
296.018	-33.45
296.233	40.28
296.447	-0.68
296.662	19.8
296.877	56.66
297.091	89.43
297.306	17.75
297.52	66.9
297.735	-23.21
297.949	-76.46
298.164	1.37
298.378	21.85
298.593	15.7
298.807	111.96
299.022	-0.68
299.236	89.43
299.451	32.08
299.665	21.85
299.88	-31.4
300.094	19.8
300.309	75.09
300.523	64.85
300.737	3.41
300.952	-10.92
301.166	81.24
301.381	-8.87
301.595	42.32
301.809	-41.64
302.024	56.66
302.238	60.76
302.452	34.13
302.667	58.71
302.881	-25.26
303.095	1.37
303.309	19.8
303.524	66.9
303.738	21.85
303.952	17.75
304.166	85.33
304.381	-10.92
304.595	48.47
304.809	15.7
305.023	48.47
305.237	42.32
305.452	-8.87
305.666	101.72
305.88	34.13
306.094	58.71
306.308	-12.97
306.522	83.28
306.736	79.19
306.95	30.04
307.164	11.61
307.379	19.8
307.593	50.52
307.807	-37.55
308.021	25.94
308.235	81.24
308.449	30.04
308.663	79.19
308.877	142.68
309.091	9.56
309.305	-19.11
309.519	19.8
309.733	-19.11
309.947	23.89
310.161	27.99
310.374	64.85
310.588	30.04
310.802	-33.45
311.016	48.47
311.23	7.51
311.444	-15.02
311.658	58.71
311.872	34.13
312.085	34.13
312.299	36.18
312.513	42.32
312.727	3.41
312.941	7.51
313.154	17.75
313.368	36.18
313.582	73.04
313.796	7.51
314.009	23.89
314.223	60.76
314.437	34.13
314.651	-4.78
314.864	5.46
315.078	-29.35
315.292	79.19
315.505	109.91
315.719	19.8
315.933	30.04
316.146	32.08
316.36	-8.87
316.573	50.52
316.787	-8.87
317.001	27.99
317.214	21.85
317.428	32.08
317.641	-8.87
317.855	46.42
318.068	-47.79
318.282	9.56
318.495	32.08
318.709	64.85
318.922	62.8
319.136	32.08
319.349	54.61
319.563	85.33
319.776	17.75
319.99	97.62
320.203	-31.4
320.417	-19.11
320.63	1.37
320.843	-21.16
321.057	-8.87
321.27	68.95
321.483	89.43
321.697	73.04
321.91	17.75
322.124	42.32
322.337	64.85
322.55	30.04
322.763	15.7
322.977	27.99
323.19	15.7
323.403	-41.64
323.617	-37.55
323.83	-6.83
324.043	3.41
324.256	44.37
324.469	13.65
324.683	81.24
324.896	36.18
325.109	-23.21
325.322	11.61
325.535	23.89
325.748	-10.92
325.962	34.13
326.175	50.52
326.388	32.08
326.601	27.99
326.814	17.75
327.027	42.32
327.24	9.56
327.453	13.65
327.666	103.76
327.879	-2.73
328.092	13.65
328.305	3.41
328.518	79.19
328.731	-25.26
328.944	11.61
329.157	7.51
329.37	30.04
329.583	-19.11
329.796	42.32
330.009	-2.73
330.222	50.52
330.435	19.8
330.648	-8.87
330.861	-15.02
331.073	-62.12
331.286	-6.83
331.499	1.37
331.712	42.32
331.925	83.28
332.138	5.46
332.35	36.18
332.563	42.32
332.776	87.38
332.989	3.41
333.202	62.8
333.414	62.8
333.627	11.61
333.84	-12.97
334.053	27.99
334.265	48.47
334.478	64.85
334.691	40.28
334.903	56.66
335.116	-49.83
335.329	27.99
335.541	103.76
335.754	-4.78
335.966	-17.07
336.179	13.65
336.392	15.7
336.604	32.08
336.817	34.13
337.029	17.75
337.242	85.33
337.454	1.37
337.667	-27.31
337.88	15.7
338.092	9.56
338.305	-2.73
338.517	-33.45
338.729	1.37
338.942	21.85
339.154	23.89
339.367	48.47
339.579	-27.31
339.792	48.47
340.004	68.95
340.217	107.86
340.429	66.9
340.641	25.94
340.854	38.23
341.066	23.89
341.278	11.61
341.491	19.8
341.703	-0.68
341.915	21.85
342.128	-31.4
342.34	-35.5
342.552	-25.26
342.764	21.85
342.977	27.99
343.189	-17.07
343.401	15.7
343.613	71
343.826	32.08
344.038	-0.68
344.25	-17.07
344.462	25.94
344.674	-17.07
344.886	40.28
345.099	-8.87
345.311	54.61
345.523	56.66
345.735	-33.45
345.947	97.62
346.159	3.41
346.371	-33.45
346.583	-15.02
346.795	40.28
347.007	-37.55
347.219	21.85
347.431	77.14
347.643	40.28
347.855	9.56
348.067	93.52
348.279	23.89
348.491	7.51
348.703	105.81
348.915	-0.68
349.127	9.56
349.339	93.52
349.551	-15.02
349.763	91.48
349.975	42.32
350.187	32.08
350.399	9.56
350.61	-6.83
350.822	-2.73
351.034	-6.83
351.246	34.13
351.458	48.47
351.669	-12.97
351.881	7.51
352.093	34.13
352.305	77.14
352.517	-0.68
352.728	44.37
352.94	71
353.152	64.85
353.363	27.99
353.575	34.13
353.787	54.61
353.999	46.42
354.21	-51.88
354.422	3.41
354.633	-29.35
354.845	89.43
355.057	79.19
355.268	5.46
355.48	21.85
355.692	32.08
355.903	52.56
356.115	-8.87
356.326	3.41
356.538	19.8
356.749	75.09
356.961	-17.07
357.172	81.24
357.384	19.8
357.595	95.57
357.807	48.47
358.018	-58.03
358.23	60.76
358.441	58.71
358.653	97.62
358.864	101.72
359.075	19.8
359.287	7.51
359.498	17.75
359.709	89.43
359.921	-31.4
360.132	-53.93
360.344	11.61
360.555	73.04
360.766	64.85
360.977	13.65
361.189	68.95
361.4	-6.83
361.611	13.65
361.823	7.51
362.034	99.67
362.245	7.51
362.456	-0.68
362.667	-8.87
362.879	-37.55
363.09	44.37
363.301	-12.97
363.512	-10.92
363.723	46.42
363.935	-2.73
364.146	40.28
364.357	99.67
364.568	21.85
364.779	25.94
364.99	52.56
365.201	83.28
365.412	-6.83
365.623	17.75
365.834	89.43
366.045	-15.02
366.256	21.85
366.467	7.51
366.678	-39.59
366.889	75.09
367.1	42.32
367.311	11.61
367.522	11.61
367.733	81.24
367.944	75.09
368.155	-23.21
368.366	56.66
368.577	54.61
368.788	25.94
368.999	-6.83
369.209	13.65
369.42	75.09
369.631	27.99
369.842	23.89
370.053	73.04
370.264	95.57
370.474	-35.5
370.685	17.75
370.896	91.48
371.107	9.56
371.317	21.85
371.528	56.66
371.739	89.43
371.95	60.76
372.16	46.42
372.371	-15.02
372.582	27.99
372.792	89.43
373.003	40.28
373.214	50.52
373.424	62.8
373.635	11.61
373.846	52.56
374.056	-23.21
374.267	38.23
374.477	124.24
374.688	-15.02
374.898	-15.02
375.109	85.33
375.319	25.94
375.53	-17.07
375.74	42.32
375.951	56.66
376.161	-8.87
376.372	50.52
376.582	19.8
376.793	17.75
377.003	58.71
377.214	56.66
377.424	89.43
377.635	-0.68
377.845	89.43
378.055	13.65
378.266	83.28
378.476	23.89
378.686	30.04
378.897	105.81
379.107	42.32
379.317	58.71
379.528	19.8
379.738	73.04
379.948	-37.55
380.158	32.08
380.369	36.18
380.579	60.76
380.789	95.57
380.999	58.71
381.21	73.04
381.42	32.08
381.63	58.71
381.84	79.19
382.05	5.46
382.261	34.13
382.471	64.85
382.681	3.41
382.891	66.9
383.101	-29.35
383.311	-0.68
383.521	34.13
383.731	50.52
383.941	3.41
384.151	1.37
384.361	23.89
384.571	87.38
384.781	30.04
384.991	62.8
385.201	58.71
385.411	62.8
385.621	48.47
385.831	77.14
386.041	-4.78
386.251	38.23
386.461	73.04
386.671	79.19
386.881	-2.73
387.091	91.48
387.301	48.47
387.511	-17.07
387.72	99.67
387.93	7.51
388.14	36.18
388.35	73.04
388.56	101.72
388.769	83.28
388.979	-2.73
389.189	-4.78
389.399	73.04
389.609	-12.97
389.818	58.71
390.028	56.66
390.238	34.13
390.447	-8.87
390.657	56.66
390.867	68.95
391.076	38.23
391.286	-8.87
391.496	54.61
391.705	73.04
391.915	15.7
392.125	-2.73
392.334	83.28
392.544	36.18
392.753	46.42
392.963	40.28
393.172	116.05
393.382	3.41
393.591	87.38
393.801	62.8
394.01	118.1
394.22	52.56
394.429	40.28
394.639	36.18
394.848	73.04
395.058	36.18
395.267	52.56
395.477	38.23
395.686	32.08
395.895	58.71
396.105	77.14
396.314	32.08
396.524	75.09
396.733	27.99
396.942	50.52
397.152	103.76
397.361	81.24
397.57	40.28
397.78	48.47
397.989	46.42
398.198	25.94
398.407	17.75
398.617	66.9
398.826	54.61
399.035	79.19
399.244	109.91
399.453	19.8
399.663	73.04
399.872	77.14
400.081	99.67
400.29	171.35
400.499	50.52
400.708	73.04
400.917	-6.83
401.127	75.09
401.336	83.28
401.545	56.66
401.754	75.09
401.963	77.14
402.172	3.41
402.381	17.75
402.59	66.9
402.799	50.52
403.008	122.2
403.217	56.66
403.426	114
403.635	21.85
403.844	27.99
404.053	107.86
404.262	75.09
404.471	109.91
404.68	75.09
404.888	66.9
405.097	40.28
405.306	60.76
405.515	148.82
405.724	91.48
405.933	89.43
406.142	218.45
406.35	97.62
406.559	30.04
406.768	146.77
406.977	111.96
407.185	83.28
407.394	114
407.603	130.39
407.812	173.39
408.02	130.39
408.229	116.05
408.438	126.29
408.646	93.52
408.855	138.58
409.064	173.39
409.272	204.11
409.481	195.92
409.69	179.54
409.898	185.68
410.107	169.3
410.315	122.2
410.524	187.73
410.733	243.03
410.941	218.45
411.15	191.83
411.358	218.45
411.567	187.73
411.775	251.22
411.984	236.88
412.192	253.27
412.401	226.64
412.609	271.7
412.818	175.44
413.026	326.99
413.234	253.27
413.443	236.88
413.651	345.42
413.86	306.51
414.068	339.28
414.276	392.53
414.485	359.76
414.693	392.53
414.901	396.62
415.11	359.76
415.318	386.38
415.526	386.38
415.734	423.25
415.943	402.77
416.151	435.53
416.359	572.75
416.567	492.88
416.776	423.25
416.984	548.17
417.192	552.27
417.4	548.17
417.608	542.03
417.817	570.7
418.025	576.84
418.233	539.98
418.441	671.05
418.649	628.04
418.857	789.83
419.065	689.48
419.273	671.05
419.481	806.22
419.689	763.21
419.897	888.14
420.105	884.04
420.313	869.7
420.521	968.01
420.729	994.63
420.937	974.15
421.145	1078.6
421.353	1082.69
421.561	1062.21
421.769	1125.7
421.977	1207.62
422.185	1064.26
422.393	1271.11
422.601	1297.73
422.809	1264.96
423.017	1342.78
423.224	1473.85
423.432	1377.6
423.64	1473.85
423.848	1578.3
424.056	1496.38
424.263	1576.25
424.471	1692.99
424.679	1652.03
424.887	1772.86
425.094	1811.77
425.302	1742.14
425.51	1803.58
425.718	2032.95
425.925	1948.98
426.133	2073.91
426.341	2184.5
426.548	2229.56
426.756	2295.09
426.964	2405.68
427.171	2344.24
427.379	2569.52
427.586	2581.81
427.794	2600.24
428.001	2626.86
428.209	2841.9
428.417	2716.97
428.624	3022.12
428.832	2985.26
429.039	2929.96
429.247	2845.99
429.454	3259.68
429.662	3398.95
429.869	3194.15
430.076	3495.2
430.284	3400.99
430.491	3456.29
430.699	3743
430.906	3706.14
431.114	3777.82
431.321	3872.03
431.528	3947.8
431.736	4232.47
431.943	4449.55
432.15	4318.48
432.358	4304.15
432.565	4635.92
432.772	4519.18
432.979	4977.93
433.187	4783.37
433.394	4887.82
433.601	5225.73
433.808	5291.27
434.016	5182.73
434.223	5481.73
434.43	5844.22
434.637	5670.14
434.844	6042.87
435.052	6124.79
435.259	6200.57
435.466	6227.19
435.673	6145.27
435.88	6305.01
436.087	6810.86
436.294	6708.46
436.501	6726.89
436.708	6857.96
436.915	6978.79
437.122	7326.95
437.329	7335.14
437.537	7589.09
437.743	7693.54
437.95	7652.58
438.157	8086.75
438.364	8434.9
438.571	8271.06
438.778	8283.35
438.985	9034.96
439.192	8733.9
439.399	8998.09
439.606	8973.52
439.813	9391.3
440.02	9895.1
440.227	9983.16
440.433	9913.53
440.64	10042.56
440.847	10099.9
441.054	10114.23
441.261	10804.4
441.467	10912.94
441.674	11011.25
441.881	11001.01
442.088	11340.97
442.294	11213.99
442.501	11334.82
442.708	11807.91
442.914	12231.83
443.121	13024.4
443.328	12483.73
443.534	13247.63
443.741	13124.75
443.948	13173.9
444.154	13810.82
444.361	13733
444.568	13960.32
444.774	13593.73
444.981	13954.18
445.187	14273.66
445.394	15166.57
445.6	14615.67
445.807	16202.85
446.013	15594.6
446.22	15985.76
446.426	16596.06
446.633	16473.18
446.839	16837.72
447.046	16374.88
447.252	17439.82
447.459	17507.4
447.665	17589.32
447.871	18353.21
448.078	19194.93
448.284	17964.1
448.491	18394.17
448.697	19641.39
448.903	19530.8
449.11	19794.98
449.316	19495.98
449.522	20071.46
449.728	20356.13
449.935	20548.64
450.141	20403.23
450.347	21085.2
450.553	20528.16
450.76	20599.83
450.966	21294.1
451.172	21052.44
451.378	21783.56
451.584	21308.43
451.791	21859.34
451.997	21873.67
452.203	22379.52
452.409	22066.18
452.615	21847.05
452.821	21290
453.027	21240.85
453.233	22219.78
453.44	21388.3
453.646	21578.76
453.852	21576.72
454.058	22197.25
454.264	21591.05
454.47	21898.25
454.676	21464.08
454.882	22035.46
455.088	20235.3
455.294	20313.12
455.5	20814.87
455.705	20911.13
455.911	20423.71
456.117	19803.18
456.323	19448.88
456.529	18695.22
456.735	19323.95
456.941	19033.14
457.147	18416.7
457.352	17869.89
457.558	17904.71
457.764	17771.59
457.97	17505.35
458.176	17308.75
458.381	17200.21
458.587	16366.68
458.793	16551
458.999	15721.57
459.204	16487.51
459.41	15952.99
459.616	15084.66
459.821	15029.36
460.027	14902.39
460.233	14611.57
460.438	14103.68
460.644	14122.11
460.85	13626.5
461.055	13311.11
461.261	13323.4
461.466	12348.57
461.672	12039.33
461.878	12625.04
462.083	12039.33
462.289	11816.1
462.494	11564.2
462.7	11269.29
462.905	10677.43
463.111	11173.03
463.316	11220.14
463.522	10886.32
463.727	11044.01
463.932	11064.49
464.138	10788.02
464.343	11082.92
464.549	10441.91
464.754	10880.18
464.959	10861.74
465.165	10980.53
465.37	10163.39
465.575	9977.02
465.781	10423.48
465.986	10476.73
466.191	10173.63
466.397	9874.62
466.602	9350.34
466.807	9725.12
467.012	9948.35
467.218	9866.43
467.423	9718.98
467.628	9688.26
467.833	10208.44
468.038	9729.22
468.244	9534.66
468.449	9962.69
468.654	9503.94
468.859	9436.36
469.064	9323.72
469.269	9010.38
