Data from USB4F104151__64__12-59-28-083.txt Node

Date: Fri Mar 14 12:59:28 EDT 2025
User: louis
Spectrometer: USB4F10415
Trigger mode: 4
Integration Time (sec): 1.000000E-2
Scans to average: 1
Electric dark correction enabled: true
Nonlinearity correction enabled: false
Boxcar width: 0
XAxis mode: Wavelengths
Number of Pixels in Spectrum: 3648
>>>>>Begin Spectral Data<<<<<
178.204	-61.61
178.424	-61.61
178.644	-61.61
178.864	-86.19
179.084	38.74
179.304	34.64
179.524	-0.17
179.744	18.26
179.964	36.69
180.184	1.88
180.404	20.31
180.624	-16.55
180.844	24.4
181.064	-22.7
181.283	-30.89
181.503	-65.71
181.723	-0.17
181.943	12.12
182.163	-4.27
182.383	-22.7
182.602	75.6
182.822	20.31
183.042	-59.56
183.262	-0.17
183.482	1.88
183.701	-16.55
183.921	44.88
184.141	-10.41
184.361	83.8
184.58	32.6
184.8	-6.31
185.02	-63.66
185.239	89.94
185.459	-6.31
185.679	-0.17
185.898	-8.36
186.118	-39.08
186.338	-47.27
186.557	53.08
186.777	-20.65
186.997	18.26
187.216	3.93
187.436	34.64
187.655	-26.79
187.875	40.79
188.095	38.74
188.314	14.17
188.534	-12.46
188.753	-37.03
188.973	26.45
189.192	-2.22
189.412	-4.27
189.631	-63.66
189.851	1.88
190.07	51.03
190.29	-73.9
190.509	61.27
190.729	-0.17
190.948	81.75
191.168	5.97
191.387	-14.51
191.607	61.27
191.826	-8.36
192.045	10.07
192.265	-73.9
192.484	-12.46
192.704	-20.65
192.923	1.88
193.142	-0.17
193.362	-22.7
193.581	59.22
193.8	20.31
194.02	87.89
194.239	-53.42
194.458	-26.79
194.678	16.21
194.897	20.31
195.116	-12.46
195.335	-0.17
195.555	-28.84
195.774	-8.36
195.993	8.02
196.212	-41.13
196.432	22.36
196.651	-28.84
196.87	18.26
197.089	1.88
197.308	-6.31
197.528	-14.51
197.747	-4.27
197.966	48.98
198.185	-18.6
198.404	26.45
198.623	14.17
198.842	-20.65
199.062	65.36
199.281	-53.42
199.5	-55.47
199.719	71.51
199.938	91.99
200.157	32.6
200.376	-39.08
200.595	-0.17
200.814	-51.37
201.033	-0.17
201.252	44.88
201.471	65.36
201.69	20.31
201.909	-12.46
202.128	59.22
202.347	3.93
202.566	26.45
202.785	22.36
203.004	83.8
203.223	-0.17
203.442	-2.22
203.661	-14.51
203.879	-18.6
204.098	36.69
204.317	10.07
204.536	57.17
204.755	-37.03
204.974	42.84
205.193	-43.18
205.411	73.56
205.63	-22.7
205.849	-26.79
206.068	-2.22
206.287	38.74
206.505	48.98
206.724	26.45
206.943	-28.84
207.162	18.26
207.381	51.03
207.599	-0.17
207.818	16.21
208.037	-47.27
208.255	83.8
208.474	61.27
208.693	-2.22
208.911	48.98
209.13	3.93
209.349	3.93
209.567	-47.27
209.786	51.03
210.005	40.79
210.223	-32.94
210.442	-37.03
210.661	-4.27
210.879	-18.6
211.098	14.17
211.316	-2.22
211.535	-22.7
211.753	14.17
211.972	65.36
212.191	55.12
212.409	16.21
212.628	16.21
212.846	40.79
213.065	98.13
213.283	-30.89
213.502	30.55
213.72	-51.37
213.938	5.97
214.157	30.55
214.375	-20.65
214.594	-4.27
214.812	34.64
215.031	-4.27
215.249	5.97
215.467	61.27
215.686	-6.31
215.904	42.84
216.122	-4.27
216.341	-6.31
216.559	22.36
216.778	3.93
216.996	51.03
217.214	24.4
217.432	18.26
217.651	-26.79
217.869	-65.71
218.087	-4.27
218.306	30.55
218.524	-47.27
218.742	30.55
218.96	10.07
219.179	-24.75
219.397	28.5
219.615	67.41
219.833	-28.84
220.051	-12.46
220.27	16.21
220.488	30.55
220.706	28.5
220.924	89.94
221.142	48.98
221.36	26.45
221.578	-39.08
221.796	24.4
222.015	16.21
222.233	-20.65
222.451	28.5
222.669	-20.65
222.887	1.88
223.105	8.02
223.323	20.31
223.541	1.88
223.759	32.6
223.977	1.88
224.195	8.02
224.413	61.27
224.631	-0.17
224.849	1.88
225.067	57.17
225.285	42.84
225.503	8.02
225.721	-30.89
225.939	-41.13
226.157	-6.31
226.375	59.22
226.592	-18.6
226.81	-47.27
227.028	-14.51
227.246	-12.46
227.464	-28.84
227.682	34.64
227.9	-30.89
228.117	22.36
228.335	-22.7
228.553	12.12
228.771	-2.22
228.989	32.6
229.206	20.31
229.424	3.93
229.642	-47.27
229.86	48.98
230.077	-34.99
230.295	12.12
230.513	-12.46
230.731	26.45
230.948	-24.75
231.166	3.93
231.384	-43.18
231.601	-0.17
231.819	28.5
232.037	1.88
232.254	14.17
232.472	-14.51
232.689	73.56
232.907	5.97
233.125	-45.23
233.342	10.07
233.56	1.88
233.777	-41.13
233.995	16.21
234.213	-30.89
234.43	91.99
234.648	53.08
234.865	-10.41
235.083	30.55
235.3	44.88
235.518	1.88
235.735	-26.79
235.953	-12.46
236.17	-28.84
236.388	-16.55
236.605	-14.51
236.822	48.98
237.04	-39.08
237.257	-16.55
237.475	1.88
237.692	-49.32
237.909	59.22
238.127	-4.27
238.344	38.74
238.562	-16.55
238.779	26.45
238.996	-55.47
239.214	-10.41
239.431	18.26
239.648	-26.79
239.865	32.6
240.083	-14.51
240.3	38.74
240.517	48.98
240.735	-10.41
240.952	34.64
241.169	57.17
241.386	36.69
241.603	53.08
241.821	69.46
242.038	-28.84
242.255	-24.75
242.472	34.64
242.689	-2.22
242.907	48.98
243.124	-49.32
243.341	-8.36
243.558	-20.65
243.775	36.69
243.992	10.07
244.209	57.17
244.426	24.4
244.643	-14.51
244.86	-0.17
245.078	24.4
245.295	-47.27
245.512	-24.75
245.729	-18.6
245.946	-2.22
246.163	-12.46
246.38	38.74
246.597	16.21
246.814	20.31
247.031	-14.51
247.248	-57.51
247.464	67.41
247.681	-6.31
247.898	1.88
248.115	-24.75
248.332	14.17
248.549	75.6
248.766	34.64
248.983	-24.75
249.2	5.97
249.417	16.21
249.633	-59.56
249.85	10.07
250.067	-47.27
250.284	22.36
250.501	-2.22
250.717	5.97
250.934	12.12
251.151	-49.32
251.368	8.02
251.585	-4.27
251.801	3.93
252.018	57.17
252.235	-16.55
252.451	24.4
252.668	-82.09
252.885	18.26
253.102	12.12
253.318	8.02
253.535	18.26
253.752	-8.36
253.968	32.6
254.185	-30.89
254.401	32.6
254.618	-6.31
254.835	1.88
255.051	71.51
255.268	32.6
255.484	59.22
255.701	55.12
255.917	71.51
256.134	-8.36
256.351	18.26
256.567	-4.27
256.784	26.45
257	-10.41
257.217	32.6
257.433	42.84
257.65	-24.75
257.866	59.22
258.082	-32.94
258.299	10.07
258.515	-41.13
258.732	30.55
258.948	-43.18
259.165	-34.99
259.381	14.17
259.597	38.74
259.814	10.07
260.03	-14.51
260.246	-20.65
260.463	-22.7
260.679	71.51
260.895	-45.23
261.112	-8.36
261.328	24.4
261.544	-47.27
261.761	-34.99
261.977	12.12
262.193	-16.55
262.409	16.21
262.626	-57.51
262.842	-32.94
263.058	12.12
263.274	44.88
263.49	12.12
263.707	81.75
263.923	18.26
264.139	5.97
264.355	-10.41
264.571	40.79
264.787	-37.03
265.004	-30.89
265.22	38.74
265.436	14.17
265.652	42.84
265.868	-20.65
266.084	-71.85
266.3	44.88
266.516	3.93
266.732	34.64
266.948	-2.22
267.164	-10.41
267.38	-2.22
267.596	-57.51
267.812	59.22
268.028	-39.08
268.244	59.22
268.46	-0.17
268.676	14.17
268.892	65.36
269.108	1.88
269.324	10.07
269.54	-2.22
269.756	1.88
269.972	-32.94
270.188	10.07
270.403	10.07
270.619	16.21
270.835	8.02
271.051	-0.17
271.267	-67.75
271.483	3.93
271.698	-22.7
271.914	71.51
272.13	-10.41
272.346	61.27
272.562	3.93
272.777	-24.75
272.993	-2.22
273.209	36.69
273.425	10.07
273.64	-8.36
273.856	30.55
274.072	5.97
274.287	24.4
274.503	-20.65
274.719	-8.36
274.934	1.88
275.15	-16.55
275.366	5.97
275.581	-53.42
275.797	-63.66
276.012	16.21
276.228	-22.7
276.444	-14.51
276.659	46.93
276.875	-6.31
277.09	-24.75
277.306	30.55
277.521	-16.55
277.737	-20.65
277.952	-16.55
278.168	-18.6
278.383	18.26
278.599	-53.42
278.814	-8.36
279.03	-47.27
279.245	44.88
279.461	3.93
279.676	28.5
279.892	3.93
280.107	16.21
280.322	44.88
280.538	73.56
280.753	36.69
280.969	44.88
281.184	-24.75
281.399	44.88
281.615	48.98
281.83	-0.17
282.045	20.31
282.26	-47.27
282.476	42.84
282.691	3.93
282.906	12.12
283.122	51.03
283.337	61.27
283.552	18.26
283.767	-53.42
283.983	57.17
284.198	32.6
284.413	51.03
284.628	-4.27
284.843	42.84
285.058	-0.17
285.274	-0.17
285.489	3.93
285.704	-26.79
285.919	-0.17
286.134	69.46
286.349	-16.55
286.564	-24.75
286.779	48.98
286.995	-45.23
287.21	-6.31
287.425	-41.13
287.64	32.6
287.855	-14.51
288.07	24.4
288.285	-26.79
288.5	-22.7
288.715	-4.27
288.93	32.6
289.145	42.84
289.36	5.97
289.575	-39.08
289.79	30.55
290.004	71.51
290.219	-14.51
290.434	5.97
290.649	44.88
290.864	32.6
291.079	-16.55
291.294	40.79
291.509	57.17
291.724	32.6
291.938	24.4
292.153	18.26
292.368	20.31
292.583	-4.27
292.798	14.17
293.012	-12.46
293.227	79.7
293.442	-39.08
293.657	-8.36
293.871	51.03
294.086	34.64
294.301	-2.22
294.516	-2.22
294.73	28.5
294.945	-51.37
295.16	48.98
295.374	-4.27
295.589	32.6
295.804	-45.23
296.018	26.45
296.233	46.93
296.447	42.84
296.662	-18.6
296.877	69.46
297.091	1.88
297.306	16.21
297.52	-28.84
297.735	-22.7
297.949	3.93
298.164	20.31
298.378	-26.79
298.593	1.88
298.807	-26.79
299.022	-57.51
299.236	24.4
299.451	18.26
299.665	-18.6
299.88	-88.23
300.094	-6.31
300.309	44.88
300.523	34.64
300.737	-24.75
300.952	3.93
301.166	3.93
301.381	10.07
301.595	46.93
301.809	-2.22
302.024	51.03
302.238	26.45
302.452	18.26
302.667	44.88
302.881	51.03
303.095	12.12
303.309	1.88
303.524	-26.79
303.738	-12.46
303.952	-65.71
304.166	16.21
304.381	5.97
304.595	73.56
304.809	40.79
305.023	28.5
305.237	16.21
305.452	-14.51
305.666	-2.22
305.88	-34.99
306.094	57.17
306.308	5.97
306.522	-57.51
306.736	-16.55
306.95	26.45
307.164	-61.61
307.379	14.17
307.593	10.07
307.807	8.02
308.021	75.6
308.235	-39.08
308.449	-37.03
308.663	-61.61
308.877	26.45
309.091	12.12
309.305	32.6
309.519	5.97
309.733	34.64
309.947	1.88
310.161	16.21
310.374	36.69
310.588	59.22
310.802	18.26
311.016	-32.94
311.23	-4.27
311.444	-53.42
311.658	53.08
311.872	28.5
312.085	1.88
312.299	-55.47
312.513	38.74
312.727	44.88
312.941	18.26
313.154	3.93
313.368	26.45
313.582	42.84
313.796	-53.42
314.009	16.21
314.223	55.12
314.437	-6.31
314.651	48.98
314.864	-24.75
315.078	38.74
315.292	8.02
315.505	-2.22
315.719	-47.27
315.933	-6.31
316.146	12.12
316.36	-26.79
316.573	30.55
316.787	-34.99
317.001	42.84
317.214	-10.41
317.428	53.08
317.641	-34.99
317.855	77.65
318.068	59.22
318.282	40.79
318.495	159.57
318.709	71.51
318.922	-24.75
319.136	61.27
319.349	-8.36
319.563	-16.55
319.776	18.26
319.99	24.4
320.203	34.64
320.417	83.8
320.63	51.03
320.843	38.74
321.057	32.6
321.27	-41.13
321.483	-8.36
321.697	18.26
321.91	10.07
322.124	63.32
322.337	53.08
322.55	-86.19
322.763	10.07
322.977	16.21
323.19	-6.31
323.403	-28.84
323.617	-20.65
323.83	-18.6
324.043	10.07
324.256	34.64
324.469	18.26
324.683	28.5
324.896	38.74
325.109	-37.03
325.322	-12.46
325.535	65.36
325.748	-4.27
325.962	20.31
326.175	-24.75
326.388	1.88
326.601	16.21
326.814	-4.27
327.027	67.41
327.24	-0.17
327.453	20.31
327.666	28.5
327.879	1.88
328.092	12.12
328.305	81.75
328.518	1.88
328.731	28.5
328.944	-16.55
329.157	8.02
329.37	-4.27
329.583	-14.51
329.796	3.93
330.009	-12.46
330.222	8.02
330.435	79.7
330.648	26.45
330.861	40.79
331.073	-22.7
331.286	91.99
331.499	28.5
331.712	-51.37
331.925	-12.46
332.138	40.79
332.35	57.17
332.563	5.97
332.776	8.02
332.989	10.07
333.202	36.69
333.414	-4.27
333.627	46.93
333.84	-12.46
334.053	-4.27
334.265	-32.94
334.478	65.36
334.691	12.12
334.903	28.5
335.116	-53.42
335.329	73.56
335.541	3.93
335.754	20.31
335.966	-2.22
336.179	-6.31
336.392	-49.32
336.604	-41.13
336.817	-16.55
337.029	63.32
337.242	-30.89
337.454	-20.65
337.667	-16.55
337.88	85.84
338.092	-24.75
338.305	83.8
338.517	16.21
338.729	12.12
338.942	16.21
339.154	-4.27
339.367	1.88
339.579	-2.22
339.792	87.89
340.004	44.88
340.217	24.4
340.429	3.93
340.641	-6.31
340.854	48.98
341.066	-32.94
341.278	20.31
341.491	22.36
341.703	-20.65
341.915	36.69
342.128	-30.89
342.34	8.02
342.552	81.75
342.764	14.17
342.977	34.64
343.189	-32.94
343.401	-0.17
343.613	-41.13
343.826	12.12
344.038	-8.36
344.25	34.64
344.462	59.22
344.674	-6.31
344.886	-51.37
345.099	91.99
345.311	28.5
345.523	40.79
345.735	10.07
345.947	-4.27
346.159	-41.13
346.371	55.12
346.583	-0.17
346.795	46.93
347.007	-2.22
347.219	28.5
347.431	-20.65
347.643	67.41
347.855	48.98
348.067	10.07
348.279	-20.65
348.491	1.88
348.703	-43.18
348.915	28.5
349.127	-24.75
349.339	42.84
349.551	24.4
349.763	38.74
349.975	18.26
350.187	-24.75
350.399	-14.51
350.61	20.31
350.822	42.84
351.034	16.21
351.246	14.17
351.458	-24.75
351.669	32.6
351.881	44.88
352.093	22.36
352.305	-30.89
352.517	14.17
352.728	61.27
352.94	51.03
353.152	-28.84
353.363	8.02
353.575	28.5
353.787	26.45
353.999	67.41
354.21	-22.7
354.422	-12.46
354.633	-0.17
354.845	8.02
355.057	44.88
355.268	14.17
355.48	61.27
355.692	-39.08
355.903	73.56
356.115	46.93
356.326	-14.51
356.538	-37.03
356.749	10.07
356.961	8.02
357.172	-28.84
357.384	38.74
357.595	-32.94
357.807	3.93
358.018	34.64
358.23	16.21
358.441	73.56
358.653	51.03
358.864	55.12
359.075	-22.7
359.287	-73.9
359.498	53.08
359.709	30.55
359.921	-0.17
360.132	-49.32
360.344	-67.75
360.555	26.45
360.766	44.88
360.977	16.21
361.189	-26.79
361.4	28.5
361.611	-18.6
361.823	38.74
362.034	44.88
362.245	34.64
362.456	30.55
362.667	3.93
362.879	-2.22
363.09	53.08
363.301	34.64
363.512	-8.36
363.723	-16.55
363.935	12.12
364.146	65.36
364.357	18.26
364.568	1.88
364.779	12.12
364.99	28.5
365.201	38.74
365.412	-45.23
365.623	14.17
365.834	51.03
366.045	14.17
366.256	73.56
366.467	-20.65
366.678	-63.66
366.889	8.02
367.1	75.6
367.311	20.31
367.522	30.55
367.733	18.26
367.944	24.4
368.155	8.02
368.366	57.17
368.577	51.03
368.788	36.69
368.999	40.79
369.209	87.89
369.42	34.64
369.631	73.56
369.842	-20.65
370.053	38.74
370.264	-28.84
370.474	28.5
370.685	12.12
370.896	12.12
371.107	32.6
371.317	20.31
371.528	-45.23
371.739	8.02
371.95	42.84
372.16	-34.99
372.371	-34.99
372.582	-8.36
372.792	-39.08
373.003	18.26
373.214	-14.51
373.424	34.64
373.635	24.4
373.846	18.26
374.056	46.93
374.267	12.12
374.477	-14.51
374.688	16.21
374.898	65.36
375.109	57.17
375.319	-14.51
375.53	79.7
375.74	-24.75
375.951	-65.71
376.161	83.8
376.372	5.97
376.582	-10.41
376.793	57.17
377.003	42.84
377.214	-22.7
377.424	-16.55
377.635	-4.27
377.845	26.45
378.055	38.74
378.266	-67.75
378.476	10.07
378.686	40.79
378.897	-20.65
379.107	63.32
379.317	59.22
379.528	87.89
379.738	96.08
379.948	-8.36
380.158	-0.17
380.369	26.45
380.579	48.98
380.789	63.32
380.999	26.45
381.21	-2.22
381.42	59.22
381.63	69.46
381.84	20.31
382.05	12.12
382.261	89.94
382.471	-2.22
382.681	51.03
382.891	51.03
383.101	-28.84
383.311	-16.55
383.521	18.26
383.731	18.26
383.941	63.32
384.151	108.37
384.361	46.93
384.571	110.42
384.781	96.08
384.991	53.08
385.201	48.98
385.411	-14.51
385.621	20.31
385.831	8.02
386.041	40.79
386.251	48.98
386.461	-0.17
386.671	38.74
386.881	22.36
387.091	12.12
387.301	81.75
387.511	12.12
387.72	48.98
387.93	30.55
388.14	28.5
388.35	38.74
388.56	12.12
388.769	8.02
388.979	-55.47
389.189	-32.94
389.399	57.17
389.609	44.88
389.818	-24.75
390.028	34.64
390.238	1.88
390.447	-16.55
390.657	63.32
390.867	-20.65
391.076	61.27
391.286	-10.41
391.496	-0.17
391.705	12.12
391.915	1.88
392.125	-37.03
392.334	8.02
392.544	44.88
392.753	98.13
392.963	77.65
393.172	16.21
393.382	65.36
393.591	106.32
393.801	48.98
394.01	59.22
394.22	73.56
394.429	53.08
394.639	-77.99
394.848	40.79
395.058	71.51
395.267	3.93
395.477	-24.75
395.686	55.12
395.895	94.04
396.105	5.97
396.314	30.55
396.524	-12.46
396.733	-18.6
396.942	100.18
397.152	20.31
397.361	42.84
397.57	77.65
397.78	126.8
397.989	94.04
398.198	32.6
398.407	89.94
398.617	42.84
398.826	104.28
399.035	34.64
399.244	59.22
399.453	-2.22
399.663	63.32
399.872	104.28
400.081	44.88
400.29	48.98
400.499	75.6
400.708	26.45
400.917	108.37
401.127	26.45
401.336	46.93
401.545	81.75
401.754	44.88
401.963	26.45
402.172	75.6
402.381	59.22
402.59	44.88
402.799	16.21
403.008	-0.17
403.217	77.65
403.426	36.69
403.635	91.99
403.844	83.8
404.053	55.12
404.262	51.03
404.471	149.33
404.68	75.6
404.888	40.79
405.097	83.8
405.306	91.99
405.515	34.64
405.724	3.93
405.933	67.41
406.142	126.8
406.35	128.85
406.559	124.76
406.768	91.99
406.977	137.04
407.185	87.89
407.394	114.52
407.603	8.02
407.812	153.43
408.02	89.94
408.229	149.33
408.438	163.67
408.646	145.24
408.855	143.19
409.064	141.14
409.272	139.09
409.481	122.71
409.69	118.61
409.898	212.82
410.107	145.24
410.315	180.05
410.524	147.28
410.733	94.04
410.941	91.99
411.15	247.63
411.358	190.29
411.567	194.39
411.775	253.78
411.984	227.15
412.192	190.29
412.401	180.05
412.609	274.26
412.818	245.59
413.026	264.02
413.234	304.98
413.443	362.32
413.651	272.21
413.86	259.92
414.068	378.7
414.276	343.89
414.485	397.14
414.693	345.94
414.901	421.71
415.11	401.23
415.318	446.29
415.526	388.94
415.734	411.47
415.943	444.24
416.151	499.53
416.359	477.01
416.567	472.91
416.776	526.16
416.984	485.2
417.192	528.21
417.4	532.3
417.608	646.99
417.817	630.6
418.025	634.7
418.233	689.99
418.441	749.39
418.649	552.78
418.857	665.42
419.065	730.95
419.273	696.14
419.481	749.39
419.689	769.87
419.897	941.89
420.105	880.46
420.313	970.57
420.521	1027.91
420.729	935.75
420.937	931.66
421.145	1009.48
421.353	993.09
421.561	1113.92
421.769	1177.41
421.977	1099.59
422.185	1111.88
422.393	1292.1
422.601	1324.87
422.809	1429.31
423.017	1380.16
423.224	1417.02
423.432	1396.54
423.64	1445.7
423.848	1560.38
424.056	1576.77
424.263	1546.05
424.471	1689.4
424.679	1683.26
424.887	1638.2
425.094	1812.28
425.302	1838.91
425.51	1859.38
425.718	1918.78
425.925	1961.78
426.133	2037.56
426.341	2156.34
426.548	2283.31
426.756	2258.74
426.964	2271.03
427.171	2342.71
427.379	2484.02
427.586	2461.49
427.794	2596.65
428.001	2604.85
428.209	2811.69
428.417	2756.4
428.624	2938.66
428.832	2981.67
429.039	3004.2
429.247	2971.43
429.454	3235.62
429.662	3393.31
429.869	3321.63
430.076	3606.3
430.284	3311.39
430.491	3522.34
430.699	3680.03
430.906	3784.48
431.114	3790.62
431.321	3942.17
431.528	3927.83
431.736	4343.57
431.943	4382.48
432.15	4364.05
432.358	4345.62
432.565	4591.38
432.772	4597.52
432.979	4693.77
433.187	5078.79
433.394	4898.57
433.601	5099.27
433.808	5256.97
434.016	5224.2
434.223	5662.46
434.43	5709.57
434.637	5760.77
434.844	6037.24
435.052	6110.97
435.259	5981.95
435.466	6217.46
435.673	6182.65
435.88	6520.56
436.087	6897.39
436.294	6948.59
436.501	6639.34
436.708	6831.85
436.915	6969.07
437.122	7356.13
437.329	7280.36
437.537	7642.85
437.743	7814.88
437.95	7618.27
438.157	8175.32
438.364	8378.07
438.571	8083.16
438.778	8335.06
438.985	9184.97
439.192	8816.33
439.399	9148.11
439.606	8888.01
439.813	9397.96
440.02	10024.64
440.227	9854.65
440.433	9649.86
440.64	10032.83
440.847	10090.17
441.054	10286.78
441.261	10999.47
441.467	10700.47
441.674	11024.05
441.881	11402.92
442.088	11425.45
442.294	11259.56
442.501	11513.51
442.708	11894.43
442.914	12185.24
443.121	12682.9
443.328	12795.54
443.534	13416.07
443.741	12648.08
443.948	12899.98
444.154	13721.22
444.361	13551.24
444.568	13901.44
444.774	13581.96
444.981	13876.87
445.187	14349.95
445.394	15036.02
445.6	14823.03
445.807	16483.93
446.013	15648.36
446.22	16115.3
446.426	16666.2
446.633	16762.45
446.839	17030.74
447.046	16627.29
447.252	17442.38
447.459	17802.82
447.665	17522.25
447.871	18353.73
448.078	19277.36
448.284	18263.61
448.491	18904.63
448.697	19142.19
448.903	19832.36
449.11	19858.98
449.316	19840.55
449.522	19961.38
449.728	20489.76
449.935	20796.95
450.141	20796.95
450.347	21296.66
450.553	20614.68
450.76	20663.83
450.966	21677.58
451.172	21341.71
451.378	21915.14
451.584	21540.36
451.791	21839.37
451.997	22214.15
452.203	22504.96
452.409	22244.87
452.615	22224.39
452.821	21636.62
453.027	21423.63
453.233	22377.98
453.44	21665.29
453.646	21757.45
453.852	21970.44
454.058	22068.74
454.264	21358.1
454.47	22216.19
454.676	21282.32
454.882	22451.71
455.088	20405.79
455.294	20717.08
455.5	21061.14
455.705	21302.8
455.911	20434.46
456.117	20129.31
456.323	19787.3
456.529	18929.2
456.735	19885.61
456.941	19115.57
457.147	18898.48
457.352	18265.66
457.558	18089.54
457.764	18171.46
457.97	17905.22
458.176	17292.88
458.381	17481.29
458.587	16406.11
458.793	16447.07
458.999	15486.57
459.204	16801.36
459.41	16404.06
459.616	15040.11
459.821	15150.7
460.027	15384.17
460.233	14882.42
460.438	14075.52
460.644	14425.72
460.85	13737.6
461.055	13610.63
461.261	13387.4
461.466	12596.89
461.672	12261.02
461.878	13010.57
462.083	11984.54
462.289	11591.33
462.494	11730.59
462.7	11263.66
462.905	10821.3
463.111	11263.66
463.316	11226.79
463.522	11116.2
463.727	11132.59
463.932	11024.05
464.138	10938.03
464.343	10966.7
464.549	10704.56
464.754	10921.65
464.959	11099.82
465.165	10913.45
465.37	10417.85
465.575	10131.13
465.781	10639.03
465.986	10692.27
466.191	10530.48
466.397	9868.99
466.602	9684.67
466.807	9883.33
467.012	10026.68
467.218	9723.58
467.423	9580.23
467.628	9844.42
