Data from USB4F104151__6__12-58-26-780.txt Node

Date: Fri Mar 14 12:58:26 EDT 2025
User: louis
Spectrometer: USB4F10415
Trigger mode: 4
Integration Time (sec): 1.000000E-2
Scans to average: 1
Electric dark correction enabled: true
Nonlinearity correction enabled: false
Boxcar width: 0
XAxis mode: Wavelengths
Number of Pixels in Spectrum: 3648
>>>>>Begin Spectral Data<<<<<
178.204	-50.52
178.424	-50.52
178.644	-50.52
178.864	-3.41
179.084	-3.41
179.304	62.12
179.524	-25.94
179.744	-95.57
179.964	62.12
180.184	0.68
180.404	2.73
180.624	-11.61
180.844	55.98
181.064	-38.23
181.283	2.73
181.503	-11.61
181.723	-3.41
181.943	-11.61
182.163	-7.51
182.383	4.78
182.602	47.79
182.822	33.45
183.042	10.92
183.262	-3.41
183.482	-3.41
183.701	-21.85
183.921	17.07
184.141	-3.41
184.361	43.69
184.58	-13.65
184.8	17.07
185.02	-7.51
185.239	72.36
185.459	74.41
185.679	43.69
185.898	15.02
186.118	-13.65
186.338	51.88
186.557	19.11
186.777	19.11
186.997	-36.18
187.216	23.21
187.436	58.03
187.655	47.79
187.875	43.69
188.095	-60.76
188.314	64.17
188.534	35.5
188.753	2.73
188.973	68.27
189.192	64.17
189.412	-21.85
189.631	90.79
189.851	31.4
190.07	-9.56
190.29	-5.46
190.509	-52.56
190.729	70.31
190.948	35.5
191.168	84.65
191.387	37.55
191.607	68.27
191.826	41.64
192.045	29.35
192.265	47.79
192.484	45.74
192.704	4.78
192.923	10.92
193.142	80.55
193.362	23.21
193.581	-5.46
193.8	78.51
194.02	-13.65
194.239	-17.75
194.458	4.78
194.678	-9.56
194.897	-3.41
195.116	-7.51
195.335	27.31
195.555	-32.08
195.774	25.26
195.993	31.4
196.212	-13.65
196.432	2.73
196.651	19.11
196.87	-25.94
197.089	53.93
197.308	78.51
197.528	19.11
197.747	-11.61
197.966	68.27
198.185	105.13
198.404	4.78
198.623	35.5
198.842	-30.04
199.062	45.74
199.281	70.31
199.5	-13.65
199.719	84.65
199.938	31.4
200.157	-3.41
200.376	58.03
200.595	47.79
200.814	8.87
201.033	4.78
201.252	-3.41
201.471	66.22
201.69	45.74
201.909	49.83
202.128	74.41
202.347	15.02
202.566	-3.41
202.785	51.88
203.004	-23.89
203.223	111.27
203.442	4.78
203.661	31.4
203.879	-54.61
204.098	92.84
204.317	27.31
204.536	43.69
204.755	19.11
204.974	8.87
205.193	19.11
205.411	131.75
205.63	64.17
205.849	-13.65
206.068	15.02
206.287	49.83
206.505	74.41
206.724	10.92
206.943	-38.23
207.162	68.27
207.381	33.45
207.599	4.78
207.818	72.36
208.037	8.87
208.255	25.26
208.474	8.87
208.693	10.92
208.911	10.92
209.13	53.93
209.349	15.02
209.567	-1.37
209.786	88.75
210.005	105.13
210.223	-13.65
210.442	8.87
210.661	129.7
210.879	94.89
211.098	19.11
211.316	47.79
211.535	60.07
211.753	-15.7
211.972	45.74
212.191	25.26
212.409	-32.08
212.628	-60.76
212.846	90.79
213.065	64.17
213.283	58.03
213.502	96.94
213.72	62.12
213.938	23.21
214.157	111.27
214.375	-25.94
214.594	-9.56
214.812	-44.37
215.031	33.45
215.249	10.92
215.467	2.73
215.686	12.97
215.904	45.74
216.122	27.31
216.341	51.88
216.559	29.35
216.778	78.51
216.996	33.45
217.214	8.87
217.432	86.7
217.651	60.07
217.869	-23.89
218.087	76.46
218.306	-32.08
218.524	25.26
218.742	0.68
218.96	74.41
219.179	125.61
219.397	58.03
219.615	43.69
219.833	19.11
220.051	-7.51
220.27	0.68
220.488	12.97
220.706	80.55
220.924	64.17
221.142	-21.85
221.36	43.69
221.578	43.69
221.796	-21.85
222.015	19.11
222.233	64.17
222.451	10.92
222.669	-1.37
222.887	6.83
223.105	2.73
223.323	55.98
223.541	23.21
223.759	45.74
223.977	31.4
224.195	96.94
224.413	78.51
224.631	92.84
224.849	-5.46
225.067	115.37
225.285	19.11
225.503	-27.99
225.721	37.55
225.939	23.21
226.157	10.92
226.375	82.6
226.592	-5.46
226.81	21.16
227.028	-9.56
227.246	98.99
227.464	33.45
227.682	76.46
227.9	21.16
228.117	70.31
228.335	0.68
228.553	0.68
228.771	58.03
228.989	-30.04
229.206	-95.57
229.424	45.74
229.642	-19.8
229.86	-15.7
230.077	55.98
230.295	-1.37
230.513	33.45
230.731	12.97
230.948	55.98
231.166	41.64
231.384	2.73
231.601	31.4
231.819	-17.75
232.037	55.98
232.254	12.97
232.472	29.35
232.689	49.83
232.907	23.21
233.125	43.69
233.342	6.83
233.56	31.4
233.777	39.59
233.995	8.87
234.213	31.4
234.43	31.4
234.648	37.55
234.865	-32.08
235.083	86.7
235.3	0.68
235.518	60.07
235.735	39.59
235.953	150.18
236.17	-25.94
236.388	17.07
236.605	19.11
236.822	72.36
237.04	15.02
237.257	23.21
237.475	41.64
237.692	17.07
237.909	23.21
238.127	43.69
238.344	98.99
238.562	62.12
238.779	-3.41
238.996	60.07
239.214	6.83
239.431	-3.41
239.648	55.98
239.865	78.51
240.083	51.88
240.3	-27.99
240.517	-40.28
240.735	-21.85
240.952	58.03
241.169	-36.18
241.386	49.83
241.603	35.5
241.821	17.07
242.038	47.79
242.255	23.21
242.472	43.69
242.689	51.88
242.907	39.59
243.124	15.02
243.341	45.74
243.558	12.97
243.775	19.11
243.992	19.11
244.209	51.88
244.426	43.69
244.643	-15.7
244.86	92.84
245.078	84.65
245.295	4.78
245.512	76.46
245.729	19.11
245.946	-5.46
246.163	2.73
246.38	58.03
246.597	-79.19
246.814	6.83
247.031	45.74
247.248	-34.13
247.464	19.11
247.681	2.73
247.898	19.11
248.115	76.46
248.332	74.41
248.549	45.74
248.766	19.11
248.983	25.26
249.2	-11.61
249.417	55.98
249.633	25.26
249.85	-7.51
250.067	19.11
250.284	-1.37
250.501	19.11
250.717	43.69
250.934	82.6
251.151	74.41
251.368	4.78
251.585	-1.37
251.801	113.32
252.018	45.74
252.235	2.73
252.451	-36.18
252.668	-46.42
252.885	72.36
253.102	-9.56
253.318	55.98
253.535	23.21
253.752	-9.56
253.968	37.55
254.185	19.11
254.401	12.97
254.618	68.27
254.835	4.78
255.051	2.73
255.268	12.97
255.484	86.7
255.701	19.11
255.917	92.84
256.134	8.87
256.351	88.75
256.567	45.74
256.784	-5.46
257	31.4
257.217	80.55
257.433	12.97
257.65	33.45
257.866	4.78
258.082	-27.99
258.299	23.21
258.515	62.12
258.732	17.07
258.948	2.73
259.165	-25.94
259.381	-64.85
259.597	39.59
259.814	60.07
260.03	19.11
260.246	8.87
260.463	31.4
260.679	88.75
260.895	10.92
261.112	43.69
261.328	-75.09
261.544	-7.51
261.761	60.07
261.977	58.03
262.193	6.83
262.409	84.65
262.626	-21.85
262.842	64.17
263.058	41.64
263.274	-23.89
263.49	70.31
263.707	105.13
263.923	39.59
264.139	-19.8
264.355	6.83
264.571	70.31
264.787	39.59
265.004	55.98
265.22	-9.56
265.436	43.69
265.652	10.92
265.868	60.07
266.084	21.16
266.3	62.12
266.516	29.35
266.732	6.83
266.948	0.68
267.164	-5.46
267.38	45.74
267.596	51.88
267.812	53.93
268.028	33.45
268.244	53.93
268.46	111.27
268.676	-3.41
268.892	53.93
269.108	78.51
269.324	21.16
269.54	-73.04
269.756	-46.42
269.972	31.4
270.188	-13.65
270.403	39.59
270.619	45.74
270.835	2.73
271.051	-5.46
271.267	4.78
271.483	64.17
271.698	58.03
271.914	74.41
272.13	43.69
272.346	10.92
272.562	39.59
272.777	15.02
272.993	78.51
273.209	10.92
273.425	29.35
273.64	101.03
273.856	-7.51
274.072	12.97
274.287	-13.65
274.503	45.74
274.719	90.79
274.934	39.59
275.15	-11.61
275.366	0.68
275.581	-44.37
275.797	64.17
276.012	84.65
276.228	33.45
276.444	8.87
276.659	12.97
276.875	2.73
277.09	51.88
277.306	0.68
277.521	-21.85
277.737	25.26
277.952	37.55
278.168	27.31
278.383	-11.61
278.599	-7.51
278.814	-11.61
279.03	80.55
279.245	76.46
279.461	-11.61
279.676	101.03
279.892	4.78
280.107	103.08
280.322	27.31
280.538	-1.37
280.753	39.59
280.969	58.03
281.184	53.93
281.399	39.59
281.615	-25.94
281.83	27.31
282.045	15.02
282.26	88.75
282.476	19.11
282.691	35.5
282.906	41.64
283.122	51.88
283.337	84.65
283.552	8.87
283.767	-7.51
283.983	55.98
284.198	12.97
284.413	10.92
284.628	10.92
284.843	-46.42
285.058	23.21
285.274	41.64
285.489	-38.23
285.704	66.22
285.919	-79.19
286.134	55.98
286.349	-11.61
286.564	21.16
286.779	15.02
286.995	49.83
287.21	-13.65
287.425	37.55
287.64	8.87
287.855	21.16
288.07	47.79
288.285	29.35
288.5	72.36
288.715	74.41
288.93	31.4
289.145	76.46
289.36	82.6
289.575	64.17
289.79	51.88
290.004	51.88
290.219	-50.52
290.434	41.64
290.649	80.55
290.864	29.35
291.079	31.4
291.294	39.59
291.509	4.78
291.724	-54.61
291.938	17.07
292.153	51.88
292.368	31.4
292.583	68.27
292.798	55.98
293.012	-21.85
293.227	31.4
293.442	72.36
293.657	12.97
293.871	10.92
294.086	21.16
294.301	84.65
294.516	-11.61
294.73	19.11
294.945	62.12
295.16	-5.46
295.374	111.27
295.589	6.83
295.804	4.78
296.018	21.16
296.233	19.11
296.447	88.75
296.662	-23.89
296.877	35.5
297.091	29.35
297.306	-3.41
297.52	-17.75
297.735	35.5
297.949	-19.8
298.164	43.69
298.378	72.36
298.593	107.18
298.807	19.11
299.022	-95.57
299.236	0.68
299.451	55.98
299.665	86.7
299.88	70.31
300.094	74.41
300.309	68.27
300.523	31.4
300.737	-21.85
300.952	8.87
301.166	37.55
301.381	37.55
301.595	15.02
301.809	-1.37
302.024	-19.8
302.238	64.17
302.452	86.7
302.667	55.98
302.881	19.11
303.095	15.02
303.309	21.16
303.524	35.5
303.738	-36.18
303.952	55.98
304.166	76.46
304.381	19.11
304.595	39.59
304.809	25.26
305.023	-15.7
305.237	107.18
305.452	-1.37
305.666	84.65
305.88	64.17
306.094	23.21
306.308	55.98
306.522	47.79
306.736	35.5
306.95	64.17
307.164	76.46
307.379	8.87
307.593	66.22
307.807	76.46
308.021	2.73
308.235	72.36
308.449	-15.7
308.663	66.22
308.877	-3.41
309.091	25.26
309.305	53.93
309.519	-27.99
309.733	35.5
309.947	31.4
310.161	37.55
310.374	39.59
310.588	72.36
310.802	-38.23
311.016	23.21
311.23	49.83
311.444	4.78
311.658	4.78
311.872	8.87
312.085	37.55
312.299	19.11
312.513	94.89
312.727	43.69
312.941	19.11
313.154	64.17
313.368	51.88
313.582	23.21
313.796	64.17
314.009	45.74
314.223	78.51
314.437	94.89
314.651	41.64
314.864	-54.61
315.078	51.88
315.292	29.35
315.505	49.83
315.719	-50.52
315.933	58.03
316.146	70.31
316.36	2.73
316.573	78.51
316.787	84.65
317.001	55.98
317.214	62.12
317.428	17.07
317.641	-3.41
317.855	86.7
318.068	35.5
318.282	17.07
318.495	64.17
318.709	47.79
318.922	4.78
319.136	25.26
319.349	66.22
319.563	35.5
319.776	111.27
319.99	8.87
320.203	43.69
320.417	-19.8
320.63	17.07
320.843	55.98
321.057	72.36
321.27	25.26
321.483	31.4
321.697	66.22
321.91	2.73
322.124	64.17
322.337	-40.28
322.55	53.93
322.763	58.03
322.977	-11.61
323.19	-71
323.403	51.88
323.617	98.99
323.83	47.79
324.043	6.83
324.256	66.22
324.469	-23.89
324.683	6.83
324.896	74.41
325.109	41.64
325.322	43.69
325.535	45.74
325.748	6.83
325.962	68.27
326.175	66.22
326.388	76.46
326.601	60.07
326.814	6.83
327.027	43.69
327.24	41.64
327.453	2.73
327.666	107.18
327.879	62.12
328.092	94.89
328.305	-13.65
328.518	35.5
328.731	19.11
328.944	35.5
329.157	111.27
329.37	25.26
329.583	27.31
329.796	80.55
330.009	19.11
330.222	29.35
330.435	-1.37
330.648	37.55
330.861	39.59
331.073	-13.65
331.286	62.12
331.499	94.89
331.712	-23.89
331.925	47.79
332.138	43.69
332.35	12.97
332.563	25.26
332.776	6.83
332.989	84.65
333.202	68.27
333.414	76.46
333.627	-9.56
333.84	-30.04
334.053	35.5
334.265	12.97
334.478	27.31
334.691	15.02
334.903	64.17
335.116	-3.41
335.329	64.17
335.541	39.59
335.754	31.4
335.966	-13.65
336.179	10.92
336.392	-27.99
336.604	43.69
336.817	60.07
337.029	74.41
337.242	-19.8
337.454	23.21
337.667	23.21
337.88	51.88
338.092	60.07
338.305	43.69
338.517	17.07
338.729	-36.18
338.942	29.35
339.154	94.89
339.367	55.98
339.579	25.26
339.792	84.65
340.004	21.16
340.217	-34.13
340.429	76.46
340.641	96.94
340.854	37.55
341.066	12.97
341.278	-48.47
341.491	35.5
341.703	37.55
341.915	51.88
342.128	84.65
342.34	66.22
342.552	39.59
342.764	-32.08
342.977	51.88
343.189	60.07
343.401	-3.41
343.613	88.75
343.826	66.22
344.038	21.16
344.25	4.78
344.462	84.65
344.674	-3.41
344.886	12.97
345.099	60.07
345.311	43.69
345.523	84.65
345.735	53.93
345.947	53.93
346.159	78.51
346.371	66.22
346.583	-9.56
346.795	92.84
347.007	-3.41
347.219	43.69
347.431	51.88
347.643	37.55
347.855	41.64
348.067	78.51
348.279	74.41
348.491	-75.09
348.703	25.26
348.915	84.65
349.127	43.69
349.339	39.59
349.551	41.64
349.763	31.4
349.975	-1.37
350.187	35.5
350.399	62.12
350.61	29.35
350.822	17.07
351.034	33.45
351.246	49.83
351.458	58.03
351.669	39.59
351.881	60.07
352.093	23.21
352.305	86.7
352.517	2.73
352.728	60.07
352.94	-11.61
353.152	29.35
353.363	-13.65
353.575	88.75
353.787	45.74
353.999	92.84
354.21	101.03
354.422	-25.94
354.633	-7.51
354.845	76.46
355.057	76.46
355.268	78.51
355.48	-13.65
355.692	-15.7
355.903	17.07
356.115	17.07
356.326	74.41
356.538	55.98
356.749	70.31
356.961	78.51
357.172	117.42
357.384	43.69
357.595	117.42
357.807	64.17
358.018	-38.23
358.23	92.84
358.441	43.69
358.653	101.03
358.864	6.83
359.075	19.11
359.287	-3.41
359.498	58.03
359.709	33.45
359.921	19.11
360.132	58.03
360.344	88.75
360.555	17.07
360.766	15.02
360.977	45.74
361.189	66.22
361.4	12.97
361.611	78.51
361.823	19.11
362.034	17.07
362.245	15.02
362.456	-1.37
362.667	35.5
362.879	88.75
363.09	25.26
363.301	41.64
363.512	25.26
363.723	94.89
363.935	49.83
364.146	64.17
364.357	35.5
364.568	-21.85
364.779	23.21
364.99	55.98
365.201	4.78
365.412	-1.37
365.623	23.21
365.834	55.98
366.045	-15.7
366.256	29.35
366.467	21.16
366.678	76.46
366.889	17.07
367.1	12.97
367.311	72.36
367.522	62.12
367.733	101.03
367.944	90.79
368.155	45.74
368.366	70.31
368.577	115.37
368.788	41.64
368.999	39.59
369.209	51.88
369.42	113.32
369.631	58.03
369.842	96.94
370.053	160.42
370.264	111.27
370.474	66.22
370.685	19.11
370.896	27.31
371.107	31.4
371.317	84.65
371.528	29.35
371.739	103.08
371.95	-13.65
372.16	-1.37
372.371	23.21
372.582	107.18
372.792	72.36
373.003	53.93
373.214	0.68
373.424	43.69
373.635	39.59
373.846	66.22
374.056	37.55
374.267	94.89
374.477	88.75
374.688	98.99
374.898	25.26
375.109	35.5
375.319	-3.41
375.53	64.17
375.74	31.4
375.951	55.98
376.161	41.64
376.372	47.79
376.582	68.27
376.793	-23.89
377.003	62.12
377.214	51.88
377.424	78.51
377.635	43.69
377.845	29.35
378.055	92.84
378.266	-15.7
378.476	43.69
378.686	31.4
378.897	117.42
379.107	107.18
379.317	-13.65
379.528	-21.85
379.738	62.12
379.948	51.88
380.158	94.89
380.369	68.27
380.579	8.87
380.789	66.22
380.999	31.4
381.21	6.83
381.42	117.42
381.63	31.4
381.84	55.98
382.05	70.31
382.261	66.22
382.471	80.55
382.681	53.93
382.891	6.83
383.101	98.99
383.311	88.75
383.521	86.7
383.731	111.27
383.941	39.59
384.151	76.46
384.361	60.07
384.571	10.92
384.781	19.11
384.991	64.17
385.201	58.03
385.411	25.26
385.621	43.69
385.831	47.79
386.041	-1.37
386.251	41.64
386.461	49.83
386.671	49.83
386.881	-21.85
387.091	23.21
387.301	107.18
387.511	-13.65
387.72	-27.99
387.93	2.73
388.14	109.22
388.35	6.83
388.56	35.5
388.769	60.07
388.979	68.27
389.189	58.03
389.399	4.78
389.609	94.89
389.818	-17.75
390.028	72.36
390.238	111.27
390.447	68.27
390.657	41.64
390.867	49.83
391.076	49.83
391.286	92.84
391.496	45.74
391.705	43.69
391.915	62.12
392.125	25.26
392.334	31.4
392.544	45.74
392.753	47.79
392.963	49.83
393.172	35.5
393.382	15.02
393.591	62.12
393.801	94.89
394.01	51.88
394.22	109.22
394.429	101.03
394.639	25.26
394.848	68.27
395.058	103.08
395.267	60.07
395.477	66.22
395.686	62.12
395.895	103.08
396.105	82.6
396.314	133.8
396.524	31.4
396.733	43.69
396.942	86.7
397.152	47.79
397.361	51.88
397.57	86.7
397.78	53.93
397.989	84.65
398.198	129.7
398.407	39.59
398.617	103.08
398.826	92.84
399.035	86.7
399.244	10.92
399.453	125.61
399.663	17.07
399.872	127.66
400.081	21.16
400.29	94.89
400.499	47.79
400.708	86.7
400.917	90.79
401.127	33.45
401.336	103.08
401.545	70.31
401.754	78.51
401.963	27.31
402.172	105.13
402.381	15.02
402.59	-27.99
402.799	51.88
403.008	135.85
403.217	105.13
403.426	68.27
403.635	84.65
403.844	98.99
404.053	127.66
404.262	51.88
404.471	135.85
404.68	119.46
404.888	68.27
405.097	80.55
405.306	68.27
405.515	141.99
405.724	76.46
405.933	178.86
406.142	146.09
406.35	135.85
406.559	27.31
406.768	133.8
406.977	119.46
407.185	133.8
407.394	150.18
407.603	92.84
407.812	137.9
408.02	199.34
408.229	203.43
408.438	182.95
408.646	125.61
408.855	127.66
409.064	180.9
409.272	195.24
409.481	242.34
409.69	176.81
409.898	121.51
410.107	201.38
410.315	217.77
410.524	160.42
410.733	225.96
410.941	174.76
411.15	260.77
411.358	283.3
411.567	213.67
411.775	185
411.984	201.38
412.192	242.34
412.401	322.21
412.609	252.58
412.818	287.4
413.026	340.65
413.234	289.45
413.443	279.21
413.651	344.74
413.86	311.97
414.068	371.36
414.276	373.41
414.485	379.56
414.693	354.98
414.901	432.8
415.11	426.66
415.318	375.46
415.526	432.8
415.734	447.14
415.943	518.82
416.151	576.16
416.359	484
416.567	395.94
416.776	502.43
416.984	600.74
417.192	602.79
417.4	559.78
417.608	479.91
417.817	651.94
418.025	639.65
418.233	619.17
418.441	756.38
418.649	709.28
418.857	791.2
419.065	823.97
419.273	795.29
419.481	875.17
419.689	828.06
419.897	914.08
420.105	858.78
420.313	973.47
420.521	1018.52
420.729	1063.58
420.937	1090.2
421.145	1120.92
421.353	1219.22
421.561	1223.32
421.769	1168.02
421.977	1288.85
422.185	1233.56
422.393	1331.86
422.601	1395.35
422.809	1319.57
423.017	1372.82
423.224	1550.99
423.432	1555.09
423.64	1579.67
423.848	1612.43
424.056	1532.56
424.263	1850
424.471	1704.59
424.679	1858.19
424.887	1862.29
425.094	1890.96
425.302	1909.39
425.51	2060.94
425.718	2136.71
425.925	2060.94
426.133	2214.54
426.341	2267.78
426.548	2359.94
426.756	2423.43
426.964	2374.28
427.171	2423.43
427.379	2574.98
427.586	2542.21
427.794	2722.43
428.001	2910.85
428.209	3052.16
428.417	3013.24
428.624	3166.84
428.832	3062.4
429.039	3175.03
429.247	3091.07
429.454	3420.79
429.662	3484.28
429.869	3447.41
430.076	3695.22
430.284	3631.73
430.491	3775.09
430.699	3922.54
430.906	3834.48
431.114	3967.6
431.321	4057.71
431.528	4172.39
431.736	4706.91
431.943	4635.24
432.15	4489.83
432.358	4469.35
432.565	4805.22
432.772	4737.63
432.979	4983.39
433.187	5251.67
433.394	5270.11
433.601	5468.76
433.808	5560.92
434.016	5382.74
434.223	5634.64
434.43	6034
434.637	5943.89
434.844	6249.04
435.052	6515.27
435.259	6353.48
435.466	6406.73
435.673	6257.23
435.88	6785.6
436.087	7131.71
436.294	7105.09
436.501	6949.44
436.708	7100.99
436.915	7385.66
437.122	7604.79
437.329	7596.6
437.537	7793.2
437.743	7975.47
437.95	7862.83
438.157	8534.57
438.364	8845.86
438.571	8745.51
438.778	8737.32
438.985	9589.27
439.192	9085.47
439.399	9415.19
439.606	9370.14
439.813	9787.93
440.02	10254.86
440.227	10267.15
440.433	10244.62
440.64	10553.87
440.847	10549.77
441.054	10793.48
441.261	11160.06
441.467	11119.1
441.674	11356.67
441.881	11776.5
442.088	11776.5
442.294	11690.49
442.501	12130.8
442.708	12390.89
442.914	12775.91
443.121	13314.53
443.328	12917.22
443.534	13933.01
443.741	13332.96
443.948	13320.67
444.154	14395.85
444.361	14242.26
444.568	14338.51
444.774	14428.62
444.981	14563.79
445.187	14995.91
445.394	15577.53
445.6	15405.5
445.807	16916.9
446.013	16206.26
446.22	16523.69
446.426	17250.72
446.633	17422.75
446.839	17684.89
447.046	17029.54
447.252	18360.72
447.459	18141.59
447.665	18299.28
447.871	18983.31
448.078	19655.04
448.284	18833.8
448.491	19239.3
448.697	20097.4
448.903	20425.07
449.11	20691.31
449.316	20316.53
449.522	20681.07
449.728	21125.48
449.935	21469.54
450.141	21256.55
450.347	21696.86
450.553	21258.6
450.76	21567.84
450.966	22313.3
451.172	21916
451.378	22333.78
451.584	21916
451.791	22401.36
451.997	22296.92
452.203	23007.56
452.409	22907.21
452.615	22862.16
452.821	22110.55
453.027	21463.4
453.233	22980.94
453.44	21852.51
453.646	22397.27
453.852	22413.65
454.058	23128.39
454.264	22229.34
454.47	22446.42
454.676	22260.05
454.882	22810.96
455.088	20701.55
455.294	21148.01
455.5	21524.83
455.705	21660
455.911	21053.8
456.117	20527.47
456.323	20162.93
456.529	19059.08
456.735	19882.36
456.941	19550.59
457.147	18940.3
457.352	18674.06
457.558	18305.43
457.764	18389.39
457.97	17742.24
458.176	17766.81
458.381	17576.35
458.587	16839.08
458.793	16955.82
458.999	15833.53
459.204	17191.33
459.41	16779.69
459.616	15421.89
459.821	15675.84
460.027	15514.05
460.233	14959.05
460.438	14186.96
460.644	14600.65
460.85	13701.59
461.055	13591
461.261	13449.69
461.466	12681.71
461.672	12270.06
461.878	13212.13
462.083	12253.68
462.289	11938.29
462.494	11678.2
462.7	11340.29
462.905	11145.73
463.111	11522.55
463.316	11631.1
463.522	10996.23
463.727	11332.09
463.932	11102.72
464.138	11213.31
464.343	11074.05
464.549	11043.33
464.754	11229.7
464.959	11248.13
465.165	10955.27
465.37	10549.77
465.575	10263.05
465.781	10867.2
465.986	10684.94
466.191	10359.31
466.397	10308.11
466.602	9753.11
466.807	10048.02
467.012	9986.58
467.218	9841.17
467.423	9853.46
467.628	9996.82
467.833	10064.4
468.038	9939.47
468.244	9691.67
468.449	10218
468.654	9738.77
468.859	9593.37
469.064	9579.03
