Data from USB4F104151__2__12-58-23-290.txt Node

Date: Fri Mar 14 12:58:23 EDT 2025
User: louis
Spectrometer: USB4F10415
Trigger mode: 4
Integration Time (sec): 1.000000E-2
Scans to average: 1
Electric dark correction enabled: true
Nonlinearity correction enabled: false
Boxcar width: 0
XAxis mode: Wavelengths
Number of Pixels in Spectrum: 3648
>>>>>Begin Spectral Data<<<<<
178.204	-40.96
178.424	-40.96
178.644	-40.96
178.864	-43.01
179.084	-8.19
179.304	-6.14
179.524	-53.25
179.744	-8.19
179.964	-10.24
180.184	0
180.404	43.01
180.624	43.01
180.844	-18.43
181.064	-22.53
181.283	-10.24
181.503	55.3
181.723	-12.29
181.943	-30.72
182.163	92.16
182.383	-32.77
182.602	79.87
182.822	-28.67
183.042	77.82
183.262	-10.24
183.482	26.62
183.701	-4.1
183.921	-49.15
184.141	0
184.361	-2.05
184.58	8.19
184.8	20.48
185.02	-4.1
185.239	24.58
185.459	65.54
185.679	-4.1
185.898	-8.19
186.118	22.53
186.338	6.14
186.557	49.15
186.777	-2.05
186.997	45.06
187.216	-28.67
187.436	-26.62
187.655	-26.62
187.875	-32.77
188.095	28.67
188.314	57.34
188.534	20.48
188.753	51.2
188.973	69.63
189.192	10.24
189.412	18.43
189.631	14.34
189.851	-2.05
190.07	18.43
190.29	8.19
190.509	-20.48
190.729	28.67
190.948	-4.1
191.168	45.06
191.387	108.54
191.607	16.38
191.826	-38.91
192.045	28.67
192.265	81.92
192.484	-20.48
192.704	14.34
192.923	12.29
193.142	4.1
193.362	30.72
193.581	45.06
193.8	20.48
194.02	38.91
194.239	28.67
194.458	69.63
194.678	2.05
194.897	67.58
195.116	-12.29
195.335	10.24
195.555	28.67
195.774	-18.43
195.993	32.77
196.212	0
196.432	98.3
196.651	20.48
196.87	36.86
197.089	65.54
197.308	-24.58
197.528	4.1
197.747	10.24
197.966	57.34
198.185	16.38
198.404	38.91
198.623	26.62
198.842	38.91
199.062	-6.14
199.281	47.1
199.5	16.38
199.719	-32.77
199.938	47.1
200.157	20.48
200.376	28.67
200.595	-34.82
200.814	51.2
201.033	30.72
201.252	67.58
201.471	-26.62
201.69	10.24
201.909	96.25
202.128	-63.49
202.347	20.48
202.566	53.25
202.785	28.67
203.004	-8.19
203.223	14.34
203.442	-4.1
203.661	45.06
203.879	18.43
204.098	16.38
204.317	-81.92
204.536	55.3
204.755	49.15
204.974	24.58
205.193	57.34
205.411	34.82
205.63	28.67
205.849	51.2
206.068	6.14
206.287	-18.43
206.505	47.1
206.724	20.48
206.943	0
207.162	26.62
207.381	32.77
207.599	4.1
207.818	32.77
208.037	59.39
208.255	-18.43
208.474	36.86
208.693	-6.14
208.911	57.34
209.13	20.48
209.349	-34.82
209.567	36.86
209.786	53.25
210.005	67.58
210.223	36.86
210.442	51.2
210.661	24.58
210.879	61.44
211.098	8.19
211.316	53.25
211.535	71.68
211.753	18.43
211.972	65.54
212.191	32.77
212.409	14.34
212.628	55.3
212.846	36.86
213.065	-34.82
213.283	40.96
213.502	22.53
213.72	57.34
213.938	-16.38
214.157	26.62
214.375	4.1
214.594	40.96
214.812	8.19
215.031	61.44
215.249	-49.15
215.467	-34.82
215.686	6.14
215.904	6.14
216.122	53.25
216.341	69.63
216.559	-10.24
216.778	67.58
216.996	-8.19
217.214	26.62
217.432	61.44
217.651	4.1
217.869	-16.38
218.087	6.14
218.306	86.01
218.524	-12.29
218.742	63.49
218.96	77.82
219.179	-28.67
219.397	12.29
219.615	30.72
219.833	6.14
220.051	36.86
220.27	28.67
220.488	28.67
220.706	6.14
220.924	22.53
221.142	8.19
221.36	12.29
221.578	43.01
221.796	26.62
222.015	71.68
222.233	2.05
222.451	20.48
222.669	36.86
222.887	30.72
223.105	-16.38
223.323	0
223.541	-16.38
223.759	-12.29
223.977	14.34
224.195	2.05
224.413	26.62
224.631	69.63
224.849	77.82
225.067	-34.82
225.285	2.05
225.503	55.3
225.721	-6.14
225.939	45.06
226.157	22.53
226.375	116.73
226.592	61.44
226.81	14.34
227.028	43.01
227.246	10.24
227.464	22.53
227.682	88.06
227.9	6.14
228.117	45.06
228.335	77.82
228.553	81.92
228.771	0
228.989	18.43
229.206	-57.34
229.424	4.1
229.642	-32.77
229.86	36.86
230.077	36.86
230.295	-18.43
230.513	71.68
230.731	0
230.948	8.19
231.166	98.3
231.384	34.82
231.601	28.67
231.819	120.83
232.037	16.38
232.254	-36.86
232.472	-53.25
232.689	28.67
232.907	-4.1
233.125	10.24
233.342	24.58
233.56	4.1
233.777	-28.67
233.995	73.73
234.213	139.26
234.43	38.91
234.648	30.72
234.865	-14.34
235.083	24.58
235.3	2.05
235.518	8.19
235.735	26.62
235.953	102.4
236.17	-53.25
236.388	8.19
236.605	16.38
236.822	-24.58
237.04	55.3
237.257	36.86
237.475	28.67
237.692	47.1
237.909	45.06
238.127	61.44
238.344	88.06
238.562	45.06
238.779	-8.19
238.996	47.1
239.214	79.87
239.431	38.91
239.648	30.72
239.865	-24.58
240.083	63.49
240.3	36.86
240.517	4.1
240.735	69.63
240.952	32.77
241.169	18.43
241.386	55.3
241.603	18.43
241.821	-10.24
242.038	-10.24
242.255	53.25
242.472	-28.67
242.689	2.05
242.907	-24.58
243.124	65.54
243.341	26.62
243.558	-6.14
243.775	-6.14
243.992	-20.48
244.209	28.67
244.426	92.16
244.643	0
244.86	-8.19
245.078	8.19
245.295	69.63
245.512	-20.48
245.729	-18.43
245.946	49.15
246.163	53.25
246.38	57.34
246.597	34.82
246.814	4.1
247.031	8.19
247.248	0
247.464	38.91
247.681	24.58
247.898	28.67
248.115	47.1
248.332	-63.49
248.549	-4.1
248.766	59.39
248.983	65.54
249.2	-16.38
249.417	38.91
249.633	24.58
249.85	20.48
250.067	40.96
250.284	67.58
250.501	-16.38
250.717	53.25
250.934	83.97
251.151	-34.82
251.368	10.24
251.585	38.91
251.801	26.62
252.018	40.96
252.235	-88.06
252.451	55.3
252.668	6.14
252.885	47.1
253.102	40.96
253.318	18.43
253.535	34.82
253.752	28.67
253.968	-63.49
254.185	18.43
254.401	81.92
254.618	38.91
254.835	71.68
255.051	-43.01
255.268	-16.38
255.484	-38.91
255.701	-8.19
255.917	-34.82
256.134	-59.39
256.351	45.06
256.567	22.53
256.784	4.1
257	53.25
257.217	53.25
257.433	16.38
257.65	24.58
257.866	59.39
258.082	43.01
258.299	4.1
258.515	22.53
258.732	-8.19
258.948	30.72
259.165	-30.72
259.381	28.67
259.597	36.86
259.814	6.14
260.03	18.43
260.246	-34.82
260.463	63.49
260.679	16.38
260.895	24.58
261.112	40.96
261.328	22.53
261.544	40.96
261.761	38.91
261.977	20.48
262.193	28.67
262.409	79.87
262.626	16.38
262.842	47.1
263.058	67.58
263.274	71.68
263.49	94.21
263.707	47.1
263.923	69.63
264.139	67.58
264.355	71.68
264.571	63.49
264.787	-14.34
265.004	-10.24
265.22	-79.87
265.436	14.34
265.652	59.39
265.868	45.06
266.084	51.2
266.3	32.77
266.516	49.15
266.732	71.68
266.948	16.38
267.164	28.67
267.38	8.19
267.596	18.43
267.812	30.72
268.028	-38.91
268.244	10.24
268.46	-20.48
268.676	-10.24
268.892	12.29
269.108	-53.25
269.324	53.25
269.54	4.1
269.756	63.49
269.972	-12.29
270.188	-12.29
270.403	10.24
270.619	-4.1
270.835	59.39
271.051	22.53
271.267	-36.86
271.483	-26.62
271.698	47.1
271.914	53.25
272.13	45.06
272.346	28.67
272.562	43.01
272.777	47.1
272.993	45.06
273.209	55.3
273.425	75.77
273.64	34.82
273.856	8.19
274.072	-24.58
274.287	6.14
274.503	61.44
274.719	57.34
274.934	67.58
275.15	69.63
275.366	4.1
275.581	77.82
275.797	34.82
276.012	22.53
276.228	53.25
276.444	-36.86
276.659	-14.34
276.875	6.14
277.09	4.1
277.306	49.15
277.521	16.38
277.737	112.64
277.952	75.77
278.168	65.54
278.383	-53.25
278.599	71.68
278.814	88.06
279.03	-18.43
279.245	24.58
279.461	61.44
279.676	47.1
279.892	38.91
280.107	47.1
280.322	-75.77
280.538	-14.34
280.753	10.24
280.969	94.21
281.184	34.82
281.399	49.15
281.615	12.29
281.83	-8.19
282.045	-24.58
282.26	20.48
282.476	32.77
282.691	49.15
282.906	81.92
283.122	94.21
283.337	32.77
283.552	40.96
283.767	65.54
283.983	102.4
284.198	32.77
284.413	53.25
284.628	-45.06
284.843	40.96
285.058	49.15
285.274	14.34
285.489	55.3
285.704	71.68
285.919	-10.24
286.134	30.72
286.349	61.44
286.564	65.54
286.779	26.62
286.995	-24.58
287.21	22.53
287.425	51.2
287.64	47.1
287.855	71.68
288.07	61.44
288.285	104.45
288.5	73.73
288.715	28.67
288.93	14.34
289.145	40.96
289.36	45.06
289.575	-36.86
289.79	30.72
290.004	47.1
290.219	-22.53
290.434	45.06
290.649	6.14
290.864	71.68
291.079	4.1
291.294	-16.38
291.509	-8.19
291.724	75.77
291.938	75.77
292.153	14.34
292.368	12.29
292.583	104.45
292.798	30.72
293.012	30.72
293.227	10.24
293.442	45.06
293.657	45.06
293.871	28.67
294.086	55.3
294.301	57.34
294.516	-4.1
294.73	14.34
294.945	49.15
295.16	6.14
295.374	88.06
295.589	36.86
295.804	-36.86
296.018	-53.25
296.233	73.73
296.447	38.91
296.662	77.82
296.877	51.2
297.091	6.14
297.306	43.01
297.52	45.06
297.735	57.34
297.949	47.1
298.164	45.06
298.378	-8.19
298.593	43.01
298.807	16.38
299.022	14.34
299.236	47.1
299.451	129.02
299.665	4.1
299.88	32.77
300.094	6.14
300.309	36.86
300.523	77.82
300.737	47.1
300.952	51.2
301.166	45.06
301.381	61.44
301.595	51.2
301.809	69.63
302.024	104.45
302.238	24.58
302.452	53.25
302.667	24.58
302.881	6.14
303.095	4.1
303.309	38.91
303.524	-47.1
303.738	8.19
303.952	30.72
304.166	55.3
304.381	34.82
304.595	-14.34
304.809	-36.86
305.023	-57.34
305.237	-6.14
305.452	26.62
305.666	141.31
305.88	22.53
306.094	79.87
306.308	77.82
306.522	57.34
306.736	20.48
306.95	118.78
307.164	38.91
307.379	22.53
307.593	30.72
307.807	43.01
308.021	4.1
308.235	14.34
308.449	12.29
308.663	2.05
308.877	53.25
309.091	8.19
309.305	137.21
309.519	4.1
309.733	4.1
309.947	53.25
310.161	110.59
310.374	-14.34
310.588	83.97
310.802	-10.24
311.016	38.91
311.23	12.29
311.444	18.43
311.658	114.69
311.872	51.2
312.085	40.96
312.299	73.73
312.513	55.3
312.727	-20.48
312.941	30.72
313.154	49.15
313.368	0
313.582	92.16
313.796	16.38
314.009	38.91
314.223	24.58
314.437	47.1
314.651	12.29
314.864	6.14
315.078	38.91
315.292	67.58
315.505	-12.29
315.719	8.19
315.933	-8.19
316.146	30.72
316.36	32.77
316.573	26.62
316.787	98.3
317.001	18.43
317.214	45.06
317.428	8.19
317.641	10.24
317.855	20.48
318.068	-36.86
318.282	79.87
318.495	40.96
318.709	38.91
318.922	92.16
319.136	38.91
319.349	-8.19
319.563	4.1
319.776	94.21
319.99	49.15
320.203	-8.19
320.417	34.82
320.63	-55.3
320.843	79.87
321.057	34.82
321.27	22.53
321.483	0
321.697	57.34
321.91	10.24
322.124	45.06
322.337	38.91
322.55	10.24
322.763	12.29
322.977	55.3
323.19	20.48
323.403	61.44
323.617	-6.14
323.83	110.59
324.043	75.77
324.256	51.2
324.469	61.44
324.683	-43.01
324.896	8.19
325.109	67.58
325.322	-6.14
325.535	20.48
325.748	-4.1
325.962	135.17
326.175	28.67
326.388	6.14
326.601	57.34
326.814	61.44
327.027	73.73
327.24	71.68
327.453	63.49
327.666	45.06
327.879	26.62
328.092	12.29
328.305	43.01
328.518	-28.67
328.731	6.14
328.944	4.1
329.157	26.62
329.37	12.29
329.583	79.87
329.796	67.58
330.009	-40.96
330.222	-36.86
330.435	-14.34
330.648	69.63
330.861	8.19
331.073	16.38
331.286	24.58
331.499	57.34
331.712	28.67
331.925	14.34
332.138	90.11
332.35	92.16
332.563	73.73
332.776	47.1
332.989	12.29
333.202	4.1
333.414	94.21
333.627	92.16
333.84	-30.72
334.053	86.01
334.265	-12.29
334.478	65.54
334.691	36.86
334.903	14.34
335.116	-6.14
335.329	38.91
335.541	120.83
335.754	55.3
335.966	-4.1
336.179	55.3
336.392	40.96
336.604	67.58
336.817	-18.43
337.029	-26.62
337.242	2.05
337.454	81.92
337.667	-10.24
337.88	75.77
338.092	16.38
338.305	26.62
338.517	47.1
338.729	-2.05
338.942	30.72
339.154	-10.24
339.367	45.06
339.579	77.82
339.792	45.06
340.004	67.58
340.217	16.38
340.429	53.25
340.641	16.38
340.854	81.92
341.066	-14.34
341.278	51.2
341.491	77.82
341.703	-8.19
341.915	71.68
342.128	28.67
342.34	22.53
342.552	106.49
342.764	49.15
342.977	24.58
343.189	53.25
343.401	65.54
343.613	-24.58
343.826	49.15
344.038	102.4
344.25	16.38
344.462	55.3
344.674	-53.25
344.886	65.54
345.099	83.97
345.311	96.25
345.523	57.34
345.735	38.91
345.947	34.82
346.159	57.34
346.371	94.21
346.583	-22.53
346.795	124.93
347.007	-8.19
347.219	34.82
347.431	12.29
347.643	43.01
347.855	28.67
348.067	57.34
348.279	135.17
348.491	92.16
348.703	73.73
348.915	-32.77
349.127	20.48
349.339	106.49
349.551	69.63
349.763	6.14
349.975	-12.29
350.187	67.58
350.399	-16.38
350.61	-10.24
350.822	6.14
351.034	10.24
351.246	43.01
351.458	94.21
351.669	0
351.881	36.86
352.093	88.06
352.305	8.19
352.517	28.67
352.728	86.01
352.94	28.67
353.152	51.2
353.363	-24.58
353.575	4.1
353.787	14.34
353.999	-24.58
354.21	30.72
354.422	4.1
354.633	-4.1
354.845	75.77
355.057	38.91
355.268	30.72
355.48	40.96
355.692	6.14
355.903	22.53
356.115	83.97
356.326	2.05
356.538	4.1
356.749	77.82
356.961	38.91
357.172	-10.24
357.384	49.15
357.595	71.68
357.807	4.1
358.018	-10.24
358.23	-14.34
358.441	20.48
358.653	63.49
358.864	30.72
359.075	-26.62
359.287	6.14
359.498	53.25
359.709	20.48
359.921	30.72
360.132	20.48
360.344	6.14
360.555	-6.14
360.766	20.48
360.977	6.14
361.189	75.77
361.4	38.91
361.611	36.86
361.823	12.29
362.034	30.72
362.245	16.38
362.456	6.14
362.667	65.54
362.879	-8.19
363.09	-30.72
363.301	45.06
363.512	126.97
363.723	26.62
363.935	32.77
364.146	8.19
364.357	63.49
364.568	16.38
364.779	51.2
364.99	53.25
365.201	-26.62
365.412	40.96
365.623	-4.1
365.834	-36.86
366.045	24.58
366.256	36.86
366.467	-32.77
366.678	65.54
366.889	22.53
367.1	14.34
367.311	65.54
367.522	51.2
367.733	2.05
367.944	36.86
368.155	47.1
368.366	-12.29
368.577	16.38
368.788	88.06
368.999	24.58
369.209	36.86
369.42	71.68
369.631	4.1
369.842	22.53
370.053	43.01
370.264	22.53
370.474	36.86
370.685	20.48
370.896	20.48
371.107	8.19
371.317	86.01
371.528	-38.91
371.739	65.54
371.95	-2.05
372.16	4.1
372.371	8.19
372.582	57.34
372.792	71.68
373.003	12.29
373.214	20.48
373.424	77.82
373.635	24.58
373.846	28.67
374.056	45.06
374.267	88.06
374.477	96.25
374.688	32.77
374.898	16.38
375.109	104.45
375.319	14.34
375.53	4.1
375.74	90.11
375.951	49.15
376.161	100.35
376.372	2.05
376.582	14.34
376.793	14.34
377.003	55.3
377.214	-36.86
377.424	137.21
377.635	71.68
377.845	0
378.055	36.86
378.266	26.62
378.476	83.97
378.686	61.44
378.897	55.3
379.107	75.77
379.317	8.19
379.528	51.2
379.738	18.43
379.948	14.34
380.158	77.82
380.369	69.63
380.579	112.64
380.789	0
380.999	77.82
381.21	65.54
381.42	-36.86
381.63	-12.29
381.84	77.82
382.05	53.25
382.261	94.21
382.471	28.67
382.681	-4.1
382.891	61.44
383.101	32.77
383.311	4.1
383.521	-10.24
383.731	24.58
383.941	49.15
384.151	71.68
384.361	-30.72
384.571	88.06
384.781	49.15
384.991	49.15
385.201	28.67
385.411	81.92
385.621	65.54
385.831	-49.15
386.041	51.2
386.251	71.68
386.461	104.45
386.671	24.58
386.881	49.15
387.091	63.49
387.301	12.29
387.511	79.87
387.72	2.05
387.93	83.97
388.14	22.53
388.35	79.87
388.56	51.2
388.769	61.44
388.979	79.87
389.189	34.82
389.399	45.06
389.609	22.53
389.818	45.06
390.028	40.96
390.238	102.4
390.447	53.25
390.657	32.77
390.867	-14.34
391.076	-4.1
391.286	73.73
391.496	151.55
391.705	45.06
391.915	53.25
392.125	137.21
392.334	38.91
392.544	10.24
392.753	100.35
392.963	16.38
393.172	69.63
393.382	59.39
393.591	81.92
393.801	69.63
394.01	86.01
394.22	69.63
394.429	86.01
394.639	28.67
394.848	129.02
395.058	67.58
395.267	69.63
395.477	75.77
395.686	120.83
395.895	63.49
396.105	120.83
396.314	104.45
396.524	16.38
396.733	51.2
396.942	81.92
397.152	75.77
397.361	139.26
397.57	20.48
397.78	69.63
397.989	65.54
398.198	104.45
398.407	106.49
398.617	51.2
398.826	106.49
399.035	126.97
399.244	53.25
399.453	90.11
399.663	143.36
399.872	61.44
400.081	69.63
400.29	153.6
400.499	98.3
400.708	51.2
400.917	98.3
401.127	112.64
401.336	-2.05
401.545	34.82
401.754	73.73
401.963	139.26
402.172	110.59
402.381	79.87
402.59	94.21
402.799	-10.24
403.008	145.41
403.217	118.78
403.426	169.98
403.635	77.82
403.844	77.82
404.053	157.69
404.262	75.77
404.471	116.73
404.68	57.34
404.888	102.4
405.097	102.4
405.306	135.17
405.515	104.45
405.724	137.21
405.933	94.21
406.142	104.45
406.35	120.83
406.559	178.17
406.768	167.93
406.977	155.65
407.185	145.41
407.394	77.82
407.603	114.69
407.812	192.51
408.02	145.41
408.229	219.13
408.438	116.73
408.646	221.18
408.855	180.22
409.064	208.89
409.272	217.08
409.481	253.95
409.69	184.32
409.898	217.08
410.107	266.24
410.315	333.82
410.524	210.94
410.733	221.18
410.941	280.57
411.15	292.86
411.358	245.76
411.567	423.93
411.775	366.59
411.984	266.24
412.192	413.69
412.401	331.77
412.609	342.01
412.818	374.78
413.026	417.79
413.234	356.35
413.443	456.7
413.651	391.16
413.86	389.11
414.068	542.71
414.276	497.66
414.485	489.46
414.693	606.2
414.901	550.9
415.11	534.52
415.318	557.05
415.526	589.82
415.734	593.91
415.943	540.66
416.151	649.21
416.359	630.77
416.567	610.29
416.776	702.45
416.984	749.56
417.192	843.76
417.4	692.21
417.608	710.65
417.817	790.52
418.025	827.38
418.233	823.28
418.441	968.69
418.649	899.06
418.857	1007.6
419.065	962.55
419.273	892.91
419.481	1075.18
419.689	1066.99
419.897	1081.33
420.105	1150.96
420.313	1146.86
420.521	1234.93
420.729	1150.96
420.937	1327.08
421.145	1322.99
421.353	1503.21
421.561	1488.87
421.769	1521.64
421.977	1615.85
422.185	1628.14
422.393	1734.63
422.601	1763.3
422.809	1738.73
423.017	1841.12
423.224	1824.74
423.432	1902.56
423.64	1951.71
423.848	2045.92
424.056	2127.84
424.263	2066.4
424.471	2201.57
424.679	2291.68
424.887	2322.4
425.094	2424.8
425.302	2406.36
425.51	2447.32
425.718	2635.74
425.925	2639.83
426.133	2701.27
426.341	2910.16
426.548	2961.36
426.756	3049.43
426.964	2992.08
427.171	3256.27
427.379	3381.2
427.586	3352.52
427.794	3411.92
428.001	3522.51
428.209	3870.66
428.417	3704.78
428.624	4022.21
428.832	3989.44
429.039	3891.14
429.247	3923.91
429.454	4450.24
429.662	4534.2
429.869	4401.08
430.076	4573.11
430.284	4558.78
430.491	4661.18
430.699	5074.87
430.906	4947.89
431.114	4919.22
431.321	5193.65
431.528	5275.57
431.736	5566.38
431.943	5947.3
432.15	5668.78
432.358	5928.87
432.565	6037.41
432.772	6084.52
432.979	6305.7
433.187	6406.05
433.394	6444.96
433.601	6983.57
433.808	7059.35
434.016	7063.44
434.223	7305.1
434.43	7790.47
434.637	7452.56
434.844	8148.87
435.052	8114.05
435.259	8214.4
435.466	8195.97
435.673	8109.96
435.88	8767.35
436.087	9142.13
436.294	9217.91
436.501	9017.21
436.708	9023.35
436.915	9527.15
437.122	9985.9
437.329	9983.85
437.537	10110.82
437.743	10254.18
437.95	10254.18
438.157	10577.76
438.364	11083.61
438.571	11034.46
438.778	11128.66
438.985	12017.48
439.192	11622.22
439.399	12095.3
439.606	11939.66
439.813	12496.71
440.02	13229.88
440.227	12859.2
440.433	12969.79
440.64	13315.89
440.847	13354.8
441.054	13774.64
441.261	14346.02
441.467	14171.94
441.674	14542.63
441.881	15179.54
442.088	15017.75
442.294	15030.04
442.501	15294.23
442.708	15843.09
442.914	16477.96
443.121	16828.16
443.328	16580.35
443.534	17321.72
443.741	17178.36
443.948	16822.02
444.154	18267.88
444.361	18153.19
444.568	18263.79
444.774	18235.11
444.981	18718.43
445.187	19023.58
445.394	19728.08
445.6	19816.15
445.807	21421.75
446.013	20586.18
446.22	21116.61
446.426	21675.7
446.633	22191.79
446.839	23029.41
447.046	21739.19
447.252	23129.76
447.459	23207.58
447.665	22861.48
447.871	24049.3
448.078	25192.06
448.284	24080.02
448.491	24387.21
448.697	25810.55
448.903	25935.48
449.11	26324.59
449.316	25615.99
449.522	26238.58
449.728	26891.88
449.935	26953.32
450.141	27115.11
450.347	27899.48
450.553	26936.93
450.76	27274.85
450.966	28403.28
451.172	27637.34
451.378	28812.87
451.584	27907.67
451.791	28853.83
451.997	28972.61
452.203	29032.01
452.409	29105.73
452.615	28819.02
452.821	27995.73
453.027	27764.31
453.233	29173.31
453.44	28323.41
453.646	28311.12
453.852	28499.53
454.058	29019.72
454.264	27692.63
454.47	28806.73
454.676	27727.45
454.882	29113.92
455.088	26304.11
455.294	27139.68
455.5	27397.73
455.705	27659.87
455.911	26414.7
456.117	25728.63
456.323	25749.11
456.529	24102.54
456.735	25489.02
456.941	24827.53
457.147	24342.16
457.352	23807.64
457.558	23393.95
457.764	23117.47
457.97	22828.71
458.176	22353.58
458.381	22400.68
458.587	20991.68
458.793	21298.88
458.999	20160.2
459.204	21530.3
459.41	21114.56
459.616	19758.8
459.821	19853.01
460.027	19680.98
460.233	19150.56
460.438	18294.5
460.644	18523.88
460.85	17444.6
461.055	17475.32
461.261	17301.24
461.466	16054.03
461.672	15597.33
461.878	16449.28
462.083	15327
462.289	15191.83
462.494	14941.98
462.7	14470.95
462.905	14030.63
463.111	14524.19
463.316	14468.9
463.522	13842.22
463.727	14149.42
463.932	14565.15
464.138	13969.19
464.343	14032.68
464.549	13670.19
464.754	14298.92
464.959	13938.48
465.165	13891.37
465.37	13446.96
465.575	13039.42
465.781	13578.03
465.986	13766.45
466.191	13059.9
466.397	12971.83
466.602	12377.92
466.807	12572.48
467.012	12920.63
467.218	12797.76
467.423	12627.78
467.628	12674.88
467.833	13000.51
468.038	12613.44
468.244	12126.02
468.449	13031.23
468.654	12382.02
468.859	12502.85
469.064	12312.39
469.269	11468.62
