Data from USB4F104151__105__13-00-27-276.txt Node

Date: Fri Mar 14 13:00:27 EDT 2025
User: louis
Spectrometer: USB4F10415
Trigger mode: 4
Integration Time (sec): 1.000000E-2
Scans to average: 1
Electric dark correction enabled: true
Nonlinearity correction enabled: false
Boxcar width: 0
XAxis mode: Wavelengths
Number of Pixels in Spectrum: 3648
>>>>>Begin Spectral Data<<<<<
178.204	-32.26
178.424	-32.26
178.644	-32.26
178.864	-38.4
179.084	-69.12
179.304	-48.64
179.524	37.38
179.744	-15.87
179.964	16.9
180.184	82.43
180.404	-22.02
180.624	-17.92
180.844	20.99
181.064	-60.93
181.283	-22.02
181.503	-5.63
181.723	35.33
181.943	-13.82
182.163	78.33
182.383	-9.73
182.602	80.38
182.822	-56.83
183.042	16.9
183.262	14.85
183.482	-26.11
183.701	86.53
183.921	16.9
184.141	88.57
184.361	31.23
184.58	-30.21
184.8	20.99
185.02	6.66
185.239	53.76
185.459	-13.82
185.679	49.66
185.898	-3.58
186.118	59.9
186.338	-11.78
186.557	76.29
186.777	35.33
186.997	18.94
187.216	-15.87
187.436	45.57
187.655	-13.82
187.875	-22.02
188.095	43.52
188.314	70.14
188.534	45.57
188.753	-24.06
188.973	39.42
189.192	31.23
189.412	0.51
189.631	51.71
189.851	-13.82
190.07	53.76
190.29	20.99
190.509	64
190.729	0.51
190.948	45.57
191.168	41.47
191.387	43.52
191.607	-13.82
191.826	-13.82
192.045	-26.11
192.265	43.52
192.484	41.47
192.704	-30.21
192.923	-54.78
193.142	-17.92
193.362	-9.73
193.581	51.71
193.8	31.23
194.02	-13.82
194.239	74.24
194.458	57.86
194.678	-32.26
194.897	16.9
195.116	25.09
195.335	68.09
195.555	-58.88
195.774	68.09
195.993	55.81
196.212	-3.58
196.432	-34.3
196.651	68.09
196.87	68.09
197.089	23.04
197.308	53.76
197.528	10.75
197.747	-9.73
197.966	43.52
198.185	4.61
198.404	51.71
198.623	33.28
198.842	37.38
199.062	-46.59
199.281	88.57
199.5	47.62
199.719	-77.31
199.938	51.71
200.157	33.28
200.376	23.04
200.595	125.44
200.814	6.66
201.033	-26.11
201.252	27.14
201.471	-19.97
201.69	23.04
201.909	37.38
202.128	2.56
202.347	-7.68
202.566	59.9
202.785	55.81
203.004	-77.31
203.223	41.47
203.442	-79.36
203.661	61.95
203.879	-73.21
204.098	20.99
204.317	-17.92
204.536	-19.97
204.755	6.66
204.974	-3.58
205.193	6.66
205.411	109.05
205.63	-52.74
205.849	76.29
206.068	20.99
206.287	-30.21
206.505	18.94
206.724	72.19
206.943	-58.88
207.162	-26.11
207.381	-19.97
207.599	88.57
207.818	8.7
208.037	23.04
208.255	-28.16
208.474	64
208.693	27.14
208.911	-22.02
209.13	6.66
209.349	35.33
209.567	-36.35
209.786	0.51
210.005	-34.3
210.223	31.23
210.442	-24.06
210.661	16.9
210.879	39.42
211.098	94.72
211.316	-11.78
211.535	37.38
211.753	-52.74
211.972	-32.26
212.191	-7.68
212.409	33.28
212.628	-44.54
212.846	43.52
213.065	-65.02
213.283	-19.97
213.502	20.99
213.72	55.81
213.938	-48.64
214.157	61.95
214.375	51.71
214.594	-13.82
214.812	27.14
215.031	74.24
215.249	47.62
215.467	61.95
215.686	-58.88
215.904	45.57
216.122	-13.82
216.341	88.57
216.559	25.09
216.778	55.81
216.996	53.76
217.214	20.99
217.432	29.18
217.651	53.76
217.869	-7.68
218.087	-24.06
218.306	10.75
218.524	-36.35
218.742	-28.16
218.96	-34.3
219.179	-44.54
219.397	-58.88
219.615	4.61
219.833	61.95
220.051	80.38
220.27	51.71
220.488	35.33
220.706	31.23
220.924	-15.87
221.142	-17.92
221.36	-5.63
221.578	27.14
221.796	25.09
222.015	6.66
222.233	43.52
222.451	-40.45
222.669	12.8
222.887	14.85
223.105	55.81
223.323	-7.68
223.541	-11.78
223.759	-13.82
223.977	16.9
224.195	-22.02
224.413	41.47
224.631	20.99
224.849	-13.82
225.067	82.43
225.285	33.28
225.503	64
225.721	29.18
225.939	31.23
226.157	6.66
226.375	25.09
226.592	37.38
226.81	68.09
227.028	61.95
227.246	76.29
227.464	57.86
227.682	35.33
227.9	33.28
228.117	25.09
228.335	16.9
228.553	14.85
228.771	10.75
228.989	51.71
229.206	4.61
229.424	51.71
229.642	94.72
229.86	72.19
230.077	16.9
230.295	86.53
230.513	53.76
230.731	-1.54
230.948	0.51
231.166	-1.54
231.384	-15.87
231.601	12.8
231.819	-26.11
232.037	-30.21
232.254	111.1
232.472	49.66
232.689	-19.97
232.907	-30.21
233.125	-13.82
233.342	16.9
233.56	-13.82
233.777	-24.06
233.995	-58.88
234.213	12.8
234.43	10.75
234.648	70.14
234.865	-42.5
235.083	57.86
235.3	6.66
235.518	64
235.735	27.14
235.953	23.04
236.17	23.04
236.388	14.85
236.605	-5.63
236.822	-11.78
237.04	18.94
237.257	27.14
237.475	31.23
237.692	27.14
237.909	49.66
238.127	39.42
238.344	25.09
238.562	39.42
238.779	-46.59
238.996	-28.16
239.214	8.7
239.431	111.1
239.648	-34.3
239.865	78.33
240.083	88.57
240.3	18.94
240.517	16.9
240.735	70.14
240.952	43.52
241.169	45.57
241.386	10.75
241.603	78.33
241.821	12.8
242.038	45.57
242.255	-28.16
242.472	-24.06
242.689	-13.82
242.907	76.29
243.124	51.71
243.341	45.57
243.558	23.04
243.775	-13.82
243.992	16.9
244.209	59.9
244.426	41.47
244.643	37.38
244.86	-9.73
245.078	51.71
245.295	-5.63
245.512	119.29
245.729	12.8
245.946	20.99
246.163	12.8
246.38	37.38
246.597	55.81
246.814	29.18
247.031	-11.78
247.248	59.9
247.464	29.18
247.681	10.75
247.898	-17.92
248.115	10.75
248.332	20.99
248.549	-19.97
248.766	27.14
248.983	31.23
249.2	37.38
249.417	96.77
249.633	70.14
249.85	92.67
250.067	4.61
250.284	-36.35
250.501	10.75
250.717	51.71
250.934	2.56
251.151	43.52
251.368	-26.11
251.585	0.51
251.801	20.99
252.018	-44.54
252.235	8.7
252.451	94.72
252.668	-13.82
252.885	0.51
253.102	-15.87
253.318	-1.54
253.535	-24.06
253.752	78.33
253.968	12.8
254.185	53.76
254.401	-71.17
254.618	2.56
254.835	41.47
255.051	76.29
255.268	-3.58
255.484	6.66
255.701	82.43
255.917	84.48
256.134	16.9
256.351	-34.3
256.567	12.8
256.784	-7.68
257	12.8
257.217	18.94
257.433	68.09
257.65	55.81
257.866	35.33
258.082	86.53
258.299	-24.06
258.515	61.95
258.732	74.24
258.948	20.99
259.165	-32.26
259.381	-1.54
259.597	20.99
259.814	23.04
260.03	4.61
260.246	57.86
260.463	72.19
260.679	16.9
260.895	-19.97
261.112	68.09
261.328	14.85
261.544	-44.54
261.761	-17.92
261.977	86.53
262.193	104.96
262.409	49.66
262.626	35.33
262.842	2.56
263.058	-3.58
263.274	82.43
263.49	35.33
263.707	45.57
263.923	51.71
264.139	27.14
264.355	55.81
264.571	43.52
264.787	12.8
265.004	66.05
265.22	-52.74
265.436	-28.16
265.652	12.8
265.868	27.14
266.084	-1.54
266.3	84.48
266.516	-28.16
266.732	25.09
266.948	47.62
267.164	-36.35
267.38	12.8
267.596	57.86
267.812	66.05
268.028	31.23
268.244	-42.5
268.46	53.76
268.676	59.9
268.892	76.29
269.108	14.85
269.324	-15.87
269.54	-52.74
269.756	47.62
269.972	20.99
270.188	61.95
270.403	-22.02
270.619	47.62
270.835	-5.63
271.051	-30.21
271.267	45.57
271.483	41.47
271.698	82.43
271.914	82.43
272.13	84.48
272.346	16.9
272.562	39.42
272.777	61.95
272.993	43.52
273.209	18.94
273.425	66.05
273.64	61.95
273.856	-7.68
274.072	51.71
274.287	74.24
274.503	0.51
274.719	-15.87
274.934	45.57
275.15	-15.87
275.366	23.04
275.581	16.9
275.797	72.19
276.012	-1.54
276.228	29.18
276.444	-38.4
276.659	82.43
276.875	23.04
277.09	-11.78
277.306	-24.06
277.521	37.38
277.737	29.18
277.952	2.56
278.168	20.99
278.383	53.76
278.599	6.66
278.814	59.9
279.03	35.33
279.245	-24.06
279.461	39.42
279.676	43.52
279.892	-11.78
280.107	27.14
280.322	23.04
280.538	43.52
280.753	0.51
280.969	35.33
281.184	33.28
281.399	14.85
281.615	-38.4
281.83	92.67
282.045	37.38
282.26	6.66
282.476	39.42
282.691	68.09
282.906	25.09
283.122	27.14
283.337	-67.07
283.552	8.7
283.767	90.62
283.983	16.9
284.198	84.48
284.413	14.85
284.628	-22.02
284.843	27.14
285.058	-9.73
285.274	41.47
285.489	-9.73
285.704	53.76
285.919	-19.97
286.134	-77.31
286.349	55.81
286.564	41.47
286.779	-46.59
286.995	6.66
287.21	74.24
287.425	47.62
287.64	-17.92
287.855	-7.68
288.07	25.09
288.285	68.09
288.5	-32.26
288.715	64
288.93	-60.93
289.145	-22.02
289.36	51.71
289.575	-3.58
289.79	57.86
290.004	47.62
290.219	-26.11
290.434	10.75
290.649	-44.54
290.864	-44.54
291.079	-5.63
291.294	35.33
291.509	35.33
291.724	41.47
291.938	-32.26
292.153	37.38
292.368	-11.78
292.583	-24.06
292.798	45.57
293.012	47.62
293.227	-22.02
293.442	51.71
293.657	10.75
293.871	31.23
294.086	-11.78
294.301	43.52
294.516	-19.97
294.73	-79.36
294.945	43.52
295.16	23.04
295.374	10.75
295.589	-9.73
295.804	-13.82
296.018	55.81
296.233	39.42
296.447	84.48
296.662	-87.55
296.877	76.29
297.091	10.75
297.306	57.86
297.52	-36.35
297.735	33.28
297.949	53.76
298.164	74.24
298.378	4.61
298.593	78.33
298.807	29.18
299.022	6.66
299.236	49.66
299.451	14.85
299.665	25.09
299.88	43.52
300.094	4.61
300.309	27.14
300.523	4.61
300.737	72.19
300.952	53.76
301.166	53.76
301.381	14.85
301.595	-46.59
301.809	10.75
302.024	18.94
302.238	31.23
302.452	84.48
302.667	12.8
302.881	49.66
303.095	10.75
303.309	27.14
303.524	-17.92
303.738	14.85
303.952	-5.63
304.166	-5.63
304.381	-48.64
304.595	2.56
304.809	-99.84
305.023	25.09
305.237	27.14
305.452	-36.35
305.666	27.14
305.88	57.86
306.094	35.33
306.308	61.95
306.522	-32.26
306.736	12.8
306.95	12.8
307.164	-7.68
307.379	-15.87
307.593	-22.02
307.807	-9.73
308.021	86.53
308.235	82.43
308.449	-15.87
308.663	37.38
308.877	23.04
309.091	8.7
309.305	37.38
309.519	14.85
309.733	51.71
309.947	-5.63
310.161	37.38
310.374	18.94
310.588	31.23
310.802	-71.17
311.016	47.62
311.23	31.23
311.444	0.51
311.658	-56.83
311.872	55.81
312.085	59.9
312.299	59.9
312.513	33.28
312.727	18.94
312.941	10.75
313.154	14.85
313.368	57.86
313.582	-38.4
313.796	35.33
314.009	49.66
314.223	12.8
314.437	55.81
314.651	43.52
314.864	31.23
315.078	72.19
315.292	27.14
315.505	-22.02
315.719	-1.54
315.933	51.71
316.146	68.09
316.36	10.75
316.573	96.77
316.787	-3.58
317.001	53.76
317.214	-34.3
317.428	33.28
317.641	18.94
317.855	-22.02
318.068	143.87
318.282	29.18
318.495	109.05
318.709	33.28
318.922	-42.5
319.136	82.43
319.349	64
319.563	66.05
319.776	39.42
319.99	43.52
320.203	-3.58
320.417	104.96
320.63	-17.92
320.843	-1.54
321.057	31.23
321.27	74.24
321.483	18.94
321.697	4.61
321.91	20.99
322.124	29.18
322.337	16.9
322.55	18.94
322.763	25.09
322.977	96.77
323.19	61.95
323.403	-3.58
323.617	4.61
323.83	59.9
324.043	4.61
324.256	-22.02
324.469	-3.58
324.683	35.33
324.896	35.33
325.109	-56.83
325.322	55.81
325.535	61.95
325.748	37.38
325.962	27.14
326.175	35.33
326.388	66.05
326.601	-17.92
326.814	61.95
327.027	41.47
327.24	31.23
327.453	20.99
327.666	-83.45
327.879	-1.54
328.092	96.77
328.305	27.14
328.518	-40.45
328.731	-42.5
328.944	-1.54
329.157	27.14
329.37	27.14
329.583	-5.63
329.796	61.95
330.009	6.66
330.222	84.48
330.435	59.9
330.648	70.14
330.861	61.95
331.073	68.09
331.286	-34.3
331.499	33.28
331.712	70.14
331.925	12.8
332.138	12.8
332.35	86.53
332.563	84.48
332.776	98.81
332.989	72.19
333.202	-5.63
333.414	55.81
333.627	-34.3
333.84	-17.92
334.053	-22.02
334.265	-1.54
334.478	23.04
334.691	8.7
334.903	-13.82
335.116	45.57
335.329	-13.82
335.541	8.7
335.754	35.33
335.966	-1.54
336.179	64
336.392	20.99
336.604	-7.68
336.817	16.9
337.029	68.09
337.242	35.33
337.454	104.96
337.667	18.94
337.88	45.57
338.092	47.62
338.305	59.9
338.517	41.47
338.729	61.95
338.942	-7.68
339.154	2.56
339.367	-5.63
339.579	53.76
339.792	47.62
340.004	-19.97
340.217	35.33
340.429	-5.63
340.641	6.66
340.854	64
341.066	82.43
341.278	53.76
341.491	61.95
341.703	43.52
341.915	6.66
342.128	78.33
342.34	68.09
342.552	41.47
342.764	27.14
342.977	-15.87
343.189	10.75
343.401	2.56
343.613	-69.12
343.826	61.95
344.038	-3.58
344.25	76.29
344.462	-5.63
344.674	72.19
344.886	25.09
345.099	43.52
345.311	-1.54
345.523	43.52
345.735	64
345.947	-3.58
346.159	14.85
346.371	-19.97
346.583	-19.97
346.795	51.71
347.007	25.09
347.219	47.62
347.431	47.62
347.643	-24.06
347.855	2.56
348.067	64
348.279	59.9
348.491	66.05
348.703	104.96
348.915	18.94
349.127	86.53
349.339	2.56
349.551	35.33
349.763	76.29
349.975	57.86
350.187	23.04
350.399	37.38
350.61	41.47
350.822	88.57
351.034	8.7
351.246	23.04
351.458	41.47
351.669	-28.16
351.881	29.18
352.093	-5.63
352.305	35.33
352.517	53.76
352.728	109.05
352.94	84.48
353.152	-40.45
353.363	-15.87
353.575	31.23
353.787	59.9
353.999	47.62
354.21	-3.58
354.422	-28.16
354.633	76.29
354.845	27.14
355.057	25.09
355.268	14.85
355.48	47.62
355.692	61.95
355.903	-19.97
356.115	-5.63
356.326	-24.06
356.538	-24.06
356.749	10.75
356.961	37.38
357.172	59.9
357.384	-30.21
357.595	41.47
357.807	-32.26
358.018	-15.87
358.23	31.23
358.441	47.62
358.653	47.62
358.864	51.71
359.075	96.77
359.287	55.81
359.498	27.14
359.709	31.23
359.921	86.53
360.132	43.52
360.344	84.48
360.555	35.33
360.766	68.09
360.977	10.75
361.189	31.23
361.4	68.09
361.611	53.76
361.823	16.9
362.034	74.24
362.245	49.66
362.456	20.99
362.667	94.72
362.879	8.7
363.09	45.57
363.301	61.95
363.512	-48.64
363.723	-71.17
363.935	-7.68
364.146	51.71
364.357	68.09
364.568	100.86
364.779	16.9
364.99	113.15
365.201	57.86
365.412	64
365.623	2.56
365.834	78.33
366.045	8.7
366.256	70.14
366.467	55.81
366.678	55.81
366.889	23.04
367.1	16.9
367.311	49.66
367.522	-11.78
367.733	0.51
367.944	96.77
368.155	2.56
368.366	29.18
368.577	29.18
368.788	31.23
368.999	-15.87
369.209	-36.35
369.42	78.33
369.631	43.52
369.842	100.86
370.053	18.94
370.264	61.95
370.474	92.67
370.685	-40.45
370.896	41.47
371.107	41.47
371.317	6.66
371.528	33.28
371.739	84.48
371.95	-17.92
372.16	53.76
372.371	39.42
372.582	-11.78
372.792	76.29
373.003	-44.54
373.214	33.28
373.424	-3.58
373.635	45.57
373.846	23.04
374.056	6.66
374.267	-13.82
374.477	45.57
374.688	31.23
374.898	47.62
375.109	72.19
375.319	61.95
375.53	96.77
375.74	12.8
375.951	27.14
376.161	98.81
376.372	68.09
376.582	14.85
376.793	70.14
377.003	2.56
377.214	-11.78
377.424	35.33
377.635	8.7
377.845	0.51
378.055	27.14
378.266	59.9
378.476	-5.63
378.686	41.47
378.897	12.8
379.107	-30.21
379.317	20.99
379.528	43.52
379.738	16.9
379.948	-44.54
380.158	25.09
380.369	6.66
380.579	47.62
380.789	113.15
380.999	90.62
381.21	-13.82
381.42	76.29
381.63	2.56
381.84	57.86
382.05	100.86
382.261	100.86
382.471	14.85
382.681	35.33
382.891	20.99
383.101	41.47
383.311	2.56
383.521	78.33
383.731	84.48
383.941	43.52
384.151	100.86
384.361	-22.02
384.571	45.57
384.781	35.33
384.991	29.18
385.201	6.66
385.411	66.05
385.621	78.33
385.831	14.85
386.041	12.8
386.251	49.66
386.461	35.33
386.671	16.9
386.881	100.86
387.091	-17.92
387.301	6.66
387.511	-5.63
387.72	31.23
387.93	68.09
388.14	33.28
388.35	20.99
388.56	27.14
388.769	12.8
388.979	68.09
389.189	4.61
389.399	6.66
389.609	59.9
389.818	61.95
390.028	-28.16
390.238	39.42
390.447	6.66
390.657	12.8
390.867	20.99
391.076	55.81
391.286	80.38
391.496	92.67
391.705	68.09
391.915	41.47
392.125	39.42
392.334	23.04
392.544	35.33
392.753	-32.26
392.963	111.1
393.172	70.14
393.382	70.14
393.591	-3.58
393.801	49.66
394.01	68.09
394.22	4.61
394.429	68.09
394.639	-11.78
394.848	82.43
395.058	94.72
395.267	57.86
395.477	20.99
395.686	66.05
395.895	98.81
396.105	51.71
396.314	68.09
396.524	131.58
396.733	94.72
396.942	43.52
397.152	37.38
397.361	92.67
397.57	31.23
397.78	86.53
397.989	72.19
398.198	76.29
398.407	35.33
398.617	57.86
398.826	70.14
399.035	133.63
399.244	117.25
399.453	102.91
399.663	68.09
399.872	53.76
400.081	74.24
400.29	82.43
400.499	80.38
400.708	37.38
400.917	27.14
401.127	113.15
401.336	72.19
401.545	84.48
401.754	82.43
401.963	109.05
402.172	141.82
402.381	92.67
402.59	59.9
402.799	20.99
403.008	74.24
403.217	61.95
403.426	96.77
403.635	125.44
403.844	88.57
404.053	64
404.262	88.57
404.471	145.92
404.68	80.38
404.888	59.9
405.097	127.49
405.306	137.73
405.515	68.09
405.724	35.33
405.933	61.95
406.142	133.63
406.35	84.48
406.559	90.62
406.768	66.05
406.977	193.02
407.185	70.14
407.394	104.96
407.603	102.91
407.812	129.53
408.02	84.48
408.229	121.34
408.438	107.01
408.646	98.81
408.855	129.53
409.064	160.25
409.272	125.44
409.481	152.06
409.69	150.01
409.898	205.31
410.107	236.03
410.315	205.31
410.524	233.98
410.733	215.55
410.941	203.26
411.15	274.94
411.358	217.6
411.567	276.99
411.775	266.75
411.984	324.09
412.192	256.51
412.401	262.65
412.609	186.88
412.818	336.38
413.026	324.09
413.234	436.73
413.443	348.67
413.651	309.76
413.86	371.19
414.068	346.62
414.276	399.87
414.485	412.15
414.693	418.3
414.901	408.06
415.11	483.83
415.318	449.02
415.526	459.26
415.734	440.83
415.943	506.36
416.151	559.61
416.359	549.37
416.567	541.18
416.776	535.03
416.984	625.14
417.192	627.19
417.4	641.53
417.608	629.24
417.817	629.24
418.025	606.71
418.233	696.82
418.441	676.34
418.649	707.06
418.857	741.88
419.065	862.71
419.273	831.99
419.481	838.13
419.689	928.24
419.897	870.9
420.105	913.91
420.313	913.91
420.521	981.49
420.729	965.11
420.937	1143.28
421.145	1065.46
421.353	1116.65
421.561	1157.61
421.769	1257.96
421.977	1296.88
422.185	1374.7
422.393	1268.2
422.601	1407.47
422.809	1429.99
423.017	1483.24
423.224	1380.84
423.432	1511.91
423.64	1540.58
423.848	1663.46
424.056	1624.55
424.263	1751.53
424.471	1743.33
424.679	1800.68
424.887	1907.17
425.094	1878.5
425.302	1968.61
425.51	2038.24
425.718	2132.45
425.925	2095.58
426.133	2200.03
426.341	2296.28
426.548	2435.55
426.756	2445.79
426.964	2511.32
427.171	2593.24
427.379	2714.07
427.586	2722.26
427.794	2857.43
428.001	2947.54
428.209	3043.79
428.417	2963.92
428.624	3113.42
428.832	3168.72
429.039	3099.09
429.247	3260.88
429.454	3428.81
429.662	3705.29
429.869	3445.2
430.076	3697.1
430.284	3541.45
430.491	3836.36
430.699	3942.85
430.906	4043.2
431.114	3969.48
431.321	4121.03
431.528	4305.34
431.736	4598.2
431.943	4735.42
432.15	4534.71
432.358	4688.31
432.565	4944.31
432.772	4958.64
432.979	5142.96
433.187	5290.42
433.394	5261.74
433.601	5724.58
433.808	5620.14
434.016	5648.81
434.223	5810.6
434.43	6255.01
434.637	6154.66
434.844	6441.37
435.052	6597.02
435.259	6441.37
435.466	6472.09
435.673	6599.07
435.88	6990.23
436.087	7274.9
436.294	7414.16
436.501	7252.37
436.708	7274.9
436.915	7481.74
437.122	7893.38
437.329	7928.2
437.537	7989.64
437.743	8108.42
437.95	8155.52
438.157	8745.34
438.364	8927.61
438.571	8876.41
438.778	8866.17
438.985	9824.62
439.192	9402.74
439.399	9607.53
439.606	9687.4
439.813	9884.01
440.02	10617.18
440.227	10426.72
440.433	10557.79
440.64	10738.01
440.847	10580.32
441.054	10901.85
441.261	11702.61
441.467	11356.5
441.674	11942.22
441.881	12163.4
442.088	12200.26
442.294	12085.58
442.501	12261.7
442.708	12673.34
442.914	13136.18
443.121	13797.68
443.328	13365.56
443.534	14391.59
443.741	13799.73
443.948	13627.7
444.154	14561.57
444.361	14598.43
444.568	14739.74
444.774	14702.88
444.981	14774.56
445.187	15175.96
445.394	15741.2
445.6	15843.6
445.807	17223.93
446.013	16701.7
446.22	16812.29
446.426	17567.99
446.633	17697.01
446.839	18053.36
447.046	17338.62
447.252	18573.54
447.459	18692.32
447.665	18712.8
447.871	19056.86
448.078	20269.26
448.284	19089.63
448.491	19693.78
448.697	20580.55
448.903	20996.29
449.11	21117.12
449.316	20336.84
449.522	21047.49
449.728	21563.57
449.935	21833.91
450.141	21670.07
450.347	22407.34
450.553	21735.6
450.76	21848.24
450.966	22589.61
451.172	22311.08
451.378	22694.05
451.584	22616.23
451.791	23070.88
451.997	23087.26
452.203	23517.34
452.409	23267.48
452.615	23304.35
452.821	22440.11
453.027	22347.95
453.233	23287.96
453.44	22532.26
453.646	22665.38
453.852	22921.38
454.058	23216.29
454.264	22399.15
454.47	22966.43
454.676	22161.58
454.882	23285.92
455.088	21328.06
455.294	21653.69
455.5	21684.41
455.705	22073.52
455.911	21123.26
456.117	20451.53
456.323	20351.18
456.529	19052.77
456.735	20213.96
456.941	19701.97
457.147	19411.16
457.352	18782.43
457.558	18612.45
457.764	18589.92
457.97	18206.95
458.176	17938.67
458.381	17879.28
458.587	16937.21
458.793	17168.63
458.999	15997.2
459.204	17135.87
459.41	16881.92
459.616	15759.63
459.821	15819.02
460.027	15550.74
460.233	15403.28
460.438	14311.72
460.644	14625.06
460.85	14203.18
461.055	13877.55
461.261	14043.43
461.466	12788.03
461.672	12542.27
461.878	13203.77
462.083	12368.2
462.289	11993.42
462.494	12147.01
462.7	11632.97
462.905	11301.2
463.111	11438.42
463.316	11622.73
463.522	11299.16
463.727	11319.64
463.932	11366.74
464.138	11227.48
464.343	11290.96
464.549	11059.54
464.754	11282.77
464.959	11233.62
465.165	10959.19
465.37	10891.61
465.575	10340.71
465.781	10862.94
465.986	10973.53
466.191	10400.1
466.397	10172.77
466.602	9832.81
466.807	10125.67
467.012	10266.98
467.218	10111.33
467.423	9916.78
467.628	10094.95
467.833	10500.45
468.038	10060.13
468.244	9797.99
468.449	10105.19
