Data from USB4F104151__15__12-58-30-179.txt Node

Date: Fri Mar 14 12:58:30 EDT 2025
User: louis
Spectrometer: USB4F10415
Trigger mode: 4
Integration Time (sec): 1.000000E-2
Scans to average: 1
Electric dark correction enabled: true
Nonlinearity correction enabled: false
Boxcar width: 0
XAxis mode: Wavelengths
Number of Pixels in Spectrum: 3648
>>>>>Begin Spectral Data<<<<<
178.204	-25.26
178.424	-25.26
178.644	-25.26
178.864	-105.13
179.084	-19.11
179.304	7.51
179.524	-39.59
179.744	-27.31
179.964	13.65
180.184	17.75
180.404	5.46
180.624	13.65
180.844	-62.12
181.064	5.46
181.283	32.08
181.503	17.75
181.723	15.7
181.943	-58.03
182.163	38.23
182.383	-12.97
182.602	50.52
182.822	-27.31
183.042	-31.4
183.262	-62.12
183.482	68.95
183.701	-4.78
183.921	23.89
184.141	44.37
184.361	54.61
184.58	-12.97
184.8	11.61
185.02	19.8
185.239	-12.97
185.459	15.7
185.679	-68.27
185.898	-53.93
186.118	27.99
186.338	-4.78
186.557	3.41
186.777	-29.35
186.997	15.7
187.216	-19.11
187.436	-19.11
187.655	71
187.875	54.61
188.095	-29.35
188.314	60.76
188.534	38.23
188.753	64.85
188.973	-8.87
189.192	-58.03
189.412	-4.78
189.631	3.41
189.851	-8.87
190.07	34.13
190.29	5.46
190.509	-72.36
190.729	27.99
190.948	-51.88
191.168	-10.92
191.387	15.7
191.607	-4.78
191.826	-49.83
192.045	-68.27
192.265	-43.69
192.484	32.08
192.704	-21.16
192.923	44.37
193.142	5.46
193.362	7.51
193.581	-51.88
193.8	9.56
194.02	-21.16
194.239	11.61
194.458	5.46
194.678	-29.35
194.897	-15.02
195.116	27.99
195.335	-2.73
195.555	-12.97
195.774	71
195.993	27.99
196.212	-58.03
196.432	-21.16
196.651	-4.78
196.87	17.75
197.089	15.7
197.308	13.65
197.528	5.46
197.747	-29.35
197.966	13.65
198.185	48.47
198.404	30.04
198.623	50.52
198.842	13.65
199.062	-10.92
199.281	-8.87
199.5	-35.5
199.719	46.42
199.938	-10.92
200.157	46.42
200.376	-4.78
200.595	-6.83
200.814	11.61
201.033	-35.5
201.252	-8.87
201.471	-27.31
201.69	48.47
201.909	15.7
202.128	27.99
202.347	-19.11
202.566	-10.92
202.785	1.37
203.004	36.18
203.223	56.66
203.442	-60.07
203.661	25.94
203.879	-6.83
204.098	71
204.317	23.89
204.536	-25.26
204.755	-41.64
204.974	5.46
205.193	13.65
205.411	40.28
205.63	-60.07
205.849	-74.41
206.068	-31.4
206.287	13.65
206.505	5.46
206.724	44.37
206.943	52.56
207.162	13.65
207.381	21.85
207.599	3.41
207.818	46.42
208.037	-53.93
208.255	34.13
208.474	71
208.693	44.37
208.911	-27.31
209.13	-47.79
209.349	30.04
209.567	-2.73
209.786	-53.93
210.005	7.51
210.223	-37.55
210.442	36.18
210.661	-6.83
210.879	-33.45
211.098	-31.4
211.316	11.61
211.535	-19.11
211.753	3.41
211.972	27.99
212.191	-88.75
212.409	52.56
212.628	-45.74
212.846	-29.35
213.065	52.56
213.283	-17.07
213.502	-10.92
213.72	7.51
213.938	-10.92
214.157	-29.35
214.375	-70.31
214.594	-15.02
214.812	13.65
215.031	-29.35
215.249	5.46
215.467	-0.68
215.686	-8.87
215.904	85.33
216.122	27.99
216.341	-6.83
216.559	19.8
216.778	58.71
216.996	9.56
217.214	30.04
217.432	25.94
217.651	-53.93
217.869	-17.07
218.087	52.56
218.306	-37.55
218.524	-21.16
218.742	13.65
218.96	-21.16
219.179	-37.55
219.397	60.76
219.615	77.14
219.833	52.56
220.051	-0.68
220.27	19.8
220.488	-0.68
220.706	5.46
220.924	25.94
221.142	-2.73
221.36	-8.87
221.578	60.76
221.796	23.89
222.015	1.37
222.233	21.85
222.451	-12.97
222.669	3.41
222.887	27.99
223.105	5.46
223.323	46.42
223.541	-35.5
223.759	-37.55
223.977	11.61
224.195	7.51
224.413	-15.02
224.631	15.7
224.849	-8.87
225.067	-37.55
225.285	-17.07
225.503	38.23
225.721	-23.21
225.939	-53.93
226.157	-12.97
226.375	23.89
226.592	17.75
226.81	-0.68
227.028	50.52
227.246	3.41
227.464	19.8
227.682	52.56
227.9	-29.35
228.117	-19.11
228.335	15.7
228.553	-27.31
228.771	-72.36
228.989	9.56
229.206	85.33
229.424	50.52
229.642	-39.59
229.86	48.47
230.077	13.65
230.295	-37.55
230.513	-2.73
230.731	103.76
230.948	17.75
231.166	1.37
231.384	-4.78
231.601	-10.92
231.819	-6.83
232.037	27.99
232.254	81.24
232.472	11.61
232.689	-25.26
232.907	-4.78
233.125	-4.78
233.342	30.04
233.56	-21.16
233.777	7.51
233.995	52.56
234.213	13.65
234.43	111.96
234.648	-70.31
234.865	15.7
235.083	34.13
235.3	-12.97
235.518	56.66
235.735	-66.22
235.953	79.19
236.17	-70.31
236.388	38.23
236.605	-23.21
236.822	-37.55
237.04	54.61
237.257	64.85
237.475	9.56
237.692	30.04
237.909	23.89
238.127	19.8
238.344	48.47
238.562	-12.97
238.779	-23.21
238.996	-15.02
239.214	-45.74
239.431	-23.21
239.648	27.99
239.865	5.46
240.083	21.85
240.3	11.61
240.517	-94.89
240.735	32.08
240.952	1.37
241.169	54.61
241.386	-19.11
241.603	-23.21
241.821	-35.5
242.038	15.7
242.255	11.61
242.472	50.52
242.689	1.37
242.907	-10.92
243.124	15.7
243.341	17.75
243.558	21.85
243.775	-6.83
243.992	15.7
244.209	44.37
244.426	-80.55
244.643	17.75
244.86	-4.78
245.078	101.72
245.295	13.65
245.512	-2.73
245.729	-8.87
245.946	11.61
246.163	60.76
246.38	-45.74
246.597	-25.26
246.814	-23.21
247.031	13.65
247.248	5.46
247.464	-49.83
247.681	23.89
247.898	25.94
248.115	17.75
248.332	-27.31
248.549	-51.88
248.766	52.56
248.983	42.32
249.2	15.7
249.417	9.56
249.633	-6.83
249.85	11.61
250.067	30.04
250.284	-23.21
250.501	-21.16
250.717	48.47
250.934	-8.87
251.151	42.32
251.368	-21.16
251.585	21.85
251.801	9.56
252.018	32.08
252.235	21.85
252.451	5.46
252.668	15.7
252.885	38.23
253.102	48.47
253.318	11.61
253.535	-35.5
253.752	62.8
253.968	17.75
254.185	46.42
254.401	-35.5
254.618	52.56
254.835	19.8
255.051	-19.11
255.268	-0.68
255.484	27.99
255.701	1.37
255.917	-29.35
256.134	-15.02
256.351	122.2
256.567	-119.46
256.784	56.66
257	-6.83
257.217	5.46
257.433	32.08
257.65	30.04
257.866	-47.79
258.082	-12.97
258.299	11.61
258.515	-4.78
258.732	-51.88
258.948	48.47
259.165	27.99
259.381	-27.31
259.597	-8.87
259.814	38.23
260.03	-47.79
260.246	46.42
260.463	-19.11
260.679	-19.11
260.895	30.04
261.112	1.37
261.328	66.9
261.544	60.76
261.761	48.47
261.977	32.08
262.193	-58.03
262.409	-23.21
262.626	-78.51
262.842	64.85
263.058	-10.92
263.274	85.33
263.49	-21.16
263.707	58.71
263.923	19.8
264.139	-19.11
264.355	15.7
264.571	34.13
264.787	-17.07
265.004	68.95
265.22	52.56
265.436	40.28
265.652	-27.31
265.868	5.46
266.084	3.41
266.3	48.47
266.516	48.47
266.732	1.37
266.948	46.42
267.164	1.37
267.38	52.56
267.596	-27.31
267.812	5.46
268.028	15.7
268.244	-37.55
268.46	-35.5
268.676	15.7
268.892	60.76
269.108	5.46
269.324	-0.68
269.54	3.41
269.756	5.46
269.972	40.28
270.188	13.65
270.403	-49.83
270.619	-78.51
270.835	-49.83
271.051	-35.5
271.267	34.13
271.483	-49.83
271.698	48.47
271.914	34.13
272.13	17.75
272.346	-8.87
272.562	1.37
272.777	5.46
272.993	-45.74
273.209	-12.97
273.425	19.8
273.64	50.52
273.856	-27.31
274.072	-10.92
274.287	-27.31
274.503	19.8
274.719	36.18
274.934	64.85
275.15	13.65
275.366	21.85
275.581	-10.92
275.797	3.41
276.012	-0.68
276.228	-27.31
276.444	-12.97
276.659	15.7
276.875	-37.55
277.09	-47.79
277.306	34.13
277.521	-15.02
277.737	23.89
277.952	66.9
278.168	-4.78
278.383	40.28
278.599	-37.55
278.814	56.66
279.03	-35.5
279.245	19.8
279.461	-0.68
279.676	-19.11
279.892	-12.97
280.107	-53.93
280.322	32.08
280.538	93.52
280.753	-35.5
280.969	-12.97
281.184	-31.4
281.399	3.41
281.615	-0.68
281.83	87.38
282.045	-43.69
282.26	7.51
282.476	-47.79
282.691	-6.83
282.906	54.61
283.122	-10.92
283.337	-21.16
283.552	-45.74
283.767	48.47
283.983	13.65
284.198	-29.35
284.413	11.61
284.628	-21.16
284.843	101.72
285.058	-92.84
285.274	-27.31
285.489	58.71
285.704	-17.07
285.919	3.41
286.134	19.8
286.349	64.85
286.564	-2.73
286.779	-41.64
286.995	19.8
287.21	23.89
287.425	-72.36
287.64	-33.45
287.855	-39.59
288.07	-21.16
288.285	17.75
288.5	23.89
288.715	-21.16
288.93	109.91
289.145	-80.55
289.36	-45.74
289.575	11.61
289.79	-29.35
290.004	19.8
290.219	30.04
290.434	-51.88
290.649	17.75
290.864	73.04
291.079	-19.11
291.294	25.94
291.509	19.8
291.724	19.8
291.938	38.23
292.153	46.42
292.368	71
292.583	-27.31
292.798	-43.69
293.012	44.37
293.227	27.99
293.442	25.94
293.657	-29.35
293.871	1.37
294.086	36.18
294.301	-62.12
294.516	5.46
294.73	73.04
294.945	-12.97
295.16	5.46
295.374	21.85
295.589	44.37
295.804	-15.02
296.018	5.46
296.233	42.32
296.447	-0.68
296.662	27.99
296.877	-17.07
297.091	64.85
297.306	-0.68
297.52	1.37
297.735	15.7
297.949	-27.31
298.164	23.89
298.378	15.7
298.593	9.56
298.807	30.04
299.022	79.19
299.236	-0.68
299.451	-12.97
299.665	36.18
299.88	11.61
300.094	23.89
300.309	64.85
300.523	-37.55
300.737	-10.92
300.952	-4.78
301.166	15.7
301.381	-17.07
301.595	-12.97
301.809	25.94
302.024	-31.4
302.238	-51.88
302.452	5.46
302.667	36.18
302.881	36.18
303.095	64.85
303.309	21.85
303.524	7.51
303.738	-49.83
303.952	-2.73
304.166	89.43
304.381	21.85
304.595	50.52
304.809	-58.03
305.023	3.41
305.237	27.99
305.452	-8.87
305.666	36.18
305.88	48.47
306.094	7.51
306.308	44.37
306.522	50.52
306.736	7.51
306.95	-4.78
307.164	44.37
307.379	34.13
307.593	46.42
307.807	3.41
308.021	46.42
308.235	50.52
308.449	-29.35
308.663	56.66
308.877	-4.78
309.091	9.56
309.305	54.61
309.519	71
309.733	32.08
309.947	-27.31
310.161	19.8
310.374	-37.55
310.588	1.37
310.802	-17.07
311.016	-25.26
311.23	79.19
311.444	21.85
311.658	1.37
311.872	17.75
312.085	23.89
312.299	-31.4
312.513	64.85
312.727	25.94
312.941	-6.83
313.154	77.14
313.368	21.85
313.582	64.85
313.796	-37.55
314.009	79.19
314.223	36.18
314.437	73.04
314.651	15.7
314.864	-21.16
315.078	9.56
315.292	30.04
315.505	13.65
315.719	17.75
315.933	48.47
316.146	44.37
316.36	-12.97
316.573	9.56
316.787	11.61
317.001	97.62
317.214	-4.78
317.428	-12.97
317.641	-0.68
317.855	-45.74
318.068	36.18
318.282	-4.78
318.495	17.75
318.709	15.7
318.922	-58.03
319.136	34.13
319.349	-25.26
319.563	-6.83
319.776	-39.59
319.99	-35.5
320.203	64.85
320.417	52.56
320.63	-10.92
320.843	71
321.057	5.46
321.27	-80.55
321.483	-4.78
321.697	23.89
321.91	-62.12
322.124	5.46
322.337	-19.11
322.55	-68.27
322.763	-4.78
322.977	3.41
323.19	-29.35
323.403	50.52
323.617	62.8
323.83	124.24
324.043	-51.88
324.256	-0.68
324.469	-41.64
324.683	44.37
324.896	38.23
325.109	-0.68
325.322	-72.36
325.535	27.99
325.748	-10.92
325.962	-12.97
326.175	-62.12
326.388	-27.31
326.601	-8.87
326.814	-6.83
327.027	-12.97
327.24	56.66
327.453	-2.73
327.666	15.7
327.879	-45.74
328.092	36.18
328.305	-12.97
328.518	-25.26
328.731	21.85
328.944	-39.59
329.157	30.04
329.37	5.46
329.583	21.85
329.796	126.29
330.009	15.7
330.222	17.75
330.435	-4.78
330.648	17.75
330.861	-27.31
331.073	60.76
331.286	-51.88
331.499	7.51
331.712	-74.41
331.925	36.18
332.138	13.65
332.35	34.13
332.563	23.89
332.776	68.95
332.989	42.32
333.202	48.47
333.414	42.32
333.627	-70.31
333.84	68.95
334.053	-17.07
334.265	9.56
334.478	42.32
334.691	23.89
334.903	25.94
335.116	-64.17
335.329	66.9
335.541	19.8
335.754	15.7
335.966	-8.87
336.179	1.37
336.392	5.46
336.604	-64.17
336.817	-35.5
337.029	17.75
337.242	-15.02
337.454	5.46
337.667	36.18
337.88	73.04
338.092	-27.31
338.305	-17.07
338.517	-43.69
338.729	81.24
338.942	93.52
339.154	-55.98
339.367	19.8
339.579	19.8
339.792	-25.26
340.004	23.89
340.217	71
340.429	19.8
340.641	77.14
340.854	-41.64
341.066	46.42
341.278	-8.87
341.491	34.13
341.703	75.09
341.915	-8.87
342.128	48.47
342.34	21.85
342.552	5.46
342.764	-15.02
342.977	40.28
343.189	15.7
343.401	27.99
343.613	-0.68
343.826	-12.97
344.038	-25.26
344.25	-25.26
344.462	34.13
344.674	40.28
344.886	77.14
345.099	48.47
345.311	46.42
345.523	-4.78
345.735	11.61
345.947	13.65
346.159	-25.26
346.371	-4.78
346.583	-12.97
346.795	54.61
347.007	64.85
347.219	13.65
347.431	-47.79
347.643	97.62
347.855	13.65
348.067	23.89
348.279	-6.83
348.491	46.42
348.703	-55.98
348.915	48.47
349.127	52.56
349.339	87.38
349.551	19.8
349.763	-8.87
349.975	25.94
350.187	-41.64
350.399	36.18
350.61	54.61
350.822	54.61
351.034	-23.21
351.246	-0.68
351.458	42.32
351.669	13.65
351.881	66.9
352.093	1.37
352.305	-29.35
352.517	23.89
352.728	-0.68
352.94	30.04
353.152	89.43
353.363	66.9
353.575	44.37
353.787	44.37
353.999	23.89
354.21	-0.68
354.422	-10.92
354.633	48.47
354.845	19.8
355.057	-19.11
355.268	-27.31
355.48	54.61
355.692	-2.73
355.903	36.18
356.115	-17.07
356.326	38.23
356.538	50.52
356.749	60.76
356.961	11.61
357.172	38.23
357.384	38.23
357.595	-0.68
357.807	-0.68
358.018	11.61
358.23	71
358.441	3.41
358.653	-45.74
358.864	15.7
359.075	46.42
359.287	-2.73
359.498	46.42
359.709	17.75
359.921	75.09
360.132	13.65
360.344	50.52
360.555	-58.03
360.766	-19.11
360.977	11.61
361.189	5.46
361.4	9.56
361.611	52.56
361.823	17.75
362.034	77.14
362.245	-4.78
362.456	77.14
362.667	-17.07
362.879	-31.4
363.09	34.13
363.301	42.32
363.512	38.23
363.723	27.99
363.935	9.56
364.146	-39.59
364.357	-2.73
364.568	77.14
364.779	-4.78
364.99	71
365.201	-45.74
365.412	-12.97
365.623	23.89
365.834	-21.16
366.045	58.71
366.256	42.32
366.467	25.94
366.678	77.14
366.889	-12.97
367.1	32.08
367.311	9.56
367.522	7.51
367.733	52.56
367.944	83.28
368.155	42.32
368.366	-37.55
368.577	13.65
368.788	56.66
368.999	27.99
369.209	-35.5
369.42	32.08
369.631	5.46
369.842	-4.78
370.053	-31.4
370.264	60.76
370.474	27.99
370.685	19.8
370.896	60.76
371.107	36.18
371.317	56.66
371.528	64.85
371.739	17.75
371.95	13.65
372.16	21.85
372.371	7.51
372.582	75.09
372.792	50.52
373.003	30.04
373.214	-0.68
373.424	-37.55
373.635	38.23
373.846	44.37
374.056	-12.97
374.267	21.85
374.477	27.99
374.688	-90.79
374.898	3.41
375.109	15.7
375.319	46.42
375.53	13.65
375.74	7.51
375.951	44.37
376.161	46.42
376.372	54.61
376.582	9.56
376.793	7.51
377.003	-27.31
377.214	48.47
377.424	9.56
377.635	-37.55
377.845	9.56
378.055	32.08
378.266	7.51
378.476	32.08
378.686	-0.68
378.897	3.41
379.107	11.61
379.317	30.04
379.528	15.7
379.738	52.56
379.948	3.41
380.158	64.85
380.369	19.8
380.579	-31.4
380.789	-4.78
380.999	-4.78
381.21	17.75
381.42	32.08
381.63	34.13
381.84	36.18
382.05	3.41
382.261	-25.26
382.471	3.41
382.681	19.8
382.891	-6.83
383.101	17.75
383.311	36.18
383.521	36.18
383.731	-49.83
383.941	23.89
384.151	27.99
384.361	30.04
384.571	21.85
384.781	34.13
384.991	21.85
385.201	101.72
385.411	36.18
385.621	11.61
385.831	25.94
386.041	30.04
386.251	-12.97
386.461	44.37
386.671	-35.5
386.881	42.32
387.091	-4.78
387.301	91.48
387.511	-12.97
387.72	73.04
387.93	17.75
388.14	-2.73
388.35	-4.78
388.56	-0.68
388.769	7.51
388.979	62.8
389.189	-4.78
389.399	34.13
389.609	21.85
389.818	134.48
390.028	5.46
390.238	-35.5
390.447	48.47
390.657	-17.07
390.867	21.85
391.076	1.37
391.286	-15.02
391.496	15.7
391.705	40.28
391.915	3.41
392.125	71
392.334	25.94
392.544	60.76
392.753	11.61
392.963	42.32
393.172	44.37
393.382	21.85
393.591	68.95
393.801	11.61
394.01	56.66
394.22	40.28
394.429	3.41
394.639	44.37
394.848	85.33
395.058	62.8
395.267	42.32
395.477	52.56
395.686	1.37
395.895	77.14
396.105	30.04
396.314	91.48
396.524	46.42
396.733	-2.73
396.942	11.61
397.152	116.05
397.361	93.52
397.57	60.76
397.78	64.85
397.989	48.47
398.198	40.28
398.407	77.14
398.617	101.72
398.826	62.8
399.035	107.86
399.244	-21.16
399.453	27.99
399.663	19.8
399.872	19.8
400.081	54.61
400.29	95.57
400.499	85.33
400.708	56.66
400.917	27.99
401.127	52.56
401.336	27.99
401.545	62.8
401.754	34.13
401.963	40.28
402.172	79.19
402.381	73.04
402.59	73.04
402.799	54.61
403.008	124.24
403.217	46.42
403.426	83.28
403.635	21.85
403.844	52.56
404.053	36.18
404.262	68.95
404.471	52.56
404.68	50.52
404.888	77.14
405.097	103.76
405.306	77.14
405.515	105.81
405.724	71
405.933	21.85
406.142	83.28
406.35	85.33
406.559	93.52
406.768	132.44
406.977	124.24
407.185	132.44
407.394	91.48
407.603	99.67
407.812	87.38
408.02	105.81
408.229	107.86
408.438	126.29
408.646	175.44
408.855	114
409.064	216.4
409.272	167.25
409.481	142.68
409.69	122.2
409.898	97.62
410.107	138.58
410.315	142.68
410.524	114
410.733	189.78
410.941	159.06
411.15	281.94
411.358	197.97
411.567	249.17
411.775	152.91
411.984	157.01
412.192	236.88
412.401	202.07
412.609	267.6
412.818	273.75
413.026	161.11
413.234	204.11
413.443	267.6
413.651	316.75
413.86	281.94
414.068	275.79
414.276	384.34
414.485	333.14
414.693	345.42
414.901	347.47
415.11	367.95
415.318	318.8
415.526	367.95
415.734	464.21
415.943	453.97
416.151	453.97
416.359	464.21
416.567	445.77
416.776	568.65
416.984	523.6
417.192	521.55
417.4	529.74
417.608	505.17
417.817	531.79
418.025	597.32
418.233	591.18
418.441	669
418.649	699.72
418.857	642.38
419.065	650.57
419.273	658.76
419.481	714.06
419.689	785.74
419.897	818.5
420.105	802.12
420.313	822.6
420.521	836.94
420.729	863.56
420.937	818.5
421.145	896.33
421.353	1019.21
421.561	1035.59
421.769	1045.83
421.977	1045.83
422.185	1002.82
422.393	1168.71
422.601	1189.19
422.809	1166.66
423.017	1178.95
423.224	1310.02
423.432	1303.87
423.64	1363.26
423.848	1455.42
424.056	1445.18
424.263	1461.57
424.471	1619.26
424.679	1512.77
424.887	1574.21
425.094	1701.18
425.302	1666.36
425.51	1754.43
425.718	1871.16
425.925	1729.85
426.133	1879.35
426.341	2041.14
426.548	2188.6
426.756	2114.87
426.964	2092.34
427.171	2215.22
427.379	2198.84
427.586	2331.95
427.794	2432.3
428.001	2536.75
428.209	2581.81
428.417	2592.05
428.624	2729.26
428.832	2786.6
429.039	2739.5
429.247	2669.87
429.454	2958.63
429.662	3089.7
429.869	2880.81
430.076	3153.19
430.284	3118.37
430.491	3190.05
430.699	3575.07
430.906	3476.77
431.114	3527.97
431.321	3460.38
431.528	3704.09
431.736	3906.84
431.943	4222.23
432.15	4050.2
432.358	3996.95
432.565	4250.9
432.772	4289.81
432.979	4467.99
433.187	4574.48
433.394	4500.75
433.601	4760.84
433.808	4861.2
434.016	4732.17
434.223	5147.91
434.43	5518.59
434.637	5385.48
434.844	5602.56
435.052	5725.44
435.259	5500.16
435.466	5780.73
435.673	5573.89
435.88	5987.58
436.087	6522.1
436.294	6292.73
436.501	6159.61
436.708	6409.46
436.915	6714.61
437.122	6849.77
437.329	6730.99
437.537	7015.66
437.743	7218.41
437.95	7187.69
438.157	7408.87
438.364	7767.26
438.571	7777.5
438.778	7681.25
438.985	8500.44
439.192	8008.92
439.399	8393.94
439.606	8377.56
439.813	8719.57
440.02	9231.56
440.227	9254.09
440.433	8928.46
440.64	9260.23
440.847	9080.01
441.054	9389.25
441.261	9972.93
441.467	10130.62
441.674	10179.77
441.881	10605.75
442.088	10452.15
442.294	10310.84
442.501	10767.54
442.708	10734.77
442.914	11338.92
443.121	11910.3
443.328	11664.55
443.534	12369.05
443.741	12010.65
443.948	12113.05
444.154	12784.79
444.361	12633.24
444.568	12670.1
444.774	12856.47
444.981	12897.42
445.187	13229.2
445.394	13778.05
445.6	13642.89
445.807	15062.13
446.013	14267.52
446.22	14793.84
446.426	14937.2
446.633	15363.18
446.839	15858.79
447.046	15287.4
447.252	16366.68
447.459	15885.41
447.665	15819.88
447.871	16864.34
448.078	17597.51
448.284	16784.47
448.491	17165.39
448.697	17841.22
448.903	18123.84
449.11	18265.15
449.316	17828.93
449.522	18326.59
449.728	18633.78
449.935	19014.71
450.141	19160.11
450.347	19508.27
450.553	18848.82
450.76	18961.46
450.966	19825.7
451.172	19309.61
451.378	19872.81
451.584	19432.49
451.791	19811.37
451.997	20007.97
452.203	20452.38
452.409	20188.19
452.615	20274.21
452.821	19506.22
453.027	19436.59
453.233	20257.82
453.44	19545.13
453.646	19964.96
453.852	19956.77
454.058	20440.09
454.264	19831.85
454.47	20010.02
454.676	19528.75
454.882	20399.13
455.088	18400.32
455.294	18957.36
455.5	18988.08
455.705	19256.37
455.911	18443.32
456.117	18150.46
456.323	17839.17
456.529	17034.32
456.735	17802.31
456.941	17488.97
457.147	17116.24
457.352	16378.97
457.558	16438.36
457.764	16450.65
457.97	15787.11
458.176	15619.17
458.381	15727.72
458.587	14947.44
458.793	15090.8
458.999	14103.68
459.204	15041.65
459.41	14652.53
459.616	13681.8
459.821	13945.98
460.027	13653.12
460.233	13505.67
460.438	12803.22
460.644	12856.47
460.85	12336.28
461.055	12057.76
461.261	12289.18
461.466	11218.09
461.672	10749.11
461.878	11498.66
462.083	11007.15
462.289	10702
462.494	10611.89
462.7	10126.52
462.905	9993.4
463.111	10165.43
463.316	10181.82
463.522	9909.44
463.727	10005.69
463.932	10063.04
464.138	9852.1
464.343	9815.23
464.549	9604.29
464.754	9958.59
464.959	9893.05
465.165	9903.29
465.37	9374.92
465.575	9168.07
465.781	9702.59
465.986	9331.91
466.191	9176.27
466.397	8932.56
466.602	8527.06
466.807	8860.88
467.012	9026.76
467.218	8647.89
467.423	8729.81
467.628	8778.96
467.833	9174.22
468.038	8590.55
468.244	8654.03
468.449	8926.41
