Data from USB4F104151__46__12-59-08-545.txt Node

Date: Fri Mar 14 12:59:08 EDT 2025
User: louis
Spectrometer: USB4F10415
Trigger mode: 4
Integration Time (sec): 1.000000E-2
Scans to average: 1
Electric dark correction enabled: true
Nonlinearity correction enabled: false
Boxcar width: 0
XAxis mode: Wavelengths
Number of Pixels in Spectrum: 3648
>>>>>Begin Spectral Data<<<<<
178.204	-90.28
178.424	-90.28
178.644	-90.28
178.864	-88.23
179.084	-28.84
179.304	-55.47
179.524	-24.75
179.744	-32.94
179.964	16.21
180.184	20.31
180.404	57.17
180.624	-18.6
180.844	20.31
181.064	28.5
181.283	16.21
181.503	-34.99
181.723	8.02
181.943	-57.51
182.163	5.97
182.383	24.4
182.602	28.5
182.822	18.26
183.042	-34.99
183.262	26.45
183.482	-22.7
183.701	-0.17
183.921	24.4
184.141	-55.47
184.361	51.03
184.58	-34.99
184.8	-84.14
185.02	-32.94
185.239	26.45
185.459	-94.38
185.679	-30.89
185.898	-41.13
186.118	-8.36
186.338	-26.79
186.557	-47.27
186.777	-41.13
186.997	3.93
187.216	-26.79
187.436	20.31
187.655	26.45
187.875	-37.03
188.095	8.02
188.314	-6.31
188.534	-37.03
188.753	16.21
188.973	-43.18
189.192	18.26
189.412	71.51
189.631	69.46
189.851	-12.46
190.07	32.6
190.29	-20.65
190.509	-57.51
190.729	32.6
190.948	-26.79
191.168	42.84
191.387	-6.31
191.607	-30.89
191.826	57.17
192.045	-20.65
192.265	-8.36
192.484	-4.27
192.704	-24.75
192.923	-41.13
193.142	22.36
193.362	-26.79
193.581	-39.08
193.8	-4.27
194.02	83.8
194.239	-6.31
194.458	18.26
194.678	-55.47
194.897	-69.8
195.116	-45.23
195.335	51.03
195.555	-8.36
195.774	-14.51
195.993	69.46
196.212	-30.89
196.432	40.79
196.651	-41.13
196.87	75.6
197.089	-22.7
197.308	48.98
197.528	-57.51
197.747	-28.84
197.966	48.98
198.185	8.02
198.404	3.93
198.623	-34.99
198.842	36.69
199.062	46.93
199.281	-16.55
199.5	5.97
199.719	-26.79
199.938	44.88
200.157	-47.27
200.376	-20.65
200.595	-49.32
200.814	-2.22
201.033	-12.46
201.252	-47.27
201.471	-37.03
201.69	24.4
201.909	32.6
202.128	65.36
202.347	-65.71
202.566	-49.32
202.785	-53.42
203.004	-39.08
203.223	51.03
203.442	-24.75
203.661	-10.41
203.879	-2.22
204.098	18.26
204.317	8.02
204.536	-6.31
204.755	-49.32
204.974	-67.75
205.193	22.36
205.411	-10.41
205.63	-92.33
205.849	16.21
206.068	-4.27
206.287	-12.46
206.505	-6.31
206.724	-4.27
206.943	-39.08
207.162	-6.31
207.381	10.07
207.599	26.45
207.818	-30.89
208.037	34.64
208.255	46.93
208.474	-18.6
208.693	22.36
208.911	57.17
209.13	18.26
209.349	3.93
209.567	-18.6
209.786	-41.13
210.005	8.02
210.223	48.98
210.442	22.36
210.661	16.21
210.879	-24.75
211.098	36.69
211.316	42.84
211.535	51.03
211.753	55.12
211.972	20.31
212.191	-49.32
212.409	-24.75
212.628	-22.7
212.846	-24.75
213.065	-12.46
213.283	3.93
213.502	48.98
213.72	-18.6
213.938	-32.94
214.157	22.36
214.375	20.31
214.594	75.6
214.812	-18.6
215.031	-6.31
215.249	-24.75
215.467	-41.13
215.686	-24.75
215.904	36.69
216.122	-16.55
216.341	-20.65
216.559	46.93
216.778	42.84
216.996	-47.27
217.214	5.97
217.432	-32.94
217.651	3.93
217.869	1.88
218.087	-90.28
218.306	-14.51
218.524	-2.22
218.742	-32.94
218.96	44.88
219.179	-45.23
219.397	-22.7
219.615	-0.17
219.833	28.5
220.051	8.02
220.27	-20.65
220.488	30.55
220.706	-2.22
220.924	-22.7
221.142	32.6
221.36	1.88
221.578	-114.86
221.796	-16.55
222.015	12.12
222.233	16.21
222.451	18.26
222.669	-22.7
222.887	20.31
223.105	-4.27
223.323	-57.51
223.541	-4.27
223.759	10.07
223.977	24.4
224.195	10.07
224.413	-22.7
224.631	42.84
224.849	-32.94
225.067	18.26
225.285	-37.03
225.503	-55.47
225.721	-45.23
225.939	-2.22
226.157	18.26
226.375	32.6
226.592	-12.46
226.81	-6.31
227.028	-32.94
227.246	-2.22
227.464	-16.55
227.682	5.97
227.9	1.88
228.117	-51.37
228.335	-47.27
228.553	-49.32
228.771	-34.99
228.989	38.74
229.206	1.88
229.424	-14.51
229.642	18.26
229.86	12.12
230.077	10.07
230.295	24.4
230.513	-43.18
230.731	-63.66
230.948	98.13
231.166	106.32
231.384	-28.84
231.601	5.97
231.819	40.79
232.037	10.07
232.254	-65.71
232.472	-53.42
232.689	1.88
232.907	12.12
233.125	-16.55
233.342	-12.46
233.56	-41.13
233.777	-41.13
233.995	-28.84
234.213	5.97
234.43	-14.51
234.648	-20.65
234.865	12.12
235.083	5.97
235.3	-4.27
235.518	-22.7
235.735	65.36
235.953	-6.31
236.17	-90.28
236.388	-12.46
236.605	-43.18
236.822	1.88
237.04	-63.66
237.257	-41.13
237.475	-26.79
237.692	20.31
237.909	-26.79
238.127	-59.56
238.344	-37.03
238.562	51.03
238.779	-22.7
238.996	-71.85
239.214	-30.89
239.431	-10.41
239.648	-63.66
239.865	67.41
240.083	-14.51
240.3	-24.75
240.517	-41.13
240.735	1.88
240.952	-2.22
241.169	-4.27
241.386	40.79
241.603	-4.27
241.821	3.93
242.038	8.02
242.255	-14.51
242.472	12.12
242.689	18.26
242.907	12.12
243.124	5.97
243.341	-6.31
243.558	3.93
243.775	-61.61
243.992	-28.84
244.209	71.51
244.426	-2.22
244.643	-45.23
244.86	3.93
245.078	-16.55
245.295	-26.79
245.512	14.17
245.729	98.13
245.946	44.88
246.163	-22.7
246.38	40.79
246.597	-14.51
246.814	32.6
247.031	26.45
247.248	12.12
247.464	-69.8
247.681	16.21
247.898	42.84
248.115	36.69
248.332	-49.32
248.549	57.17
248.766	3.93
248.983	18.26
249.2	-45.23
249.417	75.6
249.633	-12.46
249.85	-0.17
250.067	-4.27
250.284	16.21
250.501	-24.75
250.717	71.51
250.934	26.45
251.151	-2.22
251.368	-24.75
251.585	10.07
251.801	-4.27
252.018	-4.27
252.235	1.88
252.451	-4.27
252.668	-12.46
252.885	59.22
253.102	16.21
253.318	-16.55
253.535	-22.7
253.752	-57.51
253.968	22.36
254.185	59.22
254.401	-8.36
254.618	83.8
254.835	12.12
255.051	-73.9
255.268	-71.85
255.484	-34.99
255.701	-0.17
255.917	-4.27
256.134	20.31
256.351	-16.55
256.567	-0.17
256.784	44.88
257	38.74
257.217	-41.13
257.433	-14.51
257.65	-28.84
257.866	-4.27
258.082	-8.36
258.299	-43.18
258.515	48.98
258.732	-14.51
258.948	-77.99
259.165	-16.55
259.381	18.26
259.597	16.21
259.814	-0.17
260.03	-16.55
260.246	36.69
260.463	30.55
260.679	-6.31
260.895	8.02
261.112	-0.17
261.328	-34.99
261.544	-41.13
261.761	-67.75
261.977	65.36
262.193	-55.47
262.409	26.45
262.626	-22.7
262.842	-0.17
263.058	-37.03
263.274	18.26
263.49	32.6
263.707	-18.6
263.923	-16.55
264.139	28.5
264.355	10.07
264.571	3.93
264.787	1.88
265.004	-16.55
265.22	-49.32
265.436	26.45
265.652	-28.84
265.868	-28.84
266.084	-39.08
266.3	34.64
266.516	55.12
266.732	-6.31
266.948	42.84
267.164	10.07
267.38	-63.66
267.596	-30.89
267.812	-18.6
268.028	14.17
268.244	-24.75
268.46	59.22
268.676	-22.7
268.892	5.97
269.108	-18.6
269.324	-51.37
269.54	-18.6
269.756	-49.32
269.972	30.55
270.188	3.93
270.403	-57.51
270.619	-24.75
270.835	1.88
271.051	-0.17
271.267	18.26
271.483	-24.75
271.698	10.07
271.914	-37.03
272.13	18.26
272.346	-10.41
272.562	14.17
272.777	16.21
272.993	-2.22
273.209	-43.18
273.425	-73.9
273.64	22.36
273.856	18.26
274.072	55.12
274.287	-18.6
274.503	20.31
274.719	36.69
274.934	57.17
275.15	3.93
275.366	-77.99
275.581	-12.46
275.797	-32.94
276.012	-4.27
276.228	-14.51
276.444	26.45
276.659	63.32
276.875	30.55
277.09	-37.03
277.306	-12.46
277.521	-10.41
277.737	-20.65
277.952	63.32
278.168	-6.31
278.383	18.26
278.599	-16.55
278.814	-63.66
279.03	-32.94
279.245	53.08
279.461	-16.55
279.676	-20.65
279.892	-55.47
280.107	10.07
280.322	3.93
280.538	34.64
280.753	20.31
280.969	-57.51
281.184	-63.66
281.399	18.26
281.615	-16.55
281.83	-4.27
282.045	-41.13
282.26	-30.89
282.476	-43.18
282.691	-6.31
282.906	32.6
283.122	-51.37
283.337	-61.61
283.552	-4.27
283.767	40.79
283.983	-12.46
284.198	3.93
284.413	75.6
284.628	-16.55
284.843	-24.75
285.058	20.31
285.274	89.94
285.489	8.02
285.704	-24.75
285.919	-59.56
286.134	-32.94
286.349	-4.27
286.564	-92.33
286.779	-80.04
286.995	26.45
287.21	36.69
287.425	28.5
287.64	-12.46
287.855	-22.7
288.07	10.07
288.285	-0.17
288.5	-41.13
288.715	100.18
288.93	14.17
289.145	-0.17
289.36	-30.89
289.575	-30.89
289.79	-51.37
290.004	-10.41
290.219	20.31
290.434	-24.75
290.649	-6.31
290.864	-32.94
291.079	-22.7
291.294	40.79
291.509	14.17
291.724	14.17
291.938	-16.55
292.153	20.31
292.368	3.93
292.583	-53.42
292.798	-10.41
293.012	20.31
293.227	-6.31
293.442	-65.71
293.657	24.4
293.871	8.02
294.086	-4.27
294.301	8.02
294.516	42.84
294.73	-8.36
294.945	28.5
295.16	34.64
295.374	-10.41
295.589	59.22
295.804	67.41
296.018	14.17
296.233	46.93
296.447	12.12
296.662	-22.7
296.877	10.07
297.091	10.07
297.306	16.21
297.52	-20.65
297.735	57.17
297.949	-20.65
298.164	8.02
298.378	-90.28
298.593	5.97
298.807	-57.51
299.022	63.32
299.236	-65.71
299.451	42.84
299.665	-22.7
299.88	20.31
300.094	3.93
300.309	14.17
300.523	10.07
300.737	-4.27
300.952	-20.65
301.166	5.97
301.381	24.4
301.595	-8.36
301.809	22.36
302.024	12.12
302.238	-0.17
302.452	-59.56
302.667	16.21
302.881	32.6
303.095	-18.6
303.309	67.41
303.524	-12.46
303.738	14.17
303.952	10.07
304.166	3.93
304.381	-0.17
304.595	22.36
304.809	38.74
305.023	-18.6
305.237	-65.71
305.452	-16.55
305.666	-47.27
305.88	-14.51
306.094	14.17
306.308	12.12
306.522	5.97
306.736	-14.51
306.95	104.28
307.164	-34.99
307.379	26.45
307.593	-24.75
307.807	12.12
308.021	38.74
308.235	-45.23
308.449	-32.94
308.663	28.5
308.877	32.6
309.091	65.36
309.305	-4.27
309.519	-14.51
309.733	28.5
309.947	48.98
310.161	-6.31
310.374	1.88
310.588	8.02
310.802	26.45
311.016	-82.09
311.23	26.45
311.444	5.97
311.658	-30.89
311.872	-4.27
312.085	-55.47
312.299	108.37
312.513	-8.36
312.727	-0.17
312.941	-69.8
313.154	53.08
313.368	-20.65
313.582	-65.71
313.796	-39.08
314.009	10.07
314.223	32.6
314.437	-0.17
314.651	61.27
314.864	3.93
315.078	40.79
315.292	14.17
315.505	-34.99
315.719	18.26
315.933	20.31
316.146	38.74
316.36	-24.75
316.573	18.26
316.787	10.07
317.001	32.6
317.214	48.98
317.428	3.93
317.641	-22.7
317.855	42.84
318.068	10.07
318.282	10.07
318.495	73.56
318.709	34.64
318.922	71.51
319.136	-20.65
319.349	16.21
319.563	3.93
319.776	-24.75
319.99	-26.79
320.203	57.17
320.417	14.17
320.63	-59.56
320.843	-20.65
321.057	44.88
321.27	44.88
321.483	-32.94
321.697	77.65
321.91	42.84
322.124	-47.27
322.337	-24.75
322.55	-41.13
322.763	26.45
322.977	-6.31
323.19	14.17
323.403	67.41
323.617	8.02
323.83	16.21
324.043	-53.42
324.256	-14.51
324.469	46.93
324.683	3.93
324.896	-26.79
325.109	-34.99
325.322	-57.51
325.535	-67.75
325.748	24.4
325.962	16.21
326.175	-24.75
326.388	-43.18
326.601	28.5
326.814	40.79
327.027	22.36
327.24	-43.18
327.453	-12.46
327.666	-24.75
327.879	53.08
328.092	65.36
328.305	-47.27
328.518	-34.99
328.731	-55.47
328.944	67.41
329.157	26.45
329.37	18.26
329.583	-2.22
329.796	44.88
330.009	32.6
330.222	20.31
330.435	28.5
330.648	-12.46
330.861	12.12
331.073	22.36
331.286	5.97
331.499	-18.6
331.712	8.02
331.925	-51.37
332.138	-2.22
332.35	42.84
332.563	16.21
332.776	98.13
332.989	-8.36
333.202	-55.47
333.414	36.69
333.627	-24.75
333.84	5.97
334.053	24.4
334.265	-2.22
334.478	18.26
334.691	-24.75
334.903	-49.32
335.116	-4.27
335.329	38.74
335.541	-4.27
335.754	-24.75
335.966	34.64
336.179	-6.31
336.392	12.12
336.604	-6.31
336.817	1.88
337.029	-6.31
337.242	-28.84
337.454	-16.55
337.667	10.07
337.88	-51.37
338.092	-12.46
338.305	-45.23
338.517	-6.31
338.729	-41.13
338.942	32.6
339.154	5.97
339.367	16.21
339.579	36.69
339.792	8.02
340.004	-55.47
340.217	10.07
340.429	48.98
340.641	8.02
340.854	61.27
341.066	26.45
341.278	-65.71
341.491	22.36
341.703	12.12
341.915	46.93
342.128	-37.03
342.34	20.31
342.552	38.74
342.764	-43.18
342.977	-0.17
343.189	-32.94
343.401	34.64
343.613	5.97
343.826	-51.37
344.038	-26.79
344.25	-8.36
344.462	18.26
344.674	-32.94
344.886	-6.31
345.099	12.12
345.311	44.88
345.523	-49.32
345.735	-12.46
345.947	-16.55
346.159	14.17
346.371	20.31
346.583	-8.36
346.795	61.27
347.007	-77.99
347.219	3.93
347.431	-0.17
347.643	10.07
347.855	-43.18
348.067	36.69
348.279	-12.46
348.491	-6.31
348.703	-53.42
348.915	-8.36
349.127	-4.27
349.339	-53.42
349.551	-28.84
349.763	44.88
349.975	91.99
350.187	16.21
350.399	16.21
350.61	75.6
350.822	-0.17
351.034	5.97
351.246	-26.79
351.458	3.93
351.669	18.26
351.881	-30.89
352.093	16.21
352.305	59.22
352.517	-37.03
352.728	1.88
352.94	12.12
353.152	1.88
353.363	-41.13
353.575	59.22
353.787	16.21
353.999	53.08
354.21	-45.23
354.422	1.88
354.633	-41.13
354.845	-20.65
355.057	-16.55
355.268	65.36
355.48	-28.84
355.692	-8.36
355.903	-14.51
356.115	-12.46
356.326	-32.94
356.538	63.32
356.749	36.69
356.961	46.93
357.172	8.02
357.384	28.5
357.595	-10.41
357.807	-6.31
358.018	22.36
358.23	59.22
358.441	-22.7
358.653	16.21
358.864	-28.84
359.075	-69.8
359.287	-24.75
359.498	32.6
359.709	36.69
359.921	16.21
360.132	-22.7
360.344	38.74
360.555	-96.43
360.766	32.6
360.977	-24.75
361.189	85.84
361.4	-12.46
361.611	20.31
361.823	51.03
362.034	-0.17
362.245	-8.36
362.456	-41.13
362.667	34.64
362.879	30.55
363.09	-39.08
363.301	-18.6
363.512	26.45
363.723	3.93
363.935	-32.94
364.146	28.5
364.357	-0.17
364.568	22.36
364.779	-39.08
364.99	51.03
365.201	38.74
365.412	16.21
365.623	-10.41
365.834	18.26
366.045	34.64
366.256	32.6
366.467	83.8
366.678	-4.27
366.889	-32.94
367.1	16.21
367.311	10.07
367.522	-41.13
367.733	10.07
367.944	32.6
368.155	55.12
368.366	63.32
368.577	-24.75
368.788	34.64
368.999	1.88
369.209	55.12
369.42	16.21
369.631	-18.6
369.842	-24.75
370.053	-2.22
370.264	65.36
370.474	-0.17
370.685	18.26
370.896	-32.94
371.107	63.32
371.317	48.98
371.528	-10.41
371.739	-6.31
371.95	36.69
372.16	53.08
372.371	48.98
372.582	44.88
372.792	94.04
373.003	44.88
373.214	30.55
373.424	40.79
373.635	94.04
373.846	-4.27
374.056	22.36
374.267	18.26
374.477	40.79
374.688	-6.31
374.898	-24.75
375.109	14.17
375.319	-8.36
375.53	63.32
375.74	1.88
375.951	59.22
376.161	46.93
376.372	38.74
376.582	46.93
376.793	44.88
377.003	-14.51
377.214	26.45
377.424	104.28
377.635	28.5
377.845	14.17
378.055	14.17
378.266	8.02
378.476	24.4
378.686	-32.94
378.897	48.98
379.107	59.22
379.317	36.69
379.528	102.23
379.738	18.26
379.948	10.07
380.158	48.98
380.369	53.08
380.579	18.26
380.789	-0.17
380.999	63.32
381.21	108.37
381.42	-18.6
381.63	-14.51
381.84	28.5
382.05	-39.08
382.261	71.51
382.471	44.88
382.681	-10.41
382.891	-4.27
383.101	24.4
383.311	18.26
383.521	-30.89
383.731	-16.55
383.941	12.12
384.151	36.69
384.361	26.45
384.571	28.5
384.781	-22.7
384.991	40.79
385.201	14.17
385.411	20.31
385.621	44.88
385.831	1.88
386.041	73.56
386.251	8.02
386.461	63.32
386.671	-45.23
386.881	5.97
387.091	16.21
387.301	1.88
387.511	-4.27
387.72	46.93
387.93	14.17
388.14	24.4
388.35	40.79
388.56	48.98
388.769	-8.36
388.979	65.36
389.189	-98.47
389.399	83.8
389.609	-24.75
389.818	51.03
390.028	38.74
390.238	32.6
390.447	5.97
390.657	-6.31
390.867	26.45
391.076	-0.17
391.286	98.13
391.496	16.21
391.705	5.97
391.915	67.41
392.125	24.4
392.334	65.36
392.544	-28.84
392.753	53.08
392.963	81.75
393.172	65.36
393.382	-32.94
393.591	26.45
393.801	14.17
394.01	40.79
394.22	8.02
394.429	3.93
394.639	-24.75
394.848	1.88
395.058	48.98
395.267	-18.6
395.477	-2.22
395.686	79.7
395.895	-0.17
396.105	12.12
396.314	55.12
396.524	18.26
396.733	-30.89
396.942	32.6
397.152	96.08
397.361	-28.84
397.57	87.89
397.78	59.22
397.989	55.12
398.198	32.6
398.407	57.17
398.617	28.5
398.826	16.21
399.035	12.12
399.244	46.93
399.453	34.64
399.663	24.4
399.872	85.84
400.081	20.31
400.29	-24.75
400.499	-0.17
400.708	3.93
400.917	126.8
401.127	77.65
401.336	16.21
401.545	85.84
401.754	53.08
401.963	34.64
402.172	34.64
402.381	34.64
402.59	57.17
402.799	157.52
403.008	22.36
403.217	24.4
403.426	10.07
403.635	20.31
403.844	102.23
404.053	65.36
404.262	26.45
404.471	87.89
404.68	63.32
404.888	75.6
405.097	61.27
405.306	120.66
405.515	44.88
405.724	75.6
405.933	22.36
406.142	118.61
406.35	171.86
406.559	67.41
406.768	96.08
406.977	69.46
407.185	120.66
407.394	165.71
407.603	114.52
407.812	120.66
408.02	188.24
408.229	116.56
408.438	89.94
408.646	194.39
408.855	147.28
409.064	143.19
409.272	126.8
409.481	253.78
409.69	141.14
409.898	202.58
410.107	153.43
410.315	149.33
410.524	163.67
410.733	167.76
410.941	223.06
411.15	253.78
411.358	147.28
411.567	175.95
411.775	257.87
411.984	204.63
412.192	255.83
412.401	235.35
412.609	298.83
412.818	270.16
413.026	288.59
413.234	278.35
413.443	264.02
413.651	309.07
413.86	255.83
414.068	335.7
414.276	313.17
414.485	401.23
414.693	372.56
414.901	319.31
415.11	448.33
415.318	429.9
415.526	399.18
415.734	487.25
415.943	388.94
416.151	507.73
416.359	421.71
416.567	497.49
416.776	507.73
416.984	530.25
417.192	513.87
417.4	640.84
417.608	630.6
417.817	603.98
418.025	579.4
418.233	694.09
418.441	593.74
418.649	681.8
418.857	710.47
419.065	763.72
419.273	763.72
419.481	730.95
419.689	829.26
419.897	825.16
420.105	880.46
420.313	812.87
420.521	927.56
420.729	905.03
420.937	935.75
421.145	1058.63
421.353	1134.4
421.561	1081.16
421.769	1189.7
421.977	1204.03
422.185	1171.27
422.393	1216.32
422.601	1351.49
422.809	1359.68
423.017	1380.16
423.224	1451.84
423.432	1480.51
423.64	1490.75
423.848	1673.02
424.056	1582.91
424.263	1558.33
424.471	1732.41
424.679	1738.55
424.887	1752.89
425.094	1865.53
425.302	1830.71
425.51	1967.93
425.718	1986.36
425.925	1974.07
426.133	2080.57
426.341	2125.62
426.548	2311.99
426.756	2328.37
426.964	2250.55
427.171	2426.67
427.379	2531.12
427.586	2596.65
427.794	2641.71
428.001	2668.33
428.209	2985.77
428.417	2869.03
428.624	3047.21
428.832	3016.49
429.039	3082.02
429.247	3045.16
429.454	3307.3
429.662	3591.97
429.869	3385.12
430.076	3567.39
430.284	3444.51
430.491	3555.1
430.699	3753.76
430.906	3909.4
431.114	3907.35
431.321	4071.19
431.528	4093.72
431.736	4290.32
431.943	4509.46
432.15	4484.88
432.358	4517.65
432.565	4599.57
432.772	4802.32
432.979	4937.48
433.187	5119.75
433.394	5056.26
433.601	5377.8
433.808	5488.39
434.016	5461.76
434.223	5785.34
434.43	5910.27
434.637	5897.98
434.844	6084.34
435.052	6373.11
435.259	6321.91
435.466	6371.06
435.673	6356.72
435.88	6727.41
436.087	7073.51
436.294	7196.39
436.501	6780.65
436.708	6987.5
436.915	7335.65
437.122	7784.16
437.329	7479.01
437.537	7929.56
437.743	7966.43
437.95	7888.6
438.157	8296.15
438.364	8632.02
438.571	8672.98
438.778	8750.8
438.985	9389.77
439.192	9146.06
439.399	9285.32
439.606	9350.85
439.813	9592.51
440.02	10348.22
440.227	10096.32
440.433	10112.7
440.64	10518.2
440.847	10241.72
441.054	10493.62
441.261	11404.97
441.467	11181.74
441.674	11443.88
441.881	11751.07
442.088	11607.72
442.294	11726.5
442.501	11945.63
442.708	12134.04
442.914	12797.59
443.121	13258.38
443.328	13020.81
443.534	13799.04
443.741	13297.29
443.948	13041.29
444.154	14208.64
444.361	14069.37
444.568	14182.01
444.774	14329.47
444.981	14392.95
445.187	14769.78
445.394	15361.64
445.6	15314.54
445.807	16858.71
446.013	15988.32
446.22	16438.87
446.426	17233.49
446.633	17391.18
446.839	17725
447.046	17301.07
447.252	18257.47
447.459	18044.48
447.665	18169.41
447.871	18818.61
448.078	19791.4
448.284	18824.76
448.491	19039.79
448.697	20131.36
448.903	20497.95
449.11	20497.95
449.316	20143.65
449.522	20438.56
449.728	21081.62
449.935	21417.49
450.141	21249.55
450.347	21839.37
450.553	20940.31
450.76	21425.68
450.966	22197.76
451.172	21771.79
451.378	22521.34
451.584	22179.33
451.791	22703.61
451.997	22480.38
452.203	23371.25
452.409	22787.58
452.615	22730.23
452.821	21954.05
453.027	21984.77
453.233	22978.04
453.44	22179.33
453.646	22332.93
453.852	22595.07
454.058	22433.28
454.264	22255.11
454.47	22474.24
454.676	22412.8
454.882	22926.84
455.088	20803.1
455.294	21368.34
455.5	21628.43
455.705	21917.19
455.911	20596.25
456.117	20620.83
456.323	20393.5
456.529	19060.27
456.735	20180.51
456.941	19283.5
457.147	19095.09
457.352	18595.39
457.558	18257.47
457.764	18497.08
457.97	17960.52
458.176	17571.4
458.381	17845.83
458.587	16871
458.793	16995.92
458.999	15969.89
459.204	17274.45
459.41	16637.53
459.616	15435.37
459.821	15474.28
460.027	15470.19
460.233	15382.12
460.438	14390.91
460.644	14642.81
460.85	13917.82
461.055	13522.57
461.261	13631.11
461.466	12705.43
461.672	12132
461.878	13278.86
462.083	12058.27
462.289	12052.13
462.494	11806.37
462.7	11484.84
462.905	11116.2
463.111	11419.3
463.316	11579.04
463.522	11280.04
463.727	11337.38
463.932	11169.45
464.138	11167.4
464.343	11290.28
464.549	10884.78
464.754	11288.23
464.959	11073.2
465.165	11124.4
465.37	10641.07
465.575	10426.04
465.781	10892.98
465.986	10878.64
466.191	10471.09
466.397	10258.1
466.602	9649.86
