Data from USB4F104151__39__12-58-59-006.txt Node

Date: Fri Mar 14 12:58:59 EDT 2025
User: louis
Spectrometer: USB4F10415
Trigger mode: 4
Integration Time (sec): 1.000000E-2
Scans to average: 1
Electric dark correction enabled: true
Nonlinearity correction enabled: false
Boxcar width: 0
XAxis mode: Wavelengths
Number of Pixels in Spectrum: 3648
>>>>>Begin Spectral Data<<<<<
178.204	-2.39
178.424	-2.39
178.644	-2.39
178.864	-26.96
179.084	16.04
179.304	30.38
179.524	1.71
179.744	32.43
179.964	-37.2
180.184	50.86
180.404	61.1
180.624	-33.11
180.844	-63.83
181.064	5.8
181.283	-24.92
181.503	-37.2
181.723	13.99
181.943	-24.92
182.163	75.43
182.383	85.67
182.602	36.52
182.822	-26.96
183.042	40.62
183.262	61.1
183.482	16.04
183.701	20.14
183.921	-22.87
184.141	28.33
184.361	-6.49
184.58	-18.77
184.8	-24.92
185.02	40.62
185.239	34.47
185.459	46.76
185.679	11.95
185.898	-43.35
186.118	63.15
186.338	40.62
186.557	126.63
186.777	7.85
186.997	11.95
187.216	-0.34
187.436	-0.34
187.655	22.19
187.875	71.34
188.095	34.47
188.314	-20.82
188.534	22.19
188.753	67.24
188.973	-4.44
189.192	75.43
189.412	-2.39
189.631	59.05
189.851	24.23
190.07	44.71
190.29	87.72
190.509	71.34
190.729	-18.77
190.948	65.19
191.168	71.34
191.387	-22.87
191.607	-0.34
191.826	11.95
192.045	16.04
192.265	48.81
192.484	-84.31
192.704	50.86
192.923	-18.77
193.142	9.9
193.362	57
193.581	48.81
193.8	-10.58
194.02	28.33
194.239	11.95
194.458	-43.35
194.678	46.76
194.897	46.76
195.116	-84.31
195.335	16.04
195.555	85.67
195.774	122.54
195.993	-29.01
196.212	61.1
196.432	22.19
196.651	-4.44
196.87	50.86
197.089	48.81
197.308	100.01
197.528	-4.44
197.747	48.81
197.966	91.82
198.185	24.23
198.404	54.95
198.623	36.52
198.842	34.47
199.062	48.81
199.281	-4.44
199.5	32.43
199.719	-16.73
199.938	48.81
200.157	-4.44
200.376	22.19
200.595	26.28
200.814	9.9
201.033	-4.44
201.252	-6.49
201.471	20.14
201.69	-18.77
201.909	67.24
202.128	34.47
202.347	22.19
202.566	-26.96
202.785	120.49
203.004	42.67
203.223	63.15
203.442	22.19
203.661	-16.73
203.879	50.86
204.098	30.38
204.317	102.06
204.536	91.82
204.755	-4.44
204.974	102.06
205.193	24.23
205.411	36.52
205.63	22.19
205.849	-59.73
206.068	-14.68
206.287	34.47
206.505	61.1
206.724	-16.73
206.943	-39.25
207.162	5.8
207.381	44.71
207.599	11.95
207.818	32.43
208.037	36.52
208.255	28.33
208.474	16.04
208.693	13.99
208.911	-20.82
209.13	44.71
209.349	11.95
209.567	13.99
209.786	59.05
210.005	79.53
210.223	16.04
210.442	-57.68
210.661	11.95
210.879	20.14
211.098	24.23
211.316	-22.87
211.535	-12.63
211.753	50.86
211.972	71.34
212.191	63.15
212.409	36.52
212.628	-0.34
212.846	28.33
213.065	54.95
213.283	61.1
213.502	-22.87
213.72	11.95
213.938	77.48
214.157	-4.44
214.375	-41.3
214.594	71.34
214.812	-51.54
215.031	-35.16
215.249	28.33
215.467	5.8
215.686	36.52
215.904	61.1
216.122	28.33
216.341	36.52
216.559	40.62
216.778	1.71
216.996	36.52
217.214	11.95
217.432	-43.35
217.651	-49.49
217.869	54.95
218.087	-16.73
218.306	13.99
218.524	-8.53
218.742	5.8
218.96	110.25
219.179	13.99
219.397	1.71
219.615	48.81
219.833	5.8
220.051	118.44
220.27	26.28
220.488	1.71
220.706	81.58
220.924	52.91
221.142	71.34
221.36	-2.39
221.578	57
221.796	3.75
222.015	-10.58
222.233	95.91
222.451	128.68
222.669	57
222.887	44.71
223.105	65.19
223.323	-18.77
223.541	18.09
223.759	-29.01
223.977	83.63
224.195	91.82
224.413	77.48
224.631	69.29
224.849	63.15
225.067	48.81
225.285	-20.82
225.503	61.1
225.721	22.19
225.939	-10.58
226.157	-8.53
226.375	48.81
226.592	-31.06
226.81	44.71
227.028	28.33
227.246	-24.92
227.464	-49.49
227.682	3.75
227.9	3.75
228.117	-29.01
228.335	22.19
228.553	38.57
228.771	-45.4
228.989	20.14
229.206	44.71
229.424	28.33
229.642	38.57
229.86	-31.06
230.077	-20.82
230.295	34.47
230.513	28.33
230.731	85.67
230.948	-18.77
231.166	46.76
231.384	26.28
231.601	-51.54
231.819	69.29
232.037	79.53
232.254	-12.63
232.472	24.23
232.689	46.76
232.907	69.29
233.125	13.99
233.342	40.62
233.56	-18.77
233.777	-43.35
233.995	69.29
234.213	26.28
234.43	-4.44
234.648	24.23
234.865	-16.73
235.083	77.48
235.3	16.04
235.518	-8.53
235.735	91.82
235.953	-0.34
236.17	40.62
236.388	44.71
236.605	61.1
236.822	28.33
237.04	24.23
237.257	54.95
237.475	-26.96
237.692	57
237.909	40.62
238.127	-8.53
238.344	54.95
238.562	-18.77
238.779	-8.53
238.996	9.9
239.214	-94.55
239.431	120.49
239.648	7.85
239.865	16.04
240.083	73.39
240.3	11.95
240.517	-35.16
240.735	61.1
240.952	116.39
241.169	-39.25
241.386	67.24
241.603	-14.68
241.821	-76.12
242.038	36.52
242.255	11.95
242.472	13.99
242.689	40.62
242.907	22.19
243.124	11.95
243.341	44.71
243.558	20.14
243.775	-12.63
243.992	50.86
244.209	81.58
244.426	65.19
244.643	85.67
244.86	38.57
245.078	22.19
245.295	28.33
245.512	63.15
245.729	34.47
245.946	40.62
246.163	42.67
246.38	-4.44
246.597	-22.87
246.814	28.33
247.031	26.28
247.248	20.14
247.464	52.91
247.681	32.43
247.898	16.04
248.115	73.39
248.332	-0.34
248.549	-0.34
248.766	-10.58
248.983	-4.44
249.2	32.43
249.417	-41.3
249.633	50.86
249.85	63.15
250.067	5.8
250.284	11.95
250.501	50.86
250.717	16.04
250.934	26.28
251.151	40.62
251.368	5.8
251.585	-12.63
251.801	73.39
252.018	-45.4
252.235	95.91
252.451	20.14
252.668	-26.96
252.885	-57.68
253.102	-4.44
253.318	54.95
253.535	30.38
253.752	-33.11
253.968	1.71
254.185	-14.68
254.401	-14.68
254.618	-33.11
254.835	-6.49
255.051	73.39
255.268	30.38
255.484	54.95
255.701	-47.44
255.917	-18.77
256.134	-53.59
256.351	32.43
256.567	5.8
256.784	22.19
257	95.91
257.217	50.86
257.433	48.81
257.65	95.91
257.866	69.29
258.082	-16.73
258.299	11.95
258.515	22.19
258.732	-10.58
258.948	-2.39
259.165	5.8
259.381	-0.34
259.597	24.23
259.814	28.33
260.03	77.48
260.246	18.09
260.463	71.34
260.679	67.24
260.895	30.38
261.112	48.81
261.328	-0.34
261.544	136.87
261.761	120.49
261.977	52.91
262.193	-8.53
262.409	3.75
262.626	18.09
262.842	52.91
263.058	9.9
263.274	61.1
263.49	75.43
263.707	3.75
263.923	13.99
264.139	3.75
264.355	-20.82
264.571	59.05
264.787	7.85
265.004	9.9
265.22	126.63
265.436	44.71
265.652	-2.39
265.868	11.95
266.084	22.19
266.3	61.1
266.516	9.9
266.732	44.71
266.948	36.52
267.164	52.91
267.38	67.24
267.596	81.58
267.812	50.86
268.028	52.91
268.244	34.47
268.46	-20.82
268.676	38.57
268.892	-0.34
269.108	-24.92
269.324	87.72
269.54	32.43
269.756	7.85
269.972	32.43
270.188	20.14
270.403	-12.63
270.619	5.8
270.835	26.28
271.051	30.38
271.267	57
271.483	36.52
271.698	-84.31
271.914	24.23
272.13	-2.39
272.346	-18.77
272.562	-16.73
272.777	-8.53
272.993	30.38
273.209	-45.4
273.425	-6.49
273.64	5.8
273.856	32.43
274.072	61.1
274.287	-16.73
274.503	40.62
274.719	36.52
274.934	16.04
275.15	-57.68
275.366	63.15
275.581	16.04
275.797	34.47
276.012	-20.82
276.228	50.86
276.444	106.15
276.659	65.19
276.875	3.75
277.09	71.34
277.306	26.28
277.521	81.58
277.737	71.34
277.952	59.05
278.168	-31.06
278.383	57
278.599	9.9
278.814	34.47
279.03	26.28
279.245	42.67
279.461	-45.4
279.676	-20.82
279.892	20.14
280.107	11.95
280.322	11.95
280.538	73.39
280.753	48.81
280.969	79.53
281.184	22.19
281.399	77.48
281.615	-26.96
281.83	-18.77
282.045	36.52
282.26	-43.35
282.476	-16.73
282.691	71.34
282.906	-47.44
283.122	24.23
283.337	-2.39
283.552	30.38
283.767	-20.82
283.983	24.23
284.198	75.43
284.413	65.19
284.628	-49.49
284.843	38.57
285.058	61.1
285.274	44.71
285.489	36.52
285.704	93.87
285.919	16.04
286.134	77.48
286.349	50.86
286.564	11.95
286.779	100.01
286.995	48.81
287.21	5.8
287.425	77.48
287.64	-2.39
287.855	-41.3
288.07	44.71
288.285	5.8
288.5	13.99
288.715	-14.68
288.93	52.91
289.145	-22.87
289.36	97.96
289.575	95.91
289.79	18.09
290.004	20.14
290.219	85.67
290.434	57
290.649	-8.53
290.864	57
291.079	3.75
291.294	-35.16
291.509	-12.63
291.724	73.39
291.938	-0.34
292.153	-31.06
292.368	-0.34
292.583	77.48
292.798	34.47
293.012	30.38
293.227	18.09
293.442	-47.44
293.657	52.91
293.871	30.38
294.086	52.91
294.301	-33.11
294.516	67.24
294.73	-26.96
294.945	-16.73
295.16	3.75
295.374	87.72
295.589	7.85
295.804	46.76
296.018	-51.54
296.233	-10.58
296.447	20.14
296.662	77.48
296.877	69.29
297.091	22.19
297.306	22.19
297.52	3.75
297.735	38.57
297.949	-12.63
298.164	40.62
298.378	18.09
298.593	-18.77
298.807	46.76
299.022	11.95
299.236	40.62
299.451	-18.77
299.665	13.99
299.88	52.91
300.094	40.62
300.309	9.9
300.523	50.86
300.737	13.99
300.952	50.86
301.166	38.57
301.381	46.76
301.595	44.71
301.809	106.15
302.024	-18.77
302.238	42.67
302.452	59.05
302.667	11.95
302.881	87.72
303.095	71.34
303.309	42.67
303.524	-69.97
303.738	-31.06
303.952	7.85
304.166	73.39
304.381	18.09
304.595	65.19
304.809	48.81
305.023	59.05
305.237	59.05
305.452	79.53
305.666	26.28
305.88	9.9
306.094	89.77
306.308	85.67
306.522	50.86
306.736	75.43
306.95	20.14
307.164	-8.53
307.379	67.24
307.593	26.28
307.807	-59.73
308.021	30.38
308.235	26.28
308.449	-43.35
308.663	52.91
308.877	85.67
309.091	77.48
309.305	20.14
309.519	46.76
309.733	-65.88
309.947	-8.53
310.161	36.52
310.374	63.15
310.588	71.34
310.802	-4.44
311.016	1.71
311.23	18.09
311.444	38.57
311.658	30.38
311.872	44.71
312.085	48.81
312.299	34.47
312.513	-0.34
312.727	-6.49
312.941	5.8
313.154	36.52
313.368	32.43
313.582	32.43
313.796	83.63
314.009	-0.34
314.223	73.39
314.437	-14.68
314.651	-12.63
314.864	61.1
315.078	-51.54
315.292	83.63
315.505	40.62
315.719	44.71
315.933	13.99
316.146	63.15
316.36	38.57
316.573	20.14
316.787	34.47
317.001	38.57
317.214	38.57
317.428	1.71
317.641	-22.87
317.855	67.24
318.068	59.05
318.282	91.82
318.495	40.62
318.709	-2.39
318.922	63.15
319.136	97.96
319.349	108.2
319.563	36.52
319.776	3.75
319.99	52.91
320.203	-39.25
320.417	28.33
320.63	46.76
320.843	102.06
321.057	26.28
321.27	20.14
321.483	36.52
321.697	79.53
321.91	9.9
322.124	40.62
322.337	59.05
322.55	11.95
322.763	69.29
322.977	-10.58
323.19	75.43
323.403	-18.77
323.617	26.28
323.83	-35.16
324.043	22.19
324.256	71.34
324.469	-10.58
324.683	69.29
324.896	52.91
325.109	-29.01
325.322	24.23
325.535	59.05
325.748	81.58
325.962	59.05
326.175	28.33
326.388	71.34
326.601	44.71
326.814	71.34
327.027	-24.92
327.24	126.63
327.453	-65.88
327.666	71.34
327.879	69.29
328.092	61.1
328.305	57
328.518	-6.49
328.731	-0.34
328.944	85.67
329.157	-6.49
329.37	36.52
329.583	57
329.796	71.34
330.009	-14.68
330.222	-0.34
330.435	32.43
330.648	13.99
330.861	61.1
331.073	54.95
331.286	-18.77
331.499	-31.06
331.712	20.14
331.925	30.38
332.138	69.29
332.35	69.29
332.563	-18.77
332.776	3.75
332.989	1.71
333.202	38.57
333.414	-35.16
333.627	-12.63
333.84	48.81
334.053	1.71
334.265	26.28
334.478	71.34
334.691	112.3
334.903	24.23
335.116	34.47
335.329	95.91
335.541	104.11
335.754	9.9
335.966	34.47
336.179	28.33
336.392	32.43
336.604	28.33
336.817	13.99
337.029	48.81
337.242	83.63
337.454	28.33
337.667	30.38
337.88	-49.49
338.092	22.19
338.305	-33.11
338.517	-29.01
338.729	50.86
338.942	110.25
339.154	54.95
339.367	22.19
339.579	85.67
339.792	97.96
340.004	20.14
340.217	52.91
340.429	11.95
340.641	-10.58
340.854	34.47
341.066	-4.44
341.278	93.87
341.491	7.85
341.703	42.67
341.915	3.75
342.128	57
342.34	79.53
342.552	-2.39
342.764	-10.58
342.977	36.52
343.189	-8.53
343.401	77.48
343.613	-43.35
343.826	11.95
344.038	73.39
344.25	3.75
344.462	13.99
344.674	52.91
344.886	46.76
345.099	54.95
345.311	71.34
345.523	59.05
345.735	63.15
345.947	-8.53
346.159	104.11
346.371	95.91
346.583	63.15
346.795	67.24
347.007	5.8
347.219	11.95
347.431	11.95
347.643	46.76
347.855	50.86
348.067	26.28
348.279	-8.53
348.491	34.47
348.703	91.82
348.915	-10.58
349.127	5.8
349.339	20.14
349.551	-4.44
349.763	46.76
349.975	7.85
350.187	16.04
350.399	36.52
350.61	50.86
350.822	48.81
351.034	77.48
351.246	38.57
351.458	36.52
351.669	-16.73
351.881	38.57
352.093	22.19
352.305	54.95
352.517	40.62
352.728	63.15
352.94	44.71
353.152	52.91
353.363	16.04
353.575	54.95
353.787	13.99
353.999	77.48
354.21	-0.34
354.422	28.33
354.633	26.28
354.845	34.47
355.057	112.3
355.268	-37.2
355.48	16.04
355.692	-22.87
355.903	42.67
356.115	20.14
356.326	46.76
356.538	46.76
356.749	77.48
356.961	65.19
357.172	28.33
357.384	50.86
357.595	83.63
357.807	91.82
358.018	-26.96
358.23	46.76
358.441	-12.63
358.653	75.43
358.864	20.14
359.075	46.76
359.287	-39.25
359.498	38.57
359.709	65.19
359.921	44.71
360.132	34.47
360.344	26.28
360.555	54.95
360.766	44.71
360.977	32.43
361.189	40.62
361.4	16.04
361.611	106.15
361.823	87.72
362.034	38.57
362.245	16.04
362.456	34.47
362.667	-45.4
362.879	77.48
363.09	32.43
363.301	44.71
363.512	-8.53
363.723	11.95
363.935	9.9
364.146	-12.63
364.357	61.1
364.568	54.95
364.779	11.95
364.99	20.14
365.201	-4.44
365.412	32.43
365.623	20.14
365.834	13.99
366.045	50.86
366.256	-2.39
366.467	-0.34
366.678	24.23
366.889	-10.58
367.1	-6.49
367.311	73.39
367.522	1.71
367.733	-14.68
367.944	79.53
368.155	-18.77
368.366	-2.39
368.577	36.52
368.788	75.43
368.999	-76.12
369.209	81.58
369.42	20.14
369.631	71.34
369.842	-4.44
370.053	16.04
370.264	69.29
370.474	18.09
370.685	-0.34
370.896	65.19
371.107	28.33
371.317	11.95
371.528	13.99
371.739	9.9
371.95	5.8
372.16	-14.68
372.371	38.57
372.582	28.33
372.792	81.58
373.003	-2.39
373.214	67.24
373.424	9.9
373.635	3.75
373.846	93.87
374.056	13.99
374.267	97.96
374.477	100.01
374.688	38.57
374.898	-29.01
375.109	11.95
375.319	20.14
375.53	77.48
375.74	3.75
375.951	85.67
376.161	61.1
376.372	16.04
376.582	65.19
376.793	65.19
377.003	28.33
377.214	50.86
377.424	77.48
377.635	-24.92
377.845	95.91
378.055	91.82
378.266	20.14
378.476	63.15
378.686	9.9
378.897	26.28
379.107	18.09
379.317	7.85
379.528	18.09
379.738	104.11
379.948	54.95
380.158	24.23
380.369	52.91
380.579	20.14
380.789	32.43
380.999	18.09
381.21	26.28
381.42	42.67
381.63	38.57
381.84	-6.49
382.05	28.33
382.261	75.43
382.471	24.23
382.681	28.33
382.891	87.72
383.101	40.62
383.311	22.19
383.521	75.43
383.731	61.1
383.941	48.81
384.151	-18.77
384.361	138.92
384.571	77.48
384.781	83.63
384.991	3.75
385.201	48.81
385.411	95.91
385.621	34.47
385.831	71.34
386.041	85.67
386.251	38.57
386.461	67.24
386.671	5.8
386.881	-12.63
387.091	65.19
387.301	63.15
387.511	9.9
387.72	54.95
387.93	44.71
388.14	-29.01
388.35	71.34
388.56	52.91
388.769	61.1
388.979	93.87
389.189	40.62
389.399	1.71
389.609	5.8
389.818	42.67
390.028	69.29
390.238	145.06
390.447	-33.11
390.657	36.52
390.867	46.76
391.076	61.1
391.286	28.33
391.496	54.95
391.705	5.8
391.915	73.39
392.125	-43.35
392.334	63.15
392.544	32.43
392.753	-18.77
392.963	13.99
393.172	34.47
393.382	34.47
393.591	97.96
393.801	71.34
394.01	112.3
394.22	-8.53
394.429	-4.44
394.639	52.91
394.848	85.67
395.058	46.76
395.267	22.19
395.477	30.38
395.686	136.87
395.895	3.75
396.105	120.49
396.314	40.62
396.524	106.15
396.733	36.52
396.942	130.73
397.152	59.05
397.361	79.53
397.57	-4.44
397.78	100.01
397.989	134.82
398.198	34.47
398.407	24.23
398.617	63.15
398.826	71.34
399.035	20.14
399.244	44.71
399.453	48.81
399.663	71.34
399.872	114.34
400.081	48.81
400.29	61.1
400.499	104.11
400.708	52.91
400.917	69.29
401.127	30.38
401.336	71.34
401.545	69.29
401.754	57
401.963	69.29
402.172	44.71
402.381	110.25
402.59	73.39
402.799	118.44
403.008	118.44
403.217	104.11
403.426	73.39
403.635	112.3
403.844	44.71
404.053	114.34
404.262	93.87
404.471	87.72
404.68	106.15
404.888	89.77
405.097	65.19
405.306	81.58
405.515	149.16
405.724	155.3
405.933	20.14
406.142	151.21
406.35	147.11
406.559	110.25
406.768	147.11
406.977	112.3
407.185	69.29
407.394	61.1
407.603	116.39
407.812	145.06
408.02	149.16
408.229	163.5
408.438	134.82
408.646	69.29
408.855	134.82
409.064	175.78
409.272	134.82
409.481	210.6
409.69	128.68
409.898	140.97
410.107	192.17
410.315	198.31
410.524	186.02
410.733	196.26
410.941	169.64
411.15	153.26
411.358	253.61
411.567	208.55
411.775	171.69
411.984	229.03
412.192	241.32
412.401	220.84
412.609	286.37
412.818	226.98
413.026	278.18
413.234	218.79
413.443	241.32
413.651	306.85
413.86	364.2
414.068	278.18
414.276	292.52
414.485	390.82
414.693	358.05
414.901	333.48
415.11	405.16
415.318	456.36
415.526	327.33
415.734	401.06
415.943	366.25
416.151	407.2
416.359	384.68
416.567	462.5
416.776	538.27
416.984	517.79
417.192	470.69
417.4	503.46
417.608	458.4
417.817	595.62
418.025	540.32
418.233	659.1
418.441	618.15
418.649	622.24
418.857	612
419.065	612
419.273	630.43
419.481	710.3
419.689	728.74
419.897	765.6
420.105	749.22
420.313	781.98
420.521	796.32
420.729	829.09
420.937	890.53
421.145	798.37
421.353	939.68
421.561	1060.51
421.769	937.63
421.977	1033.88
422.185	1033.88
422.393	1070.75
422.601	1212.06
422.809	1216.15
423.017	1158.81
423.224	1304.21
423.432	1312.41
423.64	1277.59
423.848	1441.43
424.056	1418.9
424.263	1488.53
424.471	1488.53
424.679	1435.28
424.887	1595.03
425.094	1627.79
425.302	1642.13
425.51	1726.1
425.718	1812.11
425.925	1799.82
426.133	1863.31
426.341	1957.52
426.548	2043.53
426.756	1908.37
426.964	2059.92
427.171	2129.55
427.379	2274.95
427.586	2160.27
427.794	2328.2
428.001	2414.21
428.209	2502.28
428.417	2528.9
428.624	2555.52
428.832	2551.43
429.039	2512.52
429.247	2612.87
429.454	2840.19
429.662	3014.27
429.869	2741.89
430.076	3051.13
430.284	2967.17
430.491	3186.3
430.699	3182.2
430.906	3321.46
431.114	3239.55
431.321	3432.05
431.528	3610.23
431.736	3681.91
431.943	3966.57
432.15	3812.98
432.358	3968.62
432.565	3970.67
432.772	4025.97
432.979	4243.05
433.187	4404.84
433.394	4181.61
433.601	4542.05
433.808	4658.79
434.016	4576.87
434.223	4841.06
434.43	5199.45
434.637	4945.5
434.844	5269.08
435.052	5432.92
435.259	5299.8
435.466	5365.34
435.673	5467.74
435.88	5789.27
436.087	5938.77
436.294	6202.96
436.501	5934.67
436.708	6055.5
436.915	6166.09
437.122	6518.34
437.329	6336.07
437.537	6635.08
437.743	6778.44
437.95	6813.25
438.157	7196.22
438.364	7353.91
438.571	7347.77
438.778	7411.26
438.985	7951.92
439.192	7798.32
439.399	7841.33
439.606	7863.86
439.813	8199.73
440.02	8633.89
440.227	8721.96
440.433	8500.78
440.64	8934.95
440.847	8629.8
441.054	9145.89
441.261	9590.3
441.467	9477.66
441.674	9651.74
441.881	9987.6
442.088	9895.44
442.294	9926.16
442.501	10202.64
442.708	10413.58
442.914	10700.3
443.121	11111.94
443.328	10864.13
443.534	11685.37
443.741	11488.76
443.948	11322.88
444.154	12023.28
444.361	11703.8
444.568	12195.31
444.774	12074.48
444.981	12258.8
445.187	12856.81
445.394	13395.42
445.6	12948.97
445.807	14384.59
446.013	13745.62
446.22	13866.46
446.426	14458.32
446.633	14552.52
446.839	15160.77
447.046	14630.35
447.252	15355.33
447.459	15373.76
447.665	15103.43
447.871	16027.06
448.078	16623.02
448.284	16113.08
448.491	16373.17
448.697	16879.02
448.903	17104.29
449.11	17524.13
449.316	16881.07
449.522	17501.6
449.728	17976.73
449.935	18029.98
450.141	17958.3
450.347	18406.8
450.553	17831.32
450.76	18210.2
450.966	18937.23
451.172	18417.04
451.378	19328.39
451.584	18812.3
451.791	19328.39
451.997	19125.64
452.203	19340.68
452.409	19602.82
452.615	19576.19
452.821	18640.27
453.027	18597.26
453.233	19391.87
453.44	18666.89
453.646	18957.71
453.852	18937.23
454.058	19438.98
454.264	18836.88
454.47	19314.05
454.676	18754.96
454.882	19269
455.088	17698.2
455.294	17968.54
455.5	18185.62
455.705	18480.53
455.911	17808.79
456.117	17296.8
456.323	17100.2
456.529	16340.4
456.735	17042.85
456.941	16594.35
457.147	16162.23
457.352	15789.5
457.558	15513.02
457.764	15545.79
457.97	15324.61
458.176	14818.76
458.381	14816.71
458.587	14253.52
458.793	14429.65
458.999	13436.38
459.204	14548.43
459.41	14005.72
459.616	13088.23
459.821	13225.44
460.027	12981.73
460.233	12756.46
460.438	12049.91
460.644	12494.32
460.85	11841.01
461.055	11478.52
461.261	11486.72
461.466	10876.42
461.672	10503.69
461.878	11032.07
462.083	10296.85
462.289	10284.56
462.494	10108.43
462.7	9627.16
462.905	9471.51
463.111	9754.13
463.316	9713.17
463.522	9530.91
463.727	9823.76
463.932	9590.3
464.138	9473.56
464.343	9592.34
464.549	9115.17
464.754	9479.71
464.959	9489.95
465.165	9385.5
465.37	8855.08
465.575	8883.75
465.781	9160.22
465.986	9023.01
466.191	8963.62
466.397	8492.59
466.602	8238.64
466.807	8705.57
467.012	8586.79
467.218	8576.55
467.423	8459.82
467.628	8443.43
467.833	8850.98
468.038	8494.63
468.244	8214.06
468.449	8519.21
468.654	8236.59
468.859	8207.92
469.064	8300.08
469.269	7935.54
