Data from USB4F104151__78__12-59-42-402.txt Node

Date: Fri Mar 14 12:59:42 EDT 2025
User: louis
Spectrometer: USB4F10415
Trigger mode: 4
Integration Time (sec): 1.000000E-2
Scans to average: 1
Electric dark correction enabled: true
Nonlinearity correction enabled: false
Boxcar width: 0
XAxis mode: Wavelengths
Number of Pixels in Spectrum: 3648
>>>>>Begin Spectral Data<<<<<
178.204	-7.85
178.424	-7.85
178.644	-7.85
178.864	-93.87
179.084	-30.38
179.304	-28.33
179.524	-40.62
179.744	35.16
179.964	-30.38
180.184	39.25
180.404	22.87
180.624	-63.15
180.844	-20.14
181.064	76.12
181.283	-16.04
181.503	-1.71
181.723	26.96
181.943	100.69
182.163	-7.85
182.383	-20.14
182.602	63.83
182.822	14.68
183.042	18.77
183.262	8.53
183.482	2.39
183.701	-38.57
183.921	39.25
184.141	-3.75
184.361	-3.75
184.58	-57
184.8	29.01
185.02	6.49
185.239	76.12
185.459	-3.75
185.679	-26.28
185.898	-22.19
186.118	37.2
186.338	24.92
186.557	29.01
186.777	-71.34
186.997	59.73
187.216	-5.8
187.436	43.35
187.655	2.39
187.875	14.68
188.095	4.44
188.314	26.96
188.534	-30.38
188.753	37.2
188.973	26.96
189.192	45.4
189.412	-3.75
189.631	22.87
189.851	-44.71
190.07	37.2
190.29	-44.71
190.509	20.82
190.729	-22.19
190.948	55.64
191.168	22.87
191.387	51.54
191.607	41.3
191.826	-7.85
192.045	-42.67
192.265	35.16
192.484	2.39
192.704	24.92
192.923	10.58
193.142	61.78
193.362	8.53
193.581	-38.57
193.8	33.11
194.02	18.77
194.239	-30.38
194.458	20.82
194.678	10.58
194.897	-7.85
195.116	-48.81
195.335	-3.75
195.555	53.59
195.774	14.68
195.993	12.63
196.212	-24.23
196.432	-40.62
196.651	2.39
196.87	33.11
197.089	63.83
197.308	-38.57
197.528	31.06
197.747	67.92
197.966	10.58
198.185	0.34
198.404	-13.99
198.623	6.49
198.842	57.68
199.062	-3.75
199.281	10.58
199.5	18.77
199.719	-30.38
199.938	43.35
200.157	49.49
200.376	39.25
200.595	-5.8
200.814	74.07
201.033	37.2
201.252	55.64
201.471	-13.99
201.69	57.68
201.909	-32.43
202.128	8.53
202.347	18.77
202.566	31.06
202.785	14.68
203.004	-9.9
203.223	0.34
203.442	-5.8
203.661	-50.86
203.879	2.39
204.098	-7.85
204.317	8.53
204.536	26.96
204.755	94.55
204.974	45.4
205.193	-32.43
205.411	43.35
205.63	67.92
205.849	18.77
206.068	-11.95
206.287	-42.67
206.505	26.96
206.724	-11.95
206.943	-28.33
207.162	49.49
207.381	51.54
207.599	61.78
207.818	-34.47
208.037	82.26
208.255	90.45
208.474	-22.19
208.693	8.53
208.911	18.77
209.13	102.74
209.349	20.82
209.567	125.27
209.786	-30.38
210.005	12.63
210.223	8.53
210.442	35.16
210.661	-5.8
210.879	26.96
211.098	-9.9
211.316	78.16
211.535	53.59
211.753	-7.85
211.972	20.82
212.191	45.4
212.409	10.58
212.628	16.73
212.846	8.53
213.065	53.59
213.283	-1.71
213.502	-7.85
213.72	12.63
213.938	59.73
214.157	14.68
214.375	-13.99
214.594	-24.23
214.812	35.16
215.031	41.3
215.249	4.44
215.467	67.92
215.686	69.97
215.904	37.2
216.122	-13.99
216.341	20.82
216.559	43.35
216.778	78.16
216.996	-5.8
217.214	-36.52
217.432	43.35
217.651	-26.28
217.869	61.78
218.087	-40.62
218.306	2.39
218.524	12.63
218.742	-16.04
218.96	49.49
219.179	-38.57
219.397	12.63
219.615	-13.99
219.833	-54.95
220.051	-5.8
220.27	6.49
220.488	-5.8
220.706	53.59
220.924	8.53
221.142	45.4
221.36	2.39
221.578	47.44
221.796	-20.14
222.015	-24.23
222.233	-11.95
222.451	26.96
222.669	-40.62
222.887	35.16
223.105	8.53
223.323	-32.43
223.541	61.78
223.759	-16.04
223.977	84.31
224.195	8.53
224.413	-36.52
224.631	29.01
224.849	2.39
225.067	35.16
225.285	8.53
225.503	74.07
225.721	4.44
225.939	24.92
226.157	55.64
226.375	37.2
226.592	55.64
226.81	6.49
227.028	-26.28
227.246	29.01
227.464	-13.99
227.682	106.84
227.9	14.68
228.117	45.4
228.335	47.44
228.553	51.54
228.771	-9.9
228.989	67.92
229.206	57.68
229.424	49.49
229.642	-54.95
229.86	76.12
230.077	61.78
230.295	-9.9
230.513	-38.57
230.731	-46.76
230.948	47.44
231.166	67.92
231.384	-50.86
231.601	24.92
231.819	6.49
232.037	-3.75
232.254	26.96
232.472	0.34
232.689	-44.71
232.907	20.82
233.125	-18.09
233.342	-24.23
233.56	-71.34
233.777	20.82
233.995	6.49
234.213	-24.23
234.43	24.92
234.648	6.49
234.865	-112.3
235.083	18.77
235.3	37.2
235.518	35.16
235.735	45.4
235.953	43.35
236.17	-22.19
236.388	35.16
236.605	47.44
236.822	-48.81
237.04	-52.91
237.257	69.97
237.475	6.49
237.692	18.77
237.909	-16.04
238.127	-52.91
238.344	-91.82
238.562	4.44
238.779	14.68
238.996	-24.23
239.214	-22.19
239.431	14.68
239.648	51.54
239.865	33.11
240.083	-18.09
240.3	29.01
240.517	-44.71
240.735	6.49
240.952	-44.71
241.169	2.39
241.386	47.44
241.603	-20.14
241.821	16.73
242.038	33.11
242.255	12.63
242.472	16.73
242.689	20.82
242.907	31.06
243.124	-5.8
243.341	-9.9
243.558	26.96
243.775	33.11
243.992	2.39
244.209	29.01
244.426	47.44
244.643	53.59
244.86	-69.29
245.078	72.02
245.295	-40.62
245.512	53.59
245.729	-46.76
245.946	-11.95
246.163	45.4
246.38	-5.8
246.597	92.5
246.814	18.77
247.031	41.3
247.248	-22.19
247.464	-46.76
247.681	-1.71
247.898	-40.62
248.115	72.02
248.332	-26.28
248.549	-44.71
248.766	-36.52
248.983	63.83
249.2	8.53
249.417	6.49
249.633	55.64
249.85	41.3
250.067	29.01
250.284	35.16
250.501	14.68
250.717	2.39
250.934	18.77
251.151	10.58
251.368	-26.28
251.585	61.78
251.801	-5.8
252.018	-7.85
252.235	29.01
252.451	61.78
252.668	-13.99
252.885	-3.75
253.102	39.25
253.318	10.58
253.535	-85.67
253.752	45.4
253.968	-30.38
254.185	16.73
254.401	-52.91
254.618	-1.71
254.835	-22.19
255.051	24.92
255.268	80.21
255.484	29.01
255.701	-9.9
255.917	35.16
256.134	-9.9
256.351	8.53
256.567	26.96
256.784	29.01
257	10.58
257.217	-1.71
257.433	-61.1
257.65	-32.43
257.866	74.07
258.082	29.01
258.299	-42.67
258.515	10.58
258.732	-36.52
258.948	-7.85
259.165	-11.95
259.381	37.2
259.597	-20.14
259.814	4.44
260.03	33.11
260.246	20.82
260.463	20.82
260.679	20.82
260.895	37.2
261.112	80.21
261.328	-9.9
261.544	53.59
261.761	51.54
261.977	33.11
262.193	-44.71
262.409	37.2
262.626	55.64
262.842	10.58
263.058	4.44
263.274	6.49
263.49	-54.95
263.707	-1.71
263.923	20.82
264.139	0.34
264.355	20.82
264.571	33.11
264.787	14.68
265.004	43.35
265.22	10.58
265.436	26.96
265.652	-1.71
265.868	-44.71
266.084	20.82
266.3	55.64
266.516	-46.76
266.732	20.82
266.948	-1.71
267.164	20.82
267.38	16.73
267.596	69.97
267.812	47.44
268.028	2.39
268.244	-13.99
268.46	14.68
268.676	14.68
268.892	18.77
269.108	-36.52
269.324	6.49
269.54	-18.09
269.756	59.73
269.972	8.53
270.188	-46.76
270.403	22.87
270.619	-28.33
270.835	0.34
271.051	12.63
271.267	-5.8
271.483	49.49
271.698	14.68
271.914	8.53
272.13	-26.28
272.346	-3.75
272.562	39.25
272.777	-1.71
272.993	-36.52
273.209	-48.81
273.425	104.79
273.64	67.92
273.856	43.35
274.072	57.68
274.287	0.34
274.503	20.82
274.719	-44.71
274.934	0.34
275.15	31.06
275.366	-30.38
275.581	100.69
275.797	-11.95
276.012	39.25
276.228	-16.04
276.444	-28.33
276.659	94.55
276.875	8.53
277.09	59.73
277.306	2.39
277.521	22.87
277.737	-34.47
277.952	43.35
278.168	10.58
278.383	10.58
278.599	31.06
278.814	35.16
279.03	-36.52
279.245	-20.14
279.461	-30.38
279.676	-22.19
279.892	29.01
280.107	43.35
280.322	29.01
280.538	-13.99
280.753	74.07
280.969	29.01
281.184	22.87
281.399	-75.43
281.615	-42.67
281.83	37.2
282.045	-52.91
282.26	69.97
282.476	-18.09
282.691	-38.57
282.906	41.3
283.122	18.77
283.337	74.07
283.552	-5.8
283.767	-1.71
283.983	24.92
284.198	47.44
284.413	-87.72
284.628	-11.95
284.843	-18.09
285.058	20.82
285.274	16.73
285.489	63.83
285.704	-1.71
285.919	-13.99
286.134	-9.9
286.349	78.16
286.564	63.83
286.779	39.25
286.995	43.35
287.21	0.34
287.425	43.35
287.64	-3.75
287.855	53.59
288.07	90.45
288.285	61.78
288.5	37.2
288.715	63.83
288.93	-9.9
289.145	29.01
289.36	82.26
289.575	6.49
289.79	39.25
290.004	20.82
290.219	-13.99
290.434	-44.71
290.649	20.82
290.864	-20.14
291.079	-34.47
291.294	4.44
291.509	-59.05
291.724	49.49
291.938	45.4
292.153	26.96
292.368	59.73
292.583	43.35
292.798	6.49
293.012	-3.75
293.227	-5.8
293.442	-42.67
293.657	41.3
293.871	2.39
294.086	63.83
294.301	47.44
294.516	24.92
294.73	43.35
294.945	-38.57
295.16	20.82
295.374	14.68
295.589	37.2
295.804	18.77
296.018	22.87
296.233	-5.8
296.447	2.39
296.662	47.44
296.877	31.06
297.091	49.49
297.306	69.97
297.52	-46.76
297.735	-11.95
297.949	26.96
298.164	47.44
298.378	-9.9
298.593	6.49
298.807	51.54
299.022	26.96
299.236	8.53
299.451	43.35
299.665	47.44
299.88	86.36
300.094	29.01
300.309	-38.57
300.523	-30.38
300.737	8.53
300.952	-13.99
301.166	4.44
301.381	-67.24
301.595	29.01
301.809	-3.75
302.024	4.44
302.238	-24.23
302.452	16.73
302.667	37.2
302.881	47.44
303.095	47.44
303.309	29.01
303.524	26.96
303.738	63.83
303.952	18.77
304.166	20.82
304.381	22.87
304.595	16.73
304.809	16.73
305.023	35.16
305.237	16.73
305.452	6.49
305.666	39.25
305.88	43.35
306.094	24.92
306.308	-46.76
306.522	72.02
306.736	47.44
306.95	-32.43
307.164	2.39
307.379	22.87
307.593	-28.33
307.807	35.16
308.021	86.36
308.235	47.44
308.449	22.87
308.663	22.87
308.877	6.49
309.091	-18.09
309.305	8.53
309.519	-9.9
309.733	-9.9
309.947	6.49
310.161	16.73
310.374	45.4
310.588	29.01
310.802	-13.99
311.016	-20.14
311.23	51.54
311.444	-59.05
311.658	29.01
311.872	-22.19
312.085	0.34
312.299	41.3
312.513	2.39
312.727	-30.38
312.941	24.92
313.154	-28.33
313.368	61.78
313.582	-102.06
313.796	4.44
314.009	-7.85
314.223	16.73
314.437	26.96
314.651	24.92
314.864	4.44
315.078	-5.8
315.292	-1.71
315.505	6.49
315.719	43.35
315.933	-63.15
316.146	-57
316.36	-1.71
316.573	67.92
316.787	96.6
317.001	24.92
317.214	-18.09
317.428	10.58
317.641	-42.67
317.855	-32.43
318.068	-63.15
318.282	-5.8
318.495	31.06
318.709	14.68
318.922	20.82
319.136	43.35
319.349	-16.04
319.563	51.54
319.776	-40.62
319.99	88.4
320.203	16.73
320.417	-26.28
320.63	39.25
320.843	18.77
321.057	10.58
321.27	57.68
321.483	16.73
321.697	82.26
321.91	74.07
322.124	41.3
322.337	-13.99
322.55	12.63
322.763	69.97
322.977	20.82
323.19	-81.58
323.403	29.01
323.617	-34.47
323.83	18.77
324.043	-48.81
324.256	112.98
324.469	-3.75
324.683	24.92
324.896	51.54
325.109	-5.8
325.322	-46.76
325.535	43.35
325.748	72.02
325.962	12.63
326.175	59.73
326.388	16.73
326.601	-30.38
326.814	29.01
327.027	51.54
327.24	43.35
327.453	20.82
327.666	-52.91
327.879	14.68
328.092	47.44
328.305	12.63
328.518	65.88
328.731	-7.85
328.944	59.73
329.157	47.44
329.37	-34.47
329.583	20.82
329.796	35.16
330.009	-28.33
330.222	-22.19
330.435	106.84
330.648	6.49
330.861	14.68
331.073	26.96
331.286	80.21
331.499	43.35
331.712	14.68
331.925	16.73
332.138	16.73
332.35	59.73
332.563	26.96
332.776	-63.15
332.989	33.11
333.202	-13.99
333.414	-30.38
333.627	67.92
333.84	-1.71
334.053	41.3
334.265	-5.8
334.478	-24.23
334.691	88.4
334.903	-11.95
335.116	10.58
335.329	31.06
335.541	-38.57
335.754	65.88
335.966	-1.71
336.179	-1.71
336.392	10.58
336.604	10.58
336.817	37.2
337.029	4.44
337.242	35.16
337.454	67.92
337.667	35.16
337.88	59.73
338.092	65.88
338.305	45.4
338.517	-42.67
338.729	29.01
338.942	26.96
339.154	0.34
339.367	-24.23
339.579	29.01
339.792	12.63
340.004	-38.57
340.217	33.11
340.429	12.63
340.641	22.87
340.854	20.82
341.066	-7.85
341.278	100.69
341.491	57.68
341.703	43.35
341.915	-40.62
342.128	-22.19
342.34	20.82
342.552	31.06
342.764	14.68
342.977	29.01
343.189	-9.9
343.401	10.58
343.613	-13.99
343.826	-22.19
344.038	-18.09
344.25	-18.09
344.462	24.92
344.674	-30.38
344.886	-11.95
345.099	8.53
345.311	29.01
345.523	-36.52
345.735	4.44
345.947	-5.8
346.159	-26.28
346.371	80.21
346.583	55.64
346.795	51.54
347.007	35.16
347.219	-28.33
347.431	-38.57
347.643	12.63
347.855	-20.14
348.067	43.35
348.279	-18.09
348.491	53.59
348.703	61.78
348.915	12.63
349.127	16.73
349.339	-18.09
349.551	-3.75
349.763	100.69
349.975	12.63
350.187	-20.14
350.399	51.54
350.61	0.34
350.822	35.16
351.034	43.35
351.246	-54.95
351.458	22.87
351.669	-5.8
351.881	10.58
352.093	45.4
352.305	63.83
352.517	10.58
352.728	18.77
352.94	-5.8
353.152	43.35
353.363	18.77
353.575	43.35
353.787	-61.1
353.999	33.11
354.21	33.11
354.422	43.35
354.633	20.82
354.845	35.16
355.057	72.02
355.268	6.49
355.48	12.63
355.692	26.96
355.903	8.53
356.115	20.82
356.326	0.34
356.538	20.82
356.749	14.68
356.961	45.4
357.172	22.87
357.384	45.4
357.595	0.34
357.807	22.87
358.018	51.54
358.23	-34.47
358.441	41.3
358.653	29.01
358.864	24.92
359.075	12.63
359.287	-1.71
359.498	35.16
359.709	18.77
359.921	12.63
360.132	-1.71
360.344	-50.86
360.555	-57
360.766	39.25
360.977	10.58
361.189	-3.75
361.4	-36.52
361.611	88.4
361.823	-5.8
362.034	-3.75
362.245	-16.04
362.456	10.58
362.667	31.06
362.879	-18.09
363.09	20.82
363.301	92.5
363.512	-67.24
363.723	-36.52
363.935	35.16
364.146	41.3
364.357	26.96
364.568	18.77
364.779	6.49
364.99	55.64
365.201	-11.95
365.412	-24.23
365.623	-1.71
365.834	24.92
366.045	24.92
366.256	55.64
366.467	-79.53
366.678	-24.23
366.889	37.2
367.1	41.3
367.311	65.88
367.522	63.83
367.733	-26.28
367.944	69.97
368.155	63.83
368.366	29.01
368.577	-13.99
368.788	22.87
368.999	-20.14
369.209	-26.28
369.42	47.44
369.631	67.92
369.842	2.39
370.053	76.12
370.264	37.2
370.474	-5.8
370.685	45.4
370.896	-36.52
371.107	57.68
371.317	-13.99
371.528	35.16
371.739	119.12
371.95	-34.47
372.16	-20.14
372.371	-67.24
372.582	76.12
372.792	12.63
373.003	12.63
373.214	94.55
373.424	-20.14
373.635	-18.09
373.846	2.39
374.056	65.88
374.267	37.2
374.477	26.96
374.688	63.83
374.898	61.78
375.109	18.77
375.319	39.25
375.53	12.63
375.74	24.92
375.951	-20.14
376.161	14.68
376.372	-36.52
376.582	16.73
376.793	-22.19
377.003	67.92
377.214	59.73
377.424	57.68
377.635	-20.14
377.845	-5.8
378.055	14.68
378.266	-11.95
378.476	-5.8
378.686	2.39
378.897	26.96
379.107	-18.09
379.317	-13.99
379.528	31.06
379.738	51.54
379.948	-40.62
380.158	61.78
380.369	24.92
380.579	16.73
380.789	-30.38
380.999	43.35
381.21	-38.57
381.42	39.25
381.63	55.64
381.84	47.44
382.05	16.73
382.261	72.02
382.471	12.63
382.681	10.58
382.891	86.36
383.101	57.68
383.311	-42.67
383.521	-13.99
383.731	6.49
383.941	59.73
384.151	51.54
384.361	-32.43
384.571	41.3
384.781	10.58
384.991	-18.09
385.201	67.92
385.411	29.01
385.621	86.36
385.831	65.88
386.041	100.69
386.251	-11.95
386.461	10.58
386.671	-18.09
386.881	2.39
387.091	-18.09
387.301	-16.04
387.511	6.49
387.72	26.96
387.93	0.34
388.14	-42.67
388.35	51.54
388.56	-1.71
388.769	-22.19
388.979	43.35
389.189	16.73
389.399	-5.8
389.609	-5.8
389.818	24.92
390.028	31.06
390.238	43.35
390.447	37.2
390.657	8.53
390.867	14.68
391.076	-38.57
391.286	-59.05
391.496	35.16
391.705	10.58
391.915	-83.63
392.125	-7.85
392.334	119.12
392.544	10.58
392.753	-3.75
392.963	29.01
393.172	-20.14
393.382	-20.14
393.591	43.35
393.801	6.49
394.01	51.54
394.22	26.96
394.429	72.02
394.639	78.16
394.848	121.17
395.058	16.73
395.267	-7.85
395.477	-9.9
395.686	43.35
395.895	82.26
396.105	47.44
396.314	41.3
396.524	14.68
396.733	47.44
396.942	-57
397.152	76.12
397.361	35.16
397.57	14.68
397.78	78.16
397.989	39.25
398.198	98.64
398.407	2.39
398.617	18.77
398.826	6.49
399.035	51.54
399.244	92.5
399.453	16.73
399.663	53.59
399.872	12.63
400.081	45.4
400.29	33.11
400.499	35.16
400.708	47.44
400.917	12.63
401.127	6.49
401.336	69.97
401.545	125.27
401.754	72.02
401.963	78.16
402.172	-9.9
402.381	-3.75
402.59	22.87
402.799	61.78
403.008	92.5
403.217	-13.99
403.426	61.78
403.635	33.11
403.844	72.02
404.053	-11.95
404.262	35.16
404.471	88.4
404.68	51.54
404.888	37.2
405.097	6.49
405.306	104.79
405.515	59.73
405.724	22.87
405.933	14.68
406.142	158.03
406.35	72.02
406.559	76.12
406.768	84.31
406.977	72.02
407.185	59.73
407.394	35.16
407.603	74.07
407.812	65.88
408.02	65.88
408.229	18.77
408.438	26.96
408.646	63.83
408.855	102.74
409.064	65.88
409.272	110.93
409.481	41.3
409.69	18.77
409.898	59.73
410.107	133.46
410.315	219.47
410.524	16.73
410.733	78.16
410.941	45.4
411.15	104.79
411.358	80.21
411.567	160.08
411.775	115.03
411.984	67.92
412.192	104.79
412.401	104.79
412.609	151.89
412.818	160.08
413.026	182.61
413.234	129.36
413.443	192.85
413.651	155.99
413.86	196.95
414.068	198.99
414.276	168.27
414.485	239.95
414.693	201.04
414.901	147.8
415.11	198.99
415.318	203.09
415.526	198.99
415.734	282.96
415.943	158.03
416.151	301.39
416.359	239.95
416.567	246.1
416.776	254.29
416.984	332.11
417.192	342.35
417.4	274.77
417.608	248.15
417.817	250.19
418.025	307.54
418.233	338.26
418.441	352.59
418.649	366.93
418.857	381.26
419.065	389.46
419.273	354.64
419.481	391.5
419.689	401.74
419.897	395.6
420.105	461.13
420.313	469.33
420.521	545.1
420.729	438.61
420.937	522.57
421.145	604.49
421.353	563.53
421.561	545.1
421.769	586.06
421.977	596.3
422.185	575.82
422.393	616.78
422.601	678.22
422.809	678.22
423.017	655.69
423.224	696.65
423.432	692.55
423.64	774.47
423.848	731.47
424.056	698.7
424.263	786.76
424.471	846.15
424.679	915.78
424.887	926.02
425.094	944.45
425.302	969.03
425.51	1067.33
425.718	960.84
425.925	1007.94
426.133	1067.33
426.341	1116.48
426.548	1157.44
426.756	1175.88
426.964	1143.11
427.171	1268.03
427.379	1241.41
427.586	1263.94
427.794	1378.62
428.001	1411.39
428.209	1378.62
428.417	1448.26
428.624	1499.45
428.832	1599.8
429.039	1601.85
429.247	1491.26
429.454	1644.86
429.662	1689.92
429.869	1716.54
430.076	1728.83
430.284	1777.98
430.491	1734.97
430.699	1870.14
430.906	1921.34
431.114	1880.38
431.321	2062.65
431.528	2126.13
431.736	2111.8
431.943	2197.81
432.15	2103.61
432.358	2242.87
432.565	2371.89
432.772	2369.84
432.979	2447.66
433.187	2447.66
433.394	2498.86
433.601	2634.03
433.808	2662.7
434.016	2652.46
434.223	2777.39
434.43	2959.66
434.637	2906.41
434.844	3111.21
435.052	3098.92
435.259	3111.21
435.466	3123.49
435.673	3129.64
435.88	3248.42
436.087	3551.52
436.294	3420.45
436.501	3402.02
436.708	3481.89
436.915	3498.27
437.122	3737.88
437.329	3549.47
437.537	3844.38
437.743	3881.24
437.95	3787.04
438.157	4055.32
438.364	4184.34
438.571	4204.82
438.778	4268.31
438.985	4595.98
439.192	4462.87
439.399	4536.59
439.606	4479.25
439.813	4714.77
440.02	4933.9
440.227	4897.03
440.433	4800.78
440.64	4927.75
440.847	4892.94
441.054	5081.35
441.261	5562.62
441.467	5449.99
441.674	5482.75
441.881	5714.17
442.088	5603.58
442.294	5603.58
442.501	5794.04
442.708	6002.94
442.914	6080.76
443.121	6246.65
443.328	6279.41
443.534	6834.41
443.741	6744.3
443.948	6396.15
444.154	6822.13
444.361	7024.87
444.568	7090.41
444.774	7006.44
444.981	7053.55
445.187	7207.14
445.394	7647.46
445.6	7440.61
445.807	8181.98
446.013	7897.31
446.22	8009.95
446.426	8259.8
446.633	8300.76
446.839	8605.91
447.046	8374.49
447.252	8847.57
447.459	8816.85
447.665	8931.53
447.871	9029.84
448.078	9578.69
448.284	9296.07
448.491	9486.53
448.697	9660.61
448.903	10062.01
449.11	9922.75
449.316	9875.65
449.522	10111.16
449.728	10309.82
449.935	10328.25
450.141	10449.08
450.347	10748.08
450.553	10373.3
450.76	10678.45
450.966	10825.9
451.172	10770.61
451.378	10916.01
451.584	10944.69
451.791	11202.73
451.997	10991.79
452.203	11174.06
452.409	11346.09
452.615	11028.65
452.821	10668.21
453.027	10811.57
453.233	11143.34
453.44	11022.51
453.646	10897.58
453.852	10989.74
454.058	11176.11
454.264	10946.73
454.47	11133.1
454.676	10791.09
454.882	11446.44
455.088	10244.28
455.294	10412.21
455.5	10682.55
455.705	10608.82
455.911	10176.7
456.117	10098.88
456.323	9793.73
456.529	9414.85
456.735	9771.2
456.941	9494.72
457.147	9494.72
457.352	9085.13
457.558	9165
457.764	9169.1
457.97	8945.87
458.176	8575.19
458.381	8720.59
458.587	8280.28
458.793	8151.26
458.999	7895.26
459.204	8419.54
459.41	8276.18
459.616	7682.27
459.821	7577.83
460.027	7446.76
460.233	7360.74
460.438	7108.84
460.644	7217.38
460.85	6744.3
461.055	6748.4
461.261	6738.16
461.466	6172.92
461.672	6058.23
461.878	6428.92
462.083	5976.31
462.289	5912.83
462.494	5888.25
462.7	5597.44
462.905	5499.14
463.111	5669.12
463.316	5718.27
463.522	5581.06
463.727	5523.71
463.932	5695.74
464.138	5544.19
464.343	5601.54
464.549	5425.41
464.754	5634.3
464.959	5517.57
465.165	5527.81
465.37	5282.05
465.575	5056.78
465.781	5245.19
465.986	5345.54
466.191	5331.2
466.397	5132.55
466.602	4808.97
466.807	4915.47
467.012	4944.14
467.218	5062.92
467.423	4886.79
467.628	4923.66
467.833	5140.74
468.038	4954.38
468.244	4813.07
468.449	4882.7
468.654	4970.76
468.859	4702.48
469.064	4806.92
469.269	4690.19
469.474	4630.8
469.679	4835.6
469.885	4735.25
470.09	4555.02
