Data from USB4F104151__16__12-58-30-400.txt Node

Date: Fri Mar 14 12:58:30 EDT 2025
User: louis
Spectrometer: USB4F10415
Trigger mode: 4
Integration Time (sec): 1.000000E-2
Scans to average: 1
Electric dark correction enabled: true
Nonlinearity correction enabled: false
Boxcar width: 0
XAxis mode: Wavelengths
Number of Pixels in Spectrum: 3648
>>>>>Begin Spectral Data<<<<<
178.204	-10.07
178.424	-10.07
178.644	-10.07
178.864	-57.17
179.084	-91.99
179.304	14.51
179.524	4.27
179.744	-22.36
179.964	34.99
180.184	-14.17
180.404	-1.88
180.624	2.22
180.844	-10.07
181.064	39.08
181.283	-32.6
181.503	14.51
181.723	-28.5
181.943	-34.64
182.163	47.27
182.383	-57.17
182.602	-3.93
182.822	49.32
183.042	-73.56
183.262	-24.4
183.482	-20.31
183.701	71.85
183.921	92.33
184.141	84.14
184.361	12.46
184.58	8.36
184.8	24.75
185.02	-42.84
185.239	34.99
185.459	41.13
185.679	4.27
185.898	2.22
186.118	-26.45
186.338	8.36
186.557	39.08
186.777	0.17
186.997	-48.98
187.216	-36.69
187.436	12.46
187.655	-10.07
187.875	-10.07
188.095	-44.88
188.314	10.41
188.534	-34.64
188.753	-40.79
188.973	-26.45
189.192	8.36
189.412	-18.26
189.631	18.6
189.851	-8.02
190.07	39.08
190.29	-5.97
190.509	18.6
190.729	-28.5
190.948	92.33
191.168	-71.51
191.387	-24.4
191.607	-69.46
191.826	22.7
192.045	4.27
192.265	-1.88
192.484	12.46
192.704	32.94
192.923	2.22
193.142	30.89
193.362	-26.45
193.581	37.03
193.8	16.55
194.02	45.23
194.239	8.36
194.458	0.17
194.678	-32.6
194.897	-10.07
195.116	-8.02
195.335	-18.26
195.555	-5.97
195.774	57.51
195.993	37.03
196.212	30.89
196.432	-24.4
196.651	-28.5
196.87	-18.26
197.089	-53.08
197.308	16.55
197.528	-10.07
197.747	-1.88
197.966	-16.21
198.185	24.75
198.404	75.95
198.623	-20.31
198.842	6.31
199.062	-24.4
199.281	59.56
199.5	-30.55
199.719	16.55
199.938	24.75
200.157	12.46
200.376	-36.69
200.595	43.18
200.814	6.31
201.033	-59.22
201.252	-22.36
201.471	-16.21
201.69	51.37
201.909	71.85
202.128	32.94
202.347	-20.31
202.566	-38.74
202.785	10.41
203.004	-51.03
203.223	-73.56
203.442	39.08
203.661	-10.07
203.879	34.99
204.098	-8.02
204.317	18.6
204.536	6.31
204.755	59.56
204.974	90.28
205.193	14.51
205.411	92.33
205.63	6.31
205.849	8.36
206.068	-59.22
206.287	-8.02
206.505	-26.45
206.724	22.7
206.943	-75.6
207.162	-18.26
207.381	-104.28
207.599	-32.6
207.818	26.79
208.037	-44.88
208.255	-55.12
208.474	22.7
208.693	55.47
208.911	-53.08
209.13	39.08
209.349	84.14
209.567	34.99
209.786	22.7
210.005	-40.79
210.223	4.27
210.442	-34.64
210.661	-28.5
210.879	-30.55
211.098	12.46
211.316	-16.21
211.535	34.99
211.753	-20.31
211.972	22.7
212.191	-5.97
212.409	26.79
212.628	-38.74
212.846	-40.79
213.065	6.31
213.283	6.31
213.502	-32.6
213.72	34.99
213.938	-14.17
214.157	-20.31
214.375	-18.26
214.594	-46.93
214.812	26.79
215.031	-42.84
215.249	55.47
215.467	24.75
215.686	-53.08
215.904	-1.88
216.122	43.18
216.341	-12.12
216.559	20.65
216.778	-30.55
216.996	-44.88
217.214	2.22
217.432	22.7
217.651	6.31
217.869	6.31
218.087	-91.99
218.306	-20.31
218.524	90.28
218.742	8.36
218.96	-44.88
219.179	65.71
219.397	63.66
219.615	-32.6
219.833	94.38
220.051	-8.02
220.27	22.7
220.488	-8.02
220.706	-10.07
220.924	41.13
221.142	22.7
221.36	0.17
221.578	-34.64
221.796	-18.26
222.015	41.13
222.233	24.75
222.451	39.08
222.669	41.13
222.887	-46.93
223.105	-57.17
223.323	-40.79
223.541	34.99
223.759	0.17
223.977	41.13
224.195	26.79
224.413	-14.17
224.631	84.14
224.849	-14.17
225.067	8.36
225.285	106.67
225.503	34.99
225.721	30.89
225.939	-46.93
226.157	-22.36
226.375	30.89
226.592	22.7
226.81	-42.84
227.028	49.32
227.246	63.66
227.464	-46.93
227.682	28.84
227.9	22.7
228.117	24.75
228.335	75.95
228.553	-1.88
228.771	-3.93
228.989	49.32
229.206	30.89
229.424	37.03
229.642	10.41
229.86	71.85
230.077	32.94
230.295	-28.5
230.513	75.95
230.731	-8.02
230.948	-1.88
231.166	24.75
231.384	-14.17
231.601	-14.17
231.819	-30.55
232.037	67.75
232.254	39.08
232.472	47.27
232.689	-40.79
232.907	-34.64
233.125	80.04
233.342	69.8
233.56	53.42
233.777	28.84
233.995	-55.12
234.213	63.66
234.43	90.28
234.648	-12.12
234.865	-5.97
235.083	-22.36
235.3	-3.93
235.518	14.51
235.735	53.42
235.953	106.67
236.17	26.79
236.388	12.46
236.605	-51.03
236.822	-44.88
237.04	16.55
237.257	22.7
237.475	-8.02
237.692	28.84
237.909	-5.97
238.127	6.31
238.344	-10.07
238.562	47.27
238.779	0.17
238.996	88.23
239.214	-81.75
239.431	37.03
239.648	30.89
239.865	-3.93
240.083	14.51
240.3	-40.79
240.517	47.27
240.735	8.36
240.952	28.84
241.169	32.94
241.386	-16.21
241.603	-5.97
241.821	-26.45
242.038	0.17
242.255	-12.12
242.472	-42.84
242.689	8.36
242.907	47.27
243.124	-73.56
243.341	-24.4
243.558	10.41
243.775	-20.31
243.992	10.41
244.209	-42.84
244.426	-14.17
244.643	55.47
244.86	-57.17
245.078	47.27
245.295	-20.31
245.512	-1.88
245.729	-10.07
245.946	45.23
246.163	6.31
246.38	-36.69
246.597	16.55
246.814	8.36
247.031	57.51
247.248	73.9
247.464	12.46
247.681	-20.31
247.898	30.89
248.115	49.32
248.332	32.94
248.549	6.31
248.766	24.75
248.983	16.55
249.2	28.84
249.417	-14.17
249.633	24.75
249.85	41.13
250.067	47.27
250.284	39.08
250.501	-38.74
250.717	-3.93
250.934	59.56
251.151	10.41
251.368	-32.6
251.585	-18.26
251.801	14.51
252.018	49.32
252.235	57.51
252.451	-1.88
252.668	51.37
252.885	-1.88
253.102	-42.84
253.318	-38.74
253.535	2.22
253.752	80.04
253.968	47.27
254.185	6.31
254.401	-46.93
254.618	41.13
254.835	20.65
255.051	22.7
255.268	0.17
255.484	18.6
255.701	16.55
255.917	4.27
256.134	-1.88
256.351	10.41
256.567	-44.88
256.784	63.66
257	34.99
257.217	34.99
257.433	-53.08
257.65	49.32
257.866	8.36
258.082	39.08
258.299	67.75
258.515	-10.07
258.732	-10.07
258.948	24.75
259.165	-24.4
259.381	-55.12
259.597	39.08
259.814	100.52
260.03	-67.41
260.246	-42.84
260.463	82.09
260.679	-46.93
260.895	-24.4
261.112	-14.17
261.328	22.7
261.544	10.41
261.761	-18.26
261.977	16.55
262.193	-1.88
262.409	-16.21
262.626	-24.4
262.842	49.32
263.058	6.31
263.274	-10.07
263.49	12.46
263.707	8.36
263.923	-48.98
264.139	-57.17
264.355	37.03
264.571	86.19
264.787	41.13
265.004	6.31
265.22	-71.51
265.436	88.23
265.652	32.94
265.868	-28.5
266.084	-38.74
266.3	6.31
266.516	-51.03
266.732	22.7
266.948	24.75
267.164	-12.12
267.38	-3.93
267.596	65.71
267.812	14.51
268.028	30.89
268.244	41.13
268.46	39.08
268.676	-55.12
268.892	-12.12
269.108	-12.12
269.324	-73.56
269.54	26.79
269.756	51.37
269.972	-65.36
270.188	-1.88
270.403	-44.88
270.619	14.51
270.835	32.94
271.051	8.36
271.267	-1.88
271.483	-57.17
271.698	-89.94
271.914	47.27
272.13	-34.64
272.346	-3.93
272.562	-1.88
272.777	88.23
272.993	-32.6
273.209	-5.97
273.425	18.6
273.64	65.71
273.856	59.56
274.072	-24.4
274.287	20.65
274.503	45.23
274.719	-51.03
274.934	16.55
275.15	20.65
275.366	43.18
275.581	22.7
275.797	63.66
276.012	-65.36
276.228	37.03
276.444	2.22
276.659	84.14
276.875	18.6
277.09	-22.36
277.306	8.36
277.521	4.27
277.737	-12.12
277.952	-16.21
278.168	-34.64
278.383	-24.4
278.599	55.47
278.814	16.55
279.03	14.51
279.245	24.75
279.461	14.51
279.676	-48.98
279.892	4.27
280.107	-30.55
280.322	-81.75
280.538	43.18
280.753	0.17
280.969	-16.21
281.184	57.51
281.399	49.32
281.615	32.94
281.83	14.51
282.045	-40.79
282.26	61.61
282.476	-10.07
282.691	12.46
282.906	47.27
283.122	0.17
283.337	-18.26
283.552	-44.88
283.767	2.22
283.983	-48.98
284.198	-44.88
284.413	84.14
284.628	6.31
284.843	43.18
285.058	0.17
285.274	22.7
285.489	-1.88
285.704	57.51
285.919	24.75
286.134	-5.97
286.349	6.31
286.564	-3.93
286.779	41.13
286.995	55.47
287.21	22.7
287.425	-53.08
287.64	-22.36
287.855	18.6
288.07	-42.84
288.285	39.08
288.5	16.55
288.715	0.17
288.93	-5.97
289.145	14.51
289.36	34.99
289.575	51.37
289.79	-22.36
290.004	-16.21
290.219	20.65
290.434	-46.93
290.649	34.99
290.864	-38.74
291.079	28.84
291.294	90.28
291.509	69.8
291.724	-32.6
291.938	32.94
292.153	67.75
292.368	-32.6
292.583	14.51
292.798	14.51
293.012	24.75
293.227	-30.55
293.442	30.89
293.657	24.75
293.871	20.65
294.086	63.66
294.301	-10.07
294.516	39.08
294.73	47.27
294.945	-85.84
295.16	-18.26
295.374	34.99
295.589	-28.5
295.804	-30.55
296.018	-12.12
296.233	-44.88
296.447	2.22
296.662	41.13
296.877	-18.26
297.091	51.37
297.306	-34.64
297.52	-22.36
297.735	14.51
297.949	14.51
298.164	39.08
298.378	30.89
298.593	-12.12
298.807	-75.6
299.022	41.13
299.236	12.46
299.451	41.13
299.665	10.41
299.88	-34.64
300.094	47.27
300.309	20.65
300.523	47.27
300.737	12.46
300.952	32.94
301.166	28.84
301.381	-3.93
301.595	71.85
301.809	-22.36
302.024	-8.02
302.238	-22.36
302.452	14.51
302.667	39.08
302.881	24.75
303.095	-26.45
303.309	4.27
303.524	4.27
303.738	51.37
303.952	-57.17
304.166	-26.45
304.381	-1.88
304.595	-10.07
304.809	28.84
305.023	10.41
305.237	55.47
305.452	104.62
305.666	51.37
305.88	14.51
306.094	-42.84
306.308	34.99
306.522	32.94
306.736	39.08
306.95	-55.12
307.164	-5.97
307.379	-16.21
307.593	24.75
307.807	10.41
308.021	49.32
308.235	43.18
308.449	14.51
308.663	-14.17
308.877	26.79
309.091	67.75
309.305	14.51
309.519	108.71
309.733	41.13
309.947	18.6
310.161	-24.4
310.374	65.71
310.588	-40.79
310.802	-14.17
311.016	30.89
311.23	84.14
311.444	22.7
311.658	-3.93
311.872	8.36
312.085	10.41
312.299	49.32
312.513	32.94
312.727	108.71
312.941	131.24
313.154	-14.17
313.368	12.46
313.582	39.08
313.796	98.47
314.009	-40.79
314.223	59.56
314.437	-14.17
314.651	-28.5
314.864	-34.64
315.078	30.89
315.292	8.36
315.505	-5.97
315.719	59.56
315.933	4.27
316.146	34.99
316.36	0.17
316.573	82.09
316.787	37.03
317.001	2.22
317.214	6.31
317.428	55.47
317.641	-1.88
317.855	-42.84
318.068	10.41
318.282	43.18
318.495	-14.17
318.709	88.23
318.922	24.75
319.136	14.51
319.349	16.55
319.563	14.51
319.776	-8.02
319.99	20.65
320.203	-34.64
320.417	-5.97
320.63	-8.02
320.843	55.47
321.057	-20.31
321.27	39.08
321.483	-3.93
321.697	-14.17
321.91	-8.02
322.124	69.8
322.337	18.6
322.55	82.09
322.763	92.33
322.977	39.08
323.19	-51.03
323.403	-1.88
323.617	53.42
323.83	18.6
324.043	16.55
324.256	4.27
324.469	-30.55
324.683	6.31
324.896	6.31
325.109	69.8
325.322	18.6
325.535	-14.17
325.748	28.84
325.962	55.47
326.175	4.27
326.388	26.79
326.601	39.08
326.814	-1.88
327.027	-55.12
327.24	55.47
327.453	-8.02
327.666	41.13
327.879	34.99
328.092	67.75
328.305	-32.6
328.518	-38.74
328.731	30.89
328.944	41.13
329.157	20.65
329.37	41.13
329.583	8.36
329.796	88.23
330.009	18.6
330.222	49.32
330.435	20.65
330.648	-26.45
330.861	8.36
331.073	-16.21
331.286	137.38
331.499	102.57
331.712	12.46
331.925	57.51
332.138	8.36
332.35	24.75
332.563	6.31
332.776	30.89
332.989	6.31
333.202	45.23
333.414	10.41
333.627	8.36
333.84	-5.97
334.053	59.56
334.265	-30.55
334.478	20.65
334.691	16.55
334.903	6.31
335.116	-18.26
335.329	-12.12
335.541	-26.45
335.754	53.42
335.966	45.23
336.179	-20.31
336.392	47.27
336.604	12.46
336.817	22.7
337.029	-5.97
337.242	-5.97
337.454	104.62
337.667	-8.02
337.88	55.47
338.092	10.41
338.305	14.51
338.517	2.22
338.729	14.51
338.942	63.66
339.154	-22.36
339.367	2.22
339.579	20.65
339.792	8.36
340.004	14.51
340.217	30.89
340.429	-14.17
340.641	-32.6
340.854	-24.4
341.066	-26.45
341.278	53.42
341.491	55.47
341.703	-42.84
341.915	-8.02
342.128	61.61
342.34	26.79
342.552	32.94
342.764	43.18
342.977	63.66
343.189	49.32
343.401	-30.55
343.613	-3.93
343.826	-3.93
344.038	-14.17
344.25	51.37
344.462	28.84
344.674	59.56
344.886	67.75
345.099	61.61
345.311	63.66
345.523	39.08
345.735	-24.4
345.947	73.9
346.159	-42.84
346.371	-16.21
346.583	-69.46
346.795	-16.21
347.007	-18.26
347.219	20.65
347.431	-8.02
347.643	-5.97
347.855	22.7
348.067	16.55
348.279	-1.88
348.491	32.94
348.703	49.32
348.915	6.31
349.127	55.47
349.339	2.22
349.551	-1.88
349.763	53.42
349.975	-48.98
350.187	26.79
350.399	-46.93
350.61	-28.5
350.822	6.31
351.034	53.42
351.246	24.75
351.458	32.94
351.669	57.51
351.881	63.66
352.093	-36.69
352.305	114.86
352.517	-22.36
352.728	82.09
352.94	14.51
353.152	-48.98
353.363	12.46
353.575	2.22
353.787	77.99
353.999	135.34
354.21	-18.26
354.422	2.22
354.633	-8.02
354.845	-1.88
355.057	20.65
355.268	22.7
355.48	26.79
355.692	37.03
355.903	22.7
356.115	49.32
356.326	14.51
356.538	-22.36
356.749	24.75
356.961	112.81
357.172	6.31
357.384	-8.02
357.595	-22.36
357.807	43.18
358.018	98.47
358.23	6.31
358.441	12.46
358.653	16.55
358.864	20.65
359.075	47.27
359.287	-22.36
359.498	18.6
359.709	53.42
359.921	-3.93
360.132	20.65
360.344	82.09
360.555	57.51
360.766	8.36
360.977	28.84
361.189	80.04
361.4	90.28
361.611	10.41
361.823	-18.26
362.034	61.61
362.245	8.36
362.456	63.66
362.667	-42.84
362.879	0.17
363.09	51.37
363.301	2.22
363.512	32.94
363.723	22.7
363.935	-3.93
364.146	0.17
364.357	14.51
364.568	28.84
364.779	80.04
364.99	26.79
365.201	-5.97
365.412	80.04
365.623	-36.69
365.834	4.27
366.045	0.17
366.256	-71.51
366.467	98.47
366.678	34.99
366.889	-10.07
367.1	145.58
367.311	86.19
367.522	24.75
367.733	39.08
367.944	-55.12
368.155	-30.55
368.366	104.62
368.577	65.71
368.788	8.36
368.999	55.47
369.209	-26.45
369.42	47.27
369.631	94.38
369.842	14.51
370.053	61.61
370.264	75.95
370.474	-65.36
370.685	116.9
370.896	30.89
371.107	12.46
371.317	20.65
371.528	24.75
371.739	28.84
371.95	-57.17
372.16	0.17
372.371	-18.26
372.582	-14.17
372.792	45.23
373.003	18.6
373.214	18.6
373.424	-5.97
373.635	32.94
373.846	53.42
374.056	67.75
374.267	26.79
374.477	41.13
374.688	-12.12
374.898	-14.17
375.109	0.17
375.319	51.37
375.53	16.55
375.74	-28.5
375.951	4.27
376.161	34.99
376.372	22.7
376.582	14.51
376.793	20.65
377.003	37.03
377.214	55.47
377.424	-8.02
377.635	106.67
377.845	-18.26
378.055	63.66
378.266	37.03
378.476	49.32
378.686	-34.64
378.897	45.23
379.107	28.84
379.317	24.75
379.528	-3.93
379.738	4.27
379.948	39.08
380.158	-3.93
380.369	-3.93
380.579	73.9
380.789	8.36
380.999	26.79
381.21	24.75
381.42	22.7
381.63	-34.64
381.84	-5.97
382.05	71.85
382.261	32.94
382.471	6.31
382.681	10.41
382.891	82.09
383.101	39.08
383.311	63.66
383.521	55.47
383.731	18.6
383.941	47.27
384.151	-44.88
384.361	18.6
384.571	49.32
384.781	47.27
384.991	65.71
385.201	30.89
385.411	-16.21
385.621	4.27
385.831	63.66
386.041	24.75
386.251	-8.02
386.461	22.7
386.671	49.32
386.881	45.23
387.091	53.42
387.301	22.7
387.511	41.13
387.72	30.89
387.93	14.51
388.14	-51.03
388.35	61.61
388.56	-28.5
388.769	-28.5
388.979	10.41
389.189	84.14
389.399	32.94
389.609	32.94
389.818	22.7
390.028	-30.55
390.238	22.7
390.447	30.89
390.657	-5.97
390.867	-8.02
391.076	20.65
391.286	49.32
391.496	6.31
391.705	37.03
391.915	63.66
392.125	55.47
392.334	39.08
392.544	116.9
392.753	14.51
392.963	-14.17
393.172	-34.64
393.382	37.03
393.591	69.8
393.801	-3.93
394.01	94.38
394.22	24.75
394.429	-42.84
394.639	-3.93
394.848	63.66
395.058	106.67
395.267	41.13
395.477	82.09
395.686	41.13
395.895	24.75
396.105	112.81
396.314	41.13
396.524	51.37
396.733	6.31
396.942	37.03
397.152	55.47
397.361	73.9
397.57	45.23
397.78	47.27
397.989	37.03
398.198	86.19
398.407	26.79
398.617	65.71
398.826	51.37
399.035	39.08
399.244	84.14
399.453	6.31
399.663	90.28
399.872	45.23
400.081	37.03
400.29	82.09
400.499	6.31
400.708	26.79
400.917	34.99
401.127	28.84
401.336	73.9
401.545	59.56
401.754	30.89
401.963	131.24
402.172	123.05
402.381	-14.17
402.59	-14.17
402.799	26.79
403.008	59.56
403.217	104.62
403.426	-3.93
403.635	82.09
403.844	14.51
404.053	32.94
404.262	71.85
404.471	69.8
404.68	10.41
404.888	104.62
405.097	41.13
405.306	90.28
405.515	4.27
405.724	145.58
405.933	108.71
406.142	96.43
406.35	96.43
406.559	110.76
406.768	65.71
406.977	155.82
407.185	123.05
407.394	125.1
407.603	104.62
407.812	116.9
408.02	151.72
408.229	166.06
408.438	82.09
408.646	123.05
408.855	151.72
409.064	209.06
409.272	137.38
409.481	106.67
409.69	147.62
409.898	182.44
410.107	116.9
410.315	151.72
410.524	114.86
410.733	188.58
410.941	116.9
411.15	254.12
411.358	198.82
411.567	221.35
411.775	254.12
411.984	172.2
412.192	219.3
412.401	180.39
412.609	225.45
412.818	264.36
413.026	241.83
413.234	293.03
413.443	237.74
413.651	352.42
413.86	325.8
414.068	366.76
414.276	368.81
414.485	288.93
414.693	354.47
414.901	350.37
415.11	391.33
415.318	311.46
415.526	401.57
415.734	362.66
415.943	360.61
416.151	442.53
416.359	372.9
416.567	432.29
416.776	477.35
416.984	520.35
417.192	436.39
417.4	483.49
417.608	573.6
417.817	512.16
418.025	522.4
418.233	686.24
418.441	678.05
418.649	651.42
418.857	696.48
419.065	682.14
419.273	645.28
419.481	762.02
419.689	794.78
419.897	835.74
420.105	827.55
420.313	755.87
420.521	929.95
420.729	786.59
420.937	880.8
421.145	841.89
421.353	927.9
421.561	1040.54
421.769	1083.55
421.977	1022.11
422.185	1099.93
422.393	1077.4
422.601	1210.52
422.809	1220.76
423.017	1255.58
423.224	1231
423.432	1386.65
423.64	1362.07
423.848	1448.08
424.056	1456.28
424.263	1613.97
424.471	1513.62
424.679	1591.44
424.887	1587.35
425.094	1681.55
425.302	1833.1
425.51	1722.51
425.718	1880.21
425.925	1718.42
426.133	1888.4
426.341	1998.99
426.548	2044.04
426.756	2031.76
426.964	2017.42
427.171	2216.07
427.379	2283.66
427.586	2390.15
427.794	2341
428.001	2570.37
428.209	2721.92
428.417	2672.77
428.624	2662.53
428.832	2742.4
429.039	2670.72
429.247	2715.78
429.454	3092.6
429.662	3104.89
429.869	2898.05
430.076	3293.3
430.284	3127.42
430.491	3287.16
430.699	3504.25
430.906	3479.67
431.114	3442.81
431.321	3543.16
431.528	3752.05
431.736	4067.44
431.943	3967.09
432.15	4032.62
432.358	4034.67
432.565	4300.91
432.772	4196.46
432.979	4438.12
433.187	4534.37
433.394	4565.09
433.601	4935.78
433.808	4888.67
434.016	4810.85
434.223	5130.33
434.43	5353.56
434.637	5306.46
434.844	5478.49
435.052	5683.28
435.259	5613.65
435.466	5728.34
435.673	5531.73
435.88	5980.24
436.087	6426.7
436.294	6529.1
436.501	6205.52
436.708	6340.68
436.915	6510.66
437.122	6998.08
437.329	6957.12
437.537	7071.81
437.743	7319.61
437.95	7034.94
438.157	7508.02
438.364	7784.5
438.571	7575.61
438.778	7798.84
438.985	8493.1
439.192	7921.71
439.399	8116.27
439.606	8138.8
439.813	8788
440.02	9181.21
440.227	8962.08
440.433	8955.94
440.64	9297.95
440.847	9048.1
441.054	9355.29
441.261	9893.91
441.467	9920.53
441.674	10293.26
441.881	10606.6
442.088	10549.26
442.294	10356.75
442.501	10805.25
442.708	10864.64
442.914	11378.69
443.121	11868.15
443.328	11491.32
443.534	12228.59
443.741	12062.71
443.948	11880.44
444.154	12799.98
444.361	12564.46
444.568	12828.65
444.774	12746.73
444.981	12945.38
445.187	13250.53
445.394	13959.13
445.6	13711.32
445.807	15112.13
446.013	14311.38
446.22	14751.69
446.426	15114.18
446.633	15386.56
446.839	15763.39
447.046	15171.52
447.252	16056.25
447.459	16144.31
447.665	16211.89
447.871	16809.9
448.078	17690.52
448.284	16641.96
448.491	17026.98
448.697	17751.96
448.903	18085.78
449.11	18249.62
449.316	17713.05
449.522	18522
449.728	18743.18
449.935	18876.3
450.141	18861.96
450.347	19300.23
450.553	18876.3
450.76	19005.32
450.966	19812.22
451.172	19443.59
451.378	20109.18
451.584	19711.87
451.791	19900.28
451.997	19881.85
452.203	20559.73
452.409	20488.05
452.615	20195.19
452.821	19664.77
453.027	19382.15
453.233	20469.62
453.44	19910.52
453.646	19855.23
453.852	19996.54
454.058	20082.55
454.264	19437.44
454.47	19853.18
454.676	19896.19
454.882	20256.63
455.088	18503.57
455.294	18796.43
455.5	19081.1
455.705	19365.76
455.911	18481.04
456.117	17899.42
456.323	18046.87
456.529	17092.52
456.735	17758.11
456.941	17160.1
457.147	17106.85
457.352	16398.26
457.558	16406.45
457.764	16248.75
457.97	16076.73
458.176	15658.94
458.381	15634.36
458.587	15110.08
458.793	14893
458.999	14082
459.204	15036.36
459.41	14772.17
459.616	13795.29
459.821	13639.64
460.027	13729.75
460.233	13410.27
460.438	12992.48
460.644	12799.98
460.85	12310.51
461.055	12077.04
461.261	12029.94
461.466	11118.59
461.672	10752.01
461.878	11614.2
462.083	10756.1
462.289	10786.82
462.494	10506.25
462.7	10115.09
462.905	9789.46
463.111	10121.23
463.316	10326.03
463.522	9859.09
463.727	10047.51
463.932	9973.78
464.138	9850.9
464.343	9642.01
464.549	9594.9
464.754	9840.66
464.959	9943.06
465.165	9754.65
465.37	9388.06
465.575	9105.44
465.781	9508.89
465.986	9535.51
466.191	9084.96
466.397	9046.05
466.602	8491.05
466.807	9029.66
467.012	9019.43
467.218	8857.64
467.423	8812.58
467.628	9027.62
467.833	9291.8
468.038	8788
468.244	8767.52
