Data from USB4F104151__71__12-59-36-882.txt Node

Date: Fri Mar 14 12:59:36 EDT 2025
User: louis
Spectrometer: USB4F10415
Trigger mode: 4
Integration Time (sec): 1.000000E-2
Scans to average: 1
Electric dark correction enabled: true
Nonlinearity correction enabled: false
Boxcar width: 0
XAxis mode: Wavelengths
Number of Pixels in Spectrum: 3648
>>>>>Begin Spectral Data<<<<<
178.204	-79.36
178.424	-79.36
178.644	-79.36
178.864	-48.64
179.084	-44.54
179.304	25.09
179.524	6.66
179.744	39.42
179.964	-9.73
180.184	-71.17
180.404	49.66
180.624	4.61
180.844	-19.97
181.064	-38.4
181.283	74.24
181.503	-22.02
181.723	-38.4
181.943	-15.87
182.163	-5.63
182.383	43.52
182.602	45.57
182.822	-5.63
183.042	-19.97
183.262	-40.45
183.482	18.94
183.701	-28.16
183.921	-9.73
184.141	39.42
184.361	49.66
184.58	-26.11
184.8	78.33
185.02	14.85
185.239	27.14
185.459	-15.87
185.679	-30.21
185.898	-81.41
186.118	-24.06
186.338	10.75
186.557	14.85
186.777	-32.26
186.997	-54.78
187.216	16.9
187.436	6.66
187.655	18.94
187.875	-1.54
188.095	39.42
188.314	16.9
188.534	74.24
188.753	8.7
188.973	-5.63
189.192	10.75
189.412	-5.63
189.631	-15.87
189.851	23.04
190.07	98.81
190.29	-19.97
190.509	-48.64
190.729	33.28
190.948	115.2
191.168	4.61
191.387	100.86
191.607	-44.54
191.826	33.28
192.045	-5.63
192.265	27.14
192.484	20.99
192.704	-3.58
192.923	59.9
193.142	27.14
193.362	10.75
193.581	31.23
193.8	4.61
194.02	33.28
194.239	-46.59
194.458	51.71
194.678	-28.16
194.897	31.23
195.116	-67.07
195.335	-48.64
195.555	-17.92
195.774	4.61
195.993	33.28
196.212	10.75
196.432	-24.06
196.651	-22.02
196.87	-48.64
197.089	8.7
197.308	27.14
197.528	20.99
197.747	-77.31
197.966	-7.68
198.185	37.38
198.404	0.51
198.623	41.47
198.842	66.05
199.062	53.76
199.281	-11.78
199.5	-7.68
199.719	-9.73
199.938	53.76
200.157	16.9
200.376	82.43
200.595	43.52
200.814	-1.54
201.033	16.9
201.252	18.94
201.471	55.81
201.69	23.04
201.909	4.61
202.128	-3.58
202.347	84.48
202.566	-36.35
202.785	6.66
203.004	-19.97
203.223	20.99
203.442	53.76
203.661	-30.21
203.879	39.42
204.098	-24.06
204.317	8.7
204.536	61.95
204.755	-44.54
204.974	37.38
205.193	4.61
205.411	4.61
205.63	10.75
205.849	27.14
206.068	68.09
206.287	-48.64
206.505	-34.3
206.724	0.51
206.943	18.94
207.162	61.95
207.381	14.85
207.599	27.14
207.818	-5.63
208.037	-3.58
208.255	-1.54
208.474	23.04
208.693	-1.54
208.911	14.85
209.13	45.57
209.349	16.9
209.567	-40.45
209.786	-1.54
210.005	39.42
210.223	-34.3
210.442	10.75
210.661	76.29
210.879	-40.45
211.098	33.28
211.316	29.18
211.535	35.33
211.753	-67.07
211.972	8.7
212.191	55.81
212.409	10.75
212.628	-13.82
212.846	78.33
213.065	20.99
213.283	23.04
213.502	4.61
213.72	33.28
213.938	59.9
214.157	53.76
214.375	0.51
214.594	12.8
214.812	53.76
215.031	0.51
215.249	-17.92
215.467	-1.54
215.686	18.94
215.904	-1.54
216.122	-17.92
216.341	64
216.559	41.47
216.778	51.71
216.996	10.75
217.214	16.9
217.432	-44.54
217.651	6.66
217.869	41.47
218.087	47.62
218.306	-3.58
218.524	76.29
218.742	23.04
218.96	0.51
219.179	-22.02
219.397	8.7
219.615	55.81
219.833	25.09
220.051	16.9
220.27	49.66
220.488	-5.63
220.706	-65.02
220.924	33.28
221.142	113.15
221.36	-48.64
221.578	29.18
221.796	59.9
222.015	12.8
222.233	16.9
222.451	-7.68
222.669	-56.83
222.887	8.7
223.105	0.51
223.323	47.62
223.541	55.81
223.759	16.9
223.977	90.62
224.195	-67.07
224.413	51.71
224.631	41.47
224.849	-56.83
225.067	31.23
225.285	-60.93
225.503	-62.98
225.721	33.28
225.939	23.04
226.157	35.33
226.375	33.28
226.592	-67.07
226.81	-5.63
227.028	-3.58
227.246	76.29
227.464	-26.11
227.682	37.38
227.9	25.09
228.117	31.23
228.335	-5.63
228.553	41.47
228.771	-36.35
228.989	-42.5
229.206	-5.63
229.424	14.85
229.642	-13.82
229.86	47.62
230.077	8.7
230.295	61.95
230.513	39.42
230.731	-91.65
230.948	37.38
231.166	-5.63
231.384	-5.63
231.601	41.47
231.819	14.85
232.037	-9.73
232.254	12.8
232.472	-42.5
232.689	59.9
232.907	-11.78
233.125	72.19
233.342	-54.78
233.56	33.28
233.777	-28.16
233.995	-44.54
234.213	41.47
234.43	43.52
234.648	35.33
234.865	31.23
235.083	57.86
235.3	-17.92
235.518	70.14
235.735	-5.63
235.953	37.38
236.17	68.09
236.388	-46.59
236.605	2.56
236.822	92.67
237.04	-32.26
237.257	57.86
237.475	43.52
237.692	-22.02
237.909	43.52
238.127	-13.82
238.344	25.09
238.562	37.38
238.779	-9.73
238.996	-9.73
239.214	20.99
239.431	-15.87
239.648	10.75
239.865	-26.11
240.083	53.76
240.3	-5.63
240.517	-9.73
240.735	-7.68
240.952	-22.02
241.169	-3.58
241.386	-32.26
241.603	39.42
241.821	55.81
242.038	0.51
242.255	0.51
242.472	-17.92
242.689	55.81
242.907	59.9
243.124	35.33
243.341	25.09
243.558	55.81
243.775	35.33
243.992	-26.11
244.209	35.33
244.426	37.38
244.643	10.75
244.86	-7.68
245.078	55.81
245.295	31.23
245.512	4.61
245.729	-13.82
245.946	18.94
246.163	23.04
246.38	16.9
246.597	115.2
246.814	47.62
247.031	66.05
247.248	33.28
247.464	51.71
247.681	64
247.898	47.62
248.115	-5.63
248.332	33.28
248.549	55.81
248.766	33.28
248.983	-24.06
249.2	12.8
249.417	76.29
249.633	-5.63
249.85	-30.21
250.067	72.19
250.284	55.81
250.501	-34.3
250.717	25.09
250.934	2.56
251.151	-17.92
251.368	55.81
251.585	92.67
251.801	47.62
252.018	4.61
252.235	49.66
252.451	-48.64
252.668	23.04
252.885	59.9
253.102	51.71
253.318	-3.58
253.535	-50.69
253.752	23.04
253.968	-24.06
254.185	-13.82
254.401	-38.4
254.618	-1.54
254.835	53.76
255.051	49.66
255.268	47.62
255.484	29.18
255.701	27.14
255.917	78.33
256.134	12.8
256.351	47.62
256.567	16.9
256.784	14.85
257	49.66
257.217	33.28
257.433	80.38
257.65	72.19
257.866	18.94
258.082	57.86
258.299	-26.11
258.515	57.86
258.732	-5.63
258.948	41.47
259.165	-3.58
259.381	113.15
259.597	-52.74
259.814	31.23
260.03	86.53
260.246	-34.3
260.463	-34.3
260.679	78.33
260.895	8.7
261.112	-42.5
261.328	31.23
261.544	-34.3
261.761	39.42
261.977	64
262.193	6.66
262.409	-15.87
262.626	33.28
262.842	-58.88
263.058	-26.11
263.274	61.95
263.49	6.66
263.707	-30.21
263.923	4.61
264.139	-105.98
264.355	23.04
264.571	-34.3
264.787	18.94
265.004	18.94
265.22	47.62
265.436	6.66
265.652	70.14
265.868	-1.54
266.084	-24.06
266.3	16.9
266.516	-9.73
266.732	-36.35
266.948	23.04
267.164	12.8
267.38	74.24
267.596	23.04
267.812	-17.92
268.028	53.76
268.244	-15.87
268.46	6.66
268.676	33.28
268.892	6.66
269.108	27.14
269.324	-15.87
269.54	-30.21
269.756	-7.68
269.972	-50.69
270.188	41.47
270.403	6.66
270.619	31.23
270.835	0.51
271.051	39.42
271.267	-13.82
271.483	-30.21
271.698	-22.02
271.914	35.33
272.13	18.94
272.346	39.42
272.562	23.04
272.777	2.56
272.993	-81.41
273.209	47.62
273.425	39.42
273.64	-24.06
273.856	-17.92
274.072	20.99
274.287	-5.63
274.503	66.05
274.719	16.9
274.934	78.33
275.15	2.56
275.366	0.51
275.581	-46.59
275.797	70.14
276.012	0.51
276.228	-30.21
276.444	-36.35
276.659	23.04
276.875	-9.73
277.09	27.14
277.306	-62.98
277.521	43.52
277.737	-28.16
277.952	66.05
278.168	59.9
278.383	-67.07
278.599	-38.4
278.814	16.9
279.03	0.51
279.245	51.71
279.461	-44.54
279.676	47.62
279.892	18.94
280.107	-15.87
280.322	61.95
280.538	55.81
280.753	-38.4
280.969	33.28
281.184	-15.87
281.399	53.76
281.615	8.7
281.83	16.9
282.045	-26.11
282.26	-1.54
282.476	0.51
282.691	33.28
282.906	25.09
283.122	33.28
283.337	37.38
283.552	16.9
283.767	-52.74
283.983	-1.54
284.198	-19.97
284.413	57.86
284.628	-65.02
284.843	8.7
285.058	14.85
285.274	-34.3
285.489	-15.87
285.704	4.61
285.919	-5.63
286.134	31.23
286.349	20.99
286.564	33.28
286.779	-3.58
286.995	-95.74
287.21	-56.83
287.425	94.72
287.64	14.85
287.855	-26.11
288.07	39.42
288.285	-58.88
288.5	25.09
288.715	23.04
288.93	74.24
289.145	29.18
289.36	39.42
289.575	-7.68
289.79	8.7
290.004	45.57
290.219	-19.97
290.434	-19.97
290.649	-32.26
290.864	33.28
291.079	-48.64
291.294	66.05
291.509	66.05
291.724	47.62
291.938	12.8
292.153	35.33
292.368	57.86
292.583	12.8
292.798	37.38
293.012	-24.06
293.227	23.04
293.442	47.62
293.657	18.94
293.871	-1.54
294.086	-40.45
294.301	35.33
294.516	84.48
294.73	8.7
294.945	-67.07
295.16	-24.06
295.374	-5.63
295.589	61.95
295.804	47.62
296.018	-40.45
296.233	43.52
296.447	33.28
296.662	-32.26
296.877	57.86
297.091	6.66
297.306	20.99
297.52	47.62
297.735	6.66
297.949	-5.63
298.164	18.94
298.378	-17.92
298.593	-17.92
298.807	10.75
299.022	0.51
299.236	-26.11
299.451	31.23
299.665	-24.06
299.88	-26.11
300.094	23.04
300.309	39.42
300.523	-17.92
300.737	6.66
300.952	66.05
301.166	55.81
301.381	-15.87
301.595	33.28
301.809	-19.97
302.024	-15.87
302.238	23.04
302.452	-1.54
302.667	-34.3
302.881	41.47
303.095	39.42
303.309	0.51
303.524	-36.35
303.738	90.62
303.952	39.42
304.166	8.7
304.381	-32.26
304.595	41.47
304.809	-9.73
305.023	0.51
305.237	31.23
305.452	-7.68
305.666	49.66
305.88	23.04
306.094	31.23
306.308	49.66
306.522	47.62
306.736	49.66
306.95	0.51
307.164	10.75
307.379	-22.02
307.593	66.05
307.807	31.23
308.021	8.7
308.235	41.47
308.449	-42.5
308.663	35.33
308.877	-22.02
309.091	10.75
309.305	14.85
309.519	-40.45
309.733	-5.63
309.947	-1.54
310.161	45.57
310.374	-7.68
310.588	-28.16
310.802	6.66
311.016	57.86
311.23	6.66
311.444	68.09
311.658	-7.68
311.872	0.51
312.085	-28.16
312.299	-11.78
312.513	2.56
312.727	49.66
312.941	0.51
313.154	33.28
313.368	51.71
313.582	76.29
313.796	-9.73
314.009	20.99
314.223	18.94
314.437	-56.83
314.651	35.33
314.864	51.71
315.078	25.09
315.292	6.66
315.505	-1.54
315.719	-11.78
315.933	-9.73
316.146	39.42
316.36	47.62
316.573	41.47
316.787	12.8
317.001	33.28
317.214	14.85
317.428	80.38
317.641	6.66
317.855	-26.11
318.068	-83.45
318.282	49.66
318.495	-1.54
318.709	31.23
318.922	4.61
319.136	43.52
319.349	-5.63
319.563	-19.97
319.776	39.42
319.99	41.47
320.203	2.56
320.417	74.24
320.63	25.09
320.843	12.8
321.057	51.71
321.27	2.56
321.483	64
321.697	-50.69
321.91	33.28
322.124	51.71
322.337	33.28
322.55	43.52
322.763	41.47
322.977	-42.5
323.19	25.09
323.403	-24.06
323.617	20.99
323.83	41.47
324.043	80.38
324.256	18.94
324.469	29.18
324.683	133.63
324.896	70.14
325.109	88.57
325.322	-30.21
325.535	10.75
325.748	90.62
325.962	33.28
326.175	6.66
326.388	37.38
326.601	31.23
326.814	33.28
327.027	76.29
327.24	35.33
327.453	-38.4
327.666	-5.63
327.879	64
328.092	-1.54
328.305	-11.78
328.518	72.19
328.731	51.71
328.944	-34.3
329.157	23.04
329.37	0.51
329.583	16.9
329.796	-1.54
330.009	-9.73
330.222	57.86
330.435	6.66
330.648	49.66
330.861	-3.58
331.073	78.33
331.286	14.85
331.499	6.66
331.712	-81.41
331.925	-30.21
332.138	-17.92
332.35	-5.63
332.563	-65.02
332.776	64
332.989	-19.97
333.202	4.61
333.414	-19.97
333.627	43.52
333.84	64
334.053	55.81
334.265	45.57
334.478	-13.82
334.691	88.57
334.903	0.51
335.116	47.62
335.329	0.51
335.541	51.71
335.754	-1.54
335.966	-60.93
336.179	20.99
336.392	0.51
336.604	-24.06
336.817	10.75
337.029	10.75
337.242	47.62
337.454	2.56
337.667	-1.54
337.88	47.62
338.092	68.09
338.305	10.75
338.517	12.8
338.729	6.66
338.942	29.18
339.154	2.56
339.367	-11.78
339.579	39.42
339.792	-40.45
340.004	53.76
340.217	-9.73
340.429	-15.87
340.641	0.51
340.854	-15.87
341.066	35.33
341.278	14.85
341.491	45.57
341.703	-13.82
341.915	-9.73
342.128	18.94
342.34	20.99
342.552	39.42
342.764	-36.35
342.977	29.18
343.189	88.57
343.401	43.52
343.613	-30.21
343.826	6.66
344.038	-30.21
344.25	-5.63
344.462	-32.26
344.674	74.24
344.886	-91.65
345.099	-15.87
345.311	39.42
345.523	25.09
345.735	-17.92
345.947	66.05
346.159	-28.16
346.371	88.57
346.583	29.18
346.795	39.42
347.007	-34.3
347.219	78.33
347.431	72.19
347.643	0.51
347.855	6.66
348.067	59.9
348.279	70.14
348.491	16.9
348.703	-1.54
348.915	16.9
349.127	14.85
349.339	66.05
349.551	12.8
349.763	-50.69
349.975	66.05
350.187	-48.64
350.399	4.61
350.61	41.47
350.822	10.75
351.034	-32.26
351.246	43.52
351.458	14.85
351.669	-46.59
351.881	33.28
352.093	31.23
352.305	-24.06
352.517	33.28
352.728	6.66
352.94	20.99
353.152	23.04
353.363	-26.11
353.575	41.47
353.787	-7.68
353.999	61.95
354.21	8.7
354.422	35.33
354.633	45.57
354.845	27.14
355.057	20.99
355.268	2.56
355.48	16.9
355.692	-32.26
355.903	-24.06
356.115	59.9
356.326	-81.41
356.538	100.86
356.749	12.8
356.961	14.85
357.172	2.56
357.384	80.38
357.595	31.23
357.807	29.18
358.018	47.62
358.23	-22.02
358.441	49.66
358.653	33.28
358.864	68.09
359.075	31.23
359.287	-48.64
359.498	55.81
359.709	37.38
359.921	2.56
360.132	4.61
360.344	70.14
360.555	16.9
360.766	31.23
360.977	27.14
361.189	57.86
361.4	35.33
361.611	14.85
361.823	27.14
362.034	-42.5
362.245	59.9
362.456	84.48
362.667	18.94
362.879	53.76
363.09	-19.97
363.301	-71.17
363.512	-22.02
363.723	25.09
363.935	8.7
364.146	45.57
364.357	39.42
364.568	-19.97
364.779	31.23
364.99	72.19
365.201	-5.63
365.412	43.52
365.623	-5.63
365.834	43.52
366.045	-5.63
366.256	23.04
366.467	90.62
366.678	35.33
366.889	82.43
367.1	-30.21
367.311	16.9
367.522	16.9
367.733	14.85
367.944	4.61
368.155	-7.68
368.366	35.33
368.577	31.23
368.788	6.66
368.999	-17.92
369.209	53.76
369.42	10.75
369.631	74.24
369.842	-7.68
370.053	150.01
370.264	49.66
370.474	23.04
370.685	-30.21
370.896	-7.68
371.107	39.42
371.317	8.7
371.528	-26.11
371.739	33.28
371.95	8.7
372.16	-30.21
372.371	25.09
372.582	-17.92
372.792	64
373.003	-7.68
373.214	14.85
373.424	-19.97
373.635	4.61
373.846	104.96
374.056	-56.83
374.267	29.18
374.477	12.8
374.688	-22.02
374.898	-9.73
375.109	10.75
375.319	20.99
375.53	74.24
375.74	27.14
375.951	25.09
376.161	-26.11
376.372	27.14
376.582	33.28
376.793	-7.68
377.003	-26.11
377.214	47.62
377.424	35.33
377.635	18.94
377.845	8.7
378.055	113.15
378.266	31.23
378.476	10.75
378.686	35.33
378.897	41.47
379.107	82.43
379.317	14.85
379.528	-13.82
379.738	39.42
379.948	-67.07
380.158	59.9
380.369	-34.3
380.579	25.09
380.789	-34.3
380.999	2.56
381.21	43.52
381.42	55.81
381.63	-46.59
381.84	66.05
382.05	-50.69
382.261	14.85
382.471	-3.58
382.681	59.9
382.891	27.14
383.101	100.86
383.311	66.05
383.521	12.8
383.731	86.53
383.941	70.14
384.151	10.75
384.361	25.09
384.571	-1.54
384.781	-22.02
384.991	55.81
385.201	20.99
385.411	16.9
385.621	59.9
385.831	-36.35
386.041	66.05
386.251	92.67
386.461	57.86
386.671	-5.63
386.881	4.61
387.091	115.2
387.301	88.57
387.511	10.75
387.72	53.76
387.93	109.05
388.14	-3.58
388.35	4.61
388.56	82.43
388.769	23.04
388.979	55.81
389.189	12.8
389.399	16.9
389.609	-32.26
389.818	45.57
390.028	-46.59
390.238	47.62
390.447	23.04
390.657	12.8
390.867	2.56
391.076	-42.5
391.286	20.99
391.496	25.09
391.705	92.67
391.915	-19.97
392.125	29.18
392.334	43.52
392.544	39.42
392.753	-50.69
392.963	47.62
393.172	14.85
393.382	-3.58
393.591	6.66
393.801	51.71
394.01	49.66
394.22	23.04
394.429	25.09
394.639	-15.87
394.848	47.62
395.058	39.42
395.267	70.14
395.477	41.47
395.686	-52.74
395.895	47.62
396.105	14.85
396.314	-1.54
396.524	74.24
396.733	-7.68
396.942	33.28
397.152	12.8
397.361	35.33
397.57	37.38
397.78	16.9
397.989	6.66
398.198	47.62
398.407	14.85
398.617	92.67
398.826	37.38
399.035	64
399.244	53.76
399.453	49.66
399.663	49.66
399.872	57.86
400.081	6.66
400.29	102.91
400.499	90.62
400.708	92.67
400.917	10.75
401.127	72.19
401.336	64
401.545	78.33
401.754	33.28
401.963	-5.63
402.172	16.9
402.381	-40.45
402.59	12.8
402.799	57.86
403.008	64
403.217	23.04
403.426	59.9
403.635	-22.02
403.844	131.58
404.053	43.52
404.262	-9.73
404.471	72.19
404.68	41.47
404.888	49.66
405.097	31.23
405.306	98.81
405.515	47.62
405.724	51.71
405.933	33.28
406.142	123.39
406.35	94.72
406.559	84.48
406.768	80.38
406.977	47.62
407.185	31.23
407.394	43.52
407.603	35.33
407.812	111.1
408.02	61.95
408.229	72.19
408.438	41.47
408.646	49.66
408.855	119.29
409.064	49.66
409.272	64
409.481	98.81
409.69	45.57
409.898	64
410.107	92.67
410.315	86.53
410.524	55.81
410.733	96.77
410.941	76.29
411.15	98.81
411.358	150.01
411.567	66.05
411.775	125.44
411.984	78.33
412.192	45.57
412.401	172.54
412.609	125.44
412.818	152.06
413.026	150.01
413.234	100.86
413.443	154.11
413.651	156.16
413.86	154.11
414.068	238.08
414.276	201.21
414.485	162.3
414.693	117.25
414.901	70.14
415.11	139.77
415.318	119.29
415.526	127.49
415.734	227.84
415.943	233.98
416.151	252.41
416.359	240.12
416.567	168.45
416.776	240.12
416.984	276.99
417.192	289.28
417.4	188.93
417.608	268.8
417.817	338.43
418.025	332.28
418.233	272.89
418.441	270.84
418.649	274.94
418.857	393.72
419.065	324.09
419.273	363
419.481	311.8
419.689	338.43
419.897	403.96
420.105	377.34
420.313	418.3
420.521	401.91
420.729	371.19
420.937	449.02
421.145	446.97
421.353	399.87
421.561	559.61
421.769	481.78
421.977	477.69
422.185	438.78
422.393	518.65
422.601	547.32
422.809	614.9
423.017	567.8
423.224	555.51
423.432	610.81
423.64	643.57
423.848	647.67
424.056	676.34
424.263	702.97
424.471	688.63
424.679	791.03
424.887	694.77
425.094	803.32
425.302	788.98
425.51	791.03
425.718	748.02
425.925	840.18
426.133	938.48
426.341	963.06
426.548	948.72
426.756	983.54
426.964	991.73
427.171	1063.41
427.379	1106.42
427.586	1030.64
427.794	1022.45
428.001	1067.5
428.209	1159.66
428.417	1171.95
428.624	1276.4
428.832	1266.16
429.039	1190.38
429.247	1227.25
429.454	1448.43
429.662	1448.43
429.869	1411.56
430.076	1436.14
430.284	1440.23
430.491	1423.85
430.699	1706.47
430.906	1538.54
431.114	1685.99
431.321	1681.89
431.528	1690.09
431.736	1792.48
431.943	1790.44
432.15	1741.29
432.358	1769.96
432.565	1952.23
432.772	1870.31
432.979	2032.1
433.187	2011.62
433.394	2028
433.601	2157.02
433.808	2234.85
434.016	2148.83
434.223	2249.18
434.43	2376.16
434.637	2423.26
434.844	2515.42
435.052	2564.57
435.259	2554.33
435.466	2554.33
435.673	2609.62
435.88	2632.15
436.087	2775.51
436.294	2857.43
436.501	2769.37
436.708	2822.61
436.915	2785.75
437.122	3015.12
437.329	2996.69
437.537	3152.34
437.743	3271.12
437.95	3205.58
438.157	3326.41
438.364	3416.52
438.571	3430.86
438.778	3574.22
438.985	3688.9
439.192	3725.77
439.399	3754.44
439.606	3717.58
439.813	3748.29
440.02	4078.02
440.227	4071.87
440.433	4114.88
440.64	4116.93
440.847	4190.66
441.054	4190.66
441.261	4520.38
441.467	4467.13
441.674	4684.22
441.881	4823.48
442.088	4686.26
442.294	4608.44
442.501	4719.03
442.708	4700.6
442.914	5050.8
443.121	5091.76
443.328	5079.47
443.534	5521.84
443.741	5364.14
443.948	5290.42
444.154	5620.14
444.361	5634.47
444.568	5673.39
444.774	5679.53
444.981	5845.41
445.187	5902.76
445.394	6011.3
445.6	6019.49
445.807	6666.65
446.013	6404.51
446.22	6566.3
446.426	6726.04
446.633	6853.02
446.839	7004.57
447.046	6592.92
447.252	7403.92
447.459	7137.68
447.665	7004.57
447.871	7356.82
448.078	7940.49
448.284	7457.17
448.491	7647.63
448.697	7920.01
448.903	8092.04
449.11	8053.13
449.316	8161.67
449.522	8008.07
449.728	8411.52
449.935	8593.79
450.141	8497.53
450.347	8599.93
450.553	8438.14
450.76	8444.29
450.966	8923.51
451.172	8534.4
451.378	9046.39
451.584	8718.71
451.791	9062.77
451.997	8903.03
452.203	9208.18
452.409	9105.78
452.615	8952.18
452.821	8722.81
453.027	8692.09
453.233	9042.29
453.44	8806.78
453.646	8769.91
453.852	8982.9
454.058	8976.76
454.264	8937.85
454.47	8980.85
454.676	8788.35
454.882	9036.15
455.088	8296.83
455.294	8561.02
455.5	8452.48
455.705	8487.29
455.911	8419.71
456.117	8165.76
456.323	8010.12
456.529	7782.79
456.735	7958.92
456.941	7836.04
457.147	7651.72
457.352	7547.28
457.558	7221.65
457.764	7328.14
457.97	7203.22
458.176	6951.32
458.381	6838.68
458.587	6625.69
458.793	6678.94
458.999	6416.8
459.204	6910.36
459.41	6627.74
459.616	6322.59
459.821	6218.15
460.027	6267.3
460.233	6076.84
460.438	5687.72
460.644	5826.98
460.85	5489.07
461.055	5439.92
461.261	5441.96
461.466	5091.76
461.672	4915.64
461.878	5089.71
462.083	4987.32
462.289	4694.46
462.494	4899.25
462.7	4512.19
462.905	4469.18
463.111	4544.95
463.316	4528.57
463.522	4463.04
463.727	4563.39
463.932	4524.47
464.138	4381.12
464.343	4479.42
464.549	4397.5
464.754	4475.32
464.959	4481.47
465.165	4307.39
465.37	4217.28
465.575	4090.31
465.781	4383.17
465.986	4358.59
466.191	4143.55
466.397	4084.16
466.602	3813.83
466.807	4061.63
467.012	4067.78
467.218	4082.11
467.423	4053.44
467.628	3965.38
467.833	4166.08
468.038	4000.19
468.244	3901.89
468.449	3903.94
468.654	3922.37
468.859	3881.41
469.064	3916.23
469.269	3756.49
469.474	3709.38
469.679	3742.15
469.885	3742.15
470.09	3783.11
470.295	3754.44
470.5	3654.09
470.705	3832.26
470.91	3480.01
471.115	3627.46
471.32	3549.64
