Data from USB4F104151__85__12-59-55-320.txt Node

Date: Fri Mar 14 12:59:55 EDT 2025
User: louis
Spectrometer: USB4F10415
Trigger mode: 4
Integration Time (sec): 1.000000E-2
Scans to average: 1
Electric dark correction enabled: true
Nonlinearity correction enabled: false
Boxcar width: 0
XAxis mode: Wavelengths
Number of Pixels in Spectrum: 3648
>>>>>Begin Spectral Data<<<<<
178.204	-11.26
178.424	-11.26
178.644	-11.26
178.864	-33.79
179.084	-89.09
179.304	3.07
179.524	25.6
179.744	-17.41
179.964	-13.31
180.184	17.41
180.404	27.65
180.624	3.07
180.844	-60.42
181.064	-35.84
181.283	50.18
181.503	21.5
181.723	-21.5
181.943	-68.61
182.163	25.6
182.383	5.12
182.602	21.5
182.822	62.46
183.042	27.65
183.262	11.26
183.482	-7.17
183.701	17.41
183.921	-17.41
184.141	-9.22
184.361	48.13
184.58	23.55
184.8	-15.36
185.02	-91.13
185.239	84.99
185.459	-23.55
185.679	15.36
185.898	-3.07
186.118	13.31
186.338	52.22
186.557	11.26
186.777	-78.85
186.997	35.84
187.216	-52.22
187.436	33.79
187.655	84.99
187.875	33.79
188.095	-15.36
188.314	23.55
188.534	17.41
188.753	17.41
188.973	58.37
189.192	-23.55
189.412	-39.94
189.631	-37.89
189.851	15.36
190.07	29.7
190.29	9.22
190.509	-33.79
190.729	-3.07
190.948	-37.89
191.168	58.37
191.387	-21.5
191.607	-11.26
191.826	-5.12
192.045	50.18
192.265	21.5
192.484	-9.22
192.704	-29.7
192.923	-93.18
193.142	82.94
193.362	33.79
193.581	3.07
193.8	50.18
194.02	19.46
194.239	13.31
194.458	-80.89
194.678	7.17
194.897	56.32
195.116	19.46
195.335	-91.13
195.555	19.46
195.774	-17.41
195.993	15.36
196.212	44.03
196.432	41.98
196.651	23.55
196.87	66.56
197.089	25.6
197.308	50.18
197.528	-27.65
197.747	-13.31
197.966	-48.13
198.185	60.42
198.404	103.42
198.623	25.6
198.842	-19.46
199.062	1.02
199.281	-17.41
199.5	-33.79
199.719	9.22
199.938	5.12
200.157	-37.89
200.376	-21.5
200.595	-35.84
200.814	-52.22
201.033	68.61
201.252	-5.12
201.471	80.89
201.69	44.03
201.909	21.5
202.128	11.26
202.347	29.7
202.566	-50.18
202.785	-56.32
203.004	7.17
203.223	87.04
203.442	-3.07
203.661	52.22
203.879	-9.22
204.098	-21.5
204.317	-70.65
204.536	50.18
204.755	-58.37
204.974	107.52
205.193	-39.94
205.411	-27.65
205.63	-9.22
205.849	44.03
206.068	13.31
206.287	54.27
206.505	-56.32
206.724	-39.94
206.943	-13.31
207.162	19.46
207.381	-15.36
207.599	11.26
207.818	5.12
208.037	-7.17
208.255	31.74
208.474	62.46
208.693	17.41
208.911	11.26
209.13	13.31
209.349	62.46
209.567	-48.13
209.786	113.66
210.005	15.36
210.223	-35.84
210.442	33.79
210.661	31.74
210.879	46.08
211.098	68.61
211.316	52.22
211.535	52.22
211.753	62.46
211.972	23.55
212.191	39.94
212.409	35.84
212.628	-7.17
212.846	64.51
213.065	11.26
213.283	-9.22
213.502	25.6
213.72	9.22
213.938	7.17
214.157	-15.36
214.375	-27.65
214.594	29.7
214.812	70.65
215.031	27.65
215.249	-1.02
215.467	19.46
215.686	-31.74
215.904	-17.41
216.122	1.02
216.341	5.12
216.559	27.65
216.778	25.6
216.996	62.46
217.214	27.65
217.432	-39.94
217.651	-11.26
217.869	78.85
218.087	9.22
218.306	54.27
218.524	1.02
218.742	50.18
218.96	-46.08
219.179	-76.8
219.397	17.41
219.615	33.79
219.833	-31.74
220.051	-11.26
220.27	70.65
220.488	27.65
220.706	11.26
220.924	-9.22
221.142	-9.22
221.36	48.13
221.578	25.6
221.796	-21.5
222.015	21.5
222.233	1.02
222.451	25.6
222.669	31.74
222.887	52.22
223.105	41.98
223.323	19.46
223.541	-56.32
223.759	17.41
223.977	50.18
224.195	54.27
224.413	-39.94
224.631	29.7
224.849	29.7
225.067	50.18
225.285	17.41
225.503	31.74
225.721	-5.12
225.939	35.84
226.157	-15.36
226.375	60.42
226.592	-1.02
226.81	-50.18
227.028	21.5
227.246	58.37
227.464	-7.17
227.682	56.32
227.9	19.46
228.117	15.36
228.335	-13.31
228.553	84.99
228.771	52.22
228.989	9.22
229.206	-68.61
229.424	-15.36
229.642	115.71
229.86	-66.56
230.077	-17.41
230.295	78.85
230.513	3.07
230.731	17.41
230.948	-44.03
231.166	27.65
231.384	25.6
231.601	-15.36
231.819	68.61
232.037	41.98
232.254	-35.84
232.472	9.22
232.689	39.94
232.907	68.61
233.125	37.89
233.342	58.37
233.56	-3.07
233.777	19.46
233.995	41.98
234.213	58.37
234.43	23.55
234.648	-37.89
234.865	-5.12
235.083	-68.61
235.3	13.31
235.518	33.79
235.735	27.65
235.953	-11.26
236.17	25.6
236.388	3.07
236.605	19.46
236.822	29.7
237.04	3.07
237.257	25.6
237.475	29.7
237.692	-17.41
237.909	27.65
238.127	41.98
238.344	15.36
238.562	23.55
238.779	5.12
238.996	19.46
239.214	-31.74
239.431	89.09
239.648	-1.02
239.865	41.98
240.083	13.31
240.3	11.26
240.517	66.56
240.735	-23.55
240.952	17.41
241.169	-7.17
241.386	-15.36
241.603	-5.12
241.821	-15.36
242.038	52.22
242.255	-54.27
242.472	29.7
242.689	70.65
242.907	35.84
243.124	-21.5
243.341	76.8
243.558	-3.07
243.775	11.26
243.992	37.89
244.209	21.5
244.426	62.46
244.643	33.79
244.86	-21.5
245.078	66.56
245.295	23.55
245.512	82.94
245.729	52.22
245.946	-5.12
246.163	7.17
246.38	13.31
246.597	27.65
246.814	-29.7
247.031	27.65
247.248	15.36
247.464	27.65
247.681	29.7
247.898	41.98
248.115	-5.12
248.332	54.27
248.549	56.32
248.766	103.42
248.983	-21.5
249.2	-48.13
249.417	1.02
249.633	33.79
249.85	-1.02
250.067	17.41
250.284	62.46
250.501	66.56
250.717	60.42
250.934	-15.36
251.151	-13.31
251.368	76.8
251.585	33.79
251.801	58.37
252.018	35.84
252.235	-3.07
252.451	-1.02
252.668	1.02
252.885	78.85
253.102	21.5
253.318	-21.5
253.535	58.37
253.752	-23.55
253.968	9.22
254.185	9.22
254.401	-17.41
254.618	5.12
254.835	11.26
255.051	-41.98
255.268	58.37
255.484	37.89
255.701	41.98
255.917	-13.31
256.134	66.56
256.351	80.89
256.567	74.75
256.784	1.02
257	19.46
257.217	58.37
257.433	11.26
257.65	37.89
257.866	27.65
258.082	-46.08
258.299	-5.12
258.515	41.98
258.732	41.98
258.948	74.75
259.165	35.84
259.381	87.04
259.597	23.55
259.814	-46.08
260.03	80.89
260.246	-39.94
260.463	54.27
260.679	7.17
260.895	-39.94
261.112	17.41
261.328	37.89
261.544	33.79
261.761	76.8
261.977	-50.18
262.193	99.33
262.409	-39.94
262.626	-9.22
262.842	64.51
263.058	19.46
263.274	-37.89
263.49	72.7
263.707	62.46
263.923	31.74
264.139	-70.65
264.355	58.37
264.571	91.13
264.787	54.27
265.004	-17.41
265.22	64.51
265.436	21.5
265.652	41.98
265.868	60.42
266.084	-17.41
266.3	-29.7
266.516	-31.74
266.732	-23.55
266.948	-25.6
267.164	-3.07
267.38	17.41
267.596	1.02
267.812	-11.26
268.028	82.94
268.244	-9.22
268.46	25.6
268.676	60.42
268.892	-52.22
269.108	-23.55
269.324	-3.07
269.54	-5.12
269.756	5.12
269.972	35.84
270.188	1.02
270.403	-9.22
270.619	-48.13
270.835	21.5
271.051	39.94
271.267	-7.17
271.483	33.79
271.698	5.12
271.914	41.98
272.13	1.02
272.346	54.27
272.562	11.26
272.777	25.6
272.993	-31.74
273.209	17.41
273.425	-1.02
273.64	-37.89
273.856	-27.65
274.072	-7.17
274.287	33.79
274.503	-25.6
274.719	-15.36
274.934	13.31
275.15	-46.08
275.366	-15.36
275.581	-3.07
275.797	29.7
276.012	-29.7
276.228	60.42
276.444	64.51
276.659	-1.02
276.875	-15.36
277.09	-68.61
277.306	52.22
277.521	66.56
277.737	70.65
277.952	35.84
278.168	46.08
278.383	68.61
278.599	25.6
278.814	107.52
279.03	62.46
279.245	-25.6
279.461	23.55
279.676	9.22
279.892	-5.12
280.107	39.94
280.322	5.12
280.538	33.79
280.753	78.85
280.969	78.85
281.184	1.02
281.399	-15.36
281.615	5.12
281.83	66.56
282.045	56.32
282.26	23.55
282.476	-13.31
282.691	11.26
282.906	5.12
283.122	103.42
283.337	19.46
283.552	56.32
283.767	39.94
283.983	19.46
284.198	-13.31
284.413	70.65
284.628	-39.94
284.843	9.22
285.058	-3.07
285.274	-11.26
285.489	-13.31
285.704	11.26
285.919	37.89
286.134	33.79
286.349	-58.37
286.564	50.18
286.779	95.23
286.995	9.22
287.21	27.65
287.425	44.03
287.64	35.84
287.855	-9.22
288.07	-19.46
288.285	-21.5
288.5	54.27
288.715	-9.22
288.93	31.74
289.145	3.07
289.36	66.56
289.575	33.79
289.79	50.18
290.004	39.94
290.219	-13.31
290.434	62.46
290.649	7.17
290.864	17.41
291.079	-23.55
291.294	-1.02
291.509	-1.02
291.724	19.46
291.938	9.22
292.153	-19.46
292.368	11.26
292.583	-1.02
292.798	35.84
293.012	-15.36
293.227	-11.26
293.442	17.41
293.657	-19.46
293.871	-48.13
294.086	35.84
294.301	17.41
294.516	-62.46
294.73	9.22
294.945	3.07
295.16	5.12
295.374	54.27
295.589	29.7
295.804	-50.18
296.018	-15.36
296.233	80.89
296.447	-3.07
296.662	35.84
296.877	-41.98
297.091	11.26
297.306	17.41
297.52	-64.51
297.735	21.5
297.949	46.08
298.164	23.55
298.378	7.17
298.593	35.84
298.807	11.26
299.022	-13.31
299.236	60.42
299.451	19.46
299.665	17.41
299.88	-7.17
300.094	21.5
300.309	21.5
300.523	-7.17
300.737	5.12
300.952	35.84
301.166	-7.17
301.381	33.79
301.595	-15.36
301.809	-41.98
302.024	50.18
302.238	64.51
302.452	27.65
302.667	41.98
302.881	35.84
303.095	35.84
303.309	64.51
303.524	13.31
303.738	-17.41
303.952	27.65
304.166	74.75
304.381	-23.55
304.595	-23.55
304.809	25.6
305.023	44.03
305.237	70.65
305.452	1.02
305.666	46.08
305.88	41.98
306.094	-27.65
306.308	50.18
306.522	-27.65
306.736	-15.36
306.95	19.46
307.164	-87.04
307.379	72.7
307.593	56.32
307.807	52.22
308.021	66.56
308.235	48.13
308.449	56.32
308.663	-46.08
308.877	35.84
309.091	41.98
309.305	9.22
309.519	-56.32
309.733	58.37
309.947	33.79
310.161	64.51
310.374	5.12
310.588	60.42
310.802	-7.17
311.016	35.84
311.23	29.7
311.444	62.46
311.658	-54.27
311.872	52.22
312.085	-11.26
312.299	7.17
312.513	31.74
312.727	50.18
312.941	-44.03
313.154	29.7
313.368	54.27
313.582	-13.31
313.796	-5.12
314.009	50.18
314.223	-1.02
314.437	39.94
314.651	-46.08
314.864	72.7
315.078	27.65
315.292	1.02
315.505	33.79
315.719	37.89
315.933	48.13
316.146	-27.65
316.36	-25.6
316.573	11.26
316.787	-13.31
317.001	33.79
317.214	-33.79
317.428	44.03
317.641	11.26
317.855	50.18
318.068	-21.5
318.282	46.08
318.495	25.6
318.709	31.74
318.922	3.07
319.136	31.74
319.349	-7.17
319.563	-19.46
319.776	56.32
319.99	-54.27
320.203	44.03
320.417	48.13
320.63	21.5
320.843	64.51
321.057	27.65
321.27	46.08
321.483	-37.89
321.697	66.56
321.91	50.18
322.124	-48.13
322.337	-19.46
322.55	5.12
322.763	9.22
322.977	11.26
323.19	-33.79
323.403	58.37
323.617	-64.51
323.83	15.36
324.043	91.13
324.256	-52.22
324.469	1.02
324.683	44.03
324.896	-44.03
325.109	31.74
325.322	-11.26
325.535	-3.07
325.748	72.7
325.962	29.7
326.175	23.55
326.388	76.8
326.601	107.52
326.814	13.31
327.027	-21.5
327.24	50.18
327.453	50.18
327.666	48.13
327.879	60.42
328.092	48.13
328.305	46.08
328.518	13.31
328.731	82.94
328.944	50.18
329.157	-3.07
329.37	-48.13
329.583	23.55
329.796	-13.31
330.009	5.12
330.222	121.85
330.435	17.41
330.648	50.18
330.861	9.22
331.073	-27.65
331.286	78.85
331.499	-5.12
331.712	1.02
331.925	17.41
332.138	39.94
332.35	58.37
332.563	44.03
332.776	33.79
332.989	29.7
333.202	68.61
333.414	48.13
333.627	56.32
333.84	7.17
334.053	1.02
334.265	56.32
334.478	-9.22
334.691	68.61
334.903	-13.31
335.116	13.31
335.329	66.56
335.541	37.89
335.754	33.79
335.966	19.46
336.179	97.28
336.392	9.22
336.604	72.7
336.817	60.42
337.029	-39.94
337.242	17.41
337.454	58.37
337.667	31.74
337.88	23.55
338.092	80.89
338.305	-70.65
338.517	21.5
338.729	46.08
338.942	-19.46
339.154	-93.18
339.367	78.85
339.579	15.36
339.792	76.8
340.004	76.8
340.217	15.36
340.429	15.36
340.641	-48.13
340.854	5.12
341.066	-50.18
341.278	11.26
341.491	17.41
341.703	-13.31
341.915	68.61
342.128	66.56
342.34	-35.84
342.552	5.12
342.764	25.6
342.977	21.5
343.189	58.37
343.401	91.13
343.613	-3.07
343.826	60.42
344.038	-13.31
344.25	84.99
344.462	93.18
344.674	-1.02
344.886	29.7
345.099	46.08
345.311	19.46
345.523	46.08
345.735	44.03
345.947	95.23
346.159	-17.41
346.371	19.46
346.583	1.02
346.795	101.37
347.007	-15.36
347.219	17.41
347.431	3.07
347.643	54.27
347.855	50.18
348.067	9.22
348.279	11.26
348.491	44.03
348.703	29.7
348.915	84.99
349.127	39.94
349.339	-17.41
349.551	9.22
349.763	37.89
349.975	3.07
350.187	25.6
350.399	-25.6
350.61	44.03
350.822	-21.5
351.034	-7.17
351.246	-33.79
351.458	1.02
351.669	7.17
351.881	82.94
352.093	74.75
352.305	48.13
352.517	44.03
352.728	89.09
352.94	-5.12
353.152	-17.41
353.363	-52.22
353.575	7.17
353.787	29.7
353.999	29.7
354.21	134.14
354.422	-39.94
354.633	58.37
354.845	50.18
355.057	-23.55
355.268	-3.07
355.48	-54.27
355.692	37.89
355.903	64.51
356.115	-48.13
356.326	-17.41
356.538	19.46
356.749	25.6
356.961	25.6
357.172	19.46
357.384	60.42
357.595	-5.12
357.807	21.5
358.018	27.65
358.23	3.07
358.441	29.7
358.653	64.51
358.864	82.94
359.075	21.5
359.287	54.27
359.498	1.02
359.709	25.6
359.921	37.89
360.132	-1.02
360.344	1.02
360.555	-3.07
360.766	70.65
360.977	29.7
361.189	46.08
361.4	50.18
361.611	46.08
361.823	41.98
362.034	91.13
362.245	27.65
362.456	33.79
362.667	52.22
362.879	84.99
363.09	27.65
363.301	-15.36
363.512	-17.41
363.723	27.65
363.935	-11.26
364.146	99.33
364.357	11.26
364.568	15.36
364.779	31.74
364.99	58.37
365.201	13.31
365.412	-1.02
365.623	56.32
365.834	68.61
366.045	25.6
366.256	93.18
366.467	15.36
366.678	48.13
366.889	11.26
367.1	5.12
367.311	5.12
367.522	37.89
367.733	64.51
367.944	11.26
368.155	17.41
368.366	9.22
368.577	-52.22
368.788	41.98
368.999	103.42
369.209	46.08
369.42	13.31
369.631	3.07
369.842	62.46
370.053	33.79
370.264	37.89
370.474	41.98
370.685	35.84
370.896	89.09
371.107	25.6
371.317	84.99
371.528	-48.13
371.739	87.04
371.95	17.41
372.16	33.79
372.371	-15.36
372.582	103.42
372.792	5.12
373.003	93.18
373.214	-17.41
373.424	25.6
373.635	-64.51
373.846	44.03
374.056	52.22
374.267	33.79
374.477	103.42
374.688	58.37
374.898	27.65
375.109	91.13
375.319	52.22
375.53	33.79
375.74	-3.07
375.951	-1.02
376.161	9.22
376.372	82.94
376.582	70.65
376.793	19.46
377.003	50.18
377.214	17.41
377.424	11.26
377.635	29.7
377.845	-58.37
378.055	-9.22
378.266	-3.07
378.476	27.65
378.686	13.31
378.897	58.37
379.107	70.65
379.317	15.36
379.528	23.55
379.738	44.03
379.948	70.65
380.158	39.94
380.369	46.08
380.579	7.17
380.789	33.79
380.999	-15.36
381.21	21.5
381.42	93.18
381.63	58.37
381.84	78.85
382.05	33.79
382.261	48.13
382.471	35.84
382.681	33.79
382.891	62.46
383.101	23.55
383.311	9.22
383.521	27.65
383.731	25.6
383.941	76.8
384.151	76.8
384.361	23.55
384.571	82.94
384.781	3.07
384.991	5.12
385.201	89.09
385.411	95.23
385.621	35.84
385.831	52.22
386.041	25.6
386.251	19.46
386.461	11.26
386.671	27.65
386.881	25.6
387.091	19.46
387.301	11.26
387.511	70.65
387.72	78.85
387.93	56.32
388.14	72.7
388.35	-9.22
388.56	54.27
388.769	46.08
388.979	58.37
389.189	62.46
389.399	91.13
389.609	31.74
389.818	25.6
390.028	109.57
390.238	52.22
390.447	-23.55
390.657	66.56
390.867	11.26
391.076	29.7
391.286	-7.17
391.496	-7.17
391.705	105.47
391.915	13.31
392.125	-13.31
392.334	17.41
392.544	17.41
392.753	33.79
392.963	-19.46
393.172	58.37
393.382	-29.7
393.591	99.33
393.801	50.18
394.01	44.03
394.22	31.74
394.429	76.8
394.639	-17.41
394.848	99.33
395.058	31.74
395.267	27.65
395.477	3.07
395.686	60.42
395.895	78.85
396.105	54.27
396.314	109.57
396.524	68.61
396.733	37.89
396.942	80.89
397.152	74.75
397.361	27.65
397.57	-15.36
397.78	52.22
397.989	82.94
398.198	111.61
398.407	9.22
398.617	58.37
398.826	25.6
399.035	25.6
399.244	66.56
399.453	70.65
399.663	39.94
399.872	-33.79
400.081	46.08
400.29	144.38
400.499	99.33
400.708	84.99
400.917	-23.55
401.127	11.26
401.336	13.31
401.545	107.52
401.754	39.94
401.963	15.36
402.172	62.46
402.381	91.13
402.59	70.65
402.799	74.75
403.008	60.42
403.217	52.22
403.426	7.17
403.635	27.65
403.844	78.85
404.053	117.76
404.262	111.61
404.471	62.46
404.68	105.47
404.888	91.13
405.097	95.23
405.306	89.09
405.515	-3.07
405.724	136.19
405.933	105.47
406.142	125.95
406.35	91.13
406.559	76.8
406.768	29.7
406.977	56.32
407.185	46.08
407.394	154.62
407.603	132.09
407.812	216.06
408.02	142.33
408.229	64.51
408.438	58.37
408.646	99.33
408.855	87.04
409.064	97.28
409.272	91.13
409.481	111.61
409.69	95.23
409.898	93.18
410.107	93.18
410.315	140.29
410.524	82.94
410.733	152.57
410.941	101.37
411.15	205.82
411.358	189.44
411.567	168.96
411.775	185.34
411.984	216.06
412.192	187.39
412.401	154.62
412.609	214.01
412.818	257.02
413.026	242.68
413.234	187.39
413.443	187.39
413.651	293.88
413.86	265.21
414.068	248.83
414.276	345.08
414.485	310.27
414.693	316.41
414.901	386.04
415.11	308.22
415.318	269.31
415.526	295.93
415.734	371.71
415.943	359.42
416.151	457.72
416.359	455.67
416.567	447.48
416.776	359.42
416.984	418.81
417.192	484.34
417.4	480.25
417.608	500.73
417.817	482.3
418.025	492.54
418.233	541.69
418.441	584.7
418.649	586.74
418.857	517.11
419.065	551.93
419.273	594.93
419.481	662.52
419.689	543.74
419.897	685.05
420.105	656.37
420.313	723.96
420.521	736.24
420.729	812.02
420.937	869.36
421.145	746.48
421.353	865.27
421.561	852.98
421.769	971.76
421.977	973.81
422.185	891.89
422.393	1025.01
422.601	1025.01
422.809	1092.59
423.017	1020.91
423.224	1258.48
423.432	1145.84
423.64	1100.78
423.848	1299.44
424.056	1278.96
424.263	1328.11
424.471	1319.92
424.679	1442.79
424.887	1446.89
425.094	1444.84
425.302	1469.42
425.51	1670.12
425.718	1584.1
425.925	1633.26
426.133	1700.84
426.341	1745.89
426.548	1739.75
426.756	1823.72
426.964	1887.2
427.171	1981.41
427.379	2094.05
427.586	2030.56
427.794	2216.93
428.001	2325.47
428.209	2331.61
428.417	2259.93
428.624	2378.72
428.832	2534.36
429.039	2462.68
429.247	2335.71
429.454	2712.53
429.662	2757.59
429.869	2759.64
430.076	3005.39
430.284	2788.31
430.491	2780.12
430.699	2980.82
430.906	2892.76
431.114	2991.06
431.321	3285.97
431.528	3310.54
431.736	3474.38
431.943	3548.11
432.15	3513.29
432.358	3601.35
432.565	3713.99
432.772	3767.24
432.979	3877.83
433.187	3974.08
433.394	4066.24
433.601	4355.01
433.808	4279.23
434.016	4344.77
434.223	4436.92
434.43	4795.32
434.637	4602.81
434.844	4950.96
435.052	5274.54
435.259	4926.39
435.466	5084.08
435.673	4981.68
435.88	5333.93
436.087	5612.46
436.294	5610.41
436.501	5342.13
436.708	5548.97
436.915	5723.05
437.122	6161.31
437.329	6001.57
437.537	6251.42
437.743	6359.97
437.95	6239.14
438.157	6491.04
438.364	6814.62
438.571	6751.13
438.778	7000.98
438.985	7521.17
439.192	7039.89
439.399	7418.77
439.606	7199.63
439.813	7699.34
440.02	8110.98
440.227	8113.03
440.433	7725.96
440.64	8192.9
440.847	7934.85
441.054	8223.62
441.261	8881.02
441.467	8860.54
441.674	8903.54
441.881	9352.05
442.088	9239.41
442.294	9126.77
442.501	9386.86
442.708	9591.66
442.914	10099.56
443.121	10351.46
443.328	10013.54
443.534	11043.67
443.741	10638.17
443.948	10576.73
444.154	11234.13
444.361	10988.38
444.568	11207.51
444.774	11058.01
444.981	11395.92
445.187	11678.54
445.394	12413.76
445.6	11799.37
445.807	13261.62
446.013	12526.4
446.22	12811.07
446.426	13431.6
446.633	13679.41
446.839	14117.67
447.046	13581.1
447.252	14181.16
447.459	14086.95
447.665	14107.43
447.871	14865.18
448.078	15516.44
448.284	14654.24
448.491	15096.6
448.697	15592.21
448.903	15979.28
449.11	16124.68
449.316	16128.78
449.522	16063.24
449.728	17017.6
449.935	16898.81
450.141	16753.41
450.347	17406.71
450.553	16696.07
450.76	16960.25
450.966	17756.91
451.172	17144.57
451.378	17572.6
451.584	17259.26
451.791	17984.24
451.997	17683.19
452.203	18260.71
452.409	18328.3
452.615	17912.56
452.821	17441.53
453.027	17210.11
453.233	18244.33
453.44	17451.77
453.646	17705.71
453.852	17726.19
454.058	18189.03
454.264	17462.01
454.47	17890.03
454.676	17482.49
454.882	18131.69
455.088	16435.97
455.294	16734.98
455.5	17056.51
455.705	17025.79
455.911	16483.08
456.117	16288.52
456.323	16083.72
456.529	15229.72
456.735	15766.29
456.941	15657.75
457.147	15272.73
457.352	14666.53
457.558	14682.91
457.764	14431.01
457.97	14263.08
458.176	14082.86
458.381	14125.86
458.587	13456.18
458.793	13478.71
458.999	12464.96
459.204	13527.86
459.41	13116.22
459.616	12510.02
459.821	12421.95
460.027	12229.45
460.233	12163.91
460.438	11379.54
460.644	11610.96
460.85	11068.25
461.055	10859.35
461.261	10918.75
461.466	9929.58
461.672	9759.6
461.878	10320.74
462.083	9700.2
462.289	9522.03
462.494	9425.78
462.7	8993.65
462.905	9016.18
463.111	9173.88
463.316	9020.28
463.522	8860.54
463.727	9208.69
463.932	8975.22
464.138	8874.87
464.343	8952.7
464.549	8559.49
464.754	9061.24
464.959	8858.49
465.165	8852.34
465.37	8463.23
465.575	8338.3
465.781	8684.41
465.986	8610.68
466.191	8350.59
466.397	8158.08
466.602	7777.16
466.807	8135.56
467.012	8070.02
467.218	7963.53
467.423	7814.02
467.628	7887.75
467.833	8176.52
468.038	8006.53
468.244	7689.1
468.449	8047.49
468.654	7936.9
468.859	7865.22
469.064	7648.14
