Data from USB4F104151__59__12-59-22-224.txt Node

Date: Fri Mar 14 12:59:22 EDT 2025
User: louis
Spectrometer: USB4F10415
Trigger mode: 4
Integration Time (sec): 1.000000E-2
Scans to average: 1
Electric dark correction enabled: true
Nonlinearity correction enabled: false
Boxcar width: 0
XAxis mode: Wavelengths
Number of Pixels in Spectrum: 3648
>>>>>Begin Spectral Data<<<<<
178.204	-42.5
178.424	-42.5
178.644	-42.5
178.864	-56.83
179.084	31.23
179.304	-19.97
179.524	-22.02
179.744	31.23
179.964	47.62
180.184	4.61
180.404	6.66
180.624	-11.78
180.844	23.04
181.064	-48.64
181.283	-42.5
181.503	-24.06
181.723	55.81
181.943	2.56
182.163	-22.02
182.383	-32.26
182.602	35.33
182.822	0.51
183.042	-46.59
183.262	49.66
183.482	31.23
183.701	-28.16
183.921	43.52
184.141	-24.06
184.361	57.86
184.58	16.9
184.8	-28.16
185.02	76.29
185.239	61.95
185.459	-60.93
185.679	25.09
185.898	-13.82
186.118	31.23
186.338	16.9
186.557	6.66
186.777	-77.31
186.997	-7.68
187.216	-38.4
187.436	33.28
187.655	4.61
187.875	29.18
188.095	53.76
188.314	2.56
188.534	37.38
188.753	51.71
188.973	12.8
189.192	10.75
189.412	12.8
189.631	12.8
189.851	18.94
190.07	10.75
190.29	4.61
190.509	-3.58
190.729	-28.16
190.948	59.9
191.168	92.67
191.387	45.57
191.607	53.76
191.826	20.99
192.045	16.9
192.265	-65.02
192.484	-40.45
192.704	25.09
192.923	-28.16
193.142	53.76
193.362	6.66
193.581	59.9
193.8	0.51
194.02	20.99
194.239	-28.16
194.458	100.86
194.678	16.9
194.897	45.57
195.116	-1.54
195.335	10.75
195.555	25.09
195.774	18.94
195.993	-3.58
196.212	-11.78
196.432	-1.54
196.651	-11.78
196.87	-3.58
197.089	-1.54
197.308	27.14
197.528	27.14
197.747	-11.78
197.966	-3.58
198.185	-30.21
198.404	-5.63
198.623	-19.97
198.842	-32.26
199.062	-19.97
199.281	25.09
199.5	45.57
199.719	-46.59
199.938	35.33
200.157	-24.06
200.376	18.94
200.595	18.94
200.814	39.42
201.033	14.85
201.252	35.33
201.471	4.61
201.69	33.28
201.909	66.05
202.128	25.09
202.347	-19.97
202.566	-32.26
202.785	78.33
203.004	-24.06
203.223	8.7
203.442	59.9
203.661	-11.78
203.879	-1.54
204.098	92.67
204.317	16.9
204.536	29.18
204.755	6.66
204.974	102.91
205.193	57.86
205.411	43.52
205.63	35.33
205.849	68.09
206.068	41.47
206.287	35.33
206.505	-28.16
206.724	-7.68
206.943	-3.58
207.162	121.34
207.381	90.62
207.599	29.18
207.818	-42.5
208.037	2.56
208.255	-1.54
208.474	12.8
208.693	61.95
208.911	10.75
209.13	35.33
209.349	-34.3
209.567	-11.78
209.786	6.66
210.005	-52.74
210.223	-26.11
210.442	6.66
210.661	61.95
210.879	29.18
211.098	35.33
211.316	-3.58
211.535	-22.02
211.753	23.04
211.972	23.04
212.191	-11.78
212.409	25.09
212.628	25.09
212.846	-3.58
213.065	57.86
213.283	39.42
213.502	-22.02
213.72	70.14
213.938	-75.26
214.157	-3.58
214.375	57.86
214.594	-1.54
214.812	-46.59
215.031	0.51
215.249	72.19
215.467	29.18
215.686	23.04
215.904	37.38
216.122	16.9
216.341	-34.3
216.559	-1.54
216.778	51.71
216.996	20.99
217.214	0.51
217.432	6.66
217.651	51.71
217.869	-5.63
218.087	49.66
218.306	-1.54
218.524	-7.68
218.742	-32.26
218.96	-15.87
219.179	-30.21
219.397	20.99
219.615	72.19
219.833	76.29
220.051	20.99
220.27	25.09
220.488	-30.21
220.706	-22.02
220.924	66.05
221.142	68.09
221.36	35.33
221.578	18.94
221.796	23.04
222.015	-36.35
222.233	51.71
222.451	-11.78
222.669	51.71
222.887	64
223.105	-1.54
223.323	35.33
223.541	-9.73
223.759	43.52
223.977	-26.11
224.195	51.71
224.413	-24.06
224.631	59.9
224.849	2.56
225.067	64
225.285	43.52
225.503	20.99
225.721	76.29
225.939	-34.3
226.157	37.38
226.375	86.53
226.592	4.61
226.81	29.18
227.028	31.23
227.246	39.42
227.464	16.9
227.682	35.33
227.9	-26.11
228.117	102.91
228.335	-5.63
228.553	10.75
228.771	107.01
228.989	12.8
229.206	25.09
229.424	57.86
229.642	35.33
229.86	33.28
230.077	-3.58
230.295	43.52
230.513	-54.78
230.731	68.09
230.948	16.9
231.166	45.57
231.384	41.47
231.601	33.28
231.819	20.99
232.037	51.71
232.254	-11.78
232.472	41.47
232.689	20.99
232.907	35.33
233.125	16.9
233.342	43.52
233.56	-24.06
233.777	27.14
233.995	59.9
234.213	59.9
234.43	-24.06
234.648	49.66
234.865	-9.73
235.083	37.38
235.3	10.75
235.518	35.33
235.735	78.33
235.953	43.52
236.17	45.57
236.388	10.75
236.605	-5.63
236.822	39.42
237.04	-1.54
237.257	27.14
237.475	49.66
237.692	-1.54
237.909	49.66
238.127	61.95
238.344	88.57
238.562	76.29
238.779	35.33
238.996	18.94
239.214	-36.35
239.431	27.14
239.648	-28.16
239.865	125.44
240.083	18.94
240.3	8.7
240.517	2.56
240.735	4.61
240.952	2.56
241.169	37.38
241.386	-32.26
241.603	35.33
241.821	-24.06
242.038	72.19
242.255	111.1
242.472	12.8
242.689	18.94
242.907	82.43
243.124	29.18
243.341	-17.92
243.558	49.66
243.775	84.48
243.992	20.99
244.209	-9.73
244.426	57.86
244.643	37.38
244.86	-5.63
245.078	6.66
245.295	41.47
245.512	8.7
245.729	-50.69
245.946	45.57
246.163	-11.78
246.38	88.57
246.597	55.81
246.814	33.28
247.031	-36.35
247.248	-22.02
247.464	59.9
247.681	-22.02
247.898	25.09
248.115	-5.63
248.332	-36.35
248.549	59.9
248.766	39.42
248.983	23.04
249.2	-3.58
249.417	25.09
249.633	53.76
249.85	23.04
250.067	53.76
250.284	-13.82
250.501	76.29
250.717	-67.07
250.934	-15.87
251.151	27.14
251.368	39.42
251.585	49.66
251.801	2.56
252.018	57.86
252.235	-5.63
252.451	4.61
252.668	2.56
252.885	70.14
253.102	20.99
253.318	-13.82
253.535	35.33
253.752	-9.73
253.968	4.61
254.185	4.61
254.401	23.04
254.618	20.99
254.835	-42.5
255.051	111.1
255.268	-3.58
255.484	-36.35
255.701	-9.73
255.917	23.04
256.134	4.61
256.351	64
256.567	18.94
256.784	-15.87
257	-13.82
257.217	68.09
257.433	25.09
257.65	-11.78
257.866	57.86
258.082	27.14
258.299	-19.97
258.515	29.18
258.732	98.81
258.948	-3.58
259.165	107.01
259.381	6.66
259.597	-9.73
259.814	-50.69
260.03	51.71
260.246	25.09
260.463	51.71
260.679	39.42
260.895	47.62
261.112	43.52
261.328	55.81
261.544	59.9
261.761	-3.58
261.977	74.24
262.193	37.38
262.409	2.56
262.626	49.66
262.842	37.38
263.058	35.33
263.274	23.04
263.49	-13.82
263.707	74.24
263.923	16.9
264.139	51.71
264.355	-7.68
264.571	39.42
264.787	8.7
265.004	2.56
265.22	6.66
265.436	37.38
265.652	-19.97
265.868	-54.78
266.084	-3.58
266.3	-5.63
266.516	-13.82
266.732	31.23
266.948	-71.17
267.164	-3.58
267.38	53.76
267.596	61.95
267.812	96.77
268.028	-34.3
268.244	43.52
268.46	-1.54
268.676	20.99
268.892	27.14
269.108	-7.68
269.324	23.04
269.54	45.57
269.756	47.62
269.972	59.9
270.188	29.18
270.403	27.14
270.619	20.99
270.835	-7.68
271.051	37.38
271.267	70.14
271.483	10.75
271.698	102.91
271.914	18.94
272.13	4.61
272.346	27.14
272.562	-3.58
272.777	12.8
272.993	-1.54
273.209	96.77
273.425	68.09
273.64	-28.16
273.856	53.76
274.072	-1.54
274.287	37.38
274.503	51.71
274.719	80.38
274.934	-71.17
275.15	68.09
275.366	64
275.581	37.38
275.797	29.18
276.012	25.09
276.228	-24.06
276.444	37.38
276.659	51.71
276.875	2.56
277.09	23.04
277.306	-54.78
277.521	-17.92
277.737	18.94
277.952	16.9
278.168	23.04
278.383	0.51
278.599	74.24
278.814	113.15
279.03	-5.63
279.245	12.8
279.461	31.23
279.676	72.19
279.892	59.9
280.107	-26.11
280.322	-3.58
280.538	43.52
280.753	55.81
280.969	47.62
281.184	16.9
281.399	10.75
281.615	-30.21
281.83	-17.92
282.045	12.8
282.26	23.04
282.476	-38.4
282.691	35.33
282.906	14.85
283.122	0.51
283.337	-38.4
283.552	6.66
283.767	25.09
283.983	78.33
284.198	-38.4
284.413	84.48
284.628	27.14
284.843	72.19
285.058	25.09
285.274	0.51
285.489	31.23
285.704	64
285.919	59.9
286.134	-17.92
286.349	129.53
286.564	35.33
286.779	14.85
286.995	98.81
287.21	2.56
287.425	-46.59
287.64	39.42
287.855	-1.54
288.07	8.7
288.285	45.57
288.5	53.76
288.715	16.9
288.93	23.04
289.145	27.14
289.36	66.05
289.575	-7.68
289.79	35.33
290.004	35.33
290.219	14.85
290.434	-34.3
290.649	18.94
290.864	-1.54
291.079	41.47
291.294	-1.54
291.509	33.28
291.724	55.81
291.938	35.33
292.153	35.33
292.368	-5.63
292.583	12.8
292.798	-17.92
293.012	51.71
293.227	2.56
293.442	53.76
293.657	49.66
293.871	74.24
294.086	18.94
294.301	14.85
294.516	57.86
294.73	84.48
294.945	35.33
295.16	37.38
295.374	-34.3
295.589	10.75
295.804	-11.78
296.018	53.76
296.233	2.56
296.447	-5.63
296.662	57.86
296.877	43.52
297.091	43.52
297.306	68.09
297.52	68.09
297.735	84.48
297.949	57.86
298.164	-15.87
298.378	-5.63
298.593	29.18
298.807	-24.06
299.022	18.94
299.236	-15.87
299.451	76.29
299.665	35.33
299.88	-56.83
300.094	-11.78
300.309	41.47
300.523	100.86
300.737	53.76
300.952	-36.35
301.166	33.28
301.381	121.34
301.595	2.56
301.809	57.86
302.024	4.61
302.238	-1.54
302.452	10.75
302.667	49.66
302.881	29.18
303.095	31.23
303.309	55.81
303.524	-13.82
303.738	23.04
303.952	-46.59
304.166	14.85
304.381	-30.21
304.595	47.62
304.809	31.23
305.023	23.04
305.237	-13.82
305.452	-1.54
305.666	23.04
305.88	33.28
306.094	-5.63
306.308	64
306.522	12.8
306.736	-32.26
306.95	-22.02
307.164	16.9
307.379	10.75
307.593	55.81
307.807	43.52
308.021	133.63
308.235	10.75
308.449	12.8
308.663	14.85
308.877	29.18
309.091	76.29
309.305	64
309.519	-28.16
309.733	-7.68
309.947	-9.73
310.161	55.81
310.374	18.94
310.588	29.18
310.802	66.05
311.016	14.85
311.23	51.71
311.444	39.42
311.658	35.33
311.872	35.33
312.085	8.7
312.299	37.38
312.513	-9.73
312.727	10.75
312.941	-13.82
313.154	35.33
313.368	55.81
313.582	51.71
313.796	-32.26
314.009	-3.58
314.223	27.14
314.437	23.04
314.651	18.94
314.864	4.61
315.078	51.71
315.292	-17.92
315.505	-7.68
315.719	27.14
315.933	64
316.146	-46.59
316.36	33.28
316.573	12.8
316.787	12.8
317.001	55.81
317.214	92.67
317.428	25.09
317.641	45.57
317.855	-1.54
318.068	-103.93
318.282	25.09
318.495	78.33
318.709	68.09
318.922	23.04
319.136	-15.87
319.349	-22.02
319.563	64
319.776	-13.82
319.99	-34.3
320.203	25.09
320.417	49.66
320.63	12.8
320.843	125.44
321.057	68.09
321.27	-28.16
321.483	-1.54
321.697	8.7
321.91	33.28
322.124	37.38
322.337	27.14
322.55	72.19
322.763	8.7
322.977	66.05
323.19	68.09
323.403	31.23
323.617	45.57
323.83	-11.78
324.043	82.43
324.256	-9.73
324.469	-19.97
324.683	-15.87
324.896	68.09
325.109	64
325.322	72.19
325.535	55.81
325.748	-36.35
325.962	-7.68
326.175	39.42
326.388	45.57
326.601	43.52
326.814	70.14
327.027	39.42
327.24	47.62
327.453	25.09
327.666	12.8
327.879	29.18
328.092	8.7
328.305	20.99
328.518	27.14
328.731	-7.68
328.944	51.71
329.157	47.62
329.37	-44.54
329.583	-15.87
329.796	29.18
330.009	-44.54
330.222	14.85
330.435	37.38
330.648	-22.02
330.861	20.99
331.073	25.09
331.286	-13.82
331.499	57.86
331.712	68.09
331.925	45.57
332.138	-40.45
332.35	43.52
332.563	20.99
332.776	84.48
332.989	-19.97
333.202	10.75
333.414	-52.74
333.627	8.7
333.84	35.33
334.053	20.99
334.265	20.99
334.478	51.71
334.691	-44.54
334.903	23.04
335.116	53.76
335.329	8.7
335.541	-3.58
335.754	64
335.966	10.75
336.179	64
336.392	51.71
336.604	-13.82
336.817	137.73
337.029	0.51
337.242	-60.93
337.454	-58.88
337.667	-5.63
337.88	51.71
338.092	4.61
338.305	68.09
338.517	20.99
338.729	88.57
338.942	-9.73
339.154	6.66
339.367	-22.02
339.579	37.38
339.792	-11.78
340.004	-11.78
340.217	35.33
340.429	29.18
340.641	16.9
340.854	-19.97
341.066	-3.58
341.278	10.75
341.491	-48.64
341.703	61.95
341.915	55.81
342.128	20.99
342.34	47.62
342.552	6.66
342.764	10.75
342.977	8.7
343.189	-1.54
343.401	35.33
343.613	29.18
343.826	8.7
344.038	-15.87
344.25	78.33
344.462	6.66
344.674	76.29
344.886	-13.82
345.099	31.23
345.311	23.04
345.523	10.75
345.735	-3.58
345.947	76.29
346.159	-22.02
346.371	57.86
346.583	-15.87
346.795	31.23
347.007	45.57
347.219	59.9
347.431	-34.3
347.643	61.95
347.855	51.71
348.067	39.42
348.279	41.47
348.491	29.18
348.703	39.42
348.915	6.66
349.127	-28.16
349.339	2.56
349.551	37.38
349.763	84.48
349.975	-28.16
350.187	4.61
350.399	133.63
350.61	35.33
350.822	6.66
351.034	37.38
351.246	33.28
351.458	68.09
351.669	27.14
351.881	-9.73
352.093	31.23
352.305	100.86
352.517	-15.87
352.728	4.61
352.94	25.09
353.152	23.04
353.363	49.66
353.575	6.66
353.787	61.95
353.999	64
354.21	74.24
354.422	51.71
354.633	39.42
354.845	18.94
355.057	6.66
355.268	117.25
355.48	20.99
355.692	31.23
355.903	8.7
356.115	18.94
356.326	27.14
356.538	10.75
356.749	74.24
356.961	94.72
357.172	86.53
357.384	76.29
357.595	16.9
357.807	43.52
358.018	6.66
358.23	127.49
358.441	20.99
358.653	64
358.864	41.47
359.075	27.14
359.287	84.48
359.498	37.38
359.709	-32.26
359.921	14.85
360.132	18.94
360.344	61.95
360.555	4.61
360.766	35.33
360.977	37.38
361.189	16.9
361.4	68.09
361.611	45.57
361.823	-24.06
362.034	74.24
362.245	8.7
362.456	53.76
362.667	-17.92
362.879	-11.78
363.09	39.42
363.301	25.09
363.512	59.9
363.723	35.33
363.935	25.09
364.146	-3.58
364.357	47.62
364.568	-5.63
364.779	41.47
364.99	59.9
365.201	18.94
365.412	55.81
365.623	-38.4
365.834	29.18
366.045	-48.64
366.256	27.14
366.467	37.38
366.678	72.19
366.889	2.56
367.1	25.09
367.311	51.71
367.522	49.66
367.733	29.18
367.944	27.14
368.155	-62.98
368.366	64
368.577	0.51
368.788	96.77
368.999	2.56
369.209	47.62
369.42	92.67
369.631	100.86
369.842	-1.54
370.053	47.62
370.264	33.28
370.474	10.75
370.685	37.38
370.896	2.56
371.107	78.33
371.317	-9.73
371.528	35.33
371.739	68.09
371.95	12.8
372.16	84.48
372.371	-71.17
372.582	57.86
372.792	-58.88
373.003	104.96
373.214	31.23
373.424	-19.97
373.635	-58.88
373.846	86.53
374.056	74.24
374.267	37.38
374.477	53.76
374.688	25.09
374.898	43.52
375.109	68.09
375.319	61.95
375.53	-34.3
375.74	-22.02
375.951	76.29
376.161	76.29
376.372	61.95
376.582	-11.78
376.793	-120.32
377.003	47.62
377.214	66.05
377.424	0.51
377.635	68.09
377.845	31.23
378.055	111.1
378.266	74.24
378.476	6.66
378.686	68.09
378.897	51.71
379.107	6.66
379.317	59.9
379.528	10.75
379.738	8.7
379.948	41.47
380.158	6.66
380.369	88.57
380.579	16.9
380.789	4.61
380.999	37.38
381.21	27.14
381.42	100.86
381.63	-69.12
381.84	57.86
382.05	35.33
382.261	64
382.471	70.14
382.681	55.81
382.891	59.9
383.101	33.28
383.311	31.23
383.521	27.14
383.731	-17.92
383.941	47.62
384.151	37.38
384.361	43.52
384.571	45.57
384.781	10.75
384.991	-34.3
385.201	66.05
385.411	6.66
385.621	90.62
385.831	2.56
386.041	59.9
386.251	14.85
386.461	86.53
386.671	45.57
386.881	0.51
387.091	-9.73
387.301	6.66
387.511	39.42
387.72	72.19
387.93	-1.54
388.14	14.85
388.35	8.7
388.56	117.25
388.769	109.05
388.979	92.67
389.189	4.61
389.399	119.29
389.609	2.56
389.818	68.09
390.028	-9.73
390.238	102.91
390.447	-17.92
390.657	98.81
390.867	45.57
391.076	27.14
391.286	29.18
391.496	94.72
391.705	37.38
391.915	41.47
392.125	20.99
392.334	70.14
392.544	35.33
392.753	-26.11
392.963	23.04
393.172	43.52
393.382	84.48
393.591	20.99
393.801	43.52
394.01	35.33
394.22	72.19
394.429	88.57
394.639	68.09
394.848	74.24
395.058	96.77
395.267	37.38
395.477	55.81
395.686	127.49
395.895	74.24
396.105	92.67
396.314	64
396.524	61.95
396.733	55.81
396.942	6.66
397.152	25.09
397.361	70.14
397.57	76.29
397.78	72.19
397.989	-1.54
398.198	150.01
398.407	-17.92
398.617	88.57
398.826	37.38
399.035	70.14
399.244	51.71
399.453	53.76
399.663	111.1
399.872	12.8
400.081	41.47
400.29	109.05
400.499	66.05
400.708	23.04
400.917	156.16
401.127	43.52
401.336	102.91
401.545	10.75
401.754	43.52
401.963	20.99
402.172	86.53
402.381	86.53
402.59	61.95
402.799	57.86
403.008	150.01
403.217	86.53
403.426	88.57
403.635	70.14
403.844	72.19
404.053	150.01
404.262	37.38
404.471	174.59
404.68	111.1
404.888	147.97
405.097	96.77
405.306	133.63
405.515	109.05
405.724	115.2
405.933	64
406.142	129.53
406.35	88.57
406.559	68.09
406.768	102.91
406.977	107.01
407.185	72.19
407.394	133.63
407.603	156.16
407.812	133.63
408.02	74.24
408.229	117.25
408.438	176.64
408.646	145.92
408.855	227.84
409.064	160.25
409.272	180.73
409.481	190.97
409.69	141.82
409.898	164.35
410.107	131.58
410.315	131.58
410.524	143.87
410.733	193.02
410.941	131.58
411.15	174.59
411.358	219.64
411.567	201.21
411.775	197.12
411.984	215.55
412.192	246.27
412.401	281.08
412.609	262.65
412.818	348.67
413.026	268.8
413.234	303.61
413.443	268.8
413.651	324.09
413.86	293.37
414.068	301.56
414.276	328.19
414.485	350.71
414.693	309.76
414.901	391.67
415.11	457.21
415.318	375.29
415.526	420.35
415.734	440.83
415.943	463.35
416.151	461.3
416.359	473.59
416.567	532.98
416.776	522.74
416.984	496.12
417.192	524.79
417.4	610.81
417.608	522.74
417.817	545.27
418.025	629.24
418.233	664.05
418.441	637.43
418.649	637.43
418.857	684.53
419.065	733.68
419.273	772.6
419.481	881.14
419.689	823.8
419.897	903.67
420.105	831.99
420.313	946.67
420.521	872.95
420.729	934.39
420.937	905.71
421.145	983.54
421.353	1036.78
421.561	1020.4
421.769	1067.5
421.977	1163.76
422.185	1065.46
422.393	1233.39
422.601	1282.54
422.809	1384.94
423.017	1282.54
423.224	1210.86
423.432	1421.8
423.64	1432.04
423.848	1542.63
424.056	1450.47
424.263	1624.55
424.471	1552.87
424.679	1690.09
424.887	1765.86
425.094	1796.58
425.302	1780.2
425.51	1870.31
425.718	1923.55
425.925	1939.94
426.133	2062.82
426.341	2034.14
426.548	2157.02
426.756	2136.54
426.964	2202.08
427.171	2296.28
427.379	2476.51
427.586	2597.34
427.794	2431.45
428.001	2626.01
428.209	2750.93
428.417	2632.15
428.624	3015.12
428.832	2736.6
429.039	2939.35
429.247	2873.81
429.454	3238.35
429.662	3295.69
429.869	3203.54
430.076	3297.74
430.284	3332.56
430.491	3377.61
430.699	3717.58
430.906	3586.51
431.114	3660.23
431.321	3942.85
431.528	3920.32
431.736	4164.03
431.943	4305.34
432.15	4198.85
432.358	4243.9
432.565	4491.71
432.772	4424.12
432.979	4706.74
433.187	4770.23
433.394	4850.1
433.601	5206.45
433.808	5073.33
434.016	5163.44
434.223	5403.05
434.43	5695.91
434.637	5534.12
434.844	5804.46
435.052	6011.3
435.259	6130.08
435.466	5996.96
435.673	6117.79
435.88	6132.13
436.087	6744.47
436.294	6814.1
436.501	6762.9
436.708	6873.5
436.915	6893.97
437.122	7309.71
437.329	7102.87
437.537	7455.12
437.743	7567.76
437.95	7352.72
438.157	7934.34
438.364	8184.2
438.571	8104.32
438.778	8251.78
438.985	9089.4
439.192	8636.8
439.399	8759.67
439.606	8632.7
439.813	9296.24
440.02	9705.84
440.227	9697.64
440.433	9611.63
440.64	9865.58
440.847	9636.2
441.054	9793.9
441.261	10467.68
441.467	10471.78
441.674	10895.71
441.881	11141.46
442.088	11116.89
442.294	11088.21
442.501	11254.1
442.708	11471.18
442.914	12052.81
443.121	12642.62
443.328	12159.3
443.534	13242.68
443.741	12843.32
443.948	12663.1
444.154	13410.61
444.361	13433.14
444.568	13556.02
444.774	13582.64
444.981	13947.18
445.187	13973.8
445.394	14932.25
445.6	14465.32
445.807	16179.47
446.013	15161.62
446.22	15649.04
446.426	16156.94
446.633	16331.01
446.839	16769.28
447.046	16337.16
447.252	17266.94
447.459	17070.33
447.665	17025.28
447.871	18075.88
448.078	18872.54
448.284	17615.09
448.491	18243.82
448.697	19038.43
448.903	19384.54
449.11	19687.64
449.316	19011.81
449.522	19644.63
449.728	20244.68
449.935	19992.78
450.141	20121.8
450.347	20740.29
450.553	19955.92
450.76	20560.07
450.966	21223.61
451.172	20723.91
451.378	21252.28
451.584	20848.83
451.791	21450.94
451.997	21399.74
452.203	22067.38
452.409	21840.05
452.615	21819.57
452.821	20949.18
453.027	20762.82
453.233	21878.96
453.44	21092.54
453.646	21506.23
453.852	21326.01
454.058	21762.23
454.264	21201.08
454.47	21821.62
454.676	21182.65
454.882	21768.37
455.088	20230.35
455.294	20330.7
455.5	20375.75
455.705	20773.06
455.911	19986.64
456.117	19523.8
456.323	19198.17
456.529	18235.63
456.735	19075.29
456.941	18477.29
457.147	18108.65
457.352	17668.34
457.558	17639.67
457.764	17748.21
457.97	17154.3
458.176	16802.05
458.381	16886.01
458.587	16077.07
458.793	16156.94
458.999	15255.83
459.204	16369.93
459.41	15792.4
459.616	14715.17
459.821	14971.16
460.027	14545.19
460.233	14389.54
460.438	13590.83
460.644	14113.06
460.85	13226.29
461.055	13162.81
461.261	13087.03
461.466	12063.05
461.672	11770.19
461.878	12310.85
462.083	11770.19
462.289	11467.09
462.494	11290.96
462.7	10875.23
462.905	10619.23
463.111	11106.65
463.316	10973.53
463.522	10750.3
463.727	11028.82
463.932	10744.16
464.138	10670.43
464.343	10629.47
464.549	10316.13
464.754	10695
464.959	10705.24
465.165	10557.79
465.37	10258.79
465.575	9709.93
465.781	10338.66
465.986	10441.06
466.191	10084.71
466.397	9736.56
466.602	9429.36
466.807	9693.55
467.012	9783.66
467.218	9525.61
467.423	9482.61
467.628	9640.3
467.833	9953.64
468.038	9548.14
468.244	9259.38
468.449	9763.18
468.654	9378.16
468.859	9271.67
469.064	9462.13
469.269	8669.56
469.474	8735.1
