Data from USB4F104151__22__12-58-38-018.txt Node

Date: Fri Mar 14 12:58:38 EDT 2025
User: louis
Spectrometer: USB4F10415
Trigger mode: 4
Integration Time (sec): 1.000000E-2
Scans to average: 1
Electric dark correction enabled: true
Nonlinearity correction enabled: false
Boxcar width: 0
XAxis mode: Wavelengths
Number of Pixels in Spectrum: 3648
>>>>>Begin Spectral Data<<<<<
178.204	-97.45
178.424	-97.45
178.644	-97.45
178.864	-27.82
179.084	-111.78
179.304	66.39
179.524	29.52
179.744	-21.67
179.964	-17.58
180.184	-74.92
180.404	52.05
180.624	-3.24
180.844	15.19
181.064	-1.19
181.283	21.33
181.503	-64.68
181.723	-1.19
181.943	-56.49
182.163	39.76
182.383	-42.15
182.602	-9.39
182.822	-33.96
183.042	-3.24
183.262	-31.91
183.482	-15.53
183.701	-13.48
183.921	-19.63
184.141	33.62
184.361	-46.25
184.58	-19.63
184.8	15.19
185.02	9.05
185.239	47.96
185.459	45.91
185.679	15.19
185.898	-40.11
186.118	23.38
186.338	31.57
186.557	-44.2
186.777	-3.24
186.997	-27.82
187.216	70.48
187.436	37.72
187.655	31.57
187.875	45.91
188.095	-40.11
188.314	29.52
188.534	58.2
188.753	9.05
188.973	-40.11
189.192	23.38
189.412	11.09
189.631	-42.15
189.851	21.33
190.07	56.15
190.29	-33.96
190.509	-15.53
190.729	56.15
190.948	-46.25
191.168	101.2
191.387	15.19
191.607	-15.53
191.826	-42.15
192.045	-11.43
192.265	-93.35
192.484	23.38
192.704	31.57
192.923	-3.24
193.142	58.2
193.362	7
193.581	-9.39
193.8	41.81
194.02	-13.48
194.239	-23.72
194.458	58.2
194.678	9.05
194.897	15.19
195.116	-9.39
195.335	58.2
195.555	17.24
195.774	-60.59
195.993	-11.43
196.212	17.24
196.432	13.14
196.651	7
196.87	-81.07
197.089	58.2
197.308	-3.24
197.528	62.29
197.747	23.38
197.966	45.91
198.185	33.62
198.404	-13.48
198.623	-13.48
198.842	11.09
199.062	80.72
199.281	7
199.5	7
199.719	43.86
199.938	74.58
200.157	-9.39
200.376	35.67
200.595	-3.24
200.814	-23.72
201.033	-1.19
201.252	4.95
201.471	64.34
201.69	27.48
201.909	15.19
202.128	-21.67
202.347	31.57
202.566	31.57
202.785	-23.72
203.004	11.09
203.223	33.62
203.442	-95.4
203.661	-27.82
203.879	-33.96
204.098	15.19
204.317	-21.67
204.536	-29.87
204.755	-29.87
204.974	-81.07
205.193	9.05
205.411	17.24
205.63	-13.48
205.849	15.19
206.068	-5.29
206.287	11.09
206.505	66.39
206.724	62.29
206.943	4.95
207.162	-17.58
207.381	23.38
207.599	-25.77
207.818	9.05
208.037	25.43
208.255	31.57
208.474	64.34
208.693	31.57
208.911	37.72
209.13	23.38
209.349	9.05
209.567	4.95
209.786	31.57
210.005	-23.72
210.223	-9.39
210.442	11.09
210.661	-9.39
210.879	-58.54
211.098	19.29
211.316	43.86
211.535	45.91
211.753	-29.87
211.972	47.96
212.191	-48.3
212.409	-50.35
212.628	-27.82
212.846	15.19
213.065	50
213.283	-56.49
213.502	-5.29
213.72	-31.91
213.938	-64.68
214.157	7
214.375	-60.59
214.594	80.72
214.812	-70.83
215.031	-31.91
215.249	-21.67
215.467	-42.15
215.686	-27.82
215.904	-40.11
216.122	-13.48
216.341	0.85
216.559	47.96
216.778	52.05
216.996	-23.72
217.214	-15.53
217.432	-5.29
217.651	9.05
217.869	35.67
218.087	-23.72
218.306	-40.11
218.524	-56.49
218.742	-31.91
218.96	-17.58
219.179	86.87
219.397	33.62
219.615	2.9
219.833	54.1
220.051	19.29
220.27	-54.44
220.488	74.58
220.706	-31.91
220.924	25.43
221.142	-7.34
221.36	-1.19
221.578	25.43
221.796	-9.39
222.015	-25.77
222.233	-33.96
222.451	-17.58
222.669	-50.35
222.887	23.38
223.105	23.38
223.323	68.44
223.541	-9.39
223.759	56.15
223.977	17.24
224.195	-29.87
224.413	0.85
224.631	2.9
224.849	-38.06
225.067	45.91
225.285	-1.19
225.503	19.29
225.721	74.58
225.939	-5.29
226.157	21.33
226.375	68.44
226.592	2.9
226.81	-7.34
227.028	-72.87
227.246	66.39
227.464	39.76
227.682	-46.25
227.9	19.29
228.117	2.9
228.335	19.29
228.553	-11.43
228.771	-17.58
228.989	-1.19
229.206	0.85
229.424	86.87
229.642	9.05
229.86	13.14
230.077	31.57
230.295	60.24
230.513	25.43
230.731	35.67
230.948	4.95
231.166	50
231.384	54.1
231.601	-58.54
231.819	50
232.037	15.19
232.254	107.35
232.472	0.85
232.689	-17.58
232.907	-25.77
233.125	-107.69
233.342	-15.53
233.56	-17.58
233.777	76.63
233.995	-25.77
234.213	9.05
234.43	25.43
234.648	0.85
234.865	25.43
235.083	4.95
235.3	-1.19
235.518	58.2
235.735	-29.87
235.953	78.68
236.17	29.52
236.388	31.57
236.605	0.85
236.822	33.62
237.04	33.62
237.257	-19.63
237.475	4.95
237.692	21.33
237.909	-1.19
238.127	-23.72
238.344	54.1
238.562	-19.63
238.779	19.29
238.996	7
239.214	7
239.431	-7.34
239.648	-58.54
239.865	39.76
240.083	15.19
240.3	41.81
240.517	0.85
240.735	2.9
240.952	37.72
241.169	23.38
241.386	-17.58
241.603	4.95
241.821	-25.77
242.038	23.38
242.255	15.19
242.472	-5.29
242.689	-15.53
242.907	64.34
243.124	-15.53
243.341	58.2
243.558	47.96
243.775	-25.77
243.992	-70.83
244.209	41.81
244.426	-62.63
244.643	35.67
244.86	-60.59
245.078	-25.77
245.295	13.14
245.512	-27.82
245.729	90.96
245.946	95.06
246.163	-21.67
246.38	31.57
246.597	39.76
246.814	27.48
247.031	-56.49
247.248	52.05
247.464	-25.77
247.681	-15.53
247.898	-46.25
248.115	-13.48
248.332	-7.34
248.549	-7.34
248.766	82.77
248.983	-21.67
249.2	-15.53
249.417	25.43
249.633	-29.87
249.85	-27.82
250.067	-29.87
250.284	-25.77
250.501	33.62
250.717	0.85
250.934	54.1
251.151	-40.11
251.368	27.48
251.585	-54.44
251.801	31.57
252.018	-15.53
252.235	-1.19
252.451	-21.67
252.668	15.19
252.885	21.33
253.102	-3.24
253.318	-31.91
253.535	-38.06
253.752	-21.67
253.968	50
254.185	-17.58
254.401	-79.02
254.618	25.43
254.835	-36.01
255.051	56.15
255.268	-40.11
255.484	35.67
255.701	15.19
255.917	33.62
256.134	9.05
256.351	9.05
256.567	-36.01
256.784	-9.39
257	-48.3
257.217	-33.96
257.433	27.48
257.65	13.14
257.866	-23.72
258.082	-64.68
258.299	2.9
258.515	84.82
258.732	27.48
258.948	-9.39
259.165	19.29
259.381	13.14
259.597	-31.91
259.814	-3.24
260.03	-11.43
260.246	-11.43
260.463	19.29
260.679	-19.63
260.895	-15.53
261.112	-91.31
261.328	19.29
261.544	-15.53
261.761	23.38
261.977	9.05
262.193	23.38
262.409	31.57
262.626	-42.15
262.842	35.67
263.058	21.33
263.274	33.62
263.49	56.15
263.707	-9.39
263.923	4.95
264.139	95.06
264.355	-9.39
264.571	35.67
264.787	43.86
265.004	-17.58
265.22	15.19
265.436	15.19
265.652	-1.19
265.868	23.38
266.084	-23.72
266.3	-46.25
266.516	-66.73
266.732	43.86
266.948	-46.25
267.164	47.96
267.38	-40.11
267.596	-50.35
267.812	17.24
268.028	31.57
268.244	-9.39
268.46	21.33
268.676	84.82
268.892	-31.91
269.108	-87.21
269.324	19.29
269.54	93.01
269.756	31.57
269.972	-25.77
270.188	41.81
270.403	74.58
270.619	9.05
270.835	0.85
271.051	29.52
271.267	-68.78
271.483	-1.19
271.698	-33.96
271.914	-33.96
272.13	-13.48
272.346	15.19
272.562	-13.48
272.777	35.67
272.993	-11.43
273.209	39.76
273.425	17.24
273.64	2.9
273.856	2.9
274.072	-48.3
274.287	-9.39
274.503	-11.43
274.719	-31.91
274.934	9.05
275.15	9.05
275.366	-9.39
275.581	60.24
275.797	13.14
276.012	41.81
276.228	-5.29
276.444	21.33
276.659	-29.87
276.875	-11.43
277.09	74.58
277.306	-42.15
277.521	-3.24
277.737	-15.53
277.952	115.54
278.168	4.95
278.383	47.96
278.599	-11.43
278.814	41.81
279.03	7
279.245	19.29
279.461	7
279.676	4.95
279.892	4.95
280.107	7
280.322	-25.77
280.538	-1.19
280.753	-19.63
280.969	56.15
281.184	-31.91
281.399	31.57
281.615	-1.19
281.83	11.09
282.045	9.05
282.26	-1.19
282.476	19.29
282.691	-48.3
282.906	-1.19
283.122	-7.34
283.337	31.57
283.552	-5.29
283.767	-50.35
283.983	11.09
284.198	4.95
284.413	-33.96
284.628	-1.19
284.843	19.29
285.058	-19.63
285.274	50
285.489	-38.06
285.704	9.05
285.919	68.44
286.134	43.86
286.349	-5.29
286.564	52.05
286.779	25.43
286.995	4.95
287.21	13.14
287.425	-15.53
287.64	13.14
287.855	-7.34
288.07	47.96
288.285	-9.39
288.5	-5.29
288.715	84.82
288.93	23.38
289.145	54.1
289.36	86.87
289.575	21.33
289.79	-25.77
290.004	27.48
290.219	-25.77
290.434	-11.43
290.649	-23.72
290.864	-5.29
291.079	15.19
291.294	35.67
291.509	33.62
291.724	-23.72
291.938	31.57
292.153	33.62
292.368	-7.34
292.583	2.9
292.798	-11.43
293.012	11.09
293.227	-27.82
293.442	33.62
293.657	37.72
293.871	52.05
294.086	-54.44
294.301	54.1
294.516	-7.34
294.73	-9.39
294.945	41.81
295.16	-15.53
295.374	11.09
295.589	27.48
295.804	-31.91
296.018	33.62
296.233	37.72
296.447	66.39
296.662	-13.48
296.877	7
297.091	7
297.306	-31.91
297.52	2.9
297.735	9.05
297.949	-1.19
298.164	-1.19
298.378	-31.91
298.593	23.38
298.807	39.76
299.022	33.62
299.236	-15.53
299.451	-33.96
299.665	45.91
299.88	52.05
300.094	11.09
300.309	76.63
300.523	9.05
300.737	45.91
300.952	-27.82
301.166	-1.19
301.381	45.91
301.595	47.96
301.809	4.95
302.024	21.33
302.238	25.43
302.452	13.14
302.667	0.85
302.881	-27.82
303.095	23.38
303.309	0.85
303.524	-52.39
303.738	-23.72
303.952	-27.82
304.166	11.09
304.381	-36.01
304.595	9.05
304.809	72.53
305.023	56.15
305.237	-52.39
305.452	31.57
305.666	21.33
305.88	-27.82
306.094	62.29
306.308	-27.82
306.522	-81.07
306.736	52.05
306.95	-29.87
307.164	-66.73
307.379	70.48
307.593	66.39
307.807	45.91
308.021	11.09
308.235	7
308.449	-17.58
308.663	-38.06
308.877	-3.24
309.091	25.43
309.305	23.38
309.519	-74.92
309.733	-40.11
309.947	27.48
310.161	-17.58
310.374	2.9
310.588	58.2
310.802	-42.15
311.016	-5.29
311.23	27.48
311.444	9.05
311.658	68.44
311.872	52.05
312.085	35.67
312.299	-48.3
312.513	15.19
312.727	58.2
312.941	-56.49
313.154	-19.63
313.368	47.96
313.582	-17.58
313.796	68.44
314.009	2.9
314.223	23.38
314.437	-9.39
314.651	-29.87
314.864	19.29
315.078	-15.53
315.292	2.9
315.505	0.85
315.719	35.67
315.933	-15.53
316.146	7
316.36	21.33
316.573	-9.39
316.787	17.24
317.001	84.82
317.214	-38.06
317.428	19.29
317.641	19.29
317.855	64.34
318.068	19.29
318.282	25.43
318.495	-5.29
318.709	-9.39
318.922	-33.96
319.136	37.72
319.349	-17.58
319.563	-1.19
319.776	52.05
319.99	47.96
320.203	33.62
320.417	31.57
320.63	33.62
320.843	-15.53
321.057	-31.91
321.27	33.62
321.483	35.67
321.697	35.67
321.91	-31.91
322.124	-50.35
322.337	47.96
322.55	9.05
322.763	47.96
322.977	23.38
323.19	41.81
323.403	33.62
323.617	-1.19
323.83	15.19
324.043	-48.3
324.256	27.48
324.469	68.44
324.683	-64.68
324.896	-25.77
325.109	13.14
325.322	41.81
325.535	-17.58
325.748	41.81
325.962	76.63
326.175	17.24
326.388	-48.3
326.601	82.77
326.814	105.3
327.027	-21.67
327.24	39.76
327.453	-11.43
327.666	23.38
327.879	50
328.092	2.9
328.305	17.24
328.518	41.81
328.731	25.43
328.944	23.38
329.157	11.09
329.37	7
329.583	37.72
329.796	-15.53
330.009	41.81
330.222	86.87
330.435	-42.15
330.648	-11.43
330.861	-3.24
331.073	-9.39
331.286	72.53
331.499	39.76
331.712	19.29
331.925	-50.35
332.138	-19.63
332.35	45.91
332.563	23.38
332.776	52.05
332.989	35.67
333.202	64.34
333.414	19.29
333.627	35.67
333.84	-11.43
334.053	0.85
334.265	109.4
334.478	11.09
334.691	11.09
334.903	-23.72
335.116	-13.48
335.329	68.44
335.541	50
335.754	-31.91
335.966	-5.29
336.179	-7.34
336.392	7
336.604	54.1
336.817	21.33
337.029	9.05
337.242	2.9
337.454	54.1
337.667	-54.44
337.88	-7.34
338.092	41.81
338.305	11.09
338.517	-9.39
338.729	86.87
338.942	-11.43
339.154	31.57
339.367	-3.24
339.579	37.72
339.792	72.53
340.004	19.29
340.217	-54.44
340.429	39.76
340.641	-29.87
340.854	15.19
341.066	-44.2
341.278	123.73
341.491	33.62
341.703	-1.19
341.915	-27.82
342.128	31.57
342.34	56.15
342.552	2.9
342.764	17.24
342.977	31.57
343.189	-66.73
343.401	29.52
343.613	31.57
343.826	-13.48
344.038	23.38
344.25	74.58
344.462	31.57
344.674	-17.58
344.886	29.52
345.099	56.15
345.311	78.68
345.523	-1.19
345.735	-1.19
345.947	15.19
346.159	-25.77
346.371	82.77
346.583	43.86
346.795	4.95
347.007	47.96
347.219	4.95
347.431	43.86
347.643	25.43
347.855	25.43
348.067	15.19
348.279	-11.43
348.491	-17.58
348.703	31.57
348.915	25.43
349.127	2.9
349.339	-23.72
349.551	-17.58
349.763	-17.58
349.975	45.91
350.187	41.81
350.399	9.05
350.61	4.95
350.822	54.1
351.034	15.19
351.246	13.14
351.458	80.72
351.669	-15.53
351.881	21.33
352.093	-9.39
352.305	-33.96
352.517	-7.34
352.728	-11.43
352.94	39.76
353.152	-29.87
353.363	86.87
353.575	56.15
353.787	60.24
353.999	15.19
354.21	47.96
354.422	2.9
354.633	-23.72
354.845	-3.24
355.057	62.29
355.268	-38.06
355.48	-25.77
355.692	19.29
355.903	-11.43
356.115	17.24
356.326	-72.87
356.538	47.96
356.749	-9.39
356.961	68.44
357.172	37.72
357.384	23.38
357.595	72.53
357.807	-17.58
358.018	9.05
358.23	15.19
358.441	47.96
358.653	25.43
358.864	23.38
359.075	-66.73
359.287	-40.11
359.498	29.52
359.709	-40.11
359.921	17.24
360.132	23.38
360.344	-36.01
360.555	64.34
360.766	47.96
360.977	23.38
361.189	47.96
361.4	70.48
361.611	9.05
361.823	66.39
362.034	45.91
362.245	-3.24
362.456	21.33
362.667	-7.34
362.879	35.67
363.09	35.67
363.301	72.53
363.512	68.44
363.723	64.34
363.935	-25.77
364.146	43.86
364.357	66.39
364.568	25.43
364.779	-19.63
364.99	70.48
365.201	15.19
365.412	37.72
365.623	-40.11
365.834	13.14
366.045	-56.49
366.256	13.14
366.467	70.48
366.678	21.33
366.889	113.49
367.1	107.35
367.311	-21.67
367.522	23.38
367.733	17.24
367.944	41.81
368.155	-31.91
368.366	-21.67
368.577	43.86
368.788	62.29
368.999	13.14
369.209	-11.43
369.42	39.76
369.631	70.48
369.842	41.81
370.053	-70.83
370.264	-38.06
370.474	15.19
370.685	2.9
370.896	35.67
371.107	31.57
371.317	31.57
371.528	43.86
371.739	21.33
371.95	43.86
372.16	41.81
372.371	-40.11
372.582	15.19
372.792	37.72
373.003	-7.34
373.214	-38.06
373.424	-72.87
373.635	9.05
373.846	56.15
374.056	15.19
374.267	43.86
374.477	19.29
374.688	13.14
374.898	27.48
375.109	-1.19
375.319	33.62
375.53	56.15
375.74	33.62
375.951	-1.19
376.161	15.19
376.372	95.06
376.582	54.1
376.793	64.34
377.003	-23.72
377.214	-29.87
377.424	17.24
377.635	58.2
377.845	88.92
378.055	113.49
378.266	27.48
378.476	37.72
378.686	-1.19
378.897	84.82
379.107	-60.59
379.317	21.33
379.528	39.76
379.738	80.72
379.948	7
380.158	17.24
380.369	-31.91
380.579	76.63
380.789	29.52
380.999	43.86
381.21	58.2
381.42	7
381.63	2.9
381.84	2.9
382.05	27.48
382.261	80.72
382.471	27.48
382.681	-29.87
382.891	33.62
383.101	37.72
383.311	21.33
383.521	21.33
383.731	52.05
383.941	90.96
384.151	27.48
384.361	-17.58
384.571	0.85
384.781	43.86
384.991	54.1
385.201	39.76
385.411	52.05
385.621	2.9
385.831	31.57
386.041	-58.54
386.251	43.86
386.461	0.85
386.671	-9.39
386.881	47.96
387.091	7
387.301	54.1
387.511	-29.87
387.72	29.52
387.93	-11.43
388.14	64.34
388.35	23.38
388.56	-21.67
388.769	56.15
388.979	123.73
389.189	43.86
389.399	-7.34
389.609	37.72
389.818	-17.58
390.028	70.48
390.238	0.85
390.447	17.24
390.657	64.34
390.867	66.39
391.076	11.09
391.286	50
391.496	47.96
391.705	2.9
391.915	23.38
392.125	56.15
392.334	74.58
392.544	-7.34
392.753	-3.24
392.963	31.57
393.172	-17.58
393.382	-23.72
393.591	33.62
393.801	21.33
394.01	66.39
394.22	64.34
394.429	62.29
394.639	-1.19
394.848	127.83
395.058	74.58
395.267	58.2
395.477	54.1
395.686	45.91
395.895	99.16
396.105	50
396.314	82.77
396.524	58.2
396.733	35.67
396.942	33.62
397.152	43.86
397.361	80.72
397.57	105.3
397.78	60.24
397.989	33.62
398.198	64.34
398.407	123.73
398.617	105.3
398.826	9.05
399.035	56.15
399.244	39.76
399.453	52.05
399.663	82.77
399.872	58.2
400.081	-31.91
400.29	56.15
400.499	19.29
400.708	68.44
400.917	2.9
401.127	13.14
401.336	97.11
401.545	62.29
401.754	50
401.963	138.07
402.172	86.87
402.381	35.67
402.59	109.4
402.799	97.11
403.008	50
403.217	101.2
403.426	82.77
403.635	103.25
403.844	64.34
404.053	162.64
404.262	27.48
404.471	58.2
404.68	82.77
404.888	95.06
405.097	74.58
405.306	109.4
405.515	74.58
405.724	41.81
405.933	82.77
406.142	84.82
406.35	86.87
406.559	133.97
406.768	105.3
406.977	207.7
407.185	129.88
407.394	105.3
407.603	109.4
407.812	174.93
408.02	125.78
408.229	125.78
408.438	115.54
408.646	136.02
408.855	168.79
409.064	138.07
409.272	74.58
409.481	168.79
409.69	222.03
409.898	152.4
410.107	205.65
410.315	193.36
410.524	129.88
410.733	232.27
410.941	158.55
411.15	217.94
411.358	205.65
411.567	234.32
411.775	252.75
411.984	199.51
412.192	285.52
412.401	248.66
412.609	283.47
412.818	250.71
413.026	310.1
413.234	271.19
413.443	312.14
413.651	187.22
413.86	318.29
414.068	318.29
414.276	363.34
414.485	330.58
414.693	416.59
414.901	396.11
415.11	353.1
415.318	432.97
415.526	385.87
415.734	367.44
415.943	447.31
416.151	437.07
416.359	500.56
416.567	496.46
416.776	551.76
416.984	502.61
417.192	586.57
417.4	504.65
417.608	527.18
417.817	631.63
418.025	588.62
418.233	697.16
418.441	678.73
418.649	631.63
418.857	813.9
419.065	717.64
419.273	750.41
419.481	717.64
419.689	785.23
419.897	801.61
420.105	910.15
420.313	914.25
420.521	856.9
420.729	949.06
420.937	920.39
421.145	961.35
421.353	1076.04
421.561	1073.99
421.769	1110.85
421.977	1135.43
422.185	1157.96
422.393	1278.79
422.601	1262.4
422.809	1364.8
423.017	1313.6
423.224	1473.34
423.432	1418.05
423.64	1473.34
423.848	1454.91
424.056	1510.21
424.263	1649.47
424.471	1719.1
424.679	1657.66
424.887	1723.2
425.094	1827.64
425.302	1715
425.51	1874.74
425.718	1991.48
425.925	1956.66
426.133	1964.86
426.341	2032.44
426.548	2175.8
426.756	2245.43
426.964	2302.77
427.171	2431.79
427.379	2577.2
427.586	2472.75
427.794	2536.24
428.001	2646.83
428.209	2833.19
428.417	2728.75
428.624	2939.69
428.832	2908.97
429.039	2974.5
429.247	2743.08
429.454	3222.31
429.662	3420.96
429.869	3205.92
430.076	3451.68
430.284	3316.51
430.491	3541.79
430.699	3709.72
430.906	3801.88
431.114	3771.16
431.321	3851.03
431.528	4031.26
431.736	4367.12
431.943	4395.79
432.15	4279.06
432.358	4264.72
432.565	4563.73
432.772	4502.29
432.979	4881.16
433.187	4782.86
433.394	5063.43
433.601	5102.34
433.808	5239.56
434.016	5311.24
434.223	5374.72
434.43	5864.19
434.637	5720.83
434.844	6038.27
435.052	6232.82
435.259	6062.84
435.466	6126.33
435.673	6107.9
435.88	6423.28
436.087	6687.47
436.294	6900.46
436.501	6626.03
436.708	6644.46
436.915	6980.33
437.122	7480.04
437.329	7181.03
437.537	7566.05
437.743	7604.96
437.95	7600.87
438.157	8245.98
438.364	8430.29
438.571	8252.12
438.778	8370.9
438.985	9173.71
439.192	8600.27
439.399	8927.95
439.606	8835.79
439.813	9394.89
440.02	10031.8
440.227	9788.1
440.433	9743.04
440.64	9966.27
440.847	9816.77
441.054	9964.22
441.261	10711.73
441.467	10750.64
441.674	11027.12
441.881	11346.6
442.088	11162.28
442.294	11139.76
442.501	11504.29
442.708	11590.31
442.914	12090.01
443.121	12726.93
443.328	12503.7
443.534	13066.89
443.741	12843.67
443.948	12853.91
444.154	13531.78
444.361	13587.08
444.568	13775.49
444.774	13927.04
444.981	14109.31
445.187	14238.33
445.394	14914.16
445.6	14664.31
445.807	16212.57
446.013	15141.49
446.22	15798.88
446.426	16407.13
446.633	16632.41
446.839	17185.36
447.046	16380.51
447.252	17281.61
447.459	17209.93
447.665	17279.57
447.871	18192.96
448.078	18897.46
448.284	18096.71
448.491	18635.32
448.697	19239.47
448.903	19860.01
449.11	19524.14
449.316	19249.71
449.522	19638.83
449.728	20302.37
449.935	20255.26
450.141	20447.77
450.347	20990.49
450.553	20429.34
450.76	20640.28
450.966	21084.69
451.172	20957.72
451.378	21740.04
451.584	21203.47
451.791	21885.45
451.997	21592.59
452.203	21885.45
452.409	22172.16
452.615	21805.58
452.821	20789.78
453.027	20468.25
453.233	22249.99
453.44	21221.91
453.646	21348.88
453.852	21594.64
454.058	21993.99
454.264	21135.89
454.47	21594.64
454.676	21346.83
454.882	21895.69
455.088	19792.42
455.294	20298.27
455.5	20591.13
455.705	20754.97
455.911	20085.28
456.117	19708.46
456.323	19411.5
456.529	18344.51
456.735	19175.98
456.941	18530.87
457.147	18092.61
457.352	17883.72
457.558	17566.28
457.764	17441.36
457.97	17179.22
458.176	16861.78
458.381	16908.88
458.587	16302.68
458.793	16048.74
458.999	15331.95
459.204	16341.6
459.41	16044.64
459.616	14760.56
459.821	14682.74
460.027	14723.7
460.233	14453.37
460.438	13990.53
460.644	13755.01
460.85	13230.73
461.055	13361.8
461.261	13122.19
461.466	12151.45
461.672	11846.3
461.878	12608.15
462.083	11682.47
462.289	11358.89
462.494	11383.46
462.7	10719.92
462.905	10881.71
463.111	10998.45
463.316	11033.26
463.522	10873.52
463.727	10650.29
463.932	10795.7
464.138	10738.35
464.343	10521.27
464.549	10357.43
464.754	10693.3
464.959	10828.46
465.165	10443.45
465.37	10179.26
465.575	9986.75
465.781	10226.36
465.986	10361.53
466.191	9960.13
466.397	9960.13
466.602	9366.21
466.807	9816.77
467.012	9632.45
467.218	9540.29
467.423	9564.87
467.628	9374.41
467.833	9884.35
468.038	9624.26
468.244	9327.3
468.449	9708.23
