Data from USB4F104151__97__13-00-15-858.txt Node

Date: Fri Mar 14 13:00:15 EDT 2025
User: louis
Spectrometer: USB4F10415
Trigger mode: 4
Integration Time (sec): 1.000000E-2
Scans to average: 1
Electric dark correction enabled: true
Nonlinearity correction enabled: false
Boxcar width: 0
XAxis mode: Wavelengths
Number of Pixels in Spectrum: 3648
>>>>>Begin Spectral Data<<<<<
178.204	-102.74
178.424	-102.74
178.644	-102.74
178.864	-76.12
179.084	-49.49
179.304	-67.92
179.524	13.99
179.744	20.14
179.964	26.28
180.184	-20.82
180.404	30.38
180.624	13.99
180.844	54.95
181.064	-51.54
181.283	5.8
181.503	-18.77
181.723	-6.49
181.943	-35.16
182.163	-14.68
182.383	-16.73
182.602	-65.88
182.822	36.52
183.042	-18.77
183.262	-43.35
183.482	71.34
183.701	1.71
183.921	73.39
184.141	-106.84
184.361	1.71
184.58	30.38
184.8	-51.54
185.02	26.28
185.239	-8.53
185.459	-98.64
185.679	5.8
185.898	30.38
186.118	-20.82
186.338	32.43
186.557	-39.25
186.777	-49.49
186.997	61.1
187.216	-29.01
187.436	-4.44
187.655	13.99
187.875	-4.44
188.095	22.19
188.314	-2.39
188.534	22.19
188.753	40.62
188.973	28.33
189.192	-16.73
189.412	-61.78
189.631	34.47
189.851	-10.58
190.07	-2.39
190.29	-29.01
190.509	-0.34
190.729	24.23
190.948	-22.87
191.168	46.76
191.387	5.8
191.607	30.38
191.826	-31.06
192.045	26.28
192.265	-2.39
192.484	-0.34
192.704	-29.01
192.923	16.04
193.142	30.38
193.362	-59.73
193.581	40.62
193.8	-6.49
194.02	48.81
194.239	-0.34
194.458	18.09
194.678	-55.64
194.897	13.99
195.116	28.33
195.335	61.1
195.555	-12.63
195.774	-22.87
195.993	-6.49
196.212	-4.44
196.432	63.15
196.651	-41.3
196.87	-2.39
197.089	38.57
197.308	36.52
197.528	-8.53
197.747	16.04
197.966	34.47
198.185	16.04
198.404	-0.34
198.623	34.47
198.842	-4.44
199.062	-24.92
199.281	46.76
199.5	46.76
199.719	18.09
199.938	-12.63
200.157	30.38
200.376	16.04
200.595	63.15
200.814	30.38
201.033	-24.92
201.252	-45.4
201.471	-33.11
201.69	-6.49
201.909	1.71
202.128	-88.4
202.347	13.99
202.566	30.38
202.785	-24.92
203.004	-16.73
203.223	-37.2
203.442	-12.63
203.661	30.38
203.879	44.71
204.098	36.52
204.317	-2.39
204.536	11.95
204.755	-16.73
204.974	26.28
205.193	-37.2
205.411	81.58
205.63	5.8
205.849	104.11
206.068	22.19
206.287	106.15
206.505	38.57
206.724	-69.97
206.943	38.57
207.162	-35.16
207.381	-12.63
207.599	24.23
207.818	16.04
208.037	24.23
208.255	-43.35
208.474	-18.77
208.693	-67.92
208.911	38.57
209.13	-2.39
209.349	52.91
209.567	18.09
209.786	69.29
210.005	20.14
210.223	1.71
210.442	32.43
210.661	22.19
210.879	32.43
211.098	-10.58
211.316	50.86
211.535	34.47
211.753	54.95
211.972	46.76
212.191	59.05
212.409	5.8
212.628	-16.73
212.846	9.9
213.065	40.62
213.283	54.95
213.502	13.99
213.72	13.99
213.938	18.09
214.157	-14.68
214.375	32.43
214.594	1.71
214.812	28.33
215.031	-14.68
215.249	24.23
215.467	-14.68
215.686	44.71
215.904	18.09
216.122	-22.87
216.341	13.99
216.559	77.48
216.778	54.95
216.996	83.63
217.214	32.43
217.432	-18.77
217.651	36.52
217.869	-2.39
218.087	34.47
218.306	-18.77
218.524	13.99
218.742	-20.82
218.96	36.52
219.179	-18.77
219.397	-41.3
219.615	-45.4
219.833	48.81
220.051	-63.83
220.27	16.04
220.488	-4.44
220.706	-6.49
220.924	-37.2
221.142	46.76
221.36	48.81
221.578	22.19
221.796	16.04
222.015	-24.92
222.233	-18.77
222.451	50.86
222.669	-8.53
222.887	-10.58
223.105	16.04
223.323	67.24
223.541	-31.06
223.759	28.33
223.977	30.38
224.195	83.63
224.413	-26.96
224.631	59.05
224.849	34.47
225.067	13.99
225.285	-20.82
225.503	57
225.721	9.9
225.939	57
226.157	-74.07
226.375	40.62
226.592	-4.44
226.81	-6.49
227.028	16.04
227.246	28.33
227.464	-63.83
227.682	11.95
227.9	-22.87
228.117	1.71
228.335	-39.25
228.553	67.24
228.771	44.71
228.989	-18.77
229.206	65.19
229.424	36.52
229.642	-2.39
229.86	69.29
230.077	30.38
230.295	75.43
230.513	-22.87
230.731	16.04
230.948	-31.06
231.166	13.99
231.384	22.19
231.601	-14.68
231.819	-6.49
232.037	9.9
232.254	30.38
232.472	30.38
232.689	1.71
232.907	-12.63
233.125	18.09
233.342	7.85
233.56	57
233.777	-26.96
233.995	24.23
234.213	87.72
234.43	7.85
234.648	26.28
234.865	-4.44
235.083	13.99
235.3	7.85
235.518	-67.92
235.735	67.24
235.953	9.9
236.17	11.95
236.388	-18.77
236.605	13.99
236.822	11.95
237.04	-12.63
237.257	-0.34
237.475	-33.11
237.692	20.14
237.909	-14.68
238.127	13.99
238.344	22.19
238.562	-0.34
238.779	24.23
238.996	24.23
239.214	9.9
239.431	-24.92
239.648	-2.39
239.865	-82.26
240.083	-2.39
240.3	-37.2
240.517	38.57
240.735	-14.68
240.952	-12.63
241.169	32.43
241.386	28.33
241.603	13.99
241.821	-2.39
242.038	28.33
242.255	24.23
242.472	-22.87
242.689	38.57
242.907	-31.06
243.124	-51.54
243.341	-18.77
243.558	-41.3
243.775	-18.77
243.992	-0.34
244.209	32.43
244.426	18.09
244.643	32.43
244.86	28.33
245.078	40.62
245.295	-8.53
245.512	5.8
245.729	1.71
245.946	63.15
246.163	-33.11
246.38	52.91
246.597	-10.58
246.814	-2.39
247.031	40.62
247.248	9.9
247.464	7.85
247.681	-6.49
247.898	-35.16
248.115	-16.73
248.332	-12.63
248.549	-16.73
248.766	38.57
248.983	18.09
249.2	54.95
249.417	-63.83
249.633	-14.68
249.85	67.24
250.067	16.04
250.284	91.82
250.501	-12.63
250.717	-18.77
250.934	11.95
251.151	-35.16
251.368	-33.11
251.585	-29.01
251.801	22.19
252.018	22.19
252.235	63.15
252.451	-2.39
252.668	54.95
252.885	44.71
253.102	-8.53
253.318	18.09
253.535	38.57
253.752	-18.77
253.968	18.09
254.185	50.86
254.401	-10.58
254.618	16.04
254.835	-0.34
255.051	5.8
255.268	3.75
255.484	13.99
255.701	7.85
255.917	-24.92
256.134	26.28
256.351	108.2
256.567	3.75
256.784	13.99
257	-22.87
257.217	-14.68
257.433	30.38
257.65	-24.92
257.866	-39.25
258.082	1.71
258.299	59.05
258.515	46.76
258.732	38.57
258.948	-41.3
259.165	59.05
259.381	67.24
259.597	-2.39
259.814	22.19
260.03	-12.63
260.246	7.85
260.463	-10.58
260.679	-69.97
260.895	22.19
261.112	63.15
261.328	-14.68
261.544	52.91
261.761	32.43
261.977	36.52
262.193	28.33
262.409	50.86
262.626	1.71
262.842	30.38
263.058	-16.73
263.274	93.87
263.49	-22.87
263.707	-37.2
263.923	63.15
264.139	104.11
264.355	-0.34
264.571	16.04
264.787	-18.77
265.004	100.01
265.22	-47.44
265.436	40.62
265.652	38.57
265.868	32.43
266.084	-41.3
266.3	11.95
266.516	-0.34
266.732	-14.68
266.948	93.87
267.164	-14.68
267.38	-43.35
267.596	28.33
267.812	22.19
268.028	-35.16
268.244	46.76
268.46	-10.58
268.676	42.67
268.892	32.43
269.108	-35.16
269.324	-35.16
269.54	-6.49
269.756	44.71
269.972	34.47
270.188	-41.3
270.403	-14.68
270.619	40.62
270.835	-20.82
271.051	79.53
271.267	36.52
271.483	89.77
271.698	5.8
271.914	83.63
272.13	63.15
272.346	1.71
272.562	-22.87
272.777	50.86
272.993	28.33
273.209	7.85
273.425	-4.44
273.64	1.71
273.856	102.06
274.072	-2.39
274.287	-18.77
274.503	69.29
274.719	-12.63
274.934	-16.73
275.15	16.04
275.366	42.67
275.581	-33.11
275.797	69.29
276.012	13.99
276.228	22.19
276.444	106.15
276.659	13.99
276.875	5.8
277.09	22.19
277.306	34.47
277.521	26.28
277.737	-2.39
277.952	16.04
278.168	-2.39
278.383	73.39
278.599	38.57
278.814	-20.82
279.03	48.81
279.245	-2.39
279.461	-59.73
279.676	36.52
279.892	-4.44
280.107	-33.11
280.322	-26.96
280.538	9.9
280.753	16.04
280.969	128.68
281.184	-18.77
281.399	-12.63
281.615	7.85
281.83	-14.68
282.045	-4.44
282.26	-22.87
282.476	22.19
282.691	30.38
282.906	-31.06
283.122	-8.53
283.337	-72.02
283.552	9.9
283.767	18.09
283.983	7.85
284.198	100.01
284.413	22.19
284.628	-33.11
284.843	38.57
285.058	-8.53
285.274	89.77
285.489	-18.77
285.704	57
285.919	46.76
286.134	22.19
286.349	26.28
286.564	-22.87
286.779	54.95
286.995	22.19
287.21	-63.83
287.425	-12.63
287.64	54.95
287.855	-2.39
288.07	1.71
288.285	11.95
288.5	59.05
288.715	75.43
288.93	-33.11
289.145	-10.58
289.36	-6.49
289.575	-10.58
289.79	-4.44
290.004	44.71
290.219	38.57
290.434	-16.73
290.649	-10.58
290.864	-2.39
291.079	-26.96
291.294	128.68
291.509	65.19
291.724	7.85
291.938	1.71
292.153	28.33
292.368	-72.02
292.583	-22.87
292.798	-0.34
293.012	54.95
293.227	59.05
293.442	59.05
293.657	44.71
293.871	-4.44
294.086	5.8
294.301	32.43
294.516	36.52
294.73	73.39
294.945	40.62
295.16	26.28
295.374	1.71
295.589	36.52
295.804	-0.34
296.018	36.52
296.233	46.76
296.447	40.62
296.662	-26.96
296.877	3.75
297.091	40.62
297.306	11.95
297.52	16.04
297.735	34.47
297.949	30.38
298.164	7.85
298.378	1.71
298.593	52.91
298.807	-2.39
299.022	102.06
299.236	5.8
299.451	7.85
299.665	46.76
299.88	38.57
300.094	11.95
300.309	20.14
300.523	11.95
300.737	24.23
300.952	11.95
301.166	-10.58
301.381	-0.34
301.595	-4.44
301.809	-20.82
302.024	1.71
302.238	-74.07
302.452	-0.34
302.667	50.86
302.881	89.77
303.095	36.52
303.309	42.67
303.524	7.85
303.738	28.33
303.952	1.71
304.166	40.62
304.381	-2.39
304.595	97.96
304.809	-59.73
305.023	71.34
305.237	32.43
305.452	34.47
305.666	24.23
305.88	79.53
306.094	26.28
306.308	42.67
306.522	-0.34
306.736	30.38
306.95	-2.39
307.164	36.52
307.379	-35.16
307.593	102.06
307.807	28.33
308.021	38.57
308.235	-26.96
308.449	-18.77
308.663	32.43
308.877	34.47
309.091	22.19
309.305	71.34
309.519	83.63
309.733	38.57
309.947	-2.39
310.161	-2.39
310.374	46.76
310.588	81.58
310.802	20.14
311.016	65.19
311.23	5.8
311.444	-24.92
311.658	16.04
311.872	11.95
312.085	40.62
312.299	22.19
312.513	28.33
312.727	61.1
312.941	28.33
313.154	73.39
313.368	-10.58
313.582	-26.96
313.796	16.04
314.009	63.15
314.223	-24.92
314.437	-2.39
314.651	30.38
314.864	48.81
315.078	13.99
315.292	-6.49
315.505	-6.49
315.719	30.38
315.933	26.28
316.146	89.77
316.36	-4.44
316.573	50.86
316.787	24.23
317.001	5.8
317.214	-10.58
317.428	-24.92
317.641	7.85
317.855	46.76
318.068	13.99
318.282	40.62
318.495	46.76
318.709	-24.92
318.922	-14.68
319.136	-63.83
319.349	-35.16
319.563	-24.92
319.776	-14.68
319.99	11.95
320.203	34.47
320.417	20.14
320.63	11.95
320.843	46.76
321.057	83.63
321.27	-22.87
321.483	34.47
321.697	54.95
321.91	9.9
322.124	11.95
322.337	73.39
322.55	20.14
322.763	-39.25
322.977	-22.87
323.19	-31.06
323.403	-35.16
323.617	-18.77
323.83	57
324.043	40.62
324.256	-4.44
324.469	20.14
324.683	54.95
324.896	-35.16
325.109	34.47
325.322	9.9
325.535	1.71
325.748	40.62
325.962	-22.87
326.175	5.8
326.388	50.86
326.601	13.99
326.814	-14.68
327.027	-8.53
327.24	-8.53
327.453	-16.73
327.666	1.71
327.879	26.28
328.092	1.71
328.305	5.8
328.518	-35.16
328.731	11.95
328.944	18.09
329.157	54.95
329.37	63.15
329.583	-57.68
329.796	-33.11
330.009	24.23
330.222	-20.82
330.435	26.28
330.648	-4.44
330.861	7.85
331.073	54.95
331.286	24.23
331.499	63.15
331.712	-6.49
331.925	-35.16
332.138	-0.34
332.35	34.47
332.563	1.71
332.776	77.48
332.989	42.67
333.202	5.8
333.414	16.04
333.627	97.96
333.84	24.23
334.053	38.57
334.265	-26.96
334.478	50.86
334.691	20.14
334.903	46.76
335.116	46.76
335.329	77.48
335.541	50.86
335.754	36.52
335.966	-31.06
336.179	46.76
336.392	95.91
336.604	-41.3
336.817	24.23
337.029	36.52
337.242	-14.68
337.454	112.3
337.667	-57.68
337.88	52.91
338.092	42.67
338.305	26.28
338.517	110.25
338.729	1.71
338.942	28.33
339.154	48.81
339.367	54.95
339.579	44.71
339.792	-18.77
340.004	16.04
340.217	42.67
340.429	22.19
340.641	-18.77
340.854	18.09
341.066	-29.01
341.278	36.52
341.491	85.67
341.703	54.95
341.915	-82.26
342.128	-69.97
342.34	-55.64
342.552	-8.53
342.764	-16.73
342.977	3.75
343.189	65.19
343.401	34.47
343.613	-8.53
343.826	50.86
344.038	-110.93
344.25	24.23
344.462	-65.88
344.674	13.99
344.886	46.76
345.099	22.19
345.311	28.33
345.523	-57.68
345.735	-47.44
345.947	9.9
346.159	36.52
346.371	-8.53
346.583	24.23
346.795	-2.39
347.007	-26.96
347.219	28.33
347.431	-18.77
347.643	79.53
347.855	-20.82
348.067	110.25
348.279	9.9
348.491	48.81
348.703	89.77
348.915	57
349.127	-49.49
349.339	54.95
349.551	-55.64
349.763	-47.44
349.975	13.99
350.187	54.95
350.399	77.48
350.61	40.62
350.822	-59.73
351.034	26.28
351.246	-39.25
351.458	36.52
351.669	-45.4
351.881	7.85
352.093	34.47
352.305	46.76
352.517	1.71
352.728	73.39
352.94	24.23
353.152	46.76
353.363	-43.35
353.575	-8.53
353.787	81.58
353.999	67.24
354.21	-24.92
354.422	-22.87
354.633	1.71
354.845	73.39
355.057	57
355.268	71.34
355.48	5.8
355.692	18.09
355.903	9.9
356.115	9.9
356.326	-55.64
356.538	57
356.749	50.86
356.961	16.04
357.172	13.99
357.384	3.75
357.595	67.24
357.807	46.76
358.018	-14.68
358.23	13.99
358.441	28.33
358.653	7.85
358.864	48.81
359.075	-33.11
359.287	-18.77
359.498	63.15
359.709	-6.49
359.921	13.99
360.132	52.91
360.344	48.81
360.555	34.47
360.766	-24.92
360.977	81.58
361.189	-16.73
361.4	22.19
361.611	40.62
361.823	54.95
362.034	93.87
362.245	65.19
362.456	9.9
362.667	-4.44
362.879	73.39
363.09	-26.96
363.301	7.85
363.512	38.57
363.723	16.04
363.935	42.67
364.146	81.58
364.357	-41.3
364.568	-0.34
364.779	-26.96
364.99	-12.63
365.201	13.99
365.412	32.43
365.623	13.99
365.834	-2.39
366.045	7.85
366.256	-4.44
366.467	-0.34
366.678	-8.53
366.889	-39.25
367.1	26.28
367.311	30.38
367.522	-10.58
367.733	-2.39
367.944	38.57
368.155	59.05
368.366	-37.2
368.577	54.95
368.788	24.23
368.999	-12.63
369.209	7.85
369.42	-49.49
369.631	85.67
369.842	61.1
370.053	95.91
370.264	34.47
370.474	120.49
370.685	-37.2
370.896	65.19
371.107	1.71
371.317	9.9
371.528	-24.92
371.739	63.15
371.95	3.75
372.16	75.43
372.371	61.1
372.582	34.47
372.792	-35.16
373.003	67.24
373.214	-29.01
373.424	20.14
373.635	59.05
373.846	24.23
374.056	16.04
374.267	-26.96
374.477	57
374.688	-26.96
374.898	32.43
375.109	5.8
375.319	-20.82
375.53	38.57
375.74	-31.06
375.951	36.52
376.161	32.43
376.372	42.67
376.582	9.9
376.793	24.23
377.003	57
377.214	24.23
377.424	-2.39
377.635	54.95
377.845	61.1
378.055	95.91
378.266	20.14
378.476	24.23
378.686	-10.58
378.897	-51.54
379.107	9.9
379.317	20.14
379.528	63.15
379.738	89.77
379.948	9.9
380.158	-12.63
380.369	54.95
380.579	-0.34
380.789	-14.68
380.999	-84.31
381.21	-16.73
381.42	106.15
381.63	1.71
381.84	22.19
382.05	26.28
382.261	42.67
382.471	65.19
382.681	-10.58
382.891	-14.68
383.101	120.49
383.311	22.19
383.521	16.04
383.731	26.28
383.941	26.28
384.151	9.9
384.361	11.95
384.571	67.24
384.781	20.14
384.991	48.81
385.201	57
385.411	7.85
385.621	30.38
385.831	38.57
386.041	87.72
386.251	-33.11
386.461	-24.92
386.671	3.75
386.881	16.04
387.091	-2.39
387.301	16.04
387.511	34.47
387.72	46.76
387.93	48.81
388.14	-26.96
388.35	3.75
388.56	57
388.769	-22.87
388.979	13.99
389.189	71.34
389.399	-26.96
389.609	-53.59
389.818	40.62
390.028	38.57
390.238	-14.68
390.447	-16.73
390.657	28.33
390.867	89.77
391.076	32.43
391.286	-12.63
391.496	-6.49
391.705	-8.53
391.915	-12.63
392.125	48.81
392.334	1.71
392.544	61.1
392.753	-59.73
392.963	59.05
393.172	83.63
393.382	16.04
393.591	87.72
393.801	50.86
394.01	13.99
394.22	100.01
394.429	38.57
394.639	-4.44
394.848	24.23
395.058	71.34
395.267	46.76
395.477	73.39
395.686	34.47
395.895	54.95
396.105	87.72
396.314	34.47
396.524	-8.53
396.733	13.99
396.942	20.14
397.152	-2.39
397.361	-6.49
397.57	89.77
397.78	18.09
397.989	-10.58
398.198	100.01
398.407	48.81
398.617	93.87
398.826	42.67
399.035	87.72
399.244	34.47
399.453	20.14
399.663	75.43
399.872	-20.82
400.081	95.91
400.29	83.63
400.499	-12.63
400.708	48.81
400.917	69.29
401.127	13.99
401.336	65.19
401.545	87.72
401.754	50.86
401.963	36.52
402.172	-0.34
402.381	38.57
402.59	50.86
402.799	38.57
403.008	63.15
403.217	61.1
403.426	95.91
403.635	59.05
403.844	112.3
404.053	54.95
404.262	83.63
404.471	59.05
404.68	116.39
404.888	67.24
405.097	40.62
405.306	85.67
405.515	-29.01
405.724	124.58
405.933	130.73
406.142	63.15
406.35	132.78
406.559	81.58
406.768	67.24
406.977	122.54
407.185	95.91
407.394	59.05
407.603	102.06
407.812	40.62
408.02	196.26
408.229	71.34
408.438	75.43
408.646	122.54
408.855	106.15
409.064	200.36
409.272	91.82
409.481	132.78
409.69	52.91
409.898	147.11
410.107	128.68
410.315	91.82
410.524	136.87
410.733	186.02
410.941	128.68
411.15	194.22
411.358	104.11
411.567	257.7
411.775	175.78
411.984	132.78
412.192	233.13
412.401	188.07
412.609	181.93
412.818	241.32
413.026	149.16
413.234	261.8
413.443	237.22
413.651	276.13
413.86	222.89
414.068	267.94
414.276	278.18
414.485	292.52
414.693	294.57
414.901	347.81
415.11	204.46
415.318	272.04
415.526	243.37
415.734	347.81
415.943	313
416.151	337.57
416.359	308.9
416.567	345.77
416.776	343.72
416.984	431.78
417.192	431.78
417.4	409.25
417.608	368.29
417.817	423.59
418.025	413.35
418.233	534.18
418.441	433.83
418.649	429.73
418.857	507.55
419.065	472.74
419.273	513.7
419.481	589.47
419.689	540.32
419.897	607.91
420.105	616.1
420.313	671.39
420.521	687.78
420.729	757.41
420.937	718.5
421.145	818.85
421.353	816.8
421.561	728.74
421.769	868
421.977	870.05
422.185	874.14
422.393	874.14
422.601	894.62
422.809	1044.12
423.017	984.73
423.224	990.88
423.432	1113.75
423.64	1044.12
423.848	1095.32
424.056	1117.85
424.263	1195.67
424.471	1201.82
424.679	1259.16
424.887	1298.07
425.094	1355.41
425.302	1320.6
425.51	1468.05
425.718	1437.33
425.925	1320.6
426.133	1486.48
426.341	1580.69
426.548	1719.95
426.756	1662.61
426.964	1601.17
427.171	1711.76
427.379	1887.89
427.586	1771.15
427.794	2014.86
428.001	1951.37
428.209	2010.76
428.417	1896.08
428.624	2176.65
428.832	2074.25
429.039	2131.59
429.247	2217.61
429.454	2326.15
429.662	2549.38
429.869	2373.25
430.076	2510.47
430.284	2406.02
430.491	2420.36
430.699	2696.83
430.906	2571.91
431.114	2756.22
431.321	2774.66
431.528	2963.07
431.736	2975.36
431.943	3077.76
432.15	3184.25
432.358	3143.29
432.565	3444.34
432.772	3376.76
432.979	3425.91
433.187	3503.73
433.394	3569.27
433.601	3698.29
433.808	3917.42
434.016	3741.3
434.223	3929.71
434.43	4138.6
434.637	4161.13
434.844	4331.11
435.052	4494.95
435.259	4355.69
435.466	4497
435.673	4271.72
435.88	4640.36
436.087	5047.9
436.294	4865.63
436.501	4888.16
436.708	4965.98
436.915	4961.89
437.122	5191.26
437.329	5379.67
437.537	5512.79
437.743	5641.81
437.95	5531.22
438.157	5815.89
438.364	5914.19
438.571	5889.62
438.778	5942.86
438.985	6538.82
439.192	6356.55
439.399	6553.16
439.606	6356.55
439.813	6680.13
440.02	7120.45
440.227	7036.48
440.433	7001.66
440.64	7243.32
440.847	7116.35
441.054	7306.81
441.261	7724.6
441.467	7958.07
441.674	7876.15
441.881	8341.04
442.088	8191.53
442.294	8123.95
442.501	8388.14
442.708	8365.61
442.914	8713.77
443.121	9250.33
443.328	9076.26
443.534	9573.91
443.741	9215.52
443.948	9178.65
444.154	9840.15
444.361	9844.24
444.568	9913.88
444.774	10001.94
444.981	10233.36
445.187	10528.27
445.394	10870.28
445.6	10671.62
445.807	11826.68
446.013	11054.59
446.22	11398.65
446.426	12021.24
446.633	11996.66
446.839	12611.05
447.046	11879.93
447.252	12680.68
447.459	12695.02
447.665	12619.24
447.871	13096.42
448.078	13737.43
448.284	13213.15
448.491	13405.66
448.697	14216.66
448.903	14243.28
449.11	14284.24
449.316	13991.38
449.522	14177.75
449.728	14728.65
449.935	14773.71
450.141	14814.66
450.347	15107.52
450.553	14818.76
450.76	15011.27
450.966	15402.43
451.172	15300.03
451.378	15633.85
451.584	15484.35
451.791	15803.83
451.997	15783.35
452.203	15963.58
452.409	16086.45
452.615	15924.66
452.821	15588.8
453.027	15367.62
453.233	16059.83
453.44	15252.93
453.646	15756.73
453.852	15873.46
454.058	15955.38
454.264	15470.01
454.47	15879.61
454.676	15541.69
454.882	15932.86
455.088	14570.96
455.294	14751.18
455.5	15001.03
455.705	15138.24
455.911	14644.68
456.117	14480.85
456.323	14071.25
456.529	13495.77
456.735	13964.76
456.941	13710.81
457.147	13360.61
457.352	13131.23
457.558	12772.84
457.764	13049.32
457.97	12592.62
458.176	12449.26
458.381	12445.16
458.587	11877.88
458.793	11970.04
458.999	11173.38
459.204	11822.58
459.41	11523.58
459.616	11011.59
459.821	11050.5
460.027	11040.26
460.233	10487.31
460.438	10122.77
460.644	10173.97
460.85	9885.2
461.055	9551.38
461.261	9694.74
461.466	8910.37
461.672	8631.85
461.878	9143.84
462.083	8631.85
462.289	8345.13
462.494	8295.98
462.7	7908.91
462.905	7884.34
463.111	8039.98
463.316	8031.79
463.522	7853.62
463.727	7857.71
463.932	8068.66
464.138	7855.67
464.343	7880.24
464.549	7771.7
464.754	8001.07
464.959	7792.18
465.165	7831.09
465.37	7253.56
465.575	7243.32
465.781	7351.87
465.986	7583.29
466.191	7185.98
466.397	7126.59
466.602	6819.39
466.807	7106.11
467.012	7134.78
467.218	6981.18
467.423	6991.42
467.628	6860.35
467.833	7226.94
468.038	7188.03
468.244	6782.53
468.449	7026.24
