Data from USB4F104151__50__12-59-13-464.txt Node

Date: Fri Mar 14 12:59:13 EDT 2025
User: louis
Spectrometer: USB4F10415
Trigger mode: 4
Integration Time (sec): 1.000000E-2
Scans to average: 1
Electric dark correction enabled: true
Nonlinearity correction enabled: false
Boxcar width: 0
XAxis mode: Wavelengths
Number of Pixels in Spectrum: 3648
>>>>>Begin Spectral Data<<<<<
178.204	35.67
178.424	35.67
178.644	35.67
178.864	-7.34
179.084	-17.58
179.304	-70.83
179.524	-36.01
179.744	31.57
179.964	-31.91
180.184	13.14
180.404	62.29
180.624	-9.39
180.844	21.33
181.064	15.19
181.283	43.86
181.503	-44.2
181.723	4.95
181.943	54.1
182.163	33.62
182.383	60.24
182.602	13.14
182.822	107.35
183.042	62.29
183.262	25.43
183.482	-7.34
183.701	17.24
183.921	41.81
184.141	76.63
184.361	21.33
184.58	58.2
184.8	27.48
185.02	4.95
185.239	50
185.459	52.05
185.679	47.96
185.898	-3.24
186.118	-54.44
186.338	39.76
186.557	84.82
186.777	23.38
186.997	45.91
187.216	56.15
187.436	39.76
187.655	101.2
187.875	60.24
188.095	29.52
188.314	60.24
188.534	76.63
188.753	4.95
188.973	56.15
189.192	88.92
189.412	90.96
189.631	64.34
189.851	39.76
190.07	64.34
190.29	4.95
190.509	-9.39
190.729	31.57
190.948	-17.58
191.168	117.59
191.387	45.91
191.607	54.1
191.826	95.06
192.045	-1.19
192.265	60.24
192.484	90.96
192.704	2.9
192.923	27.48
193.142	115.54
193.362	29.52
193.581	35.67
193.8	19.29
194.02	56.15
194.239	-3.24
194.458	-5.29
194.678	15.19
194.897	15.19
195.116	7
195.335	52.05
195.555	33.62
195.774	37.72
195.993	27.48
196.212	41.81
196.432	15.19
196.651	68.44
196.87	97.11
197.089	76.63
197.308	52.05
197.528	27.48
197.747	58.2
197.966	109.4
198.185	31.57
198.404	50
198.623	39.76
198.842	86.87
199.062	66.39
199.281	90.96
199.5	68.44
199.719	37.72
199.938	119.64
200.157	19.29
200.376	-52.39
200.595	117.59
200.814	62.29
201.033	29.52
201.252	129.88
201.471	103.25
201.69	93.01
201.909	29.52
202.128	-1.19
202.347	95.06
202.566	76.63
202.785	-9.39
203.004	-5.29
203.223	-13.48
203.442	29.52
203.661	107.35
203.879	0.85
204.098	45.91
204.317	41.81
204.536	27.48
204.755	74.58
204.974	66.39
205.193	29.52
205.411	56.15
205.63	52.05
205.849	43.86
206.068	-3.24
206.287	17.24
206.505	9.05
206.724	68.44
206.943	33.62
207.162	68.44
207.381	15.19
207.599	90.96
207.818	11.09
208.037	11.09
208.255	7
208.474	-9.39
208.693	93.01
208.911	66.39
209.13	45.91
209.349	-38.06
209.567	31.57
209.786	101.2
210.005	127.83
210.223	27.48
210.442	80.72
210.661	50
210.879	7
211.098	70.48
211.316	-3.24
211.535	68.44
211.753	15.19
211.972	39.76
212.191	27.48
212.409	39.76
212.628	-15.53
212.846	29.52
213.065	2.9
213.283	35.67
213.502	-7.34
213.72	166.74
213.938	43.86
214.157	50
214.375	74.58
214.594	54.1
214.812	62.29
215.031	76.63
215.249	31.57
215.467	39.76
215.686	37.72
215.904	64.34
216.122	11.09
216.341	2.9
216.559	90.96
216.778	56.15
216.996	-1.19
217.214	31.57
217.432	105.3
217.651	52.05
217.869	-25.77
218.087	66.39
218.306	47.96
218.524	95.06
218.742	15.19
218.96	86.87
219.179	35.67
219.397	45.91
219.615	60.24
219.833	86.87
220.051	-42.15
220.27	15.19
220.488	82.77
220.706	60.24
220.924	11.09
221.142	25.43
221.36	72.53
221.578	84.82
221.796	56.15
222.015	31.57
222.233	74.58
222.451	68.44
222.669	37.72
222.887	-5.29
223.105	-11.43
223.323	-27.82
223.541	52.05
223.759	54.1
223.977	15.19
224.195	86.87
224.413	99.16
224.631	103.25
224.849	11.09
225.067	43.86
225.285	-5.29
225.503	52.05
225.721	45.91
225.939	105.3
226.157	37.72
226.375	95.06
226.592	58.2
226.81	39.76
227.028	15.19
227.246	-11.43
227.464	76.63
227.682	74.58
227.9	-5.29
228.117	4.95
228.335	56.15
228.553	-3.24
228.771	76.63
228.989	60.24
229.206	68.44
229.424	35.67
229.642	54.1
229.86	93.01
230.077	88.92
230.295	21.33
230.513	95.06
230.731	41.81
230.948	2.9
231.166	-29.87
231.384	4.95
231.601	39.76
231.819	9.05
232.037	29.52
232.254	-19.63
232.472	35.67
232.689	-40.11
232.907	-1.19
233.125	74.58
233.342	45.91
233.56	93.01
233.777	95.06
233.995	0.85
234.213	39.76
234.43	23.38
234.648	45.91
234.865	-3.24
235.083	90.96
235.3	93.01
235.518	19.29
235.735	62.29
235.953	47.96
236.17	19.29
236.388	56.15
236.605	74.58
236.822	144.21
237.04	64.34
237.257	7
237.475	84.82
237.692	56.15
237.909	15.19
238.127	72.53
238.344	-1.19
238.562	-7.34
238.779	27.48
238.996	29.52
239.214	0.85
239.431	127.83
239.648	-13.48
239.865	82.77
240.083	86.87
240.3	11.09
240.517	35.67
240.735	101.2
240.952	45.91
241.169	60.24
241.386	-36.01
241.603	62.29
241.821	19.29
242.038	68.44
242.255	66.39
242.472	84.82
242.689	-13.48
242.907	4.95
243.124	29.52
243.341	29.52
243.558	11.09
243.775	27.48
243.992	25.43
244.209	101.2
244.426	2.9
244.643	84.82
244.86	2.9
245.078	82.77
245.295	52.05
245.512	25.43
245.729	-33.96
245.946	111.44
246.163	43.86
246.38	23.38
246.597	43.86
246.814	19.29
247.031	-3.24
247.248	-1.19
247.464	52.05
247.681	41.81
247.898	27.48
248.115	39.76
248.332	70.48
248.549	29.52
248.766	82.77
248.983	39.76
249.2	43.86
249.417	66.39
249.633	-13.48
249.85	88.92
250.067	7
250.284	-3.24
250.501	27.48
250.717	45.91
250.934	13.14
251.151	35.67
251.368	31.57
251.585	-13.48
251.801	29.52
252.018	45.91
252.235	152.4
252.451	95.06
252.668	35.67
252.885	19.29
253.102	56.15
253.318	45.91
253.535	41.81
253.752	88.92
253.968	21.33
254.185	43.86
254.401	31.57
254.618	60.24
254.835	60.24
255.051	62.29
255.268	21.33
255.484	15.19
255.701	-11.43
255.917	23.38
256.134	-1.19
256.351	41.81
256.567	31.57
256.784	123.73
257	-31.91
257.217	23.38
257.433	60.24
257.65	27.48
257.866	64.34
258.082	37.72
258.299	-3.24
258.515	41.81
258.732	70.48
258.948	78.68
259.165	64.34
259.381	82.77
259.597	99.16
259.814	-15.53
260.03	-5.29
260.246	9.05
260.463	23.38
260.679	11.09
260.895	15.19
261.112	-5.29
261.328	19.29
261.544	23.38
261.761	93.01
261.977	111.44
262.193	13.14
262.409	47.96
262.626	41.81
262.842	109.4
263.058	9.05
263.274	78.68
263.49	93.01
263.707	-15.53
263.923	17.24
264.139	-31.91
264.355	88.92
264.571	88.92
264.787	45.91
265.004	21.33
265.22	78.68
265.436	19.29
265.652	76.63
265.868	2.9
266.084	7
266.3	-27.82
266.516	13.14
266.732	25.43
266.948	-36.01
267.164	21.33
267.38	27.48
267.596	54.1
267.812	-46.25
268.028	58.2
268.244	17.24
268.46	72.53
268.676	86.87
268.892	64.34
269.108	2.9
269.324	99.16
269.54	23.38
269.756	21.33
269.972	66.39
270.188	25.43
270.403	11.09
270.619	4.95
270.835	-29.87
271.051	101.2
271.267	35.67
271.483	43.86
271.698	35.67
271.914	68.44
272.13	43.86
272.346	4.95
272.562	23.38
272.777	78.68
272.993	4.95
273.209	95.06
273.425	101.2
273.64	84.82
273.856	27.48
274.072	60.24
274.287	47.96
274.503	21.33
274.719	-44.2
274.934	31.57
275.15	-7.34
275.366	23.38
275.581	82.77
275.797	31.57
276.012	-5.29
276.228	33.62
276.444	95.06
276.659	62.29
276.875	15.19
277.09	-27.82
277.306	95.06
277.521	-33.96
277.737	123.73
277.952	74.58
278.168	101.2
278.383	64.34
278.599	-11.43
278.814	-21.67
279.03	39.76
279.245	68.44
279.461	84.82
279.676	76.63
279.892	52.05
280.107	11.09
280.322	70.48
280.538	-31.91
280.753	84.82
280.969	15.19
281.184	47.96
281.399	54.1
281.615	50
281.83	76.63
282.045	-3.24
282.26	43.86
282.476	99.16
282.691	90.96
282.906	72.53
283.122	45.91
283.337	-25.77
283.552	4.95
283.767	15.19
283.983	78.68
284.198	43.86
284.413	33.62
284.628	37.72
284.843	50
285.058	37.72
285.274	43.86
285.489	109.4
285.704	76.63
285.919	19.29
286.134	-1.19
286.349	29.52
286.564	56.15
286.779	45.91
286.995	47.96
287.21	43.86
287.425	70.48
287.64	90.96
287.855	15.19
288.07	33.62
288.285	78.68
288.5	37.72
288.715	150.36
288.93	35.67
289.145	23.38
289.36	50
289.575	4.95
289.79	-11.43
290.004	45.91
290.219	54.1
290.434	33.62
290.649	11.09
290.864	62.29
291.079	25.43
291.294	113.49
291.509	13.14
291.724	31.57
291.938	43.86
292.153	-64.68
292.368	15.19
292.583	4.95
292.798	60.24
293.012	76.63
293.227	72.53
293.442	45.91
293.657	62.29
293.871	84.82
294.086	66.39
294.301	74.58
294.516	35.67
294.73	82.77
294.945	-9.39
295.16	101.2
295.374	7
295.589	43.86
295.804	19.29
296.018	21.33
296.233	76.63
296.447	72.53
296.662	17.24
296.877	39.76
297.091	-27.82
297.306	45.91
297.52	-23.72
297.735	54.1
297.949	62.29
298.164	-29.87
298.378	19.29
298.593	35.67
298.807	97.11
299.022	21.33
299.236	52.05
299.451	-1.19
299.665	43.86
299.88	15.19
300.094	-7.34
300.309	74.58
300.523	23.38
300.737	-3.24
300.952	82.77
301.166	31.57
301.381	39.76
301.595	121.68
301.809	45.91
302.024	99.16
302.238	-15.53
302.452	56.15
302.667	90.96
302.881	29.52
303.095	76.63
303.309	9.05
303.524	54.1
303.738	-21.67
303.952	47.96
304.166	-13.48
304.381	13.14
304.595	17.24
304.809	35.67
305.023	62.29
305.237	123.73
305.452	62.29
305.666	27.48
305.88	117.59
306.094	84.82
306.308	21.33
306.522	60.24
306.736	144.21
306.95	27.48
307.164	15.19
307.379	50
307.593	95.06
307.807	125.78
308.021	76.63
308.235	54.1
308.449	43.86
308.663	88.92
308.877	11.09
309.091	58.2
309.305	39.76
309.519	62.29
309.733	-1.19
309.947	99.16
310.161	90.96
310.374	47.96
310.588	52.05
310.802	-5.29
311.016	43.86
311.23	58.2
311.444	154.45
311.658	43.86
311.872	50
312.085	131.92
312.299	84.82
312.513	43.86
312.727	54.1
312.941	47.96
313.154	52.05
313.368	43.86
313.582	50
313.796	43.86
314.009	68.44
314.223	47.96
314.437	76.63
314.651	39.76
314.864	54.1
315.078	4.95
315.292	74.58
315.505	41.81
315.719	78.68
315.933	88.92
316.146	27.48
316.36	41.81
316.573	107.35
316.787	31.57
317.001	43.86
317.214	13.14
317.428	35.67
317.641	54.1
317.855	133.97
318.068	72.53
318.282	31.57
318.495	41.81
318.709	37.72
318.922	21.33
319.136	-5.29
319.349	-64.68
319.563	43.86
319.776	133.97
319.99	21.33
320.203	29.52
320.417	-52.39
320.63	13.14
320.843	70.48
321.057	56.15
321.27	19.29
321.483	4.95
321.697	37.72
321.91	41.81
322.124	37.72
322.337	31.57
322.55	-13.48
322.763	13.14
322.977	76.63
323.19	64.34
323.403	84.82
323.617	74.58
323.83	99.16
324.043	58.2
324.256	11.09
324.469	72.53
324.683	7
324.896	33.62
325.109	2.9
325.322	76.63
325.535	84.82
325.748	43.86
325.962	37.72
326.175	56.15
326.388	88.92
326.601	70.48
326.814	111.44
327.027	27.48
327.24	119.64
327.453	25.43
327.666	45.91
327.879	47.96
328.092	99.16
328.305	27.48
328.518	80.72
328.731	7
328.944	4.95
329.157	-7.34
329.37	13.14
329.583	70.48
329.796	88.92
330.009	11.09
330.222	-13.48
330.435	54.1
330.648	109.4
330.861	62.29
331.073	43.86
331.286	56.15
331.499	19.29
331.712	-27.82
331.925	31.57
332.138	60.24
332.35	23.38
332.563	27.48
332.776	37.72
332.989	21.33
333.202	47.96
333.414	35.67
333.627	19.29
333.84	15.19
334.053	82.77
334.265	13.14
334.478	-1.19
334.691	19.29
334.903	-23.72
335.116	13.14
335.329	43.86
335.541	64.34
335.754	39.76
335.966	25.43
336.179	93.01
336.392	45.91
336.604	72.53
336.817	-5.29
337.029	-23.72
337.242	72.53
337.454	17.24
337.667	2.9
337.88	84.82
338.092	45.91
338.305	15.19
338.517	56.15
338.729	21.33
338.942	152.4
339.154	-5.29
339.367	35.67
339.579	76.63
339.792	9.05
340.004	84.82
340.217	33.62
340.429	27.48
340.641	2.9
340.854	-17.58
341.066	45.91
341.278	37.72
341.491	56.15
341.703	54.1
341.915	-3.24
342.128	105.3
342.34	33.62
342.552	-62.63
342.764	66.39
342.977	-13.48
343.189	66.39
343.401	-25.77
343.613	41.81
343.826	13.14
344.038	33.62
344.25	62.29
344.462	66.39
344.674	97.11
344.886	4.95
345.099	78.68
345.311	68.44
345.523	29.52
345.735	33.62
345.947	35.67
346.159	66.39
346.371	62.29
346.583	27.48
346.795	64.34
347.007	31.57
347.219	60.24
347.431	129.88
347.643	84.82
347.855	2.9
348.067	78.68
348.279	103.25
348.491	54.1
348.703	45.91
348.915	70.48
349.127	70.48
349.339	60.24
349.551	-23.72
349.763	103.25
349.975	13.14
350.187	-13.48
350.399	35.67
350.61	4.95
350.822	33.62
351.034	41.81
351.246	39.76
351.458	21.33
351.669	125.78
351.881	72.53
352.093	13.14
352.305	109.4
352.517	7
352.728	117.59
352.94	82.77
353.152	17.24
353.363	0.85
353.575	70.48
353.787	127.83
353.999	56.15
354.21	15.19
354.422	52.05
354.633	29.52
354.845	95.06
355.057	113.49
355.268	60.24
355.48	54.1
355.692	56.15
355.903	-42.15
356.115	95.06
356.326	31.57
356.538	76.63
356.749	113.49
356.961	17.24
357.172	27.48
357.384	64.34
357.595	39.76
357.807	70.48
358.018	11.09
358.23	25.43
358.441	-3.24
358.653	60.24
358.864	90.96
359.075	70.48
359.287	138.07
359.498	29.52
359.709	62.29
359.921	29.52
360.132	13.14
360.344	76.63
360.555	78.68
360.766	88.92
360.977	39.76
361.189	82.77
361.4	19.29
361.611	41.81
361.823	93.01
362.034	2.9
362.245	17.24
362.456	56.15
362.667	54.1
362.879	45.91
363.09	84.82
363.301	45.91
363.512	11.09
363.723	15.19
363.935	52.05
364.146	78.68
364.357	88.92
364.568	117.59
364.779	45.91
364.99	43.86
365.201	80.72
365.412	109.4
365.623	2.9
365.834	43.86
366.045	45.91
366.256	19.29
366.467	-13.48
366.678	7
366.889	41.81
367.1	158.55
367.311	37.72
367.522	111.44
367.733	-3.24
367.944	60.24
368.155	101.2
368.366	56.15
368.577	54.1
368.788	56.15
368.999	-5.29
369.209	105.3
369.42	68.44
369.631	111.44
369.842	-13.48
370.053	74.58
370.264	101.2
370.474	60.24
370.685	60.24
370.896	109.4
371.107	68.44
371.317	19.29
371.528	60.24
371.739	0.85
371.95	-36.01
372.16	82.77
372.371	86.87
372.582	84.82
372.792	13.14
373.003	88.92
373.214	45.91
373.424	50
373.635	4.95
373.846	86.87
374.056	47.96
374.267	76.63
374.477	-29.87
374.688	125.78
374.898	50
375.109	41.81
375.319	88.92
375.53	109.4
375.74	17.24
375.951	140.12
376.161	-1.19
376.372	35.67
376.582	56.15
376.793	101.2
377.003	97.11
377.214	80.72
377.424	62.29
377.635	-11.43
377.845	21.33
378.055	101.2
378.266	58.2
378.476	37.72
378.686	45.91
378.897	25.43
379.107	78.68
379.317	64.34
379.528	52.05
379.738	-31.91
379.948	80.72
380.158	95.06
380.369	19.29
380.579	50
380.789	84.82
380.999	47.96
381.21	68.44
381.42	60.24
381.63	21.33
381.84	90.96
382.05	27.48
382.261	-7.34
382.471	54.1
382.681	37.72
382.891	43.86
383.101	62.29
383.311	35.67
383.521	62.29
383.731	13.14
383.941	127.83
384.151	72.53
384.361	7
384.571	39.76
384.781	78.68
384.991	80.72
385.201	66.39
385.411	136.02
385.621	64.34
385.831	84.82
386.041	9.05
386.251	52.05
386.461	66.39
386.671	2.9
386.881	95.06
387.091	37.72
387.301	60.24
387.511	31.57
387.72	115.54
387.93	43.86
388.14	43.86
388.35	56.15
388.56	80.72
388.769	66.39
388.979	11.09
389.189	54.1
389.399	127.83
389.609	-13.48
389.818	107.35
390.028	82.77
390.238	113.49
390.447	60.24
390.657	76.63
390.867	58.2
391.076	41.81
391.286	93.01
391.496	101.2
391.705	68.44
391.915	84.82
392.125	88.92
392.334	109.4
392.544	62.29
392.753	54.1
392.963	109.4
393.172	37.72
393.382	70.48
393.591	109.4
393.801	105.3
394.01	121.68
394.22	133.97
394.429	101.2
394.639	115.54
394.848	146.26
395.058	62.29
395.267	58.2
395.477	88.92
395.686	68.44
395.895	78.68
396.105	62.29
396.314	101.2
396.524	84.82
396.733	66.39
396.942	109.4
397.152	13.14
397.361	115.54
397.57	-19.63
397.78	72.53
397.989	125.78
398.198	84.82
398.407	68.44
398.617	23.38
398.826	121.68
399.035	35.67
399.244	13.14
399.453	84.82
399.663	168.79
399.872	93.01
400.081	31.57
400.29	101.2
400.499	70.48
400.708	93.01
400.917	43.86
401.127	52.05
401.336	88.92
401.545	148.31
401.754	68.44
401.963	45.91
402.172	113.49
402.381	117.59
402.59	146.26
402.799	84.82
403.008	74.58
403.217	142.16
403.426	95.06
403.635	107.35
403.844	123.73
404.053	119.64
404.262	76.63
404.471	127.83
404.68	119.64
404.888	68.44
405.097	115.54
405.306	72.53
405.515	172.88
405.724	164.69
405.933	111.44
406.142	185.17
406.35	179.03
406.559	105.3
406.768	158.55
406.977	179.03
407.185	117.59
407.394	222.03
407.603	176.98
407.812	232.27
408.02	131.92
408.229	205.65
408.438	101.2
408.646	183.12
408.855	207.7
409.064	158.55
409.272	136.02
409.481	267.09
409.69	228.18
409.898	179.03
410.107	199.51
410.315	262.99
410.524	170.83
410.733	265.04
410.941	183.12
411.15	185.17
411.358	242.51
411.567	306
411.775	226.13
411.984	236.37
412.192	234.32
412.401	217.94
412.609	293.71
412.818	312.14
413.026	281.43
413.234	240.47
413.443	312.14
413.651	363.34
413.86	349.01
414.068	428.88
414.276	357.2
414.485	318.29
414.693	465.74
414.901	453.45
415.11	367.44
415.318	410.45
415.526	351.06
415.734	471.89
415.943	467.79
416.151	430.93
416.359	506.7
416.567	537.42
416.776	455.5
416.984	535.37
417.192	543.57
417.4	572.24
417.608	545.61
417.817	631.63
418.025	611.15
418.233	754.51
418.441	703.31
418.649	605
418.857	740.17
419.065	873.29
419.273	799.56
419.481	793.42
419.689	787.27
419.897	828.23
420.105	930.63
420.313	875.34
420.521	914.25
420.729	936.78
420.937	990.02
421.145	1059.65
421.353	1112.9
421.561	1141.57
421.769	1149.76
421.977	1190.72
422.185	1184.58
422.393	1203.01
422.601	1418.05
422.809	1307.46
423.017	1321.79
423.224	1420.1
423.432	1409.86
423.64	1401.66
423.848	1555.26
424.056	1573.69
424.263	1702.72
424.471	1631.04
424.679	1575.74
424.887	1805.11
425.094	1794.87
425.302	1884.98
425.51	1966.9
425.718	1930.04
425.925	1946.42
426.133	1995.57
426.341	2179.89
426.548	2306.87
426.756	2356.02
426.964	2370.35
427.171	2315.06
427.379	2507.57
427.586	2499.38
427.794	2495.28
428.001	2575.15
428.209	2835.24
428.417	2720.56
428.624	2835.24
428.832	2968.36
429.039	2847.53
429.247	3001.13
429.454	3171.11
429.662	3396.39
429.869	3191.59
430.076	3435.3
430.284	3306.27
430.491	3461.92
430.699	3683.1
430.906	3701.53
431.114	3689.25
431.321	3879.71
431.528	4004.63
431.736	4184.85
431.943	4412.18
432.15	4240.15
432.358	4367.12
432.565	4557.58
432.772	4727.57
432.979	4674.32
433.187	4895.5
433.394	4758.28
433.601	5296.9
433.808	5368.58
434.016	5081.86
434.223	5413.63
434.43	5643.01
434.637	5626.62
434.844	5899
435.052	6089.46
435.259	6032.12
435.466	6148.86
435.673	6013.69
435.88	6308.6
436.087	6724.33
436.294	6689.52
436.501	6537.97
436.708	6757.1
436.915	6972.14
437.122	7353.06
437.329	7221.99
437.537	7674.59
437.743	7731.94
437.95	7600.87
438.157	7850.72
438.364	8067.8
438.571	8135.39
438.778	8381.14
438.985	9161.42
439.192	8641.23
439.399	8932.05
439.606	8739.54
439.813	9321.16
440.02	9724.61
440.227	9616.07
440.433	9624.26
440.64	9747.14
440.847	9814.72
441.054	10048.19
441.261	10826.42
441.467	10492.6
441.674	10896.05
441.881	11004.59
442.088	11477.67
442.294	11119.28
442.501	11557.54
442.708	11700.9
442.914	12012.19
443.121	12624.53
443.328	12446.36
443.534	13259.4
443.741	12855.95
443.948	12585.62
444.154	13386.38
444.361	13435.53
444.568	13462.15
444.774	13507.21
444.981	13699.72
445.187	14088.83
445.394	14735.99
445.6	14649.97
445.807	16167.52
446.013	15381.1
446.22	15757.92
446.426	16493.15
446.633	16585.3
446.839	16994.9
447.046	16579.16
447.252	17324.62
447.459	17482.31
447.665	17277.52
447.871	18049.6
448.078	18926.13
448.284	18029.12
448.491	18344.51
448.697	19098.16
448.903	19464.75
449.11	19544.62
449.316	19085.87
449.522	19718.7
449.728	20351.52
449.935	20275.74
450.141	20337.18
450.347	20875.8
450.553	20202.02
450.76	20398.62
450.966	21305.87
451.172	20607.51
451.378	21621.26
451.584	21244.43
451.791	21666.31
451.997	21635.6
452.203	22053.38
452.409	21955.08
452.615	21588.49
452.821	21191.19
453.027	20818.46
453.233	22102.53
453.44	21133.84
453.646	21602.83
453.852	21563.92
454.058	22055.43
454.264	21131.79
454.47	21592.59
454.676	20894.23
454.882	22053.38
455.088	20103.71
455.294	20408.86
455.5	20470.3
455.705	20826.65
455.911	20154.91
456.117	19628.59
456.323	19440.17
456.529	18244.16
456.735	19243.57
456.941	18580.03
457.147	18305.6
457.352	17723.97
457.558	17580.62
457.764	17904.2
457.97	17322.57
458.176	16788.05
458.381	17056.34
458.587	16296.54
458.793	16001.63
458.999	15229.55
459.204	16298.59
459.41	16091.74
459.616	14783.09
459.821	15051.38
460.027	14764.66
460.233	14633.59
460.438	13628.04
460.644	14205.56
460.85	13380.23
461.055	13007.5
461.261	12991.12
461.466	12405.4
461.672	11725.47
461.878	12778.13
462.083	11690.66
462.289	11539.11
462.494	11436.71
462.7	10982.06
462.905	10681.01
463.111	11043.5
463.316	11211.43
463.522	10846.9
463.727	11039.4
463.932	10975.92
464.138	10836.66
464.343	10867.38
464.549	10351.29
464.754	10947.25
464.959	10693.3
465.165	10805.94
465.37	10310.33
465.575	9878.21
465.781	10293.94
465.986	10412.73
466.191	9917.12
466.397	9878.21
466.602	9493.19
466.807	9861.82
467.012	9769.66
467.218	9593.54
467.423	9458.37
467.628	9605.83
467.833	9933.5
468.038	9505.48
468.244	9388.74
468.449	9900.73
468.654	9534.15
468.859	9278.15
469.064	9269.96
469.269	8942.28
469.474	9081.55
469.679	9288.39
