Data from USB4F104151__96__13-00-12-298.txt Node

Date: Fri Mar 14 13:00:12 EDT 2025
User: louis
Spectrometer: USB4F10415
Trigger mode: 4
Integration Time (sec): 1.000000E-2
Scans to average: 1
Electric dark correction enabled: true
Nonlinearity correction enabled: false
Boxcar width: 0
XAxis mode: Wavelengths
Number of Pixels in Spectrum: 3648
>>>>>Begin Spectral Data<<<<<
178.204	-33.62
178.424	-33.62
178.644	-33.62
178.864	-76.63
179.084	-76.63
179.304	13.48
179.524	25.77
179.744	-21.33
179.964	-27.48
180.184	56.49
180.404	5.29
180.624	-45.91
180.844	-47.96
181.064	-19.29
181.283	21.67
181.503	15.53
181.723	23.72
181.943	21.67
182.163	-11.09
182.383	46.25
182.602	-7
182.822	42.15
183.042	-64.34
183.262	-23.38
183.482	-7
183.701	27.82
183.921	13.48
184.141	-21.33
184.361	85.16
184.58	64.68
184.8	3.24
185.02	36.01
185.239	46.25
185.459	11.43
185.679	54.44
185.898	-41.81
186.118	-4.95
186.338	-13.14
186.557	5.29
186.777	-37.72
186.997	1.19
187.216	13.48
187.436	7.34
187.655	44.2
187.875	-11.09
188.095	38.06
188.314	5.29
188.534	38.06
188.753	15.53
188.973	17.58
189.192	33.96
189.412	11.43
189.631	50.35
189.851	5.29
190.07	62.63
190.29	15.53
190.509	5.29
190.729	44.2
190.948	-39.76
191.168	76.97
191.387	31.91
191.607	-21.33
191.826	27.82
192.045	21.67
192.265	48.3
192.484	-19.29
192.704	33.96
192.923	7.34
193.142	46.25
193.362	-7
193.581	83.11
193.8	68.78
194.02	13.48
194.239	56.49
194.458	85.16
194.678	3.24
194.897	27.82
195.116	29.87
195.335	-13.14
195.555	17.58
195.774	13.48
195.993	29.87
196.212	36.01
196.432	-2.9
196.651	70.83
196.87	-37.72
197.089	-19.29
197.308	9.39
197.528	7.34
197.747	-43.86
197.966	-43.86
198.185	-25.43
198.404	-27.48
198.623	17.58
198.842	-41.81
199.062	-17.24
199.281	74.92
199.5	-15.19
199.719	27.82
199.938	-7
200.157	81.07
200.376	5.29
200.595	23.72
200.814	31.91
201.033	44.2
201.252	-62.29
201.471	5.29
201.69	-31.57
201.909	105.64
202.128	38.06
202.347	9.39
202.566	36.01
202.785	-0.85
203.004	56.49
203.223	62.63
203.442	-4.95
203.661	-33.62
203.879	-68.44
204.098	25.77
204.317	-50
204.536	76.97
204.755	68.78
204.974	60.59
205.193	7.34
205.411	93.35
205.63	5.29
205.849	-9.05
206.068	-68.44
206.287	-0.85
206.505	-13.14
206.724	70.83
206.943	-15.19
207.162	33.96
207.381	-9.05
207.599	23.72
207.818	11.43
208.037	44.2
208.255	44.2
208.474	44.2
208.693	3.24
208.911	66.73
209.13	21.67
209.349	58.54
209.567	33.96
209.786	-13.14
210.005	-11.09
210.223	3.24
210.442	62.63
210.661	11.43
210.879	1.19
211.098	115.88
211.316	72.87
211.535	31.91
211.753	29.87
211.972	9.39
212.191	3.24
212.409	33.96
212.628	27.82
212.846	29.87
213.065	5.29
213.283	48.3
213.502	9.39
213.72	-54.1
213.938	38.06
214.157	5.29
214.375	-19.29
214.594	5.29
214.812	38.06
215.031	-31.57
215.249	36.01
215.467	3.24
215.686	13.48
215.904	93.35
216.122	36.01
216.341	21.67
216.559	1.19
216.778	52.39
216.996	111.78
217.214	87.21
217.432	87.21
217.651	38.06
217.869	-66.39
218.087	-15.19
218.306	36.01
218.524	11.43
218.742	-39.76
218.96	89.26
219.179	29.87
219.397	19.63
219.615	62.63
219.833	25.77
220.051	13.48
220.27	-45.91
220.488	21.67
220.706	-21.33
220.924	7.34
221.142	-7
221.36	-17.24
221.578	15.53
221.796	40.11
222.015	-13.14
222.233	17.58
222.451	46.25
222.669	-15.19
222.887	31.91
223.105	42.15
223.323	-19.29
223.541	-62.29
223.759	-39.76
223.977	1.19
224.195	19.63
224.413	-13.14
224.631	42.15
224.849	1.19
225.067	60.59
225.285	-37.72
225.503	66.73
225.721	-37.72
225.939	13.48
226.157	3.24
226.375	44.2
226.592	-0.85
226.81	31.91
227.028	17.58
227.246	-11.09
227.464	54.44
227.682	3.24
227.9	19.63
228.117	56.49
228.335	-25.43
228.553	60.59
228.771	13.48
228.989	5.29
229.206	-31.57
229.424	5.29
229.642	1.19
229.86	-27.48
230.077	48.3
230.295	42.15
230.513	27.82
230.731	-13.14
230.948	36.01
231.166	33.96
231.384	33.96
231.601	48.3
231.819	66.73
232.037	-31.57
232.254	-50
232.472	27.82
232.689	19.63
232.907	17.58
233.125	27.82
233.342	33.96
233.56	-29.52
233.777	-35.67
233.995	52.39
234.213	-17.24
234.43	31.91
234.648	132.26
234.865	-41.81
235.083	-39.76
235.3	62.63
235.518	3.24
235.735	70.83
235.953	7.34
236.17	23.72
236.388	9.39
236.605	-15.19
236.822	-11.09
237.04	38.06
237.257	36.01
237.475	-27.48
237.692	27.82
237.909	-23.38
238.127	-41.81
238.344	7.34
238.562	-21.33
238.779	-13.14
238.996	15.53
239.214	15.53
239.431	9.39
239.648	-13.14
239.865	52.39
240.083	-11.09
240.3	15.53
240.517	44.2
240.735	-19.29
240.952	19.63
241.169	13.48
241.386	3.24
241.603	-39.76
241.821	9.39
242.038	-13.14
242.255	-17.24
242.472	36.01
242.689	54.44
242.907	27.82
243.124	38.06
243.341	-41.81
243.558	-68.44
243.775	99.5
243.992	-45.91
244.209	21.67
244.426	101.55
244.643	-21.33
244.86	-4.95
245.078	25.77
245.295	-2.9
245.512	17.58
245.729	-31.57
245.946	21.67
246.163	-13.14
246.38	9.39
246.597	-17.24
246.814	72.87
247.031	31.91
247.248	25.77
247.464	103.59
247.681	60.59
247.898	42.15
248.115	42.15
248.332	23.72
248.549	36.01
248.766	15.53
248.983	27.82
249.2	81.07
249.417	33.96
249.633	-39.76
249.85	27.82
250.067	27.82
250.284	13.48
250.501	-4.95
250.717	56.49
250.934	-2.9
251.151	15.53
251.368	-11.09
251.585	-4.95
251.801	46.25
252.018	36.01
252.235	19.63
252.451	13.48
252.668	-37.72
252.885	-19.29
253.102	54.44
253.318	3.24
253.535	7.34
253.752	48.3
253.968	11.43
254.185	-27.48
254.401	-37.72
254.618	-0.85
254.835	31.91
255.051	9.39
255.268	11.43
255.484	-45.91
255.701	29.87
255.917	-0.85
256.134	66.73
256.351	-29.52
256.567	7.34
256.784	21.67
257	-25.43
257.217	-9.05
257.433	-0.85
257.65	44.2
257.866	-11.09
258.082	-15.19
258.299	9.39
258.515	29.87
258.732	5.29
258.948	-35.67
259.165	-35.67
259.381	-0.85
259.597	15.53
259.814	-50
260.03	36.01
260.246	11.43
260.463	31.91
260.679	-2.9
260.895	3.24
261.112	103.59
261.328	-37.72
261.544	36.01
261.761	7.34
261.977	21.67
262.193	83.11
262.409	-7
262.626	56.49
262.842	-21.33
263.058	-54.1
263.274	15.53
263.49	5.29
263.707	40.11
263.923	-29.52
264.139	54.44
264.355	-2.9
264.571	44.2
264.787	93.35
265.004	25.77
265.22	15.53
265.436	15.53
265.652	7.34
265.868	40.11
266.084	44.2
266.3	66.73
266.516	-0.85
266.732	70.83
266.948	33.96
267.164	29.87
267.38	38.06
267.596	-19.29
267.812	36.01
268.028	126.12
268.244	-7
268.46	7.34
268.676	3.24
268.892	-2.9
269.108	27.82
269.324	44.2
269.54	-9.05
269.756	54.44
269.972	-37.72
270.188	11.43
270.403	13.48
270.619	-2.9
270.835	5.29
271.051	42.15
271.267	-35.67
271.483	-21.33
271.698	1.19
271.914	-9.05
272.13	42.15
272.346	-2.9
272.562	-56.15
272.777	99.5
272.993	60.59
273.209	27.82
273.425	29.87
273.64	3.24
273.856	27.82
274.072	62.63
274.287	117.93
274.503	79.02
274.719	56.49
274.934	79.02
275.15	36.01
275.366	-9.05
275.581	15.53
275.797	-4.95
276.012	31.91
276.228	15.53
276.444	27.82
276.659	91.31
276.875	19.63
277.09	-21.33
277.306	50.35
277.521	62.63
277.737	-13.14
277.952	5.29
278.168	42.15
278.383	27.82
278.599	48.3
278.814	76.97
279.03	13.48
279.245	97.45
279.461	60.59
279.676	58.54
279.892	1.19
280.107	-7
280.322	38.06
280.538	101.55
280.753	-25.43
280.969	58.54
281.184	23.72
281.399	23.72
281.615	48.3
281.83	36.01
282.045	-4.95
282.26	-17.24
282.476	-25.43
282.691	-13.14
282.906	83.11
283.122	15.53
283.337	11.43
283.552	23.72
283.767	50.35
283.983	52.39
284.198	-45.91
284.413	48.3
284.628	52.39
284.843	85.16
285.058	-72.53
285.274	60.59
285.489	60.59
285.704	25.77
285.919	36.01
286.134	85.16
286.349	62.63
286.564	36.01
286.779	62.63
286.995	89.26
287.21	15.53
287.425	56.49
287.64	36.01
287.855	54.44
288.07	-60.24
288.285	-62.29
288.5	-33.62
288.715	60.59
288.93	38.06
289.145	21.67
289.36	103.59
289.575	-62.29
289.79	15.53
290.004	105.64
290.219	46.25
290.434	60.59
290.649	-13.14
290.864	19.63
291.079	52.39
291.294	29.87
291.509	29.87
291.724	-29.52
291.938	-41.81
292.153	68.78
292.368	19.63
292.583	11.43
292.798	126.12
293.012	87.21
293.227	17.58
293.442	13.48
293.657	29.87
293.871	81.07
294.086	19.63
294.301	62.63
294.516	-29.52
294.73	56.49
294.945	-7
295.16	-41.81
295.374	40.11
295.589	46.25
295.804	-13.14
296.018	54.44
296.233	115.88
296.447	-19.29
296.662	25.77
296.877	107.69
297.091	25.77
297.306	3.24
297.52	-7
297.735	19.63
297.949	42.15
298.164	33.96
298.378	64.68
298.593	-9.05
298.807	-4.95
299.022	17.58
299.236	74.92
299.451	-39.76
299.665	-33.62
299.88	38.06
300.094	56.49
300.309	72.87
300.523	-70.48
300.737	85.16
300.952	-52.05
301.166	-0.85
301.381	23.72
301.595	23.72
301.809	-27.48
302.024	-11.09
302.238	21.67
302.452	27.82
302.667	42.15
302.881	-37.72
303.095	21.67
303.309	64.68
303.524	-2.9
303.738	13.48
303.952	23.72
304.166	46.25
304.381	-60.24
304.595	29.87
304.809	5.29
305.023	5.29
305.237	1.19
305.452	29.87
305.666	-31.57
305.88	9.39
306.094	31.91
306.308	54.44
306.522	42.15
306.736	-2.9
306.95	60.59
307.164	56.49
307.379	9.39
307.593	83.11
307.807	23.72
308.021	11.43
308.235	74.92
308.449	68.78
308.663	29.87
308.877	-29.52
309.091	15.53
309.305	-29.52
309.519	-13.14
309.733	27.82
309.947	-31.57
310.161	29.87
310.374	3.24
310.588	40.11
310.802	68.78
311.016	31.91
311.23	31.91
311.444	64.68
311.658	7.34
311.872	52.39
312.085	126.12
312.299	31.91
312.513	27.82
312.727	38.06
312.941	-33.62
313.154	111.78
313.368	15.53
313.582	3.24
313.796	-11.09
314.009	21.67
314.223	29.87
314.437	113.83
314.651	11.43
314.864	27.82
315.078	31.91
315.292	17.58
315.505	-50
315.719	7.34
315.933	29.87
316.146	19.63
316.36	17.58
316.573	46.25
316.787	91.31
317.001	31.91
317.214	111.78
317.428	21.67
317.641	31.91
317.855	64.68
318.068	21.67
318.282	36.01
318.495	46.25
318.709	7.34
318.922	3.24
319.136	85.16
319.349	3.24
319.563	17.58
319.776	-7
319.99	-2.9
320.203	64.68
320.417	97.45
320.63	-29.52
320.843	-13.14
321.057	23.72
321.27	70.83
321.483	21.67
321.697	-0.85
321.91	-9.05
322.124	21.67
322.337	-29.52
322.55	-2.9
322.763	36.01
322.977	68.78
323.19	29.87
323.403	-19.29
323.617	124.07
323.83	87.21
324.043	42.15
324.256	-0.85
324.469	7.34
324.683	42.15
324.896	-9.05
325.109	13.48
325.322	-35.67
325.535	-0.85
325.748	66.73
325.962	5.29
326.175	58.54
326.388	79.02
326.601	13.48
326.814	62.63
327.027	-13.14
327.24	87.21
327.453	-2.9
327.666	62.63
327.879	62.63
328.092	38.06
328.305	50.35
328.518	-17.24
328.731	11.43
328.944	-19.29
329.157	-4.95
329.37	52.39
329.583	85.16
329.796	31.91
330.009	11.43
330.222	17.58
330.435	3.24
330.648	19.63
330.861	13.48
331.073	-17.24
331.286	7.34
331.499	81.07
331.712	-23.38
331.925	38.06
332.138	138.41
332.35	-29.52
332.563	-27.48
332.776	-7
332.989	-9.05
333.202	13.48
333.414	23.72
333.627	38.06
333.84	7.34
334.053	-0.85
334.265	-2.9
334.478	11.43
334.691	-2.9
334.903	13.48
335.116	-4.95
335.329	38.06
335.541	11.43
335.754	66.73
335.966	17.58
336.179	68.78
336.392	-37.72
336.604	23.72
336.817	7.34
337.029	29.87
337.242	-17.24
337.454	9.39
337.667	-9.05
337.88	27.82
338.092	25.77
338.305	48.3
338.517	76.97
338.729	13.48
338.942	23.72
339.154	-17.24
339.367	33.96
339.579	40.11
339.792	-90.96
340.004	70.83
340.217	11.43
340.429	58.54
340.641	56.49
340.854	-43.86
341.066	-50
341.278	58.54
341.491	46.25
341.703	40.11
341.915	27.82
342.128	85.16
342.34	11.43
342.552	-9.05
342.764	44.2
342.977	91.31
343.189	48.3
343.401	46.25
343.613	-4.95
343.826	-15.19
344.038	-43.86
344.25	66.73
344.462	23.72
344.674	-13.14
344.886	-21.33
345.099	23.72
345.311	-13.14
345.523	66.73
345.735	58.54
345.947	60.59
346.159	68.78
346.371	-7
346.583	-37.72
346.795	33.96
347.007	5.29
347.219	79.02
347.431	13.48
347.643	136.36
347.855	-39.76
348.067	76.97
348.279	31.91
348.491	64.68
348.703	7.34
348.915	46.25
349.127	7.34
349.339	87.21
349.551	44.2
349.763	3.24
349.975	-13.14
350.187	60.59
350.399	36.01
350.61	50.35
350.822	33.96
351.034	38.06
351.246	56.49
351.458	44.2
351.669	60.59
351.881	44.2
352.093	27.82
352.305	54.44
352.517	-15.19
352.728	58.54
352.94	72.87
353.152	89.26
353.363	1.19
353.575	54.44
353.787	48.3
353.999	48.3
354.21	76.97
354.422	5.29
354.633	13.48
354.845	11.43
355.057	-13.14
355.268	27.82
355.48	1.19
355.692	29.87
355.903	29.87
356.115	29.87
356.326	-2.9
356.538	38.06
356.749	-0.85
356.961	70.83
357.172	140.46
357.384	-37.72
357.595	46.25
357.807	87.21
358.018	19.63
358.23	-19.29
358.441	42.15
358.653	-19.29
358.864	-21.33
359.075	-7
359.287	13.48
359.498	81.07
359.709	27.82
359.921	46.25
360.132	-15.19
360.344	46.25
360.555	29.87
360.766	19.63
360.977	46.25
361.189	87.21
361.4	36.01
361.611	56.49
361.823	-17.24
362.034	54.44
362.245	42.15
362.456	72.87
362.667	62.63
362.879	25.77
363.09	-4.95
363.301	-7
363.512	-11.09
363.723	52.39
363.935	-0.85
364.146	44.2
364.357	-58.2
364.568	-2.9
364.779	44.2
364.99	68.78
365.201	19.63
365.412	50.35
365.623	31.91
365.834	-17.24
366.045	31.91
366.256	52.39
366.467	21.67
366.678	46.25
366.889	-33.62
367.1	54.44
367.311	-56.15
367.522	46.25
367.733	46.25
367.944	27.82
368.155	46.25
368.366	11.43
368.577	66.73
368.788	58.54
368.999	19.63
369.209	44.2
369.42	23.72
369.631	48.3
369.842	9.39
370.053	56.49
370.264	-4.95
370.474	62.63
370.685	-39.76
370.896	46.25
371.107	56.49
371.317	29.87
371.528	38.06
371.739	66.73
371.95	9.39
372.16	76.97
372.371	7.34
372.582	-39.76
372.792	36.01
373.003	1.19
373.214	36.01
373.424	9.39
373.635	9.39
373.846	17.58
374.056	5.29
374.267	27.82
374.477	29.87
374.688	5.29
374.898	29.87
375.109	17.58
375.319	85.16
375.53	93.35
375.74	-25.43
375.951	54.44
376.161	93.35
376.372	103.59
376.582	31.91
376.793	40.11
377.003	50.35
377.214	3.24
377.424	-13.14
377.635	48.3
377.845	46.25
378.055	13.48
378.266	25.77
378.476	52.39
378.686	3.24
378.897	60.59
379.107	60.59
379.317	36.01
379.528	-15.19
379.738	54.44
379.948	111.78
380.158	-21.33
380.369	40.11
380.579	11.43
380.789	68.78
380.999	21.67
381.21	54.44
381.42	48.3
381.63	-45.91
381.84	87.21
382.05	38.06
382.261	79.02
382.471	72.87
382.681	-37.72
382.891	19.63
383.101	62.63
383.311	-2.9
383.521	60.59
383.731	-43.86
383.941	17.58
384.151	31.91
384.361	-23.38
384.571	-0.85
384.781	64.68
384.991	-9.05
385.201	-0.85
385.411	7.34
385.621	-9.05
385.831	5.29
386.041	-9.05
386.251	62.63
386.461	11.43
386.671	1.19
386.881	66.73
387.091	-78.68
387.301	76.97
387.511	83.11
387.72	46.25
387.93	46.25
388.14	11.43
388.35	62.63
388.56	27.82
388.769	128.17
388.979	72.87
389.189	23.72
389.399	68.78
389.609	13.48
389.818	27.82
390.028	48.3
390.238	7.34
390.447	27.82
390.657	117.93
390.867	60.59
391.076	-37.72
391.286	21.67
391.496	89.26
391.705	54.44
391.915	52.39
392.125	27.82
392.334	36.01
392.544	48.3
392.753	19.63
392.963	46.25
393.172	25.77
393.382	-11.09
393.591	179.37
393.801	-7
394.01	21.67
394.22	19.63
394.429	72.87
394.639	85.16
394.848	33.96
395.058	50.35
395.267	21.67
395.477	-9.05
395.686	72.87
395.895	60.59
396.105	11.43
396.314	62.63
396.524	38.06
396.733	21.67
396.942	-4.95
397.152	40.11
397.361	46.25
397.57	-13.14
397.78	29.87
397.989	3.24
398.198	60.59
398.407	126.12
398.617	85.16
398.826	17.58
399.035	95.4
399.244	85.16
399.453	81.07
399.663	62.63
399.872	107.69
400.081	52.39
400.29	85.16
400.499	72.87
400.708	81.07
400.917	38.06
401.127	29.87
401.336	83.11
401.545	74.92
401.754	130.22
401.963	-9.05
402.172	46.25
402.381	56.49
402.59	115.88
402.799	79.02
403.008	-25.43
403.217	68.78
403.426	91.31
403.635	44.2
403.844	70.83
404.053	115.88
404.262	56.49
404.471	95.4
404.68	44.2
404.888	79.02
405.097	93.35
405.306	56.49
405.515	83.11
405.724	101.55
405.933	136.36
406.142	56.49
406.35	66.73
406.559	152.74
406.768	97.45
406.977	142.5
407.185	56.49
407.394	167.08
407.603	66.73
407.812	101.55
408.02	109.74
408.229	169.13
408.438	177.32
408.646	144.55
408.855	119.98
409.064	152.74
409.272	154.79
409.481	136.36
409.69	76.97
409.898	136.36
410.107	162.98
410.315	117.93
410.524	148.65
410.733	154.79
410.941	193.7
411.15	201.9
411.358	181.42
411.567	208.04
411.775	294.05
411.984	232.62
412.192	263.33
412.401	292.01
412.609	240.81
412.818	216.23
413.026	281.77
413.234	156.84
413.443	289.96
413.651	220.33
413.86	324.77
414.068	275.62
414.276	300.2
414.485	371.88
414.693	455.84
414.901	388.26
415.11	353.45
415.318	412.84
415.526	410.79
415.734	363.69
415.943	533.67
416.151	461.99
416.359	404.64
416.567	445.6
416.776	466.08
416.984	425.12
417.192	496.8
417.4	494.76
417.608	490.66
417.817	550.05
418.025	572.58
418.233	558.24
418.441	613.54
418.649	636.06
418.857	652.45
419.065	631.97
419.273	584.87
419.481	660.64
419.689	740.51
419.897	711.84
420.105	720.03
420.313	740.51
420.521	765.09
420.729	810.14
420.937	820.38
421.145	918.68
421.353	928.92
421.561	984.22
421.769	887.97
421.977	1023.13
422.185	1062.04
422.393	1086.62
422.601	1180.82
422.809	1098.91
423.017	1107.1
423.224	1178.78
423.432	1244.31
423.64	1215.64
423.848	1281.18
424.056	1367.19
424.263	1461.4
424.471	1383.57
424.679	1395.86
424.887	1473.68
425.094	1602.71
425.302	1574.03
425.51	1645.71
425.718	1692.82
425.925	1649.81
426.133	1760.4
426.341	1911.95
426.548	1985.68
426.756	1959.05
426.964	1901.71
427.171	2094.22
427.379	2215.05
427.586	2167.95
427.794	2249.86
428.001	2350.21
428.209	2356.36
428.417	2362.5
428.624	2679.94
428.832	2598.02
429.039	2477.19
429.247	2702.47
429.454	2722.95
429.662	3067
429.869	2677.89
430.076	2937.98
430.284	2921.6
430.491	3081.34
430.699	3333.24
430.906	3193.98
431.114	3357.82
431.321	3361.91
431.528	3527.8
431.736	3701.87
431.943	3878
432.15	3855.47
432.358	3882.1
432.565	4058.22
432.772	3896.43
432.979	4060.27
433.187	4340.84
433.394	4406.38
433.601	4502.63
433.808	4586.6
434.016	4437.09
434.223	4852.83
434.43	5039.2
434.637	4758.63
434.844	5221.47
435.052	5391.45
435.259	5397.59
435.466	5520.47
435.673	5327.96
435.88	5725.27
436.087	5987.41
436.294	5782.61
436.501	6032.46
436.708	6030.41
436.915	6224.97
437.122	6327.37
437.329	6458.44
437.537	6560.84
437.743	6847.55
437.95	6661.19
438.157	7109.69
438.364	7220.28
438.571	7218.24
438.778	7574.58
438.985	7930.93
439.192	7588.92
439.399	8014.9
439.606	7642.17
439.813	8281.13
440.02	8717.35
440.227	8600.62
440.433	8559.66
440.64	8823.84
440.847	8578.09
441.054	8811.56
441.261	9665.56
441.467	9503.77
441.674	9669.66
441.881	9966.61
442.088	10015.76
442.294	9755.67
442.501	10048.53
442.708	10322.96
442.914	10787.85
443.121	11062.27
443.328	10963.97
443.534	11725.82
443.741	11236.35
443.948	11049.99
444.154	12190.7
444.361	11957.24
444.568	12078.07
444.774	12024.82
444.981	12344.3
445.187	12653.55
445.394	12958.69
445.6	13143.01
445.807	14472.14
446.013	13634.52
446.22	13939.67
446.426	14496.72
446.633	14599.12
446.839	14980.04
447.046	14609.36
447.252	15397.82
447.459	15340.48
447.665	15338.43
447.871	16262.07
448.078	16835.5
448.284	15997.88
448.491	16354.23
448.697	17030.05
448.903	17468.32
449.11	17431.46
449.316	17093.54
449.522	17830.81
449.728	17937.3
449.935	18187.16
450.141	17791.9
450.347	18660.24
450.553	17634.21
450.76	18559.89
450.966	18703.25
451.172	18318.23
451.378	19182.47
451.584	19022.73
451.791	19381.12
451.997	19071.88
452.203	19434.37
452.409	19653.5
452.615	19379.07
452.821	18848.65
453.027	18484.11
453.233	19829.63
453.44	18815.88
453.646	18987.91
453.852	19233.67
454.058	19385.22
454.264	18922.38
454.47	19456.9
454.676	18664.33
454.882	19270.53
455.088	17699.74
455.294	18008.98
455.5	18305.94
455.705	18740.11
455.911	17425.31
456.117	17359.78
456.323	17195.94
456.529	16182.2
456.735	16927.66
456.941	16669.61
457.147	16364.46
457.352	15782.84
457.558	15809.47
457.764	15772.6
457.97	15334.34
458.176	15164.36
458.381	14941.13
458.587	14470.09
458.793	14199.76
458.999	13595.61
459.204	14711.75
459.41	14314.45
459.616	13159.39
459.821	13282.27
460.027	13100
460.233	13046.76
460.438	12485.61
460.644	12442.6
460.85	11848.69
461.055	11637.75
461.261	11553.79
461.466	10923.01
461.672	10564.62
461.878	11291.65
462.083	10443.79
462.289	10337.29
462.494	10417.16
462.7	9694.23
462.905	9616.41
463.111	9853.97
463.316	10009.62
463.522	9755.67
463.727	9786.39
463.932	9643.03
464.138	9612.31
464.343	9651.22
464.549	9274.4
464.754	9737.24
464.959	9661.46
465.165	9569.3
465.37	9278.49
465.575	8836.13
465.781	9333.79
465.986	9143.33
466.191	9053.22
466.397	8746.02
466.602	8438.83
466.807	8858.66
467.012	8637.48
467.218	8746.02
467.423	8539.18
467.628	8653.86
467.833	8823.84
468.038	8690.73
468.244	8231.98
468.449	8660.01
468.654	8496.17
468.859	8410.15
469.064	8573.99
469.269	7951.41
469.474	8145.97
