Data from USB4F104151__45__12-59-08-186.txt Node

Date: Fri Mar 14 12:59:08 EDT 2025
User: louis
Spectrometer: USB4F10415
Trigger mode: 4
Integration Time (sec): 1.000000E-2
Scans to average: 1
Electric dark correction enabled: true
Nonlinearity correction enabled: false
Boxcar width: 0
XAxis mode: Wavelengths
Number of Pixels in Spectrum: 3648
>>>>>Begin Spectral Data<<<<<
178.204	-68.09
178.424	-68.09
178.644	-68.09
178.864	-33.28
179.084	24.06
179.304	54.78
179.524	-8.7
179.744	-31.23
179.964	-18.94
180.184	-33.28
180.404	40.45
180.624	-12.8
180.844	-25.09
181.064	-37.38
181.283	67.07
181.503	-6.66
181.723	11.78
181.943	7.68
182.163	24.06
182.383	-18.94
182.602	36.35
182.822	-31.23
183.042	-4.61
183.262	15.87
183.482	11.78
183.701	1.54
183.921	52.74
184.141	-12.8
184.361	9.73
184.58	-0.51
184.8	7.68
185.02	32.26
185.239	44.54
185.459	15.87
185.679	-74.24
185.898	-57.86
186.118	71.17
186.338	3.58
186.557	13.82
186.777	-53.76
186.997	40.45
187.216	-33.28
187.436	40.45
187.655	-16.9
187.875	58.88
188.095	30.21
188.314	-35.33
188.534	40.45
188.753	32.26
188.973	-10.75
189.192	3.58
189.412	-23.04
189.631	40.45
189.851	13.82
190.07	50.69
190.29	7.68
190.509	11.78
190.729	19.97
190.948	40.45
191.168	22.02
191.387	-14.85
191.607	36.35
191.826	7.68
192.045	71.17
192.265	-16.9
192.484	34.3
192.704	3.58
192.923	-68.09
193.142	73.21
193.362	-35.33
193.581	32.26
193.8	9.73
194.02	-18.94
194.239	-8.7
194.458	19.97
194.678	-2.56
194.897	26.11
195.116	3.58
195.335	30.21
195.555	-31.23
195.774	-41.47
195.993	-10.75
196.212	22.02
196.432	52.74
196.651	26.11
196.87	-55.81
197.089	-2.56
197.308	24.06
197.528	95.74
197.747	7.68
197.966	46.59
198.185	50.69
198.404	-18.94
198.623	-10.75
198.842	30.21
199.062	32.26
199.281	24.06
199.5	30.21
199.719	-0.51
199.938	50.69
200.157	44.54
200.376	-8.7
200.595	9.73
200.814	36.35
201.033	-74.24
201.252	40.45
201.471	58.88
201.69	26.11
201.909	30.21
202.128	34.3
202.347	44.54
202.566	46.59
202.785	-18.94
203.004	28.16
203.223	38.4
203.442	22.02
203.661	15.87
203.879	15.87
204.098	85.5
204.317	-33.28
204.536	28.16
204.755	22.02
204.974	-25.09
205.193	-6.66
205.411	-43.52
205.63	-35.33
205.849	32.26
206.068	71.17
206.287	-25.09
206.505	-8.7
206.724	40.45
206.943	26.11
207.162	-6.66
207.381	11.78
207.599	67.07
207.818	-6.66
208.037	38.4
208.255	15.87
208.474	19.97
208.693	30.21
208.911	-8.7
209.13	5.63
209.349	-20.99
209.567	30.21
209.786	-23.04
210.005	1.54
210.223	13.82
210.442	-20.99
210.661	15.87
210.879	28.16
211.098	-4.61
211.316	-8.7
211.535	-8.7
211.753	73.21
211.972	-43.52
212.191	-20.99
212.409	22.02
212.628	-90.62
212.846	-57.86
213.065	28.16
213.283	42.5
213.502	-4.61
213.72	22.02
213.938	-31.23
214.157	-8.7
214.375	-6.66
214.594	65.02
214.812	65.02
215.031	-0.51
215.249	30.21
215.467	69.12
215.686	22.02
215.904	87.55
216.122	-0.51
216.341	5.63
216.559	50.69
216.778	-47.62
216.996	-57.86
217.214	9.73
217.432	22.02
217.651	-14.85
217.869	62.98
218.087	52.74
218.306	34.3
218.524	7.68
218.742	-18.94
218.96	-18.94
219.179	-0.51
219.397	46.59
219.615	-0.51
219.833	81.41
220.051	-35.33
220.27	-10.75
220.488	-25.09
220.706	-55.81
220.924	-27.14
221.142	-70.14
221.36	30.21
221.578	-33.28
221.796	7.68
222.015	5.63
222.233	-25.09
222.451	34.3
222.669	-27.14
222.887	-8.7
223.105	1.54
223.323	11.78
223.541	28.16
223.759	24.06
223.977	38.4
224.195	62.98
224.413	-16.9
224.631	7.68
224.849	50.69
225.067	3.58
225.285	13.82
225.503	40.45
225.721	40.45
225.939	3.58
226.157	7.68
226.375	103.93
226.592	34.3
226.81	24.06
227.028	22.02
227.246	24.06
227.464	30.21
227.682	-27.14
227.9	36.35
228.117	-4.61
228.335	32.26
228.553	5.63
228.771	-45.57
228.989	-70.14
229.206	22.02
229.424	17.92
229.642	28.16
229.86	34.3
230.077	32.26
230.295	71.17
230.513	30.21
230.731	1.54
230.948	-27.14
231.166	3.58
231.384	17.92
231.601	42.5
231.819	-4.61
232.037	9.73
232.254	-20.99
232.472	52.74
232.689	-55.81
232.907	17.92
233.125	-43.52
233.342	36.35
233.56	-25.09
233.777	-14.85
233.995	65.02
234.213	-45.57
234.43	54.78
234.648	24.06
234.865	3.58
235.083	-4.61
235.3	13.82
235.518	44.54
235.735	-10.75
235.953	22.02
236.17	-33.28
236.388	-12.8
236.605	38.4
236.822	7.68
237.04	15.87
237.257	40.45
237.475	48.64
237.692	26.11
237.909	-18.94
238.127	-31.23
238.344	1.54
238.562	7.68
238.779	-31.23
238.996	73.21
239.214	-33.28
239.431	-4.61
239.648	-18.94
239.865	-23.04
240.083	-27.14
240.3	-31.23
240.517	32.26
240.735	52.74
240.952	30.21
241.169	69.12
241.386	-27.14
241.603	50.69
241.821	-25.09
242.038	42.5
242.255	11.78
242.472	-51.71
242.689	-43.52
242.907	5.63
243.124	36.35
243.341	5.63
243.558	-14.85
243.775	9.73
243.992	-0.51
244.209	50.69
244.426	-33.28
244.643	44.54
244.86	32.26
245.078	65.02
245.295	97.79
245.512	17.92
245.729	-10.75
245.946	-51.71
246.163	-27.14
246.38	124.41
246.597	-53.76
246.814	46.59
247.031	7.68
247.248	38.4
247.464	-8.7
247.681	32.26
247.898	-47.62
248.115	50.69
248.332	-37.38
248.549	28.16
248.766	-0.51
248.983	56.83
249.2	24.06
249.417	62.98
249.633	-16.9
249.85	5.63
250.067	-41.47
250.284	22.02
250.501	38.4
250.717	11.78
250.934	-12.8
251.151	54.78
251.368	-14.85
251.585	34.3
251.801	-113.15
252.018	-8.7
252.235	81.41
252.451	-45.57
252.668	9.73
252.885	48.64
253.102	-23.04
253.318	67.07
253.535	-8.7
253.752	-55.81
253.968	-20.99
254.185	15.87
254.401	30.21
254.618	3.58
254.835	13.82
255.051	-18.94
255.268	19.97
255.484	9.73
255.701	-78.33
255.917	60.93
256.134	-33.28
256.351	58.88
256.567	7.68
256.784	5.63
257	62.98
257.217	13.82
257.433	-10.75
257.65	48.64
257.866	75.26
258.082	-57.86
258.299	-4.61
258.515	15.87
258.732	15.87
258.948	13.82
259.165	34.3
259.381	40.45
259.597	-18.94
259.814	26.11
260.03	9.73
260.246	-41.47
260.463	11.78
260.679	5.63
260.895	19.97
261.112	52.74
261.328	-80.38
261.544	-14.85
261.761	-12.8
261.977	40.45
262.193	-25.09
262.409	73.21
262.626	-45.57
262.842	7.68
263.058	71.17
263.274	54.78
263.49	28.16
263.707	17.92
263.923	-53.76
264.139	-31.23
264.355	-12.8
264.571	24.06
264.787	-78.33
265.004	7.68
265.22	7.68
265.436	26.11
265.652	-68.09
265.868	38.4
266.084	1.54
266.3	40.45
266.516	-12.8
266.732	58.88
266.948	17.92
267.164	32.26
267.38	-27.14
267.596	3.58
267.812	32.26
268.028	-10.75
268.244	17.92
268.46	91.65
268.676	-0.51
268.892	24.06
269.108	56.83
269.324	69.12
269.54	-25.09
269.756	30.21
269.972	11.78
270.188	-8.7
270.403	22.02
270.619	-4.61
270.835	75.26
271.051	54.78
271.267	-14.85
271.483	19.97
271.698	15.87
271.914	42.5
272.13	5.63
272.346	-14.85
272.562	22.02
272.777	38.4
272.993	-53.76
273.209	-35.33
273.425	-27.14
273.64	28.16
273.856	60.93
274.072	103.93
274.287	30.21
274.503	9.73
274.719	-6.66
274.934	30.21
275.15	-6.66
275.366	7.68
275.581	17.92
275.797	-6.66
276.012	36.35
276.228	52.74
276.444	-14.85
276.659	-8.7
276.875	-2.56
277.09	38.4
277.306	40.45
277.521	19.97
277.737	40.45
277.952	62.98
278.168	-20.99
278.383	56.83
278.599	-31.23
278.814	91.65
279.03	-2.56
279.245	46.59
279.461	-51.71
279.676	56.83
279.892	44.54
280.107	-37.38
280.322	9.73
280.538	24.06
280.753	40.45
280.969	-2.56
281.184	17.92
281.399	11.78
281.615	19.97
281.83	13.82
282.045	15.87
282.26	-10.75
282.476	-12.8
282.691	26.11
282.906	19.97
283.122	54.78
283.337	-18.94
283.552	-53.76
283.767	26.11
283.983	34.3
284.198	-23.04
284.413	-18.94
284.628	-16.9
284.843	50.69
285.058	-23.04
285.274	13.82
285.489	-8.7
285.704	28.16
285.919	9.73
286.134	-10.75
286.349	30.21
286.564	46.59
286.779	-8.7
286.995	22.02
287.21	-14.85
287.425	5.63
287.64	30.21
287.855	-10.75
288.07	7.68
288.285	83.45
288.5	28.16
288.715	-10.75
288.93	9.73
289.145	-2.56
289.36	-18.94
289.575	17.92
289.79	19.97
290.004	-39.42
290.219	48.64
290.434	15.87
290.649	-68.09
290.864	-0.51
291.079	-4.61
291.294	-10.75
291.509	-18.94
291.724	40.45
291.938	65.02
292.153	26.11
292.368	-59.9
292.583	40.45
292.798	9.73
293.012	-0.51
293.227	5.63
293.442	7.68
293.657	-2.56
293.871	42.5
294.086	26.11
294.301	26.11
294.516	-37.38
294.73	46.59
294.945	38.4
295.16	-16.9
295.374	15.87
295.589	-25.09
295.804	5.63
296.018	-70.14
296.233	42.5
296.447	-18.94
296.662	-59.9
296.877	13.82
297.091	9.73
297.306	7.68
297.52	17.92
297.735	44.54
297.949	28.16
298.164	1.54
298.378	-49.66
298.593	-47.62
298.807	54.78
299.022	87.55
299.236	-14.85
299.451	26.11
299.665	17.92
299.88	89.6
300.094	30.21
300.309	60.93
300.523	-33.28
300.737	83.45
300.952	32.26
301.166	46.59
301.381	46.59
301.595	-8.7
301.809	48.64
302.024	-16.9
302.238	-49.66
302.452	-6.66
302.667	85.5
302.881	22.02
303.095	52.74
303.309	48.64
303.524	-100.86
303.738	9.73
303.952	17.92
304.166	30.21
304.381	-20.99
304.595	13.82
304.809	-35.33
305.023	50.69
305.237	-8.7
305.452	24.06
305.666	65.02
305.88	60.93
306.094	-25.09
306.308	5.63
306.522	-2.56
306.736	38.4
306.95	-2.56
307.164	24.06
307.379	73.21
307.593	9.73
307.807	28.16
308.021	19.97
308.235	15.87
308.449	38.4
308.663	-25.09
308.877	-6.66
309.091	-66.05
309.305	50.69
309.519	36.35
309.733	9.73
309.947	-23.04
310.161	-49.66
310.374	-8.7
310.588	75.26
310.802	46.59
311.016	-45.57
311.23	7.68
311.444	22.02
311.658	15.87
311.872	105.98
312.085	15.87
312.299	50.69
312.513	24.06
312.727	40.45
312.941	-4.61
313.154	48.64
313.368	-70.14
313.582	44.54
313.796	-14.85
314.009	24.06
314.223	-6.66
314.437	-16.9
314.651	58.88
314.864	58.88
315.078	1.54
315.292	-18.94
315.505	-12.8
315.719	9.73
315.933	-35.33
316.146	13.82
316.36	-25.09
316.573	11.78
316.787	-35.33
317.001	22.02
317.214	-10.75
317.428	9.73
317.641	-47.62
317.855	9.73
318.068	-45.57
318.282	50.69
318.495	83.45
318.709	105.98
318.922	79.36
319.136	-16.9
319.349	9.73
319.563	-18.94
319.776	52.74
319.99	-0.51
320.203	54.78
320.417	38.4
320.63	22.02
320.843	28.16
321.057	-33.28
321.27	5.63
321.483	54.78
321.697	40.45
321.91	-4.61
322.124	-29.18
322.337	44.54
322.55	15.87
322.763	17.92
322.977	65.02
323.19	-59.9
323.403	54.78
323.617	-16.9
323.83	-2.56
324.043	-8.7
324.256	58.88
324.469	-37.38
324.683	73.21
324.896	32.26
325.109	46.59
325.322	-47.62
325.535	28.16
325.748	17.92
325.962	73.21
326.175	38.4
326.388	9.73
326.601	22.02
326.814	15.87
327.027	50.69
327.24	30.21
327.453	-8.7
327.666	44.54
327.879	15.87
328.092	9.73
328.305	3.58
328.518	17.92
328.731	-10.75
328.944	56.83
329.157	54.78
329.37	-33.28
329.583	5.63
329.796	13.82
330.009	-8.7
330.222	54.78
330.435	11.78
330.648	-45.57
330.861	-6.66
331.073	7.68
331.286	11.78
331.499	38.4
331.712	3.58
331.925	3.58
332.138	-35.33
332.35	48.64
332.563	58.88
332.776	19.97
332.989	-45.57
333.202	13.82
333.414	9.73
333.627	13.82
333.84	38.4
334.053	50.69
334.265	17.92
334.478	-8.7
334.691	42.5
334.903	13.82
335.116	22.02
335.329	7.68
335.541	-12.8
335.754	67.07
335.966	-8.7
336.179	-64
336.392	36.35
336.604	-20.99
336.817	36.35
337.029	50.69
337.242	110.08
337.454	79.36
337.667	56.83
337.88	77.31
338.092	54.78
338.305	95.74
338.517	28.16
338.729	38.4
338.942	-39.42
339.154	44.54
339.367	46.59
339.579	-18.94
339.792	56.83
340.004	-12.8
340.217	-0.51
340.429	-8.7
340.641	67.07
340.854	99.84
341.066	-16.9
341.278	60.93
341.491	42.5
341.703	46.59
341.915	-31.23
342.128	-16.9
342.34	-59.9
342.552	81.41
342.764	19.97
342.977	-4.61
343.189	24.06
343.401	-6.66
343.613	28.16
343.826	1.54
344.038	5.63
344.25	54.78
344.462	103.93
344.674	56.83
344.886	3.58
345.099	22.02
345.311	-78.33
345.523	-10.75
345.735	-14.85
345.947	-43.52
346.159	17.92
346.371	46.59
346.583	7.68
346.795	62.98
347.007	81.41
347.219	-4.61
347.431	15.87
347.643	99.84
347.855	-45.57
348.067	34.3
348.279	32.26
348.491	5.63
348.703	-47.62
348.915	81.41
349.127	34.3
349.339	-16.9
349.551	-12.8
349.763	48.64
349.975	52.74
350.187	77.31
350.399	54.78
350.61	38.4
350.822	-8.7
351.034	34.3
351.246	19.97
351.458	34.3
351.669	24.06
351.881	-43.52
352.093	44.54
352.305	28.16
352.517	89.6
352.728	19.97
352.94	50.69
353.152	-2.56
353.363	60.93
353.575	71.17
353.787	11.78
353.999	-43.52
354.21	105.98
354.422	-23.04
354.633	71.17
354.845	13.82
355.057	32.26
355.268	9.73
355.48	28.16
355.692	-27.14
355.903	42.5
356.115	56.83
356.326	7.68
356.538	28.16
356.749	32.26
356.961	22.02
357.172	17.92
357.384	15.87
357.595	26.11
357.807	73.21
358.018	-51.71
358.23	-14.85
358.441	32.26
358.653	65.02
358.864	7.68
359.075	-20.99
359.287	36.35
359.498	22.02
359.709	17.92
359.921	13.82
360.132	7.68
360.344	9.73
360.555	60.93
360.766	44.54
360.977	52.74
361.189	50.69
361.4	-8.7
361.611	65.02
361.823	-0.51
362.034	77.31
362.245	-14.85
362.456	11.78
362.667	-43.52
362.879	48.64
363.09	-23.04
363.301	-16.9
363.512	13.82
363.723	34.3
363.935	1.54
364.146	56.83
364.357	13.82
364.568	-6.66
364.779	11.78
364.99	42.5
365.201	-6.66
365.412	-12.8
365.623	54.78
365.834	54.78
366.045	-18.94
366.256	-27.14
366.467	24.06
366.678	22.02
366.889	-27.14
367.1	87.55
367.311	67.07
367.522	13.82
367.733	24.06
367.944	46.59
368.155	5.63
368.366	22.02
368.577	32.26
368.788	-4.61
368.999	30.21
369.209	87.55
369.42	79.36
369.631	46.59
369.842	-14.85
370.053	50.69
370.264	-25.09
370.474	46.59
370.685	-2.56
370.896	-2.56
371.107	5.63
371.317	69.12
371.528	-0.51
371.739	24.06
371.95	75.26
372.16	26.11
372.371	24.06
372.582	30.21
372.792	44.54
373.003	-0.51
373.214	-43.52
373.424	-0.51
373.635	56.83
373.846	1.54
374.056	-43.52
374.267	48.64
374.477	42.5
374.688	-27.14
374.898	30.21
375.109	46.59
375.319	-4.61
375.53	48.64
375.74	67.07
375.951	-57.86
376.161	46.59
376.372	11.78
376.582	65.02
376.793	13.82
377.003	-0.51
377.214	-33.28
377.424	50.69
377.635	11.78
377.845	17.92
378.055	38.4
378.266	36.35
378.476	22.02
378.686	-25.09
378.897	9.73
379.107	44.54
379.317	93.69
379.528	3.58
379.738	-2.56
379.948	24.06
380.158	62.98
380.369	-39.42
380.579	3.58
380.789	-80.38
380.999	13.82
381.21	62.98
381.42	50.69
381.63	24.06
381.84	65.02
382.05	116.22
382.261	62.98
382.471	7.68
382.681	30.21
382.891	11.78
383.101	34.3
383.311	65.02
383.521	9.73
383.731	22.02
383.941	38.4
384.151	-14.85
384.361	81.41
384.571	28.16
384.781	13.82
384.991	46.59
385.201	28.16
385.411	-33.28
385.621	95.74
385.831	-2.56
386.041	71.17
386.251	44.54
386.461	15.87
386.671	36.35
386.881	7.68
387.091	40.45
387.301	83.45
387.511	22.02
387.72	58.88
387.93	38.4
388.14	1.54
388.35	54.78
388.56	19.97
388.769	32.26
388.979	17.92
389.189	19.97
389.399	77.31
389.609	32.26
389.818	87.55
390.028	32.26
390.238	11.78
390.447	54.78
390.657	89.6
390.867	38.4
391.076	17.92
391.286	54.78
391.496	58.88
391.705	9.73
391.915	46.59
392.125	65.02
392.334	85.5
392.544	148.99
392.753	118.27
392.963	30.21
393.172	93.69
393.382	22.02
393.591	48.64
393.801	-4.61
394.01	5.63
394.22	54.78
394.429	-16.9
394.639	60.93
394.848	87.55
395.058	28.16
395.267	103.93
395.477	22.02
395.686	67.07
395.895	32.26
396.105	87.55
396.314	-10.75
396.524	105.98
396.733	36.35
396.942	91.65
397.152	87.55
397.361	108.03
397.57	71.17
397.78	62.98
397.989	120.32
398.198	73.21
398.407	36.35
398.617	32.26
398.826	48.64
399.035	40.45
399.244	65.02
399.453	67.07
399.663	65.02
399.872	30.21
400.081	91.65
400.29	67.07
400.499	60.93
400.708	99.84
400.917	42.5
401.127	42.5
401.336	101.89
401.545	89.6
401.754	58.88
401.963	116.22
402.172	105.98
402.381	38.4
402.59	87.55
402.799	28.16
403.008	58.88
403.217	128.51
403.426	122.37
403.635	118.27
403.844	65.02
404.053	91.65
404.262	67.07
404.471	24.06
404.68	54.78
404.888	62.98
405.097	85.5
405.306	112.13
405.515	83.45
405.724	183.81
405.933	17.92
406.142	122.37
406.35	97.79
406.559	118.27
406.768	108.03
406.977	161.28
407.185	108.03
407.394	159.23
407.603	126.46
407.812	153.09
408.02	89.6
408.229	89.6
408.438	194.05
408.646	95.74
408.855	148.99
409.064	146.94
409.272	144.89
409.481	126.46
409.69	134.65
409.898	192
410.107	155.13
410.315	218.62
410.524	214.52
410.733	155.13
410.941	146.94
411.15	275.96
411.358	222.72
411.567	216.57
411.775	187.9
411.984	204.28
412.192	337.4
412.401	245.24
412.609	300.54
412.818	310.78
413.026	257.53
413.234	292.35
413.443	341.5
413.651	288.25
413.86	257.53
414.068	294.4
414.276	382.46
414.485	310.78
414.693	374.27
414.901	384.51
415.11	423.42
415.318	409.08
415.526	447.99
415.734	417.27
415.943	491
416.151	456.19
416.359	546.3
416.567	480.76
416.776	611.83
416.984	570.87
417.192	593.4
417.4	620.02
417.608	509.43
417.817	703.99
418.025	579.06
418.233	671.22
418.441	683.51
418.649	747
418.857	749.04
419.065	800.24
419.273	771.57
419.481	837.11
419.689	796.15
419.897	959.99
420.105	871.92
420.313	992.75
420.521	959.99
420.729	1027.57
420.937	1068.53
421.145	988.66
421.353	1105.39
421.561	1115.63
421.769	1162.73
421.977	1267.18
422.185	1230.32
422.393	1324.52
422.601	1398.25
422.809	1289.71
423.017	1390.06
423.224	1488.36
423.432	1371.63
423.64	1500.65
423.848	1629.67
424.056	1601
424.263	1650.15
424.471	1783.27
424.679	1787.36
424.887	1777.12
425.094	1943.01
425.302	1936.87
425.51	1967.59
425.718	1971.68
425.925	2084.32
426.133	2131.42
426.341	2256.35
426.548	2276.83
426.756	2307.55
426.964	2301.4
427.171	2516.44
427.379	2577.88
427.586	2725.33
427.794	2655.7
428.001	2760.15
428.209	2917.84
428.417	2979.28
428.624	3141.07
428.832	3003.86
429.039	3069.39
429.247	2950.61
429.454	3429.84
429.662	3579.34
429.869	3407.31
430.076	3646.92
430.284	3511.75
430.491	3614.15
430.699	3913.16
430.906	3741.13
431.114	3950.02
431.321	4136.38
431.528	4261.31
431.736	4203.97
431.943	4539.83
432.15	4421.05
432.358	4548.03
432.565	4683.19
432.772	4806.07
432.979	4836.79
433.187	5070.26
433.394	5135.79
433.601	5350.83
433.808	5490.09
434.016	5430.7
434.223	5625.26
434.43	5911.97
434.637	5780.9
434.844	6208.93
435.052	6335.9
435.259	6460.83
435.466	6546.84
435.673	6337.95
435.88	6849.94
436.087	7085.46
436.294	7200.15
436.501	6948.25
436.708	7097.75
436.915	7308.69
437.122	7558.54
437.329	7683.47
437.537	7765.39
437.743	8183.17
437.95	7914.89
438.157	8277.38
438.364	8678.78
438.571	8527.23
438.778	8603
438.985	9352.56
439.192	9266.55
439.399	9375.09
439.606	9055.61
439.813	9618.8
440.02	10323.3
440.227	10202.47
440.433	10065.25
440.64	10499.42
440.847	10425.7
441.054	10536.29
441.261	11191.64
441.467	11187.54
441.674	11431.25
441.881	11814.22
442.088	11634
442.294	11668.81
442.501	11863.37
442.708	12164.42
442.914	12764.48
443.121	13210.93
443.328	12965.18
443.534	13933.87
443.741	13419.83
443.948	13448.5
444.154	14171.43
444.361	14208.3
444.568	14251.3
444.774	14275.88
444.981	14470.44
445.187	15138.07
445.394	15744.27
445.6	15533.33
445.807	16590.08
446.013	16254.22
446.22	16205.06
446.426	17020.16
446.633	17048.83
446.839	17595.64
447.046	17339.64
447.252	18007.28
447.459	18148.59
447.665	18197.74
447.871	19193.05
448.078	19776.72
448.284	18717.92
448.491	19244.25
448.697	20456.65
448.903	20399.3
449.11	20583.62
449.316	20159.69
449.522	20776.13
449.728	20966.59
449.935	21353.66
450.141	21212.35
450.347	21728.44
450.553	21380.28
450.76	21312.7
450.966	22238.38
451.172	22037.68
451.378	22496.42
451.584	21900.47
451.791	22631.59
451.997	22457.51
452.203	22977.7
452.409	22979.75
452.615	22920.35
452.821	22076.59
453.027	21953.71
453.233	23047.33
453.44	21918.9
453.646	22258.86
453.852	22557.86
454.058	22748.32
454.264	22381.74
454.47	22701.22
454.676	22217.9
454.882	22713.51
455.088	21105.85
455.294	21107.9
455.5	21437.62
455.705	21834.93
455.911	21095.61
456.117	20458.7
456.323	20098.25
456.529	19274.97
456.735	19981.52
456.941	19379.42
457.147	19045.6
457.352	18480.36
457.558	18599.14
457.764	18498.79
457.97	18255.08
458.176	17773.81
458.381	17831.15
458.587	16616.71
458.793	16737.54
458.999	15961.36
459.204	17300.73
459.41	16753.92
459.616	15494.42
459.821	15521.04
460.027	15412.5
460.233	15170.84
460.438	14441.76
460.644	14415.14
460.85	13755.69
461.055	13561.14
461.261	13712.69
461.466	12631.36
461.672	12408.13
461.878	13010.23
462.083	12213.57
462.289	12084.55
462.494	11773.26
462.7	11371.86
462.905	11058.52
463.111	11339.09
463.316	11650.38
463.522	11466.07
463.727	11318.61
463.932	11408.72
464.138	11158.87
464.343	11144.53
464.549	10718.56
464.754	11369.81
464.959	11074.9
465.165	11234.64
465.37	10554.72
465.575	10337.63
465.781	10927.45
465.986	10990.94
466.191	10261.86
466.397	10227.04
466.602	9868.65
466.807	10138.98
467.012	10093.93
467.218	10220.9
467.423	9944.42
467.628	10106.21
467.833	10450.27
468.038	10003.82
468.244	9848.17
468.449	10106.21
468.654	10042.73
