Data from USB4F104151__19__12-58-34-319.txt Node

Date: Fri Mar 14 12:58:34 EDT 2025
User: louis
Spectrometer: USB4F10415
Trigger mode: 4
Integration Time (sec): 1.000000E-2
Scans to average: 1
Electric dark correction enabled: true
Nonlinearity correction enabled: false
Boxcar width: 0
XAxis mode: Wavelengths
Number of Pixels in Spectrum: 3648
>>>>>Begin Spectral Data<<<<<
178.204	-65.88
178.424	-65.88
178.644	-65.88
178.864	-104.79
179.084	-78.16
179.304	-47.44
179.524	-16.73
179.744	36.52
179.964	40.62
180.184	-33.11
180.404	75.43
180.624	-2.39
180.844	-10.58
181.064	-35.16
181.283	-39.25
181.503	34.47
181.723	-2.39
181.943	50.86
182.163	-26.96
182.383	34.47
182.602	11.95
182.822	38.57
183.042	91.82
183.262	-69.97
183.482	-41.3
183.701	77.48
183.921	5.8
184.141	-47.44
184.361	79.53
184.58	-49.49
184.8	7.85
185.02	-10.58
185.239	-18.77
185.459	22.19
185.679	-24.92
185.898	-18.77
186.118	-51.54
186.338	13.99
186.557	16.04
186.777	-14.68
186.997	-4.44
187.216	5.8
187.436	5.8
187.655	57
187.875	-35.16
188.095	3.75
188.314	-33.11
188.534	-33.11
188.753	-92.5
188.973	-2.39
189.192	34.47
189.412	16.04
189.631	63.15
189.851	9.9
190.07	13.99
190.29	44.71
190.509	-41.3
190.729	24.23
190.948	59.05
191.168	91.82
191.387	52.91
191.607	9.9
191.826	-18.77
192.045	-16.73
192.265	26.28
192.484	-59.73
192.704	42.67
192.923	34.47
193.142	11.95
193.362	32.43
193.581	-2.39
193.8	5.8
194.02	18.09
194.239	-45.4
194.458	77.48
194.678	22.19
194.897	-6.49
195.116	-6.49
195.335	-24.92
195.555	50.86
195.774	42.67
195.993	-26.96
196.212	34.47
196.432	54.95
196.651	28.33
196.87	87.72
197.089	63.15
197.308	44.71
197.528	9.9
197.747	-100.69
197.966	-43.35
198.185	11.95
198.404	24.23
198.623	-24.92
198.842	16.04
199.062	50.86
199.281	-6.49
199.5	26.28
199.719	34.47
199.938	9.9
200.157	-2.39
200.376	-22.87
200.595	61.1
200.814	11.95
201.033	-10.58
201.252	3.75
201.471	20.14
201.69	138.92
201.909	3.75
202.128	-24.92
202.347	16.04
202.566	38.57
202.785	-8.53
203.004	-4.44
203.223	11.95
203.442	-2.39
203.661	20.14
203.879	61.1
204.098	42.67
204.317	-4.44
204.536	18.09
204.755	30.38
204.974	50.86
205.193	28.33
205.411	38.57
205.63	18.09
205.849	48.81
206.068	54.95
206.287	-22.87
206.505	42.67
206.724	22.19
206.943	-59.73
207.162	30.38
207.381	83.63
207.599	-0.34
207.818	16.04
208.037	-24.92
208.255	18.09
208.474	87.72
208.693	-16.73
208.911	-6.49
209.13	5.8
209.349	65.19
209.567	13.99
209.786	52.91
210.005	5.8
210.223	-33.11
210.442	1.71
210.661	32.43
210.879	-49.49
211.098	93.87
211.316	-4.44
211.535	46.76
211.753	61.1
211.972	36.52
212.191	-14.68
212.409	30.38
212.628	-31.06
212.846	9.9
213.065	65.19
213.283	28.33
213.502	22.19
213.72	46.76
213.938	48.81
214.157	16.04
214.375	52.91
214.594	-92.5
214.812	54.95
215.031	3.75
215.249	-43.35
215.467	-12.63
215.686	3.75
215.904	28.33
216.122	7.85
216.341	83.63
216.559	-18.77
216.778	20.14
216.996	9.9
217.214	-22.87
217.432	22.19
217.651	-24.92
217.869	-39.25
218.087	16.04
218.306	-10.58
218.524	63.15
218.742	-6.49
218.96	13.99
219.179	-22.87
219.397	-57.68
219.615	67.24
219.833	-0.34
220.051	5.8
220.27	38.57
220.488	-53.59
220.706	85.67
220.924	-18.77
221.142	50.86
221.36	-6.49
221.578	-16.73
221.796	-26.96
222.015	75.43
222.233	85.67
222.451	48.81
222.669	40.62
222.887	46.76
223.105	-47.44
223.323	-26.96
223.541	-8.53
223.759	-22.87
223.977	-53.59
224.195	-33.11
224.413	36.52
224.631	16.04
224.849	36.52
225.067	-6.49
225.285	-84.31
225.503	16.04
225.721	-59.73
225.939	16.04
226.157	63.15
226.375	42.67
226.592	46.76
226.81	36.52
227.028	38.57
227.246	16.04
227.464	36.52
227.682	13.99
227.9	32.43
228.117	32.43
228.335	-18.77
228.553	87.72
228.771	1.71
228.989	-12.63
229.206	-14.68
229.424	-63.83
229.642	48.81
229.86	34.47
230.077	18.09
230.295	1.71
230.513	22.19
230.731	46.76
230.948	30.38
231.166	40.62
231.384	16.04
231.601	34.47
231.819	24.23
232.037	-8.53
232.254	20.14
232.472	24.23
232.689	-39.25
232.907	38.57
233.125	-24.92
233.342	-22.87
233.56	32.43
233.777	-37.2
233.995	-16.73
234.213	28.33
234.43	26.28
234.648	81.58
234.865	81.58
235.083	50.86
235.3	-8.53
235.518	5.8
235.735	34.47
235.953	22.19
236.17	24.23
236.388	71.34
236.605	36.52
236.822	48.81
237.04	18.09
237.257	11.95
237.475	48.81
237.692	-10.58
237.909	-0.34
238.127	-8.53
238.344	-63.83
238.562	-16.73
238.779	38.57
238.996	24.23
239.214	5.8
239.431	69.29
239.648	34.47
239.865	59.05
240.083	57
240.3	59.05
240.517	20.14
240.735	50.86
240.952	-16.73
241.169	-22.87
241.386	59.05
241.603	5.8
241.821	7.85
242.038	30.38
242.255	30.38
242.472	36.52
242.689	38.57
242.907	16.04
243.124	30.38
243.341	24.23
243.558	26.28
243.775	5.8
243.992	-33.11
244.209	57
244.426	7.85
244.643	46.76
244.86	-31.06
245.078	120.49
245.295	22.19
245.512	-33.11
245.729	-24.92
245.946	7.85
246.163	48.81
246.38	48.81
246.597	-39.25
246.814	59.05
247.031	22.19
247.248	36.52
247.464	-35.16
247.681	-6.49
247.898	44.71
248.115	50.86
248.332	-14.68
248.549	-10.58
248.766	44.71
248.983	9.9
249.2	-12.63
249.417	91.82
249.633	-0.34
249.85	100.01
250.067	124.58
250.284	-35.16
250.501	57
250.717	7.85
250.934	-4.44
251.151	106.15
251.368	9.9
251.585	71.34
251.801	42.67
252.018	-16.73
252.235	93.87
252.451	3.75
252.668	18.09
252.885	61.1
253.102	-26.96
253.318	38.57
253.535	77.48
253.752	9.9
253.968	16.04
254.185	-6.49
254.401	-102.74
254.618	36.52
254.835	-8.53
255.051	5.8
255.268	34.47
255.484	71.34
255.701	-4.44
255.917	18.09
256.134	50.86
256.351	-14.68
256.567	5.8
256.784	-2.39
257	-14.68
257.217	59.05
257.433	-24.92
257.65	20.14
257.866	-8.53
258.082	30.38
258.299	-0.34
258.515	38.57
258.732	24.23
258.948	9.9
259.165	48.81
259.381	61.1
259.597	5.8
259.814	57
260.03	-12.63
260.246	-33.11
260.463	38.57
260.679	-16.73
260.895	24.23
261.112	30.38
261.328	34.47
261.544	67.24
261.761	57
261.977	-16.73
262.193	42.67
262.409	59.05
262.626	44.71
262.842	52.91
263.058	32.43
263.274	28.33
263.49	11.95
263.707	54.95
263.923	81.58
264.139	16.04
264.355	5.8
264.571	40.62
264.787	1.71
265.004	24.23
265.22	73.39
265.436	46.76
265.652	-6.49
265.868	87.72
266.084	32.43
266.3	59.05
266.516	63.15
266.732	81.58
266.948	38.57
267.164	52.91
267.38	36.52
267.596	40.62
267.812	73.39
268.028	77.48
268.244	-0.34
268.46	65.19
268.676	79.53
268.892	16.04
269.108	48.81
269.324	57
269.54	-63.83
269.756	7.85
269.972	11.95
270.188	50.86
270.403	100.01
270.619	-18.77
270.835	-51.54
271.051	57
271.267	52.91
271.483	-0.34
271.698	-31.06
271.914	83.63
272.13	38.57
272.346	26.28
272.562	40.62
272.777	22.19
272.993	1.71
273.209	-31.06
273.425	-0.34
273.64	-31.06
273.856	11.95
274.072	-37.2
274.287	-0.34
274.503	44.71
274.719	-18.77
274.934	3.75
275.15	-0.34
275.366	16.04
275.581	71.34
275.797	-16.73
276.012	59.05
276.228	-12.63
276.444	11.95
276.659	26.28
276.875	65.19
277.09	61.1
277.306	20.14
277.521	-33.11
277.737	26.28
277.952	112.3
278.168	-41.3
278.383	9.9
278.599	38.57
278.814	57
279.03	83.63
279.245	-24.92
279.461	42.67
279.676	79.53
279.892	-6.49
280.107	-45.4
280.322	5.8
280.538	40.62
280.753	69.29
280.969	24.23
281.184	11.95
281.399	40.62
281.615	34.47
281.83	50.86
282.045	57
282.26	-35.16
282.476	36.52
282.691	-0.34
282.906	93.87
283.122	9.9
283.337	22.19
283.552	16.04
283.767	13.99
283.983	-29.01
284.198	1.71
284.413	65.19
284.628	52.91
284.843	63.15
285.058	-41.3
285.274	-8.53
285.489	11.95
285.704	46.76
285.919	30.38
286.134	36.52
286.349	63.15
286.564	34.47
286.779	1.71
286.995	28.33
287.21	26.28
287.425	-2.39
287.64	1.71
287.855	1.71
288.07	48.81
288.285	36.52
288.5	38.57
288.715	3.75
288.93	16.04
289.145	71.34
289.36	48.81
289.575	36.52
289.79	20.14
290.004	-16.73
290.219	63.15
290.434	34.47
290.649	42.67
290.864	79.53
291.079	-18.77
291.294	-24.92
291.509	9.9
291.724	-14.68
291.938	-51.54
292.153	48.81
292.368	-14.68
292.583	-10.58
292.798	26.28
293.012	97.96
293.227	-45.4
293.442	26.28
293.657	-14.68
293.871	46.76
294.086	61.1
294.301	118.44
294.516	65.19
294.73	32.43
294.945	-2.39
295.16	42.67
295.374	-26.96
295.589	-18.77
295.804	-8.53
296.018	-29.01
296.233	28.33
296.447	108.2
296.662	22.19
296.877	13.99
297.091	-4.44
297.306	22.19
297.52	24.23
297.735	-4.44
297.949	52.91
298.164	42.67
298.378	36.52
298.593	91.82
298.807	-29.01
299.022	-8.53
299.236	-26.96
299.451	38.57
299.665	89.77
299.88	16.04
300.094	-47.44
300.309	-2.39
300.523	100.01
300.737	112.3
300.952	42.67
301.166	32.43
301.381	77.48
301.595	50.86
301.809	-2.39
302.024	44.71
302.238	-20.82
302.452	30.38
302.667	63.15
302.881	3.75
303.095	-4.44
303.309	9.9
303.524	-47.44
303.738	-6.49
303.952	26.28
304.166	-0.34
304.381	18.09
304.595	20.14
304.809	-8.53
305.023	-10.58
305.237	46.76
305.452	-53.59
305.666	16.04
305.88	97.96
306.094	-4.44
306.308	71.34
306.522	-20.82
306.736	7.85
306.95	9.9
307.164	28.33
307.379	42.67
307.593	7.85
307.807	73.39
308.021	9.9
308.235	-8.53
308.449	-14.68
308.663	20.14
308.877	3.75
309.091	44.71
309.305	-0.34
309.519	-16.73
309.733	24.23
309.947	-29.01
310.161	81.58
310.374	5.8
310.588	61.1
310.802	69.29
311.016	9.9
311.23	24.23
311.444	-67.92
311.658	22.19
311.872	-6.49
312.085	42.67
312.299	81.58
312.513	69.29
312.727	30.38
312.941	-6.49
313.154	-0.34
313.368	3.75
313.582	32.43
313.796	-20.82
314.009	44.71
314.223	34.47
314.437	26.28
314.651	30.38
314.864	61.1
315.078	-24.92
315.292	-29.01
315.505	46.76
315.719	-41.3
315.933	26.28
316.146	5.8
316.36	95.91
316.573	1.71
316.787	3.75
317.001	32.43
317.214	-26.96
317.428	42.67
317.641	-8.53
317.855	-53.59
318.068	46.76
318.282	13.99
318.495	13.99
318.709	9.9
318.922	5.8
319.136	-29.01
319.349	-18.77
319.563	73.39
319.776	5.8
319.99	-10.58
320.203	44.71
320.417	7.85
320.63	-6.49
320.843	52.91
321.057	16.04
321.27	34.47
321.483	36.52
321.697	1.71
321.91	-2.39
322.124	34.47
322.337	1.71
322.55	7.85
322.763	-0.34
322.977	-22.87
323.19	48.81
323.403	9.9
323.617	63.15
323.83	95.91
324.043	36.52
324.256	42.67
324.469	20.14
324.683	9.9
324.896	38.57
325.109	-2.39
325.322	-14.68
325.535	26.28
325.748	-6.49
325.962	-2.39
326.175	13.99
326.388	54.95
326.601	89.77
326.814	-31.06
327.027	52.91
327.24	75.43
327.453	5.8
327.666	79.53
327.879	22.19
328.092	89.77
328.305	-41.3
328.518	26.28
328.731	7.85
328.944	11.95
329.157	30.38
329.37	28.33
329.583	26.28
329.796	46.76
330.009	38.57
330.222	3.75
330.435	3.75
330.648	44.71
330.861	22.19
331.073	-24.92
331.286	24.23
331.499	5.8
331.712	50.86
331.925	48.81
332.138	-47.44
332.35	89.77
332.563	3.75
332.776	32.43
332.989	3.75
333.202	71.34
333.414	34.47
333.627	61.1
333.84	46.76
334.053	59.05
334.265	-2.39
334.478	67.24
334.691	-59.73
334.903	95.91
335.116	11.95
335.329	-14.68
335.541	3.75
335.754	54.95
335.966	24.23
336.179	120.49
336.392	3.75
336.604	71.34
336.817	-8.53
337.029	18.09
337.242	32.43
337.454	5.8
337.667	9.9
337.88	40.62
338.092	-2.39
338.305	-10.58
338.517	42.67
338.729	44.71
338.942	-59.73
339.154	26.28
339.367	-33.11
339.579	-0.34
339.792	34.47
340.004	40.62
340.217	-35.16
340.429	67.24
340.641	63.15
340.854	7.85
341.066	-20.82
341.278	-8.53
341.491	52.91
341.703	18.09
341.915	-22.87
342.128	22.19
342.34	95.91
342.552	75.43
342.764	-39.25
342.977	1.71
343.189	20.14
343.401	-16.73
343.613	38.57
343.826	-29.01
344.038	38.57
344.25	9.9
344.462	3.75
344.674	83.63
344.886	-49.49
345.099	13.99
345.311	-16.73
345.523	79.53
345.735	-45.4
345.947	13.99
346.159	30.38
346.371	28.33
346.583	73.39
346.795	34.47
347.007	59.05
347.219	16.04
347.431	28.33
347.643	22.19
347.855	44.71
348.067	48.81
348.279	-0.34
348.491	132.78
348.703	-53.59
348.915	-8.53
349.127	-16.73
349.339	50.86
349.551	50.86
349.763	-20.82
349.975	5.8
350.187	-16.73
350.399	16.04
350.61	30.38
350.822	26.28
351.034	71.34
351.246	18.09
351.458	54.95
351.669	-24.92
351.881	83.63
352.093	5.8
352.305	-4.44
352.517	28.33
352.728	26.28
352.94	54.95
353.152	13.99
353.363	20.14
353.575	-18.77
353.787	38.57
353.999	46.76
354.21	54.95
354.422	57
354.633	-24.92
354.845	-53.59
355.057	-26.96
355.268	32.43
355.48	63.15
355.692	3.75
355.903	-12.63
356.115	-14.68
356.326	-4.44
356.538	42.67
356.749	20.14
356.961	40.62
357.172	36.52
357.384	38.57
357.595	71.34
357.807	-20.82
358.018	-2.39
358.23	83.63
358.441	-6.49
358.653	79.53
358.864	40.62
359.075	7.85
359.287	63.15
359.498	65.19
359.709	63.15
359.921	106.15
360.132	46.76
360.344	-24.92
360.555	44.71
360.766	5.8
360.977	-8.53
361.189	-8.53
361.4	32.43
361.611	40.62
361.823	108.2
362.034	30.38
362.245	-10.58
362.456	18.09
362.667	-41.3
362.879	11.95
363.09	50.86
363.301	81.58
363.512	11.95
363.723	-20.82
363.935	44.71
364.146	-0.34
364.357	-4.44
364.568	38.57
364.779	20.14
364.99	5.8
365.201	48.81
365.412	118.44
365.623	69.29
365.834	54.95
366.045	57
366.256	40.62
366.467	28.33
366.678	3.75
366.889	85.67
367.1	-0.34
367.311	63.15
367.522	30.38
367.733	-20.82
367.944	85.67
368.155	-2.39
368.366	59.05
368.577	54.95
368.788	83.63
368.999	11.95
369.209	5.8
369.42	18.09
369.631	52.91
369.842	-20.82
370.053	59.05
370.264	18.09
370.474	42.67
370.685	57
370.896	36.52
371.107	85.67
371.317	18.09
371.528	-59.73
371.739	77.48
371.95	5.8
372.16	100.01
372.371	-22.87
372.582	124.58
372.792	-53.59
373.003	44.71
373.214	57
373.424	-0.34
373.635	9.9
373.846	26.28
374.056	38.57
374.267	30.38
374.477	7.85
374.688	54.95
374.898	24.23
375.109	-6.49
375.319	69.29
375.53	50.86
375.74	48.81
375.951	73.39
376.161	20.14
376.372	9.9
376.582	38.57
376.793	63.15
377.003	91.82
377.214	54.95
377.424	32.43
377.635	9.9
377.845	-4.44
378.055	24.23
378.266	46.76
378.476	67.24
378.686	-41.3
378.897	95.91
379.107	-2.39
379.317	-8.53
379.528	95.91
379.738	24.23
379.948	42.67
380.158	9.9
380.369	26.28
380.579	54.95
380.789	11.95
380.999	40.62
381.21	22.19
381.42	97.96
381.63	-76.12
381.84	38.57
382.05	-45.4
382.261	38.57
382.471	42.67
382.681	11.95
382.891	97.96
383.101	18.09
383.311	95.91
383.521	32.43
383.731	95.91
383.941	18.09
384.151	100.01
384.361	22.19
384.571	38.57
384.781	42.67
384.991	22.19
385.201	67.24
385.411	69.29
385.621	65.19
385.831	28.33
386.041	-16.73
386.251	-14.68
386.461	-2.39
386.671	-39.25
386.881	24.23
387.091	-14.68
387.301	-2.39
387.511	40.62
387.72	48.81
387.93	-0.34
388.14	85.67
388.35	-14.68
388.56	97.96
388.769	-2.39
388.979	73.39
389.189	-6.49
389.399	22.19
389.609	30.38
389.818	46.76
390.028	50.86
390.238	95.91
390.447	59.05
390.657	57
390.867	5.8
391.076	52.91
391.286	20.14
391.496	40.62
391.705	87.72
391.915	9.9
392.125	110.25
392.334	28.33
392.544	40.62
392.753	24.23
392.963	26.28
393.172	57
393.382	42.67
393.591	71.34
393.801	28.33
394.01	16.04
394.22	3.75
394.429	11.95
394.639	83.63
394.848	54.95
395.058	79.53
395.267	48.81
395.477	-22.87
395.686	79.53
395.895	61.1
396.105	22.19
396.314	104.11
396.524	34.47
396.733	-0.34
396.942	38.57
397.152	81.58
397.361	83.63
397.57	30.38
397.78	30.38
397.989	38.57
398.198	48.81
398.407	-10.58
398.617	100.01
398.826	87.72
399.035	79.53
399.244	83.63
399.453	75.43
399.663	54.95
399.872	48.81
400.081	36.52
400.29	114.34
400.499	145.06
400.708	124.58
400.917	65.19
401.127	77.48
401.336	114.34
401.545	126.63
401.754	44.71
401.963	93.87
402.172	46.76
402.381	87.72
402.59	93.87
402.799	9.9
403.008	81.58
403.217	87.72
403.426	63.15
403.635	65.19
403.844	112.3
404.053	108.2
404.262	44.71
404.471	89.77
404.68	126.63
404.888	110.25
405.097	118.44
405.306	97.96
405.515	108.2
405.724	145.06
405.933	106.15
406.142	159.4
406.35	61.1
406.559	157.35
406.768	124.58
406.977	128.68
407.185	155.3
407.394	202.41
407.603	149.16
407.812	188.07
408.02	134.82
408.229	122.54
408.438	186.02
408.646	122.54
408.855	202.41
409.064	190.12
409.272	177.83
409.481	202.41
409.69	194.22
409.898	157.35
410.107	212.65
410.315	120.49
410.524	181.93
410.733	200.36
410.941	257.7
411.15	210.6
411.358	278.18
411.567	276.13
411.775	235.18
411.984	310.95
412.192	298.66
412.401	300.71
412.609	272.04
412.818	284.33
413.026	286.37
413.234	306.85
413.443	229.03
413.651	376.48
413.86	364.2
414.068	374.44
414.276	388.77
414.485	425.64
414.693	439.97
414.901	358.05
415.11	466.6
415.318	472.74
415.526	448.16
415.734	448.16
415.943	419.49
416.151	523.94
416.359	505.51
416.567	607.91
416.776	540.32
416.984	605.86
417.192	642.72
417.4	679.58
417.608	652.96
417.817	669.34
418.025	683.68
418.233	747.17
418.441	767.65
418.649	741.02
418.857	861.85
419.065	849.57
419.273	775.84
419.481	818.85
419.689	923.29
419.897	956.06
420.105	1003.16
420.313	892.57
420.521	994.97
420.729	1066.65
420.937	1037.98
421.145	1080.99
421.353	1134.23
421.561	1242.78
421.769	1154.71
421.977	1232.54
422.185	1336.98
422.393	1267.35
422.601	1402.52
422.809	1343.13
423.017	1492.63
423.224	1562.26
423.432	1572.5
423.64	1529.49
423.848	1638.03
424.056	1674.9
424.263	1730.19
424.471	1736.34
424.679	1814.16
424.887	1900.17
425.094	2047.63
425.302	2031.24
425.51	2111.11
425.718	2055.82
425.925	2082.44
426.133	2201.23
426.341	2317.96
426.548	2467.46
426.756	2444.93
426.964	2487.94
427.171	2692.74
427.379	2727.55
427.586	2778.75
427.794	2778.75
428.001	2911.87
428.209	3110.52
428.417	3108.48
428.624	3280.5
428.832	3315.32
429.039	3192.44
429.247	3341.94
429.454	3503.73
429.662	3790.45
429.869	3501.69
430.076	3866.22
430.284	3731.06
430.491	3800.69
430.699	4157.04
430.906	4091.5
431.114	4087.4
431.321	4359.78
431.528	4367.98
431.736	4671.08
431.943	4855.39
432.15	4642.4
432.358	4695.65
432.565	5072.48
432.772	5025.37
432.979	5242.46
433.187	5289.56
433.394	5424.73
433.601	5768.79
433.808	5756.5
434.016	5617.24
434.223	6045.26
434.43	6151.76
434.637	6225.48
434.844	6641.22
435.052	6669.89
435.259	6620.74
435.466	6743.62
435.673	6630.98
435.88	7159.36
436.087	7562.81
436.294	7550.52
436.501	7286.33
436.708	7419.45
436.915	7657.01
437.122	8126
437.329	7943.73
437.537	8226.35
437.743	8594.98
437.95	8437.29
438.157	8754.73
438.364	9311.77
438.571	9319.96
438.778	9162.27
438.985	10104.34
439.192	9829.91
439.399	10055.19
439.606	9670.17
439.813	10204.69
440.02	10915.33
440.227	10673.67
440.433	10823.17
440.64	10790.41
440.847	10929.67
441.054	11288.06
441.261	12082.67
441.467	11652.6
441.674	12049.91
441.881	12488.17
442.088	12465.64
442.294	12432.88
442.501	12924.39
442.708	12940.77
442.914	13356.51
443.121	13985.24
443.328	13680.09
443.534	14810.57
443.741	14259.67
443.948	14079.44
444.154	14964.17
444.361	14974.41
444.568	14927.3
444.774	15078.85
444.981	15128
445.187	15205.83
445.394	16293.3
445.6	16199.09
445.807	17671.58
446.013	17227.17
446.22	17448.35
446.426	17888.67
446.633	18165.14
446.839	18582.93
447.046	18052.5
447.252	18883.98
447.459	18976.14
447.665	19242.37
447.871	19774.84
448.078	20551.03
448.284	19588.48
448.491	20114.81
448.697	21085.54
448.903	21292.39
449.11	21515.62
449.316	21181.8
449.522	21511.52
449.728	22371.67
449.935	22478.16
450.141	22177.11
450.347	22736.21
450.553	22125.91
450.76	22500.69
450.966	23416.13
451.172	22895.95
451.378	23463.24
451.584	23131.47
451.791	23448.9
451.997	23651.65
452.203	23969.08
452.409	23856.45
452.615	23766.34
452.821	23147.85
453.027	22811.98
453.233	24053.05
453.44	22887.76
453.646	23393.61
453.852	23444.8
454.058	23805.25
454.264	23061.83
454.47	23610.69
454.676	23160.14
454.882	23674.18
455.088	21669.22
455.294	22144.34
455.5	22758.74
455.705	22973.77
455.911	21675.36
456.117	21636.45
456.323	21009.77
456.529	20120.95
456.735	20518.26
456.941	20123
457.147	20036.98
457.352	19203.46
457.558	19223.94
457.764	19189.13
457.97	18910.6
458.176	18316.69
458.381	18498.96
458.587	17669.53
458.793	17556.89
458.999	16651.69
459.204	17567.13
459.41	17206.69
459.616	16387.5
459.821	15795.64
460.027	16160.18
460.233	15609.28
460.438	15033.8
460.644	15205.83
460.85	14505.42
461.055	14235.09
461.261	14210.51
461.466	13211.11
461.672	12844.52
461.878	13663.71
462.083	12619.24
462.289	12477.93
462.494	12326.38
462.7	11890.17
462.905	11628.03
463.111	12058.1
463.316	12039.67
463.522	11718.14
463.727	11685.37
463.932	11703.8
464.138	11671.03
464.343	11488.76
464.549	11380.22
464.754	11632.12
464.959	11443.71
465.165	11615.74
465.37	11091.46
465.575	10808.84
465.781	11036.16
465.986	11208.19
466.191	10757.64
466.397	10677.77
466.602	10022.42
466.807	10350.09
467.012	10438.16
467.218	10323.47
467.423	10311.18
467.628	10343.95
467.833	10905.09
468.038	10499.59
468.244	9899.54
468.449	10475.02
468.654	10194.45
468.859	10268.17
