Data from USB4F104151__48__12-59-09-365.txt Node

Date: Fri Mar 14 12:59:09 EDT 2025
User: louis
Spectrometer: USB4F10415
Trigger mode: 4
Integration Time (sec): 1.000000E-2
Scans to average: 1
Electric dark correction enabled: true
Nonlinearity correction enabled: false
Boxcar width: 0
XAxis mode: Wavelengths
Number of Pixels in Spectrum: 3648
>>>>>Begin Spectral Data<<<<<
178.204	-50.35
178.424	-50.35
178.644	-50.35
178.864	11.09
179.084	-3.24
179.304	27.48
179.524	45.91
179.744	7
179.964	23.38
180.184	50
180.404	19.29
180.624	-81.07
180.844	-17.58
181.064	-3.24
181.283	19.29
181.503	-54.44
181.723	-36.01
181.943	-19.63
182.163	13.14
182.383	15.19
182.602	43.86
182.822	27.48
183.042	64.34
183.262	-27.82
183.482	-5.29
183.701	25.43
183.921	-7.34
184.141	25.43
184.361	84.82
184.58	50
184.8	-89.26
185.02	39.76
185.239	33.62
185.459	25.43
185.679	47.96
185.898	-3.24
186.118	9.05
186.338	54.1
186.557	47.96
186.777	2.9
186.997	86.87
187.216	41.81
187.436	11.09
187.655	101.2
187.875	29.52
188.095	-40.11
188.314	37.72
188.534	4.95
188.753	0.85
188.973	9.05
189.192	90.96
189.412	90.96
189.631	37.72
189.851	66.39
190.07	70.48
190.29	11.09
190.509	121.68
190.729	29.52
190.948	74.58
191.168	56.15
191.387	7
191.607	-11.43
191.826	-15.53
192.045	50
192.265	33.62
192.484	9.05
192.704	2.9
192.923	-9.39
193.142	62.29
193.362	74.58
193.581	-23.72
193.8	33.62
194.02	45.91
194.239	25.43
194.458	-9.39
194.678	2.9
194.897	-5.29
195.116	-5.29
195.335	15.19
195.555	70.48
195.774	-13.48
195.993	-36.01
196.212	31.57
196.432	17.24
196.651	27.48
196.87	-23.72
197.089	7
197.308	-9.39
197.528	33.62
197.747	-11.43
197.966	-3.24
198.185	-36.01
198.404	31.57
198.623	82.77
198.842	9.05
199.062	4.95
199.281	11.09
199.5	47.96
199.719	95.06
199.938	-9.39
200.157	45.91
200.376	9.05
200.595	11.09
200.814	21.33
201.033	-44.2
201.252	41.81
201.471	82.77
201.69	-9.39
201.909	27.48
202.128	19.29
202.347	45.91
202.566	74.58
202.785	29.52
203.004	-7.34
203.223	95.06
203.442	56.15
203.661	27.48
203.879	31.57
204.098	25.43
204.317	64.34
204.536	47.96
204.755	72.53
204.974	19.29
205.193	-13.48
205.411	72.53
205.63	-11.43
205.849	78.68
206.068	-31.91
206.287	-17.58
206.505	0.85
206.724	9.05
206.943	-9.39
207.162	13.14
207.381	4.95
207.599	66.39
207.818	-9.39
208.037	47.96
208.255	33.62
208.474	66.39
208.693	39.76
208.911	15.19
209.13	-19.63
209.349	74.58
209.567	-21.67
209.786	72.53
210.005	7
210.223	25.43
210.442	-27.82
210.661	0.85
210.879	-13.48
211.098	68.44
211.316	23.38
211.535	-7.34
211.753	-1.19
211.972	125.78
212.191	45.91
212.409	66.39
212.628	4.95
212.846	45.91
213.065	-23.72
213.283	90.96
213.502	45.91
213.72	54.1
213.938	-1.19
214.157	54.1
214.375	37.72
214.594	-74.92
214.812	33.62
215.031	41.81
215.249	7
215.467	11.09
215.686	-52.39
215.904	-3.24
216.122	21.33
216.341	66.39
216.559	27.48
216.778	2.9
216.996	35.67
217.214	54.1
217.432	39.76
217.651	64.34
217.869	60.24
218.087	58.2
218.306	50
218.524	54.1
218.742	93.01
218.96	25.43
219.179	9.05
219.397	50
219.615	66.39
219.833	-1.19
220.051	-7.34
220.27	41.81
220.488	82.77
220.706	17.24
220.924	45.91
221.142	41.81
221.36	70.48
221.578	35.67
221.796	0.85
222.015	21.33
222.233	62.29
222.451	86.87
222.669	-13.48
222.887	95.06
223.105	-1.19
223.323	13.14
223.541	29.52
223.759	45.91
223.977	33.62
224.195	21.33
224.413	29.52
224.631	7
224.849	15.19
225.067	4.95
225.285	0.85
225.503	109.4
225.721	15.19
225.939	-13.48
226.157	50
226.375	29.52
226.592	45.91
226.81	58.2
227.028	60.24
227.246	13.14
227.464	52.05
227.682	21.33
227.9	29.52
228.117	9.05
228.335	13.14
228.553	9.05
228.771	35.67
228.989	-3.24
229.206	45.91
229.424	70.48
229.642	2.9
229.86	-56.49
230.077	-19.63
230.295	31.57
230.513	-1.19
230.731	0.85
230.948	-9.39
231.166	15.19
231.384	23.38
231.601	33.62
231.819	47.96
232.037	-1.19
232.254	50
232.472	23.38
232.689	37.72
232.907	35.67
233.125	39.76
233.342	-11.43
233.56	7
233.777	47.96
233.995	35.67
234.213	27.48
234.43	62.29
234.648	39.76
234.865	-31.91
235.083	17.24
235.3	107.35
235.518	17.24
235.735	-23.72
235.953	-25.77
236.17	33.62
236.388	-60.59
236.605	33.62
236.822	62.29
237.04	41.81
237.257	47.96
237.475	11.09
237.692	88.92
237.909	0.85
238.127	-44.2
238.344	60.24
238.562	60.24
238.779	54.1
238.996	-21.67
239.214	-36.01
239.431	54.1
239.648	-1.19
239.865	-19.63
240.083	-27.82
240.3	0.85
240.517	-29.87
240.735	9.05
240.952	-5.29
241.169	52.05
241.386	41.81
241.603	-44.2
241.821	37.72
242.038	17.24
242.255	133.97
242.472	13.14
242.689	33.62
242.907	95.06
243.124	-21.67
243.341	41.81
243.558	17.24
243.775	19.29
243.992	68.44
244.209	33.62
244.426	66.39
244.643	78.68
244.86	4.95
245.078	70.48
245.295	39.76
245.512	-11.43
245.729	35.67
245.946	45.91
246.163	37.72
246.38	23.38
246.597	72.53
246.814	76.63
247.031	29.52
247.248	-50.35
247.464	80.72
247.681	-5.29
247.898	74.58
248.115	47.96
248.332	17.24
248.549	39.76
248.766	58.2
248.983	17.24
249.2	105.3
249.417	33.62
249.633	33.62
249.85	31.57
250.067	-29.87
250.284	62.29
250.501	58.2
250.717	45.91
250.934	39.76
251.151	90.96
251.368	41.81
251.585	52.05
251.801	84.82
252.018	29.52
252.235	-25.77
252.451	-17.58
252.668	29.52
252.885	86.87
253.102	99.16
253.318	60.24
253.535	52.05
253.752	29.52
253.968	11.09
254.185	-7.34
254.401	56.15
254.618	7
254.835	41.81
255.051	31.57
255.268	13.14
255.484	29.52
255.701	21.33
255.917	0.85
256.134	4.95
256.351	37.72
256.567	-27.82
256.784	56.15
257	-19.63
257.217	37.72
257.433	29.52
257.65	27.48
257.866	50
258.082	39.76
258.299	-40.11
258.515	-11.43
258.732	23.38
258.948	21.33
259.165	93.01
259.381	17.24
259.597	74.58
259.814	13.14
260.03	29.52
260.246	56.15
260.463	7
260.679	45.91
260.895	107.35
261.112	47.96
261.328	31.57
261.544	39.76
261.761	-9.39
261.977	-31.91
262.193	29.52
262.409	37.72
262.626	-1.19
262.842	82.77
263.058	54.1
263.274	35.67
263.49	-1.19
263.707	43.86
263.923	52.05
264.139	-17.58
264.355	-25.77
264.571	93.01
264.787	13.14
265.004	62.29
265.22	7
265.436	9.05
265.652	45.91
265.868	23.38
266.084	19.29
266.3	78.68
266.516	56.15
266.732	-11.43
266.948	-11.43
267.164	101.2
267.38	4.95
267.596	84.82
267.812	25.43
268.028	9.05
268.244	56.15
268.46	50
268.676	47.96
268.892	-29.87
269.108	7
269.324	39.76
269.54	37.72
269.756	4.95
269.972	31.57
270.188	2.9
270.403	-5.29
270.619	47.96
270.835	76.63
271.051	-11.43
271.267	64.34
271.483	-1.19
271.698	21.33
271.914	33.62
272.13	13.14
272.346	37.72
272.562	60.24
272.777	62.29
272.993	37.72
273.209	23.38
273.425	37.72
273.64	33.62
273.856	7
274.072	41.81
274.287	45.91
274.503	21.33
274.719	70.48
274.934	9.05
275.15	33.62
275.366	39.76
275.581	76.63
275.797	7
276.012	35.67
276.228	-3.24
276.444	-11.43
276.659	21.33
276.875	-3.24
277.09	23.38
277.306	13.14
277.521	-33.96
277.737	29.52
277.952	60.24
278.168	-17.58
278.383	-15.53
278.599	2.9
278.814	37.72
279.03	29.52
279.245	56.15
279.461	41.81
279.676	54.1
279.892	43.86
280.107	-3.24
280.322	90.96
280.538	-48.3
280.753	27.48
280.969	115.54
281.184	66.39
281.399	64.34
281.615	60.24
281.83	66.39
282.045	66.39
282.26	31.57
282.476	13.14
282.691	0.85
282.906	21.33
283.122	27.48
283.337	109.4
283.552	72.53
283.767	17.24
283.983	45.91
284.198	4.95
284.413	4.95
284.628	0.85
284.843	41.81
285.058	33.62
285.274	-25.77
285.489	9.05
285.704	107.35
285.919	25.43
286.134	72.53
286.349	31.57
286.564	47.96
286.779	66.39
286.995	-27.82
287.21	52.05
287.425	29.52
287.64	56.15
287.855	58.2
288.07	17.24
288.285	25.43
288.5	82.77
288.715	88.92
288.93	21.33
289.145	15.19
289.36	78.68
289.575	50
289.79	23.38
290.004	70.48
290.219	15.19
290.434	-33.96
290.649	19.29
290.864	17.24
291.079	60.24
291.294	-15.53
291.509	2.9
291.724	9.05
291.938	-52.39
292.153	52.05
292.368	43.86
292.583	-44.2
292.798	37.72
293.012	78.68
293.227	-42.15
293.442	41.81
293.657	-9.39
293.871	66.39
294.086	-50.35
294.301	70.48
294.516	23.38
294.73	13.14
294.945	43.86
295.16	41.81
295.374	-5.29
295.589	58.2
295.804	-7.34
296.018	-19.63
296.233	54.1
296.447	74.58
296.662	9.05
296.877	23.38
297.091	76.63
297.306	74.58
297.52	-27.82
297.735	-76.97
297.949	-27.82
298.164	45.91
298.378	29.52
298.593	9.05
298.807	17.24
299.022	47.96
299.236	-13.48
299.451	33.62
299.665	47.96
299.88	21.33
300.094	41.81
300.309	115.54
300.523	27.48
300.737	-5.29
300.952	37.72
301.166	37.72
301.381	37.72
301.595	37.72
301.809	45.91
302.024	-27.82
302.238	-1.19
302.452	13.14
302.667	39.76
302.881	7
303.095	107.35
303.309	39.76
303.524	-42.15
303.738	54.1
303.952	-5.29
304.166	35.67
304.381	-36.01
304.595	68.44
304.809	33.62
305.023	86.87
305.237	105.3
305.452	19.29
305.666	27.48
305.88	101.2
306.094	21.33
306.308	39.76
306.522	41.81
306.736	11.09
306.95	-3.24
307.164	31.57
307.379	0.85
307.593	80.72
307.807	-11.43
308.021	23.38
308.235	-19.63
308.449	15.19
308.663	31.57
308.877	82.77
309.091	64.34
309.305	27.48
309.519	27.48
309.733	19.29
309.947	86.87
310.161	45.91
310.374	17.24
310.588	-15.53
310.802	54.1
311.016	-38.06
311.23	2.9
311.444	-9.39
311.658	21.33
311.872	-27.82
312.085	70.48
312.299	80.72
312.513	33.62
312.727	-38.06
312.941	74.58
313.154	64.34
313.368	33.62
313.582	123.73
313.796	31.57
314.009	47.96
314.223	33.62
314.437	-19.63
314.651	45.91
314.864	56.15
315.078	-21.67
315.292	64.34
315.505	0.85
315.719	133.97
315.933	54.1
316.146	54.1
316.36	-11.43
316.573	-3.24
316.787	80.72
317.001	54.1
317.214	-11.43
317.428	97.11
317.641	35.67
317.855	43.86
318.068	21.33
318.282	70.48
318.495	-64.68
318.709	70.48
318.922	35.67
319.136	33.62
319.349	0.85
319.563	62.29
319.776	-19.63
319.99	74.58
320.203	70.48
320.417	78.68
320.63	88.92
320.843	66.39
321.057	47.96
321.27	29.52
321.483	15.19
321.697	60.24
321.91	17.24
322.124	-9.39
322.337	4.95
322.55	56.15
322.763	52.05
322.977	-27.82
323.19	33.62
323.403	-19.63
323.617	23.38
323.83	62.29
324.043	11.09
324.256	76.63
324.469	31.57
324.683	47.96
324.896	41.81
325.109	29.52
325.322	90.96
325.535	19.29
325.748	-7.34
325.962	25.43
326.175	31.57
326.388	45.91
326.601	-21.67
326.814	11.09
327.027	15.19
327.24	-17.58
327.453	-15.53
327.666	37.72
327.879	43.86
328.092	101.2
328.305	19.29
328.518	70.48
328.731	37.72
328.944	74.58
329.157	-5.29
329.37	21.33
329.583	86.87
329.796	47.96
330.009	15.19
330.222	23.38
330.435	23.38
330.648	15.19
330.861	56.15
331.073	-31.91
331.286	52.05
331.499	17.24
331.712	13.14
331.925	88.92
332.138	-42.15
332.35	95.06
332.563	13.14
332.776	23.38
332.989	-9.39
333.202	88.92
333.414	68.44
333.627	-5.29
333.84	21.33
334.053	31.57
334.265	-3.24
334.478	64.34
334.691	74.58
334.903	-11.43
335.116	13.14
335.329	-19.63
335.541	60.24
335.754	78.68
335.966	39.76
336.179	7
336.392	80.72
336.604	7
336.817	45.91
337.029	70.48
337.242	-7.34
337.454	-27.82
337.667	78.68
337.88	72.53
338.092	25.43
338.305	33.62
338.517	-33.96
338.729	41.81
338.942	4.95
339.154	62.29
339.367	50
339.579	103.25
339.792	-36.01
340.004	39.76
340.217	29.52
340.429	0.85
340.641	-1.19
340.854	25.43
341.066	-11.43
341.278	78.68
341.491	58.2
341.703	4.95
341.915	-21.67
342.128	50
342.34	4.95
342.552	13.14
342.764	11.09
342.977	9.05
343.189	90.96
343.401	47.96
343.613	-42.15
343.826	29.52
344.038	15.19
344.25	90.96
344.462	70.48
344.674	29.52
344.886	-62.63
345.099	2.9
345.311	33.62
345.523	11.09
345.735	-23.72
345.947	17.24
346.159	-42.15
346.371	41.81
346.583	-23.72
346.795	2.9
347.007	39.76
347.219	15.19
347.431	11.09
347.643	45.91
347.855	99.16
348.067	-7.34
348.279	-79.02
348.491	60.24
348.703	-29.87
348.915	37.72
349.127	4.95
349.339	64.34
349.551	-27.82
349.763	64.34
349.975	62.29
350.187	103.25
350.399	-11.43
350.61	27.48
350.822	37.72
351.034	95.06
351.246	-29.87
351.458	-23.72
351.669	11.09
351.881	27.48
352.093	21.33
352.305	25.43
352.517	70.48
352.728	23.38
352.94	-19.63
353.152	133.97
353.363	-27.82
353.575	56.15
353.787	80.72
353.999	70.48
354.21	45.91
354.422	39.76
354.633	-13.48
354.845	-25.77
355.057	15.19
355.268	66.39
355.48	21.33
355.692	13.14
355.903	35.67
356.115	37.72
356.326	58.2
356.538	47.96
356.749	33.62
356.961	86.87
357.172	35.67
357.384	-1.19
357.595	90.96
357.807	39.76
358.018	82.77
358.23	19.29
358.441	103.25
358.653	60.24
358.864	13.14
359.075	39.76
359.287	45.91
359.498	17.24
359.709	45.91
359.921	-1.19
360.132	7
360.344	17.24
360.555	31.57
360.766	41.81
360.977	9.05
361.189	50
361.4	50
361.611	-7.34
361.823	41.81
362.034	54.1
362.245	11.09
362.456	54.1
362.667	60.24
362.879	9.05
363.09	37.72
363.301	86.87
363.512	-40.11
363.723	37.72
363.935	45.91
364.146	78.68
364.357	50
364.568	80.72
364.779	-17.58
364.99	45.91
365.201	-9.39
365.412	95.06
365.623	37.72
365.834	19.29
366.045	31.57
366.256	33.62
366.467	37.72
366.678	-23.72
366.889	76.63
367.1	82.77
367.311	88.92
367.522	45.91
367.733	-33.96
367.944	33.62
368.155	9.05
368.366	33.62
368.577	27.48
368.788	50
368.999	-29.87
369.209	23.38
369.42	78.68
369.631	23.38
369.842	60.24
370.053	54.1
370.264	25.43
370.474	0.85
370.685	76.63
370.896	41.81
371.107	111.44
371.317	-13.48
371.528	58.2
371.739	45.91
371.95	103.25
372.16	97.11
372.371	19.29
372.582	95.06
372.792	13.14
373.003	58.2
373.214	35.67
373.424	64.34
373.635	78.68
373.846	47.96
374.056	64.34
374.267	74.58
374.477	80.72
374.688	13.14
374.898	33.62
375.109	95.06
375.319	113.49
375.53	74.58
375.74	29.52
375.951	93.01
376.161	29.52
376.372	-33.96
376.582	29.52
376.793	60.24
377.003	43.86
377.214	56.15
377.424	-3.24
377.635	-13.48
377.845	7
378.055	45.91
378.266	54.1
378.476	72.53
378.686	62.29
378.897	9.05
379.107	33.62
379.317	129.88
379.528	111.44
379.738	-1.19
379.948	-17.58
380.158	31.57
380.369	95.06
380.579	90.96
380.789	15.19
380.999	86.87
381.21	88.92
381.42	47.96
381.63	90.96
381.84	56.15
382.05	78.68
382.261	95.06
382.471	13.14
382.681	64.34
382.891	-1.19
383.101	23.38
383.311	70.48
383.521	-15.53
383.731	13.14
383.941	66.39
384.151	84.82
384.361	76.63
384.571	31.57
384.781	-19.63
384.991	82.77
385.201	56.15
385.411	101.2
385.621	84.82
385.831	-3.24
386.041	27.48
386.251	138.07
386.461	64.34
386.671	19.29
386.881	-23.72
387.091	54.1
387.301	47.96
387.511	82.77
387.72	15.19
387.93	13.14
388.14	-40.11
388.35	56.15
388.56	-5.29
388.769	11.09
388.979	50
389.189	80.72
389.399	54.1
389.609	58.2
389.818	88.92
390.028	33.62
390.238	25.43
390.447	-5.29
390.657	72.53
390.867	13.14
391.076	45.91
391.286	123.73
391.496	-42.15
391.705	82.77
391.915	7
392.125	17.24
392.334	66.39
392.544	113.49
392.753	64.34
392.963	95.06
393.172	105.3
393.382	111.44
393.591	160.59
393.801	41.81
394.01	11.09
394.22	103.25
394.429	-27.82
394.639	76.63
394.848	127.83
395.058	54.1
395.267	74.58
395.477	-21.67
395.686	29.52
395.895	117.59
396.105	90.96
396.314	84.82
396.524	78.68
396.733	58.2
396.942	66.39
397.152	29.52
397.361	78.68
397.57	31.57
397.78	7
397.989	56.15
398.198	99.16
398.407	95.06
398.617	113.49
398.826	7
399.035	138.07
399.244	88.92
399.453	31.57
399.663	76.63
399.872	27.48
400.081	80.72
400.29	111.44
400.499	99.16
400.708	101.2
400.917	56.15
401.127	119.64
401.336	111.44
401.545	168.79
401.754	39.76
401.963	13.14
402.172	90.96
402.381	138.07
402.59	62.29
402.799	25.43
403.008	78.68
403.217	60.24
403.426	115.54
403.635	160.59
403.844	123.73
404.053	-3.24
404.262	88.92
404.471	103.25
404.68	4.95
404.888	121.68
405.097	80.72
405.306	82.77
405.515	107.35
405.724	45.91
405.933	115.54
406.142	84.82
406.35	111.44
406.559	176.98
406.768	88.92
406.977	138.07
407.185	103.25
407.394	146.26
407.603	95.06
407.812	138.07
408.02	168.79
408.229	191.31
408.438	107.35
408.646	131.92
408.855	154.45
409.064	189.27
409.272	174.93
409.481	176.98
409.69	211.79
409.898	191.31
410.107	211.79
410.315	260.95
410.524	164.69
410.733	136.02
410.941	199.51
411.15	215.89
411.358	258.9
411.567	250.71
411.775	213.84
411.984	299.86
412.192	303.95
412.401	318.29
412.609	289.62
412.818	254.8
413.026	308.05
413.234	320.34
413.443	349.01
413.651	340.82
413.86	349.01
414.068	383.82
414.276	451.41
414.485	367.44
414.693	385.87
414.901	379.73
415.11	414.54
415.318	371.54
415.526	463.69
415.734	416.59
415.943	426.83
416.151	486.22
416.359	439.12
416.567	574.28
416.776	564.04
416.984	633.68
417.192	578.38
417.4	635.72
417.608	619.34
417.817	615.24
418.025	629.58
418.233	703.31
418.441	715.59
418.649	686.92
418.857	815.94
419.065	820.04
419.273	783.18
419.481	811.85
419.689	963.4
419.897	875.34
420.105	867.14
420.313	961.35
420.521	1024.84
420.729	1008.45
420.937	981.83
421.145	1084.23
421.353	1030.98
421.561	1182.53
421.769	1219.39
421.977	1303.36
422.185	1227.59
422.393	1293.12
422.601	1356.61
422.809	1424.19
423.017	1342.27
423.224	1434.43
423.432	1604.41
423.64	1465.15
423.848	1727.29
424.056	1497.92
424.263	1725.24
424.471	1803.07
424.679	1766.2
424.887	1872.7
425.094	1907.51
425.302	1846.07
425.51	1946.42
425.718	1973.05
425.925	2102.07
426.133	2171.7
426.341	2227
426.548	2233.14
426.756	2274.1
426.964	2417.46
427.171	2560.81
427.379	2544.43
427.586	2661.16
427.794	2528.05
428.001	2839.34
428.209	3017.51
428.417	2818.86
428.624	3083.05
428.832	3142.44
429.039	2968.36
429.247	3203.88
429.454	3390.24
429.662	3775.26
429.869	3289.89
430.076	3588.89
430.284	3541.79
430.491	3719.96
430.699	3842.84
430.906	3855.13
431.114	3951.39
431.321	4076.31
431.528	4111.13
431.736	4473.62
431.943	4432.66
432.15	4373.27
432.358	4674.32
432.565	4731.66
432.772	4809.48
432.979	5042.95
433.187	5157.64
433.394	5128.97
433.601	5608.19
433.808	5452.55
434.016	5509.89
434.223	5704.45
434.43	6034.17
434.637	5946.11
434.844	6238.97
435.052	6454
435.259	6324.98
435.466	6363.89
435.673	6425.33
435.88	6732.53
436.087	7041.77
436.294	7236.33
436.501	6955.76
436.708	6998.76
436.915	7183.08
437.122	7715.55
437.329	7703.26
437.537	7994.08
437.743	7928.54
437.95	8098.52
438.157	8557.27
438.364	8544.98
438.571	8757.97
438.778	8641.23
438.985	9351.88
439.192	9204.42
439.399	9325.26
439.606	9280.2
439.813	9765.57
440.02	10160.83
440.227	10199.74
440.433	10095.29
440.64	10351.29
440.847	10123.96
441.054	10613.43
441.261	11354.79
441.467	11018.93
441.674	11197.1
441.881	11784.87
442.088	11801.25
442.294	11614.88
442.501	12120.73
442.708	12239.51
442.914	12677.78
443.121	13298.31
443.328	12864.15
443.534	13759.11
443.741	13374.09
443.948	13165.2
444.154	14291.58
444.361	14056.06
444.568	14361.21
444.774	14355.07
444.981	14367.35
445.187	15051.38
445.394	15413.87
445.6	15495.78
445.807	16865.88
446.013	16132.7
446.22	16656.98
446.426	17074.77
446.633	17093.2
446.839	17803.85
447.046	17095.25
447.252	18088.51
447.459	18041.41
447.665	18094.66
447.871	18854.45
448.078	19722.79
448.284	18735.67
448.491	18938.42
448.697	19956.26
448.903	20415.01
449.11	20505.12
449.316	20038.18
449.522	20707.87
449.728	21043.73
449.935	21223.95
450.141	21320.21
450.347	22000.13
450.553	21228.05
450.76	21326.35
450.966	22161.92
451.172	21838.34
451.378	22630.91
451.584	22135.3
451.791	22573.56
451.997	22766.07
452.203	22966.77
452.409	22880.76
452.615	22731.26
452.821	21813.77
453.027	21903.88
453.233	23161.33
453.44	22309.38
453.646	22620.67
453.852	22247.94
454.058	22755.83
454.264	22262.27
454.47	22546.94
454.676	21991.94
454.882	22819.32
455.088	20851.22
455.294	21340.69
455.5	21651.98
455.705	21787.14
455.911	21058.07
456.117	20279.84
456.323	20412.96
456.529	19216.94
456.735	20173.35
456.941	19229.23
457.147	19147.31
457.352	18539.07
457.558	18360.89
457.764	18475.58
457.97	17969.73
458.176	17611.34
458.381	17723.97
458.587	17011.28
458.793	17132.11
458.999	15932
459.204	17277.52
459.41	16532.06
459.616	15616.62
459.821	15315.56
460.027	15471.21
460.233	15217.26
460.438	14232.19
460.644	14549.62
460.85	13853.31
461.055	13910.66
461.261	13462.15
461.466	12612.24
461.672	12087.96
461.878	13107.85
462.083	12427.93
462.289	12235.42
462.494	12016.29
462.7	11401.9
462.905	11219.63
463.111	11594.4
463.316	11627.17
463.522	11354.79
463.727	11301.54
463.932	11160.24
464.138	11346.6
464.343	11281.07
464.549	10695.35
464.754	11395.75
464.959	11279.02
465.165	11125.42
465.37	10707.63
465.575	10437.3
465.781	10779.31
465.986	10902.19
466.191	10638
466.397	10224.31
466.602	9734.85
466.807	10171.07
467.012	10187.45
467.218	9925.31
467.423	10007.23
467.628	10058.43
467.833	10572.47
468.038	9902.78
468.244	9706.18
468.449	10140.35
468.654	9923.26
468.859	9616.07
469.064	9853.63
469.269	9296.58
469.474	9392.84
469.679	9687.75
