Data from USB4F104151__98__13-00-16-178.txt Node

Date: Fri Mar 14 13:00:16 EDT 2025
User: louis
Spectrometer: USB4F10415
Trigger mode: 4
Integration Time (sec): 1.000000E-2
Scans to average: 1
Electric dark correction enabled: true
Nonlinearity correction enabled: false
Boxcar width: 0
XAxis mode: Wavelengths
Number of Pixels in Spectrum: 3648
>>>>>Begin Spectral Data<<<<<
178.204	-25.09
178.424	-25.09
178.644	-25.09
178.864	-37.38
179.084	-35.33
179.304	-14.85
179.524	24.06
179.744	24.06
179.964	-27.14
180.184	-29.18
180.404	30.21
180.624	-20.99
180.844	3.58
181.064	-4.61
181.283	15.87
181.503	54.78
181.723	-55.81
181.943	7.68
182.163	-8.7
182.383	-68.09
182.602	42.5
182.822	-45.57
183.042	-43.52
183.262	11.78
183.482	-53.76
183.701	26.11
183.921	56.83
184.141	19.97
184.361	-12.8
184.58	-47.62
184.8	-2.56
185.02	-45.57
185.239	-0.51
185.459	46.59
185.679	71.17
185.898	54.78
186.118	-55.81
186.338	-14.85
186.557	9.73
186.777	3.58
186.997	3.58
187.216	5.63
187.436	62.98
187.655	15.87
187.875	60.93
188.095	-25.09
188.314	13.82
188.534	-27.14
188.753	73.21
188.973	-14.85
189.192	-10.75
189.412	73.21
189.631	-43.52
189.851	26.11
190.07	-10.75
190.29	-10.75
190.509	-29.18
190.729	-53.76
190.948	110.08
191.168	-2.56
191.387	99.84
191.607	124.41
191.826	30.21
192.045	-59.9
192.265	1.54
192.484	5.63
192.704	22.02
192.923	38.4
193.142	26.11
193.362	-39.42
193.581	-27.14
193.8	40.45
194.02	-31.23
194.239	-41.47
194.458	-78.33
194.678	32.26
194.897	60.93
195.116	-25.09
195.335	-4.61
195.555	42.5
195.774	-8.7
195.993	11.78
196.212	-29.18
196.432	28.16
196.651	3.58
196.87	103.93
197.089	15.87
197.308	-66.05
197.528	60.93
197.747	-45.57
197.966	36.35
198.185	28.16
198.404	-10.75
198.623	34.3
198.842	-14.85
199.062	60.93
199.281	52.74
199.5	-57.86
199.719	26.11
199.938	3.58
200.157	60.93
200.376	-53.76
200.595	58.88
200.814	58.88
201.033	-4.61
201.252	60.93
201.471	-18.94
201.69	-23.04
201.909	22.02
202.128	-31.23
202.347	19.97
202.566	-45.57
202.785	62.98
203.004	-25.09
203.223	69.12
203.442	-35.33
203.661	34.3
203.879	50.69
204.098	54.78
204.317	-70.14
204.536	36.35
204.755	-8.7
204.974	-2.56
205.193	-57.86
205.411	-4.61
205.63	-4.61
205.849	24.06
206.068	-0.51
206.287	1.54
206.505	95.74
206.724	34.3
206.943	7.68
207.162	44.54
207.381	-61.95
207.599	17.92
207.818	40.45
208.037	-12.8
208.255	-53.76
208.474	3.58
208.693	15.87
208.911	34.3
209.13	-66.05
209.349	7.68
209.567	60.93
209.786	71.17
210.005	22.02
210.223	-14.85
210.442	-18.94
210.661	-2.56
210.879	-35.33
211.098	77.31
211.316	19.97
211.535	-6.66
211.753	7.68
211.972	81.41
212.191	-37.38
212.409	11.78
212.628	-2.56
212.846	62.98
213.065	13.82
213.283	22.02
213.502	-49.66
213.72	28.16
213.938	-0.51
214.157	19.97
214.375	-35.33
214.594	7.68
214.812	-12.8
215.031	-49.66
215.249	22.02
215.467	7.68
215.686	56.83
215.904	17.92
216.122	28.16
216.341	24.06
216.559	79.36
216.778	-12.8
216.996	-10.75
217.214	-29.18
217.432	-51.71
217.651	-57.86
217.869	-23.04
218.087	67.07
218.306	-20.99
218.524	-61.95
218.742	-2.56
218.96	19.97
219.179	71.17
219.397	32.26
219.615	-16.9
219.833	15.87
220.051	-43.52
220.27	-20.99
220.488	40.45
220.706	54.78
220.924	11.78
221.142	-2.56
221.36	3.58
221.578	69.12
221.796	-6.66
222.015	-33.28
222.233	32.26
222.451	-14.85
222.669	-29.18
222.887	-4.61
223.105	34.3
223.323	-51.71
223.541	-41.47
223.759	42.5
223.977	5.63
224.195	52.74
224.413	30.21
224.631	-41.47
224.849	54.78
225.067	95.74
225.285	-66.05
225.503	44.54
225.721	-41.47
225.939	-35.33
226.157	81.41
226.375	36.35
226.592	5.63
226.81	-20.99
227.028	34.3
227.246	77.31
227.464	-14.85
227.682	-23.04
227.9	30.21
228.117	110.08
228.335	-39.42
228.553	17.92
228.771	-88.57
228.989	-41.47
229.206	-90.62
229.424	-27.14
229.642	-33.28
229.86	13.82
230.077	48.64
230.295	-2.56
230.513	-45.57
230.731	22.02
230.948	15.87
231.166	79.36
231.384	15.87
231.601	19.97
231.819	15.87
232.037	42.5
232.254	26.11
232.472	5.63
232.689	13.82
232.907	26.11
233.125	-2.56
233.342	9.73
233.56	19.97
233.777	1.54
233.995	32.26
234.213	22.02
234.43	19.97
234.648	-35.33
234.865	-4.61
235.083	-39.42
235.3	54.78
235.518	-2.56
235.735	36.35
235.953	-10.75
236.17	67.07
236.388	60.93
236.605	-43.52
236.822	9.73
237.04	5.63
237.257	1.54
237.475	11.78
237.692	-41.47
237.909	5.63
238.127	1.54
238.344	-20.99
238.562	-94.72
238.779	5.63
238.996	-12.8
239.214	-39.42
239.431	-2.56
239.648	15.87
239.865	-68.09
240.083	69.12
240.3	-20.99
240.517	34.3
240.735	44.54
240.952	13.82
241.169	15.87
241.386	-12.8
241.603	17.92
241.821	65.02
242.038	-0.51
242.255	-0.51
242.472	-47.62
242.689	34.3
242.907	26.11
243.124	48.64
243.341	38.4
243.558	-27.14
243.775	3.58
243.992	50.69
244.209	30.21
244.426	67.07
244.643	5.63
244.86	48.64
245.078	9.73
245.295	50.69
245.512	-51.71
245.729	15.87
245.946	48.64
246.163	-27.14
246.38	50.69
246.597	17.92
246.814	-45.57
247.031	40.45
247.248	5.63
247.464	-47.62
247.681	54.78
247.898	13.82
248.115	-4.61
248.332	-4.61
248.549	38.4
248.766	44.54
248.983	3.58
249.2	-23.04
249.417	-43.52
249.633	19.97
249.85	17.92
250.067	13.82
250.284	-16.9
250.501	52.74
250.717	15.87
250.934	3.58
251.151	30.21
251.368	-51.71
251.585	-55.81
251.801	-16.9
252.018	22.02
252.235	-4.61
252.451	-14.85
252.668	36.35
252.885	7.68
253.102	-43.52
253.318	38.4
253.535	-8.7
253.752	17.92
253.968	-39.42
254.185	-12.8
254.401	38.4
254.618	99.84
254.835	-8.7
255.051	75.26
255.268	19.97
255.484	44.54
255.701	22.02
255.917	-41.47
256.134	40.45
256.351	46.59
256.567	48.64
256.784	32.26
257	-45.57
257.217	40.45
257.433	-4.61
257.65	26.11
257.866	-6.66
258.082	36.35
258.299	-29.18
258.515	44.54
258.732	7.68
258.948	-20.99
259.165	-8.7
259.381	38.4
259.597	9.73
259.814	81.41
260.03	1.54
260.246	11.78
260.463	79.36
260.679	38.4
260.895	-27.14
261.112	-35.33
261.328	15.87
261.544	-20.99
261.761	15.87
261.977	17.92
262.193	-20.99
262.409	-4.61
262.626	99.84
262.842	-10.75
263.058	-8.7
263.274	9.73
263.49	3.58
263.707	108.03
263.923	-8.7
264.139	9.73
264.355	-23.04
264.571	15.87
264.787	-55.81
265.004	-10.75
265.22	19.97
265.436	-12.8
265.652	-2.56
265.868	5.63
266.084	-94.72
266.3	13.82
266.516	-18.94
266.732	9.73
266.948	44.54
267.164	-37.38
267.38	1.54
267.596	-10.75
267.812	38.4
268.028	22.02
268.244	42.5
268.46	-2.56
268.676	-31.23
268.892	56.83
269.108	-20.99
269.324	38.4
269.54	69.12
269.756	11.78
269.972	-8.7
270.188	22.02
270.403	-18.94
270.619	42.5
270.835	99.84
271.051	-43.52
271.267	52.74
271.483	19.97
271.698	52.74
271.914	3.58
272.13	67.07
272.346	-53.76
272.562	69.12
272.777	38.4
272.993	-59.9
273.209	-12.8
273.425	44.54
273.64	67.07
273.856	34.3
274.072	19.97
274.287	48.64
274.503	-29.18
274.719	-20.99
274.934	-53.76
275.15	9.73
275.366	5.63
275.581	-20.99
275.797	24.06
276.012	28.16
276.228	3.58
276.444	-14.85
276.659	19.97
276.875	-25.09
277.09	-8.7
277.306	19.97
277.521	5.63
277.737	11.78
277.952	42.5
278.168	-14.85
278.383	3.58
278.599	13.82
278.814	24.06
279.03	-6.66
279.245	50.69
279.461	28.16
279.676	9.73
279.892	-20.99
280.107	28.16
280.322	-4.61
280.538	-0.51
280.753	17.92
280.969	15.87
281.184	-70.14
281.399	69.12
281.615	3.58
281.83	19.97
282.045	19.97
282.26	-10.75
282.476	-33.28
282.691	3.58
282.906	-18.94
283.122	30.21
283.337	38.4
283.552	1.54
283.767	-2.56
283.983	42.5
284.198	69.12
284.413	-29.18
284.628	-16.9
284.843	-43.52
285.058	-2.56
285.274	24.06
285.489	-43.52
285.704	22.02
285.919	48.64
286.134	-27.14
286.349	-14.85
286.564	-4.61
286.779	-39.42
286.995	5.63
287.21	-16.9
287.425	13.82
287.64	91.65
287.855	30.21
288.07	-2.56
288.285	1.54
288.5	22.02
288.715	36.35
288.93	-47.62
289.145	-51.71
289.36	19.97
289.575	56.83
289.79	36.35
290.004	36.35
290.219	-16.9
290.434	13.82
290.649	7.68
290.864	13.82
291.079	-12.8
291.294	11.78
291.509	85.5
291.724	5.63
291.938	-35.33
292.153	40.45
292.368	3.58
292.583	22.02
292.798	-12.8
293.012	-41.47
293.227	-84.48
293.442	93.69
293.657	-33.28
293.871	32.26
294.086	42.5
294.301	3.58
294.516	-70.14
294.73	-20.99
294.945	9.73
295.16	56.83
295.374	-8.7
295.589	30.21
295.804	30.21
296.018	5.63
296.233	-49.66
296.447	17.92
296.662	3.58
296.877	-20.99
297.091	26.11
297.306	-59.9
297.52	-27.14
297.735	13.82
297.949	-8.7
298.164	36.35
298.378	9.73
298.593	-0.51
298.807	9.73
299.022	-8.7
299.236	-53.76
299.451	3.58
299.665	36.35
299.88	40.45
300.094	13.82
300.309	-39.42
300.523	-43.52
300.737	3.58
300.952	28.16
301.166	71.17
301.381	30.21
301.595	13.82
301.809	-16.9
302.024	-2.56
302.238	9.73
302.452	9.73
302.667	17.92
302.881	40.45
303.095	13.82
303.309	17.92
303.524	83.45
303.738	-37.38
303.952	54.78
304.166	58.88
304.381	-23.04
304.595	-6.66
304.809	1.54
305.023	85.5
305.237	32.26
305.452	1.54
305.666	19.97
305.88	-37.38
306.094	3.58
306.308	73.21
306.522	-45.57
306.736	-14.85
306.95	13.82
307.164	-8.7
307.379	32.26
307.593	-41.47
307.807	34.3
308.021	22.02
308.235	54.78
308.449	30.21
308.663	-23.04
308.877	-23.04
309.091	28.16
309.305	-59.9
309.519	7.68
309.733	52.74
309.947	1.54
310.161	32.26
310.374	60.93
310.588	99.84
310.802	58.88
311.016	9.73
311.23	42.5
311.444	22.02
311.658	-20.99
311.872	-18.94
312.085	-33.28
312.299	69.12
312.513	-18.94
312.727	58.88
312.941	30.21
313.154	99.84
313.368	26.11
313.582	48.64
313.796	-18.94
314.009	48.64
314.223	-2.56
314.437	132.61
314.651	-76.29
314.864	17.92
315.078	-16.9
315.292	-35.33
315.505	-12.8
315.719	-43.52
315.933	-25.09
316.146	44.54
316.36	17.92
316.573	7.68
316.787	13.82
317.001	13.82
317.214	3.58
317.428	11.78
317.641	-25.09
317.855	62.98
318.068	81.41
318.282	19.97
318.495	58.88
318.709	-41.47
318.922	19.97
319.136	-29.18
319.349	-10.75
319.563	-10.75
319.776	48.64
319.99	28.16
320.203	48.64
320.417	-20.99
320.63	-20.99
320.843	42.5
321.057	17.92
321.27	-10.75
321.483	-29.18
321.697	95.74
321.91	69.12
322.124	22.02
322.337	44.54
322.55	87.55
322.763	13.82
322.977	-4.61
323.19	-29.18
323.403	38.4
323.617	-27.14
323.83	17.92
324.043	38.4
324.256	-31.23
324.469	-12.8
324.683	5.63
324.896	1.54
325.109	46.59
325.322	-39.42
325.535	5.63
325.748	11.78
325.962	44.54
326.175	-8.7
326.388	-4.61
326.601	-4.61
326.814	38.4
327.027	-49.66
327.24	71.17
327.453	9.73
327.666	-35.33
327.879	34.3
328.092	56.83
328.305	7.68
328.518	3.58
328.731	-76.29
328.944	-10.75
329.157	-12.8
329.37	-27.14
329.583	-47.62
329.796	38.4
330.009	-76.29
330.222	-55.81
330.435	-45.57
330.648	28.16
330.861	-49.66
331.073	24.06
331.286	-0.51
331.499	3.58
331.712	-14.85
331.925	-68.09
332.138	11.78
332.35	42.5
332.563	5.63
332.776	32.26
332.989	5.63
333.202	-4.61
333.414	69.12
333.627	-4.61
333.84	-33.28
334.053	-64
334.265	40.45
334.478	40.45
334.691	7.68
334.903	77.31
335.116	-20.99
335.329	-8.7
335.541	-35.33
335.754	-49.66
335.966	54.78
336.179	3.58
336.392	48.64
336.604	30.21
336.817	11.78
337.029	15.87
337.242	-14.85
337.454	3.58
337.667	-25.09
337.88	67.07
338.092	1.54
338.305	77.31
338.517	38.4
338.729	28.16
338.942	-6.66
339.154	24.06
339.367	-16.9
339.579	52.74
339.792	5.63
340.004	-0.51
340.217	9.73
340.429	7.68
340.641	-0.51
340.854	3.58
341.066	11.78
341.278	3.58
341.491	22.02
341.703	54.78
341.915	-31.23
342.128	50.69
342.34	-18.94
342.552	26.11
342.764	9.73
342.977	-16.9
343.189	24.06
343.401	-8.7
343.613	3.58
343.826	-61.95
344.038	-23.04
344.25	60.93
344.462	32.26
344.674	-12.8
344.886	5.63
345.099	17.92
345.311	-14.85
345.523	56.83
345.735	42.5
345.947	44.54
346.159	-14.85
346.371	3.58
346.583	26.11
346.795	17.92
347.007	9.73
347.219	3.58
347.431	-29.18
347.643	-20.99
347.855	-51.71
348.067	60.93
348.279	-10.75
348.491	30.21
348.703	28.16
348.915	11.78
349.127	3.58
349.339	44.54
349.551	52.74
349.763	19.97
349.975	54.78
350.187	108.03
350.399	67.07
350.61	69.12
350.822	19.97
351.034	17.92
351.246	19.97
351.458	22.02
351.669	85.5
351.881	15.87
352.093	40.45
352.305	56.83
352.517	-4.61
352.728	40.45
352.94	-10.75
353.152	34.3
353.363	67.07
353.575	-4.61
353.787	-31.23
353.999	48.64
354.21	1.54
354.422	34.3
354.633	42.5
354.845	65.02
355.057	-12.8
355.268	95.74
355.48	46.59
355.692	-8.7
355.903	26.11
356.115	-12.8
356.326	32.26
356.538	-45.57
356.749	-20.99
356.961	-51.71
357.172	-12.8
357.384	48.64
357.595	50.69
357.807	5.63
358.018	-68.09
358.23	-43.52
358.441	-10.75
358.653	22.02
358.864	-16.9
359.075	38.4
359.287	30.21
359.498	44.54
359.709	-10.75
359.921	-0.51
360.132	-10.75
360.344	-4.61
360.555	3.58
360.766	42.5
360.977	-80.38
361.189	44.54
361.4	52.74
361.611	58.88
361.823	15.87
362.034	24.06
362.245	-6.66
362.456	30.21
362.667	-29.18
362.879	60.93
363.09	54.78
363.301	-0.51
363.512	-61.95
363.723	28.16
363.935	-51.71
364.146	13.82
364.357	-35.33
364.568	-8.7
364.779	-2.56
364.99	60.93
365.201	15.87
365.412	79.36
365.623	-43.52
365.834	15.87
366.045	77.31
366.256	58.88
366.467	-18.94
366.678	65.02
366.889	-61.95
367.1	42.5
367.311	5.63
367.522	-2.56
367.733	19.97
367.944	30.21
368.155	7.68
368.366	9.73
368.577	77.31
368.788	56.83
368.999	-18.94
369.209	19.97
369.42	-33.28
369.631	71.17
369.842	1.54
370.053	19.97
370.264	-45.57
370.474	1.54
370.685	-0.51
370.896	5.63
371.107	-33.28
371.317	24.06
371.528	5.63
371.739	-27.14
371.95	24.06
372.16	24.06
372.371	15.87
372.582	44.54
372.792	34.3
373.003	-33.28
373.214	48.64
373.424	-10.75
373.635	67.07
373.846	22.02
374.056	11.78
374.267	22.02
374.477	48.64
374.688	19.97
374.898	110.08
375.109	34.3
375.319	22.02
375.53	46.59
375.74	15.87
375.951	48.64
376.161	22.02
376.372	-8.7
376.582	71.17
376.793	28.16
377.003	3.58
377.214	44.54
377.424	-6.66
377.635	5.63
377.845	-0.51
378.055	-23.04
378.266	44.54
378.476	52.74
378.686	19.97
378.897	30.21
379.107	15.87
379.317	71.17
379.528	-4.61
379.738	54.78
379.948	7.68
380.158	62.98
380.369	-57.86
380.579	7.68
380.789	85.5
380.999	52.74
381.21	-41.47
381.42	17.92
381.63	40.45
381.84	46.59
382.05	-16.9
382.261	32.26
382.471	65.02
382.681	1.54
382.891	105.98
383.101	19.97
383.311	-14.85
383.521	32.26
383.731	38.4
383.941	-10.75
384.151	46.59
384.361	7.68
384.571	-10.75
384.781	26.11
384.991	50.69
385.201	30.21
385.411	-4.61
385.621	-29.18
385.831	34.3
386.041	17.92
386.251	52.74
386.461	-25.09
386.671	28.16
386.881	38.4
387.091	30.21
387.301	36.35
387.511	22.02
387.72	-37.38
387.93	85.5
388.14	-25.09
388.35	-35.33
388.56	71.17
388.769	7.68
388.979	30.21
389.189	-12.8
389.399	-12.8
389.609	30.21
389.818	110.08
390.028	7.68
390.238	-33.28
390.447	3.58
390.657	30.21
390.867	9.73
391.076	-31.23
391.286	-6.66
391.496	-49.66
391.705	-29.18
391.915	46.59
392.125	79.36
392.334	85.5
392.544	91.65
392.753	-18.94
392.963	13.82
393.172	-16.9
393.382	42.5
393.591	62.98
393.801	-16.9
394.01	11.78
394.22	28.16
394.429	-20.99
394.639	-25.09
394.848	103.93
395.058	19.97
395.267	95.74
395.477	52.74
395.686	71.17
395.895	58.88
396.105	46.59
396.314	79.36
396.524	17.92
396.733	56.83
396.942	40.45
397.152	3.58
397.361	87.55
397.57	65.02
397.78	93.69
397.989	28.16
398.198	-6.66
398.407	69.12
398.617	34.3
398.826	13.82
399.035	85.5
399.244	36.35
399.453	5.63
399.663	28.16
399.872	73.21
400.081	93.69
400.29	140.8
400.499	46.59
400.708	77.31
400.917	38.4
401.127	116.22
401.336	101.89
401.545	122.37
401.754	73.21
401.963	142.85
402.172	32.26
402.381	26.11
402.59	48.64
402.799	128.51
403.008	44.54
403.217	-33.28
403.426	58.88
403.635	15.87
403.844	11.78
404.053	50.69
404.262	77.31
404.471	71.17
404.68	93.69
404.888	134.65
405.097	-12.8
405.306	17.92
405.515	103.93
405.724	112.13
405.933	54.78
406.142	36.35
406.35	81.41
406.559	93.69
406.768	116.22
406.977	110.08
407.185	97.79
407.394	50.69
407.603	77.31
407.812	34.3
408.02	120.32
408.229	58.88
408.438	93.69
408.646	44.54
408.855	108.03
409.064	110.08
409.272	112.13
409.481	210.43
409.69	112.13
409.898	103.93
410.107	165.37
410.315	153.09
410.524	81.41
410.733	97.79
410.941	138.75
411.15	173.57
411.358	148.99
411.567	99.84
411.775	132.61
411.984	177.66
412.192	122.37
412.401	228.86
412.609	183.81
412.818	216.57
413.026	198.14
413.234	265.72
413.443	232.96
413.651	259.58
413.86	220.67
414.068	161.28
414.276	296.44
414.485	280.06
414.693	259.58
414.901	368.12
415.11	275.96
415.318	294.4
415.526	245.24
415.734	382.46
415.943	327.16
416.151	337.4
416.359	386.55
416.567	376.31
416.776	374.27
416.984	378.36
417.192	409.08
417.4	423.42
417.608	495.1
417.817	433.66
418.025	429.56
418.233	413.18
418.441	400.89
418.649	540.15
418.857	466.42
419.065	486.9
419.273	546.3
419.481	572.92
419.689	636.41
419.897	562.68
420.105	593.4
420.313	720.37
420.521	654.84
420.729	697.85
420.937	687.61
421.145	732.66
421.353	769.52
421.561	849.4
421.769	806.39
421.977	884.21
422.185	847.35
422.393	904.69
422.601	1023.47
422.809	966.13
423.017	939.51
423.224	945.65
423.432	1062.38
423.64	914.93
423.848	1101.3
424.056	1066.48
424.263	1191.41
424.471	1269.23
424.679	1263.08
424.887	1330.67
425.094	1297.9
425.302	1316.33
425.51	1402.35
425.718	1420.78
425.925	1412.59
426.133	1467.88
426.341	1648.1
426.548	1695.21
426.756	1691.11
426.964	1736.17
427.171	1734.12
427.379	1740.26
427.586	1863.14
427.794	1877.48
428.001	1988.07
428.209	2182.62
428.417	1969.63
428.624	2162.14
428.832	2350.56
429.039	2174.43
429.247	2256.35
429.454	2297.31
429.662	2489.82
429.869	2266.59
430.076	2598.36
430.284	2440.67
430.491	2606.55
430.699	2758.1
430.906	2676.18
431.114	2678.23
431.321	2835.92
431.528	2782.68
431.736	3104.21
431.943	3165.65
432.15	3229.13
432.358	3266
432.565	3358.16
432.772	3266
432.979	3384.78
433.187	3460.56
433.394	3587.53
433.601	3734.98
433.808	3734.98
434.016	3806.66
434.223	4093.38
434.43	4416.96
434.637	4142.53
434.844	4322.75
435.052	4355.52
435.259	4318.65
435.466	4554.17
435.673	4486.59
435.88	4636.09
436.087	4894.13
436.294	5004.72
436.501	4767.16
436.708	4834.74
436.915	5051.83
437.122	5455.28
437.329	5248.43
437.537	5596.59
437.743	5643.69
437.95	5610.92
438.157	5696.94
438.364	6018.47
438.571	6077.86
438.778	6131.11
438.985	6751.64
439.192	6303.14
439.399	6655.39
439.606	6309.28
439.813	6700.44
440.02	7126.42
440.227	7148.95
440.433	7058.84
440.64	7204.24
440.847	7306.64
441.054	7372.18
441.261	7925.13
441.467	7669.13
441.674	8033.67
441.881	8170.88
442.088	8248.71
442.294	8140.16
442.501	8490.37
442.708	8525.18
442.914	8998.26
443.121	9213.3
443.328	9164.15
443.534	9665.9
443.741	9350.51
443.948	9370.99
444.154	9925.99
444.361	10014.06
444.568	9921.9
444.774	9966.95
444.981	10231.14
445.187	10489.18
445.394	10775.9
445.6	10745.18
445.807	11556.18
446.013	11369.81
446.22	11580.75
446.426	11889.99
446.633	12193.09
446.839	12533.06
447.046	11982.15
447.252	12459.33
447.459	12582.21
447.665	12684.61
447.871	13204.79
448.078	14058.79
448.284	13198.65
448.491	13346.1
448.697	14214.44
448.903	14527.78
449.11	14550.31
449.316	14097.7
449.522	14443.81
449.728	14980.38
449.935	15033.63
450.141	14964
450.347	15531.28
450.553	14628.13
450.76	15371.54
450.966	15752.46
451.172	15420.69
451.378	15897.87
451.584	15572.24
451.791	15893.77
451.997	15621.39
452.203	16393.48
452.409	16192.78
452.615	16004.36
452.821	15543.57
453.027	15222.04
453.233	16280.84
453.44	15484.18
453.646	15955.21
453.852	15695.12
454.058	15938.83
454.264	15480.08
454.47	15936.78
454.676	15609.11
454.882	15832.33
455.088	14714.14
455.294	14970.14
455.5	15017.24
455.705	15359.25
455.911	14617.89
456.117	14394.66
456.323	14357.8
456.529	13618.48
456.735	14036.27
456.941	13796.65
457.147	13471.03
457.352	12989.75
457.558	13004.09
457.764	12852.54
457.97	12885.31
458.176	12442.95
458.381	12389.7
458.587	12014.92
458.793	12217.67
458.999	11226.45
459.204	12025.16
459.41	11822.41
459.616	10794.33
459.821	11111.77
460.027	10919.26
460.233	10763.61
460.438	10032.49
460.644	10403.17
460.85	9717.1
461.055	9721.2
461.261	9778.54
461.466	9100.66
461.672	8707.45
461.878	9272.69
462.083	8453.5
462.289	8451.46
462.494	8424.83
462.7	8144.26
462.905	7869.83
463.111	8127.88
463.316	8054.15
463.522	8019.33
463.727	7984.52
463.932	7892.36
464.138	7769.48
464.343	7781.77
464.549	7789.96
464.754	7873.93
464.959	7652.75
465.165	7837.06
465.37	7370.13
465.575	7241.11
465.781	7662.99
465.986	7650.7
466.191	7271.83
466.397	7091.6
466.602	6860.18
466.807	7034.26
467.012	7146.9
467.218	6968.73
467.423	6978.97
467.628	7085.46
467.833	7198.1
468.038	6901.14
468.244	6954.39
468.449	7107.99
468.654	6909.33
468.859	6921.62
469.064	6641.05
