Data from USB4F104151__27__12-58-45-628.txt Node

Date: Fri Mar 14 12:58:45 EDT 2025
User: louis
Spectrometer: USB4F10415
Trigger mode: 4
Integration Time (sec): 1.000000E-2
Scans to average: 1
Electric dark correction enabled: true
Nonlinearity correction enabled: false
Boxcar width: 0
XAxis mode: Wavelengths
Number of Pixels in Spectrum: 3648
>>>>>Begin Spectral Data<<<<<
178.204	-75.95
178.424	-75.95
178.644	-75.95
178.864	-14.51
179.084	-49.32
179.304	-34.99
179.524	65.36
179.744	-0.17
179.964	-43.18
180.184	-12.46
180.404	-4.27
180.624	14.17
180.844	-32.94
181.064	30.55
181.283	-4.27
181.503	-16.55
181.723	38.74
181.943	30.55
182.163	36.69
182.383	-28.84
182.602	22.36
182.822	53.08
183.042	8.02
183.262	-24.75
183.482	-0.17
183.701	3.93
183.921	-18.6
184.141	12.12
184.361	-26.79
184.58	10.07
184.8	106.32
185.02	-59.56
185.239	53.08
185.459	61.27
185.679	34.64
185.898	16.21
186.118	57.17
186.338	53.08
186.557	5.97
186.777	77.65
186.997	-28.84
187.216	83.8
187.436	53.08
187.655	34.64
187.875	61.27
188.095	1.88
188.314	61.27
188.534	53.08
188.753	-20.65
188.973	-18.6
189.192	57.17
189.412	-47.27
189.631	-16.55
189.851	1.88
190.07	34.64
190.29	79.7
190.509	-4.27
190.729	-10.41
190.948	94.04
191.168	53.08
191.387	34.64
191.607	32.6
191.826	30.55
192.045	-28.84
192.265	73.56
192.484	5.97
192.704	75.6
192.923	-32.94
193.142	24.4
193.362	81.75
193.581	79.7
193.8	-18.6
194.02	20.31
194.239	28.5
194.458	18.26
194.678	8.02
194.897	-16.55
195.116	14.17
195.335	-26.79
195.555	5.97
195.774	20.31
195.993	55.12
196.212	30.55
196.432	22.36
196.651	12.12
196.87	10.07
197.089	24.4
197.308	79.7
197.528	34.64
197.747	24.4
197.966	1.88
198.185	38.74
198.404	67.41
198.623	34.64
198.842	73.56
199.062	34.64
199.281	-86.19
199.5	-37.03
199.719	-37.03
199.938	-30.89
200.157	38.74
200.376	-2.22
200.595	20.31
200.814	-84.14
201.033	-30.89
201.252	48.98
201.471	69.46
201.69	63.32
201.909	104.28
202.128	30.55
202.347	42.84
202.566	42.84
202.785	36.69
203.004	16.21
203.223	81.75
203.442	48.98
203.661	28.5
203.879	-59.56
204.098	-12.46
204.317	-22.7
204.536	96.08
204.755	8.02
204.974	38.74
205.193	-16.55
205.411	53.08
205.63	-10.41
205.849	53.08
206.068	28.5
206.287	73.56
206.505	5.97
206.724	-39.08
206.943	-16.55
207.162	53.08
207.381	69.46
207.599	-24.75
207.818	38.74
208.037	-8.36
208.255	48.98
208.474	-22.7
208.693	-24.75
208.911	-2.22
209.13	14.17
209.349	12.12
209.567	8.02
209.786	63.32
210.005	34.64
210.223	10.07
210.442	28.5
210.661	44.88
210.879	30.55
211.098	73.56
211.316	12.12
211.535	-6.31
211.753	-22.7
211.972	40.79
212.191	32.6
212.409	28.5
212.628	32.6
212.846	36.69
213.065	-39.08
213.283	-10.41
213.502	14.17
213.72	30.55
213.938	32.6
214.157	-4.27
214.375	53.08
214.594	-30.89
214.812	-4.27
215.031	-28.84
215.249	34.64
215.467	61.27
215.686	40.79
215.904	51.03
216.122	-6.31
216.341	32.6
216.559	83.8
216.778	22.36
216.996	36.69
217.214	-14.51
217.432	-2.22
217.651	36.69
217.869	40.79
218.087	87.89
218.306	-45.23
218.524	30.55
218.742	30.55
218.96	42.84
219.179	-57.51
219.397	12.12
219.615	-26.79
219.833	-39.08
220.051	71.51
220.27	-26.79
220.488	155.47
220.706	-6.31
220.924	-12.46
221.142	3.93
221.36	-20.65
221.578	-18.6
221.796	36.69
222.015	12.12
222.233	61.27
222.451	-6.31
222.669	-45.23
222.887	-8.36
223.105	-26.79
223.323	61.27
223.541	34.64
223.759	110.42
223.977	-8.36
224.195	-2.22
224.413	44.88
224.631	-26.79
224.849	-0.17
225.067	24.4
225.285	40.79
225.503	28.5
225.721	34.64
225.939	91.99
226.157	-8.36
226.375	67.41
226.592	-75.95
226.81	5.97
227.028	44.88
227.246	10.07
227.464	120.66
227.682	34.64
227.9	-43.18
228.117	48.98
228.335	-8.36
228.553	69.46
228.771	38.74
228.989	14.17
229.206	61.27
229.424	5.97
229.642	34.64
229.86	34.64
230.077	-0.17
230.295	-37.03
230.513	67.41
230.731	28.5
230.948	48.98
231.166	-12.46
231.384	36.69
231.601	20.31
231.819	40.79
232.037	53.08
232.254	-4.27
232.472	65.36
232.689	-18.6
232.907	40.79
233.125	10.07
233.342	73.56
233.56	-47.27
233.777	-30.89
233.995	55.12
234.213	112.47
234.43	-24.75
234.648	48.98
234.865	-34.99
235.083	34.64
235.3	46.93
235.518	57.17
235.735	28.5
235.953	55.12
236.17	16.21
236.388	12.12
236.605	24.4
236.822	57.17
237.04	69.46
237.257	-4.27
237.475	14.17
237.692	-4.27
237.909	-6.31
238.127	-8.36
238.344	16.21
238.562	-26.79
238.779	3.93
238.996	16.21
239.214	-8.36
239.431	18.26
239.648	-24.75
239.865	-10.41
240.083	8.02
240.3	67.41
240.517	24.4
240.735	1.88
240.952	85.84
241.169	44.88
241.386	-55.47
241.603	22.36
241.821	-10.41
242.038	69.46
242.255	5.97
242.472	22.36
242.689	12.12
242.907	79.7
243.124	106.32
243.341	-4.27
243.558	28.5
243.775	44.88
243.992	38.74
244.209	16.21
244.426	55.12
244.643	57.17
244.86	-39.08
245.078	-10.41
245.295	57.17
245.512	28.5
245.729	-18.6
245.946	22.36
246.163	40.79
246.38	-4.27
246.597	-2.22
246.814	55.12
247.031	-18.6
247.248	36.69
247.464	-2.22
247.681	-4.27
247.898	46.93
248.115	63.32
248.332	30.55
248.549	42.84
248.766	61.27
248.983	75.6
249.2	42.84
249.417	-18.6
249.633	-0.17
249.85	-59.56
250.067	-45.23
250.284	63.32
250.501	30.55
250.717	-49.32
250.934	-71.85
251.151	16.21
251.368	-10.41
251.585	42.84
251.801	-24.75
252.018	-61.61
252.235	28.5
252.451	-8.36
252.668	28.5
252.885	22.36
253.102	32.6
253.318	-22.7
253.535	28.5
253.752	3.93
253.968	32.6
254.185	28.5
254.401	22.36
254.618	40.79
254.835	-28.84
255.051	-20.65
255.268	-32.94
255.484	44.88
255.701	-10.41
255.917	22.36
256.134	26.45
256.351	18.26
256.567	61.27
256.784	22.36
257	-94.38
257.217	48.98
257.433	18.26
257.65	10.07
257.866	20.31
258.082	22.36
258.299	32.6
258.515	57.17
258.732	26.45
258.948	36.69
259.165	-37.03
259.381	55.12
259.597	-26.79
259.814	67.41
260.03	-28.84
260.246	48.98
260.463	30.55
260.679	24.4
260.895	12.12
261.112	57.17
261.328	16.21
261.544	61.27
261.761	-0.17
261.977	10.07
262.193	3.93
262.409	42.84
262.626	24.4
262.842	36.69
263.058	-2.22
263.274	42.84
263.49	38.74
263.707	28.5
263.923	-47.27
264.139	128.85
264.355	-12.46
264.571	38.74
264.787	-12.46
265.004	20.31
265.22	14.17
265.436	87.89
265.652	73.56
265.868	8.02
266.084	-61.61
266.3	61.27
266.516	-43.18
266.732	16.21
266.948	57.17
267.164	79.7
267.38	-41.13
267.596	-26.79
267.812	-20.65
268.028	42.84
268.244	12.12
268.46	79.7
268.676	1.88
268.892	3.93
269.108	38.74
269.324	81.75
269.54	24.4
269.756	67.41
269.972	38.74
270.188	63.32
270.403	36.69
270.619	18.26
270.835	-28.84
271.051	16.21
271.267	-20.65
271.483	26.45
271.698	38.74
271.914	-67.75
272.13	32.6
272.346	16.21
272.562	32.6
272.777	32.6
272.993	-24.75
273.209	55.12
273.425	40.79
273.64	63.32
273.856	-39.08
274.072	-18.6
274.287	44.88
274.503	53.08
274.719	-34.99
274.934	-26.79
275.15	-69.8
275.366	-6.31
275.581	16.21
275.797	61.27
276.012	34.64
276.228	61.27
276.444	22.36
276.659	32.6
276.875	-43.18
277.09	77.65
277.306	36.69
277.521	36.69
277.737	-4.27
277.952	20.31
278.168	53.08
278.383	53.08
278.599	3.93
278.814	-28.84
279.03	-43.18
279.245	28.5
279.461	34.64
279.676	38.74
279.892	28.5
280.107	-22.7
280.322	10.07
280.538	-10.41
280.753	1.88
280.969	-8.36
281.184	67.41
281.399	18.26
281.615	26.45
281.83	-20.65
282.045	16.21
282.26	12.12
282.476	77.65
282.691	36.69
282.906	55.12
283.122	8.02
283.337	-4.27
283.552	61.27
283.767	83.8
283.983	-6.31
284.198	-6.31
284.413	61.27
284.628	-55.47
284.843	3.93
285.058	48.98
285.274	-10.41
285.489	5.97
285.704	63.32
285.919	14.17
286.134	-37.03
286.349	53.08
286.564	24.4
286.779	34.64
286.995	79.7
287.21	-14.51
287.425	-6.31
287.64	53.08
287.855	59.22
288.07	28.5
288.285	-0.17
288.5	-32.94
288.715	63.32
288.93	-32.94
289.145	42.84
289.36	24.4
289.575	18.26
289.79	44.88
290.004	-0.17
290.219	32.6
290.434	38.74
290.649	46.93
290.864	12.12
291.079	-26.79
291.294	14.17
291.509	34.64
291.724	34.64
291.938	53.08
292.153	48.98
292.368	73.56
292.583	69.46
292.798	-16.55
293.012	-28.84
293.227	-0.17
293.442	67.41
293.657	-30.89
293.871	-47.27
294.086	53.08
294.301	12.12
294.516	-20.65
294.73	-8.36
294.945	51.03
295.16	12.12
295.374	34.64
295.589	40.79
295.804	-57.51
296.018	20.31
296.233	30.55
296.447	8.02
296.662	18.26
296.877	-8.36
297.091	-2.22
297.306	26.45
297.52	12.12
297.735	112.47
297.949	77.65
298.164	53.08
298.378	-10.41
298.593	85.84
298.807	-65.71
299.022	24.4
299.236	44.88
299.451	36.69
299.665	38.74
299.88	126.8
300.094	-65.71
300.309	-37.03
300.523	48.98
300.737	12.12
300.952	44.88
301.166	3.93
301.381	-2.22
301.595	46.93
301.809	-53.42
302.024	22.36
302.238	-4.27
302.452	36.69
302.667	-30.89
302.881	-8.36
303.095	-8.36
303.309	20.31
303.524	65.36
303.738	-65.71
303.952	24.4
304.166	40.79
304.381	32.6
304.595	128.85
304.809	-4.27
305.023	24.4
305.237	61.27
305.452	16.21
305.666	53.08
305.88	20.31
306.094	36.69
306.308	55.12
306.522	10.07
306.736	-32.94
306.95	12.12
307.164	65.36
307.379	-18.6
307.593	69.46
307.807	38.74
308.021	100.18
308.235	38.74
308.449	-53.42
308.663	-39.08
308.877	18.26
309.091	16.21
309.305	100.18
309.519	12.12
309.733	20.31
309.947	-14.51
310.161	59.22
310.374	36.69
310.588	42.84
310.802	16.21
311.016	3.93
311.23	94.04
311.444	18.26
311.658	10.07
311.872	32.6
312.085	32.6
312.299	-18.6
312.513	96.08
312.727	-43.18
312.941	36.69
313.154	28.5
313.368	51.03
313.582	-80.04
313.796	5.97
314.009	63.32
314.223	104.28
314.437	-28.84
314.651	-4.27
314.864	81.75
315.078	44.88
315.292	69.46
315.505	79.7
315.719	55.12
315.933	87.89
316.146	48.98
316.36	12.12
316.573	69.46
316.787	20.31
317.001	71.51
317.214	36.69
317.428	79.7
317.641	-6.31
317.855	-18.6
318.068	26.45
318.282	22.36
318.495	38.74
318.709	-24.75
318.922	20.31
319.136	53.08
319.349	28.5
319.563	-26.79
319.776	-37.03
319.99	-30.89
320.203	14.17
320.417	38.74
320.63	42.84
320.843	36.69
321.057	36.69
321.27	79.7
321.483	-18.6
321.697	63.32
321.91	44.88
322.124	26.45
322.337	77.65
322.55	8.02
322.763	24.4
322.977	18.26
323.19	57.17
323.403	28.5
323.617	48.98
323.83	22.36
324.043	20.31
324.256	-16.55
324.469	67.41
324.683	55.12
324.896	-0.17
325.109	26.45
325.322	53.08
325.535	63.32
325.748	57.17
325.962	14.17
326.175	61.27
326.388	89.94
326.601	51.03
326.814	-2.22
327.027	46.93
327.24	16.21
327.453	-41.13
327.666	-0.17
327.879	61.27
328.092	-2.22
328.305	18.26
328.518	34.64
328.731	-28.84
328.944	40.79
329.157	32.6
329.37	32.6
329.583	-2.22
329.796	32.6
330.009	30.55
330.222	55.12
330.435	-2.22
330.648	-20.65
330.861	26.45
331.073	96.08
331.286	96.08
331.499	14.17
331.712	83.8
331.925	44.88
332.138	-12.46
332.35	61.27
332.563	55.12
332.776	22.36
332.989	53.08
333.202	20.31
333.414	-12.46
333.627	36.69
333.84	59.22
334.053	91.99
334.265	-2.22
334.478	38.74
334.691	57.17
334.903	18.26
335.116	-22.7
335.329	46.93
335.541	38.74
335.754	53.08
335.966	73.56
336.179	53.08
336.392	-53.42
336.604	-30.89
336.817	-49.32
337.029	-14.51
337.242	-16.55
337.454	71.51
337.667	20.31
337.88	-4.27
338.092	69.46
338.305	36.69
338.517	36.69
338.729	16.21
338.942	-37.03
339.154	57.17
339.367	75.6
339.579	-32.94
339.792	-18.6
340.004	8.02
340.217	-20.65
340.429	83.8
340.641	5.97
340.854	12.12
341.066	71.51
341.278	73.56
341.491	22.36
341.703	16.21
341.915	38.74
342.128	63.32
342.34	14.17
342.552	38.74
342.764	48.98
342.977	53.08
343.189	40.79
343.401	-10.41
343.613	26.45
343.826	-2.22
344.038	46.93
344.25	44.88
344.462	-8.36
344.674	30.55
344.886	1.88
345.099	53.08
345.311	24.4
345.523	5.97
345.735	30.55
345.947	38.74
346.159	57.17
346.371	14.17
346.583	32.6
346.795	18.26
347.007	10.07
347.219	51.03
347.431	44.88
347.643	28.5
347.855	48.98
348.067	81.75
348.279	18.26
348.491	40.79
348.703	75.6
348.915	32.6
349.127	-43.18
349.339	28.5
349.551	40.79
349.763	-0.17
349.975	26.45
350.187	16.21
350.399	5.97
350.61	55.12
350.822	10.07
351.034	20.31
351.246	28.5
351.458	36.69
351.669	8.02
351.881	53.08
352.093	61.27
352.305	77.65
352.517	-4.27
352.728	65.36
352.94	40.79
353.152	1.88
353.363	59.22
353.575	-37.03
353.787	22.36
353.999	20.31
354.21	-8.36
354.422	28.5
354.633	48.98
354.845	28.5
355.057	1.88
355.268	48.98
355.48	8.02
355.692	40.79
355.903	-2.22
356.115	38.74
356.326	-61.61
356.538	55.12
356.749	46.93
356.961	24.4
357.172	38.74
357.384	42.84
357.595	46.93
357.807	40.79
358.018	75.6
358.23	5.97
358.441	75.6
358.653	61.27
358.864	67.41
359.075	22.36
359.287	18.26
359.498	40.79
359.709	46.93
359.921	-14.51
360.132	38.74
360.344	1.88
360.555	32.6
360.766	51.03
360.977	28.5
361.189	71.51
361.4	-14.51
361.611	38.74
361.823	77.65
362.034	-49.32
362.245	-30.89
362.456	-61.61
362.667	-10.41
362.879	-24.75
363.09	24.4
363.301	46.93
363.512	63.32
363.723	55.12
363.935	59.22
364.146	30.55
364.357	42.84
364.568	28.5
364.779	34.64
364.99	34.64
365.201	-2.22
365.412	32.6
365.623	-0.17
365.834	24.4
366.045	-30.89
366.256	-39.08
366.467	63.32
366.678	26.45
366.889	61.27
367.1	-20.65
367.311	83.8
367.522	-18.6
367.733	12.12
367.944	63.32
368.155	-0.17
368.366	32.6
368.577	135
368.788	12.12
368.999	-10.41
369.209	44.88
369.42	106.32
369.631	77.65
369.842	-0.17
370.053	-28.84
370.264	-34.99
370.474	108.37
370.685	-10.41
370.896	-16.55
371.107	75.6
371.317	59.22
371.528	69.46
371.739	3.93
371.95	16.21
372.16	65.36
372.371	10.07
372.582	-6.31
372.792	-71.85
373.003	67.41
373.214	44.88
373.424	38.74
373.635	8.02
373.846	63.32
374.056	46.93
374.267	44.88
374.477	12.12
374.688	73.56
374.898	14.17
375.109	69.46
375.319	75.6
375.53	-8.36
375.74	42.84
375.951	79.7
376.161	28.5
376.372	24.4
376.582	46.93
376.793	44.88
377.003	34.64
377.214	46.93
377.424	53.08
377.635	55.12
377.845	55.12
378.055	116.56
378.266	53.08
378.476	3.93
378.686	1.88
378.897	44.88
379.107	53.08
379.317	32.6
379.528	14.17
379.738	44.88
379.948	28.5
380.158	36.69
380.369	-39.08
380.579	87.89
380.789	-4.27
380.999	12.12
381.21	67.41
381.42	65.36
381.63	24.4
381.84	77.65
382.05	104.28
382.261	42.84
382.471	98.13
382.681	81.75
382.891	26.45
383.101	-16.55
383.311	22.36
383.521	48.98
383.731	63.32
383.941	34.64
384.151	5.97
384.361	55.12
384.571	94.04
384.781	3.93
384.991	83.8
385.201	30.55
385.411	34.64
385.621	83.8
385.831	42.84
386.041	-18.6
386.251	40.79
386.461	55.12
386.671	46.93
386.881	75.6
387.091	44.88
387.301	22.36
387.511	42.84
387.72	46.93
387.93	69.46
388.14	28.5
388.35	-12.46
388.56	104.28
388.769	-8.36
388.979	-18.6
389.189	32.6
389.399	46.93
389.609	26.45
389.818	91.99
390.028	36.69
390.238	77.65
390.447	30.55
390.657	38.74
390.867	53.08
391.076	30.55
391.286	-18.6
391.496	28.5
391.705	73.56
391.915	61.27
392.125	42.84
392.334	38.74
392.544	14.17
392.753	96.08
392.963	94.04
393.172	48.98
393.382	59.22
393.591	71.51
393.801	14.17
394.01	79.7
394.22	89.94
394.429	71.51
394.639	18.26
394.848	12.12
395.058	124.76
395.267	40.79
395.477	36.69
395.686	22.36
395.895	81.75
396.105	71.51
396.314	36.69
396.524	73.56
396.733	8.02
396.942	122.71
397.152	24.4
397.361	79.7
397.57	94.04
397.78	38.74
397.989	130.9
398.198	85.84
398.407	46.93
398.617	44.88
398.826	89.94
399.035	71.51
399.244	61.27
399.453	85.84
399.663	-20.65
399.872	61.27
400.081	65.36
400.29	61.27
400.499	8.02
400.708	85.84
400.917	65.36
401.127	-8.36
401.336	26.45
401.545	87.89
401.754	94.04
401.963	126.8
402.172	24.4
402.381	28.5
402.59	59.22
402.799	12.12
403.008	38.74
403.217	46.93
403.426	59.22
403.635	89.94
403.844	116.56
404.053	130.9
404.262	77.65
404.471	73.56
404.68	94.04
404.888	42.84
405.097	89.94
405.306	63.32
405.515	108.37
405.724	139.09
405.933	128.85
406.142	130.9
406.35	91.99
406.559	75.6
406.768	57.17
406.977	89.94
407.185	110.42
407.394	57.17
407.603	124.76
407.812	85.84
408.02	38.74
408.229	135
408.438	28.5
408.646	130.9
408.855	178
409.064	130.9
409.272	128.85
409.481	161.62
409.69	157.52
409.898	110.42
410.107	126.8
410.315	83.8
410.524	106.32
410.733	75.6
410.941	210.77
411.15	173.91
411.358	169.81
411.567	300.88
411.775	159.57
411.984	188.24
412.192	204.63
412.401	143.19
412.609	202.58
412.818	225.11
413.026	206.67
413.234	307.02
413.443	192.34
413.651	307.02
413.86	266.07
414.068	282.45
414.276	276.31
414.485	237.39
414.693	339.79
414.901	343.89
415.11	329.55
415.318	282.45
415.526	366.42
415.734	309.07
415.943	405.33
416.151	452.43
416.359	413.52
416.567	405.33
416.776	431.95
416.984	434
417.192	347.98
417.4	495.44
417.608	558.92
417.817	491.34
418.025	470.86
418.233	560.97
418.441	520.01
418.649	526.16
418.857	665.42
419.065	597.84
419.273	577.36
419.481	622.41
419.689	642.89
419.897	753.48
420.105	669.52
420.313	694.09
420.521	612.17
420.729	720.71
420.937	761.67
421.145	825.16
421.353	974.66
421.561	880.46
421.769	905.03
421.977	933.7
422.185	839.5
422.393	1011.53
422.601	1023.81
422.809	1013.57
423.017	978.76
423.224	1212.23
423.432	1156.93
423.64	1077.06
423.848	1222.47
424.056	1288
424.263	1259.33
424.471	1312.58
424.679	1302.34
424.887	1447.74
425.094	1353.54
425.302	1447.74
425.51	1548.09
425.718	1505.09
425.925	1658.68
426.133	1613.63
426.341	1705.79
426.548	1840.95
426.756	1873.72
426.964	1742.65
427.171	1843
427.379	2021.17
427.586	2086.71
427.794	2113.33
428.001	2219.83
428.209	2225.97
428.417	2240.31
428.624	2354.99
428.832	2348.85
429.039	2404.14
429.247	2316.08
429.454	2545.45
429.662	2764.59
429.869	2586.41
430.076	2819.88
430.284	2682.67
430.491	2889.51
430.699	3034.92
430.906	2916.14
431.114	3014.44
431.321	3049.25
431.528	3161.89
431.736	3426.08
431.943	3419.94
432.15	3362.59
432.358	3417.89
432.565	3698.46
432.772	3661.6
432.979	3852.06
433.187	3874.59
433.394	3858.2
433.601	4149.01
433.808	4251.41
434.016	4112.15
434.223	4427.54
434.43	4615.95
434.637	4364.05
434.844	4896.52
435.052	4884.23
435.259	4873.99
435.466	4994.83
435.673	4980.49
435.88	5216.01
436.087	5562.11
436.294	5332.74
436.501	5476.1
436.708	5474.05
436.915	5902.08
437.122	5934.84
437.329	5861.12
437.537	5904.12
437.743	6061.82
437.95	6121.21
438.157	6553.33
438.364	6608.62
438.571	6684.4
438.778	6737.65
438.985	7343.85
439.192	6854.38
439.399	7325.41
439.606	6987.5
439.813	7419.62
440.02	7765.73
440.227	7694.05
440.433	7739.1
440.64	7943.9
440.847	7902.94
441.054	8214.23
441.261	8709.84
441.467	8459.99
441.674	8736.46
441.881	9047.76
442.088	9004.75
442.294	8957.64
442.501	9207.5
442.708	9328.33
442.914	9600.71
443.121	10145.47
443.328	9934.53
443.534	10563.25
443.741	10313.4
443.948	10225.34
444.154	10956.46
444.361	10880.69
444.568	11026.09
444.774	10976.94
444.981	11042.48
445.187	11325.1
445.394	12033.69
445.6	11671.2
445.807	12975.76
446.013	12541.59
446.22	12517.01
446.426	13139.6
446.633	13053.58
446.839	13737.6
447.046	13069.97
447.252	13631.11
447.459	13928.06
447.665	13635.21
447.871	14405.24
448.078	14960.24
448.284	14548.6
448.491	15087.22
448.697	15443.56
448.903	15691.37
449.11	15820.39
449.316	15482.47
449.522	15812.2
449.728	16086.62
449.935	16184.93
450.141	16430.68
450.347	16856.66
450.553	16311.9
450.76	16471.64
450.966	16954.96
451.172	16920.15
451.378	17280.59
451.584	17002.07
451.791	17325.64
451.997	17516.11
452.203	17473.1
452.409	17722.95
452.615	17421.9
452.821	16803.41
453.027	16660.06
453.233	17583.69
453.44	17323.6
453.646	16916.05
453.852	17360.46
454.058	17548.87
454.264	16981.59
454.47	17356.36
454.676	17088.08
454.882	17608.26
455.088	15965.79
455.294	16256.61
455.5	16741.97
455.705	16678.49
455.911	16062.05
456.117	15826.53
456.323	15408.75
456.529	14407.29
456.735	15271.53
456.941	15087.22
457.147	14513.78
457.352	14198.4
457.558	14179.96
457.764	14061.18
457.97	13811.33
458.176	13567.62
458.381	13604.49
458.587	13063.82
458.793	13051.53
458.999	12185.24
459.204	13215.37
459.41	12822.16
459.616	11962.01
459.821	11851.42
460.027	11878.05
460.233	11531.94
460.438	10913.45
460.644	11148.97
460.85	10679.99
461.055	10510
461.261	10497.72
461.466	9760.45
461.672	9260.74
461.878	10088.12
462.083	9238.22
462.289	9344.71
462.494	9103.05
462.7	8765.14
462.905	8468.18
463.111	8826.57
463.316	8789.71
463.522	8703.7
463.727	8654.55
463.932	8564.43
464.138	8724.18
464.343	8644.31
464.549	8390.36
464.754	8650.45
464.959	8509.14
465.165	8558.29
465.37	8152.79
465.575	7943.9
465.781	8206.04
465.986	8265.43
466.191	7876.32
466.397	7929.56
466.602	7565.03
466.807	7913.18
467.012	7972.57
467.218	7872.22
467.423	7569.12
467.628	7786.21
467.833	8058.59
468.038	7616.23
468.244	7390.95
468.449	7745.25
468.654	7585.51
468.859	7415.52
469.064	7507.68
469.269	7206.63
469.474	7132.9
469.679	7206.63
