Data from USB4F104151__7__12-58-26-803.txt Node

Date: Fri Mar 14 12:58:26 EDT 2025
User: louis
Spectrometer: USB4F10415
Trigger mode: 4
Integration Time (sec): 1.000000E-2
Scans to average: 1
Electric dark correction enabled: true
Nonlinearity correction enabled: false
Boxcar width: 0
XAxis mode: Wavelengths
Number of Pixels in Spectrum: 3648
>>>>>Begin Spectral Data<<<<<
178.204	-73.73
178.424	-73.73
178.644	-73.73
178.864	-143.36
179.084	-63.49
179.304	-38.91
179.524	-24.58
179.744	-2.05
179.964	-38.91
180.184	-2.05
180.404	-2.05
180.624	28.67
180.844	40.96
181.064	-36.86
181.283	24.58
181.503	-8.19
181.723	59.39
181.943	-94.21
182.163	-4.1
182.383	10.24
182.602	-10.24
182.822	2.05
183.042	-28.67
183.262	12.29
183.482	-12.29
183.701	16.38
183.921	-45.06
184.141	-4.1
184.361	2.05
184.58	40.96
184.8	45.06
185.02	-38.91
185.239	-28.67
185.459	63.49
185.679	-4.1
185.898	-63.49
186.118	-22.53
186.338	-22.53
186.557	43.01
186.777	8.19
186.997	0
187.216	-16.38
187.436	53.25
187.655	-22.53
187.875	43.01
188.095	20.48
188.314	2.05
188.534	-8.19
188.753	20.48
188.973	12.29
189.192	14.34
189.412	-20.48
189.631	83.97
189.851	53.25
190.07	-14.34
190.29	12.29
190.509	-12.29
190.729	-10.24
190.948	100.35
191.168	24.58
191.387	86.01
191.607	-16.38
191.826	4.1
192.045	69.63
192.265	69.63
192.484	2.05
192.704	-2.05
192.923	-4.1
193.142	14.34
193.362	16.38
193.581	12.29
193.8	-104.45
194.02	6.14
194.239	57.34
194.458	-2.05
194.678	-2.05
194.897	38.91
195.116	59.39
195.335	-22.53
195.555	-10.24
195.774	-12.29
195.993	-4.1
196.212	-47.1
196.432	12.29
196.651	55.3
196.87	-2.05
197.089	47.1
197.308	0
197.528	40.96
197.747	28.67
197.966	-26.62
198.185	-36.86
198.404	8.19
198.623	75.77
198.842	-14.34
199.062	63.49
199.281	10.24
199.5	73.73
199.719	28.67
199.938	24.58
200.157	32.77
200.376	71.68
200.595	59.39
200.814	-65.53
201.033	-14.34
201.252	40.96
201.471	0
201.69	22.53
201.909	-18.43
202.128	-14.34
202.347	40.96
202.566	69.63
202.785	2.05
203.004	34.82
203.223	36.86
203.442	-4.1
203.661	-12.29
203.879	18.43
204.098	67.58
204.317	38.91
204.536	-38.91
204.755	-2.05
204.974	88.06
205.193	34.82
205.411	16.38
205.63	0
205.849	28.67
206.068	26.62
206.287	-26.62
206.505	30.72
206.724	22.53
206.943	-18.43
207.162	6.14
207.381	-4.1
207.599	-24.58
207.818	59.39
208.037	-12.29
208.255	-40.96
208.474	-22.53
208.693	-6.14
208.911	51.2
209.13	2.05
209.349	53.25
209.567	92.16
209.786	28.67
210.005	40.96
210.223	43.01
210.442	8.19
210.661	36.86
210.879	22.53
211.098	18.43
211.316	-43.01
211.535	10.24
211.753	6.14
211.972	34.82
212.191	-14.34
212.409	4.1
212.628	51.2
212.846	16.38
213.065	36.86
213.283	20.48
213.502	10.24
213.72	10.24
213.938	-12.29
214.157	-16.38
214.375	-22.53
214.594	-22.53
214.812	38.91
215.031	6.14
215.249	-38.91
215.467	53.25
215.686	-79.87
215.904	43.01
216.122	32.77
216.341	98.3
216.559	32.77
216.778	30.72
216.996	-59.39
217.214	-12.29
217.432	55.3
217.651	-18.43
217.869	8.19
218.087	6.14
218.306	-4.1
218.524	-36.86
218.742	-63.49
218.96	10.24
219.179	6.14
219.397	45.06
219.615	12.29
219.833	32.77
220.051	2.05
220.27	10.24
220.488	43.01
220.706	47.1
220.924	34.82
221.142	10.24
221.36	24.58
221.578	61.44
221.796	12.29
222.015	20.48
222.233	30.72
222.451	6.14
222.669	2.05
222.887	6.14
223.105	-20.48
223.323	-14.34
223.541	28.67
223.759	14.34
223.977	-30.72
224.195	65.54
224.413	0
224.631	69.63
224.849	-4.1
225.067	57.34
225.285	49.15
225.503	26.62
225.721	45.06
225.939	-22.53
226.157	2.05
226.375	83.97
226.592	4.1
226.81	-43.01
227.028	12.29
227.246	22.53
227.464	30.72
227.682	34.82
227.9	18.43
228.117	63.49
228.335	-88.06
228.553	0
228.771	20.48
228.989	36.86
229.206	55.3
229.424	-6.14
229.642	-38.91
229.86	-30.72
230.077	67.58
230.295	61.44
230.513	30.72
230.731	-24.58
230.948	32.77
231.166	81.92
231.384	-26.62
231.601	40.96
231.819	22.53
232.037	-55.3
232.254	-51.2
232.472	-6.14
232.689	-96.25
232.907	53.25
233.125	-20.48
233.342	38.91
233.56	8.19
233.777	6.14
233.995	22.53
234.213	45.06
234.43	55.3
234.648	59.39
234.865	-2.05
235.083	28.67
235.3	-28.67
235.518	30.72
235.735	-6.14
235.953	26.62
236.17	-49.15
236.388	10.24
236.605	-18.43
236.822	-18.43
237.04	20.48
237.257	28.67
237.475	-8.19
237.692	26.62
237.909	-18.43
238.127	-63.49
238.344	51.2
238.562	18.43
238.779	-14.34
238.996	-10.24
239.214	43.01
239.431	24.58
239.648	36.86
239.865	18.43
240.083	10.24
240.3	49.15
240.517	-18.43
240.735	73.73
240.952	36.86
241.169	16.38
241.386	-24.58
241.603	-83.97
241.821	34.82
242.038	40.96
242.255	-71.68
242.472	8.19
242.689	51.2
242.907	-12.29
243.124	59.39
243.341	10.24
243.558	-40.96
243.775	20.48
243.992	14.34
244.209	16.38
244.426	-38.91
244.643	10.24
244.86	14.34
245.078	-34.82
245.295	38.91
245.512	79.87
245.729	-16.38
245.946	-26.62
246.163	30.72
246.38	28.67
246.597	30.72
246.814	77.82
247.031	-38.91
247.248	34.82
247.464	-77.82
247.681	47.1
247.898	-4.1
248.115	-36.86
248.332	-53.25
248.549	10.24
248.766	-43.01
248.983	0
249.2	0
249.417	-20.48
249.633	43.01
249.85	-34.82
250.067	20.48
250.284	28.67
250.501	26.62
250.717	30.72
250.934	-16.38
251.151	2.05
251.368	6.14
251.585	12.29
251.801	-26.62
252.018	98.3
252.235	-2.05
252.451	6.14
252.668	18.43
252.885	18.43
253.102	28.67
253.318	28.67
253.535	-4.1
253.752	-2.05
253.968	43.01
254.185	-53.25
254.401	-24.58
254.618	28.67
254.835	-30.72
255.051	51.2
255.268	34.82
255.484	49.15
255.701	40.96
255.917	43.01
256.134	2.05
256.351	-28.67
256.567	12.29
256.784	26.62
257	20.48
257.217	-6.14
257.433	45.06
257.65	2.05
257.866	-2.05
258.082	28.67
258.299	26.62
258.515	26.62
258.732	40.96
258.948	-8.19
259.165	4.1
259.381	59.39
259.597	65.54
259.814	6.14
260.03	-57.34
260.246	55.3
260.463	-38.91
260.679	-8.19
260.895	55.3
261.112	-14.34
261.328	28.67
261.544	69.63
261.761	-40.96
261.977	4.1
262.193	-53.25
262.409	45.06
262.626	36.86
262.842	4.1
263.058	61.44
263.274	43.01
263.49	-92.16
263.707	10.24
263.923	-12.29
264.139	-22.53
264.355	32.77
264.571	92.16
264.787	14.34
265.004	14.34
265.22	71.68
265.436	-10.24
265.652	-34.82
265.868	67.58
266.084	45.06
266.3	10.24
266.516	-28.67
266.732	-8.19
266.948	6.14
267.164	73.73
267.38	-18.43
267.596	38.91
267.812	69.63
268.028	49.15
268.244	-8.19
268.46	-45.06
268.676	14.34
268.892	73.73
269.108	47.1
269.324	-14.34
269.54	-10.24
269.756	38.91
269.972	-14.34
270.188	12.29
270.403	-22.53
270.619	-38.91
270.835	6.14
271.051	-2.05
271.267	2.05
271.483	-8.19
271.698	-2.05
271.914	18.43
272.13	59.39
272.346	-12.29
272.562	61.44
272.777	-14.34
272.993	22.53
273.209	14.34
273.425	-30.72
273.64	10.24
273.856	51.2
274.072	10.24
274.287	-20.48
274.503	20.48
274.719	4.1
274.934	26.62
275.15	28.67
275.366	10.24
275.581	-43.01
275.797	24.58
276.012	-8.19
276.228	4.1
276.444	-2.05
276.659	-38.91
276.875	-6.14
277.09	20.48
277.306	-8.19
277.521	-12.29
277.737	38.91
277.952	-18.43
278.168	2.05
278.383	-14.34
278.599	55.3
278.814	53.25
279.03	8.19
279.245	12.29
279.461	-36.86
279.676	4.1
279.892	57.34
280.107	57.34
280.322	-16.38
280.538	73.73
280.753	79.87
280.969	-47.1
281.184	4.1
281.399	61.44
281.615	-36.86
281.83	40.96
282.045	16.38
282.26	45.06
282.476	-49.15
282.691	53.25
282.906	18.43
283.122	55.3
283.337	-69.63
283.552	57.34
283.767	-14.34
283.983	28.67
284.198	-4.1
284.413	20.48
284.628	22.53
284.843	16.38
285.058	-22.53
285.274	-20.48
285.489	-2.05
285.704	22.53
285.919	4.1
286.134	14.34
286.349	26.62
286.564	14.34
286.779	10.24
286.995	-43.01
287.21	57.34
287.425	20.48
287.64	8.19
287.855	-36.86
288.07	83.97
288.285	77.82
288.5	-6.14
288.715	36.86
288.93	-63.49
289.145	20.48
289.36	-6.14
289.575	-43.01
289.79	67.58
290.004	28.67
290.219	43.01
290.434	12.29
290.649	32.77
290.864	6.14
291.079	10.24
291.294	34.82
291.509	43.01
291.724	-6.14
291.938	-8.19
292.153	10.24
292.368	14.34
292.583	-94.21
292.798	53.25
293.012	45.06
293.227	18.43
293.442	-38.91
293.657	67.58
293.871	36.86
294.086	36.86
294.301	73.73
294.516	-65.53
294.73	38.91
294.945	-67.58
295.16	47.1
295.374	63.49
295.589	22.53
295.804	-69.63
296.018	10.24
296.233	-24.58
296.447	12.29
296.662	-16.38
296.877	4.1
297.091	71.68
297.306	40.96
297.52	-14.34
297.735	28.67
297.949	-51.2
298.164	-40.96
298.378	-28.67
298.593	71.68
298.807	22.53
299.022	20.48
299.236	45.06
299.451	-6.14
299.665	-47.1
299.88	-12.29
300.094	32.77
300.309	18.43
300.523	18.43
300.737	10.24
300.952	-36.86
301.166	88.06
301.381	-34.82
301.595	-26.62
301.809	20.48
302.024	-38.91
302.238	6.14
302.452	-26.62
302.667	8.19
302.881	61.44
303.095	6.14
303.309	8.19
303.524	6.14
303.738	-20.48
303.952	55.3
304.166	32.77
304.381	24.58
304.595	32.77
304.809	-20.48
305.023	-71.68
305.237	51.2
305.452	6.14
305.666	2.05
305.88	18.43
306.094	12.29
306.308	34.82
306.522	-61.44
306.736	30.72
306.95	36.86
307.164	26.62
307.379	69.63
307.593	2.05
307.807	2.05
308.021	-30.72
308.235	20.48
308.449	-22.53
308.663	-6.14
308.877	-30.72
309.091	0
309.305	53.25
309.519	-8.19
309.733	-43.01
309.947	12.29
310.161	65.54
310.374	49.15
310.588	61.44
310.802	-28.67
311.016	-12.29
311.23	8.19
311.444	38.91
311.658	45.06
311.872	-4.1
312.085	2.05
312.299	-36.86
312.513	38.91
312.727	34.82
312.941	28.67
313.154	38.91
313.368	-43.01
313.582	36.86
313.796	79.87
314.009	51.2
314.223	28.67
314.437	92.16
314.651	-14.34
314.864	22.53
315.078	20.48
315.292	-53.25
315.505	88.06
315.719	-79.87
315.933	55.3
316.146	18.43
316.36	-28.67
316.573	10.24
316.787	-14.34
317.001	53.25
317.214	-8.19
317.428	53.25
317.641	-43.01
317.855	-10.24
318.068	-8.19
318.282	28.67
318.495	43.01
318.709	12.29
318.922	96.25
319.136	18.43
319.349	6.14
319.563	38.91
319.776	38.91
319.99	10.24
320.203	49.15
320.417	-8.19
320.63	67.58
320.843	4.1
321.057	143.36
321.27	-28.67
321.483	26.62
321.697	51.2
321.91	18.43
322.124	14.34
322.337	14.34
322.55	55.3
322.763	-75.77
322.977	43.01
323.19	6.14
323.403	0
323.617	-12.29
323.83	-20.48
324.043	0
324.256	67.58
324.469	-10.24
324.683	-2.05
324.896	63.49
325.109	0
325.322	-26.62
325.535	26.62
325.748	20.48
325.962	12.29
326.175	10.24
326.388	-22.53
326.601	51.2
326.814	26.62
327.027	-28.67
327.24	-18.43
327.453	18.43
327.666	-6.14
327.879	-2.05
328.092	-26.62
328.305	34.82
328.518	8.19
328.731	-45.06
328.944	2.05
329.157	12.29
329.37	45.06
329.583	49.15
329.796	28.67
330.009	-6.14
330.222	-26.62
330.435	20.48
330.648	14.34
330.861	-24.58
331.073	26.62
331.286	26.62
331.499	6.14
331.712	-34.82
331.925	92.16
332.138	22.53
332.35	83.97
332.563	77.82
332.776	4.1
332.989	-26.62
333.202	8.19
333.414	22.53
333.627	51.2
333.84	18.43
334.053	36.86
334.265	-26.62
334.478	18.43
334.691	26.62
334.903	10.24
335.116	-63.49
335.329	4.1
335.541	14.34
335.754	34.82
335.966	-34.82
336.179	-22.53
336.392	14.34
336.604	65.54
336.817	45.06
337.029	61.44
337.242	-4.1
337.454	2.05
337.667	57.34
337.88	43.01
338.092	22.53
338.305	-2.05
338.517	-4.1
338.729	43.01
338.942	36.86
339.154	2.05
339.367	53.25
339.579	-55.3
339.792	10.24
340.004	4.1
340.217	36.86
340.429	-14.34
340.641	32.77
340.854	45.06
341.066	24.58
341.278	6.14
341.491	36.86
341.703	96.25
341.915	24.58
342.128	34.82
342.34	34.82
342.552	47.1
342.764	61.44
342.977	18.43
343.189	26.62
343.401	24.58
343.613	69.63
343.826	51.2
344.038	-40.96
344.25	36.86
344.462	98.3
344.674	71.68
344.886	26.62
345.099	10.24
345.311	8.19
345.523	-18.43
345.735	-10.24
345.947	-22.53
346.159	22.53
346.371	26.62
346.583	47.1
346.795	10.24
347.007	-24.58
347.219	116.73
347.431	-4.1
347.643	-40.96
347.855	10.24
348.067	20.48
348.279	-100.35
348.491	53.25
348.703	36.86
348.915	133.12
349.127	77.82
349.339	75.77
349.551	-30.72
349.763	40.96
349.975	-2.05
350.187	-12.29
350.399	-18.43
350.61	40.96
350.822	40.96
351.034	12.29
351.246	12.29
351.458	34.82
351.669	4.1
351.881	83.97
352.093	2.05
352.305	43.01
352.517	92.16
352.728	55.3
352.94	18.43
353.152	-4.1
353.363	8.19
353.575	-10.24
353.787	-22.53
353.999	12.29
354.21	-2.05
354.422	2.05
354.633	24.58
354.845	10.24
355.057	77.82
355.268	36.86
355.48	18.43
355.692	83.97
355.903	67.58
356.115	43.01
356.326	0
356.538	116.73
356.749	14.34
356.961	14.34
357.172	49.15
357.384	2.05
357.595	-43.01
357.807	18.43
358.018	-22.53
358.23	6.14
358.441	38.91
358.653	12.29
358.864	-14.34
359.075	26.62
359.287	2.05
359.498	22.53
359.709	16.38
359.921	116.73
360.132	-36.86
360.344	-30.72
360.555	102.4
360.766	59.39
360.977	36.86
361.189	32.77
361.4	18.43
361.611	43.01
361.823	-6.14
362.034	-14.34
362.245	-10.24
362.456	-28.67
362.667	49.15
362.879	79.87
363.09	10.24
363.301	28.67
363.512	28.67
363.723	-16.38
363.935	71.68
364.146	32.77
364.357	-40.96
364.568	47.1
364.779	-43.01
364.99	4.1
365.201	38.91
365.412	0
365.623	63.49
365.834	-4.1
366.045	-10.24
366.256	-43.01
366.467	73.73
366.678	-4.1
366.889	-6.14
367.1	90.11
367.311	14.34
367.522	45.06
367.733	43.01
367.944	67.58
368.155	-16.38
368.366	59.39
368.577	47.1
368.788	6.14
368.999	38.91
369.209	51.2
369.42	6.14
369.631	63.49
369.842	71.68
370.053	34.82
370.264	69.63
370.474	6.14
370.685	-16.38
370.896	94.21
371.107	-38.91
371.317	45.06
371.528	22.53
371.739	36.86
371.95	16.38
372.16	98.3
372.371	45.06
372.582	0
372.792	-30.72
373.003	14.34
373.214	28.67
373.424	10.24
373.635	-18.43
373.846	-4.1
374.056	0
374.267	34.82
374.477	-53.25
374.688	34.82
374.898	73.73
375.109	53.25
375.319	-14.34
375.53	69.63
375.74	53.25
375.951	67.58
376.161	55.3
376.372	20.48
376.582	-22.53
376.793	36.86
377.003	-8.19
377.214	-34.82
377.424	18.43
377.635	40.96
377.845	32.77
378.055	67.58
378.266	-28.67
378.476	63.49
378.686	-8.19
378.897	47.1
379.107	18.43
379.317	69.63
379.528	-12.29
379.738	34.82
379.948	-12.29
380.158	0
380.369	24.58
380.579	108.54
380.789	55.3
380.999	43.01
381.21	81.92
381.42	8.19
381.63	28.67
381.84	67.58
382.05	26.62
382.261	-51.2
382.471	61.44
382.681	28.67
382.891	77.82
383.101	-10.24
383.311	43.01
383.521	10.24
383.731	-10.24
383.941	14.34
384.151	-30.72
384.361	34.82
384.571	24.58
384.781	61.44
384.991	8.19
385.201	90.11
385.411	38.91
385.621	2.05
385.831	28.67
386.041	65.54
386.251	-16.38
386.461	28.67
386.671	55.3
386.881	34.82
387.091	16.38
387.301	30.72
387.511	75.77
387.72	38.91
387.93	18.43
388.14	30.72
388.35	-8.19
388.56	86.01
388.769	8.19
388.979	55.3
389.189	47.1
389.399	32.77
389.609	10.24
389.818	38.91
390.028	47.1
390.238	20.48
390.447	18.43
390.657	-2.05
390.867	69.63
391.076	98.3
391.286	75.77
391.496	92.16
391.705	45.06
391.915	38.91
392.125	71.68
392.334	40.96
392.544	14.34
392.753	40.96
392.963	30.72
393.172	18.43
393.382	45.06
393.591	36.86
393.801	106.49
394.01	67.58
394.22	65.54
394.429	6.14
394.639	-4.1
394.848	34.82
395.058	69.63
395.267	43.01
395.477	124.93
395.686	-18.43
395.895	22.53
396.105	18.43
396.314	26.62
396.524	20.48
396.733	40.96
396.942	120.83
397.152	59.39
397.361	155.65
397.57	75.77
397.78	83.97
397.989	45.06
398.198	36.86
398.407	-12.29
398.617	73.73
398.826	65.54
399.035	83.97
399.244	75.77
399.453	38.91
399.663	40.96
399.872	51.2
400.081	73.73
400.29	55.3
400.499	88.06
400.708	0
400.917	83.97
401.127	88.06
401.336	-24.58
401.545	118.78
401.754	88.06
401.963	45.06
402.172	18.43
402.381	90.11
402.59	100.35
402.799	108.54
403.008	145.41
403.217	4.1
403.426	139.26
403.635	51.2
403.844	114.69
404.053	20.48
404.262	77.82
404.471	45.06
404.68	57.34
404.888	14.34
405.097	81.92
405.306	88.06
405.515	98.3
405.724	36.86
405.933	83.97
406.142	65.54
406.35	22.53
406.559	51.2
406.768	108.54
406.977	120.83
407.185	172.03
407.394	75.77
407.603	120.83
407.812	165.89
408.02	79.87
408.229	202.75
408.438	124.93
408.646	94.21
408.855	159.74
409.064	133.12
409.272	77.82
409.481	245.76
409.69	124.93
409.898	219.13
410.107	112.64
410.315	258.04
410.524	202.75
410.733	157.69
410.941	249.85
411.15	266.24
411.358	215.04
411.567	268.28
411.775	235.52
411.984	294.91
412.192	241.66
412.401	178.17
412.609	337.91
412.818	206.84
413.026	258.04
413.234	280.57
413.443	317.44
413.651	333.82
413.86	335.87
414.068	397.31
414.276	372.73
414.485	327.68
414.693	393.21
414.901	428.03
415.11	380.92
415.318	436.22
415.526	468.98
415.734	471.03
415.943	520.18
416.151	456.7
416.359	538.62
416.567	552.95
416.776	507.9
416.984	567.29
417.192	585.72
417.4	595.96
417.608	612.34
417.817	651.25
418.025	634.87
418.233	669.69
418.441	641.01
418.649	729.08
418.857	720.88
419.065	841.72
419.273	804.85
419.481	724.98
419.689	841.72
419.897	874.48
420.105	931.83
420.313	833.52
420.521	929.78
420.729	935.92
420.937	1009.65
421.145	1013.74
421.353	1110
421.561	1103.86
421.769	1218.54
421.977	1257.45
422.185	1216.49
422.393	1218.54
422.601	1296.36
422.809	1406.95
423.017	1366
423.224	1470.44
423.432	1492.97
423.64	1486.83
423.848	1681.38
424.056	1646.57
424.263	1732.58
424.471	1701.86
424.679	1804.26
424.887	1896.42
425.094	1875.94
425.302	1877.99
425.51	1927.14
425.718	2054.11
425.925	2072.54
426.133	2162.65
426.341	2310.11
426.548	2430.94
426.756	2355.16
426.964	2514.91
427.171	2600.92
427.379	2705.37
427.586	2576.34
427.794	2691.03
428.001	2826.2
428.209	2985.94
428.417	2846.68
428.624	3037.14
428.832	3221.45
429.039	3061.71
429.247	3112.91
429.454	3553.23
429.662	3606.47
429.869	3409.87
430.076	3747.78
430.284	3465.16
430.491	3682.25
430.699	3950.53
430.906	3876.8
431.114	3950.53
431.321	4159.42
431.528	4171.71
431.736	4405.18
431.943	4603.83
432.15	4495.29
432.358	4515.77
432.565	4734.9
432.772	4810.68
432.979	5097.39
433.187	5113.78
433.394	5044.15
433.601	5556.14
433.808	5451.69
434.016	5304.24
434.223	5623.72
434.43	5941.16
434.637	5892.01
434.844	6360.99
435.052	6315.94
435.259	6410.14
435.466	6504.35
435.673	6408.09
435.88	6926.23
436.087	7327.63
436.294	7088.02
436.501	7225.23
436.708	6993.81
436.915	7376.78
437.122	7839.62
437.329	7595.92
437.537	7923.59
437.743	8152.96
437.95	7982.98
438.157	8376.19
438.364	8540.03
438.571	8724.35
438.778	8886.14
438.985	9553.77
439.192	9140.08
439.399	9383.79
439.606	9402.22
439.813	9840.49
440.02	10092.39
440.227	10080.1
440.433	10200.93
440.64	10516.32
440.847	10139.49
441.054	10563.42
441.261	11321.17
441.467	11306.84
441.674	11382.61
441.881	11892.55
442.088	11786.06
442.294	11624.27
442.501	11890.51
442.708	12439.36
442.914	12857.15
443.121	13309.75
443.328	12748.61
443.534	13778.73
443.741	13434.67
443.948	13246.26
444.154	14647.07
444.361	14288.68
444.568	14470.95
444.774	14276.39
444.981	14358.31
445.187	14896.92
445.394	15464.21
445.6	15425.3
445.807	16822.02
446.013	16201.48
446.22	16400.13
446.426	17202.94
446.633	17166.07
446.839	17938.16
447.046	17338.1
447.252	18130.67
447.459	18138.86
447.665	17966.83
447.871	19019.49
448.078	19820.24
448.284	18648.8
448.491	19422.94
448.697	20135.63
448.903	20082.38
449.11	20627.14
449.316	20381.38
449.522	20917.95
449.728	21178.04
449.935	21368.51
450.141	21104.32
450.347	21696.18
450.553	21210.81
450.76	21352.12
450.966	22132.4
451.172	21972.66
451.378	22468.27
451.584	22320.81
451.791	22656.68
451.997	22404.78
452.203	23080.61
452.409	22941.35
452.615	22730.41
452.821	22242.99
453.027	21800.63
453.233	22970.02
453.44	22156.97
453.646	22290.09
453.852	22275.76
454.058	22611.62
454.264	21986.99
454.47	22222.51
454.676	22134.45
454.882	22881.95
455.088	20797.12
455.294	21049.02
455.5	21399.23
455.705	21362.36
455.911	20567.75
456.117	20315.85
456.323	20002.51
456.529	19171.04
456.735	19754.71
456.941	19420.89
457.147	19295.96
457.352	18454.25
457.558	18075.37
457.764	18155.24
457.97	18044.65
458.176	17784.56
458.381	17526.52
458.587	16766.72
458.793	16654.08
458.999	15904.53
459.204	16989.95
459.41	16344.84
459.616	15603.47
459.821	15451.92
460.027	15425.3
460.233	15222.55
460.438	14618.4
460.644	14429.99
460.85	13748.01
461.055	13739.82
461.261	13516.59
461.466	12521.28
461.672	12195.65
461.878	13098.81
462.083	11941.71
462.289	12054.34
462.494	11831.12
462.7	11317.08
462.905	10966.87
463.111	11347.79
463.316	11390.8
463.522	11296.6
463.727	11036.5
463.932	11067.22
464.138	11018.07
464.343	11069.27
464.549	10682.2
464.754	11280.21
464.959	11104.09
465.165	10952.54
465.37	10338.15
465.575	10239.84
465.781	10651.49
465.986	10770.27
466.191	10307.43
466.397	10104.68
466.602	9688.94
466.807	9928.55
467.012	10192.74
467.218	10098.53
467.423	9887.59
467.628	9834.35
467.833	10301.28
468.038	9961.32
468.244	9774.95
468.449	10033
468.654	9666.41
468.859	9668.46
