Data from USB4F104151__5__12-58-23-991.txt Node

Date: Fri Mar 14 12:58:23 EDT 2025
User: louis
Spectrometer: USB4F10415
Trigger mode: 4
Integration Time (sec): 1.000000E-2
Scans to average: 1
Electric dark correction enabled: true
Nonlinearity correction enabled: false
Boxcar width: 0
XAxis mode: Wavelengths
Number of Pixels in Spectrum: 3648
>>>>>Begin Spectral Data<<<<<
178.204	-65.19
178.424	-65.19
178.644	-65.19
178.864	-11.95
179.084	-110.25
179.304	24.92
179.524	-50.86
179.744	-77.48
179.964	18.77
180.184	-36.52
180.404	72.02
180.624	-85.67
180.844	20.82
181.064	59.73
181.283	43.35
181.503	45.4
181.723	-34.47
181.943	-24.23
182.163	41.3
182.383	-26.28
182.602	55.64
182.822	-46.76
183.042	8.53
183.262	-16.04
183.482	-1.71
183.701	8.53
183.921	-46.76
184.141	0.34
184.361	-38.57
184.58	20.82
184.8	-24.23
185.02	-16.04
185.239	-16.04
185.459	-13.99
185.679	-3.75
185.898	-22.19
186.118	65.88
186.338	14.68
186.557	-65.19
186.777	-44.71
186.997	24.92
187.216	0.34
187.436	20.82
187.655	-73.39
187.875	72.02
188.095	-46.76
188.314	18.77
188.534	-9.9
188.753	-24.23
188.973	-24.23
189.192	0.34
189.412	6.49
189.631	10.58
189.851	-30.38
190.07	-1.71
190.29	-7.85
190.509	-30.38
190.729	-18.09
190.948	-9.9
191.168	47.44
191.387	16.73
191.607	16.73
191.826	35.16
192.045	6.49
192.265	65.88
192.484	6.49
192.704	22.87
192.923	-13.99
193.142	10.58
193.362	-20.14
193.581	43.35
193.8	26.96
194.02	31.06
194.239	-79.53
194.458	-30.38
194.678	-48.81
194.897	-9.9
195.116	69.97
195.335	65.88
195.555	-3.75
195.774	96.6
195.993	41.3
196.212	96.6
196.432	14.68
196.651	-18.09
196.87	-36.52
197.089	53.59
197.308	14.68
197.528	-18.09
197.747	-18.09
197.966	-59.05
198.185	-3.75
198.404	14.68
198.623	22.87
198.842	8.53
199.062	-42.67
199.281	22.87
199.5	-13.99
199.719	-13.99
199.938	-32.43
200.157	43.35
200.376	10.58
200.595	55.64
200.814	-42.67
201.033	6.49
201.252	14.68
201.471	-32.43
201.69	4.44
201.909	-3.75
202.128	-52.91
202.347	63.83
202.566	-9.9
202.785	-32.43
203.004	43.35
203.223	76.12
203.442	-36.52
203.661	-16.04
203.879	-1.71
204.098	35.16
204.317	24.92
204.536	35.16
204.755	33.11
204.974	12.63
205.193	-3.75
205.411	63.83
205.63	-79.53
205.849	12.63
206.068	-79.53
206.287	6.49
206.505	-13.99
206.724	51.54
206.943	12.63
207.162	94.55
207.381	41.3
207.599	-20.14
207.818	4.44
208.037	-59.05
208.255	2.39
208.474	-36.52
208.693	51.54
208.911	22.87
209.13	-63.15
209.349	41.3
209.567	-122.54
209.786	35.16
210.005	16.73
210.223	51.54
210.442	55.64
210.661	-34.47
210.879	45.4
211.098	-61.1
211.316	-32.43
211.535	-46.76
211.753	6.49
211.972	43.35
212.191	31.06
212.409	-18.09
212.628	10.58
212.846	8.53
213.065	12.63
213.283	57.68
213.502	-32.43
213.72	-18.09
213.938	-30.38
214.157	63.83
214.375	43.35
214.594	-26.28
214.812	6.49
215.031	-13.99
215.249	-18.09
215.467	-16.04
215.686	-13.99
215.904	72.02
216.122	-32.43
216.341	-30.38
216.559	41.3
216.778	-24.23
216.996	43.35
217.214	16.73
217.432	-5.8
217.651	39.25
217.869	-89.77
218.087	-13.99
218.306	-30.38
218.524	-26.28
218.742	2.39
218.96	-1.71
219.179	-13.99
219.397	33.11
219.615	55.64
219.833	-7.85
220.051	-24.23
220.27	-46.76
220.488	29.01
220.706	0.34
220.924	84.31
221.142	39.25
221.36	37.2
221.578	29.01
221.796	24.92
222.015	37.2
222.233	-54.95
222.451	-16.04
222.669	-20.14
222.887	43.35
223.105	24.92
223.323	-11.95
223.541	12.63
223.759	33.11
223.977	8.53
224.195	-36.52
224.413	12.63
224.631	20.82
224.849	6.49
225.067	-5.8
225.285	45.4
225.503	20.82
225.721	8.53
225.939	39.25
226.157	-32.43
226.375	18.77
226.592	-81.58
226.81	55.64
227.028	16.73
227.246	72.02
227.464	4.44
227.682	8.53
227.9	-13.99
228.117	-18.09
228.335	14.68
228.553	-7.85
228.771	33.11
228.989	12.63
229.206	-26.28
229.424	0.34
229.642	-24.23
229.86	20.82
230.077	-44.71
230.295	8.53
230.513	22.87
230.731	22.87
230.948	-42.67
231.166	22.87
231.384	-7.85
231.601	26.96
231.819	92.5
232.037	-13.99
232.254	-1.71
232.472	20.82
232.689	8.53
232.907	88.4
233.125	-28.33
233.342	119.12
233.56	-44.71
233.777	55.64
233.995	8.53
234.213	6.49
234.43	-5.8
234.648	-34.47
234.865	-69.29
235.083	-26.28
235.3	-40.62
235.518	4.44
235.735	-7.85
235.953	6.49
236.17	-1.71
236.388	55.64
236.605	41.3
236.822	-57
237.04	-22.19
237.257	35.16
237.475	-5.8
237.692	-3.75
237.909	14.68
238.127	20.82
238.344	72.02
238.562	10.58
238.779	-5.8
238.996	35.16
239.214	14.68
239.431	31.06
239.648	41.3
239.865	29.01
240.083	55.64
240.3	35.16
240.517	-52.91
240.735	39.25
240.952	-24.23
241.169	-36.52
241.386	16.73
241.603	8.53
241.821	-11.95
242.038	-26.28
242.255	4.44
242.472	35.16
242.689	-52.91
242.907	35.16
243.124	-16.04
243.341	-38.57
243.558	-63.15
243.775	35.16
243.992	-13.99
244.209	-1.71
244.426	108.88
244.643	0.34
244.86	-34.47
245.078	4.44
245.295	33.11
245.512	26.96
245.729	-1.71
245.946	16.73
246.163	76.12
246.38	12.63
246.597	6.49
246.814	55.64
247.031	-5.8
247.248	72.02
247.464	63.83
247.681	45.4
247.898	41.3
248.115	-22.19
248.332	57.68
248.549	55.64
248.766	-44.71
248.983	-20.14
249.2	31.06
249.417	26.96
249.633	49.49
249.85	18.77
250.067	37.2
250.284	22.87
250.501	20.82
250.717	129.36
250.934	-3.75
251.151	14.68
251.368	33.11
251.585	43.35
251.801	37.2
252.018	51.54
252.235	31.06
252.451	55.64
252.668	4.44
252.885	-7.85
253.102	16.73
253.318	14.68
253.535	0.34
253.752	14.68
253.968	-42.67
254.185	-34.47
254.401	67.92
254.618	43.35
254.835	33.11
255.051	-1.71
255.268	29.01
255.484	-1.71
255.701	-11.95
255.917	26.96
256.134	-36.52
256.351	-26.28
256.567	41.3
256.784	-9.9
257	26.96
257.217	41.3
257.433	65.88
257.65	2.39
257.866	45.4
258.082	-9.9
258.299	-28.33
258.515	24.92
258.732	0.34
258.948	-59.05
259.165	10.58
259.381	-22.19
259.597	-20.14
259.814	57.68
260.03	-5.8
260.246	6.49
260.463	31.06
260.679	-38.57
260.895	72.02
261.112	41.3
261.328	-50.86
261.544	0.34
261.761	26.96
261.977	6.49
262.193	37.2
262.409	-13.99
262.626	6.49
262.842	22.87
263.058	-13.99
263.274	-13.99
263.49	-18.09
263.707	0.34
263.923	96.6
264.139	47.44
264.355	4.44
264.571	-28.33
264.787	31.06
265.004	0.34
265.22	110.93
265.436	22.87
265.652	2.39
265.868	-16.04
266.084	16.73
266.3	-9.9
266.516	-13.99
266.732	49.49
266.948	24.92
267.164	33.11
267.38	14.68
267.596	37.2
267.812	57.68
268.028	47.44
268.244	22.87
268.46	-32.43
268.676	10.58
268.892	115.03
269.108	-1.71
269.324	-52.91
269.54	18.77
269.756	-20.14
269.972	-1.71
270.188	63.83
270.403	4.44
270.619	55.64
270.835	-9.9
271.051	-7.85
271.267	-42.67
271.483	43.35
271.698	51.54
271.914	16.73
272.13	14.68
272.346	104.79
272.562	-32.43
272.777	51.54
272.993	-1.71
273.209	14.68
273.425	12.63
273.64	-46.76
273.856	16.73
274.072	26.96
274.287	18.77
274.503	-28.33
274.719	41.3
274.934	-1.71
275.15	33.11
275.366	41.3
275.581	-5.8
275.797	33.11
276.012	45.4
276.228	26.96
276.444	12.63
276.659	33.11
276.875	26.96
277.09	8.53
277.306	-16.04
277.521	55.64
277.737	-11.95
277.952	39.25
278.168	-71.34
278.383	35.16
278.599	-36.52
278.814	10.58
279.03	20.82
279.245	59.73
279.461	-16.04
279.676	61.78
279.892	102.74
280.107	-34.47
280.322	18.77
280.538	20.82
280.753	-18.09
280.969	22.87
281.184	-13.99
281.399	51.54
281.615	31.06
281.83	33.11
282.045	-46.76
282.26	-16.04
282.476	12.63
282.691	-57
282.906	8.53
283.122	33.11
283.337	-20.14
283.552	-20.14
283.767	-18.09
283.983	14.68
284.198	26.96
284.413	31.06
284.628	-46.76
284.843	39.25
285.058	31.06
285.274	0.34
285.489	-1.71
285.704	8.53
285.919	74.07
286.134	-1.71
286.349	-46.76
286.564	-24.23
286.779	39.25
286.995	51.54
287.21	14.68
287.425	57.68
287.64	41.3
287.855	-11.95
288.07	-1.71
288.285	55.64
288.5	-16.04
288.715	-5.8
288.93	-26.28
289.145	26.96
289.36	-9.9
289.575	-18.09
289.79	22.87
290.004	55.64
290.219	31.06
290.434	6.49
290.649	-16.04
290.864	-38.57
291.079	-46.76
291.294	-30.38
291.509	22.87
291.724	47.44
291.938	8.53
292.153	0.34
292.368	-5.8
292.583	-16.04
292.798	-32.43
293.012	-3.75
293.227	51.54
293.442	-22.19
293.657	-7.85
293.871	53.59
294.086	8.53
294.301	47.44
294.516	100.69
294.73	31.06
294.945	37.2
295.16	12.63
295.374	31.06
295.589	45.4
295.804	-24.23
296.018	-5.8
296.233	0.34
296.447	26.96
296.662	80.21
296.877	12.63
297.091	20.82
297.306	69.97
297.52	-50.86
297.735	51.54
297.949	-9.9
298.164	8.53
298.378	4.44
298.593	33.11
298.807	51.54
299.022	-34.47
299.236	20.82
299.451	-9.9
299.665	-46.76
299.88	41.3
300.094	22.87
300.309	57.68
300.523	0.34
300.737	33.11
300.952	6.49
301.166	-50.86
301.381	49.49
301.595	37.2
301.809	24.92
302.024	41.3
302.238	-22.19
302.452	65.88
302.667	51.54
302.881	65.88
303.095	37.2
303.309	16.73
303.524	0.34
303.738	24.92
303.952	-40.62
304.166	45.4
304.381	59.73
304.595	39.25
304.809	33.11
305.023	-67.24
305.237	-1.71
305.452	94.55
305.666	10.58
305.88	67.92
306.094	24.92
306.308	41.3
306.522	-22.19
306.736	-3.75
306.95	47.44
307.164	47.44
307.379	65.88
307.593	-38.57
307.807	-24.23
308.021	22.87
308.235	65.88
308.449	29.01
308.663	53.59
308.877	-18.09
309.091	72.02
309.305	10.58
309.519	-18.09
309.733	22.87
309.947	0.34
310.161	41.3
310.374	14.68
310.588	43.35
310.802	24.92
311.016	-36.52
311.23	-42.67
311.444	-9.9
311.658	-1.71
311.872	10.58
312.085	53.59
312.299	69.97
312.513	63.83
312.727	61.78
312.941	18.77
313.154	16.73
313.368	39.25
313.582	65.88
313.796	108.88
314.009	18.77
314.223	51.54
314.437	-5.8
314.651	-20.14
314.864	-7.85
315.078	29.01
315.292	49.49
315.505	65.88
315.719	43.35
315.933	-9.9
316.146	-22.19
316.36	-83.63
316.573	-30.38
316.787	-3.75
317.001	16.73
317.214	96.6
317.428	-3.75
317.641	18.77
317.855	10.58
318.068	82.26
318.282	22.87
318.495	-9.9
318.709	31.06
318.922	10.58
319.136	16.73
319.349	-5.8
319.563	78.16
319.776	33.11
319.99	82.26
320.203	14.68
320.417	43.35
320.63	-5.8
320.843	92.5
321.057	0.34
321.27	26.96
321.483	29.01
321.697	26.96
321.91	-24.23
322.124	-24.23
322.337	24.92
322.55	35.16
322.763	-24.23
322.977	49.49
323.19	47.44
323.403	88.4
323.617	63.83
323.83	74.07
324.043	14.68
324.256	16.73
324.469	16.73
324.683	31.06
324.896	72.02
325.109	33.11
325.322	-26.28
325.535	45.4
325.748	10.58
325.962	61.78
326.175	43.35
326.388	-3.75
326.601	63.83
326.814	41.3
327.027	-1.71
327.24	33.11
327.453	0.34
327.666	14.68
327.879	59.73
328.092	-18.09
328.305	37.2
328.518	45.4
328.731	10.58
328.944	8.53
329.157	12.63
329.37	67.92
329.583	47.44
329.796	-7.85
330.009	-3.75
330.222	49.49
330.435	92.5
330.648	12.63
330.861	-52.91
331.073	57.68
331.286	-59.05
331.499	-1.71
331.712	-34.47
331.925	51.54
332.138	4.44
332.35	51.54
332.563	6.49
332.776	22.87
332.989	-22.19
333.202	24.92
333.414	14.68
333.627	-5.8
333.84	80.21
334.053	63.83
334.265	-48.81
334.478	18.77
334.691	26.96
334.903	31.06
335.116	43.35
335.329	8.53
335.541	-67.24
335.754	47.44
335.966	43.35
336.179	8.53
336.392	-46.76
336.604	16.73
336.817	47.44
337.029	22.87
337.242	90.45
337.454	-42.67
337.667	-48.81
337.88	55.64
338.092	16.73
338.305	31.06
338.517	6.49
338.729	43.35
338.942	-26.28
339.154	51.54
339.367	31.06
339.579	43.35
339.792	4.44
340.004	45.4
340.217	0.34
340.429	14.68
340.641	33.11
340.854	26.96
341.066	69.97
341.278	82.26
341.491	8.53
341.703	74.07
341.915	-5.8
342.128	8.53
342.34	0.34
342.552	80.21
342.764	33.11
342.977	45.4
343.189	41.3
343.401	22.87
343.613	-32.43
343.826	61.78
344.038	29.01
344.25	22.87
344.462	-46.76
344.674	59.73
344.886	-48.81
345.099	-7.85
345.311	31.06
345.523	39.25
345.735	-24.23
345.947	4.44
346.159	53.59
346.371	20.82
346.583	24.92
346.795	59.73
347.007	-63.15
347.219	16.73
347.431	31.06
347.643	-59.05
347.855	37.2
348.067	6.49
348.279	-71.34
348.491	-30.38
348.703	4.44
348.915	6.49
349.127	-24.23
349.339	-26.28
349.551	29.01
349.763	47.44
349.975	16.73
350.187	74.07
350.399	106.84
350.61	59.73
350.822	6.49
351.034	31.06
351.246	14.68
351.458	55.64
351.669	-44.71
351.881	61.78
352.093	-22.19
352.305	55.64
352.517	-20.14
352.728	67.92
352.94	-30.38
353.152	18.77
353.363	37.2
353.575	24.92
353.787	67.92
353.999	63.83
354.21	37.2
354.422	-22.19
354.633	-63.15
354.845	92.5
355.057	-5.8
355.268	102.74
355.48	33.11
355.692	2.39
355.903	-26.28
356.115	104.79
356.326	-3.75
356.538	26.96
356.749	-40.62
356.961	31.06
357.172	-3.75
357.384	96.6
357.595	90.45
357.807	33.11
358.018	-32.43
358.23	14.68
358.441	41.3
358.653	31.06
358.864	18.77
359.075	-11.95
359.287	57.68
359.498	-9.9
359.709	20.82
359.921	47.44
360.132	47.44
360.344	37.2
360.555	8.53
360.766	-34.47
360.977	10.58
361.189	6.49
361.4	-11.95
361.611	33.11
361.823	20.82
362.034	74.07
362.245	29.01
362.456	14.68
362.667	20.82
362.879	-26.28
363.09	8.53
363.301	24.92
363.512	43.35
363.723	65.88
363.935	57.68
364.146	67.92
364.357	24.92
364.568	35.16
364.779	12.63
364.99	10.58
365.201	2.39
365.412	47.44
365.623	14.68
365.834	20.82
366.045	-30.38
366.256	72.02
366.467	-1.71
366.678	18.77
366.889	-20.14
367.1	16.73
367.311	-36.52
367.522	57.68
367.733	35.16
367.944	18.77
368.155	78.16
368.366	26.96
368.577	14.68
368.788	74.07
368.999	-7.85
369.209	16.73
369.42	55.64
369.631	26.96
369.842	-5.8
370.053	72.02
370.264	-13.99
370.474	84.31
370.685	0.34
370.896	-73.39
371.107	29.01
371.317	94.55
371.528	55.64
371.739	65.88
371.95	35.16
372.16	69.97
372.371	-9.9
372.582	84.31
372.792	26.96
373.003	-1.71
373.214	24.92
373.424	67.92
373.635	-32.43
373.846	41.3
374.056	72.02
374.267	-102.06
374.477	-5.8
374.688	24.92
374.898	-48.81
375.109	-9.9
375.319	61.78
375.53	49.49
375.74	26.96
375.951	10.58
376.161	4.44
376.372	65.88
376.582	-18.09
376.793	-22.19
377.003	-22.19
377.214	31.06
377.424	26.96
377.635	29.01
377.845	43.35
378.055	55.64
378.266	33.11
378.476	63.83
378.686	12.63
378.897	49.49
379.107	59.73
379.317	-42.67
379.528	33.11
379.738	39.25
379.948	33.11
380.158	-1.71
380.369	55.64
380.579	16.73
380.789	16.73
380.999	59.73
381.21	-32.43
381.42	-18.09
381.63	29.01
381.84	94.55
382.05	33.11
382.261	131.41
382.471	-1.71
382.681	6.49
382.891	2.39
383.101	14.68
383.311	-20.14
383.521	16.73
383.731	16.73
383.941	74.07
384.151	24.92
384.361	84.31
384.571	98.64
384.781	67.92
384.991	-7.85
385.201	65.88
385.411	31.06
385.621	35.16
385.831	-24.23
386.041	-16.04
386.251	12.63
386.461	41.3
386.671	-7.85
386.881	31.06
387.091	6.49
387.301	149.84
387.511	10.58
387.72	18.77
387.93	-22.19
388.14	12.63
388.35	6.49
388.56	61.78
388.769	41.3
388.979	6.49
389.189	6.49
389.399	67.92
389.609	59.73
389.818	47.44
390.028	2.39
390.238	26.96
390.447	-34.47
390.657	61.78
390.867	72.02
391.076	98.64
391.286	-3.75
391.496	59.73
391.705	18.77
391.915	86.36
392.125	8.53
392.334	51.54
392.544	55.64
392.753	49.49
392.963	-38.57
393.172	33.11
393.382	2.39
393.591	24.92
393.801	-24.23
394.01	24.92
394.22	16.73
394.429	16.73
394.639	4.44
394.848	51.54
395.058	10.58
395.267	10.58
395.477	86.36
395.686	4.44
395.895	168.27
396.105	69.97
396.314	80.21
396.524	47.44
396.733	35.16
396.942	80.21
397.152	65.88
397.361	33.11
397.57	-34.47
397.78	20.82
397.989	72.02
398.198	145.75
398.407	98.64
398.617	102.74
398.826	88.4
399.035	29.01
399.244	51.54
399.453	112.98
399.663	31.06
399.872	45.4
400.081	84.31
400.29	72.02
400.499	100.69
400.708	35.16
400.917	76.12
401.127	96.6
401.336	8.53
401.545	69.97
401.754	51.54
401.963	158.03
402.172	98.64
402.381	92.5
402.59	65.88
402.799	96.6
403.008	104.79
403.217	61.78
403.426	72.02
403.635	108.88
403.844	112.98
404.053	110.93
404.262	43.35
404.471	133.46
404.68	43.35
404.888	129.36
405.097	96.6
405.306	129.36
405.515	67.92
405.724	137.56
405.933	86.36
406.142	149.84
406.35	151.89
406.559	203.09
406.768	129.36
406.977	112.98
407.185	168.27
407.394	219.47
407.603	117.08
407.812	90.45
408.02	198.99
408.229	141.65
408.438	117.08
408.646	192.85
408.855	172.37
409.064	207.19
409.272	213.33
409.481	166.23
409.69	225.62
409.898	194.9
410.107	162.13
410.315	219.47
410.524	166.23
410.733	309.58
410.941	254.29
411.15	235.86
411.358	223.57
411.567	282.96
411.775	346.45
411.984	268.63
412.192	282.96
412.401	336.21
412.609	342.35
412.818	344.4
413.026	319.82
413.234	330.06
413.443	432.46
413.651	414.03
413.86	379.22
414.068	432.46
414.276	418.13
414.485	555.34
414.693	498
414.901	481.61
415.11	541.01
415.318	524.62
415.526	571.72
415.734	573.77
415.943	596.3
416.151	588.11
416.359	561.48
416.567	588.11
416.776	645.45
416.984	733.51
417.192	768.33
417.4	768.33
417.608	710.99
417.817	790.86
418.025	797
418.233	772.43
418.441	840.01
418.649	868.68
418.857	915.78
419.065	1014.09
419.273	960.84
419.481	1057.09
419.689	1124.68
419.897	1063.24
420.105	1136.96
420.313	1147.2
420.521	1098.05
420.729	1210.69
420.937	1294.66
421.145	1354.05
421.353	1317.19
421.561	1472.83
421.769	1468.73
421.977	1591.61
422.185	1495.36
422.393	1618.24
422.601	1749.31
422.809	1823.03
423.017	1712.44
423.224	1755.45
423.432	1913.14
423.64	1915.19
423.848	2081.08
424.056	1993.01
424.263	2195.76
424.471	2189.62
424.679	2222.39
424.887	2337.07
425.094	2392.37
425.302	2431.28
425.51	2515.25
425.718	2539.82
425.925	2660.65
426.133	2636.08
426.341	2869.55
426.548	2994.47
426.756	3070.25
426.964	3137.83
427.171	3076.39
427.379	3123.49
427.586	3232.04
427.794	3307.81
428.001	3533.09
428.209	3758.36
428.417	3563.81
428.624	4040.98
428.832	3864.86
429.039	3936.54
429.247	3877.15
429.454	4286.74
429.662	4614.41
429.869	4364.56
430.076	4653.33
430.284	4497.68
430.491	4634.89
430.699	4946.19
430.906	4813.07
431.114	4962.57
431.321	5138.69
431.528	5120.26
431.736	5464.32
431.943	5708.03
432.15	5650.69
432.358	5798.14
432.565	6109.43
432.772	6199.54
432.979	6224.12
433.187	6453.49
433.394	6467.83
433.601	7092.46
433.808	6936.81
434.016	6910.19
434.223	7278.82
434.43	7733.47
434.637	7487.72
434.844	7934.17
435.052	8110.3
435.259	7993.56
435.466	8376.53
435.673	8108.25
435.88	8534.23
436.087	8839.37
436.294	9035.98
436.501	8833.23
436.708	8968.4
436.915	9410.76
437.122	9832.64
437.329	9740.48
437.537	10012.86
437.743	10346.68
437.95	10176.7
438.157	10666.16
438.364	11096.24
438.571	11020.46
438.778	11104.43
438.985	12118.17
439.192	11810.98
439.399	12171.42
439.606	11757.73
439.813	12511.38
440.02	12994.7
440.227	12826.77
440.433	12691.6
440.64	13385.87
440.847	13213.84
441.054	13539.46
441.261	14254.2
441.467	14055.55
441.674	14499.96
441.881	15251.56
442.088	14946.42
442.294	14993.52
442.501	15317.1
442.708	15499.37
442.914	16023.65
443.121	17082.45
443.328	16222.3
443.534	17563.72
443.741	17117.26
443.948	16861.27
444.154	17963.08
444.361	18094.15
444.568	18225.22
444.774	18253.89
444.981	18456.64
445.187	19134.51
445.394	19597.35
445.6	19458.09
445.807	21413.9
446.013	20627.48
446.22	20641.82
446.426	21426.19
446.633	21803.02
446.839	22915.06
447.046	21424.14
447.252	22818.81
447.459	22906.87
447.665	23060.47
447.871	24131.56
448.078	25147.35
448.284	23697.39
448.491	24332.26
448.697	25374.67
448.903	25724.88
449.11	26273.73
449.316	25290.71
449.522	25913.29
449.728	26902.46
449.935	27039.67
450.141	26990.52
450.347	27500.47
450.553	26843.07
450.76	27021.24
450.966	27975.59
451.172	27977.64
451.378	28268.45
451.584	28030.89
451.791	28276.65
451.997	28317.61
452.203	28936.09
452.409	28884.89
452.615	28565.41
452.821	27723.69
453.027	27697.07
453.233	29061.02
453.44	27778.99
453.646	28448.68
453.852	28286.89
454.058	28891.04
454.264	27770.8
454.47	28329.89
454.676	27801.52
454.882	28686.24
455.088	26386.37
455.294	26570.69
455.5	26994.62
455.705	27504.56
455.911	26298.31
456.117	25907.15
456.323	25421.78
456.529	23898.09
456.735	25384.91
456.941	24567.77
457.147	24297.44
457.352	23625.71
457.558	23429.1
457.764	23009.27
457.97	22999.03
458.176	22177.79
458.381	22425.6
458.587	21209.11
458.793	21075.99
458.999	20174.88
459.204	21370.9
459.41	20930.58
459.616	19466.28
459.821	19591.21
460.027	19466.28
460.233	19185.71
460.438	18053.19
460.644	18118.72
460.85	17719.37
461.055	17256.53
461.261	16797.78
461.466	15980.64
461.672	15282.28
461.878	16380
462.083	15384.68
462.289	14981.23
462.494	14993.52
462.7	14256.25
462.905	13627.53
463.111	14229.63
463.316	14540.92
463.522	14164.09
463.727	14237.82
463.932	13936.77
464.138	14020.74
464.343	14108.8
464.549	13539.46
464.754	14114.94
464.959	14030.98
465.165	13932.67
465.37	13408.39
465.575	12781.71
465.781	13541.51
465.986	13645.96
466.191	12961.94
466.397	12898.45
466.602	12161.18
466.807	12693.65
467.012	12834.96
467.218	12796.05
467.423	12507.29
467.628	12564.63
