Data from USB4F104151__68__12-59-36-022.txt Node

Date: Fri Mar 14 12:59:36 EDT 2025
User: louis
Spectrometer: USB4F10415
Trigger mode: 4
Integration Time (sec): 1.000000E-2
Scans to average: 1
Electric dark correction enabled: true
Nonlinearity correction enabled: false
Boxcar width: 0
XAxis mode: Wavelengths
Number of Pixels in Spectrum: 3648
>>>>>Begin Spectral Data<<<<<
178.204	-23.55
178.424	-23.55
178.644	-23.55
178.864	-21.5
179.084	-31.74
179.304	-39.94
179.524	-39.94
179.744	-17.41
179.964	27.65
180.184	-13.31
180.404	-1.02
180.624	11.26
180.844	72.7
181.064	-54.27
181.283	44.03
181.503	23.55
181.723	-13.31
181.943	-35.84
182.163	39.94
182.383	37.89
182.602	19.46
182.822	72.7
183.042	31.74
183.262	39.94
183.482	39.94
183.701	-19.46
183.921	23.55
184.141	-31.74
184.361	95.23
184.58	7.17
184.8	74.75
185.02	3.07
185.239	76.8
185.459	25.6
185.679	39.94
185.898	21.5
186.118	39.94
186.338	25.6
186.557	25.6
186.777	-13.31
186.997	19.46
187.216	11.26
187.436	25.6
187.655	50.18
187.875	56.32
188.095	-9.22
188.314	27.65
188.534	23.55
188.753	9.22
188.973	39.94
189.192	48.13
189.412	33.79
189.631	3.07
189.851	-17.41
190.07	-37.89
190.29	-25.6
190.509	35.84
190.729	-15.36
190.948	62.46
191.168	41.98
191.387	1.02
191.607	39.94
191.826	19.46
192.045	70.65
192.265	31.74
192.484	17.41
192.704	-33.79
192.923	-11.26
193.142	33.79
193.362	39.94
193.581	80.89
193.8	70.65
194.02	39.94
194.239	21.5
194.458	-1.02
194.678	-23.55
194.897	7.17
195.116	15.36
195.335	64.51
195.555	48.13
195.774	-7.17
195.993	56.32
196.212	15.36
196.432	31.74
196.651	7.17
196.87	13.31
197.089	27.65
197.308	-5.12
197.528	-35.84
197.747	17.41
197.966	-3.07
198.185	23.55
198.404	19.46
198.623	64.51
198.842	-17.41
199.062	46.08
199.281	68.61
199.5	76.8
199.719	23.55
199.938	17.41
200.157	15.36
200.376	82.94
200.595	41.98
200.814	25.6
201.033	-27.65
201.252	125.95
201.471	74.75
201.69	-21.5
201.909	50.18
202.128	-7.17
202.347	46.08
202.566	-31.74
202.785	-25.6
203.004	-35.84
203.223	9.22
203.442	-15.36
203.661	-9.22
203.879	23.55
204.098	31.74
204.317	-54.27
204.536	39.94
204.755	9.22
204.974	19.46
205.193	44.03
205.411	80.89
205.63	41.98
205.849	11.26
206.068	37.89
206.287	74.75
206.505	19.46
206.724	-9.22
206.943	-11.26
207.162	64.51
207.381	5.12
207.599	-41.98
207.818	23.55
208.037	-29.7
208.255	-74.75
208.474	21.5
208.693	11.26
208.911	27.65
209.13	3.07
209.349	21.5
209.567	58.37
209.786	-33.79
210.005	-13.31
210.223	-33.79
210.442	33.79
210.661	9.22
210.879	54.27
211.098	23.55
211.316	-27.65
211.535	21.5
211.753	9.22
211.972	48.13
212.191	13.31
212.409	-17.41
212.628	-78.85
212.846	48.13
213.065	-35.84
213.283	48.13
213.502	-15.36
213.72	-19.46
213.938	72.7
214.157	13.31
214.375	3.07
214.594	-7.17
214.812	3.07
215.031	72.7
215.249	82.94
215.467	-11.26
215.686	19.46
215.904	13.31
216.122	-31.74
216.341	97.28
216.559	11.26
216.778	54.27
216.996	58.37
217.214	80.89
217.432	58.37
217.651	70.65
217.869	21.5
218.087	-35.84
218.306	-37.89
218.524	33.79
218.742	25.6
218.96	39.94
219.179	11.26
219.397	-56.32
219.615	-33.79
219.833	-5.12
220.051	80.89
220.27	52.22
220.488	33.79
220.706	7.17
220.924	17.41
221.142	56.32
221.36	-64.51
221.578	23.55
221.796	54.27
222.015	23.55
222.233	-23.55
222.451	-1.02
222.669	-21.5
222.887	-9.22
223.105	44.03
223.323	62.46
223.541	29.7
223.759	-17.41
223.977	13.31
224.195	46.08
224.413	23.55
224.631	48.13
224.849	-1.02
225.067	-54.27
225.285	9.22
225.503	7.17
225.721	132.09
225.939	-21.5
226.157	-23.55
226.375	60.42
226.592	19.46
226.81	-56.32
227.028	31.74
227.246	58.37
227.464	15.36
227.682	31.74
227.9	-54.27
228.117	-58.37
228.335	29.7
228.553	-3.07
228.771	11.26
228.989	58.37
229.206	1.02
229.424	39.94
229.642	-17.41
229.86	35.84
230.077	-23.55
230.295	-9.22
230.513	74.75
230.731	27.65
230.948	1.02
231.166	56.32
231.384	62.46
231.601	41.98
231.819	35.84
232.037	41.98
232.254	17.41
232.472	1.02
232.689	-27.65
232.907	13.31
233.125	-5.12
233.342	29.7
233.56	50.18
233.777	64.51
233.995	60.42
234.213	21.5
234.43	13.31
234.648	-1.02
234.865	15.36
235.083	5.12
235.3	58.37
235.518	35.84
235.735	72.7
235.953	68.61
236.17	35.84
236.388	27.65
236.605	113.66
236.822	5.12
237.04	48.13
237.257	-46.08
237.475	70.65
237.692	37.89
237.909	70.65
238.127	21.5
238.344	21.5
238.562	-1.02
238.779	-31.74
238.996	3.07
239.214	82.94
239.431	25.6
239.648	27.65
239.865	41.98
240.083	41.98
240.3	-66.56
240.517	72.7
240.735	-9.22
240.952	3.07
241.169	25.6
241.386	-7.17
241.603	60.42
241.821	27.65
242.038	56.32
242.255	-17.41
242.472	25.6
242.689	-9.22
242.907	-7.17
243.124	25.6
243.341	27.65
243.558	29.7
243.775	15.36
243.992	27.65
244.209	41.98
244.426	58.37
244.643	39.94
244.86	31.74
245.078	60.42
245.295	58.37
245.512	46.08
245.729	-7.17
245.946	-15.36
246.163	-1.02
246.38	41.98
246.597	19.46
246.814	-31.74
247.031	72.7
247.248	-9.22
247.464	21.5
247.681	-25.6
247.898	7.17
248.115	13.31
248.332	-19.46
248.549	138.24
248.766	23.55
248.983	-31.74
249.2	27.65
249.417	-23.55
249.633	-25.6
249.85	25.6
250.067	-46.08
250.284	31.74
250.501	-46.08
250.717	44.03
250.934	5.12
251.151	1.02
251.368	46.08
251.585	70.65
251.801	33.79
252.018	56.32
252.235	-46.08
252.451	31.74
252.668	11.26
252.885	19.46
253.102	46.08
253.318	-41.98
253.535	33.79
253.752	27.65
253.968	15.36
254.185	48.13
254.401	-48.13
254.618	58.37
254.835	41.98
255.051	-46.08
255.268	46.08
255.484	21.5
255.701	52.22
255.917	54.27
256.134	23.55
256.351	64.51
256.567	9.22
256.784	7.17
257	-17.41
257.217	27.65
257.433	62.46
257.65	33.79
257.866	74.75
258.082	27.65
258.299	-52.22
258.515	52.22
258.732	27.65
258.948	-29.7
259.165	29.7
259.381	37.89
259.597	52.22
259.814	41.98
260.03	-1.02
260.246	-3.07
260.463	-27.65
260.679	9.22
260.895	27.65
261.112	25.6
261.328	-39.94
261.544	-3.07
261.761	54.27
261.977	29.7
262.193	-17.41
262.409	39.94
262.626	-7.17
262.842	-3.07
263.058	33.79
263.274	66.56
263.49	1.02
263.707	70.65
263.923	7.17
264.139	9.22
264.355	48.13
264.571	80.89
264.787	35.84
265.004	41.98
265.22	5.12
265.436	9.22
265.652	-66.56
265.868	62.46
266.084	37.89
266.3	109.57
266.516	-27.65
266.732	-13.31
266.948	44.03
267.164	23.55
267.38	68.61
267.596	9.22
267.812	93.18
268.028	64.51
268.244	58.37
268.46	-7.17
268.676	62.46
268.892	31.74
269.108	97.28
269.324	54.27
269.54	33.79
269.756	54.27
269.972	13.31
270.188	33.79
270.403	-37.89
270.619	17.41
270.835	74.75
271.051	-66.56
271.267	-50.18
271.483	23.55
271.698	-11.26
271.914	68.61
272.13	35.84
272.346	-39.94
272.562	21.5
272.777	41.98
272.993	25.6
273.209	48.13
273.425	78.85
273.64	7.17
273.856	3.07
274.072	46.08
274.287	66.56
274.503	72.7
274.719	-31.74
274.934	27.65
275.15	60.42
275.366	27.65
275.581	35.84
275.797	58.37
276.012	21.5
276.228	31.74
276.444	31.74
276.659	35.84
276.875	-3.07
277.09	-7.17
277.306	27.65
277.521	138.24
277.737	58.37
277.952	33.79
278.168	97.28
278.383	56.32
278.599	-25.6
278.814	21.5
279.03	39.94
279.245	72.7
279.461	7.17
279.676	58.37
279.892	-3.07
280.107	13.31
280.322	3.07
280.538	-46.08
280.753	-33.79
280.969	-15.36
281.184	-11.26
281.399	23.55
281.615	-68.61
281.83	56.32
282.045	41.98
282.26	-25.6
282.476	-39.94
282.691	54.27
282.906	-7.17
283.122	19.46
283.337	-3.07
283.552	56.32
283.767	33.79
283.983	97.28
284.198	-11.26
284.413	31.74
284.628	29.7
284.843	-31.74
285.058	9.22
285.274	54.27
285.489	78.85
285.704	60.42
285.919	9.22
286.134	60.42
286.349	41.98
286.564	80.89
286.779	-25.6
286.995	-25.6
287.21	7.17
287.425	56.32
287.64	-9.22
287.855	-3.07
288.07	-9.22
288.285	52.22
288.5	-7.17
288.715	60.42
288.93	60.42
289.145	48.13
289.36	23.55
289.575	-9.22
289.79	56.32
290.004	-64.51
290.219	-39.94
290.434	9.22
290.649	-31.74
290.864	68.61
291.079	-15.36
291.294	-48.13
291.509	17.41
291.724	82.94
291.938	70.65
292.153	27.65
292.368	-39.94
292.583	41.98
292.798	-1.02
293.012	17.41
293.227	58.37
293.442	3.07
293.657	9.22
293.871	72.7
294.086	33.79
294.301	-3.07
294.516	48.13
294.73	44.03
294.945	-1.02
295.16	-48.13
295.374	97.28
295.589	70.65
295.804	-11.26
296.018	21.5
296.233	7.17
296.447	19.46
296.662	-1.02
296.877	-15.36
297.091	23.55
297.306	-19.46
297.52	-9.22
297.735	60.42
297.949	31.74
298.164	89.09
298.378	27.65
298.593	68.61
298.807	-15.36
299.022	41.98
299.236	99.33
299.451	-9.22
299.665	-25.6
299.88	15.36
300.094	-3.07
300.309	68.61
300.523	64.51
300.737	3.07
300.952	52.22
301.166	107.52
301.381	9.22
301.595	-39.94
301.809	15.36
302.024	19.46
302.238	58.37
302.452	109.57
302.667	-3.07
302.881	91.13
303.095	-39.94
303.309	-5.12
303.524	-41.98
303.738	-29.7
303.952	33.79
304.166	1.02
304.381	44.03
304.595	-5.12
304.809	19.46
305.023	29.7
305.237	-9.22
305.452	66.56
305.666	-7.17
305.88	99.33
306.094	39.94
306.308	29.7
306.522	23.55
306.736	60.42
306.95	-58.37
307.164	-13.31
307.379	-7.17
307.593	21.5
307.807	68.61
308.021	17.41
308.235	50.18
308.449	-103.42
308.663	19.46
308.877	84.99
309.091	1.02
309.305	48.13
309.519	35.84
309.733	-23.55
309.947	15.36
310.161	56.32
310.374	17.41
310.588	-7.17
310.802	-27.65
311.016	39.94
311.23	52.22
311.444	-1.02
311.658	35.84
311.872	25.6
312.085	39.94
312.299	31.74
312.513	64.51
312.727	54.27
312.941	29.7
313.154	19.46
313.368	25.6
313.582	23.55
313.796	23.55
314.009	66.56
314.223	33.79
314.437	44.03
314.651	-58.37
314.864	7.17
315.078	15.36
315.292	-5.12
315.505	-1.02
315.719	23.55
315.933	1.02
316.146	9.22
316.36	-15.36
316.573	-25.6
316.787	56.32
317.001	15.36
317.214	-1.02
317.428	-13.31
317.641	17.41
317.855	-1.02
318.068	-48.13
318.282	107.52
318.495	7.17
318.709	-17.41
318.922	29.7
319.136	70.65
319.349	-17.41
319.563	29.7
319.776	58.37
319.99	44.03
320.203	-15.36
320.417	56.32
320.63	-52.22
320.843	-29.7
321.057	13.31
321.27	15.36
321.483	-5.12
321.697	56.32
321.91	46.08
322.124	17.41
322.337	41.98
322.55	48.13
322.763	70.65
322.977	-56.32
323.19	-37.89
323.403	-1.02
323.617	68.61
323.83	11.26
324.043	-9.22
324.256	-1.02
324.469	-7.17
324.683	52.22
324.896	-1.02
325.109	35.84
325.322	21.5
325.535	68.61
325.748	-17.41
325.962	62.46
326.175	50.18
326.388	17.41
326.601	50.18
326.814	-3.07
327.027	-35.84
327.24	78.85
327.453	31.74
327.666	-13.31
327.879	74.75
328.092	-41.98
328.305	-21.5
328.518	-37.89
328.731	44.03
328.944	44.03
329.157	21.5
329.37	5.12
329.583	-15.36
329.796	7.17
330.009	-58.37
330.222	56.32
330.435	50.18
330.648	58.37
330.861	99.33
331.073	21.5
331.286	-31.74
331.499	50.18
331.712	-9.22
331.925	9.22
332.138	-1.02
332.35	9.22
332.563	-29.7
332.776	72.7
332.989	35.84
333.202	-13.31
333.414	11.26
333.627	3.07
333.84	5.12
334.053	19.46
334.265	9.22
334.478	7.17
334.691	60.42
334.903	3.07
335.116	7.17
335.329	117.76
335.541	35.84
335.754	68.61
335.966	76.8
336.179	58.37
336.392	-13.31
336.604	11.26
336.817	68.61
337.029	-19.46
337.242	1.02
337.454	15.36
337.667	-11.26
337.88	62.46
338.092	44.03
338.305	5.12
338.517	101.37
338.729	80.89
338.942	17.41
339.154	23.55
339.367	-13.31
339.579	-13.31
339.792	-72.7
340.004	-5.12
340.217	21.5
340.429	35.84
340.641	5.12
340.854	64.51
341.066	25.6
341.278	-1.02
341.491	41.98
341.703	3.07
341.915	46.08
342.128	-21.5
342.34	27.65
342.552	37.89
342.764	52.22
342.977	-39.94
343.189	-19.46
343.401	33.79
343.613	48.13
343.826	31.74
344.038	41.98
344.25	-31.74
344.462	3.07
344.674	44.03
344.886	7.17
345.099	52.22
345.311	29.7
345.523	74.75
345.735	-17.41
345.947	3.07
346.159	39.94
346.371	13.31
346.583	46.08
346.795	11.26
347.007	39.94
347.219	46.08
347.431	37.89
347.643	23.55
347.855	7.17
348.067	1.02
348.279	27.65
348.491	109.57
348.703	72.7
348.915	54.27
349.127	17.41
349.339	31.74
349.551	-25.6
349.763	27.65
349.975	25.6
350.187	-11.26
350.399	41.98
350.61	56.32
350.822	-3.07
351.034	115.71
351.246	-5.12
351.458	-21.5
351.669	7.17
351.881	-5.12
352.093	37.89
352.305	-23.55
352.517	-29.7
352.728	41.98
352.94	-21.5
353.152	52.22
353.363	31.74
353.575	87.04
353.787	17.41
353.999	15.36
354.21	46.08
354.422	56.32
354.633	-35.84
354.845	25.6
355.057	-50.18
355.268	29.7
355.48	1.02
355.692	48.13
355.903	29.7
356.115	-56.32
356.326	21.5
356.538	82.94
356.749	-31.74
356.961	37.89
357.172	-17.41
357.384	56.32
357.595	-25.6
357.807	56.32
358.018	-5.12
358.23	9.22
358.441	68.61
358.653	37.89
358.864	-46.08
359.075	27.65
359.287	-17.41
359.498	80.89
359.709	25.6
359.921	-1.02
360.132	-9.22
360.344	72.7
360.555	-7.17
360.766	46.08
360.977	-1.02
361.189	-13.31
361.4	62.46
361.611	60.42
361.823	70.65
362.034	7.17
362.245	-13.31
362.456	23.55
362.667	15.36
362.879	-52.22
363.09	13.31
363.301	9.22
363.512	-11.26
363.723	-3.07
363.935	-5.12
364.146	33.79
364.357	-23.55
364.568	31.74
364.779	33.79
364.99	27.65
365.201	74.75
365.412	-5.12
365.623	56.32
365.834	97.28
366.045	15.36
366.256	58.37
366.467	5.12
366.678	35.84
366.889	11.26
367.1	39.94
367.311	60.42
367.522	17.41
367.733	25.6
367.944	7.17
368.155	27.65
368.366	1.02
368.577	121.85
368.788	17.41
368.999	37.89
369.209	1.02
369.42	-15.36
369.631	54.27
369.842	35.84
370.053	35.84
370.264	52.22
370.474	-29.7
370.685	31.74
370.896	-9.22
371.107	-5.12
371.317	41.98
371.528	-9.22
371.739	31.74
371.95	58.37
372.16	52.22
372.371	31.74
372.582	25.6
372.792	9.22
373.003	7.17
373.214	-7.17
373.424	11.26
373.635	68.61
373.846	39.94
374.056	27.65
374.267	54.27
374.477	-13.31
374.688	138.24
374.898	-7.17
375.109	70.65
375.319	-17.41
375.53	70.65
375.74	31.74
375.951	27.65
376.161	60.42
376.372	50.18
376.582	-21.5
376.793	-7.17
377.003	-15.36
377.214	58.37
377.424	31.74
377.635	-29.7
377.845	39.94
378.055	39.94
378.266	7.17
378.476	15.36
378.686	31.74
378.897	64.51
379.107	101.37
379.317	15.36
379.528	-41.98
379.738	9.22
379.948	-7.17
380.158	31.74
380.369	-1.02
380.579	9.22
380.789	21.5
380.999	74.75
381.21	62.46
381.42	70.65
381.63	72.7
381.84	31.74
382.05	58.37
382.261	-1.02
382.471	39.94
382.681	48.13
382.891	54.27
383.101	44.03
383.311	21.5
383.521	1.02
383.731	87.04
383.941	21.5
384.151	64.51
384.361	-37.89
384.571	15.36
384.781	68.61
384.991	-17.41
385.201	15.36
385.411	27.65
385.621	-1.02
385.831	35.84
386.041	80.89
386.251	35.84
386.461	41.98
386.671	52.22
386.881	103.42
387.091	-27.65
387.301	72.7
387.511	-29.7
387.72	33.79
387.93	54.27
388.14	39.94
388.35	62.46
388.56	44.03
388.769	37.89
388.979	80.89
389.189	48.13
389.399	48.13
389.609	84.99
389.818	103.42
390.028	23.55
390.238	52.22
390.447	9.22
390.657	-9.22
390.867	41.98
391.076	33.79
391.286	23.55
391.496	13.31
391.705	50.18
391.915	5.12
392.125	62.46
392.334	99.33
392.544	29.7
392.753	56.32
392.963	17.41
393.172	60.42
393.382	-29.7
393.591	27.65
393.801	-29.7
394.01	60.42
394.22	82.94
394.429	58.37
394.639	54.27
394.848	89.09
395.058	9.22
395.267	3.07
395.477	68.61
395.686	37.89
395.895	103.42
396.105	60.42
396.314	44.03
396.524	72.7
396.733	64.51
396.942	44.03
397.152	121.85
397.361	33.79
397.57	99.33
397.78	41.98
397.989	13.31
398.198	19.46
398.407	13.31
398.617	66.56
398.826	23.55
399.035	21.5
399.244	48.13
399.453	-17.41
399.663	48.13
399.872	70.65
400.081	-7.17
400.29	7.17
400.499	31.74
400.708	15.36
400.917	11.26
401.127	33.79
401.336	50.18
401.545	39.94
401.754	25.6
401.963	58.37
402.172	23.55
402.381	19.46
402.59	52.22
402.799	101.37
403.008	105.47
403.217	130.05
403.426	48.13
403.635	27.65
403.844	35.84
404.053	23.55
404.262	41.98
404.471	52.22
404.68	-21.5
404.888	58.37
405.097	39.94
405.306	117.76
405.515	52.22
405.724	56.32
405.933	58.37
406.142	82.94
406.35	48.13
406.559	82.94
406.768	66.56
406.977	25.6
407.185	103.42
407.394	66.56
407.603	80.89
407.812	80.89
408.02	72.7
408.229	72.7
408.438	91.13
408.646	37.89
408.855	52.22
409.064	109.57
409.272	37.89
409.481	134.14
409.69	142.33
409.898	91.13
410.107	29.7
410.315	119.81
410.524	115.71
410.733	56.32
410.941	50.18
411.15	91.13
411.358	44.03
411.567	66.56
411.775	115.71
411.984	109.57
412.192	146.43
412.401	107.52
412.609	197.63
412.818	158.72
413.026	134.14
413.234	189.44
413.443	158.72
413.651	115.71
413.86	142.33
414.068	246.78
414.276	144.38
414.485	130.05
414.693	142.33
414.901	134.14
415.11	171.01
415.318	289.79
415.526	244.73
415.734	216.06
415.943	222.2
416.151	238.59
416.359	205.82
416.567	230.4
416.776	211.96
416.984	265.21
417.192	271.36
417.4	279.55
417.608	222.2
417.817	173.05
418.025	240.64
418.233	386.04
418.441	222.2
418.649	379.9
418.857	263.16
419.065	320.51
419.273	336.89
419.481	396.28
419.689	334.84
419.897	361.47
420.105	302.08
420.313	406.52
420.521	308.22
420.729	443.39
420.937	427
421.145	474.1
421.353	416.76
421.561	549.88
421.769	539.64
421.977	465.91
422.185	549.88
422.393	594.93
422.601	543.74
422.809	543.74
423.017	492.54
423.224	582.65
423.432	615.41
423.64	515.06
423.848	639.99
424.056	672.76
424.263	689.14
424.471	650.23
424.679	715.77
424.887	742.39
425.094	711.67
425.302	736.24
425.51	832.5
425.718	865.27
425.925	826.36
426.133	838.64
426.341	828.4
426.548	959.47
426.756	855.03
426.964	1006.58
427.171	1006.58
427.379	1035.25
427.586	1002.48
427.794	1123.31
428.001	1172.46
428.209	1143.79
428.417	1194.99
428.624	1240.05
428.832	1252.33
429.039	1254.38
429.247	1240.05
429.454	1410.03
429.662	1461.23
429.869	1332.2
430.076	1403.88
430.284	1496.04
430.491	1450.99
430.699	1553.38
430.906	1506.28
431.114	1555.43
431.321	1590.25
431.528	1608.68
431.736	1749.99
431.943	1788.9
432.15	1678.31
432.358	1883.11
432.565	1891.3
432.772	1913.83
432.979	1885.16
433.187	1854.44
433.394	1977.31
433.601	2161.63
433.808	2092
434.016	2071.52
434.223	2130.91
434.43	2300.89
434.637	2391
434.844	2442.2
435.052	2413.53
435.259	2466.78
435.466	2524.12
435.673	2565.08
435.88	2505.69
436.087	2872.28
436.294	2862.04
436.501	2749.4
436.708	2712.53
436.915	2837.46
437.122	2986.96
437.329	2911.19
437.537	3091.41
437.743	3107.79
437.95	3148.75
438.157	3171.28
438.364	3458
438.571	3253.2
438.778	3226.57
438.985	3752.9
439.192	3529.67
439.399	3566.54
439.606	3582.92
439.813	3840.97
440.02	3935.17
440.227	3996.61
440.433	3926.98
440.64	4004.8
440.847	4117.44
441.054	3933.12
441.261	4539.32
441.467	4185.02
441.674	4377.53
441.881	4688.82
442.088	4504.51
442.294	4498.36
442.501	4711.35
442.708	4762.55
442.914	5022.64
443.121	5209.01
443.328	5018.55
443.534	5491.63
443.741	5137.33
443.948	5170.1
444.154	5528.49
444.361	5430.19
444.568	5475.24
444.774	5532.59
444.981	5655.47
445.187	5782.44
445.394	5899.17
445.6	5931.94
445.807	6566.81
446.013	6208.42
446.22	6226.85
446.426	6634.39
446.633	6663.07
446.839	6798.23
447.046	6656.92
447.252	7048.08
447.459	7003.03
447.665	7033.75
447.871	7433.1
448.078	7545.74
448.284	7244.69
448.491	7490.45
448.697	7553.93
448.903	7844.74
449.11	7793.55
449.316	7885.7
449.522	7938.95
449.728	8311.68
449.935	8450.94
450.141	8106.88
450.347	8381.31
450.553	8338.3
450.76	8166.28
450.966	8539.01
451.172	8450.94
451.378	8598.4
451.584	8481.66
451.791	8821.63
451.997	8674.17
452.203	8885.11
452.409	8840.06
452.615	8737.66
452.821	8602.49
453.027	8491.9
453.233	8764.28
453.44	8620.92
453.646	8876.92
453.852	8692.6
454.058	8758.14
454.264	8530.81
454.47	8797.05
454.676	8655.74
454.882	8860.54
455.088	8067.97
455.294	8452.99
455.5	8424.32
455.705	8606.59
455.911	8086.4
456.117	8074.12
456.323	7699.34
456.529	7388.05
456.735	7711.63
456.941	7408.53
457.147	7404.43
457.352	7136.15
457.558	7080.85
457.764	7166.87
457.97	6896.53
458.176	6785.94
458.381	6794.14
458.587	6427.55
458.793	6701.98
458.999	6114.21
459.204	6661.02
459.41	6351.78
459.616	6116.26
459.821	5942.18
460.027	6046.63
460.233	5933.99
460.438	5665.71
460.644	5712.81
460.85	5397.42
461.055	5284.78
461.261	5458.86
461.466	4901.81
461.672	4758.46
461.878	5149.62
462.083	4805.56
462.289	4592.57
462.494	4651.96
462.7	4477.88
462.905	4410.3
463.111	4488.12
463.316	4486.08
463.522	4463.55
463.727	4291.52
463.932	4320.19
464.138	4213.7
464.343	4316.09
464.549	4307.9
464.754	4361.15
464.959	4473.79
465.165	4252.61
465.37	4094.91
465.575	3916.74
465.781	4178.88
465.986	4262.85
466.191	4086.72
466.397	4101.06
466.602	3732.42
466.807	3853.25
467.012	3865.54
467.218	3881.92
467.423	3910.6
467.628	3955.65
467.833	4082.63
468.038	3965.89
468.244	3904.45
468.449	3951.56
468.654	3861.45
468.859	3892.16
469.064	3797.96
469.269	3660.74
469.474	3640.26
469.679	3967.94
469.885	3574.73
470.09	3607.5
470.295	3666.89
470.5	3617.74
470.705	3693.51
470.91	3570.63
471.115	3521.48
471.32	3441.61
