Data from USB4F104151__101__13-00-17-117.txt Node

Date: Fri Mar 14 13:00:17 EDT 2025
User: louis
Spectrometer: USB4F10415
Trigger mode: 4
Integration Time (sec): 1.000000E-2
Scans to average: 1
Electric dark correction enabled: true
Nonlinearity correction enabled: false
Boxcar width: 0
XAxis mode: Wavelengths
Number of Pixels in Spectrum: 3648
>>>>>Begin Spectral Data<<<<<
178.204	8.02
178.424	8.02
178.644	8.02
178.864	-22.7
179.084	-30.89
179.304	-8.36
179.524	26.45
179.744	-59.56
179.964	-16.55
180.184	28.5
180.404	-2.22
180.624	-20.65
180.844	-2.22
181.064	-63.66
181.283	51.03
181.503	-14.51
181.723	81.75
181.943	-49.32
182.163	24.4
182.383	-12.46
182.602	-8.36
182.822	40.79
183.042	-24.75
183.262	26.45
183.482	-20.65
183.701	71.51
183.921	51.03
184.141	-41.13
184.361	8.02
184.58	1.88
184.8	14.17
185.02	16.21
185.239	3.93
185.459	-32.94
185.679	114.52
185.898	40.79
186.118	48.98
186.338	46.93
186.557	106.32
186.777	8.02
186.997	34.64
187.216	-8.36
187.436	8.02
187.655	-32.94
187.875	48.98
188.095	-0.17
188.314	12.12
188.534	-22.7
188.753	28.5
188.973	16.21
189.192	12.12
189.412	38.74
189.631	12.12
189.851	116.56
190.07	-30.89
190.29	-4.27
190.509	26.45
190.729	-37.03
190.948	57.17
191.168	44.88
191.387	24.4
191.607	40.79
191.826	55.12
192.045	55.12
192.265	-0.17
192.484	36.69
192.704	1.88
192.923	-37.03
193.142	14.17
193.362	51.03
193.581	26.45
193.8	32.6
194.02	40.79
194.239	94.04
194.458	59.22
194.678	-41.13
194.897	126.8
195.116	22.36
195.335	28.5
195.555	-41.13
195.774	-6.31
195.993	1.88
196.212	-8.36
196.432	-0.17
196.651	-26.79
196.87	5.97
197.089	51.03
197.308	24.4
197.528	14.17
197.747	20.31
197.966	5.97
198.185	112.47
198.404	5.97
198.623	-57.51
198.842	-10.41
199.062	55.12
199.281	24.4
199.5	-14.51
199.719	-18.6
199.938	73.56
200.157	69.46
200.376	73.56
200.595	48.98
200.814	-8.36
201.033	-26.79
201.252	59.22
201.471	16.21
201.69	20.31
201.909	16.21
202.128	-6.31
202.347	32.6
202.566	1.88
202.785	-8.36
203.004	-8.36
203.223	69.46
203.442	-47.27
203.661	-8.36
203.879	16.21
204.098	42.84
204.317	18.26
204.536	46.93
204.755	-12.46
204.974	14.17
205.193	16.21
205.411	44.88
205.63	-45.23
205.849	-32.94
206.068	40.79
206.287	48.98
206.505	-8.36
206.724	98.13
206.943	24.4
207.162	-65.71
207.381	12.12
207.599	53.08
207.818	38.74
208.037	46.93
208.255	-8.36
208.474	18.26
208.693	10.07
208.911	18.26
209.13	71.51
209.349	-4.27
209.567	-6.31
209.786	22.36
210.005	1.88
210.223	48.98
210.442	44.88
210.661	40.79
210.879	-37.03
211.098	53.08
211.316	32.6
211.535	-14.51
211.753	26.45
211.972	24.4
212.191	55.12
212.409	81.75
212.628	71.51
212.846	-4.27
213.065	30.55
213.283	14.17
213.502	24.4
213.72	44.88
213.938	12.12
214.157	26.45
214.375	3.93
214.594	16.21
214.812	73.56
215.031	-51.37
215.249	85.84
215.467	83.8
215.686	-18.6
215.904	3.93
216.122	-22.7
216.341	79.7
216.559	-22.7
216.778	65.36
216.996	46.93
217.214	32.6
217.432	-12.46
217.651	10.07
217.869	-16.55
218.087	-39.08
218.306	-22.7
218.524	36.69
218.742	1.88
218.96	42.84
219.179	57.17
219.397	34.64
219.615	-0.17
219.833	34.64
220.051	-6.31
220.27	83.8
220.488	71.51
220.706	1.88
220.924	5.97
221.142	-24.75
221.36	22.36
221.578	61.27
221.796	44.88
222.015	94.04
222.233	-59.56
222.451	22.36
222.669	59.22
222.887	24.4
223.105	14.17
223.323	26.45
223.541	32.6
223.759	-0.17
223.977	18.26
224.195	53.08
224.413	69.46
224.631	63.32
224.849	73.56
225.067	12.12
225.285	26.45
225.503	48.98
225.721	-16.55
225.939	-2.22
226.157	-34.99
226.375	12.12
226.592	-26.79
226.81	-22.7
227.028	12.12
227.246	34.64
227.464	20.31
227.682	-47.27
227.9	14.17
228.117	8.02
228.335	-63.66
228.553	1.88
228.771	40.79
228.989	65.36
229.206	20.31
229.424	34.64
229.642	51.03
229.86	28.5
230.077	-12.46
230.295	-14.51
230.513	12.12
230.731	69.46
230.948	36.69
231.166	130.9
231.384	1.88
231.601	40.79
231.819	59.22
232.037	36.69
232.254	16.21
232.472	24.4
232.689	65.36
232.907	-18.6
233.125	3.93
233.342	126.8
233.56	14.17
233.777	-18.6
233.995	24.4
234.213	44.88
234.43	-14.51
234.648	36.69
234.865	-67.75
235.083	65.36
235.3	20.31
235.518	10.07
235.735	14.17
235.953	-0.17
236.17	57.17
236.388	24.4
236.605	96.08
236.822	-18.6
237.04	12.12
237.257	10.07
237.475	-10.41
237.692	12.12
237.909	18.26
238.127	-14.51
238.344	81.75
238.562	36.69
238.779	55.12
238.996	-0.17
239.214	-37.03
239.431	14.17
239.648	32.6
239.865	44.88
240.083	-37.03
240.3	10.07
240.517	-16.55
240.735	83.8
240.952	-0.17
241.169	26.45
241.386	30.55
241.603	30.55
241.821	20.31
242.038	18.26
242.255	65.36
242.472	71.51
242.689	-20.65
242.907	8.02
243.124	30.55
243.341	18.26
243.558	-2.22
243.775	26.45
243.992	-14.51
244.209	57.17
244.426	-2.22
244.643	-16.55
244.86	16.21
245.078	26.45
245.295	-2.22
245.512	-8.36
245.729	153.43
245.946	8.02
246.163	104.28
246.38	69.46
246.597	3.93
246.814	53.08
247.031	-26.79
247.248	98.13
247.464	42.84
247.681	1.88
247.898	-53.42
248.115	48.98
248.332	-0.17
248.549	87.89
248.766	44.88
248.983	40.79
249.2	8.02
249.417	42.84
249.633	-55.47
249.85	3.93
250.067	14.17
250.284	3.93
250.501	30.55
250.717	5.97
250.934	57.17
251.151	59.22
251.368	-34.99
251.585	83.8
251.801	18.26
252.018	18.26
252.235	-24.75
252.451	20.31
252.668	51.03
252.885	-4.27
253.102	-41.13
253.318	-34.99
253.535	-51.37
253.752	-6.31
253.968	40.79
254.185	34.64
254.401	16.21
254.618	5.97
254.835	69.46
255.051	69.46
255.268	32.6
255.484	87.89
255.701	-10.41
255.917	73.56
256.134	3.93
256.351	16.21
256.567	28.5
256.784	-32.94
257	-28.84
257.217	-26.79
257.433	16.21
257.65	44.88
257.866	22.36
258.082	-10.41
258.299	-14.51
258.515	63.32
258.732	-0.17
258.948	32.6
259.165	-20.65
259.381	-6.31
259.597	20.31
259.814	34.64
260.03	-69.8
260.246	-12.46
260.463	73.56
260.679	-24.75
260.895	51.03
261.112	59.22
261.328	51.03
261.544	67.41
261.761	32.6
261.977	16.21
262.193	14.17
262.409	-10.41
262.626	-26.79
262.842	28.5
263.058	79.7
263.274	63.32
263.49	5.97
263.707	-30.89
263.923	-32.94
264.139	1.88
264.355	18.26
264.571	24.4
264.787	130.9
265.004	-37.03
265.22	8.02
265.436	-69.8
265.652	-6.31
265.868	40.79
266.084	-71.85
266.3	36.69
266.516	5.97
266.732	22.36
266.948	32.6
267.164	94.04
267.38	46.93
267.596	12.12
267.812	8.02
268.028	40.79
268.244	53.08
268.46	-2.22
268.676	-73.9
268.892	73.56
269.108	44.88
269.324	1.88
269.54	22.36
269.756	59.22
269.972	-51.37
270.188	-28.84
270.403	96.08
270.619	1.88
270.835	30.55
271.051	-14.51
271.267	-41.13
271.483	-24.75
271.698	-51.37
271.914	-4.27
272.13	57.17
272.346	-57.51
272.562	-14.51
272.777	32.6
272.993	10.07
273.209	-26.79
273.425	102.23
273.64	16.21
273.856	12.12
274.072	61.27
274.287	10.07
274.503	40.79
274.719	-16.55
274.934	8.02
275.15	-14.51
275.366	-8.36
275.581	38.74
275.797	-4.27
276.012	18.26
276.228	28.5
276.444	-39.08
276.659	3.93
276.875	16.21
277.09	38.74
277.306	-24.75
277.521	-24.75
277.737	-0.17
277.952	14.17
278.168	40.79
278.383	28.5
278.599	61.27
278.814	-16.55
279.03	-47.27
279.245	-20.65
279.461	-10.41
279.676	69.46
279.892	-51.37
280.107	-10.41
280.322	18.26
280.538	-12.46
280.753	22.36
280.969	32.6
281.184	3.93
281.399	-32.94
281.615	59.22
281.83	8.02
282.045	61.27
282.26	-12.46
282.476	1.88
282.691	32.6
282.906	55.12
283.122	51.03
283.337	18.26
283.552	69.46
283.767	91.99
283.983	42.84
284.198	-2.22
284.413	40.79
284.628	-34.99
284.843	-8.36
285.058	-51.37
285.274	3.93
285.489	8.02
285.704	1.88
285.919	89.94
286.134	-30.89
286.349	-0.17
286.564	53.08
286.779	8.02
286.995	1.88
287.21	48.98
287.425	10.07
287.64	-14.51
287.855	73.56
288.07	22.36
288.285	61.27
288.5	32.6
288.715	69.46
288.93	55.12
289.145	34.64
289.36	34.64
289.575	34.64
289.79	55.12
290.004	79.7
290.219	-14.51
290.434	44.88
290.649	40.79
290.864	-26.79
291.079	3.93
291.294	48.98
291.509	83.8
291.724	40.79
291.938	-24.75
292.153	55.12
292.368	-32.94
292.583	59.22
292.798	16.21
293.012	-0.17
293.227	-28.84
293.442	8.02
293.657	65.36
293.871	44.88
294.086	18.26
294.301	57.17
294.516	65.36
294.73	3.93
294.945	34.64
295.16	-49.32
295.374	-47.27
295.589	3.93
295.804	32.6
296.018	69.46
296.233	51.03
296.447	-10.41
296.662	-0.17
296.877	51.03
297.091	-0.17
297.306	-28.84
297.52	18.26
297.735	51.03
297.949	42.84
298.164	18.26
298.378	-6.31
298.593	-0.17
298.807	-12.46
299.022	57.17
299.236	-34.99
299.451	18.26
299.665	22.36
299.88	16.21
300.094	26.45
300.309	44.88
300.523	44.88
300.737	53.08
300.952	59.22
301.166	8.02
301.381	75.6
301.595	-20.65
301.809	83.8
302.024	59.22
302.238	42.84
302.452	46.93
302.667	65.36
302.881	51.03
303.095	24.4
303.309	-16.55
303.524	-24.75
303.738	10.07
303.952	40.79
304.166	10.07
304.381	77.65
304.595	77.65
304.809	-73.9
305.023	40.79
305.237	-20.65
305.452	38.74
305.666	5.97
305.88	-4.27
306.094	-16.55
306.308	36.69
306.522	40.79
306.736	14.17
306.95	20.31
307.164	-8.36
307.379	-20.65
307.593	42.84
307.807	59.22
308.021	63.32
308.235	34.64
308.449	24.4
308.663	46.93
308.877	67.41
309.091	51.03
309.305	61.27
309.519	40.79
309.733	32.6
309.947	-49.32
310.161	85.84
310.374	-14.51
310.588	57.17
310.802	5.97
311.016	61.27
311.23	40.79
311.444	53.08
311.658	46.93
311.872	36.69
312.085	-34.99
312.299	5.97
312.513	36.69
312.727	-12.46
312.941	26.45
313.154	46.93
313.368	18.26
313.582	8.02
313.796	51.03
314.009	32.6
314.223	73.56
314.437	16.21
314.651	-2.22
314.864	8.02
315.078	10.07
315.292	-20.65
315.505	16.21
315.719	-0.17
315.933	26.45
316.146	-0.17
316.36	-6.31
316.573	42.84
316.787	48.98
317.001	-8.36
317.214	108.37
317.428	8.02
317.641	59.22
317.855	65.36
318.068	-28.84
318.282	94.04
318.495	24.4
318.709	-39.08
318.922	-14.51
319.136	-14.51
319.349	57.17
319.563	16.21
319.776	8.02
319.99	44.88
320.203	36.69
320.417	40.79
320.63	20.31
320.843	48.98
321.057	-28.84
321.27	89.94
321.483	69.46
321.697	100.18
321.91	40.79
322.124	10.07
322.337	-8.36
322.55	26.45
322.763	8.02
322.977	-20.65
323.19	12.12
323.403	20.31
323.617	79.7
323.83	75.6
324.043	-0.17
324.256	-16.55
324.469	61.27
324.683	53.08
324.896	-6.31
325.109	53.08
325.322	5.97
325.535	-55.47
325.748	81.75
325.962	12.12
326.175	38.74
326.388	57.17
326.601	28.5
326.814	38.74
327.027	36.69
327.24	32.6
327.453	28.5
327.666	30.55
327.879	48.98
328.092	-20.65
328.305	18.26
328.518	51.03
328.731	32.6
328.944	57.17
329.157	100.18
329.37	51.03
329.583	59.22
329.796	87.89
330.009	-32.94
330.222	34.64
330.435	106.32
330.648	28.5
330.861	71.51
331.073	-67.75
331.286	85.84
331.499	28.5
331.712	3.93
331.925	24.4
332.138	-82.09
332.35	65.36
332.563	-51.37
332.776	34.64
332.989	48.98
333.202	24.4
333.414	10.07
333.627	12.12
333.84	57.17
334.053	61.27
334.265	30.55
334.478	-37.03
334.691	5.97
334.903	36.69
335.116	-14.51
335.329	53.08
335.541	-4.27
335.754	126.8
335.966	-53.42
336.179	-4.27
336.392	-12.46
336.604	46.93
336.817	57.17
337.029	-10.41
337.242	24.4
337.454	18.26
337.667	26.45
337.88	32.6
338.092	34.64
338.305	73.56
338.517	-8.36
338.729	32.6
338.942	-37.03
339.154	-32.94
339.367	3.93
339.579	98.13
339.792	44.88
340.004	55.12
340.217	-24.75
340.429	16.21
340.641	-16.55
340.854	36.69
341.066	14.17
341.278	34.64
341.491	-8.36
341.703	24.4
341.915	32.6
342.128	48.98
342.34	16.21
342.552	8.02
342.764	10.07
342.977	1.88
343.189	-10.41
343.401	20.31
343.613	-16.55
343.826	-14.51
344.038	8.02
344.25	-18.6
344.462	-2.22
344.674	73.56
344.886	14.17
345.099	65.36
345.311	51.03
345.523	100.18
345.735	-10.41
345.947	108.37
346.159	57.17
346.371	36.69
346.583	-22.7
346.795	44.88
347.007	3.93
347.219	-10.41
347.431	38.74
347.643	118.61
347.855	65.36
348.067	57.17
348.279	18.26
348.491	42.84
348.703	5.97
348.915	16.21
349.127	18.26
349.339	32.6
349.551	10.07
349.763	100.18
349.975	36.69
350.187	51.03
350.399	55.12
350.61	114.52
350.822	16.21
351.034	46.93
351.246	-20.65
351.458	3.93
351.669	59.22
351.881	-16.55
352.093	32.6
352.305	34.64
352.517	-0.17
352.728	46.93
352.94	22.36
353.152	85.84
353.363	24.4
353.575	1.88
353.787	106.32
353.999	61.27
354.21	24.4
354.422	40.79
354.633	63.32
354.845	67.41
355.057	18.26
355.268	-2.22
355.48	87.89
355.692	3.93
355.903	-24.75
356.115	32.6
356.326	-4.27
356.538	57.17
356.749	-4.27
356.961	3.93
357.172	-0.17
357.384	71.51
357.595	40.79
357.807	26.45
358.018	-14.51
358.23	91.99
358.441	32.6
358.653	139.09
358.864	10.07
359.075	55.12
359.287	-0.17
359.498	12.12
359.709	1.88
359.921	57.17
360.132	-14.51
360.344	57.17
360.555	89.94
360.766	-6.31
360.977	61.27
361.189	22.36
361.4	44.88
361.611	63.32
361.823	3.93
362.034	-20.65
362.245	-10.41
362.456	40.79
362.667	-10.41
362.879	24.4
363.09	1.88
363.301	71.51
363.512	51.03
363.723	42.84
363.935	73.56
364.146	8.02
364.357	40.79
364.568	32.6
364.779	-14.51
364.99	-18.6
365.201	114.52
365.412	48.98
365.623	-69.8
365.834	16.21
366.045	28.5
366.256	48.98
366.467	-41.13
366.678	-30.89
366.889	51.03
367.1	48.98
367.311	42.84
367.522	18.26
367.733	-4.27
367.944	14.17
368.155	51.03
368.366	57.17
368.577	51.03
368.788	1.88
368.999	30.55
369.209	26.45
369.42	116.56
369.631	59.22
369.842	32.6
370.053	42.84
370.264	73.56
370.474	55.12
370.685	36.69
370.896	-10.41
371.107	85.84
371.317	30.55
371.528	34.64
371.739	46.93
371.95	30.55
372.16	34.64
372.371	26.45
372.582	51.03
372.792	18.26
373.003	59.22
373.214	-22.7
373.424	3.93
373.635	34.64
373.846	77.65
374.056	77.65
374.267	26.45
374.477	51.03
374.688	-0.17
374.898	22.36
375.109	-82.09
375.319	38.74
375.53	16.21
375.74	38.74
375.951	69.46
376.161	-2.22
376.372	65.36
376.582	96.08
376.793	34.64
377.003	12.12
377.214	48.98
377.424	36.69
377.635	69.46
377.845	-45.23
378.055	22.36
378.266	-30.89
378.476	-6.31
378.686	-6.31
378.897	149.33
379.107	1.88
379.317	18.26
379.528	40.79
379.738	73.56
379.948	1.88
380.158	85.84
380.369	42.84
380.579	77.65
380.789	14.17
380.999	3.93
381.21	-73.9
381.42	83.8
381.63	42.84
381.84	40.79
382.05	40.79
382.261	18.26
382.471	42.84
382.681	5.97
382.891	32.6
383.101	44.88
383.311	-6.31
383.521	1.88
383.731	48.98
383.941	5.97
384.151	42.84
384.361	1.88
384.571	-0.17
384.781	51.03
384.991	-18.6
385.201	48.98
385.411	77.65
385.621	30.55
385.831	8.02
386.041	-6.31
386.251	57.17
386.461	12.12
386.671	40.79
386.881	77.65
387.091	42.84
387.301	59.22
387.511	16.21
387.72	85.84
387.93	77.65
388.14	22.36
388.35	16.21
388.56	-4.27
388.769	34.64
388.979	-26.79
389.189	69.46
389.399	69.46
389.609	42.84
389.818	16.21
390.028	16.21
390.238	120.66
390.447	24.4
390.657	65.36
390.867	-20.65
391.076	77.65
391.286	22.36
391.496	1.88
391.705	91.99
391.915	77.65
392.125	63.32
392.334	1.88
392.544	3.93
392.753	30.55
392.963	57.17
393.172	46.93
393.382	38.74
393.591	10.07
393.801	79.7
394.01	20.31
394.22	89.94
394.429	-14.51
394.639	22.36
394.848	3.93
395.058	46.93
395.267	40.79
395.477	28.5
395.686	48.98
395.895	24.4
396.105	5.97
396.314	-6.31
396.524	81.75
396.733	55.12
396.942	67.41
397.152	135
397.361	10.07
397.57	8.02
397.78	106.32
397.989	-12.46
398.198	36.69
398.407	79.7
398.617	-0.17
398.826	34.64
399.035	44.88
399.244	51.03
399.453	14.17
399.663	69.46
399.872	42.84
400.081	18.26
400.29	67.41
400.499	-69.8
400.708	24.4
400.917	-0.17
401.127	32.6
401.336	65.36
401.545	91.99
401.754	40.79
401.963	26.45
402.172	40.79
402.381	34.64
402.59	14.17
402.799	28.5
403.008	34.64
403.217	59.22
403.426	79.7
403.635	102.23
403.844	32.6
404.053	130.9
404.262	59.22
404.471	71.51
404.68	100.18
404.888	116.56
405.097	53.08
405.306	51.03
405.515	110.42
405.724	61.27
405.933	16.21
406.142	114.52
406.35	126.8
406.559	108.37
406.768	18.26
406.977	69.46
407.185	81.75
407.394	163.67
407.603	16.21
407.812	65.36
408.02	77.65
408.229	124.76
408.438	130.9
408.646	165.71
408.855	114.52
409.064	81.75
409.272	91.99
409.481	161.62
409.69	94.04
409.898	141.14
410.107	184.15
410.315	147.28
410.524	188.24
410.733	81.75
410.941	159.57
411.15	122.71
411.358	186.19
411.567	151.38
411.775	221.01
411.984	180.05
412.192	225.11
412.401	237.39
412.609	218.96
412.818	286.54
413.026	124.76
413.234	259.92
413.443	186.19
413.651	229.2
413.86	298.83
414.068	290.64
414.276	251.73
414.485	175.95
414.693	225.11
414.901	300.88
415.11	307.02
415.318	296.78
415.526	345.94
415.734	372.56
415.943	333.65
416.151	339.79
416.359	329.55
416.567	458.57
416.776	411.47
416.984	386.9
417.192	483.15
417.4	411.47
417.608	442.19
417.817	485.2
418.025	524.11
418.233	509.77
418.441	517.97
418.649	550.73
418.857	536.4
419.065	542.54
419.273	546.64
419.481	614.22
419.689	612.17
419.897	636.75
420.105	632.65
420.313	603.98
420.521	755.53
420.729	704.33
420.937	769.87
421.145	749.39
421.353	892.74
421.561	864.07
421.769	874.31
421.977	851.78
422.185	823.11
422.393	878.41
422.601	982.85
422.809	970.57
423.017	1025.86
423.224	984.9
423.432	1038.15
423.64	1083.2
423.848	1179.46
424.056	1128.26
424.263	1171.27
424.471	1263.43
424.679	1271.62
424.887	1242.95
425.094	1249.09
425.302	1285.95
425.51	1328.96
425.718	1478.46
425.925	1335.1
426.133	1527.61
426.341	1658.68
426.548	1597.24
426.756	1599.29
426.964	1756.99
427.171	1761.08
427.379	1918.78
427.586	1853.24
427.794	1881.91
428.001	1953.59
428.209	2135.86
428.417	2031.41
428.624	2113.33
428.832	2156.34
429.039	2219.83
429.247	2205.49
429.454	2477.87
429.662	2522.93
429.869	2342.71
430.076	2527.02
430.284	2469.68
430.491	2631.47
430.699	2670.38
430.906	2709.29
431.114	2682.67
431.321	2813.74
431.528	2998.06
431.736	3084.07
431.943	3223.33
432.15	3254.05
432.358	3172.13
432.565	3409.7
432.772	3309.35
432.979	3565.34
433.187	3546.91
433.394	3669.79
433.601	3778.33
433.808	3833.63
434.016	3991.32
434.223	4032.28
434.43	4237.08
434.637	4063
434.844	4409.11
435.052	4525.84
435.259	4497.17
435.466	4390.67
435.673	4437.78
435.88	4849.42
436.087	4861.71
436.294	5029.64
436.501	4865.8
436.708	4818.7
436.915	5078.79
437.122	5455.62
437.329	5318.4
437.537	5418.75
437.743	5611.26
437.95	5461.76
438.157	5805.82
438.364	6016.76
438.571	6084.34
438.778	6022.91
438.985	6631.15
439.192	6369.01
439.399	6653.68
439.606	6487.79
439.813	6772.46
440.02	7237.35
440.227	7065.32
440.433	6954.73
440.64	7200.49
440.847	7323.37
441.054	7411.43
441.261	7976.67
441.467	7880.41
441.674	7962.33
441.881	8290.01
442.088	8402.65
442.294	8238.81
442.501	8283.86
442.708	8402.65
442.914	8761.04
443.121	9365.19
443.328	9006.8
443.534	9903.81
443.741	9400.01
443.948	9336.52
444.154	10006.2
444.361	9895.61
444.568	10114.75
444.774	10182.33
444.981	10155.71
445.187	10366.65
445.394	10886.83
445.6	10835.63
445.807	11812.51
446.013	11493.03
446.22	11458.21
446.426	11988.64
446.633	12187.29
446.839	12445.34
447.046	11976.35
447.252	12648.08
447.459	12736.15
447.665	12850.83
447.871	13235.85
448.078	14003.84
448.284	13061.77
448.491	13561.48
448.697	14026.37
448.903	14202.49
449.11	14519.93
449.316	14378.62
449.522	14331.51
449.728	14839.41
449.935	15101.55
450.141	14872.18
450.347	15357.55
450.553	14982.77
450.76	15021.68
450.966	15556.2
451.172	15482.47
451.378	15900.26
451.584	15605.35
451.791	15933.03
451.997	16023.14
452.203	16291.42
452.409	16182.88
452.615	16045.66
452.821	15539.82
453.027	15234.67
453.233	16336.48
453.44	15717.99
453.646	15631.97
453.852	15998.56
454.058	16060
454.264	15711.85
454.47	15732.33
454.676	15662.69
454.882	16064.1
455.088	14749.3
455.294	14896.75
455.5	14868.08
455.705	15191.66
455.911	14653.05
456.117	14179.96
456.323	14304.89
456.529	13547.14
456.735	14077.57
456.941	13870.72
457.147	13512.33
457.352	13196.94
457.558	12922.51
457.764	13145.74
457.97	12740.24
458.176	12535.45
458.381	12850.83
458.587	11908.77
458.793	11730.59
458.999	11257.51
459.204	12271.26
459.41	11857.57
459.616	11030.19
459.821	10927.79
460.027	10944.17
460.233	10753.71
460.438	10303.16
460.644	10401.46
460.85	10055.36
461.055	9522.88
461.261	9715.39
461.466	8963.79
461.672	8496.85
461.878	9109.19
462.083	8867.53
462.289	8443.6
462.494	8386.26
462.7	7991
462.905	7821.02
463.111	8195.8
463.316	8101.59
463.522	8060.63
463.727	7909.08
463.932	7925.47
464.138	7866.08
464.343	7907.04
464.549	7515.87
464.754	7945.95
464.959	8068.83
465.165	7864.03
465.37	7302.89
465.575	7341.8
465.781	7522.02
465.986	7409.38
466.191	7364.32
466.397	7163.62
466.602	6850.28
466.807	7186.15
467.012	7167.72
467.218	7010.03
467.423	7085.8
467.628	6964.97
467.833	7347.94
468.038	6973.16
468.244	7012.07
468.449	7126.76
468.654	6964.97
468.859	6895.34
469.064	6784.75
469.269	6608.62
469.474	6493.94
469.679	6668.02
