Data from USB4F104151__74__12-59-41-042.txt Node

Date: Fri Mar 14 12:59:41 EDT 2025
User: louis
Spectrometer: USB4F10415
Trigger mode: 4
Integration Time (sec): 1.000000E-2
Scans to average: 1
Electric dark correction enabled: true
Nonlinearity correction enabled: false
Boxcar width: 0
XAxis mode: Wavelengths
Number of Pixels in Spectrum: 3648
>>>>>Begin Spectral Data<<<<<
178.204	-38.06
178.424	-38.06
178.644	-38.06
178.864	-74.92
179.084	-46.25
179.304	-50.35
179.524	-33.96
179.744	35.67
179.964	-27.82
180.184	31.57
180.404	-27.82
180.624	35.67
180.844	0.85
181.064	-48.3
181.283	39.76
181.503	25.43
181.723	19.29
181.943	-17.58
182.163	31.57
182.383	-3.24
182.602	-9.39
182.822	-7.34
183.042	41.81
183.262	2.9
183.482	50
183.701	27.48
183.921	52.05
184.141	-48.3
184.361	15.19
184.58	-38.06
184.8	19.29
185.02	19.29
185.239	13.14
185.459	41.81
185.679	58.2
185.898	-31.91
186.118	9.05
186.338	-33.96
186.557	56.15
186.777	-38.06
186.997	-58.54
187.216	19.29
187.436	-19.63
187.655	0.85
187.875	82.77
188.095	29.52
188.314	72.53
188.534	21.33
188.753	2.9
188.973	39.76
189.192	-50.35
189.412	39.76
189.631	17.24
189.851	4.95
190.07	-29.87
190.29	13.14
190.509	-42.15
190.729	-25.77
190.948	82.77
191.168	43.86
191.387	-15.53
191.607	-62.63
191.826	-54.44
192.045	31.57
192.265	-38.06
192.484	-17.58
192.704	17.24
192.923	-21.67
193.142	74.58
193.362	-52.39
193.581	-23.72
193.8	60.24
194.02	-19.63
194.239	-62.63
194.458	15.19
194.678	11.09
194.897	2.9
195.116	-38.06
195.335	11.09
195.555	95.06
195.774	41.81
195.993	-48.3
196.212	0.85
196.432	-23.72
196.651	-3.24
196.87	47.96
197.089	17.24
197.308	-58.54
197.528	68.44
197.747	-58.54
197.966	25.43
198.185	-15.53
198.404	43.86
198.623	25.43
198.842	4.95
199.062	-7.34
199.281	33.62
199.5	7
199.719	-50.35
199.938	31.57
200.157	43.86
200.376	25.43
200.595	-27.82
200.814	-46.25
201.033	39.76
201.252	19.29
201.471	60.24
201.69	60.24
201.909	39.76
202.128	-23.72
202.347	-25.77
202.566	11.09
202.785	52.05
203.004	-33.96
203.223	4.95
203.442	-17.58
203.661	-9.39
203.879	23.38
204.098	13.14
204.317	-31.91
204.536	-9.39
204.755	-5.29
204.974	23.38
205.193	-19.63
205.411	13.14
205.63	-58.54
205.849	31.57
206.068	21.33
206.287	15.19
206.505	-33.96
206.724	15.19
206.943	15.19
207.162	2.9
207.381	-42.15
207.599	-3.24
207.818	-21.67
208.037	7
208.255	21.33
208.474	19.29
208.693	-23.72
208.911	37.72
209.13	95.06
209.349	-40.11
209.567	-46.25
209.786	19.29
210.005	9.05
210.223	58.2
210.442	39.76
210.661	31.57
210.879	-17.58
211.098	52.05
211.316	47.96
211.535	78.68
211.753	-119.98
211.972	-29.87
212.191	-13.48
212.409	-7.34
212.628	-1.19
212.846	-46.25
213.065	31.57
213.283	31.57
213.502	-23.72
213.72	0.85
213.938	64.34
214.157	21.33
214.375	27.48
214.594	37.72
214.812	0.85
215.031	-7.34
215.249	17.24
215.467	62.29
215.686	-48.3
215.904	2.9
216.122	-31.91
216.341	23.38
216.559	72.53
216.778	35.67
216.996	23.38
217.214	0.85
217.432	21.33
217.651	27.48
217.869	2.9
218.087	19.29
218.306	60.24
218.524	27.48
218.742	-5.29
218.96	74.58
219.179	-36.01
219.397	-64.68
219.615	33.62
219.833	-7.34
220.051	21.33
220.27	9.05
220.488	17.24
220.706	17.24
220.924	-15.53
221.142	-17.58
221.36	31.57
221.578	43.86
221.796	82.77
222.015	11.09
222.233	-29.87
222.451	9.05
222.669	-1.19
222.887	37.72
223.105	-3.24
223.323	-15.53
223.541	-48.3
223.759	-40.11
223.977	-9.39
224.195	-23.72
224.413	74.58
224.631	15.19
224.849	-36.01
225.067	41.81
225.285	29.52
225.503	-17.58
225.721	33.62
225.939	13.14
226.157	-31.91
226.375	15.19
226.592	-44.2
226.81	-42.15
227.028	2.9
227.246	-42.15
227.464	-31.91
227.682	-11.43
227.9	2.9
228.117	7
228.335	2.9
228.553	17.24
228.771	-54.44
228.989	58.2
229.206	-52.39
229.424	-7.34
229.642	0.85
229.86	-64.68
230.077	129.88
230.295	13.14
230.513	17.24
230.731	-17.58
230.948	-33.96
231.166	-91.31
231.384	15.19
231.601	2.9
231.819	52.05
232.037	-21.67
232.254	58.2
232.472	-60.59
232.689	15.19
232.907	-11.43
233.125	-13.48
233.342	35.67
233.56	-3.24
233.777	-27.82
233.995	37.72
234.213	-29.87
234.43	-21.67
234.648	-21.67
234.865	25.43
235.083	41.81
235.3	47.96
235.518	45.91
235.735	0.85
235.953	-17.58
236.17	31.57
236.388	66.39
236.605	54.1
236.822	-42.15
237.04	-5.29
237.257	-46.25
237.475	-15.53
237.692	17.24
237.909	25.43
238.127	21.33
238.344	37.72
238.562	17.24
238.779	-46.25
238.996	4.95
239.214	58.2
239.431	-21.67
239.648	-46.25
239.865	72.53
240.083	25.43
240.3	-54.44
240.517	-7.34
240.735	19.29
240.952	-15.53
241.169	17.24
241.386	47.96
241.603	19.29
241.821	4.95
242.038	-48.3
242.255	74.58
242.472	-72.87
242.689	-5.29
242.907	90.96
243.124	-36.01
243.341	-33.96
243.558	-17.58
243.775	17.24
243.992	7
244.209	74.58
244.426	56.15
244.643	56.15
244.86	-25.77
245.078	45.91
245.295	-3.24
245.512	2.9
245.729	52.05
245.946	7
246.163	-3.24
246.38	21.33
246.597	64.34
246.814	47.96
247.031	35.67
247.248	-7.34
247.464	-19.63
247.681	21.33
247.898	-56.49
248.115	15.19
248.332	27.48
248.549	-68.78
248.766	54.1
248.983	80.72
249.2	76.63
249.417	-3.24
249.633	52.05
249.85	-40.11
250.067	-70.83
250.284	17.24
250.501	-64.68
250.717	56.15
250.934	-7.34
251.151	7
251.368	-36.01
251.585	17.24
251.801	-7.34
252.018	-40.11
252.235	35.67
252.451	21.33
252.668	31.57
252.885	-36.01
253.102	-17.58
253.318	60.24
253.535	58.2
253.752	-91.31
253.968	-52.39
254.185	64.34
254.401	4.95
254.618	23.38
254.835	54.1
255.051	50
255.268	19.29
255.484	64.34
255.701	-50.35
255.917	17.24
256.134	2.9
256.351	-15.53
256.567	45.91
256.784	27.48
257	-7.34
257.217	15.19
257.433	66.39
257.65	-33.96
257.866	33.62
258.082	-1.19
258.299	13.14
258.515	-21.67
258.732	-7.34
258.948	31.57
259.165	39.76
259.381	-48.3
259.597	23.38
259.814	-33.96
260.03	0.85
260.246	-29.87
260.463	-19.63
260.679	45.91
260.895	-50.35
261.112	-7.34
261.328	11.09
261.544	-17.58
261.761	27.48
261.977	9.05
262.193	23.38
262.409	-23.72
262.626	-31.91
262.842	2.9
263.058	33.62
263.274	27.48
263.49	47.96
263.707	9.05
263.923	60.24
264.139	50
264.355	-9.39
264.571	31.57
264.787	-38.06
265.004	54.1
265.22	21.33
265.436	0.85
265.652	9.05
265.868	66.39
266.084	19.29
266.3	-21.67
266.516	-38.06
266.732	19.29
266.948	-46.25
267.164	9.05
267.38	31.57
267.596	66.39
267.812	-36.01
268.028	-27.82
268.244	-11.43
268.46	-17.58
268.676	-7.34
268.892	15.19
269.108	4.95
269.324	70.48
269.54	2.9
269.756	58.2
269.972	-3.24
270.188	27.48
270.403	-62.63
270.619	72.53
270.835	11.09
271.051	-17.58
271.267	37.72
271.483	-38.06
271.698	52.05
271.914	-9.39
272.13	25.43
272.346	-1.19
272.562	15.19
272.777	-7.34
272.993	-50.35
273.209	47.96
273.425	37.72
273.64	-66.73
273.856	-29.87
274.072	23.38
274.287	-27.82
274.503	52.05
274.719	-1.19
274.934	15.19
275.15	56.15
275.366	41.81
275.581	66.39
275.797	-25.77
276.012	-15.53
276.228	23.38
276.444	-25.77
276.659	9.05
276.875	19.29
277.09	-7.34
277.306	4.95
277.521	76.63
277.737	-1.19
277.952	19.29
278.168	41.81
278.383	37.72
278.599	0.85
278.814	72.53
279.03	-1.19
279.245	33.62
279.461	37.72
279.676	31.57
279.892	-15.53
280.107	66.39
280.322	58.2
280.538	-33.96
280.753	-29.87
280.969	-66.73
281.184	39.76
281.399	-72.87
281.615	76.63
281.83	-3.24
282.045	13.14
282.26	-38.06
282.476	-23.72
282.691	58.2
282.906	-31.91
283.122	-13.48
283.337	-7.34
283.552	25.43
283.767	-44.2
283.983	-7.34
284.198	-15.53
284.413	37.72
284.628	-60.59
284.843	58.2
285.058	50
285.274	-15.53
285.489	-54.44
285.704	29.52
285.919	39.76
286.134	62.29
286.349	-15.53
286.564	86.87
286.779	37.72
286.995	15.19
287.21	-17.58
287.425	19.29
287.64	33.62
287.855	-5.29
288.07	58.2
288.285	9.05
288.5	78.68
288.715	52.05
288.93	4.95
289.145	33.62
289.36	56.15
289.575	21.33
289.79	9.05
290.004	-13.48
290.219	35.67
290.434	23.38
290.649	13.14
290.864	0.85
291.079	-29.87
291.294	54.1
291.509	90.96
291.724	27.48
291.938	52.05
292.153	50
292.368	-5.29
292.583	-25.77
292.798	-23.72
293.012	56.15
293.227	0.85
293.442	-29.87
293.657	9.05
293.871	31.57
294.086	-85.16
294.301	39.76
294.516	-5.29
294.73	37.72
294.945	31.57
295.16	64.34
295.374	50
295.589	-33.96
295.804	9.05
296.018	131.92
296.233	39.76
296.447	56.15
296.662	9.05
296.877	76.63
297.091	-23.72
297.306	9.05
297.52	-40.11
297.735	103.25
297.949	21.33
298.164	33.62
298.378	7
298.593	17.24
298.807	-31.91
299.022	27.48
299.236	-13.48
299.451	25.43
299.665	-17.58
299.88	29.52
300.094	-13.48
300.309	47.96
300.523	70.48
300.737	27.48
300.952	0.85
301.166	76.63
301.381	-9.39
301.595	70.48
301.809	54.1
302.024	-48.3
302.238	-66.73
302.452	74.58
302.667	25.43
302.881	60.24
303.095	-13.48
303.309	-44.2
303.524	7
303.738	-33.96
303.952	66.39
304.166	25.43
304.381	45.91
304.595	9.05
304.809	21.33
305.023	-31.91
305.237	-15.53
305.452	-27.82
305.666	66.39
305.88	-72.87
306.094	25.43
306.308	37.72
306.522	-36.01
306.736	-11.43
306.95	78.68
307.164	52.05
307.379	-50.35
307.593	29.52
307.807	66.39
308.021	50
308.235	13.14
308.449	-11.43
308.663	-3.24
308.877	88.92
309.091	7
309.305	-38.06
309.519	15.19
309.733	15.19
309.947	19.29
310.161	35.67
310.374	-31.91
310.588	39.76
310.802	-1.19
311.016	-17.58
311.23	-23.72
311.444	-21.67
311.658	31.57
311.872	-3.24
312.085	-29.87
312.299	-42.15
312.513	4.95
312.727	-33.96
312.941	27.48
313.154	-3.24
313.368	-23.72
313.582	-46.25
313.796	39.76
314.009	35.67
314.223	52.05
314.437	80.72
314.651	-3.24
314.864	-23.72
315.078	2.9
315.292	2.9
315.505	-46.25
315.719	62.29
315.933	-17.58
316.146	37.72
316.36	56.15
316.573	21.33
316.787	-5.29
317.001	29.52
317.214	19.29
317.428	25.43
317.641	-15.53
317.855	-17.58
318.068	-3.24
318.282	41.81
318.495	13.14
318.709	66.39
318.922	15.19
319.136	-46.25
319.349	-46.25
319.563	-87.21
319.776	-64.68
319.99	2.9
320.203	-13.48
320.417	35.67
320.63	19.29
320.843	23.38
321.057	25.43
321.27	33.62
321.483	-72.87
321.697	19.29
321.91	62.29
322.124	56.15
322.337	15.19
322.55	17.24
322.763	-33.96
322.977	25.43
323.19	64.34
323.403	47.96
323.617	52.05
323.83	-44.2
324.043	-17.58
324.256	80.72
324.469	50
324.683	-9.39
324.896	-17.58
325.109	54.1
325.322	29.52
325.535	47.96
325.748	15.19
325.962	23.38
326.175	15.19
326.388	19.29
326.601	19.29
326.814	-7.34
327.027	-42.15
327.24	66.39
327.453	13.14
327.666	-11.43
327.879	4.95
328.092	33.62
328.305	15.19
328.518	9.05
328.731	23.38
328.944	97.11
329.157	-13.48
329.37	-7.34
329.583	-11.43
329.796	-13.48
330.009	-5.29
330.222	19.29
330.435	25.43
330.648	-1.19
330.861	25.43
331.073	-48.3
331.286	21.33
331.499	-11.43
331.712	-15.53
331.925	17.24
332.138	-9.39
332.35	21.33
332.563	19.29
332.776	60.24
332.989	-3.24
333.202	7
333.414	27.48
333.627	-60.59
333.84	-42.15
334.053	52.05
334.265	-29.87
334.478	-5.29
334.691	-72.87
334.903	-23.72
335.116	39.76
335.329	-19.63
335.541	19.29
335.754	17.24
335.966	56.15
336.179	17.24
336.392	54.1
336.604	-21.67
336.817	-21.67
337.029	80.72
337.242	0.85
337.454	35.67
337.667	-15.53
337.88	37.72
338.092	78.68
338.305	-1.19
338.517	72.53
338.729	31.57
338.942	11.09
339.154	15.19
339.367	-1.19
339.579	41.81
339.792	-25.77
340.004	31.57
340.217	76.63
340.429	56.15
340.641	7
340.854	37.72
341.066	25.43
341.278	-1.19
341.491	35.67
341.703	0.85
341.915	-17.58
342.128	56.15
342.34	-1.19
342.552	13.14
342.764	-5.29
342.977	-9.39
343.189	2.9
343.401	15.19
343.613	-66.73
343.826	-1.19
344.038	-36.01
344.25	21.33
344.462	-11.43
344.674	50
344.886	-29.87
345.099	27.48
345.311	-9.39
345.523	21.33
345.735	4.95
345.947	4.95
346.159	9.05
346.371	13.14
346.583	45.91
346.795	-31.91
347.007	31.57
347.219	64.34
347.431	-13.48
347.643	68.44
347.855	15.19
348.067	-38.06
348.279	-23.72
348.491	37.72
348.703	33.62
348.915	35.67
349.127	-7.34
349.339	11.09
349.551	-27.82
349.763	-19.63
349.975	58.2
350.187	43.86
350.399	-31.91
350.61	-19.63
350.822	-25.77
351.034	45.91
351.246	-15.53
351.458	-7.34
351.669	4.95
351.881	31.57
352.093	-13.48
352.305	-19.63
352.517	35.67
352.728	43.86
352.94	50
353.152	-3.24
353.363	-44.2
353.575	-17.58
353.787	66.39
353.999	2.9
354.21	-7.34
354.422	-66.73
354.633	-25.77
354.845	43.86
355.057	-31.91
355.268	103.25
355.48	-7.34
355.692	-33.96
355.903	17.24
356.115	37.72
356.326	-9.39
356.538	9.05
356.749	-58.54
356.961	50
357.172	31.57
357.384	-15.53
357.595	23.38
357.807	9.05
358.018	-38.06
358.23	-23.72
358.441	23.38
358.653	56.15
358.864	19.29
359.075	31.57
359.287	7
359.498	2.9
359.709	25.43
359.921	-13.48
360.132	23.38
360.344	-1.19
360.555	-1.19
360.766	33.62
360.977	43.86
361.189	-25.77
361.4	-3.24
361.611	31.57
361.823	50
362.034	25.43
362.245	4.95
362.456	-33.96
362.667	-50.35
362.879	2.9
363.09	105.3
363.301	2.9
363.512	-29.87
363.723	-15.53
363.935	-7.34
364.146	-13.48
364.357	-3.24
364.568	19.29
364.779	33.62
364.99	66.39
365.201	-13.48
365.412	-23.72
365.623	86.87
365.834	15.19
366.045	84.82
366.256	-27.82
366.467	17.24
366.678	-38.06
366.889	21.33
367.1	107.35
367.311	-15.53
367.522	41.81
367.733	-1.19
367.944	-15.53
368.155	0.85
368.366	35.67
368.577	-7.34
368.788	25.43
368.999	-17.58
369.209	-42.15
369.42	-9.39
369.631	11.09
369.842	-58.54
370.053	9.05
370.264	76.63
370.474	43.86
370.685	-13.48
370.896	54.1
371.107	23.38
371.317	15.19
371.528	-50.35
371.739	23.38
371.95	50
372.16	27.48
372.371	13.14
372.582	31.57
372.792	60.24
373.003	2.9
373.214	-13.48
373.424	-27.82
373.635	9.05
373.846	19.29
374.056	-13.48
374.267	15.19
374.477	4.95
374.688	13.14
374.898	17.24
375.109	52.05
375.319	-25.77
375.53	11.09
375.74	0.85
375.951	-21.67
376.161	0.85
376.372	-25.77
376.582	-5.29
376.793	-31.91
377.003	31.57
377.214	0.85
377.424	72.53
377.635	-5.29
377.845	-17.58
378.055	58.2
378.266	52.05
378.476	45.91
378.686	2.9
378.897	9.05
379.107	19.29
379.317	60.24
379.528	-27.82
379.738	23.38
379.948	11.09
380.158	58.2
380.369	-25.77
380.579	-9.39
380.789	0.85
380.999	-19.63
381.21	2.9
381.42	-1.19
381.63	-54.44
381.84	-9.39
382.05	4.95
382.261	62.29
382.471	97.11
382.681	-11.43
382.891	68.44
383.101	7
383.311	33.62
383.521	9.05
383.731	7
383.941	-11.43
384.151	27.48
384.361	2.9
384.571	58.2
384.781	109.4
384.991	25.43
385.201	99.16
385.411	39.76
385.621	37.72
385.831	-7.34
386.041	45.91
386.251	-13.48
386.461	31.57
386.671	23.38
386.881	-5.29
387.091	78.68
387.301	11.09
387.511	-3.24
387.72	33.62
387.93	-17.58
388.14	0.85
388.35	-19.63
388.56	29.52
388.769	62.29
388.979	23.38
389.189	13.14
389.399	21.33
389.609	80.72
389.818	-29.87
390.028	-44.2
390.238	33.62
390.447	-23.72
390.657	47.96
390.867	-48.3
391.076	56.15
391.286	45.91
391.496	15.19
391.705	60.24
391.915	52.05
392.125	4.95
392.334	17.24
392.544	0.85
392.753	93.01
392.963	23.38
393.172	-17.58
393.382	25.43
393.591	23.38
393.801	7
394.01	23.38
394.22	80.72
394.429	41.81
394.639	62.29
394.848	11.09
395.058	80.72
395.267	52.05
395.477	-29.87
395.686	-27.82
395.895	31.57
396.105	82.77
396.314	29.52
396.524	119.64
396.733	35.67
396.942	-33.96
397.152	-9.39
397.361	54.1
397.57	-52.39
397.78	52.05
397.989	35.67
398.198	68.44
398.407	13.14
398.617	39.76
398.826	29.52
399.035	33.62
399.244	0.85
399.453	66.39
399.663	90.96
399.872	37.72
400.081	19.29
400.29	123.73
400.499	19.29
400.708	9.05
400.917	41.81
401.127	88.92
401.336	4.95
401.545	37.72
401.754	27.48
401.963	99.16
402.172	19.29
402.381	35.67
402.59	52.05
402.799	13.14
403.008	47.96
403.217	47.96
403.426	29.52
403.635	50
403.844	35.67
404.053	70.48
404.262	86.87
404.471	43.86
404.68	19.29
404.888	27.48
405.097	-3.24
405.306	21.33
405.515	17.24
405.724	23.38
405.933	84.82
406.142	111.44
406.35	62.29
406.559	37.72
406.768	66.39
406.977	117.59
407.185	45.91
407.394	68.44
407.603	23.38
407.812	80.72
408.02	-9.39
408.229	107.35
408.438	39.76
408.646	80.72
408.855	101.2
409.064	105.3
409.272	133.97
409.481	23.38
409.69	121.68
409.898	74.58
410.107	123.73
410.315	62.29
410.524	119.64
410.733	76.63
410.941	80.72
411.15	86.87
411.358	199.51
411.567	113.49
411.775	179.03
411.984	131.92
412.192	88.92
412.401	105.3
412.609	97.11
412.818	148.31
413.026	121.68
413.234	219.99
413.443	86.87
413.651	166.74
413.86	191.31
414.068	269.14
414.276	172.88
414.485	133.97
414.693	310.1
414.901	189.27
415.11	281.43
415.318	226.13
415.526	224.08
415.734	265.04
415.943	256.85
416.151	297.81
416.359	250.71
416.567	293.71
416.776	232.27
416.984	318.29
417.192	359.25
417.4	365.39
417.608	211.79
417.817	363.34
418.025	432.97
418.233	346.96
418.441	355.15
418.649	351.06
418.857	359.25
419.065	379.73
419.273	418.64
419.481	381.78
419.689	482.13
419.897	375.63
420.105	523.09
420.313	492.37
420.521	514.89
420.729	510.8
420.937	469.84
421.145	523.09
421.353	582.48
421.561	615.24
421.769	605
421.977	635.72
422.185	684.87
422.393	695.11
422.601	598.86
422.809	635.72
423.017	746.31
423.224	715.59
423.432	641.87
423.64	871.24
423.848	801.61
424.056	828.23
424.263	887.62
424.471	920.39
424.679	858.95
424.887	865.1
425.094	998.21
425.302	1039.17
425.51	1006.41
425.718	990.02
425.925	1057.61
426.133	1024.84
426.341	1188.68
426.548	1133.38
426.756	1117
426.964	1254.21
427.171	1200.96
427.379	1391.42
427.586	1440.58
427.794	1432.38
428.001	1448.77
428.209	1547.07
428.417	1504.06
428.624	1583.93
428.832	1608.51
429.039	1604.41
429.247	1532.73
429.454	1768.25
429.662	1950.52
429.869	1768.25
430.076	1903.42
430.284	1862.46
430.491	1866.55
430.699	1987.38
430.906	1962.81
431.114	2014.01
431.321	2100.02
431.528	2114.36
431.736	2300.72
431.943	2382.64
432.15	2386.74
432.358	2431.79
432.565	2399.02
432.772	2511.66
432.979	2546.48
433.187	2546.48
433.394	2685.74
433.601	2816.81
433.808	2702.12
434.016	2775.85
434.223	2878.25
434.43	3326.75
434.637	3013.42
434.844	3291.94
435.052	3291.94
435.259	3361.57
435.466	3377.95
435.673	3259.17
435.88	3552.03
436.087	3687.2
436.294	3717.92
436.501	3615.52
436.708	3619.61
436.915	3851.03
437.122	3953.43
437.329	3904.28
437.537	4088.6
437.743	4111.13
437.95	4150.04
438.157	4315.92
438.364	4690.7
438.571	4606.74
438.778	4707.09
438.985	4854.54
439.192	4586.26
439.399	4905.74
439.606	4739.85
439.813	5094.15
440.02	5364.48
440.227	5266.18
440.433	5133.06
440.64	5436.16
440.847	5307.14
441.054	5579.52
441.261	5772.03
441.467	5806.84
441.674	5929.72
441.881	6114.04
442.088	6241.01
442.294	6021.88
442.501	6191.86
442.708	6451.95
442.914	6525.68
443.121	6898.41
443.328	6638.32
443.534	7353.06
443.741	6972.14
443.948	6978.28
444.154	7455.46
444.361	7453.41
444.568	7391.97
444.774	7398.12
444.981	7277.29
445.187	7764.7
445.394	8088.28
445.6	8014.56
445.807	8856.27
446.013	8381.14
446.22	8618.71
446.426	8764.11
446.633	8823.5
446.839	9347.78
447.046	8825.55
447.252	9407.17
447.459	9616.07
447.665	9349.83
447.871	9947.84
448.078	10154.68
448.284	9806.53
448.491	10033.85
448.697	10496.69
448.903	10730.16
449.11	10715.83
449.316	10644.15
449.522	10709.68
449.728	11037.36
449.935	10996.4
450.141	11086.51
450.347	11520.68
450.553	11018.93
450.76	10967.73
450.966	11602.6
451.172	11315.88
451.378	11801.25
451.584	11438.76
451.791	11926.18
451.997	11741.86
452.203	11991.71
452.409	11791.01
452.615	11881.12
452.821	11575.97
453.027	11496.1
453.233	11934.37
453.44	11618.98
453.646	11479.72
453.852	11885.22
454.058	11995.81
454.264	11442.85
454.47	11666.08
454.676	11590.31
454.882	11969.18
455.088	10914.48
455.294	11086.51
455.5	11274.92
455.705	11252.39
455.911	11023.02
456.117	10721.97
456.323	10572.47
456.529	9996.99
456.735	10537.65
456.941	10228.41
457.147	10066.62
457.352	9697.99
457.558	9704.13
457.764	9618.11
457.97	9497.28
458.176	9302.73
458.381	9085.64
458.587	8807.12
458.793	9067.21
458.999	8407.77
459.204	8999.63
459.41	8620.75
459.616	8059.61
459.821	8094.43
460.027	8198.87
460.233	7975.64
460.438	7629.54
460.644	7557.86
460.85	7213.8
461.055	7262.95
461.261	7125.74
461.466	6765.29
461.672	6458.1
461.878	7113.45
462.083	6402.8
462.289	6198.01
462.494	6191.86
462.7	5942.01
462.905	5782.27
463.111	6159.1
463.316	6079.22
463.522	5890.81
463.727	5978.87
463.932	6216.44
464.138	5716.73
464.343	5817.08
464.549	5634.82
464.754	5896.96
464.959	5901.05
465.165	5896.96
465.37	5679.87
465.575	5421.83
465.781	5597.95
465.986	5657.34
466.191	5622.53
466.397	5202.69
466.602	5149.45
466.807	5313.28
467.012	5313.28
467.218	5303.04
467.423	5151.49
467.628	5288.71
467.833	5534.46
468.038	5315.33
468.244	5116.68
468.449	5401.35
468.654	5116.68
468.859	5090.06
469.064	5278.47
469.269	4940.55
469.474	4809.48
469.679	5131.02
469.885	5085.96
