Data from USB4F104151__89__13-00-04-799.txt Node

Date: Fri Mar 14 13:00:04 EDT 2025
User: louis
Spectrometer: USB4F10415
Trigger mode: 4
Integration Time (sec): 1.000000E-2
Scans to average: 1
Electric dark correction enabled: true
Nonlinearity correction enabled: false
Boxcar width: 0
XAxis mode: Wavelengths
Number of Pixels in Spectrum: 3648
>>>>>Begin Spectral Data<<<<<
178.204	36.52
178.424	36.52
178.644	36.52
178.864	-78.16
179.084	-61.78
179.304	9.9
179.524	-51.54
179.744	-6.49
179.964	-14.68
180.184	32.43
180.404	-12.63
180.624	-18.77
180.844	24.23
181.064	-4.44
181.283	75.43
181.503	-4.44
181.723	-29.01
181.943	-10.58
182.163	30.38
182.383	16.04
182.602	11.95
182.822	91.82
183.042	7.85
183.262	-4.44
183.482	46.76
183.701	-35.16
183.921	46.76
184.141	-10.58
184.361	1.71
184.58	-26.96
184.8	34.47
185.02	-57.68
185.239	93.87
185.459	57
185.679	54.95
185.898	38.57
186.118	77.48
186.338	-33.11
186.557	9.9
186.777	13.99
186.997	71.34
187.216	16.04
187.436	-0.34
187.655	-33.11
187.875	48.81
188.095	-6.49
188.314	40.62
188.534	-37.2
188.753	16.04
188.973	85.67
189.192	89.77
189.412	9.9
189.631	28.33
189.851	-14.68
190.07	48.81
190.29	9.9
190.509	-0.34
190.729	-37.2
190.948	20.14
191.168	36.52
191.387	28.33
191.607	-8.53
191.826	52.91
192.045	42.67
192.265	50.86
192.484	11.95
192.704	40.62
192.923	-51.54
193.142	22.19
193.362	-6.49
193.581	22.19
193.8	32.43
194.02	114.34
194.239	26.28
194.458	-43.35
194.678	69.29
194.897	24.23
195.116	48.81
195.335	69.29
195.555	5.8
195.774	32.43
195.993	-26.96
196.212	-33.11
196.432	-76.12
196.651	-18.77
196.87	-14.68
197.089	-4.44
197.308	22.19
197.528	-10.58
197.747	77.48
197.966	-2.39
198.185	50.86
198.404	5.8
198.623	13.99
198.842	61.1
199.062	-31.06
199.281	-4.44
199.5	-47.44
199.719	22.19
199.938	-31.06
200.157	26.28
200.376	-26.96
200.595	54.95
200.814	24.23
201.033	59.05
201.252	57
201.471	26.28
201.69	75.43
201.909	42.67
202.128	-8.53
202.347	36.52
202.566	40.62
202.785	-20.82
203.004	28.33
203.223	11.95
203.442	-2.39
203.661	16.04
203.879	3.75
204.098	-49.49
204.317	-22.87
204.536	95.91
204.755	-29.01
204.974	-0.34
205.193	69.29
205.411	69.29
205.63	3.75
205.849	-24.92
206.068	34.47
206.287	75.43
206.505	50.86
206.724	81.58
206.943	16.04
207.162	24.23
207.381	67.24
207.599	18.09
207.818	-49.49
208.037	26.28
208.255	42.67
208.474	38.57
208.693	38.57
208.911	34.47
209.13	20.14
209.349	-24.92
209.567	-24.92
209.786	44.71
210.005	67.24
210.223	9.9
210.442	38.57
210.661	73.39
210.879	-20.82
211.098	46.76
211.316	42.67
211.535	3.75
211.753	-26.96
211.972	81.58
212.191	36.52
212.409	-10.58
212.628	69.29
212.846	52.91
213.065	-18.77
213.283	40.62
213.502	-55.64
213.72	32.43
213.938	34.47
214.157	38.57
214.375	24.23
214.594	20.14
214.812	-18.77
215.031	36.52
215.249	50.86
215.467	16.04
215.686	-8.53
215.904	-24.92
216.122	73.39
216.341	73.39
216.559	52.91
216.778	28.33
216.996	-49.49
217.214	77.48
217.432	-8.53
217.651	11.95
217.869	-6.49
218.087	28.33
218.306	-65.88
218.524	40.62
218.742	32.43
218.96	-20.82
219.179	-16.73
219.397	-12.63
219.615	61.1
219.833	28.33
220.051	-12.63
220.27	-0.34
220.488	3.75
220.706	5.8
220.924	5.8
221.142	-0.34
221.36	16.04
221.578	20.14
221.796	-55.64
222.015	-35.16
222.233	32.43
222.451	61.1
222.669	-26.96
222.887	18.09
223.105	-49.49
223.323	63.15
223.541	26.28
223.759	-2.39
223.977	65.19
224.195	63.15
224.413	-18.77
224.631	44.71
224.849	28.33
225.067	3.75
225.285	28.33
225.503	42.67
225.721	-10.58
225.939	59.05
226.157	104.11
226.375	46.76
226.592	-0.34
226.81	57
227.028	46.76
227.246	63.15
227.464	48.81
227.682	30.38
227.9	42.67
228.117	85.67
228.335	-18.77
228.553	44.71
228.771	38.57
228.989	63.15
229.206	40.62
229.424	-6.49
229.642	-53.59
229.86	44.71
230.077	40.62
230.295	44.71
230.513	59.05
230.731	44.71
230.948	77.48
231.166	65.19
231.384	30.38
231.601	46.76
231.819	18.09
232.037	69.29
232.254	52.91
232.472	-29.01
232.689	-43.35
232.907	36.52
233.125	26.28
233.342	-37.2
233.56	-45.4
233.777	-37.2
233.995	-67.92
234.213	3.75
234.43	-8.53
234.648	22.19
234.865	3.75
235.083	61.1
235.3	-35.16
235.518	20.14
235.735	16.04
235.953	44.71
236.17	40.62
236.388	13.99
236.605	83.63
236.822	32.43
237.04	57
237.257	77.48
237.475	-14.68
237.692	1.71
237.909	46.76
238.127	-29.01
238.344	40.62
238.562	42.67
238.779	-39.25
238.996	16.04
239.214	24.23
239.431	-2.39
239.648	-0.34
239.865	5.8
240.083	46.76
240.3	22.19
240.517	-31.06
240.735	44.71
240.952	9.9
241.169	-41.3
241.386	18.09
241.603	36.52
241.821	5.8
242.038	40.62
242.255	-24.92
242.472	-4.44
242.689	28.33
242.907	-45.4
243.124	11.95
243.341	28.33
243.558	-29.01
243.775	18.09
243.992	11.95
244.209	32.43
244.426	-26.96
244.643	28.33
244.86	34.47
245.078	11.95
245.295	85.67
245.512	-2.39
245.729	-37.2
245.946	38.57
246.163	26.28
246.38	106.15
246.597	-10.58
246.814	-37.2
247.031	-33.11
247.248	75.43
247.464	-26.96
247.681	69.29
247.898	48.81
248.115	-45.4
248.332	-90.45
248.549	28.33
248.766	85.67
248.983	52.91
249.2	28.33
249.417	61.1
249.633	-84.31
249.85	-22.87
250.067	71.34
250.284	22.19
250.501	26.28
250.717	16.04
250.934	5.8
251.151	28.33
251.368	63.15
251.585	20.14
251.801	20.14
252.018	57
252.235	24.23
252.451	11.95
252.668	7.85
252.885	132.78
253.102	28.33
253.318	136.87
253.535	-12.63
253.752	-6.49
253.968	30.38
254.185	-18.77
254.401	100.01
254.618	7.85
254.835	22.19
255.051	44.71
255.268	79.53
255.484	22.19
255.701	-4.44
255.917	24.23
256.134	-22.87
256.351	-4.44
256.567	-35.16
256.784	-35.16
257	36.52
257.217	13.99
257.433	13.99
257.65	11.95
257.866	-37.2
258.082	-12.63
258.299	-37.2
258.515	46.76
258.732	-63.83
258.948	40.62
259.165	38.57
259.381	5.8
259.597	-10.58
259.814	-2.39
260.03	-39.25
260.246	134.82
260.463	75.43
260.679	83.63
260.895	-18.77
261.112	28.33
261.328	24.23
261.544	26.28
261.761	42.67
261.977	61.1
262.193	-29.01
262.409	36.52
262.626	24.23
262.842	-4.44
263.058	102.06
263.274	40.62
263.49	40.62
263.707	-16.73
263.923	36.52
264.139	-20.82
264.355	-4.44
264.571	67.24
264.787	1.71
265.004	30.38
265.22	-26.96
265.436	40.62
265.652	-0.34
265.868	-2.39
266.084	42.67
266.3	-18.77
266.516	-6.49
266.732	38.57
266.948	-4.44
267.164	46.76
267.38	7.85
267.596	11.95
267.812	26.28
268.028	13.99
268.244	-2.39
268.46	-24.92
268.676	89.77
268.892	24.23
269.108	-26.96
269.324	50.86
269.54	-29.01
269.756	44.71
269.972	-59.73
270.188	-16.73
270.403	-67.92
270.619	46.76
270.835	-2.39
271.051	71.34
271.267	93.87
271.483	-8.53
271.698	50.86
271.914	18.09
272.13	44.71
272.346	-0.34
272.562	30.38
272.777	22.19
272.993	-4.44
273.209	67.24
273.425	-41.3
273.64	26.28
273.856	-37.2
274.072	28.33
274.287	28.33
274.503	-12.63
274.719	11.95
274.934	-29.01
275.15	-43.35
275.366	63.15
275.581	-14.68
275.797	-10.58
276.012	-53.59
276.228	59.05
276.444	22.19
276.659	-10.58
276.875	7.85
277.09	-41.3
277.306	28.33
277.521	5.8
277.737	57
277.952	-8.53
278.168	83.63
278.383	16.04
278.599	-43.35
278.814	77.48
279.03	-20.82
279.245	40.62
279.461	9.9
279.676	1.71
279.892	-51.54
280.107	89.77
280.322	-31.06
280.538	28.33
280.753	-8.53
280.969	-10.58
281.184	57
281.399	-14.68
281.615	24.23
281.83	-20.82
282.045	-67.92
282.26	-51.54
282.476	50.86
282.691	9.9
282.906	11.95
283.122	38.57
283.337	3.75
283.552	85.67
283.767	-4.44
283.983	36.52
284.198	34.47
284.413	-2.39
284.628	-35.16
284.843	-8.53
285.058	-22.87
285.274	36.52
285.489	-10.58
285.704	40.62
285.919	-18.77
286.134	7.85
286.349	87.72
286.564	28.33
286.779	32.43
286.995	-6.49
287.21	-12.63
287.425	26.28
287.64	65.19
287.855	79.53
288.07	13.99
288.285	32.43
288.5	52.91
288.715	-0.34
288.93	1.71
289.145	-2.39
289.36	-45.4
289.575	7.85
289.79	48.81
290.004	40.62
290.219	85.67
290.434	22.19
290.649	50.86
290.864	-20.82
291.079	-20.82
291.294	89.77
291.509	-4.44
291.724	34.47
291.938	34.47
292.153	36.52
292.368	-8.53
292.583	20.14
292.798	-67.92
293.012	73.39
293.227	-12.63
293.442	-26.96
293.657	-12.63
293.871	71.34
294.086	59.05
294.301	11.95
294.516	59.05
294.73	5.8
294.945	-4.44
295.16	-12.63
295.374	9.9
295.589	57
295.804	57
296.018	52.91
296.233	77.48
296.447	61.1
296.662	-2.39
296.877	-4.44
297.091	28.33
297.306	9.9
297.52	1.71
297.735	-37.2
297.949	-37.2
298.164	-8.53
298.378	-6.49
298.593	28.33
298.807	1.71
299.022	48.81
299.236	46.76
299.451	40.62
299.665	-8.53
299.88	-18.77
300.094	87.72
300.309	-39.25
300.523	-6.49
300.737	3.75
300.952	3.75
301.166	32.43
301.381	-12.63
301.595	95.91
301.809	9.9
302.024	54.95
302.238	38.57
302.452	77.48
302.667	-31.06
302.881	34.47
303.095	46.76
303.309	30.38
303.524	-4.44
303.738	95.91
303.952	16.04
304.166	-26.96
304.381	44.71
304.595	38.57
304.809	-12.63
305.023	52.91
305.237	38.57
305.452	36.52
305.666	18.09
305.88	-39.25
306.094	-37.2
306.308	77.48
306.522	24.23
306.736	3.75
306.95	63.15
307.164	18.09
307.379	34.47
307.593	36.52
307.807	13.99
308.021	89.77
308.235	28.33
308.449	3.75
308.663	-20.82
308.877	67.24
309.091	65.19
309.305	20.14
309.519	61.1
309.733	-18.77
309.947	-47.44
310.161	81.58
310.374	-63.83
310.588	108.2
310.802	38.57
311.016	18.09
311.23	93.87
311.444	3.75
311.658	-6.49
311.872	36.52
312.085	44.71
312.299	36.52
312.513	24.23
312.727	18.09
312.941	-39.25
313.154	-18.77
313.368	18.09
313.582	-41.3
313.796	126.63
314.009	40.62
314.223	3.75
314.437	44.71
314.651	65.19
314.864	81.58
315.078	104.11
315.292	65.19
315.505	40.62
315.719	-22.87
315.933	30.38
316.146	11.95
316.36	18.09
316.573	42.67
316.787	3.75
317.001	69.29
317.214	65.19
317.428	9.9
317.641	16.04
317.855	-8.53
318.068	110.25
318.282	42.67
318.495	13.99
318.709	30.38
318.922	54.95
319.136	67.24
319.349	38.57
319.563	-20.82
319.776	24.23
319.99	46.76
320.203	89.77
320.417	-29.01
320.63	-4.44
320.843	7.85
321.057	5.8
321.27	-33.11
321.483	28.33
321.697	11.95
321.91	-41.3
322.124	28.33
322.337	102.06
322.55	-0.34
322.763	79.53
322.977	-16.73
323.19	32.43
323.403	20.14
323.617	22.19
323.83	-12.63
324.043	-20.82
324.256	50.86
324.469	16.04
324.683	57
324.896	13.99
325.109	-39.25
325.322	-6.49
325.535	36.52
325.748	69.29
325.962	5.8
326.175	63.15
326.388	30.38
326.601	57
326.814	-6.49
327.027	46.76
327.24	71.34
327.453	-2.39
327.666	-45.4
327.879	38.57
328.092	28.33
328.305	44.71
328.518	7.85
328.731	13.99
328.944	100.01
329.157	20.14
329.37	16.04
329.583	-0.34
329.796	18.09
330.009	1.71
330.222	13.99
330.435	11.95
330.648	-20.82
330.861	5.8
331.073	16.04
331.286	30.38
331.499	-12.63
331.712	-88.4
331.925	71.34
332.138	3.75
332.35	54.95
332.563	-33.11
332.776	77.48
332.989	18.09
333.202	13.99
333.414	63.15
333.627	-20.82
333.84	-33.11
334.053	-49.49
334.265	-4.44
334.478	40.62
334.691	57
334.903	83.63
335.116	-14.68
335.329	67.24
335.541	71.34
335.754	22.19
335.966	16.04
336.179	48.81
336.392	-33.11
336.604	36.52
336.817	-33.11
337.029	38.57
337.242	57
337.454	75.43
337.667	-18.77
337.88	11.95
338.092	36.52
338.305	26.28
338.517	3.75
338.729	-2.39
338.942	9.9
339.154	24.23
339.367	-69.97
339.579	-4.44
339.792	7.85
340.004	-12.63
340.217	1.71
340.429	18.09
340.641	1.71
340.854	-49.49
341.066	18.09
341.278	124.58
341.491	116.39
341.703	73.39
341.915	65.19
342.128	54.95
342.34	-35.16
342.552	108.2
342.764	22.19
342.977	48.81
343.189	-2.39
343.401	-20.82
343.613	34.47
343.826	13.99
344.038	11.95
344.25	59.05
344.462	26.28
344.674	57
344.886	5.8
345.099	85.67
345.311	22.19
345.523	-6.49
345.735	18.09
345.947	13.99
346.159	38.57
346.371	73.39
346.583	-12.63
346.795	32.43
347.007	48.81
347.219	-18.77
347.431	59.05
347.643	36.52
347.855	54.95
348.067	5.8
348.279	-39.25
348.491	-10.58
348.703	77.48
348.915	44.71
349.127	69.29
349.339	1.71
349.551	1.71
349.763	7.85
349.975	13.99
350.187	95.91
350.399	112.3
350.61	85.67
350.822	-78.16
351.034	89.77
351.246	-29.01
351.458	77.48
351.669	-43.35
351.881	126.63
352.093	42.67
352.305	-4.44
352.517	11.95
352.728	36.52
352.94	91.82
353.152	32.43
353.363	16.04
353.575	69.29
353.787	52.91
353.999	75.43
354.21	24.23
354.422	36.52
354.633	59.05
354.845	-2.39
355.057	26.28
355.268	32.43
355.48	59.05
355.692	20.14
355.903	50.86
356.115	50.86
356.326	16.04
356.538	5.8
356.749	73.39
356.961	75.43
357.172	1.71
357.384	38.57
357.595	-26.96
357.807	-59.73
358.018	79.53
358.23	-22.87
358.441	22.19
358.653	34.47
358.864	-0.34
359.075	40.62
359.287	77.48
359.498	-2.39
359.709	-2.39
359.921	22.19
360.132	42.67
360.344	48.81
360.555	-37.2
360.766	24.23
360.977	-53.59
361.189	110.25
361.4	52.91
361.611	36.52
361.823	104.11
362.034	75.43
362.245	-8.53
362.456	126.63
362.667	-24.92
362.879	30.38
363.09	30.38
363.301	71.34
363.512	30.38
363.723	30.38
363.935	28.33
364.146	65.19
364.357	65.19
364.568	20.14
364.779	16.04
364.99	9.9
365.201	57
365.412	28.33
365.623	-31.06
365.834	22.19
366.045	30.38
366.256	48.81
366.467	24.23
366.678	34.47
366.889	30.38
367.1	79.53
367.311	-65.88
367.522	89.77
367.733	-51.54
367.944	5.8
368.155	-0.34
368.366	75.43
368.577	-29.01
368.788	36.52
368.999	-18.77
369.209	28.33
369.42	79.53
369.631	61.1
369.842	32.43
370.053	54.95
370.264	73.39
370.474	42.67
370.685	52.91
370.896	16.04
371.107	95.91
371.317	46.76
371.528	7.85
371.739	30.38
371.95	13.99
372.16	11.95
372.371	-37.2
372.582	22.19
372.792	118.44
373.003	77.48
373.214	38.57
373.424	77.48
373.635	54.95
373.846	13.99
374.056	9.9
374.267	59.05
374.477	-6.49
374.688	-37.2
374.898	7.85
375.109	26.28
375.319	40.62
375.53	-2.39
375.74	50.86
375.951	-2.39
376.161	24.23
376.372	63.15
376.582	-6.49
376.793	-0.34
377.003	-8.53
377.214	-45.4
377.424	-4.44
377.635	36.52
377.845	13.99
378.055	-14.68
378.266	16.04
378.476	106.15
378.686	30.38
378.897	52.91
379.107	95.91
379.317	-22.87
379.528	16.04
379.738	16.04
379.948	-39.25
380.158	57
380.369	-6.49
380.579	11.95
380.789	22.19
380.999	24.23
381.21	63.15
381.42	61.1
381.63	28.33
381.84	-20.82
382.05	-29.01
382.261	-4.44
382.471	65.19
382.681	20.14
382.891	9.9
383.101	-35.16
383.311	-10.58
383.521	20.14
383.731	54.95
383.941	20.14
384.151	-61.78
384.361	20.14
384.571	36.52
384.781	9.9
384.991	30.38
385.201	65.19
385.411	42.67
385.621	114.34
385.831	42.67
386.041	73.39
386.251	-18.77
386.461	77.48
386.671	-8.53
386.881	61.1
387.091	-2.39
387.301	-2.39
387.511	-14.68
387.72	48.81
387.93	149.16
388.14	32.43
388.35	20.14
388.56	73.39
388.769	42.67
388.979	13.99
389.189	-31.06
389.399	104.11
389.609	26.28
389.818	87.72
390.028	93.87
390.238	20.14
390.447	-53.59
390.657	42.67
390.867	36.52
391.076	-10.58
391.286	16.04
391.496	7.85
391.705	34.47
391.915	65.19
392.125	61.1
392.334	18.09
392.544	-6.49
392.753	85.67
392.963	-49.49
393.172	1.71
393.382	-53.59
393.591	38.57
393.801	38.57
394.01	79.53
394.22	73.39
394.429	50.86
394.639	50.86
394.848	3.75
395.058	28.33
395.267	97.96
395.477	28.33
395.686	24.23
395.895	-26.96
396.105	73.39
396.314	81.58
396.524	50.86
396.733	48.81
396.942	20.14
397.152	44.71
397.361	22.19
397.57	106.15
397.78	116.39
397.989	18.09
398.198	130.73
398.407	-29.01
398.617	34.47
398.826	20.14
399.035	-12.63
399.244	79.53
399.453	91.82
399.663	67.24
399.872	7.85
400.081	114.34
400.29	69.29
400.499	22.19
400.708	40.62
400.917	28.33
401.127	85.67
401.336	-6.49
401.545	138.92
401.754	38.57
401.963	95.91
402.172	79.53
402.381	65.19
402.59	83.63
402.799	100.01
403.008	81.58
403.217	81.58
403.426	22.19
403.635	22.19
403.844	83.63
404.053	85.67
404.262	-20.82
404.471	26.28
404.68	46.76
404.888	46.76
405.097	-16.73
405.306	79.53
405.515	65.19
405.724	3.75
405.933	102.06
406.142	-18.77
406.35	89.77
406.559	91.82
406.768	79.53
406.977	112.3
407.185	81.58
407.394	102.06
407.603	61.1
407.812	63.15
408.02	95.91
408.229	161.45
408.438	104.11
408.646	140.97
408.855	112.3
409.064	173.74
409.272	112.3
409.481	85.67
409.69	124.58
409.898	138.92
410.107	186.02
410.315	145.06
410.524	183.98
410.733	114.34
410.941	130.73
411.15	192.17
411.358	224.94
411.567	173.74
411.775	122.54
411.984	186.02
412.192	249.51
412.401	177.83
412.609	179.88
412.818	196.26
413.026	208.55
413.234	251.56
413.443	265.89
413.651	200.36
413.86	249.51
414.068	269.99
414.276	292.52
414.485	284.33
414.693	280.23
414.901	282.28
415.11	282.28
415.318	388.77
415.526	280.23
415.734	288.42
415.943	304.81
416.151	343.72
416.359	292.52
416.567	331.43
416.776	313
416.984	448.16
417.192	409.25
417.4	413.35
417.608	499.36
417.817	446.12
418.025	562.85
418.233	503.46
418.441	517.79
418.649	462.5
418.857	568.99
419.065	552.61
419.273	476.84
419.481	552.61
419.689	626.34
419.897	568.99
420.105	650.91
420.313	634.53
420.521	712.35
420.729	671.39
420.937	749.22
421.145	702.11
421.353	786.08
421.561	788.13
421.769	863.9
421.977	898.72
422.185	876.19
422.393	937.63
422.601	1001.12
422.809	921.24
423.017	915.1
423.224	976.54
423.432	999.07
423.64	1009.31
423.848	1152.67
424.056	1093.27
424.263	1158.81
424.471	1169.05
424.679	1275.54
424.887	1275.54
425.094	1210.01
425.302	1369.75
425.51	1336.98
425.718	1285.78
425.925	1433.24
426.133	1515.16
426.341	1554.07
426.548	1623.7
426.756	1670.8
426.964	1691.28
427.171	1681.04
427.379	1767.06
427.586	1838.73
427.794	1840.78
428.001	1973.9
428.209	2004.62
428.417	2051.72
428.624	2197.13
428.832	2104.97
429.039	2174.6
429.247	2117.26
429.454	2326.15
429.662	2375.3
429.869	2358.92
430.076	2522.76
430.284	2461.32
430.491	2653.83
430.699	2657.92
430.906	2664.07
431.114	2657.92
431.321	2881.15
431.528	2868.86
431.736	3040.89
431.943	3171.96
432.15	3143.29
432.358	3176.06
432.565	3399.29
432.772	3260.02
432.979	3444.34
433.187	3647.09
433.394	3423.86
433.601	3798.64
433.808	3864.18
434.016	3720.82
434.223	4001.39
434.43	4134.51
434.637	4146.8
434.844	4230.76
435.052	4353.64
435.259	4406.89
435.466	4478.57
435.673	4400.74
435.88	4810.34
436.087	5031.52
436.294	4965.98
436.501	4730.47
436.708	4873.82
436.915	5033.57
437.122	5314.14
437.329	5289.56
437.537	5527.13
437.743	5805.65
437.95	5584.47
438.157	5828.18
438.364	5946.96
438.571	5957.2
438.778	6225.48
438.985	6657.61
439.192	6213.2
439.399	6633.03
439.606	6532.68
439.813	6805.06
440.02	7323.19
440.227	7063.1
440.433	7188.03
440.64	7210.56
440.847	7167.55
441.054	7482.94
441.261	7691.83
441.467	7777.84
441.674	7986.74
441.881	8193.58
442.088	8025.65
442.294	8255.02
442.501	8269.36
442.708	8506.92
442.914	8810.02
443.121	9158.17
443.328	9195.04
443.534	9735.7
443.741	9276.96
443.948	9227.81
444.154	9881.11
444.361	9866.77
444.568	10237.45
444.774	9854.48
444.981	10034.71
445.187	10384.91
445.394	10833.41
445.6	10696.2
445.807	11630.07
446.013	11163.14
446.22	11468.28
446.426	11709.94
446.633	11959.8
446.839	12467.69
447.046	11908.6
447.252	12658.15
447.459	12574.19
447.665	12662.25
447.871	13188.58
448.078	13911.51
448.284	13202.91
448.491	13520.35
448.697	14015.96
448.903	14167.51
449.11	14360.02
449.316	14044.63
449.522	14464.46
449.728	14609.87
449.935	14790.09
450.141	14824.9
450.347	15125.96
450.553	14712.27
450.76	14955.97
450.966	15613.37
451.172	15158.72
451.378	15699.39
451.584	15144.39
451.791	15674.81
451.997	15785.4
452.203	16022.97
452.409	16076.21
452.615	15982.01
452.821	15302.08
453.027	15267.27
453.233	16184.76
453.44	15492.54
453.646	15807.93
453.852	15545.79
454.058	16151.99
454.264	15551.93
454.47	15738.3
454.676	15365.57
454.882	16164.28
455.088	14462.41
455.294	14790.09
455.5	15048.13
455.705	15222.21
455.911	14583.24
456.117	14321.1
456.323	14235.09
456.529	13563.36
456.735	14132.69
456.941	13692.38
457.147	13274.59
457.352	13084.13
457.558	12903.91
457.764	12836.33
457.97	12627.43
458.176	12441.07
458.381	12465.64
458.587	11818.49
458.793	11699.7
458.999	11109.89
459.204	12029.43
459.41	11755
459.616	10923.52
459.821	10903.04
460.027	10774.02
460.233	10450.44
460.438	10157.58
460.644	10118.67
460.85	9874.96
461.055	9578.01
461.261	9508.38
461.466	8853.03
461.672	8506.92
461.878	9244.19
462.083	8547.88
462.289	8492.59
462.494	8455.72
462.7	8027.7
462.905	7765.56
463.111	8220.21
463.316	8042.03
463.522	7806.52
463.727	8089.14
463.932	7740.98
464.138	7743.03
464.343	8017.46
464.549	7755.32
464.754	7851.57
464.959	7700.02
465.165	7843.38
465.37	7521.85
465.575	7241.28
465.781	7556.66
465.986	7593.53
466.191	7435.83
466.397	7243.32
466.602	6983.23
466.807	7188.03
467.012	7157.31
467.218	7175.74
467.423	6929.98
467.628	6934.08
467.833	7374.39
468.038	7136.83
468.244	6800.96
468.449	7104.06
468.654	6905.41
468.859	7071.29
469.064	6710.85
469.269	6606.41
