Data from USB4F104151__56__12-59-18-664.txt Node

Date: Fri Mar 14 12:59:18 EDT 2025
User: louis
Spectrometer: USB4F10415
Trigger mode: 4
Integration Time (sec): 1.000000E-2
Scans to average: 1
Electric dark correction enabled: true
Nonlinearity correction enabled: false
Boxcar width: 0
XAxis mode: Wavelengths
Number of Pixels in Spectrum: 3648
>>>>>Begin Spectral Data<<<<<
178.204	-39.76
178.424	-39.76
178.644	-39.76
178.864	-95.06
179.084	-31.57
179.304	11.43
179.524	13.48
179.744	-39.76
179.964	48.3
180.184	-17.24
180.404	38.06
180.624	-31.57
180.844	23.72
181.064	19.63
181.283	17.58
181.503	-17.24
181.723	-66.39
181.943	36.01
182.163	60.59
182.383	-7
182.602	27.82
182.822	-25.43
183.042	7.34
183.262	23.72
183.482	-9.05
183.701	29.87
183.921	42.15
184.141	40.11
184.361	31.91
184.58	-9.05
184.8	79.02
185.02	-27.48
185.239	23.72
185.459	40.11
185.679	-11.09
185.898	-37.72
186.118	-37.72
186.338	-2.9
186.557	74.92
186.777	19.63
186.997	56.49
187.216	15.53
187.436	7.34
187.655	3.24
187.875	89.26
188.095	-7
188.314	64.68
188.534	36.01
188.753	-21.33
188.973	-52.05
189.192	89.26
189.412	7.34
189.631	-7
189.851	-17.24
190.07	40.11
190.29	-62.29
190.509	-29.52
190.729	-19.29
190.948	-52.05
191.168	-9.05
191.387	-80.72
191.607	60.59
191.826	-68.44
192.045	-52.05
192.265	-7
192.484	-31.57
192.704	-37.72
192.923	9.39
193.142	17.58
193.362	-21.33
193.581	-29.52
193.8	7.34
194.02	19.63
194.239	44.2
194.458	23.72
194.678	64.68
194.897	33.96
195.116	70.83
195.335	-2.9
195.555	-9.05
195.774	60.59
195.993	-33.62
196.212	107.69
196.432	29.87
196.651	-17.24
196.87	36.01
197.089	7.34
197.308	-60.24
197.528	62.63
197.747	3.24
197.966	56.49
198.185	13.48
198.404	3.24
198.623	36.01
198.842	13.48
199.062	44.2
199.281	1.19
199.5	29.87
199.719	-17.24
199.938	48.3
200.157	33.96
200.376	-56.15
200.595	-15.19
200.814	13.48
201.033	25.77
201.252	72.87
201.471	52.39
201.69	9.39
201.909	58.54
202.128	-25.43
202.347	91.31
202.566	15.53
202.785	1.19
203.004	29.87
203.223	31.91
203.442	-31.57
203.661	21.67
203.879	-13.14
204.098	36.01
204.317	33.96
204.536	13.48
204.755	23.72
204.974	95.4
205.193	-13.14
205.411	126.12
205.63	23.72
205.849	23.72
206.068	40.11
206.287	-35.67
206.505	-17.24
206.724	-15.19
206.943	25.77
207.162	36.01
207.381	56.49
207.599	11.43
207.818	-47.96
208.037	-13.14
208.255	97.45
208.474	7.34
208.693	19.63
208.911	-7
209.13	33.96
209.349	17.58
209.567	11.43
209.786	-2.9
210.005	50.35
210.223	-7
210.442	-37.72
210.661	-11.09
210.879	11.43
211.098	15.53
211.316	-11.09
211.535	15.53
211.753	-9.05
211.972	89.26
212.191	15.53
212.409	17.58
212.628	15.53
212.846	70.83
213.065	-39.76
213.283	48.3
213.502	9.39
213.72	-9.05
213.938	-17.24
214.157	74.92
214.375	-60.24
214.594	31.91
214.812	70.83
215.031	3.24
215.249	19.63
215.467	74.92
215.686	40.11
215.904	7.34
216.122	-17.24
216.341	9.39
216.559	7.34
216.778	23.72
216.996	-62.29
217.214	42.15
217.432	48.3
217.651	11.43
217.869	-21.33
218.087	25.77
218.306	23.72
218.524	7.34
218.742	54.44
218.96	83.11
219.179	50.35
219.397	-25.43
219.615	-17.24
219.833	9.39
220.051	-2.9
220.27	72.87
220.488	17.58
220.706	9.39
220.924	-9.05
221.142	-0.85
221.36	27.82
221.578	13.48
221.796	91.31
222.015	15.53
222.233	-31.57
222.451	25.77
222.669	5.29
222.887	29.87
223.105	38.06
223.323	40.11
223.541	9.39
223.759	52.39
223.977	5.29
224.195	23.72
224.413	29.87
224.631	36.01
224.849	66.73
225.067	7.34
225.285	-23.38
225.503	15.53
225.721	-33.62
225.939	-15.19
226.157	23.72
226.375	52.39
226.592	-56.15
226.81	60.59
227.028	17.58
227.246	21.67
227.464	-9.05
227.682	56.49
227.9	11.43
228.117	-25.43
228.335	-15.19
228.553	23.72
228.771	-25.43
228.989	-25.43
229.206	56.49
229.424	-13.14
229.642	-17.24
229.86	27.82
230.077	38.06
230.295	25.77
230.513	58.54
230.731	48.3
230.948	5.29
231.166	33.96
231.384	-35.67
231.601	11.43
231.819	-17.24
232.037	7.34
232.254	25.77
232.472	9.39
232.689	-9.05
232.907	-4.95
233.125	-11.09
233.342	36.01
233.56	-2.9
233.777	-11.09
233.995	101.55
234.213	-2.9
234.43	-17.24
234.648	54.44
234.865	17.58
235.083	25.77
235.3	72.87
235.518	25.77
235.735	1.19
235.953	27.82
236.17	-45.91
236.388	-31.57
236.605	33.96
236.822	9.39
237.04	-17.24
237.257	31.91
237.475	72.87
237.692	-47.96
237.909	-29.52
238.127	-58.2
238.344	-4.95
238.562	-2.9
238.779	-17.24
238.996	-23.38
239.214	11.43
239.431	60.59
239.648	-0.85
239.865	7.34
240.083	29.87
240.3	23.72
240.517	-41.81
240.735	5.29
240.952	42.15
241.169	128.17
241.386	-19.29
241.603	-25.43
241.821	21.67
242.038	66.73
242.255	-4.95
242.472	36.01
242.689	44.2
242.907	31.91
243.124	-45.91
243.341	46.25
243.558	-15.19
243.775	58.54
243.992	-50
244.209	15.53
244.426	5.29
244.643	76.97
244.86	-29.52
245.078	-21.33
245.295	60.59
245.512	31.91
245.729	-43.86
245.946	-33.62
246.163	23.72
246.38	46.25
246.597	-11.09
246.814	44.2
247.031	-21.33
247.248	70.83
247.464	52.39
247.681	-35.67
247.898	7.34
248.115	29.87
248.332	-50
248.549	60.59
248.766	33.96
248.983	-31.57
249.2	-17.24
249.417	54.44
249.633	17.58
249.85	-17.24
250.067	15.53
250.284	-0.85
250.501	23.72
250.717	7.34
250.934	-4.95
251.151	33.96
251.368	3.24
251.585	9.39
251.801	68.78
252.018	-15.19
252.235	23.72
252.451	-7
252.668	-31.57
252.885	54.44
253.102	33.96
253.318	56.49
253.535	7.34
253.752	9.39
253.968	58.54
254.185	-4.95
254.401	-58.2
254.618	97.45
254.835	-29.52
255.051	46.25
255.268	64.68
255.484	19.63
255.701	-7
255.917	27.82
256.134	1.19
256.351	9.39
256.567	-9.05
256.784	-19.29
257	25.77
257.217	52.39
257.433	13.48
257.65	15.53
257.866	27.82
258.082	58.54
258.299	-39.76
258.515	58.54
258.732	-2.9
258.948	-21.33
259.165	-25.43
259.381	-2.9
259.597	-4.95
259.814	7.34
260.03	-0.85
260.246	3.24
260.463	9.39
260.679	68.78
260.895	-60.24
261.112	25.77
261.328	23.72
261.544	29.87
261.761	64.68
261.977	117.93
262.193	38.06
262.409	25.77
262.626	27.82
262.842	68.78
263.058	-41.81
263.274	33.96
263.49	-4.95
263.707	27.82
263.923	23.72
264.139	9.39
264.355	97.45
264.571	13.48
264.787	-29.52
265.004	-4.95
265.22	36.01
265.436	52.39
265.652	-17.24
265.868	13.48
266.084	-11.09
266.3	-7
266.516	-7
266.732	19.63
266.948	7.34
267.164	46.25
267.38	15.53
267.596	27.82
267.812	36.01
268.028	115.88
268.244	1.19
268.46	-64.34
268.676	7.34
268.892	93.35
269.108	91.31
269.324	5.29
269.54	29.87
269.756	50.35
269.972	-4.95
270.188	-25.43
270.403	27.82
270.619	72.87
270.835	36.01
271.051	70.83
271.267	-68.44
271.483	68.78
271.698	-9.05
271.914	-2.9
272.13	-13.14
272.346	44.2
272.562	36.01
272.777	31.91
272.993	-9.05
273.209	58.54
273.425	-56.15
273.64	-21.33
273.856	42.15
274.072	-25.43
274.287	-7
274.503	79.02
274.719	-37.72
274.934	60.59
275.15	-17.24
275.366	33.96
275.581	7.34
275.797	15.53
276.012	11.43
276.228	46.25
276.444	-41.81
276.659	72.87
276.875	-97.11
277.09	-13.14
277.306	44.2
277.521	40.11
277.737	46.25
277.952	42.15
278.168	9.39
278.383	23.72
278.599	21.67
278.814	15.53
279.03	33.96
279.245	79.02
279.461	46.25
279.676	23.72
279.892	44.2
280.107	-25.43
280.322	-0.85
280.538	-68.44
280.753	-7
280.969	-43.86
281.184	-15.19
281.399	91.31
281.615	56.49
281.83	-19.29
282.045	19.63
282.26	68.78
282.476	81.07
282.691	56.49
282.906	3.24
283.122	17.58
283.337	36.01
283.552	87.21
283.767	40.11
283.983	31.91
284.198	85.16
284.413	9.39
284.628	-29.52
284.843	-17.24
285.058	-56.15
285.274	58.54
285.489	-4.95
285.704	99.5
285.919	-23.38
286.134	-31.57
286.349	76.97
286.564	7.34
286.779	23.72
286.995	9.39
287.21	9.39
287.425	44.2
287.64	-17.24
287.855	23.72
288.07	-62.29
288.285	48.3
288.5	5.29
288.715	13.48
288.93	42.15
289.145	21.67
289.36	42.15
289.575	5.29
289.79	5.29
290.004	-45.91
290.219	1.19
290.434	-7
290.649	-37.72
290.864	79.02
291.079	36.01
291.294	-37.72
291.509	1.19
291.724	-21.33
291.938	-56.15
292.153	54.44
292.368	40.11
292.583	3.24
292.798	-0.85
293.012	-23.38
293.227	-13.14
293.442	-21.33
293.657	48.3
293.871	25.77
294.086	21.67
294.301	52.39
294.516	40.11
294.73	1.19
294.945	-33.62
295.16	7.34
295.374	15.53
295.589	95.4
295.804	-31.57
296.018	74.92
296.233	-50
296.447	-9.05
296.662	46.25
296.877	58.54
297.091	-29.52
297.306	-33.62
297.52	-0.85
297.735	40.11
297.949	95.4
298.164	31.91
298.378	25.77
298.593	23.72
298.807	-11.09
299.022	7.34
299.236	50.35
299.451	91.31
299.665	-39.76
299.88	-4.95
300.094	-25.43
300.309	142.5
300.523	-21.33
300.737	89.26
300.952	17.58
301.166	58.54
301.381	-39.76
301.595	27.82
301.809	33.96
302.024	50.35
302.238	40.11
302.452	107.69
302.667	-50
302.881	33.96
303.095	-17.24
303.309	-17.24
303.524	19.63
303.738	-33.62
303.952	13.48
304.166	48.3
304.381	-31.57
304.595	17.58
304.809	-13.14
305.023	-17.24
305.237	19.63
305.452	-33.62
305.666	87.21
305.88	-39.76
306.094	60.59
306.308	44.2
306.522	-11.09
306.736	17.58
306.95	42.15
307.164	15.53
307.379	-25.43
307.593	-7
307.807	38.06
308.021	23.72
308.235	17.58
308.449	-78.68
308.663	-17.24
308.877	56.49
309.091	-86.87
309.305	7.34
309.519	-60.24
309.733	27.82
309.947	3.24
310.161	15.53
310.374	56.49
310.588	142.5
310.802	-19.29
311.016	-25.43
311.23	15.53
311.444	33.96
311.658	-0.85
311.872	60.59
312.085	38.06
312.299	81.07
312.513	52.39
312.727	74.92
312.941	46.25
313.154	21.67
313.368	36.01
313.582	25.77
313.796	-39.76
314.009	60.59
314.223	48.3
314.437	-45.91
314.651	50.35
314.864	-9.05
315.078	25.77
315.292	-17.24
315.505	27.82
315.719	25.77
315.933	-11.09
316.146	66.73
316.36	-43.86
316.573	31.91
316.787	23.72
317.001	97.45
317.214	17.58
317.428	-9.05
317.641	5.29
317.855	15.53
318.068	44.2
318.282	62.63
318.495	56.49
318.709	7.34
318.922	-4.95
319.136	56.49
319.349	38.06
319.563	42.15
319.776	33.96
319.99	40.11
320.203	29.87
320.417	50.35
320.63	27.82
320.843	-23.38
321.057	23.72
321.27	-11.09
321.483	50.35
321.697	-45.91
321.91	33.96
322.124	54.44
322.337	19.63
322.55	-37.72
322.763	-15.19
322.977	-2.9
323.19	25.77
323.403	31.91
323.617	-47.96
323.83	-45.91
324.043	40.11
324.256	7.34
324.469	-13.14
324.683	66.73
324.896	-70.48
325.109	17.58
325.322	-45.91
325.535	70.83
325.748	66.73
325.962	3.24
326.175	-37.72
326.388	-0.85
326.601	36.01
326.814	7.34
327.027	-35.67
327.24	9.39
327.453	-0.85
327.666	-33.62
327.879	60.59
328.092	21.67
328.305	36.01
328.518	-9.05
328.731	-27.48
328.944	-4.95
329.157	5.29
329.37	54.44
329.583	11.43
329.796	23.72
330.009	64.68
330.222	-19.29
330.435	62.63
330.648	9.39
330.861	31.91
331.073	23.72
331.286	-25.43
331.499	-17.24
331.712	81.07
331.925	5.29
332.138	-29.52
332.35	74.92
332.563	-11.09
332.776	25.77
332.989	79.02
333.202	38.06
333.414	-17.24
333.627	-45.91
333.84	31.91
334.053	40.11
334.265	15.53
334.478	23.72
334.691	23.72
334.903	58.54
335.116	15.53
335.329	21.67
335.541	17.58
335.754	-4.95
335.966	48.3
336.179	1.19
336.392	-7
336.604	101.55
336.817	-29.52
337.029	64.68
337.242	42.15
337.454	79.02
337.667	93.35
337.88	3.24
338.092	58.54
338.305	44.2
338.517	7.34
338.729	25.77
338.942	62.63
339.154	31.91
339.367	-13.14
339.579	25.77
339.792	9.39
340.004	-21.33
340.217	11.43
340.429	-4.95
340.641	-45.91
340.854	95.4
341.066	-31.57
341.278	-13.14
341.491	58.54
341.703	40.11
341.915	-4.95
342.128	15.53
342.34	17.58
342.552	5.29
342.764	23.72
342.977	-0.85
343.189	1.19
343.401	58.54
343.613	17.58
343.826	56.49
344.038	-9.05
344.25	70.83
344.462	-15.19
344.674	31.91
344.886	-7
345.099	-29.52
345.311	-23.38
345.523	36.01
345.735	11.43
345.947	5.29
346.159	81.07
346.371	64.68
346.583	31.91
346.795	60.59
347.007	33.96
347.219	64.68
347.431	-41.81
347.643	36.01
347.855	25.77
348.067	29.87
348.279	15.53
348.491	44.2
348.703	-39.76
348.915	1.19
349.127	5.29
349.339	60.59
349.551	46.25
349.763	-50
349.975	13.48
350.187	60.59
350.399	70.83
350.61	-17.24
350.822	-9.05
351.034	70.83
351.246	7.34
351.458	44.2
351.669	-21.33
351.881	74.92
352.093	25.77
352.305	11.43
352.517	33.96
352.728	54.44
352.94	-17.24
353.152	54.44
353.363	-27.48
353.575	-13.14
353.787	27.82
353.999	48.3
354.21	46.25
354.422	36.01
354.633	74.92
354.845	21.67
355.057	-41.81
355.268	89.26
355.48	-47.96
355.692	72.87
355.903	40.11
356.115	-17.24
356.326	33.96
356.538	-11.09
356.749	-35.67
356.961	-7
357.172	29.87
357.384	-37.72
357.595	-41.81
357.807	9.39
358.018	17.58
358.23	9.39
358.441	105.64
358.653	79.02
358.864	-35.67
359.075	1.19
359.287	11.43
359.498	72.87
359.709	64.68
359.921	-2.9
360.132	81.07
360.344	62.63
360.555	54.44
360.766	-62.29
360.977	64.68
361.189	31.91
361.4	25.77
361.611	25.77
361.823	23.72
362.034	40.11
362.245	-9.05
362.456	70.83
362.667	25.77
362.879	42.15
363.09	48.3
363.301	-68.44
363.512	48.3
363.723	-56.15
363.935	7.34
364.146	42.15
364.357	-43.86
364.568	38.06
364.779	1.19
364.99	-0.85
365.201	62.63
365.412	-2.9
365.623	40.11
365.834	25.77
366.045	40.11
366.256	31.91
366.467	44.2
366.678	25.77
366.889	-2.9
367.1	-33.62
367.311	54.44
367.522	-11.09
367.733	5.29
367.944	97.45
368.155	36.01
368.366	-2.9
368.577	23.72
368.788	11.43
368.999	23.72
369.209	-25.43
369.42	97.45
369.631	-15.19
369.842	-37.72
370.053	23.72
370.264	48.3
370.474	-9.05
370.685	31.91
370.896	27.82
371.107	48.3
371.317	85.16
371.528	-19.29
371.739	89.26
371.95	48.3
372.16	56.49
372.371	29.87
372.582	70.83
372.792	19.63
373.003	115.88
373.214	9.39
373.424	23.72
373.635	72.87
373.846	-17.24
374.056	58.54
374.267	40.11
374.477	11.43
374.688	60.59
374.898	-37.72
375.109	-19.29
375.319	-15.19
375.53	60.59
375.74	23.72
375.951	31.91
376.161	76.97
376.372	50.35
376.582	7.34
376.793	36.01
377.003	31.91
377.214	25.77
377.424	79.02
377.635	9.39
377.845	38.06
378.055	52.39
378.266	66.73
378.476	72.87
378.686	93.35
378.897	1.19
379.107	23.72
379.317	33.96
379.528	46.25
379.738	54.44
379.948	-27.48
380.158	-0.85
380.369	17.58
380.579	21.67
380.789	38.06
380.999	21.67
381.21	40.11
381.42	93.35
381.63	27.82
381.84	40.11
382.05	13.48
382.261	66.73
382.471	48.3
382.681	68.78
382.891	29.87
383.101	9.39
383.311	-13.14
383.521	40.11
383.731	13.48
383.941	91.31
384.151	-64.34
384.361	-82.77
384.571	11.43
384.781	38.06
384.991	25.77
385.201	50.35
385.411	29.87
385.621	3.24
385.831	52.39
386.041	58.54
386.251	15.53
386.461	72.87
386.671	27.82
386.881	40.11
387.091	29.87
387.301	56.49
387.511	85.16
387.72	64.68
387.93	-17.24
388.14	15.53
388.35	60.59
388.56	42.15
388.769	17.58
388.979	56.49
389.189	66.73
389.399	15.53
389.609	72.87
389.818	38.06
390.028	-2.9
390.238	89.26
390.447	83.11
390.657	31.91
390.867	9.39
391.076	64.68
391.286	15.53
391.496	60.59
391.705	9.39
391.915	70.83
392.125	9.39
392.334	99.5
392.544	23.72
392.753	29.87
392.963	13.48
393.172	52.39
393.382	-23.38
393.591	105.64
393.801	42.15
394.01	62.63
394.22	9.39
394.429	-7
394.639	1.19
394.848	72.87
395.058	74.92
395.267	89.26
395.477	56.49
395.686	48.3
395.895	23.72
396.105	66.73
396.314	44.2
396.524	19.63
396.733	27.82
396.942	21.67
397.152	13.48
397.361	70.83
397.57	19.63
397.78	91.31
397.989	25.77
398.198	87.21
398.407	99.5
398.617	-17.24
398.826	87.21
399.035	46.25
399.244	130.22
399.453	36.01
399.663	83.11
399.872	87.21
400.081	13.48
400.29	95.4
400.499	64.68
400.708	40.11
400.917	91.31
401.127	3.24
401.336	44.2
401.545	101.55
401.754	7.34
401.963	122.02
402.172	103.59
402.381	-21.33
402.59	31.91
402.799	97.45
403.008	79.02
403.217	76.97
403.426	50.35
403.635	89.26
403.844	29.87
404.053	72.87
404.262	76.97
404.471	105.64
404.68	85.16
404.888	122.02
405.097	52.39
405.306	68.78
405.515	122.02
405.724	58.54
405.933	126.12
406.142	93.35
406.35	91.31
406.559	42.15
406.768	95.4
406.977	115.88
407.185	97.45
407.394	132.26
407.603	74.92
407.812	162.98
408.02	117.93
408.229	132.26
408.438	68.78
408.646	175.27
408.855	191.66
409.064	146.6
409.272	122.02
409.481	142.5
409.69	175.27
409.898	158.89
410.107	187.56
410.315	169.13
410.524	150.7
410.733	195.75
410.941	169.13
411.15	244.9
411.358	281.77
411.567	220.33
411.775	232.62
411.984	253.09
412.192	220.33
412.401	193.7
412.609	267.43
412.818	273.57
413.026	298.15
413.234	298.15
413.443	361.64
413.651	375.97
413.86	265.38
414.068	277.67
414.276	341.16
414.485	326.82
414.693	359.59
414.901	347.3
415.11	373.92
415.318	443.56
415.526	441.51
415.734	502.95
415.943	447.65
416.151	478.37
416.359	478.37
416.567	449.7
416.776	488.61
416.984	550.05
417.192	507.04
417.4	531.62
417.608	548
417.817	560.29
418.025	572.58
418.233	617.63
418.441	687.26
418.649	699.55
418.857	758.94
419.065	789.66
419.273	734.37
419.481	775.33
419.689	781.47
419.897	865.44
420.105	785.57
420.313	935.07
420.521	908.44
420.729	912.54
420.937	902.3
421.145	1006.75
421.353	1027.23
421.561	1107.1
421.769	1051.8
421.977	1201.3
422.185	1189.02
422.393	1211.54
422.601	1332.37
422.809	1328.28
423.017	1225.88
423.224	1359
423.432	1373.33
423.64	1483.92
423.848	1543.32
424.056	1483.92
424.263	1588.37
424.471	1522.84
424.679	1664.15
424.887	1725.58
425.094	1834.13
425.302	1672.34
425.51	1893.52
425.718	1875.09
425.925	1987.72
426.133	2008.2
426.341	2067.6
426.548	2221.19
426.756	2253.96
426.964	2192.52
427.171	2370.69
427.379	2507.91
427.586	2483.33
427.794	2524.29
428.001	2643.07
428.209	2874.49
428.417	2739.33
428.624	2999.42
428.832	2892.93
429.039	2956.41
429.247	2837.63
429.454	3136.63
429.662	3376.25
429.869	3185.79
430.076	3323
430.284	3325.05
430.491	3390.58
430.699	3691.63
430.906	3667.06
431.114	3808.37
431.321	3828.85
431.528	3953.77
431.736	4148.33
431.943	4316.26
432.15	4279.4
432.358	4344.94
432.565	4600.93
432.772	4537.45
432.979	4809.83
433.187	4877.41
433.394	4832.35
433.601	5127.26
433.808	5215.32
434.016	5243.99
434.223	5428.31
434.43	5766.23
434.637	5645.4
434.844	5973.07
435.052	6159.44
435.259	5950.54
435.466	6028.37
435.673	6087.76
435.88	6460.49
436.087	6595.65
436.294	6732.87
436.501	6808.64
436.708	6788.16
436.915	7078.97
437.122	7386.17
437.329	7271.48
437.537	7584.82
437.743	7719.99
437.95	7584.82
438.157	8043.57
438.364	8289.32
438.571	8315.95
438.778	8234.03
438.985	9063.46
439.192	8768.55
439.399	8905.76
439.606	8750.12
439.813	9313.31
440.02	9901.08
440.227	9630.74
440.433	9563.16
440.64	9870.36
440.847	9853.97
441.054	10011.67
441.261	10746.89
441.467	10785.8
441.674	10832.9
441.881	11197.44
442.088	10949.64
442.294	11168.77
442.501	11418.62
442.708	11709.43
442.914	12010.48
443.121	12520.43
443.328	12237.81
443.534	13231.07
443.741	12852.2
443.948	12702.7
444.154	13648.86
444.361	13663.19
444.568	13611.99
444.774	13755.35
444.981	13693.91
445.187	14289.87
445.394	14916.55
445.6	14558.16
445.807	15995.83
446.013	15199.17
446.22	15782.84
446.426	16395.18
446.633	16540.59
446.839	17118.12
447.046	16442.29
447.252	17400.74
447.459	17578.91
447.665	17179.56
447.871	18176.92
448.078	19149.7
448.284	17961.88
448.491	18357.14
448.697	18912.14
448.903	19323.78
449.11	19643.26
449.316	19354.5
449.522	19579.78
449.728	20327.28
449.935	20394.87
450.141	20515.7
450.347	20726.64
450.553	20198.26
450.76	20140.92
450.966	21330.79
451.172	20802.41
451.378	21627.74
451.584	21263.21
451.791	21478.24
451.997	21793.63
452.203	22102.87
452.409	22143.83
452.615	21936.99
452.821	21250.92
453.027	21052.27
453.233	22072.15
453.44	21328.74
453.646	21179.24
453.852	21425
454.058	22172.5
454.264	21136.23
454.47	21490.53
454.676	21367.65
454.882	22166.36
455.088	20044.66
455.294	20358
455.5	20626.29
455.705	20738.93
455.911	20188.02
456.117	19692.41
456.323	19436.42
456.529	18146.2
456.735	18994.06
456.941	18807.69
457.147	18520.98
457.352	17955.74
457.558	17683.36
457.764	17869.72
457.97	17523.62
458.176	16774.06
458.381	17195.94
458.587	15788.99
458.793	16182.2
458.999	15166.4
459.204	16380.85
459.41	16081.85
459.616	15049.67
459.821	15021
460.027	14930.89
460.233	14429.13
460.438	13937.62
460.644	14111.7
460.85	13302.75
461.055	13286.37
461.261	13237.22
461.466	12426.22
461.672	11895.8
461.878	12692.46
462.083	11932.66
462.289	11711.48
462.494	11408.38
462.7	11013.12
462.905	10626.06
463.111	10859.52
463.316	11043.84
463.522	11006.98
463.727	10982.4
463.932	10851.33
464.138	10793.99
464.343	10982.4
464.549	10460.17
464.754	10955.78
464.959	10710.02
465.165	10798.09
465.37	10306.57
465.575	10159.12
465.781	10296.33
465.986	10249.23
466.191	10089.49
466.397	9907.22
466.602	9237.53
466.807	9790.49
467.012	9862.16
467.218	9765.91
467.423	9571.35
467.628	9667.61
467.833	10064.91
468.038	9638.94
468.244	9399.32
468.449	9913.36
468.654	9151.52
468.859	9509.91
469.064	9391.13
