Data from USB4F104151__49__12-59-09-705.txt Node

Date: Fri Mar 14 12:59:09 EDT 2025
User: louis
Spectrometer: USB4F10415
Trigger mode: 4
Integration Time (sec): 1.000000E-2
Scans to average: 1
Electric dark correction enabled: true
Nonlinearity correction enabled: false
Boxcar width: 0
XAxis mode: Wavelengths
Number of Pixels in Spectrum: 3648
>>>>>Begin Spectral Data<<<<<
178.204	0
178.424	0
178.644	0
178.864	-90.11
179.084	-71.68
179.304	10.24
179.524	47.1
179.744	6.14
179.964	4.1
180.184	26.62
180.404	34.82
180.624	-8.19
180.844	-45.06
181.064	10.24
181.283	-104.45
181.503	-16.38
181.723	34.82
181.943	-83.97
182.163	34.82
182.383	-14.34
182.602	53.25
182.822	8.19
183.042	-4.1
183.262	-45.06
183.482	-22.53
183.701	22.53
183.921	61.44
184.141	38.91
184.361	100.35
184.58	-10.24
184.8	49.15
185.02	-22.53
185.239	61.44
185.459	51.2
185.679	49.15
185.898	-16.38
186.118	34.82
186.338	126.97
186.557	-32.77
186.777	34.82
186.997	65.54
187.216	57.34
187.436	8.19
187.655	-63.49
187.875	22.53
188.095	-8.19
188.314	8.19
188.534	45.06
188.753	-18.43
188.973	90.11
189.192	75.77
189.412	-32.77
189.631	77.82
189.851	28.67
190.07	4.1
190.29	12.29
190.509	16.38
190.729	108.54
190.948	38.91
191.168	83.97
191.387	96.25
191.607	34.82
191.826	57.34
192.045	24.58
192.265	14.34
192.484	20.48
192.704	40.96
192.923	-16.38
193.142	90.11
193.362	-18.43
193.581	106.49
193.8	-10.24
194.02	69.63
194.239	38.91
194.458	49.15
194.678	67.58
194.897	-47.1
195.116	8.19
195.335	20.48
195.555	22.53
195.774	36.86
195.993	49.15
196.212	71.68
196.432	-14.34
196.651	43.01
196.87	63.49
197.089	59.39
197.308	4.1
197.528	16.38
197.747	38.91
197.966	34.82
198.185	6.14
198.404	-26.62
198.623	14.34
198.842	0
199.062	-8.19
199.281	28.67
199.5	16.38
199.719	-12.29
199.938	47.1
200.157	-28.67
200.376	-24.58
200.595	2.05
200.814	-98.3
201.033	8.19
201.252	73.73
201.471	20.48
201.69	124.93
201.909	26.62
202.128	83.97
202.347	20.48
202.566	-4.1
202.785	28.67
203.004	10.24
203.223	92.16
203.442	32.77
203.661	16.38
203.879	51.2
204.098	6.14
204.317	34.82
204.536	38.91
204.755	26.62
204.974	8.19
205.193	28.67
205.411	51.2
205.63	90.11
205.849	-18.43
206.068	2.05
206.287	16.38
206.505	71.68
206.724	22.53
206.943	-14.34
207.162	49.15
207.381	-32.77
207.599	86.01
207.818	22.53
208.037	-8.19
208.255	49.15
208.474	-6.14
208.693	14.34
208.911	65.54
209.13	43.01
209.349	0
209.567	57.34
209.786	28.67
210.005	6.14
210.223	-8.19
210.442	-32.77
210.661	28.67
210.879	73.73
211.098	26.62
211.316	6.14
211.535	-12.29
211.753	-12.29
211.972	6.14
212.191	81.92
212.409	77.82
212.628	-20.48
212.846	-81.92
213.065	4.1
213.283	32.77
213.502	-38.91
213.72	24.58
213.938	67.58
214.157	30.72
214.375	69.63
214.594	92.16
214.812	10.24
215.031	81.92
215.249	92.16
215.467	51.2
215.686	67.58
215.904	30.72
216.122	-14.34
216.341	14.34
216.559	69.63
216.778	53.25
216.996	49.15
217.214	57.34
217.432	30.72
217.651	45.06
217.869	98.3
218.087	114.69
218.306	63.49
218.524	14.34
218.742	47.1
218.96	-32.77
219.179	4.1
219.397	8.19
219.615	90.11
219.833	32.77
220.051	26.62
220.27	98.3
220.488	59.39
220.706	28.67
220.924	30.72
221.142	-6.14
221.36	-8.19
221.578	2.05
221.796	6.14
222.015	26.62
222.233	0
222.451	-6.14
222.669	4.1
222.887	22.53
223.105	-57.34
223.323	-20.48
223.541	36.86
223.759	40.96
223.977	34.82
224.195	57.34
224.413	45.06
224.631	6.14
224.849	-18.43
225.067	8.19
225.285	43.01
225.503	94.21
225.721	-32.77
225.939	40.96
226.157	53.25
226.375	20.48
226.592	81.92
226.81	18.43
227.028	38.91
227.246	51.2
227.464	20.48
227.682	43.01
227.9	55.3
228.117	100.35
228.335	-4.1
228.553	71.68
228.771	10.24
228.989	36.86
229.206	6.14
229.424	43.01
229.642	28.67
229.86	-22.53
230.077	51.2
230.295	24.58
230.513	40.96
230.731	26.62
230.948	55.3
231.166	63.49
231.384	2.05
231.601	32.77
231.819	51.2
232.037	45.06
232.254	-4.1
232.472	73.73
232.689	30.72
232.907	43.01
233.125	-6.14
233.342	100.35
233.56	32.77
233.777	14.34
233.995	12.29
234.213	104.45
234.43	28.67
234.648	8.19
234.865	43.01
235.083	-4.1
235.3	-20.48
235.518	6.14
235.735	69.63
235.953	100.35
236.17	10.24
236.388	38.91
236.605	43.01
236.822	38.91
237.04	69.63
237.257	34.82
237.475	16.38
237.692	40.96
237.909	65.54
238.127	-14.34
238.344	45.06
238.562	26.62
238.779	26.62
238.996	43.01
239.214	32.77
239.431	18.43
239.648	28.67
239.865	61.44
240.083	57.34
240.3	-49.15
240.517	4.1
240.735	40.96
240.952	38.91
241.169	47.1
241.386	53.25
241.603	22.53
241.821	-14.34
242.038	57.34
242.255	36.86
242.472	10.24
242.689	8.19
242.907	118.78
243.124	43.01
243.341	24.58
243.558	43.01
243.775	47.1
243.992	-6.14
244.209	65.54
244.426	55.3
244.643	63.49
244.86	90.11
245.078	51.2
245.295	20.48
245.512	22.53
245.729	-20.48
245.946	8.19
246.163	45.06
246.38	36.86
246.597	-12.29
246.814	38.91
247.031	100.35
247.248	-16.38
247.464	16.38
247.681	114.69
247.898	26.62
248.115	98.3
248.332	-4.1
248.549	49.15
248.766	92.16
248.983	92.16
249.2	53.25
249.417	81.92
249.633	43.01
249.85	-6.14
250.067	0
250.284	114.69
250.501	38.91
250.717	24.58
250.934	28.67
251.151	53.25
251.368	2.05
251.585	51.2
251.801	51.2
252.018	26.62
252.235	-4.1
252.451	24.58
252.668	10.24
252.885	8.19
253.102	-30.72
253.318	47.1
253.535	12.29
253.752	55.3
253.968	-47.1
254.185	49.15
254.401	43.01
254.618	65.54
254.835	69.63
255.051	-22.53
255.268	34.82
255.484	28.67
255.701	20.48
255.917	61.44
256.134	22.53
256.351	6.14
256.567	67.58
256.784	32.77
257	-24.58
257.217	65.54
257.433	20.48
257.65	-16.38
257.866	38.91
258.082	-94.21
258.299	69.63
258.515	51.2
258.732	26.62
258.948	18.43
259.165	63.49
259.381	4.1
259.597	12.29
259.814	0
260.03	-22.53
260.246	-2.05
260.463	-6.14
260.679	0
260.895	28.67
261.112	81.92
261.328	-6.14
261.544	-8.19
261.761	124.93
261.977	6.14
262.193	-14.34
262.409	81.92
262.626	20.48
262.842	57.34
263.058	36.86
263.274	40.96
263.49	28.67
263.707	24.58
263.923	28.67
264.139	32.77
264.355	-2.05
264.571	16.38
264.787	34.82
265.004	77.82
265.22	45.06
265.436	-38.91
265.652	0
265.868	-16.38
266.084	-2.05
266.3	79.87
266.516	43.01
266.732	8.19
266.948	22.53
267.164	92.16
267.38	8.19
267.596	61.44
267.812	10.24
268.028	98.3
268.244	16.38
268.46	34.82
268.676	77.82
268.892	36.86
269.108	90.11
269.324	108.54
269.54	6.14
269.756	30.72
269.972	34.82
270.188	51.2
270.403	43.01
270.619	2.05
270.835	96.25
271.051	92.16
271.267	-30.72
271.483	83.97
271.698	36.86
271.914	49.15
272.13	30.72
272.346	69.63
272.562	36.86
272.777	69.63
272.993	-14.34
273.209	-10.24
273.425	14.34
273.64	-2.05
273.856	65.54
274.072	57.34
274.287	53.25
274.503	40.96
274.719	83.97
274.934	-2.05
275.15	45.06
275.366	43.01
275.581	22.53
275.797	-30.72
276.012	24.58
276.228	40.96
276.444	6.14
276.659	63.49
276.875	-36.86
277.09	28.67
277.306	38.91
277.521	8.19
277.737	-30.72
277.952	2.05
278.168	92.16
278.383	14.34
278.599	40.96
278.814	53.25
279.03	59.39
279.245	90.11
279.461	2.05
279.676	90.11
279.892	108.54
280.107	14.34
280.322	28.67
280.538	0
280.753	51.2
280.969	-18.43
281.184	14.34
281.399	28.67
281.615	0
281.83	47.1
282.045	-8.19
282.26	92.16
282.476	38.91
282.691	40.96
282.906	59.39
283.122	38.91
283.337	4.1
283.552	14.34
283.767	34.82
283.983	63.49
284.198	32.77
284.413	28.67
284.628	47.1
284.843	34.82
285.058	63.49
285.274	0
285.489	-10.24
285.704	69.63
285.919	-10.24
286.134	32.77
286.349	36.86
286.564	26.62
286.779	-20.48
286.995	24.58
287.21	6.14
287.425	94.21
287.64	18.43
287.855	51.2
288.07	-10.24
288.285	34.82
288.5	53.25
288.715	45.06
288.93	-8.19
289.145	106.49
289.36	65.54
289.575	-36.86
289.79	86.01
290.004	40.96
290.219	18.43
290.434	26.62
290.649	32.77
290.864	-32.77
291.079	0
291.294	-24.58
291.509	94.21
291.724	18.43
291.938	20.48
292.153	61.44
292.368	10.24
292.583	0
292.798	45.06
293.012	69.63
293.227	20.48
293.442	32.77
293.657	43.01
293.871	0
294.086	-26.62
294.301	28.67
294.516	45.06
294.73	22.53
294.945	16.38
295.16	79.87
295.374	77.82
295.589	59.39
295.804	55.3
296.018	34.82
296.233	38.91
296.447	77.82
296.662	55.3
296.877	71.68
297.091	20.48
297.306	14.34
297.52	24.58
297.735	51.2
297.949	-6.14
298.164	22.53
298.378	-47.1
298.593	32.77
298.807	81.92
299.022	73.73
299.236	-40.96
299.451	75.77
299.665	10.24
299.88	45.06
300.094	-12.29
300.309	57.34
300.523	57.34
300.737	40.96
300.952	61.44
301.166	43.01
301.381	53.25
301.595	0
301.809	-14.34
302.024	-14.34
302.238	22.53
302.452	8.19
302.667	83.97
302.881	0
303.095	65.54
303.309	8.19
303.524	36.86
303.738	16.38
303.952	-4.1
304.166	0
304.381	94.21
304.595	65.54
304.809	-2.05
305.023	-8.19
305.237	49.15
305.452	-26.62
305.666	94.21
305.88	2.05
306.094	8.19
306.308	28.67
306.522	10.24
306.736	0
306.95	14.34
307.164	69.63
307.379	16.38
307.593	122.88
307.807	-28.67
308.021	24.58
308.235	-2.05
308.449	26.62
308.663	-2.05
308.877	49.15
309.091	8.19
309.305	-4.1
309.519	114.69
309.733	24.58
309.947	30.72
310.161	-10.24
310.374	73.73
310.588	75.77
310.802	47.1
311.016	-12.29
311.23	57.34
311.444	26.62
311.658	71.68
311.872	57.34
312.085	2.05
312.299	43.01
312.513	40.96
312.727	2.05
312.941	-26.62
313.154	16.38
313.368	6.14
313.582	57.34
313.796	10.24
314.009	-24.58
314.223	24.58
314.437	53.25
314.651	104.45
314.864	40.96
315.078	47.1
315.292	98.3
315.505	8.19
315.719	40.96
315.933	108.54
316.146	-2.05
316.36	24.58
316.573	14.34
316.787	10.24
317.001	20.48
317.214	40.96
317.428	32.77
317.641	51.2
317.855	20.48
318.068	-65.54
318.282	18.43
318.495	-8.19
318.709	67.58
318.922	36.86
319.136	51.2
319.349	-14.34
319.563	-8.19
319.776	59.39
319.99	-43.01
320.203	-22.53
320.417	6.14
320.63	47.1
320.843	55.3
321.057	-16.38
321.27	22.53
321.483	53.25
321.697	90.11
321.91	-34.82
322.124	65.54
322.337	100.35
322.55	49.15
322.763	51.2
322.977	30.72
323.19	26.62
323.403	63.49
323.617	47.1
323.83	69.63
324.043	59.39
324.256	43.01
324.469	36.86
324.683	106.49
324.896	-55.3
325.109	65.54
325.322	-20.48
325.535	-16.38
325.748	-40.96
325.962	100.35
326.175	90.11
326.388	43.01
326.601	36.86
326.814	63.49
327.027	69.63
327.24	65.54
327.453	20.48
327.666	45.06
327.879	20.48
328.092	55.3
328.305	-36.86
328.518	69.63
328.731	45.06
328.944	75.77
329.157	-22.53
329.37	83.97
329.583	63.49
329.796	81.92
330.009	-14.34
330.222	18.43
330.435	110.59
330.648	79.87
330.861	-16.38
331.073	30.72
331.286	67.58
331.499	32.77
331.712	8.19
331.925	12.29
332.138	-12.29
332.35	147.45
332.563	28.67
332.776	32.77
332.989	28.67
333.202	40.96
333.414	12.29
333.627	47.1
333.84	30.72
334.053	-34.82
334.265	24.58
334.478	57.34
334.691	-4.1
334.903	32.77
335.116	-40.96
335.329	32.77
335.541	32.77
335.754	53.25
335.966	45.06
336.179	-18.43
336.392	0
336.604	16.38
336.817	30.72
337.029	86.01
337.242	100.35
337.454	69.63
337.667	88.06
337.88	-6.14
338.092	40.96
338.305	-40.96
338.517	16.38
338.729	88.06
338.942	22.53
339.154	-16.38
339.367	-32.77
339.579	96.25
339.792	34.82
340.004	32.77
340.217	6.14
340.429	14.34
340.641	40.96
340.854	20.48
341.066	53.25
341.278	8.19
341.491	45.06
341.703	36.86
341.915	65.54
342.128	43.01
342.34	6.14
342.552	55.3
342.764	57.34
342.977	-10.24
343.189	-2.05
343.401	10.24
343.613	-4.1
343.826	38.91
344.038	69.63
344.25	47.1
344.462	38.91
344.674	90.11
344.886	49.15
345.099	-10.24
345.311	38.91
345.523	69.63
345.735	-36.86
345.947	57.34
346.159	30.72
346.371	51.2
346.583	63.49
346.795	67.58
347.007	40.96
347.219	10.24
347.431	51.2
347.643	34.82
347.855	20.48
348.067	110.59
348.279	30.72
348.491	-22.53
348.703	20.48
348.915	26.62
349.127	12.29
349.339	24.58
349.551	110.59
349.763	43.01
349.975	20.48
350.187	81.92
350.399	2.05
350.61	86.01
350.822	47.1
351.034	49.15
351.246	55.3
351.458	6.14
351.669	47.1
351.881	-2.05
352.093	53.25
352.305	36.86
352.517	20.48
352.728	49.15
352.94	77.82
353.152	34.82
353.363	40.96
353.575	53.25
353.787	55.3
353.999	6.14
354.21	32.77
354.422	65.54
354.633	34.82
354.845	20.48
355.057	122.88
355.268	71.68
355.48	49.15
355.692	61.44
355.903	69.63
356.115	38.91
356.326	-4.1
356.538	94.21
356.749	-22.53
356.961	22.53
357.172	49.15
357.384	4.1
357.595	-18.43
357.807	18.43
358.018	86.01
358.23	34.82
358.441	40.96
358.653	75.77
358.864	-20.48
359.075	49.15
359.287	-47.1
359.498	20.48
359.709	-10.24
359.921	10.24
360.132	12.29
360.344	61.44
360.555	47.1
360.766	55.3
360.977	-79.87
361.189	83.97
361.4	77.82
361.611	22.53
361.823	49.15
362.034	83.97
362.245	77.82
362.456	75.77
362.667	47.1
362.879	-32.77
363.09	10.24
363.301	67.58
363.512	-2.05
363.723	100.35
363.935	-28.67
364.146	4.1
364.357	2.05
364.568	53.25
364.779	4.1
364.99	57.34
365.201	4.1
365.412	92.16
365.623	6.14
365.834	73.73
366.045	90.11
366.256	83.97
366.467	40.96
366.678	14.34
366.889	-2.05
367.1	-28.67
367.311	51.2
367.522	-8.19
367.733	32.77
367.944	40.96
368.155	83.97
368.366	114.69
368.577	22.53
368.788	61.44
368.999	-14.34
369.209	51.2
369.42	92.16
369.631	161.79
369.842	45.06
370.053	12.29
370.264	40.96
370.474	57.34
370.685	24.58
370.896	57.34
371.107	36.86
371.317	53.25
371.528	71.68
371.739	61.44
371.95	47.1
372.16	81.92
372.371	36.86
372.582	38.91
372.792	34.82
373.003	26.62
373.214	30.72
373.424	20.48
373.635	-10.24
373.846	77.82
374.056	51.2
374.267	8.19
374.477	6.14
374.688	73.73
374.898	98.3
375.109	49.15
375.319	88.06
375.53	59.39
375.74	75.77
375.951	57.34
376.161	73.73
376.372	69.63
376.582	43.01
376.793	94.21
377.003	32.77
377.214	61.44
377.424	24.58
377.635	69.63
377.845	45.06
378.055	-28.67
378.266	36.86
378.476	86.01
378.686	-2.05
378.897	18.43
379.107	2.05
379.317	30.72
379.528	92.16
379.738	34.82
379.948	0
380.158	10.24
380.369	32.77
380.579	67.58
380.789	40.96
380.999	69.63
381.21	36.86
381.42	63.49
381.63	-34.82
381.84	81.92
382.05	30.72
382.261	61.44
382.471	55.3
382.681	88.06
382.891	106.49
383.101	73.73
383.311	34.82
383.521	92.16
383.731	61.44
383.941	55.3
384.151	4.1
384.361	102.4
384.571	32.77
384.781	-20.48
384.991	59.39
385.201	77.82
385.411	16.38
385.621	16.38
385.831	45.06
386.041	47.1
386.251	32.77
386.461	131.07
386.671	40.96
386.881	67.58
387.091	-2.05
387.301	83.97
387.511	94.21
387.72	47.1
387.93	18.43
388.14	51.2
388.35	55.3
388.56	79.87
388.769	18.43
388.979	75.77
389.189	18.43
389.399	79.87
389.609	14.34
389.818	26.62
390.028	57.34
390.238	55.3
390.447	145.41
390.657	77.82
390.867	81.92
391.076	47.1
391.286	71.68
391.496	49.15
391.705	45.06
391.915	57.34
392.125	90.11
392.334	51.2
392.544	83.97
392.753	43.01
392.963	110.59
393.172	55.3
393.382	118.78
393.591	106.49
393.801	63.49
394.01	92.16
394.22	-16.38
394.429	30.72
394.639	63.49
394.848	81.92
395.058	53.25
395.267	77.82
395.477	100.35
395.686	12.29
395.895	28.67
396.105	75.77
396.314	49.15
396.524	40.96
396.733	88.06
396.942	38.91
397.152	-40.96
397.361	55.3
397.57	32.77
397.78	81.92
397.989	61.44
398.198	108.54
398.407	69.63
398.617	75.77
398.826	53.25
399.035	77.82
399.244	92.16
399.453	49.15
399.663	118.78
399.872	-10.24
400.081	61.44
400.29	124.93
400.499	90.11
400.708	96.25
400.917	53.25
401.127	114.69
401.336	69.63
401.545	120.83
401.754	141.31
401.963	118.78
402.172	67.58
402.381	79.87
402.59	8.19
402.799	40.96
403.008	59.39
403.217	114.69
403.426	38.91
403.635	88.06
403.844	102.4
404.053	53.25
404.262	145.41
404.471	32.77
404.68	86.01
404.888	110.59
405.097	102.4
405.306	36.86
405.515	133.12
405.724	102.4
405.933	143.36
406.142	100.35
406.35	104.45
406.559	135.17
406.768	131.07
406.977	215.04
407.185	149.5
407.394	137.21
407.603	161.79
407.812	178.17
408.02	178.17
408.229	124.93
408.438	151.55
408.646	192.51
408.855	165.89
409.064	133.12
409.272	206.84
409.481	180.22
409.69	153.6
409.898	188.41
410.107	264.19
410.315	192.51
410.524	153.6
410.733	219.13
410.941	235.52
411.15	270.33
411.358	210.94
411.567	290.81
411.775	292.86
411.984	315.39
412.192	217.08
412.401	282.62
412.609	327.67
412.818	350.2
413.026	309.24
413.234	303.1
413.443	335.87
413.651	294.91
413.86	270.33
414.068	354.3
414.276	354.3
414.485	360.44
414.693	364.54
414.901	436.22
415.11	430.07
415.318	471.03
415.526	466.94
415.734	468.98
415.943	415.74
416.151	471.03
416.359	466.94
416.567	540.66
416.776	507.9
416.984	649.21
417.192	626.68
417.4	593.91
417.608	636.92
417.817	708.6
418.025	638.97
418.233	649.21
418.441	684.02
418.649	729.08
418.857	796.66
419.065	823.28
419.273	794.61
419.481	845.81
419.689	923.63
419.897	901.11
420.105	956.4
420.313	944.11
420.521	952.31
420.729	905.2
420.937	954.35
421.145	1050.61
421.353	1114.1
421.561	1202.16
421.769	1243.12
421.977	1198.06
422.185	1220.59
422.393	1409
422.601	1306.6
422.809	1341.42
423.017	1384.43
423.224	1445.87
423.432	1460.2
423.64	1501.16
423.848	1621.99
424.056	1507.31
424.263	1761.25
424.471	1630.18
424.679	1837.03
424.887	1773.54
425.094	1888.23
425.302	1927.14
425.51	1992.67
425.718	2033.63
425.925	1912.8
426.133	2103.26
426.341	2260.96
426.548	2195.42
426.756	2250.72
426.964	2381.79
427.171	2594.78
427.379	2613.21
427.586	2629.59
427.794	2719.7
428.001	2826.2
428.209	3002.32
428.417	2920.4
428.624	3143.63
428.832	3106.77
429.039	3057.62
429.247	3117.01
429.454	3354.57
429.662	3626.95
429.869	3385.29
430.076	3540.94
430.284	3375.05
430.491	3731.4
430.699	3868.61
430.906	3991.49
431.114	3993.54
431.321	3975.11
431.528	4167.62
431.736	4452.28
431.943	4591.55
432.15	4519.87
432.358	4571.07
432.565	4759.48
432.772	4710.33
432.979	4931.51
433.187	4984.76
433.394	4990.9
433.601	5466.03
433.808	5498.8
434.016	5511.08
434.223	5719.98
434.43	6084.52
434.637	5871.53
434.844	6268.83
435.052	6539.16
435.259	6268.83
435.466	6481.82
435.673	6266.78
435.88	6741.91
436.087	6938.52
436.294	7053.2
436.501	6948.76
436.708	7268.24
436.915	7145.36
437.122	7573.39
437.329	7518.09
437.537	7845.77
437.743	7987.08
437.95	7909.26
438.157	8372.1
438.364	8554.37
438.571	8513.41
438.778	8841.08
438.985	9344.88
439.192	9123.7
439.399	9439.09
439.606	9293.68
439.813	9695.08
440.02	10192.74
440.227	10186.6
440.433	9983.85
440.64	10485.6
440.847	10415.97
441.054	10514.27
441.261	11292.5
441.467	11083.61
441.674	11587.41
441.881	11792.2
442.088	11865.93
442.294	11732.81
442.501	11994.95
442.708	12412.74
442.914	12810.04
443.121	13336.37
443.328	12951.35
443.534	13698.86
443.741	13373.24
443.948	13373.24
444.154	14487.33
444.361	13942.57
444.568	14411.56
444.774	14110.5
444.981	14612.26
445.187	14806.81
445.394	15433.49
445.6	15468.31
445.807	17108.73
446.013	16164.62
446.22	16809.73
446.426	17202.94
446.633	17112.83
446.839	17862.38
447.046	16801.54
447.252	18161.39
447.459	18345.7
447.665	18118.38
447.871	18730.72
448.078	19592.92
448.284	18755.3
448.491	19187.42
448.697	19996.37
448.903	20283.08
449.11	20461.26
449.316	19924.69
449.522	20776.64
449.728	21368.51
449.935	21440.18
450.141	21153.47
450.347	21810.87
450.553	20913.86
450.76	21604.02
450.966	22277.8
451.172	21675.7
451.378	22478.5
451.584	22017.71
451.791	22525.61
451.997	22472.36
452.203	23162.53
452.409	23000.74
452.615	22496.94
452.821	21974.7
453.027	21864.11
453.233	22943.39
453.44	22470.31
453.646	22367.91
453.852	22564.52
454.058	22574.76
454.264	21849.78
454.47	22462.12
454.676	21929.65
454.882	22791.84
455.088	20797.12
455.294	21282.49
455.5	21339.83
455.705	21577.4
455.911	20831.94
456.117	20586.18
456.323	20094.67
456.529	19214.04
456.735	20078.29
456.941	19554.01
457.147	19070.68
457.352	18413.29
457.558	18417.38
457.764	18669.28
457.97	18122.48
458.176	17444.6
458.381	17587.96
458.587	16819.97
458.793	16791.3
458.999	15920.91
459.204	16883.45
459.41	16723.71
459.616	15619.86
459.821	15517.46
460.027	15458.07
460.233	14929.69
460.438	14360.36
460.644	14464.8
460.85	14102.31
461.055	13647.66
461.261	13825.84
461.466	12801.85
461.672	12209.99
461.878	13150.01
462.083	12187.46
462.289	12083.02
462.494	12046.15
462.7	11568.98
462.905	10919.77
463.111	11542.35
463.316	11513.68
463.522	11360.08
463.727	11333.46
463.932	11329.36
464.138	11198.29
464.343	10993.5
464.549	10649.44
464.754	11347.79
464.959	11110.23
465.165	11210.58
465.37	10602.33
465.575	10360.67
465.781	10694.49
465.986	10862.43
466.191	10336.1
466.397	10258.28
466.602	9637.74
466.807	10002.28
467.012	10192.74
467.218	9965.42
467.423	10051.43
467.628	10051.43
467.833	10501.98
468.038	10133.35
468.244	9811.82
468.449	10205.03
468.654	9850.73
468.859	9863.02
469.064	9713.52
469.269	9351.03
469.474	9371.5
469.679	9512.81
469.885	9301.87
470.09	9627.5
