Data from USB4F104151__88__13-00-04-479.txt Node

Date: Fri Mar 14 13:00:04 EDT 2025
User: louis
Spectrometer: USB4F10415
Trigger mode: 4
Integration Time (sec): 1.000000E-2
Scans to average: 1
Electric dark correction enabled: true
Nonlinearity correction enabled: false
Boxcar width: 0
XAxis mode: Wavelengths
Number of Pixels in Spectrum: 3648
>>>>>Begin Spectral Data<<<<<
178.204	-59.39
178.424	-59.39
178.644	-59.39
178.864	-63.49
179.084	-22.53
179.304	18.43
179.524	-40.96
179.744	-22.53
179.964	51.2
180.184	26.62
180.404	8.19
180.624	-45.06
180.844	32.77
181.064	-28.67
181.283	-16.38
181.503	-10.24
181.723	26.62
181.943	-2.05
182.163	36.86
182.383	30.72
182.602	12.29
182.822	-2.05
183.042	122.88
183.262	2.05
183.482	-45.06
183.701	-40.96
183.921	67.58
184.141	-2.05
184.361	47.1
184.58	10.24
184.8	6.14
185.02	10.24
185.239	65.54
185.459	-51.2
185.679	20.48
185.898	4.1
186.118	61.44
186.338	-67.58
186.557	26.62
186.777	32.77
186.997	-2.05
187.216	14.34
187.436	112.64
187.655	-47.1
187.875	-18.43
188.095	-26.62
188.314	65.54
188.534	-4.1
188.753	16.38
188.973	-40.96
189.192	67.58
189.412	-18.43
189.631	71.68
189.851	47.1
190.07	22.53
190.29	16.38
190.509	49.15
190.729	-61.44
190.948	-18.43
191.168	55.3
191.387	-38.91
191.607	-14.34
191.826	124.93
192.045	77.82
192.265	45.06
192.484	24.58
192.704	83.97
192.923	49.15
193.142	106.49
193.362	-2.05
193.581	61.44
193.8	-22.53
194.02	-59.39
194.239	-2.05
194.458	20.48
194.678	26.62
194.897	47.1
195.116	16.38
195.335	6.14
195.555	-36.86
195.774	49.15
195.993	-6.14
196.212	-38.91
196.432	43.01
196.651	71.68
196.87	63.49
197.089	6.14
197.308	-8.19
197.528	4.1
197.747	-32.77
197.966	79.87
198.185	18.43
198.404	4.1
198.623	-4.1
198.842	57.34
199.062	16.38
199.281	32.77
199.5	55.3
199.719	124.93
199.938	18.43
200.157	14.34
200.376	55.3
200.595	36.86
200.814	75.77
201.033	38.91
201.252	104.45
201.471	43.01
201.69	12.29
201.909	28.67
202.128	49.15
202.347	32.77
202.566	-8.19
202.785	49.15
203.004	16.38
203.223	53.25
203.442	57.34
203.661	18.43
203.879	20.48
204.098	14.34
204.317	18.43
204.536	40.96
204.755	30.72
204.974	40.96
205.193	2.05
205.411	22.53
205.63	-8.19
205.849	65.54
206.068	-20.48
206.287	-30.72
206.505	-14.34
206.724	40.96
206.943	30.72
207.162	30.72
207.381	6.14
207.599	55.3
207.818	38.91
208.037	16.38
208.255	-67.58
208.474	40.96
208.693	49.15
208.911	30.72
209.13	22.53
209.349	-20.48
209.567	-32.77
209.786	8.19
210.005	30.72
210.223	-16.38
210.442	45.06
210.661	53.25
210.879	104.45
211.098	24.58
211.316	53.25
211.535	34.82
211.753	57.34
211.972	-4.1
212.191	61.44
212.409	88.06
212.628	24.58
212.846	53.25
213.065	55.3
213.283	57.34
213.502	32.77
213.72	36.86
213.938	-49.15
214.157	96.25
214.375	40.96
214.594	-26.62
214.812	-14.34
215.031	53.25
215.249	-8.19
215.467	32.77
215.686	2.05
215.904	-10.24
216.122	-28.67
216.341	79.87
216.559	47.1
216.778	26.62
216.996	51.2
217.214	20.48
217.432	47.1
217.651	-65.53
217.869	83.97
218.087	-18.43
218.306	57.34
218.524	53.25
218.742	-28.67
218.96	6.14
219.179	16.38
219.397	61.44
219.615	53.25
219.833	-77.82
220.051	12.29
220.27	24.58
220.488	71.68
220.706	30.72
220.924	28.67
221.142	43.01
221.36	43.01
221.578	53.25
221.796	57.34
222.015	6.14
222.233	34.82
222.451	71.68
222.669	-79.87
222.887	-30.72
223.105	-43.01
223.323	2.05
223.541	-6.14
223.759	6.14
223.977	92.16
224.195	47.1
224.413	4.1
224.631	59.39
224.849	38.91
225.067	-14.34
225.285	24.58
225.503	-26.62
225.721	8.19
225.939	59.39
226.157	12.29
226.375	36.86
226.592	18.43
226.81	-2.05
227.028	63.49
227.246	114.69
227.464	-4.1
227.682	30.72
227.9	65.54
228.117	6.14
228.335	55.3
228.553	38.91
228.771	16.38
228.989	10.24
229.206	26.62
229.424	-18.43
229.642	22.53
229.86	67.58
230.077	102.4
230.295	51.2
230.513	63.49
230.731	47.1
230.948	90.11
231.166	67.58
231.384	77.82
231.601	88.06
231.819	51.2
232.037	73.73
232.254	38.91
232.472	71.68
232.689	81.92
232.907	32.77
233.125	2.05
233.342	36.86
233.56	-26.62
233.777	73.73
233.995	65.54
234.213	65.54
234.43	-16.38
234.648	10.24
234.865	40.96
235.083	110.59
235.3	18.43
235.518	86.01
235.735	36.86
235.953	51.2
236.17	79.87
236.388	16.38
236.605	34.82
236.822	8.19
237.04	47.1
237.257	4.1
237.475	8.19
237.692	65.54
237.909	-40.96
238.127	22.53
238.344	-90.11
238.562	10.24
238.779	26.62
238.996	12.29
239.214	79.87
239.431	26.62
239.648	-110.59
239.865	43.01
240.083	30.72
240.3	43.01
240.517	-14.34
240.735	-40.96
240.952	8.19
241.169	40.96
241.386	67.58
241.603	53.25
241.821	47.1
242.038	16.38
242.255	59.39
242.472	2.05
242.689	102.4
242.907	-14.34
243.124	-45.06
243.341	32.77
243.558	-34.82
243.775	36.86
243.992	10.24
244.209	77.82
244.426	4.1
244.643	12.29
244.86	26.62
245.078	-22.53
245.295	-59.39
245.512	16.38
245.729	24.58
245.946	18.43
246.163	59.39
246.38	-59.39
246.597	30.72
246.814	53.25
247.031	36.86
247.248	6.14
247.464	51.2
247.681	-8.19
247.898	71.68
248.115	20.48
248.332	59.39
248.549	16.38
248.766	75.77
248.983	-10.24
249.2	26.62
249.417	34.82
249.633	-20.48
249.85	63.49
250.067	-14.34
250.284	90.11
250.501	69.63
250.717	59.39
250.934	83.97
251.151	-12.29
251.368	61.44
251.585	79.87
251.801	4.1
252.018	0
252.235	40.96
252.451	-12.29
252.668	-20.48
252.885	36.86
253.102	28.67
253.318	24.58
253.535	71.68
253.752	28.67
253.968	6.14
254.185	55.3
254.401	61.44
254.618	57.34
254.835	36.86
255.051	28.67
255.268	47.1
255.484	67.58
255.701	-36.86
255.917	24.58
256.134	26.62
256.351	63.49
256.567	-26.62
256.784	163.84
257	-18.43
257.217	18.43
257.433	59.39
257.65	43.01
257.866	22.53
258.082	-8.19
258.299	16.38
258.515	-6.14
258.732	8.19
258.948	-49.15
259.165	24.58
259.381	40.96
259.597	22.53
259.814	57.34
260.03	-38.91
260.246	32.77
260.463	51.2
260.679	51.2
260.895	-8.19
261.112	57.34
261.328	83.97
261.544	22.53
261.761	-2.05
261.977	34.82
262.193	49.15
262.409	43.01
262.626	38.91
262.842	43.01
263.058	-30.72
263.274	51.2
263.49	-4.1
263.707	43.01
263.923	30.72
264.139	-8.19
264.355	47.1
264.571	24.58
264.787	28.67
265.004	53.25
265.22	51.2
265.436	-47.1
265.652	47.1
265.868	86.01
266.084	-2.05
266.3	-24.58
266.516	-8.19
266.732	40.96
266.948	49.15
267.164	4.1
267.38	32.77
267.596	34.82
267.812	12.29
268.028	24.58
268.244	38.91
268.46	30.72
268.676	36.86
268.892	30.72
269.108	10.24
269.324	30.72
269.54	-4.1
269.756	-10.24
269.972	-18.43
270.188	-20.48
270.403	47.1
270.619	-10.24
270.835	-55.3
271.051	8.19
271.267	4.1
271.483	53.25
271.698	6.14
271.914	-30.72
272.13	6.14
272.346	-6.14
272.562	-34.82
272.777	88.06
272.993	18.43
273.209	57.34
273.425	26.62
273.64	51.2
273.856	22.53
274.072	28.67
274.287	45.06
274.503	20.48
274.719	75.77
274.934	-32.77
275.15	-2.05
275.366	-6.14
275.581	34.82
275.797	45.06
276.012	10.24
276.228	47.1
276.444	22.53
276.659	2.05
276.875	-49.15
277.09	-26.62
277.306	-40.96
277.521	83.97
277.737	24.58
277.952	18.43
278.168	49.15
278.383	79.87
278.599	-10.24
278.814	38.91
279.03	36.86
279.245	24.58
279.461	65.54
279.676	34.82
279.892	-2.05
280.107	-57.34
280.322	32.77
280.538	14.34
280.753	26.62
280.969	47.1
281.184	-28.67
281.399	71.68
281.615	81.92
281.83	118.78
282.045	106.49
282.26	18.43
282.476	49.15
282.691	49.15
282.906	34.82
283.122	-40.96
283.337	61.44
283.552	69.63
283.767	-40.96
283.983	30.72
284.198	26.62
284.413	47.1
284.628	6.14
284.843	71.68
285.058	34.82
285.274	104.45
285.489	8.19
285.704	53.25
285.919	-2.05
286.134	-6.14
286.349	32.77
286.564	75.77
286.779	49.15
286.995	40.96
287.21	-69.63
287.425	36.86
287.64	47.1
287.855	100.35
288.07	-2.05
288.285	-30.72
288.5	79.87
288.715	63.49
288.93	14.34
289.145	-34.82
289.36	16.38
289.575	53.25
289.79	40.96
290.004	141.31
290.219	14.34
290.434	65.54
290.649	-92.16
290.864	94.21
291.079	28.67
291.294	108.54
291.509	10.24
291.724	45.06
291.938	-22.53
292.153	55.3
292.368	4.1
292.583	-24.58
292.798	51.2
293.012	8.19
293.227	6.14
293.442	40.96
293.657	104.45
293.871	38.91
294.086	30.72
294.301	67.58
294.516	92.16
294.73	53.25
294.945	63.49
295.16	12.29
295.374	110.59
295.589	38.91
295.804	65.54
296.018	20.48
296.233	90.11
296.447	53.25
296.662	-20.48
296.877	122.88
297.091	18.43
297.306	30.72
297.52	18.43
297.735	34.82
297.949	10.24
298.164	47.1
298.378	-4.1
298.593	14.34
298.807	-28.67
299.022	69.63
299.236	108.54
299.451	36.86
299.665	8.19
299.88	83.97
300.094	26.62
300.309	8.19
300.523	67.58
300.737	-4.1
300.952	26.62
301.166	55.3
301.381	-38.91
301.595	79.87
301.809	-12.29
302.024	40.96
302.238	-22.53
302.452	96.25
302.667	47.1
302.881	32.77
303.095	4.1
303.309	57.34
303.524	53.25
303.738	30.72
303.952	20.48
304.166	79.87
304.381	6.14
304.595	77.82
304.809	-4.1
305.023	108.54
305.237	-4.1
305.452	-12.29
305.666	-67.58
305.88	57.34
306.094	69.63
306.308	10.24
306.522	22.53
306.736	2.05
306.95	71.68
307.164	106.49
307.379	24.58
307.593	67.58
307.807	34.82
308.021	-47.1
308.235	18.43
308.449	10.24
308.663	-34.82
308.877	47.1
309.091	22.53
309.305	126.97
309.519	67.58
309.733	49.15
309.947	40.96
310.161	4.1
310.374	2.05
310.588	75.77
310.802	-10.24
311.016	18.43
311.23	10.24
311.444	36.86
311.658	108.54
311.872	81.92
312.085	30.72
312.299	26.62
312.513	14.34
312.727	57.34
312.941	8.19
313.154	6.14
313.368	-4.1
313.582	-4.1
313.796	-51.2
314.009	-10.24
314.223	51.2
314.437	10.24
314.651	-8.19
314.864	4.1
315.078	75.77
315.292	71.68
315.505	4.1
315.719	75.77
315.933	45.06
316.146	-2.05
316.36	6.14
316.573	75.77
316.787	43.01
317.001	96.25
317.214	-18.43
317.428	96.25
317.641	73.73
317.855	32.77
318.068	36.86
318.282	65.54
318.495	147.45
318.709	71.68
318.922	24.58
319.136	24.58
319.349	-6.14
319.563	36.86
319.776	22.53
319.99	73.73
320.203	57.34
320.417	-10.24
320.63	73.73
320.843	16.38
321.057	-61.44
321.27	51.2
321.483	-8.19
321.697	55.3
321.91	10.24
322.124	139.26
322.337	-49.15
322.55	43.01
322.763	30.72
322.977	-26.62
323.19	32.77
323.403	79.87
323.617	116.73
323.83	49.15
324.043	40.96
324.256	47.1
324.469	-16.38
324.683	-18.43
324.896	32.77
325.109	32.77
325.322	20.48
325.535	90.11
325.748	94.21
325.962	75.77
326.175	-6.14
326.388	69.63
326.601	18.43
326.814	92.16
327.027	73.73
327.24	96.25
327.453	-40.96
327.666	51.2
327.879	38.91
328.092	59.39
328.305	40.96
328.518	22.53
328.731	28.67
328.944	53.25
329.157	43.01
329.37	6.14
329.583	38.91
329.796	-18.43
330.009	49.15
330.222	53.25
330.435	53.25
330.648	61.44
330.861	10.24
331.073	22.53
331.286	77.82
331.499	24.58
331.712	4.1
331.925	65.54
332.138	-69.63
332.35	96.25
332.563	2.05
332.776	65.54
332.989	43.01
333.202	98.3
333.414	63.49
333.627	106.49
333.84	45.06
334.053	47.1
334.265	61.44
334.478	88.06
334.691	49.15
334.903	12.29
335.116	43.01
335.329	30.72
335.541	-30.72
335.754	108.54
335.966	12.29
336.179	43.01
336.392	38.91
336.604	81.92
336.817	55.3
337.029	81.92
337.242	43.01
337.454	18.43
337.667	6.14
337.88	38.91
338.092	32.77
338.305	79.87
338.517	40.96
338.729	24.58
338.942	55.3
339.154	12.29
339.367	43.01
339.579	51.2
339.792	-53.25
340.004	77.82
340.217	32.77
340.429	-24.58
340.641	2.05
340.854	30.72
341.066	71.68
341.278	55.3
341.491	75.77
341.703	-40.96
341.915	6.14
342.128	43.01
342.34	-38.91
342.552	96.25
342.764	20.48
342.977	79.87
343.189	14.34
343.401	86.01
343.613	8.19
343.826	22.53
344.038	-34.82
344.25	75.77
344.462	75.77
344.674	47.1
344.886	61.44
345.099	4.1
345.311	57.34
345.523	-26.62
345.735	67.58
345.947	12.29
346.159	16.38
346.371	65.54
346.583	6.14
346.795	61.44
347.007	38.91
347.219	61.44
347.431	30.72
347.643	26.62
347.855	32.77
348.067	49.15
348.279	16.38
348.491	8.19
348.703	38.91
348.915	36.86
349.127	28.67
349.339	12.29
349.551	-10.24
349.763	-2.05
349.975	8.19
350.187	14.34
350.399	20.48
350.61	106.49
350.822	34.82
351.034	-14.34
351.246	12.29
351.458	30.72
351.669	-2.05
351.881	-14.34
352.093	-18.43
352.305	-2.05
352.517	71.68
352.728	40.96
352.94	-24.58
353.152	63.49
353.363	51.2
353.575	43.01
353.787	26.62
353.999	98.3
354.21	71.68
354.422	4.1
354.633	16.38
354.845	-38.91
355.057	43.01
355.268	8.19
355.48	73.73
355.692	-2.05
355.903	30.72
356.115	63.49
356.326	14.34
356.538	26.62
356.749	59.39
356.961	24.58
357.172	38.91
357.384	-2.05
357.595	32.77
357.807	55.3
358.018	40.96
358.23	49.15
358.441	43.01
358.653	14.34
358.864	129.02
359.075	-26.62
359.287	-6.14
359.498	51.2
359.709	-20.48
359.921	16.38
360.132	22.53
360.344	57.34
360.555	49.15
360.766	79.87
360.977	-20.48
361.189	8.19
361.4	49.15
361.611	59.39
361.823	12.29
362.034	65.54
362.245	38.91
362.456	-12.29
362.667	55.3
362.879	16.38
363.09	47.1
363.301	49.15
363.512	47.1
363.723	57.34
363.935	16.38
364.146	51.2
364.357	8.19
364.568	55.3
364.779	24.58
364.99	47.1
365.201	24.58
365.412	55.3
365.623	-10.24
365.834	47.1
366.045	14.34
366.256	-86.01
366.467	18.43
366.678	69.63
366.889	8.19
367.1	38.91
367.311	-12.29
367.522	-2.05
367.733	53.25
367.944	22.53
368.155	12.29
368.366	92.16
368.577	20.48
368.788	24.58
368.999	59.39
369.209	-4.1
369.42	38.91
369.631	8.19
369.842	67.58
370.053	28.67
370.264	-18.43
370.474	102.4
370.685	49.15
370.896	18.43
371.107	88.06
371.317	106.49
371.528	49.15
371.739	75.77
371.95	49.15
372.16	-8.19
372.371	24.58
372.582	49.15
372.792	4.1
373.003	18.43
373.214	65.54
373.424	114.69
373.635	0
373.846	40.96
374.056	14.34
374.267	6.14
374.477	6.14
374.688	22.53
374.898	-8.19
375.109	55.3
375.319	43.01
375.53	67.58
375.74	4.1
375.951	73.73
376.161	14.34
376.372	12.29
376.582	24.58
376.793	88.06
377.003	-6.14
377.214	98.3
377.424	-4.1
377.635	-14.34
377.845	20.48
378.055	73.73
378.266	43.01
378.476	88.06
378.686	0
378.897	67.58
379.107	104.45
379.317	51.2
379.528	81.92
379.738	65.54
379.948	-47.1
380.158	-22.53
380.369	53.25
380.579	40.96
380.789	43.01
380.999	32.77
381.21	38.91
381.42	110.59
381.63	-40.96
381.84	77.82
382.05	8.19
382.261	43.01
382.471	102.4
382.681	81.92
382.891	88.06
383.101	47.1
383.311	38.91
383.521	38.91
383.731	49.15
383.941	45.06
384.151	100.35
384.361	30.72
384.571	16.38
384.781	114.69
384.991	18.43
385.201	108.54
385.411	79.87
385.621	61.44
385.831	47.1
386.041	24.58
386.251	65.54
386.461	102.4
386.671	22.53
386.881	43.01
387.091	57.34
387.301	86.01
387.511	38.91
387.72	155.65
387.93	51.2
388.14	2.05
388.35	24.58
388.56	86.01
388.769	-36.86
388.979	30.72
389.189	24.58
389.399	14.34
389.609	108.54
389.818	36.86
390.028	45.06
390.238	71.68
390.447	-2.05
390.657	86.01
390.867	49.15
391.076	22.53
391.286	14.34
391.496	0
391.705	100.35
391.915	-28.67
392.125	104.45
392.334	63.49
392.544	28.67
392.753	-30.72
392.963	34.82
393.172	40.96
393.382	-59.39
393.591	67.58
393.801	-22.53
394.01	49.15
394.22	16.38
394.429	51.2
394.639	10.24
394.848	-24.58
395.058	90.11
395.267	94.21
395.477	38.91
395.686	51.2
395.895	-22.53
396.105	32.77
396.314	-2.05
396.524	28.67
396.733	59.39
396.942	55.3
397.152	40.96
397.361	55.3
397.57	61.44
397.78	57.34
397.989	69.63
398.198	43.01
398.407	38.91
398.617	32.77
398.826	18.43
399.035	55.3
399.244	67.58
399.453	51.2
399.663	90.11
399.872	51.2
400.081	-12.29
400.29	90.11
400.499	-2.05
400.708	45.06
400.917	14.34
401.127	47.1
401.336	34.82
401.545	94.21
401.754	12.29
401.963	38.91
402.172	79.87
402.381	63.49
402.59	102.4
402.799	131.07
403.008	83.97
403.217	120.83
403.426	102.4
403.635	159.74
403.844	79.87
404.053	30.72
404.262	67.58
404.471	98.3
404.68	88.06
404.888	106.49
405.097	24.58
405.306	67.58
405.515	98.3
405.724	92.16
405.933	100.35
406.142	112.64
406.35	69.63
406.559	139.26
406.768	36.86
406.977	169.98
407.185	67.58
407.394	129.02
407.603	153.6
407.812	165.89
408.02	73.73
408.229	96.25
408.438	159.74
408.646	47.1
408.855	215.04
409.064	137.21
409.272	104.45
409.481	266.24
409.69	186.37
409.898	153.6
410.107	157.69
410.315	204.8
410.524	210.94
410.733	124.93
410.941	155.65
411.15	192.51
411.358	188.41
411.567	161.79
411.775	172.03
411.984	229.37
412.192	151.55
412.401	196.61
412.609	182.27
412.818	219.13
413.026	229.37
413.234	219.13
413.443	231.42
413.651	247.8
413.86	292.86
414.068	319.48
414.276	344.06
414.485	268.28
414.693	233.47
414.901	262.14
415.11	301.05
415.318	268.28
415.526	385.02
415.734	342.01
415.943	311.29
416.151	296.96
416.359	417.79
416.567	389.11
416.776	376.83
416.984	356.35
417.192	428.03
417.4	448.51
417.608	337.91
417.817	385.02
418.025	468.98
418.233	522.23
418.441	460.79
418.649	501.75
418.857	561.14
419.065	604.15
419.273	571.38
419.481	602.1
419.689	614.39
419.897	636.92
420.105	647.16
420.313	651.25
420.521	616.44
420.729	747.51
420.937	686.07
421.145	808.95
421.353	747.51
421.561	796.66
421.769	798.71
421.977	954.35
422.185	813.04
422.393	841.72
422.601	876.53
422.809	890.87
423.017	993.26
423.224	1001.46
423.432	1040.37
423.64	1116.14
423.848	1208.3
424.056	1198.06
424.263	1329.13
424.471	1185.77
424.679	1124.33
424.887	1316.84
425.094	1357.8
425.302	1368.04
425.51	1357.8
425.718	1423.34
425.925	1474.54
426.133	1572.84
426.341	1531.88
426.548	1699.81
426.756	1597.42
426.964	1687.53
427.171	1767.4
427.379	1861.6
427.586	1794.02
427.794	1875.94
428.001	1947.62
428.209	2000.87
428.417	2133.98
428.624	2285.53
428.832	2234.33
429.039	2144.22
429.247	2140.13
429.454	2455.51
429.662	2545.63
429.869	2463.71
430.076	2598.87
430.284	2547.67
430.491	2506.71
430.699	2834.39
430.906	2742.23
431.114	2809.81
431.321	2852.82
431.528	2963.41
431.736	3147.73
431.943	3327.95
432.15	3131.34
432.358	3266.51
432.565	3334.09
432.772	3258.32
432.979	3510.22
433.187	3676.1
433.394	3721.16
433.601	3839.94
433.808	3891.14
434.016	3876.8
434.223	3856.33
434.43	4251.58
434.637	4235.2
434.844	4483
435.052	4558.78
435.259	4489.15
435.466	4544.44
435.673	4519.87
435.88	4747.19
436.087	4941.75
436.294	5119.92
436.501	4853.69
436.708	5003.19
436.915	5142.45
437.122	5349.29
437.329	5408.69
437.537	5523.37
437.743	5674.92
437.95	5693.35
438.157	5992.36
438.364	6008.74
438.571	6088.61
438.778	6178.72
438.985	6774.68
439.192	6334.37
439.399	6514.59
439.606	6471.58
439.813	6858.65
440.02	7264.15
440.227	6979.48
440.433	7100.31
440.64	7329.68
440.847	7258
441.054	7389.07
441.261	7896.97
441.467	7919.5
441.674	7923.59
441.881	8431.49
442.088	8200.07
442.294	8238.98
442.501	8394.62
442.708	8761.21
442.914	8943.48
443.121	9361.27
443.328	9217.91
443.534	9770.86
443.741	9355.12
443.948	9437.04
444.154	10135.4
444.361	10053.48
444.568	10168.16
444.774	10078.05
444.981	10268.52
445.187	10542.94
445.394	11095.89
445.6	10952.54
445.807	11982.67
446.013	11255.64
446.22	11472.72
446.426	11929.42
446.633	11984.71
446.839	12498.75
447.046	12164.93
447.252	12674.88
447.459	12621.63
447.665	12846.91
447.871	13256.5
448.078	14069.55
448.284	13416.24
448.491	13657.9
448.697	14065.45
448.903	14362.4
449.11	14604.07
449.316	14237.48
449.522	14393.12
449.728	15001.37
449.935	15126.3
450.141	14855.97
450.347	15175.45
450.553	14933.79
450.76	15081.24
450.966	15574.8
451.172	15636.24
451.378	15988.49
451.584	15595.28
451.791	16037.64
451.997	15646.48
452.203	16234.25
452.409	16510.72
452.615	16133.9
452.821	15816.46
453.027	15374.1
453.233	16094.99
453.44	15863.57
453.646	15804.17
453.852	15769.36
454.058	16307.98
454.264	15558.42
454.47	16023.31
454.676	15644.43
454.882	15947.53
455.088	14819.1
455.294	14870.3
455.5	15238.94
455.705	15214.36
455.911	14616.35
456.117	14266.15
456.323	14200.62
456.529	13545.27
456.735	14047.02
456.941	13639.47
457.147	13455.15
457.352	13205.3
457.558	12994.36
457.764	13117.24
457.97	12812.09
458.176	12646.21
458.381	12476.23
458.587	11878.22
458.793	11743.05
458.999	11306.84
459.204	12197.7
459.41	11765.58
459.616	11298.64
459.821	11079.51
460.027	11001.69
460.233	10551.14
460.438	10250.08
460.644	10178.4
460.85	9924.46
461.055	9850.73
461.261	9736.04
461.466	9037.69
461.672	8650.62
461.878	9387.89
462.083	8783.74
462.289	8583.04
462.494	8484.73
462.7	8159.11
462.905	7769.99
463.111	8062.85
463.316	8218.5
463.522	8052.61
463.727	8038.28
463.932	8214.4
464.138	7985.03
464.343	8038.28
464.549	7602.06
464.754	8077.19
464.959	7917.45
465.165	7921.54
465.37	7647.12
465.575	7360.4
465.781	7640.97
465.986	7548.81
466.191	7505.81
466.397	7366.54
466.602	6887.32
466.807	7073.68
467.012	7153.55
467.218	7090.07
467.423	7116.69
467.628	7270.29
467.833	7438.22
468.038	7214.99
468.244	7116.69
468.449	7307.15
468.654	7018.39
468.859	6868.89
469.064	6967.19
469.269	6725.53
469.474	6725.53
469.679	6887.32
469.885	6428.57
470.09	6727.58
