Data from USB4F104151__57__12-59-18-984.txt Node

Date: Fri Mar 14 12:59:18 EDT 2025
User: louis
Spectrometer: USB4F10415
Trigger mode: 4
Integration Time (sec): 1.000000E-2
Scans to average: 1
Electric dark correction enabled: true
Nonlinearity correction enabled: false
Boxcar width: 0
XAxis mode: Wavelengths
Number of Pixels in Spectrum: 3648
>>>>>Begin Spectral Data<<<<<
178.204	0.68
178.424	0.68
178.644	0.68
178.864	-36.18
179.084	-32.08
179.304	45.74
179.524	-11.61
179.744	49.83
179.964	33.45
180.184	-50.52
180.404	-44.37
180.624	41.64
180.844	-5.46
181.064	-21.85
181.283	-19.8
181.503	41.64
181.723	-58.71
181.943	53.93
182.163	58.03
182.383	-19.8
182.602	17.07
182.822	78.51
183.042	55.98
183.262	-40.28
183.482	-62.8
183.701	10.92
183.921	10.92
184.141	-9.56
184.361	-3.41
184.58	19.11
184.8	39.59
185.02	15.02
185.239	92.84
185.459	60.07
185.679	-68.95
185.898	-42.32
186.118	29.35
186.338	2.73
186.557	4.78
186.777	-3.41
186.997	-15.7
187.216	0.68
187.436	15.02
187.655	0.68
187.875	-7.51
188.095	41.64
188.314	12.97
188.534	45.74
188.753	49.83
188.973	17.07
189.192	29.35
189.412	33.45
189.631	-19.8
189.851	-27.99
190.07	45.74
190.29	-85.33
190.509	21.16
190.729	103.08
190.948	45.74
191.168	10.92
191.387	-13.65
191.607	-1.37
191.826	-13.65
192.045	17.07
192.265	37.55
192.484	-13.65
192.704	-23.89
192.923	-46.42
193.142	-23.89
193.362	0.68
193.581	19.11
193.8	58.03
194.02	23.21
194.239	-15.7
194.458	-30.04
194.678	23.21
194.897	33.45
195.116	47.79
195.335	8.87
195.555	0.68
195.774	10.92
195.993	-5.46
196.212	76.46
196.432	25.26
196.651	-34.13
196.87	-40.28
197.089	88.75
197.308	-3.41
197.528	45.74
197.747	23.21
197.966	51.88
198.185	31.4
198.404	35.5
198.623	-3.41
198.842	29.35
199.062	35.5
199.281	37.55
199.5	62.12
199.719	2.73
199.938	8.87
200.157	27.31
200.376	41.64
200.595	-11.61
200.814	2.73
201.033	-15.7
201.252	74.41
201.471	-9.56
201.69	33.45
201.909	70.31
202.128	15.02
202.347	53.93
202.566	19.11
202.785	-17.75
203.004	-25.94
203.223	58.03
203.442	6.83
203.661	-1.37
203.879	29.35
204.098	-15.7
204.317	-30.04
204.536	84.65
204.755	8.87
204.974	-21.85
205.193	33.45
205.411	74.41
205.63	4.78
205.849	15.02
206.068	-40.28
206.287	8.87
206.505	21.16
206.724	4.78
206.943	-9.56
207.162	39.59
207.381	2.73
207.599	-50.52
207.818	-25.94
208.037	70.31
208.255	41.64
208.474	-15.7
208.693	0.68
208.911	8.87
209.13	-32.08
209.349	-15.7
209.567	86.7
209.786	49.83
210.005	-58.71
210.223	17.07
210.442	17.07
210.661	8.87
210.879	0.68
211.098	-25.94
211.316	-32.08
211.535	92.84
211.753	10.92
211.972	49.83
212.191	12.97
212.409	35.5
212.628	-17.75
212.846	-19.8
213.065	53.93
213.283	53.93
213.502	-3.41
213.72	-15.7
213.938	4.78
214.157	49.83
214.375	25.26
214.594	47.79
214.812	55.98
215.031	43.69
215.249	-11.61
215.467	-11.61
215.686	12.97
215.904	-40.28
216.122	-1.37
216.341	45.74
216.559	-81.24
216.778	49.83
216.996	98.99
217.214	-34.13
217.432	-38.23
217.651	51.88
217.869	4.78
218.087	-9.56
218.306	-11.61
218.524	98.99
218.742	31.4
218.96	-7.51
219.179	-36.18
219.397	66.22
219.615	25.26
219.833	0.68
220.051	-23.89
220.27	45.74
220.488	-21.85
220.706	-7.51
220.924	-3.41
221.142	-9.56
221.36	60.07
221.578	-46.42
221.796	-23.89
222.015	-5.46
222.233	-42.32
222.451	82.6
222.669	-23.89
222.887	-15.7
223.105	-13.65
223.323	-56.66
223.541	25.26
223.759	27.31
223.977	-13.65
224.195	8.87
224.413	-38.23
224.631	25.26
224.849	101.03
225.067	8.87
225.285	-9.56
225.503	47.79
225.721	60.07
225.939	-15.7
226.157	15.02
226.375	29.35
226.592	-40.28
226.81	37.55
227.028	-64.85
227.246	17.07
227.464	0.68
227.682	0.68
227.9	27.31
228.117	45.74
228.335	4.78
228.553	-15.7
228.771	8.87
228.989	-9.56
229.206	-19.8
229.424	35.5
229.642	35.5
229.86	-7.51
230.077	10.92
230.295	4.78
230.513	51.88
230.731	17.07
230.948	19.11
231.166	60.07
231.384	12.97
231.601	21.16
231.819	37.55
232.037	-11.61
232.254	-7.51
232.472	21.16
232.689	0.68
232.907	43.69
233.125	-5.46
233.342	27.31
233.56	-52.56
233.777	39.59
233.995	-21.85
234.213	25.26
234.43	29.35
234.648	-7.51
234.865	-7.51
235.083	0.68
235.3	-44.37
235.518	-3.41
235.735	-1.37
235.953	29.35
236.17	4.78
236.388	86.7
236.605	15.02
236.822	49.83
237.04	15.02
237.257	-50.52
237.475	10.92
237.692	39.59
237.909	-17.75
238.127	-44.37
238.344	-23.89
238.562	37.55
238.779	8.87
238.996	-23.89
239.214	-7.51
239.431	33.45
239.648	-36.18
239.865	-9.56
240.083	35.5
240.3	17.07
240.517	17.07
240.735	10.92
240.952	19.11
241.169	33.45
241.386	-13.65
241.603	21.16
241.821	-5.46
242.038	8.87
242.255	4.78
242.472	-40.28
242.689	-56.66
242.907	49.83
243.124	2.73
243.341	47.79
243.558	35.5
243.775	-19.8
243.992	-32.08
244.209	19.11
244.426	78.51
244.643	10.92
244.86	-27.99
245.078	74.41
245.295	4.78
245.512	-11.61
245.729	15.02
245.946	-19.8
246.163	-30.04
246.38	27.31
246.597	43.69
246.814	-9.56
247.031	33.45
247.248	2.73
247.464	19.11
247.681	25.26
247.898	-9.56
248.115	-60.76
248.332	37.55
248.549	68.27
248.766	4.78
248.983	8.87
249.2	-21.85
249.417	2.73
249.633	-3.41
249.85	-21.85
250.067	25.26
250.284	10.92
250.501	19.11
250.717	51.88
250.934	-23.89
251.151	25.26
251.368	17.07
251.585	21.16
251.801	82.6
252.018	58.03
252.235	4.78
252.451	33.45
252.668	33.45
252.885	-13.65
253.102	39.59
253.318	2.73
253.535	-81.24
253.752	33.45
253.968	-83.28
254.185	-40.28
254.401	53.93
254.618	-23.89
254.835	-30.04
255.051	27.31
255.268	-60.76
255.484	-46.42
255.701	33.45
255.917	37.55
256.134	49.83
256.351	4.78
256.567	-58.71
256.784	-19.8
257	10.92
257.217	31.4
257.433	-7.51
257.65	19.11
257.866	-48.47
258.082	-23.89
258.299	-11.61
258.515	39.59
258.732	2.73
258.948	29.35
259.165	21.16
259.381	31.4
259.597	-13.65
259.814	-21.85
260.03	8.87
260.246	8.87
260.463	27.31
260.679	27.31
260.895	60.07
261.112	19.11
261.328	-1.37
261.544	15.02
261.761	66.22
261.977	29.35
262.193	8.87
262.409	-9.56
262.626	-40.28
262.842	-25.94
263.058	-30.04
263.274	-32.08
263.49	25.26
263.707	49.83
263.923	31.4
264.139	-62.8
264.355	-15.7
264.571	45.74
264.787	17.07
265.004	55.98
265.22	-7.51
265.436	33.45
265.652	43.69
265.868	4.78
266.084	10.92
266.3	12.97
266.516	90.79
266.732	-11.61
266.948	-3.41
267.164	82.6
267.38	49.83
267.596	62.12
267.812	-5.46
268.028	-21.85
268.244	31.4
268.46	-15.7
268.676	41.64
268.892	-17.75
269.108	37.55
269.324	-42.32
269.54	-68.95
269.756	10.92
269.972	10.92
270.188	-1.37
270.403	58.03
270.619	-5.46
270.835	-21.85
271.051	-11.61
271.267	12.97
271.483	8.87
271.698	70.31
271.914	49.83
272.13	-56.66
272.346	31.4
272.562	-34.13
272.777	58.03
272.993	-15.7
273.209	-34.13
273.425	29.35
273.64	19.11
273.856	23.21
274.072	10.92
274.287	-23.89
274.503	76.46
274.719	43.69
274.934	-17.75
275.15	-27.99
275.366	66.22
275.581	41.64
275.797	-11.61
276.012	49.83
276.228	39.59
276.444	-68.95
276.659	27.31
276.875	23.21
277.09	49.83
277.306	6.83
277.521	-52.56
277.737	-64.85
277.952	25.26
278.168	-15.7
278.383	10.92
278.599	96.94
278.814	74.41
279.03	-15.7
279.245	60.07
279.461	25.26
279.676	60.07
279.892	43.69
280.107	17.07
280.322	19.11
280.538	8.87
280.753	-27.99
280.969	12.97
281.184	39.59
281.399	82.6
281.615	-11.61
281.83	-36.18
282.045	64.17
282.26	37.55
282.476	-25.94
282.691	0.68
282.906	-7.51
283.122	41.64
283.337	27.31
283.552	51.88
283.767	8.87
283.983	-15.7
284.198	23.21
284.413	33.45
284.628	-27.99
284.843	-1.37
285.058	4.78
285.274	62.12
285.489	15.02
285.704	53.93
285.919	-38.23
286.134	64.17
286.349	31.4
286.564	25.26
286.779	27.31
286.995	8.87
287.21	-103.76
287.425	-73.04
287.64	-66.9
287.855	92.84
288.07	-5.46
288.285	96.94
288.5	-23.89
288.715	12.97
288.93	21.16
289.145	68.27
289.36	-48.47
289.575	19.11
289.79	6.83
290.004	-9.56
290.219	8.87
290.434	35.5
290.649	-15.7
290.864	33.45
291.079	-42.32
291.294	51.88
291.509	64.17
291.724	82.6
291.938	58.03
292.153	62.12
292.368	55.98
292.583	29.35
292.798	37.55
293.012	17.07
293.227	37.55
293.442	-52.56
293.657	-23.89
293.871	-1.37
294.086	12.97
294.301	51.88
294.516	33.45
294.73	31.4
294.945	-81.24
295.16	35.5
295.374	0.68
295.589	60.07
295.804	55.98
296.018	84.65
296.233	21.16
296.447	-3.41
296.662	-9.56
296.877	-3.41
297.091	12.97
297.306	-25.94
297.52	-25.94
297.735	49.83
297.949	-54.61
298.164	19.11
298.378	-46.42
298.593	53.93
298.807	8.87
299.022	15.02
299.236	64.17
299.451	29.35
299.665	-15.7
299.88	21.16
300.094	4.78
300.309	-23.89
300.523	29.35
300.737	23.21
300.952	60.07
301.166	-9.56
301.381	-13.65
301.595	29.35
301.809	31.4
302.024	21.16
302.238	2.73
302.452	49.83
302.667	29.35
302.881	62.12
303.095	-15.7
303.309	31.4
303.524	25.26
303.738	19.11
303.952	-15.7
304.166	17.07
304.381	15.02
304.595	-11.61
304.809	37.55
305.023	-15.7
305.237	-9.56
305.452	-3.41
305.666	10.92
305.88	-13.65
306.094	0.68
306.308	58.03
306.522	70.31
306.736	4.78
306.95	39.59
307.164	-64.85
307.379	-19.8
307.593	72.36
307.807	0.68
308.021	4.78
308.235	107.18
308.449	8.87
308.663	-21.85
308.877	4.78
309.091	-9.56
309.305	10.92
309.519	-40.28
309.733	21.16
309.947	-17.75
310.161	10.92
310.374	-11.61
310.588	21.16
310.802	2.73
311.016	-40.28
311.23	8.87
311.444	12.97
311.658	58.03
311.872	0.68
312.085	12.97
312.299	31.4
312.513	51.88
312.727	8.87
312.941	8.87
313.154	17.07
313.368	0.68
313.582	47.79
313.796	25.26
314.009	51.88
314.223	6.83
314.437	15.02
314.651	60.07
314.864	37.55
315.078	-27.99
315.292	43.69
315.505	-25.94
315.719	84.65
315.933	-40.28
316.146	-9.56
316.36	-52.56
316.573	37.55
316.787	8.87
317.001	58.03
317.214	19.11
317.428	76.46
317.641	-7.51
317.855	17.07
318.068	-44.37
318.282	19.11
318.495	-11.61
318.709	55.98
318.922	33.45
319.136	49.83
319.349	23.21
319.563	-15.7
319.776	-32.08
319.99	-3.41
320.203	-30.04
320.417	25.26
320.63	25.26
320.843	53.93
321.057	-58.71
321.27	12.97
321.483	45.74
321.697	43.69
321.91	25.26
322.124	-11.61
322.337	51.88
322.55	12.97
322.763	35.5
322.977	94.89
323.19	12.97
323.403	-17.75
323.617	31.4
323.83	90.79
324.043	0.68
324.256	39.59
324.469	53.93
324.683	47.79
324.896	-64.85
325.109	90.79
325.322	25.26
325.535	-7.51
325.748	41.64
325.962	-21.85
326.175	27.31
326.388	-103.76
326.601	103.08
326.814	78.51
327.027	25.26
327.24	96.94
327.453	-42.32
327.666	76.46
327.879	10.92
328.092	72.36
328.305	-32.08
328.518	43.69
328.731	17.07
328.944	8.87
329.157	68.27
329.37	31.4
329.583	80.55
329.796	-17.75
330.009	-46.42
330.222	49.83
330.435	-11.61
330.648	4.78
330.861	43.69
331.073	66.22
331.286	58.03
331.499	62.12
331.712	19.11
331.925	-13.65
332.138	10.92
332.35	-5.46
332.563	15.02
332.776	49.83
332.989	-9.56
333.202	-3.41
333.414	35.5
333.627	141.99
333.84	-5.46
334.053	-7.51
334.265	62.12
334.478	-17.75
334.691	-23.89
334.903	10.92
335.116	-3.41
335.329	49.83
335.541	45.74
335.754	-27.99
335.966	37.55
336.179	-7.51
336.392	47.79
336.604	96.94
336.817	-9.56
337.029	23.21
337.242	29.35
337.454	35.5
337.667	66.22
337.88	76.46
338.092	15.02
338.305	-15.7
338.517	10.92
338.729	-52.56
338.942	-3.41
339.154	-7.51
339.367	-30.04
339.579	43.69
339.792	-13.65
340.004	86.7
340.217	23.21
340.429	-23.89
340.641	-3.41
340.854	-11.61
341.066	-25.94
341.278	6.83
341.491	80.55
341.703	109.22
341.915	21.16
342.128	62.12
342.34	19.11
342.552	-9.56
342.764	80.55
342.977	25.26
343.189	31.4
343.401	-25.94
343.613	-30.04
343.826	-7.51
344.038	8.87
344.25	-7.51
344.462	33.45
344.674	-15.7
344.886	12.97
345.099	2.73
345.311	0.68
345.523	37.55
345.735	47.79
345.947	2.73
346.159	19.11
346.371	-30.04
346.583	4.78
346.795	72.36
347.007	33.45
347.219	62.12
347.431	31.4
347.643	60.07
347.855	8.87
348.067	-7.51
348.279	-38.23
348.491	0.68
348.703	-5.46
348.915	17.07
349.127	53.93
349.339	8.87
349.551	-21.85
349.763	117.42
349.975	0.68
350.187	-7.51
350.399	10.92
350.61	-32.08
350.822	8.87
351.034	33.45
351.246	31.4
351.458	43.69
351.669	-25.94
351.881	10.92
352.093	2.73
352.305	-13.65
352.517	62.12
352.728	29.35
352.94	15.02
353.152	19.11
353.363	23.21
353.575	-30.04
353.787	29.35
353.999	139.94
354.21	123.56
354.422	82.6
354.633	-1.37
354.845	-9.56
355.057	-15.7
355.268	60.07
355.48	4.78
355.692	47.79
355.903	-36.18
356.115	43.69
356.326	23.21
356.538	37.55
356.749	72.36
356.961	21.16
357.172	64.17
357.384	27.31
357.595	31.4
357.807	-44.37
358.018	2.73
358.23	-7.51
358.441	78.51
358.653	51.88
358.864	-62.8
359.075	0.68
359.287	6.83
359.498	29.35
359.709	66.22
359.921	35.5
360.132	17.07
360.344	19.11
360.555	31.4
360.766	49.83
360.977	33.45
361.189	-5.46
361.4	15.02
361.611	39.59
361.823	21.16
362.034	-13.65
362.245	33.45
362.456	21.16
362.667	-3.41
362.879	53.93
363.09	43.69
363.301	8.87
363.512	41.64
363.723	31.4
363.935	55.98
364.146	68.27
364.357	-23.89
364.568	33.45
364.779	64.17
364.99	12.97
365.201	21.16
365.412	66.22
365.623	66.22
365.834	82.6
366.045	-56.66
366.256	-15.7
366.467	90.79
366.678	8.87
366.889	-9.56
367.1	8.87
367.311	47.79
367.522	-21.85
367.733	12.97
367.944	-40.28
368.155	15.02
368.366	51.88
368.577	103.08
368.788	62.12
368.999	-36.18
369.209	98.99
369.42	43.69
369.631	66.22
369.842	23.21
370.053	109.22
370.264	25.26
370.474	19.11
370.685	-32.08
370.896	27.31
371.107	2.73
371.317	-36.18
371.528	58.03
371.739	55.98
371.95	43.69
372.16	4.78
372.371	4.78
372.582	33.45
372.792	-27.99
373.003	107.18
373.214	43.69
373.424	-9.56
373.635	-36.18
373.846	33.45
374.056	-44.37
374.267	82.6
374.477	-7.51
374.688	-3.41
374.898	-30.04
375.109	25.26
375.319	62.12
375.53	41.64
375.74	-9.56
375.951	80.55
376.161	-38.23
376.372	47.79
376.582	19.11
376.793	29.35
377.003	-15.7
377.214	29.35
377.424	-5.46
377.635	60.07
377.845	0.68
378.055	27.31
378.266	29.35
378.476	23.21
378.686	53.93
378.897	58.03
379.107	-3.41
379.317	84.65
379.528	-42.32
379.738	117.42
379.948	62.12
380.158	58.03
380.369	-36.18
380.579	27.31
380.789	29.35
380.999	41.64
381.21	-13.65
381.42	96.94
381.63	35.5
381.84	53.93
382.05	27.31
382.261	2.73
382.471	10.92
382.681	17.07
382.891	19.11
383.101	15.02
383.311	-15.7
383.521	-11.61
383.731	43.69
383.941	53.93
384.151	60.07
384.361	-1.37
384.571	-40.28
384.781	19.11
384.991	58.03
385.201	78.51
385.411	8.87
385.621	103.08
385.831	43.69
386.041	43.69
386.251	66.22
386.461	-21.85
386.671	43.69
386.881	68.27
387.091	45.74
387.301	33.45
387.511	21.16
387.72	-1.37
387.93	-1.37
388.14	-27.99
388.35	-23.89
388.56	72.36
388.769	51.88
388.979	119.46
389.189	43.69
389.399	45.74
389.609	86.7
389.818	47.79
390.028	84.65
390.238	58.03
390.447	-5.46
390.657	35.5
390.867	58.03
391.076	47.79
391.286	-36.18
391.496	23.21
391.705	68.27
391.915	74.41
392.125	33.45
392.334	47.79
392.544	58.03
392.753	-34.13
392.963	35.5
393.172	51.88
393.382	-1.37
393.591	19.11
393.801	21.16
394.01	80.55
394.22	45.74
394.429	49.83
394.639	29.35
394.848	43.69
395.058	-9.56
395.267	51.88
395.477	58.03
395.686	98.99
395.895	70.31
396.105	107.18
396.314	92.84
396.524	64.17
396.733	45.74
396.942	105.13
397.152	51.88
397.361	88.75
397.57	17.07
397.78	41.64
397.989	25.26
398.198	141.99
398.407	2.73
398.617	103.08
398.826	137.9
399.035	33.45
399.244	115.37
399.453	80.55
399.663	133.8
399.872	123.56
400.081	33.45
400.29	121.51
400.499	-15.7
400.708	15.02
400.917	109.22
401.127	115.37
401.336	43.69
401.545	98.99
401.754	62.12
401.963	-42.32
402.172	17.07
402.381	58.03
402.59	82.6
402.799	88.75
403.008	53.93
403.217	58.03
403.426	90.79
403.635	152.23
403.844	68.27
404.053	101.03
404.262	39.59
404.471	144.04
404.68	141.99
404.888	131.75
405.097	62.12
405.306	84.65
405.515	137.9
405.724	92.84
405.933	76.46
406.142	115.37
406.35	74.41
406.559	35.5
406.768	82.6
406.977	115.37
407.185	111.27
407.394	109.22
407.603	121.51
407.812	68.27
408.02	156.33
408.229	94.89
408.438	135.85
408.646	127.66
408.855	111.27
409.064	82.6
409.272	205.48
409.481	156.33
409.69	158.38
409.898	115.37
410.107	219.82
410.315	230.06
410.524	187.05
410.733	201.38
410.941	221.86
411.15	246.44
411.358	225.96
411.567	172.71
411.775	246.44
411.984	279.21
412.192	295.59
412.401	273.06
412.609	338.6
412.818	219.82
413.026	316.07
413.234	277.16
413.443	367.27
413.651	320.17
413.86	352.93
414.068	314.02
414.276	320.17
414.485	299.69
414.693	326.31
414.901	422.56
415.11	367.27
415.318	395.94
415.526	354.98
415.734	492.2
415.943	490.15
416.151	426.66
416.359	494.24
416.567	590.5
416.776	479.91
416.984	516.77
417.192	617.12
417.4	563.87
417.608	553.63
417.817	551.59
418.025	578.21
418.233	696.99
418.441	746.14
418.649	668.32
418.857	737.95
419.065	748.19
419.273	682.66
419.481	715.42
419.689	715.42
419.897	901.79
420.105	791.2
420.313	807.58
420.521	991.9
420.729	1004.19
420.937	1041.05
421.145	1090.2
421.353	989.85
421.561	1059.48
421.769	1301.14
421.977	1213.08
422.185	1104.54
422.393	1313.43
422.601	1368.73
422.809	1196.7
423.017	1350.29
423.224	1331.86
423.432	1432.21
423.64	1507.99
423.848	1589.91
424.056	1624.72
424.263	1653.39
424.471	1653.39
424.679	1602.19
424.887	1813.13
425.094	1899.15
425.302	1905.29
425.51	1862.29
425.718	1903.25
425.925	1862.29
426.133	1962.64
426.341	2101.9
426.548	2263.69
426.756	2198.15
426.964	2157.19
427.171	2306.7
427.379	2517.64
427.586	2458.25
427.794	2574.98
428.001	2599.55
428.209	2845.31
428.417	2759.3
428.624	2949.76
428.832	3015.29
429.039	2857.6
429.247	2880.13
429.454	3193.47
429.662	3435.13
429.869	3238.52
430.076	3383.93
430.284	3289.72
430.491	3500.66
430.699	3723.89
430.906	3801.71
431.114	3727.99
431.321	3850.86
431.528	3869.3
431.736	4258.41
431.943	4377.19
432.15	4248.17
432.358	4459.11
432.565	4452.97
432.772	4649.57
432.979	4801.12
433.187	4944.48
433.394	4778.59
433.601	5175.9
433.808	5186.14
434.016	5225.05
434.223	5356.12
434.43	5827.15
434.637	5694.04
434.844	5771.86
435.052	6089.29
435.259	6072.91
435.466	6165.07
435.673	5976.66
435.88	6224.46
436.087	6742.6
436.294	6844.99
436.501	6545.99
436.708	6877.76
436.915	6900.29
437.122	7422.52
437.329	7391.8
437.537	7785.01
437.743	7662.13
437.95	7643.7
438.157	8114.73
438.364	8225.33
438.571	8118.83
438.778	8301.1
438.985	9079.33
439.192	8770.08
439.399	9163.29
439.606	8847.91
439.813	9364
440.02	9875.99
440.227	9759.25
440.433	9679.38
440.64	9953.81
440.847	9753.11
441.054	10166.8
441.261	10729.99
441.467	10689.03
441.674	10951.17
441.881	11377.15
442.088	11399.68
442.294	11325.95
442.501	11485.69
442.708	11868.66
442.914	12081.65
443.121	12603.88
443.328	12265.97
443.534	13099.49
443.741	12859.88
443.948	12947.94
444.154	13738.46
444.361	13488.6
444.568	13814.23
444.774	13605.34
444.981	14094.8
445.187	14098.9
445.394	15018.44
445.6	14809.54
445.807	15894.97
446.013	15493.57
446.22	15714.75
446.426	16435.63
446.633	16677.29
446.839	17019.3
447.046	16527.79
447.252	17400.23
447.459	17584.54
447.665	17488.29
447.871	18184.6
448.078	18893.19
448.284	18100.63
448.491	18502.03
448.697	19425.67
448.903	19669.37
449.11	19771.77
449.316	19472.77
449.522	19730.81
449.728	20222.33
449.935	20343.16
450.141	20597.1
450.347	20951.4
450.553	20291.96
450.76	20498.8
450.966	21162.34
451.172	21295.46
451.378	21723.49
451.584	21436.77
451.791	21698.91
451.997	21717.34
452.203	22151.51
452.409	22268.25
452.615	21905.76
452.821	21025.13
453.027	20887.92
453.233	22307.16
453.44	21277.03
453.646	21637.47
453.852	21563.75
454.058	22108.51
454.264	21504.35
454.47	22047.07
454.676	21004.65
454.882	21995.87
455.088	20164.98
455.294	20349.3
455.5	20574.58
455.705	20820.33
455.911	20291.96
456.117	19763.58
456.323	19679.61
456.529	18342.29
456.735	19442.05
456.941	18960.78
457.147	18588.05
457.352	17875.35
457.558	17818.01
457.764	17807.77
457.97	17308.07
458.176	17107.37
458.381	17090.98
458.587	16208.31
458.793	16218.55
458.999	15110.6
459.204	16325.04
459.41	16038.33
459.616	15102.4
459.821	14967.24
460.027	14961.09
460.233	14604.75
460.438	13926.87
460.644	13736.41
460.85	13472.22
461.055	13140.45
461.261	13246.94
461.466	12372.46
461.672	11956.72
461.878	12696.04
462.083	11665.91
462.289	11508.22
462.494	11637.24
462.7	10998.27
462.905	10592.78
463.111	11155.97
463.316	11065.86
463.522	10844.68
463.727	10914.31
463.932	10865.16
464.138	10639.88
464.343	10834.44
464.549	10570.25
464.754	10918.4
464.959	10848.77
465.165	10918.4
465.37	10187.28
465.575	10084.88
465.781	10496.52
465.986	10535.43
466.191	10197.52
466.397	9951.76
466.602	9484.83
466.807	9789.97
467.012	9710.1
467.218	9572.89
467.423	9650.71
467.628	9619.99
467.833	10111.5
468.038	9691.67
468.244	9462.3
