Data from USB4F104151__90__13-00-05-139.txt Node

Date: Fri Mar 14 13:00:05 EDT 2025
User: louis
Spectrometer: USB4F10415
Trigger mode: 4
Integration Time (sec): 1.000000E-2
Scans to average: 1
Electric dark correction enabled: true
Nonlinearity correction enabled: false
Boxcar width: 0
XAxis mode: Wavelengths
Number of Pixels in Spectrum: 3648
>>>>>Begin Spectral Data<<<<<
178.204	-18.43
178.424	-18.43
178.644	-18.43
178.864	-57.34
179.084	49.15
179.304	-45.06
179.524	55.3
179.744	-24.58
179.964	6.14
180.184	20.48
180.404	55.3
180.624	-10.24
180.844	-26.62
181.064	8.19
181.283	12.29
181.503	-43.01
181.723	-8.19
181.943	20.48
182.163	0
182.383	28.67
182.602	55.3
182.822	2.05
183.042	-14.34
183.262	-51.2
183.482	45.06
183.701	16.38
183.921	16.38
184.141	51.2
184.361	14.34
184.58	102.4
184.8	16.38
185.02	2.05
185.239	69.63
185.459	49.15
185.679	8.19
185.898	-6.14
186.118	67.58
186.338	-28.67
186.557	20.48
186.777	-18.43
186.997	75.77
187.216	-24.58
187.436	92.16
187.655	-36.86
187.875	73.73
188.095	61.44
188.314	38.91
188.534	-26.62
188.753	-6.14
188.973	16.38
189.192	20.48
189.412	-12.29
189.631	26.62
189.851	34.82
190.07	112.64
190.29	-30.72
190.509	-18.43
190.729	14.34
190.948	12.29
191.168	77.82
191.387	26.62
191.607	-4.1
191.826	67.58
192.045	-14.34
192.265	20.48
192.484	10.24
192.704	20.48
192.923	28.67
193.142	57.34
193.362	43.01
193.581	8.19
193.8	4.1
194.02	-38.91
194.239	-4.1
194.458	40.96
194.678	-28.67
194.897	-4.1
195.116	22.53
195.335	59.39
195.555	14.34
195.774	20.48
195.993	43.01
196.212	-4.1
196.432	51.2
196.651	26.62
196.87	49.15
197.089	90.11
197.308	-28.67
197.528	-10.24
197.747	32.77
197.966	57.34
198.185	86.01
198.404	-2.05
198.623	-43.01
198.842	24.58
199.062	12.29
199.281	26.62
199.5	20.48
199.719	51.2
199.938	53.25
200.157	75.77
200.376	28.67
200.595	16.38
200.814	24.58
201.033	34.82
201.252	34.82
201.471	20.48
201.69	45.06
201.909	-12.29
202.128	45.06
202.347	18.43
202.566	26.62
202.785	2.05
203.004	22.53
203.223	4.1
203.442	14.34
203.661	-30.72
203.879	4.1
204.098	67.58
204.317	14.34
204.536	-6.14
204.755	45.06
204.974	67.58
205.193	94.21
205.411	65.53
205.63	81.92
205.849	-14.34
206.068	-38.91
206.287	-28.67
206.505	20.48
206.724	53.25
206.943	-10.24
207.162	69.63
207.381	51.2
207.599	22.53
207.818	10.24
208.037	47.1
208.255	-6.14
208.474	47.1
208.693	24.58
208.911	28.67
209.13	-30.72
209.349	18.43
209.567	57.34
209.786	55.3
210.005	45.06
210.223	30.72
210.442	-20.48
210.661	51.2
210.879	63.49
211.098	-14.34
211.316	-8.19
211.535	40.96
211.753	34.82
211.972	32.77
212.191	6.14
212.409	73.73
212.628	34.82
212.846	18.43
213.065	36.86
213.283	10.24
213.502	22.53
213.72	40.96
213.938	-10.24
214.157	26.62
214.375	81.92
214.594	59.39
214.812	6.14
215.031	-6.14
215.249	-2.05
215.467	55.3
215.686	-14.34
215.904	135.17
216.122	-8.19
216.341	75.77
216.559	47.1
216.778	45.06
216.996	-12.29
217.214	-24.58
217.432	30.72
217.651	47.1
217.869	24.58
218.087	12.29
218.306	0
218.524	139.26
218.742	8.19
218.96	28.67
219.179	-22.53
219.397	104.45
219.615	32.77
219.833	26.62
220.051	-4.1
220.27	-12.29
220.488	16.38
220.706	-22.53
220.924	-30.72
221.142	22.53
221.36	61.44
221.578	43.01
221.796	-12.29
222.015	45.06
222.233	53.25
222.451	-45.06
222.669	6.14
222.887	4.1
223.105	45.06
223.323	18.43
223.541	122.88
223.759	30.72
223.977	10.24
224.195	2.05
224.413	18.43
224.631	-16.38
224.849	63.49
225.067	63.49
225.285	77.82
225.503	-30.72
225.721	-110.59
225.939	40.96
226.157	36.86
226.375	45.06
226.592	75.77
226.81	32.77
227.028	94.21
227.246	14.34
227.464	-6.14
227.682	-38.91
227.9	86.01
228.117	2.05
228.335	43.01
228.553	-14.34
228.771	12.29
228.989	83.97
229.206	-36.86
229.424	30.72
229.642	-2.05
229.86	-2.05
230.077	14.34
230.295	-28.67
230.513	94.21
230.731	40.96
230.948	75.77
231.166	86.01
231.384	36.86
231.601	-22.53
231.819	-6.14
232.037	22.53
232.254	22.53
232.472	47.1
232.689	28.67
232.907	14.34
233.125	22.53
233.342	20.48
233.56	92.16
233.777	96.25
233.995	30.72
234.213	73.73
234.43	34.82
234.648	49.15
234.865	-24.58
235.083	26.62
235.3	-12.29
235.518	34.82
235.735	10.24
235.953	59.39
236.17	-4.1
236.388	4.1
236.605	-18.43
236.822	-4.1
237.04	-8.19
237.257	4.1
237.475	4.1
237.692	-20.48
237.909	32.77
238.127	14.34
238.344	-47.1
238.562	20.48
238.779	77.82
238.996	26.62
239.214	-2.05
239.431	98.3
239.648	-12.29
239.865	24.58
240.083	-26.62
240.3	-61.44
240.517	18.43
240.735	53.25
240.952	-34.82
241.169	-6.14
241.386	28.67
241.603	30.72
241.821	26.62
242.038	4.1
242.255	-2.05
242.472	4.1
242.689	-32.77
242.907	16.38
243.124	22.53
243.341	-16.38
243.558	77.82
243.775	-6.14
243.992	43.01
244.209	24.58
244.426	47.1
244.643	10.24
244.86	4.1
245.078	124.93
245.295	40.96
245.512	16.38
245.729	-4.1
245.946	-20.48
246.163	6.14
246.38	-6.14
246.597	-40.96
246.814	59.39
247.031	8.19
247.248	51.2
247.464	12.29
247.681	36.86
247.898	-16.38
248.115	6.14
248.332	32.77
248.549	2.05
248.766	26.62
248.983	38.91
249.2	32.77
249.417	-51.2
249.633	10.24
249.85	-24.58
250.067	12.29
250.284	14.34
250.501	16.38
250.717	51.2
250.934	-53.25
251.151	6.14
251.368	51.2
251.585	81.92
251.801	-6.14
252.018	32.77
252.235	8.19
252.451	18.43
252.668	20.48
252.885	6.14
253.102	18.43
253.318	28.67
253.535	4.1
253.752	-8.19
253.968	-20.48
254.185	-59.39
254.401	-18.43
254.618	73.73
254.835	24.58
255.051	55.3
255.268	-2.05
255.484	-20.48
255.701	75.77
255.917	16.38
256.134	-79.87
256.351	32.77
256.567	47.1
256.784	14.34
257	-18.43
257.217	-14.34
257.433	-4.1
257.65	59.39
257.866	-14.34
258.082	6.14
258.299	-2.05
258.515	0
258.732	-14.34
258.948	6.14
259.165	24.58
259.381	2.05
259.597	36.86
259.814	30.72
260.03	57.34
260.246	34.82
260.463	38.91
260.679	28.67
260.895	49.15
261.112	38.91
261.328	-55.3
261.544	4.1
261.761	4.1
261.977	2.05
262.193	30.72
262.409	69.63
262.626	20.48
262.842	100.35
263.058	-4.1
263.274	32.77
263.49	-38.91
263.707	81.92
263.923	71.68
264.139	43.01
264.355	10.24
264.571	-18.43
264.787	14.34
265.004	26.62
265.22	65.53
265.436	-32.77
265.652	34.82
265.868	100.35
266.084	-14.34
266.3	90.11
266.516	24.58
266.732	75.77
266.948	-12.29
267.164	-6.14
267.38	77.82
267.596	22.53
267.812	12.29
268.028	90.11
268.244	-4.1
268.46	51.2
268.676	-18.43
268.892	88.06
269.108	-30.72
269.324	2.05
269.54	-14.34
269.756	-26.62
269.972	98.3
270.188	63.49
270.403	-28.67
270.619	12.29
270.835	-53.25
271.051	36.86
271.267	-38.91
271.483	129.02
271.698	20.48
271.914	2.05
272.13	-28.67
272.346	20.48
272.562	-14.34
272.777	4.1
272.993	61.44
273.209	10.24
273.425	-14.34
273.64	12.29
273.856	-28.67
274.072	10.24
274.287	2.05
274.503	63.49
274.719	-49.15
274.934	73.73
275.15	2.05
275.366	-10.24
275.581	16.38
275.797	26.62
276.012	71.68
276.228	40.96
276.444	-8.19
276.659	92.16
276.875	51.2
277.09	47.1
277.306	10.24
277.521	34.82
277.737	-22.53
277.952	53.25
278.168	-20.48
278.383	32.77
278.599	-2.05
278.814	71.68
279.03	10.24
279.245	94.21
279.461	43.01
279.676	-20.48
279.892	-20.48
280.107	79.87
280.322	2.05
280.538	-4.1
280.753	-14.34
280.969	2.05
281.184	57.34
281.399	69.63
281.615	-6.14
281.83	77.82
282.045	-36.86
282.26	30.72
282.476	79.87
282.691	43.01
282.906	-14.34
283.122	10.24
283.337	4.1
283.552	59.39
283.767	-53.25
283.983	88.06
284.198	83.97
284.413	65.53
284.628	40.96
284.843	34.82
285.058	-12.29
285.274	-47.1
285.489	32.77
285.704	12.29
285.919	-26.62
286.134	4.1
286.349	-104.45
286.564	22.53
286.779	34.82
286.995	22.53
287.21	61.44
287.425	32.77
287.64	14.34
287.855	26.62
288.07	0
288.285	22.53
288.5	34.82
288.715	57.34
288.93	-22.53
289.145	-28.67
289.36	-6.14
289.575	55.3
289.79	53.25
290.004	34.82
290.219	-28.67
290.434	8.19
290.649	16.38
290.864	47.1
291.079	40.96
291.294	-12.29
291.509	10.24
291.724	12.29
291.938	-26.62
292.153	22.53
292.368	-2.05
292.583	2.05
292.798	-4.1
293.012	67.58
293.227	32.77
293.442	102.4
293.657	14.34
293.871	55.3
294.086	112.64
294.301	43.01
294.516	49.15
294.73	-14.34
294.945	108.54
295.16	18.43
295.374	-16.38
295.589	22.53
295.804	-8.19
296.018	4.1
296.233	16.38
296.447	-20.48
296.662	135.17
296.877	45.06
297.091	34.82
297.306	24.58
297.52	-4.1
297.735	55.3
297.949	6.14
298.164	18.43
298.378	51.2
298.593	34.82
298.807	-22.53
299.022	75.77
299.236	10.24
299.451	34.82
299.665	-55.3
299.88	-4.1
300.094	26.62
300.309	-16.38
300.523	63.49
300.737	67.58
300.952	12.29
301.166	47.1
301.381	14.34
301.595	51.2
301.809	59.39
302.024	53.25
302.238	14.34
302.452	71.68
302.667	51.2
302.881	94.21
303.095	38.91
303.309	59.39
303.524	14.34
303.738	2.05
303.952	69.63
304.166	32.77
304.381	-8.19
304.595	51.2
304.809	-45.06
305.023	55.3
305.237	100.35
305.452	57.34
305.666	81.92
305.88	26.62
306.094	43.01
306.308	18.43
306.522	102.4
306.736	-32.77
306.95	-22.53
307.164	-24.58
307.379	-57.34
307.593	63.49
307.807	59.39
308.021	59.39
308.235	75.77
308.449	38.91
308.663	14.34
308.877	6.14
309.091	10.24
309.305	75.77
309.519	-6.14
309.733	55.3
309.947	2.05
310.161	75.77
310.374	59.39
310.588	61.44
310.802	-16.38
311.016	59.39
311.23	-12.29
311.444	18.43
311.658	40.96
311.872	-14.34
312.085	22.53
312.299	65.53
312.513	67.58
312.727	28.67
312.941	-63.49
313.154	63.49
313.368	57.34
313.582	40.96
313.796	28.67
314.009	59.39
314.223	6.14
314.437	53.25
314.651	20.48
314.864	45.06
315.078	-10.24
315.292	45.06
315.505	34.82
315.719	10.24
315.933	73.73
316.146	116.73
316.36	24.58
316.573	-26.62
316.787	-32.77
317.001	30.72
317.214	22.53
317.428	75.77
317.641	10.24
317.855	36.86
318.068	-6.14
318.282	30.72
318.495	96.25
318.709	40.96
318.922	-14.34
319.136	63.49
319.349	49.15
319.563	63.49
319.776	71.68
319.99	-28.67
320.203	38.91
320.417	51.2
320.63	-6.14
320.843	67.58
321.057	53.25
321.27	55.3
321.483	28.67
321.697	100.35
321.91	-18.43
322.124	32.77
322.337	-38.91
322.55	86.01
322.763	40.96
322.977	28.67
323.19	34.82
323.403	12.29
323.617	-6.14
323.83	67.58
324.043	32.77
324.256	90.11
324.469	32.77
324.683	28.67
324.896	-40.96
325.109	30.72
325.322	18.43
325.535	26.62
325.748	40.96
325.962	8.19
326.175	30.72
326.388	47.1
326.601	12.29
326.814	34.82
327.027	67.58
327.24	96.25
327.453	20.48
327.666	22.53
327.879	-34.82
328.092	163.84
328.305	8.19
328.518	61.44
328.731	-4.1
328.944	53.25
329.157	32.77
329.37	65.53
329.583	-6.14
329.796	28.67
330.009	10.24
330.222	43.01
330.435	-2.05
330.648	47.1
330.861	73.73
331.073	-47.1
331.286	16.38
331.499	12.29
331.712	45.06
331.925	-14.34
332.138	59.39
332.35	49.15
332.563	-43.01
332.776	0
332.989	28.67
333.202	40.96
333.414	59.39
333.627	55.3
333.84	-16.38
334.053	18.43
334.265	-10.24
334.478	6.14
334.691	26.62
334.903	28.67
335.116	57.34
335.329	26.62
335.541	51.2
335.754	24.58
335.966	10.24
336.179	40.96
336.392	36.86
336.604	38.91
336.817	32.77
337.029	40.96
337.242	-16.38
337.454	34.82
337.667	114.69
337.88	43.01
338.092	-8.19
338.305	34.82
338.517	-34.82
338.729	4.1
338.942	88.06
339.154	34.82
339.367	59.39
339.579	59.39
339.792	-20.48
340.004	34.82
340.217	-22.53
340.429	36.86
340.641	22.53
340.854	-36.86
341.066	57.34
341.278	53.25
341.491	36.86
341.703	69.63
341.915	34.82
342.128	92.16
342.34	36.86
342.552	98.3
342.764	-6.14
342.977	14.34
343.189	30.72
343.401	-12.29
343.613	-16.38
343.826	20.48
344.038	20.48
344.25	-38.91
344.462	30.72
344.674	-2.05
344.886	12.29
345.099	55.3
345.311	10.24
345.523	59.39
345.735	69.63
345.947	20.48
346.159	-28.67
346.371	18.43
346.583	18.43
346.795	55.3
347.007	14.34
347.219	4.1
347.431	45.06
347.643	110.59
347.855	38.91
348.067	45.06
348.279	53.25
348.491	34.82
348.703	51.2
348.915	22.53
349.127	-22.53
349.339	83.97
349.551	8.19
349.763	59.39
349.975	28.67
350.187	73.73
350.399	53.25
350.61	26.62
350.822	22.53
351.034	43.01
351.246	26.62
351.458	40.96
351.669	8.19
351.881	51.2
352.093	86.01
352.305	30.72
352.517	-20.48
352.728	69.63
352.94	34.82
353.152	-36.86
353.363	49.15
353.575	75.77
353.787	90.11
353.999	53.25
354.21	45.06
354.422	61.44
354.633	26.62
354.845	-43.01
355.057	38.91
355.268	49.15
355.48	77.82
355.692	6.14
355.903	16.38
356.115	-47.1
356.326	-28.67
356.538	43.01
356.749	-49.15
356.961	65.53
357.172	20.48
357.384	20.48
357.595	77.82
357.807	0
358.018	69.63
358.23	51.2
358.441	108.54
358.653	2.05
358.864	16.38
359.075	57.34
359.287	20.48
359.498	57.34
359.709	55.3
359.921	67.58
360.132	-32.77
360.344	-22.53
360.555	-4.1
360.766	69.63
360.977	-43.01
361.189	10.24
361.4	26.62
361.611	-10.24
361.823	34.82
362.034	53.25
362.245	-4.1
362.456	75.77
362.667	75.77
362.879	61.44
363.09	63.49
363.301	24.58
363.512	36.86
363.723	69.63
363.935	10.24
364.146	79.87
364.357	30.72
364.568	6.14
364.779	-2.05
364.99	81.92
365.201	26.62
365.412	114.69
365.623	28.67
365.834	-36.86
366.045	24.58
366.256	18.43
366.467	-2.05
366.678	-10.24
366.889	45.06
367.1	47.1
367.311	61.44
367.522	-36.86
367.733	67.58
367.944	59.39
368.155	-10.24
368.366	14.34
368.577	90.11
368.788	10.24
368.999	32.77
369.209	59.39
369.42	-12.29
369.631	34.82
369.842	-6.14
370.053	14.34
370.264	-34.82
370.474	79.87
370.685	45.06
370.896	57.34
371.107	38.91
371.317	-12.29
371.528	26.62
371.739	2.05
371.95	77.82
372.16	28.67
372.371	12.29
372.582	51.2
372.792	32.77
373.003	86.01
373.214	-2.05
373.424	59.39
373.635	12.29
373.846	51.2
374.056	-12.29
374.267	24.58
374.477	28.67
374.688	-30.72
374.898	-12.29
375.109	43.01
375.319	16.38
375.53	22.53
375.74	18.43
375.951	45.06
376.161	116.73
376.372	88.06
376.582	-8.19
376.793	51.2
377.003	47.1
377.214	71.68
377.424	26.62
377.635	67.58
377.845	22.53
378.055	38.91
378.266	-26.62
378.476	43.01
378.686	32.77
378.897	34.82
379.107	16.38
379.317	122.88
379.528	73.73
379.738	45.06
379.948	81.92
380.158	65.53
380.369	-55.3
380.579	-8.19
380.789	22.53
380.999	24.58
381.21	61.44
381.42	2.05
381.63	86.01
381.84	51.2
382.05	4.1
382.261	16.38
382.471	57.34
382.681	51.2
382.891	18.43
383.101	81.92
383.311	30.72
383.521	4.1
383.731	32.77
383.941	98.3
384.151	20.48
384.361	75.77
384.571	20.48
384.781	26.62
384.991	38.91
385.201	61.44
385.411	16.38
385.621	61.44
385.831	26.62
386.041	108.54
386.251	-45.06
386.461	83.97
386.671	92.16
386.881	26.62
387.091	22.53
387.301	-10.24
387.511	-6.14
387.72	86.01
387.93	28.67
388.14	30.72
388.35	4.1
388.56	83.97
388.769	14.34
388.979	112.64
389.189	4.1
389.399	51.2
389.609	43.01
389.818	20.48
390.028	12.29
390.238	4.1
390.447	43.01
390.657	28.67
390.867	43.01
391.076	26.62
391.286	18.43
391.496	81.92
391.705	59.39
391.915	55.3
392.125	75.77
392.334	51.2
392.544	-22.53
392.753	-12.29
392.963	49.15
393.172	28.67
393.382	24.58
393.591	4.1
393.801	55.3
394.01	63.49
394.22	77.82
394.429	34.82
394.639	45.06
394.848	116.73
395.058	12.29
395.267	38.91
395.477	-28.67
395.686	34.82
395.895	40.96
396.105	34.82
396.314	63.49
396.524	63.49
396.733	22.53
396.942	32.77
397.152	45.06
397.361	12.29
397.57	28.67
397.78	65.53
397.989	28.67
398.198	2.05
398.407	90.11
398.617	12.29
398.826	-10.24
399.035	26.62
399.244	18.43
399.453	14.34
399.663	90.11
399.872	122.88
400.081	65.53
400.29	75.77
400.499	-12.29
400.708	51.2
400.917	69.63
401.127	26.62
401.336	45.06
401.545	151.55
401.754	92.16
401.963	36.86
402.172	45.06
402.381	30.72
402.59	73.73
402.799	124.93
403.008	24.58
403.217	38.91
403.426	69.63
403.635	16.38
403.844	77.82
404.053	120.83
404.262	57.34
404.471	124.93
404.68	12.29
404.888	81.92
405.097	55.3
405.306	98.3
405.515	98.3
405.724	118.78
405.933	79.87
406.142	34.82
406.35	77.82
406.559	75.77
406.768	32.77
406.977	77.82
407.185	124.93
407.394	143.36
407.603	96.25
407.812	120.83
408.02	143.36
408.229	118.78
408.438	47.1
408.646	79.87
408.855	126.97
409.064	129.02
409.272	143.36
409.481	190.46
409.69	135.17
409.898	157.69
410.107	133.12
410.315	141.31
410.524	120.83
410.733	155.65
410.941	178.17
411.15	133.12
411.358	217.08
411.567	139.26
411.775	233.47
411.984	206.84
412.192	163.84
412.401	217.08
412.609	206.84
412.818	200.7
413.026	221.18
413.234	243.71
413.443	167.93
413.651	225.28
413.86	235.52
414.068	339.96
414.276	299
414.485	264.19
414.693	296.96
414.901	325.63
415.11	372.73
415.318	266.24
415.526	321.53
415.734	321.53
415.943	362.49
416.151	299
416.359	315.39
416.567	352.25
416.776	526.33
416.984	493.56
417.192	448.51
417.4	385.02
417.608	411.64
417.817	425.98
418.025	489.46
418.233	497.66
418.441	501.75
418.649	509.94
418.857	542.71
419.065	624.63
419.273	593.91
419.481	624.63
419.689	567.29
419.897	655.35
420.105	643.06
420.313	606.2
420.521	690.17
420.729	677.88
420.937	698.36
421.145	839.67
421.353	796.66
421.561	735.22
421.769	802.8
421.977	878.58
422.185	886.77
422.393	929.78
422.601	954.35
422.809	948.21
423.017	962.55
423.224	1091.57
423.432	1093.62
423.64	1023.98
423.848	1093.62
424.056	976.88
424.263	1132.53
424.471	1198.06
424.679	1236.97
424.887	1290.22
425.094	1294.32
425.302	1374.19
425.51	1361.9
425.718	1413.1
425.925	1409
426.133	1394.67
426.341	1574.89
426.548	1662.95
426.756	1619.94
426.964	1802.21
427.171	1800.16
427.379	1877.99
427.586	1845.22
427.794	1914.85
428.001	1824.74
428.209	2004.96
428.417	2084.83
428.624	2181.09
428.832	2080.74
429.039	2129.89
429.247	2258.91
429.454	2287.58
429.662	2418.65
429.869	2330.59
430.076	2488.28
430.284	2428.89
430.491	2484.19
430.699	2723.8
430.906	2764.76
431.114	2658.26
431.321	2930.64
431.528	3008.47
431.736	3065.81
431.943	3108.82
432.15	3123.15
432.358	3233.74
432.565	3274.7
432.772	3364.81
432.979	3426.25
433.187	3631.05
433.394	3637.19
433.601	3739.59
433.808	3860.42
434.016	3846.09
434.223	4007.87
434.43	4237.25
434.637	4198.34
434.844	4306.88
435.052	4466.62
435.259	4247.49
435.466	4485.05
435.673	4409.28
435.88	4591.55
436.087	4962.23
436.294	4958.13
436.501	4943.8
436.708	4841.4
436.915	5013.43
437.122	5466.03
437.329	5423.02
437.537	5572.52
437.743	5617.58
437.95	5296.05
438.157	5855.14
438.364	5877.67
438.571	6064.04
438.778	6074.28
438.985	6627.23
439.192	6279.07
439.399	6453.15
439.606	6674.33
439.813	6915.99
440.02	7235.47
440.227	6938.52
440.433	7004.05
440.64	7163.79
440.847	6991.77
441.054	7341.97
441.261	7917.45
441.467	7954.31
441.674	8038.28
441.881	8025.99
442.088	8079.24
442.294	8118.15
442.501	8566.65
442.708	8705.92
442.914	8834.94
443.121	9205.62
443.328	8996.73
443.534	9594.73
443.741	9273.2
443.948	9191.28
444.154	9785.19
444.361	9895.78
444.568	9701.23
444.774	10186.6
444.981	10241.89
445.187	10252.13
445.394	10755.93
445.6	10682.2
445.807	11777.87
446.013	11233.11
446.22	11431.76
446.426	11769.68
446.633	12029.77
446.839	12447.55
447.046	11874.12
447.252	12582.72
447.459	12797.76
447.665	12457.79
447.871	13084.47
448.078	13567.79
448.284	13111.1
448.491	13625.14
448.697	14030.63
448.903	14124.84
449.11	14438.18
449.316	14028.59
449.522	14247.72
449.728	14741.28
449.935	14747.42
450.141	14931.74
450.347	15066.91
450.553	14817.05
450.76	15021.85
450.966	15597.33
451.172	15441.68
451.378	15615.76
451.584	15488.79
451.791	15857.42
451.997	15656.72
452.203	16054.03
452.409	16060.17
452.615	15855.37
452.821	15296.28
453.027	15265.56
453.233	15996.68
453.44	15558.42
453.646	15372.05
453.852	15709.97
454.058	16035.6
454.264	15486.74
454.47	15769.36
454.676	15490.84
454.882	16094.99
455.088	14698.27
455.294	14761.76
455.5	15064.86
455.705	15314.71
455.911	14479.14
456.117	14280.49
456.323	14202.66
456.529	13293.37
456.735	13850.41
456.941	13582.13
457.147	13440.82
457.352	13121.34
457.558	12740.41
457.764	12824.38
457.97	12439.36
458.176	12549.95
458.381	12517.18
458.587	11845.45
458.793	11779.92
458.999	11278.16
459.204	12025.67
459.41	11882.31
459.616	10751.84
459.821	11042.65
460.027	10932.06
460.233	10639.2
460.438	10110.82
460.644	10102.63
460.85	9856.87
461.055	9844.59
461.261	9717.61
461.466	8894.33
461.672	8800.12
461.878	9189.24
462.083	8697.72
462.289	8513.41
462.494	8433.54
462.7	8058.76
462.905	7802.76
463.111	8236.93
463.316	8058.76
463.522	7964.55
463.727	8048.52
463.932	7942.02
464.138	7886.73
464.343	7853.96
464.549	7589.77
464.754	7937.93
464.959	7868.3
465.165	7821.19
465.37	7567.24
465.575	7163.79
465.781	7651.21
465.986	7464.85
466.191	7288.72
466.397	7253.91
466.602	6891.41
466.807	7083.92
467.012	7045.01
467.218	7008.15
467.423	6877.08
467.628	7112.6
467.833	7331.73
468.038	6981.53
468.244	6946.71
468.449	7171.99
468.654	6981.53
468.859	6799.26
469.064	6942.61
469.269	6590.36
469.474	6535.07
469.679	6872.98
469.885	6592.41
