Data from USB4F104151__61__12-59-22-943.txt Node

Date: Fri Mar 14 12:59:22 EDT 2025
User: louis
Spectrometer: USB4F10415
Trigger mode: 4
Integration Time (sec): 1.000000E-2
Scans to average: 1
Electric dark correction enabled: true
Nonlinearity correction enabled: false
Boxcar width: 0
XAxis mode: Wavelengths
Number of Pixels in Spectrum: 3648
>>>>>Begin Spectral Data<<<<<
178.204	-27.65
178.424	-27.65
178.644	-27.65
178.864	-23.55
179.084	52.22
179.304	-21.5
179.524	39.94
179.744	-1.02
179.964	7.17
180.184	-44.03
180.404	44.03
180.624	39.94
180.844	7.17
181.064	17.41
181.283	21.5
181.503	-60.42
181.723	-50.18
181.943	-1.02
182.163	-21.5
182.383	3.07
182.602	27.65
182.822	84.99
183.042	27.65
183.262	-25.6
183.482	-11.26
183.701	-13.31
183.921	70.65
184.141	-27.65
184.361	58.37
184.58	50.18
184.8	64.51
185.02	9.22
185.239	54.27
185.459	82.94
185.679	66.56
185.898	5.12
186.118	103.42
186.338	48.13
186.557	58.37
186.777	-19.46
186.997	44.03
187.216	60.42
187.436	58.37
187.655	21.5
187.875	13.31
188.095	-9.22
188.314	58.37
188.534	-107.52
188.753	-70.65
188.973	50.18
189.192	27.65
189.412	140.29
189.631	64.51
189.851	48.13
190.07	66.56
190.29	21.5
190.509	89.09
190.729	35.84
190.948	3.07
191.168	60.42
191.387	-44.03
191.607	56.32
191.826	23.55
192.045	50.18
192.265	78.85
192.484	3.07
192.704	-1.02
192.923	-21.5
193.142	72.7
193.362	46.08
193.581	-25.6
193.8	23.55
194.02	95.23
194.239	58.37
194.458	5.12
194.678	19.46
194.897	107.52
195.116	5.12
195.335	-7.17
195.555	21.5
195.774	48.13
195.993	15.36
196.212	74.75
196.432	39.94
196.651	15.36
196.87	31.74
197.089	125.95
197.308	11.26
197.528	44.03
197.747	-7.17
197.966	44.03
198.185	58.37
198.404	9.22
198.623	15.36
198.842	41.98
199.062	-3.07
199.281	99.33
199.5	5.12
199.719	33.79
199.938	50.18
200.157	74.75
200.376	11.26
200.595	13.31
200.814	-25.6
201.033	-3.07
201.252	39.94
201.471	80.89
201.69	72.7
201.909	62.46
202.128	48.13
202.347	74.75
202.566	-56.32
202.785	-21.5
203.004	13.31
203.223	89.09
203.442	15.36
203.661	50.18
203.879	3.07
204.098	29.7
204.317	21.5
204.536	9.22
204.755	66.56
204.974	99.33
205.193	54.27
205.411	21.5
205.63	35.84
205.849	48.13
206.068	-23.55
206.287	66.56
206.505	54.27
206.724	25.6
206.943	35.84
207.162	33.79
207.381	23.55
207.599	25.6
207.818	25.6
208.037	-7.17
208.255	87.04
208.474	5.12
208.693	-44.03
208.911	33.79
209.13	29.7
209.349	70.65
209.567	13.31
209.786	21.5
210.005	-1.02
210.223	70.65
210.442	29.7
210.661	31.74
210.879	54.27
211.098	39.94
211.316	97.28
211.535	44.03
211.753	76.8
211.972	39.94
212.191	23.55
212.409	44.03
212.628	9.22
212.846	44.03
213.065	-25.6
213.283	39.94
213.502	25.6
213.72	52.22
213.938	64.51
214.157	-31.74
214.375	41.98
214.594	70.65
214.812	25.6
215.031	103.42
215.249	76.8
215.467	29.7
215.686	54.27
215.904	-13.31
216.122	64.51
216.341	78.85
216.559	15.36
216.778	-9.22
216.996	-3.07
217.214	29.7
217.432	-19.46
217.651	62.46
217.869	11.26
218.087	89.09
218.306	-5.12
218.524	54.27
218.742	21.5
218.96	54.27
219.179	54.27
219.397	39.94
219.615	58.37
219.833	-3.07
220.051	-1.02
220.27	-9.22
220.488	25.6
220.706	54.27
220.924	74.75
221.142	19.46
221.36	97.28
221.578	-21.5
221.796	68.61
222.015	44.03
222.233	-7.17
222.451	113.66
222.669	54.27
222.887	-3.07
223.105	-31.74
223.323	9.22
223.541	58.37
223.759	13.31
223.977	50.18
224.195	-5.12
224.413	7.17
224.631	52.22
224.849	84.99
225.067	44.03
225.285	-21.5
225.503	140.29
225.721	11.26
225.939	62.46
226.157	-11.26
226.375	21.5
226.592	15.36
226.81	48.13
227.028	19.46
227.246	95.23
227.464	48.13
227.682	15.36
227.9	-19.46
228.117	-35.84
228.335	60.42
228.553	91.13
228.771	70.65
228.989	72.7
229.206	46.08
229.424	72.7
229.642	-21.5
229.86	48.13
230.077	19.46
230.295	7.17
230.513	119.81
230.731	5.12
230.948	50.18
231.166	21.5
231.384	9.22
231.601	1.02
231.819	44.03
232.037	1.02
232.254	78.85
232.472	-5.12
232.689	9.22
232.907	33.79
233.125	29.7
233.342	56.32
233.56	5.12
233.777	-25.6
233.995	70.65
234.213	50.18
234.43	78.85
234.648	37.89
234.865	-23.55
235.083	25.6
235.3	87.04
235.518	15.36
235.735	78.85
235.953	91.13
236.17	60.42
236.388	19.46
236.605	62.46
236.822	33.79
237.04	66.56
237.257	76.8
237.475	46.08
237.692	33.79
237.909	25.6
238.127	15.36
238.344	-9.22
238.562	-7.17
238.779	-3.07
238.996	-21.5
239.214	7.17
239.431	-7.17
239.648	50.18
239.865	119.81
240.083	56.32
240.3	9.22
240.517	-13.31
240.735	41.98
240.952	33.79
241.169	1.02
241.386	72.7
241.603	68.61
241.821	9.22
242.038	27.65
242.255	113.66
242.472	9.22
242.689	39.94
242.907	39.94
243.124	21.5
243.341	23.55
243.558	-66.56
243.775	-39.94
243.992	-23.55
244.209	5.12
244.426	1.02
244.643	68.61
244.86	17.41
245.078	-7.17
245.295	64.51
245.512	17.41
245.729	39.94
245.946	74.75
246.163	15.36
246.38	58.37
246.597	-9.22
246.814	-31.74
247.031	17.41
247.248	62.46
247.464	29.7
247.681	78.85
247.898	82.94
248.115	-11.26
248.332	50.18
248.549	48.13
248.766	31.74
248.983	31.74
249.2	-17.41
249.417	46.08
249.633	25.6
249.85	123.9
250.067	84.99
250.284	50.18
250.501	25.6
250.717	66.56
250.934	31.74
251.151	70.65
251.368	5.12
251.585	13.31
251.801	11.26
252.018	54.27
252.235	39.94
252.451	7.17
252.668	62.46
252.885	41.98
253.102	27.65
253.318	29.7
253.535	66.56
253.752	-5.12
253.968	72.7
254.185	46.08
254.401	13.31
254.618	82.94
254.835	-17.41
255.051	-7.17
255.268	50.18
255.484	31.74
255.701	62.46
255.917	56.32
256.134	41.98
256.351	70.65
256.567	1.02
256.784	89.09
257	-1.02
257.217	29.7
257.433	39.94
257.65	46.08
257.866	41.98
258.082	46.08
258.299	56.32
258.515	87.04
258.732	11.26
258.948	29.7
259.165	-41.98
259.381	35.84
259.597	-7.17
259.814	41.98
260.03	58.37
260.246	7.17
260.463	23.55
260.679	19.46
260.895	39.94
261.112	87.04
261.328	68.61
261.544	46.08
261.761	82.94
261.977	56.32
262.193	50.18
262.409	52.22
262.626	54.27
262.842	-25.6
263.058	37.89
263.274	70.65
263.49	95.23
263.707	41.98
263.923	48.13
264.139	39.94
264.355	25.6
264.571	89.09
264.787	19.46
265.004	-15.36
265.22	56.32
265.436	23.55
265.652	80.89
265.868	48.13
266.084	54.27
266.3	33.79
266.516	21.5
266.732	33.79
266.948	37.89
267.164	89.09
267.38	60.42
267.596	91.13
267.812	74.75
268.028	37.89
268.244	31.74
268.46	15.36
268.676	-25.6
268.892	95.23
269.108	-15.36
269.324	41.98
269.54	21.5
269.756	80.89
269.972	-7.17
270.188	109.57
270.403	80.89
270.619	97.28
270.835	54.27
271.051	52.22
271.267	82.94
271.483	72.7
271.698	23.55
271.914	56.32
272.13	1.02
272.346	91.13
272.562	7.17
272.777	97.28
272.993	-3.07
273.209	11.26
273.425	80.89
273.64	54.27
273.856	48.13
274.072	-5.12
274.287	48.13
274.503	13.31
274.719	27.65
274.934	44.03
275.15	89.09
275.366	46.08
275.581	-1.02
275.797	76.8
276.012	25.6
276.228	56.32
276.444	46.08
276.659	19.46
276.875	-15.36
277.09	78.85
277.306	15.36
277.521	62.46
277.737	35.84
277.952	37.89
278.168	21.5
278.383	9.22
278.599	17.41
278.814	60.42
279.03	44.03
279.245	82.94
279.461	123.9
279.676	37.89
279.892	-23.55
280.107	37.89
280.322	46.08
280.538	48.13
280.753	21.5
280.969	21.5
281.184	-1.02
281.399	105.47
281.615	-7.17
281.83	25.6
282.045	52.22
282.26	76.8
282.476	78.85
282.691	29.7
282.906	-5.12
283.122	29.7
283.337	-7.17
283.552	9.22
283.767	9.22
283.983	48.13
284.198	119.81
284.413	62.46
284.628	64.51
284.843	-3.07
285.058	33.79
285.274	103.42
285.489	41.98
285.704	89.09
285.919	41.98
286.134	37.89
286.349	7.17
286.564	35.84
286.779	37.89
286.995	41.98
287.21	84.99
287.425	29.7
287.64	9.22
287.855	37.89
288.07	19.46
288.285	-1.02
288.5	7.17
288.715	35.84
288.93	7.17
289.145	54.27
289.36	50.18
289.575	78.85
289.79	-21.5
290.004	33.79
290.219	37.89
290.434	70.65
290.649	17.41
290.864	46.08
291.079	115.71
291.294	46.08
291.509	5.12
291.724	-17.41
291.938	56.32
292.153	5.12
292.368	-19.46
292.583	70.65
292.798	1.02
293.012	70.65
293.227	17.41
293.442	97.28
293.657	97.28
293.871	72.7
294.086	21.5
294.301	21.5
294.516	23.55
294.73	13.31
294.945	78.85
295.16	52.22
295.374	109.57
295.589	105.47
295.804	62.46
296.018	95.23
296.233	74.75
296.447	33.79
296.662	21.5
296.877	31.74
297.091	74.75
297.306	48.13
297.52	5.12
297.735	23.55
297.949	-7.17
298.164	95.23
298.378	11.26
298.593	37.89
298.807	-9.22
299.022	103.42
299.236	-3.07
299.451	17.41
299.665	27.65
299.88	50.18
300.094	-3.07
300.309	58.37
300.523	-3.07
300.737	1.02
300.952	50.18
301.166	66.56
301.381	-31.74
301.595	33.79
301.809	115.71
302.024	-9.22
302.238	23.55
302.452	68.61
302.667	-19.46
302.881	27.65
303.095	95.23
303.309	91.13
303.524	13.31
303.738	103.42
303.952	-3.07
304.166	48.13
304.381	-82.94
304.595	31.74
304.809	50.18
305.023	37.89
305.237	33.79
305.452	70.65
305.666	15.36
305.88	54.27
306.094	33.79
306.308	1.02
306.522	62.46
306.736	76.8
306.95	113.66
307.164	58.37
307.379	46.08
307.593	25.6
307.807	1.02
308.021	70.65
308.235	33.79
308.449	13.31
308.663	-27.65
308.877	156.67
309.091	82.94
309.305	37.89
309.519	39.94
309.733	56.32
309.947	-3.07
310.161	35.84
310.374	64.51
310.588	60.42
310.802	74.75
311.016	58.37
311.23	66.56
311.444	46.08
311.658	-37.89
311.872	166.91
312.085	48.13
312.299	31.74
312.513	19.46
312.727	87.04
312.941	-9.22
313.154	41.98
313.368	29.7
313.582	5.12
313.796	13.31
314.009	9.22
314.223	62.46
314.437	82.94
314.651	7.17
314.864	105.47
315.078	-1.02
315.292	62.46
315.505	50.18
315.719	78.85
315.933	29.7
316.146	-23.55
316.36	1.02
316.573	70.65
316.787	-27.65
317.001	19.46
317.214	-9.22
317.428	35.84
317.641	46.08
317.855	64.51
318.068	41.98
318.282	87.04
318.495	64.51
318.709	21.5
318.922	41.98
319.136	33.79
319.349	11.26
319.563	103.42
319.776	15.36
319.99	97.28
320.203	37.89
320.417	48.13
320.63	33.79
320.843	64.51
321.057	58.37
321.27	84.99
321.483	62.46
321.697	62.46
321.91	-27.65
322.124	66.56
322.337	37.89
322.55	23.55
322.763	13.31
322.977	64.51
323.19	-23.55
323.403	78.85
323.617	78.85
323.83	21.5
324.043	11.26
324.256	52.22
324.469	39.94
324.683	128
324.896	9.22
325.109	33.79
325.322	21.5
325.535	29.7
325.748	78.85
325.962	48.13
326.175	70.65
326.388	119.81
326.601	-15.36
326.814	95.23
327.027	76.8
327.24	72.7
327.453	62.46
327.666	105.47
327.879	-1.02
328.092	-3.07
328.305	11.26
328.518	17.41
328.731	37.89
328.944	91.13
329.157	37.89
329.37	39.94
329.583	64.51
329.796	80.89
330.009	7.17
330.222	1.02
330.435	64.51
330.648	41.98
330.861	46.08
331.073	29.7
331.286	78.85
331.499	54.27
331.712	35.84
331.925	35.84
332.138	44.03
332.35	52.22
332.563	84.99
332.776	15.36
332.989	29.7
333.202	33.79
333.414	56.32
333.627	44.03
333.84	-13.31
334.053	117.76
334.265	21.5
334.478	25.6
334.691	21.5
334.903	39.94
335.116	11.26
335.329	31.74
335.541	66.56
335.754	25.6
335.966	-11.26
336.179	1.02
336.392	99.33
336.604	62.46
336.817	58.37
337.029	-11.26
337.242	7.17
337.454	-35.84
337.667	76.8
337.88	101.37
338.092	41.98
338.305	-7.17
338.517	39.94
338.729	62.46
338.942	11.26
339.154	-91.13
339.367	48.13
339.579	78.85
339.792	-7.17
340.004	27.65
340.217	37.89
340.429	33.79
340.641	54.27
340.854	68.61
341.066	-21.5
341.278	76.8
341.491	44.03
341.703	54.27
341.915	-25.6
342.128	70.65
342.34	29.7
342.552	25.6
342.764	31.74
342.977	46.08
343.189	25.6
343.401	54.27
343.613	64.51
343.826	52.22
344.038	21.5
344.25	119.81
344.462	15.36
344.674	142.33
344.886	21.5
345.099	-17.41
345.311	82.94
345.523	41.98
345.735	44.03
345.947	48.13
346.159	29.7
346.371	29.7
346.583	17.41
346.795	62.46
347.007	84.99
347.219	48.13
347.431	21.5
347.643	33.79
347.855	46.08
348.067	66.56
348.279	107.52
348.491	44.03
348.703	-35.84
348.915	107.52
349.127	-15.36
349.339	58.37
349.551	46.08
349.763	70.65
349.975	44.03
350.187	76.8
350.399	62.46
350.61	87.04
350.822	11.26
351.034	-21.5
351.246	41.98
351.458	80.89
351.669	15.36
351.881	84.99
352.093	103.42
352.305	128
352.517	-7.17
352.728	56.32
352.94	46.08
353.152	41.98
353.363	29.7
353.575	60.42
353.787	109.57
353.999	33.79
354.21	62.46
354.422	95.23
354.633	-17.41
354.845	64.51
355.057	11.26
355.268	128
355.48	76.8
355.692	3.07
355.903	58.37
356.115	91.13
356.326	-23.55
356.538	72.7
356.749	19.46
356.961	70.65
357.172	-1.02
357.384	31.74
357.595	-9.22
357.807	-3.07
358.018	39.94
358.23	48.13
358.441	99.33
358.653	21.5
358.864	74.75
359.075	74.75
359.287	48.13
359.498	80.89
359.709	23.55
359.921	25.6
360.132	60.42
360.344	87.04
360.555	64.51
360.766	41.98
360.977	134.14
361.189	60.42
361.4	-41.98
361.611	44.03
361.823	-21.5
362.034	-1.02
362.245	50.18
362.456	54.27
362.667	58.37
362.879	11.26
363.09	50.18
363.301	105.47
363.512	-23.55
363.723	78.85
363.935	60.42
364.146	58.37
364.357	46.08
364.568	19.46
364.779	17.41
364.99	15.36
365.201	136.19
365.412	103.42
365.623	31.74
365.834	146.43
366.045	23.55
366.256	37.89
366.467	58.37
366.678	17.41
366.889	62.46
367.1	23.55
367.311	66.56
367.522	113.66
367.733	95.23
367.944	62.46
368.155	89.09
368.366	89.09
368.577	107.52
368.788	128
368.999	29.7
369.209	25.6
369.42	5.12
369.631	89.09
369.842	62.46
370.053	19.46
370.264	78.85
370.474	48.13
370.685	-33.79
370.896	13.31
371.107	-3.07
371.317	13.31
371.528	-1.02
371.739	46.08
371.95	87.04
372.16	58.37
372.371	68.61
372.582	33.79
372.792	97.28
373.003	31.74
373.214	-44.03
373.424	54.27
373.635	-19.46
373.846	76.8
374.056	23.55
374.267	64.51
374.477	74.75
374.688	46.08
374.898	-19.46
375.109	46.08
375.319	-5.12
375.53	105.47
375.74	64.51
375.951	35.84
376.161	50.18
376.372	13.31
376.582	25.6
376.793	35.84
377.003	41.98
377.214	31.74
377.424	54.27
377.635	5.12
377.845	48.13
378.055	78.85
378.266	11.26
378.476	33.79
378.686	35.84
378.897	62.46
379.107	25.6
379.317	99.33
379.528	1.02
379.738	99.33
379.948	78.85
380.158	72.7
380.369	72.7
380.579	70.65
380.789	44.03
380.999	27.65
381.21	37.89
381.42	101.37
381.63	76.8
381.84	58.37
382.05	37.89
382.261	-44.03
382.471	136.19
382.681	97.28
382.891	97.28
383.101	74.75
383.311	66.56
383.521	-33.79
383.731	70.65
383.941	48.13
384.151	68.61
384.361	152.57
384.571	97.28
384.781	39.94
384.991	-39.94
385.201	95.23
385.411	44.03
385.621	60.42
385.831	35.84
386.041	39.94
386.251	111.61
386.461	115.71
386.671	19.46
386.881	56.32
387.091	-35.84
387.301	46.08
387.511	9.22
387.72	21.5
387.93	54.27
388.14	58.37
388.35	60.42
388.56	89.09
388.769	44.03
388.979	95.23
389.189	-17.41
389.399	15.36
389.609	56.32
389.818	111.61
390.028	37.89
390.238	111.61
390.447	113.66
390.657	97.28
390.867	44.03
391.076	19.46
391.286	37.89
391.496	29.7
391.705	111.61
391.915	25.6
392.125	23.55
392.334	-19.46
392.544	44.03
392.753	128
392.963	70.65
393.172	140.29
393.382	56.32
393.591	60.42
393.801	113.66
394.01	46.08
394.22	56.32
394.429	50.18
394.639	68.61
394.848	101.37
395.058	78.85
395.267	66.56
395.477	54.27
395.686	123.9
395.895	80.89
396.105	105.47
396.314	82.94
396.524	54.27
396.733	35.84
396.942	91.13
397.152	1.02
397.361	101.37
397.57	76.8
397.78	144.38
397.989	105.47
398.198	121.85
398.407	175.1
398.617	64.51
398.826	78.85
399.035	48.13
399.244	66.56
399.453	101.37
399.663	19.46
399.872	60.42
400.081	87.04
400.29	82.94
400.499	113.66
400.708	142.33
400.917	50.18
401.127	74.75
401.336	27.65
401.545	95.23
401.754	130.05
401.963	107.52
402.172	130.05
402.381	99.33
402.59	78.85
402.799	95.23
403.008	138.24
403.217	78.85
403.426	37.89
403.635	97.28
403.844	82.94
404.053	48.13
404.262	89.09
404.471	146.43
404.68	87.04
404.888	89.09
405.097	142.33
405.306	109.57
405.515	121.85
405.724	115.71
405.933	168.96
406.142	95.23
406.35	132.09
406.559	82.94
406.768	113.66
406.977	156.67
407.185	117.76
407.394	93.18
407.603	117.76
407.812	142.33
408.02	156.67
408.229	189.44
408.438	31.74
408.646	158.72
408.855	150.53
409.064	238.59
409.272	220.16
409.481	211.96
409.69	193.53
409.898	230.4
410.107	244.73
410.315	175.1
410.524	218.11
410.733	201.72
410.941	224.25
411.15	216.06
411.358	281.6
411.567	248.83
411.775	271.36
411.984	250.88
412.192	205.82
412.401	263.16
412.609	273.4
412.818	287.74
413.026	248.83
413.234	375.8
413.443	332.79
413.651	330.75
413.86	402.43
414.068	330.75
414.276	406.52
414.485	365.56
414.693	367.61
414.901	422.91
415.11	429.05
415.318	349.18
415.526	541.69
415.734	427
415.943	400.38
416.151	429.05
416.359	517.11
416.567	549.88
416.776	482.3
416.984	613.37
417.192	625.65
417.4	670.71
417.608	633.85
417.817	646.13
418.025	613.37
418.233	652.28
418.441	642.04
418.649	642.04
418.857	736.24
419.065	742.39
419.273	748.53
419.481	801.78
419.689	848.88
419.897	850.93
420.105	814.07
420.313	816.12
420.521	891.89
420.729	1031.15
420.937	1016.82
421.145	984.05
421.353	1072.11
421.561	1131.5
421.769	1147.89
421.977	1139.69
422.185	1160.17
422.393	1221.61
422.601	1303.53
422.809	1362.92
423.017	1270.76
423.224	1309.68
423.432	1356.78
423.64	1522.66
423.848	1393.64
424.056	1528.81
424.263	1678.31
424.471	1489.9
424.679	1641.45
424.887	1741.8
425.094	1838.05
425.302	1823.72
425.51	1919.97
425.718	1846.24
425.925	1930.21
426.133	1999.84
426.341	2130.91
426.548	2214.88
426.756	2188.25
426.964	2300.89
427.171	2470.87
427.379	2378.72
427.586	2472.92
427.794	2591.7
428.001	2603.99
428.209	2780.12
428.417	2708.44
428.624	2933.72
428.832	2980.82
429.039	2900.95
429.247	2986.96
429.454	3249.1
429.662	3357.64
429.869	3226.57
430.076	3455.95
430.284	3421.13
430.491	3345.36
430.699	3638.22
430.906	3634.12
431.114	3711.94
431.321	3910.6
431.528	3863.49
431.736	4076.48
431.943	4350.91
432.15	4146.11
432.358	4359.1
432.565	4488.12
432.772	4408.25
432.979	4807.61
433.187	4791.22
433.394	4770.74
433.601	5184.43
433.808	5108.66
434.016	5094.32
434.223	5389.23
434.43	5600.17
434.637	5532.59
434.844	5962.66
435.052	5933.99
435.259	5868.45
435.466	5903.27
435.673	5933.99
435.88	6300.58
436.087	6724.51
436.294	6665.11
436.501	6587.29
436.708	6517.66
436.915	6931.35
437.122	7238.55
437.329	7170.96
437.537	7560.08
437.743	7689.1
437.95	7502.73
438.157	7949.19
438.364	8215.43
438.571	8180.61
438.778	8184.71
438.985	9048.95
439.192	8594.3
439.399	8715.13
439.606	8616.83
439.813	9425.78
440.02	9837.42
440.227	9745.26
440.433	9436.02
440.64	9831.27
440.847	9818.99
441.054	9866.09
441.261	10427.23
441.467	10503.01
441.674	10738.52
441.881	11258.71
442.088	11137.88
442.294	11297.62
442.501	11387.73
442.708	11434.83
442.914	12022.6
443.121	12784.44
443.328	12464.96
443.534	13187.89
443.741	12661.57
443.948	12706.62
444.154	13525.81
444.361	13400.88
444.568	13294.39
444.774	13726.51
444.981	13886.25
445.187	14123.82
445.394	14580.51
445.6	14408.48
445.807	15962.89
446.013	15299.35
446.22	15579.92
446.426	16173.83
446.633	16372.49
446.839	16913.15
447.046	16104.2
447.252	17244.92
447.459	17222.39
447.665	16986.88
447.871	17914.61
448.078	18801.38
448.284	17752.82
448.491	18234.09
448.697	18985.69
448.903	19092.19
449.11	19299.03
449.316	18930.4
449.522	19587.8
449.728	19880.66
449.935	20218.57
450.141	20142.8
450.347	20878.02
450.553	20159.18
450.76	20333.26
450.966	21142.21
451.172	20853.44
451.378	21074.62
451.584	20832.96
451.791	21564.09
451.997	21174.97
452.203	21957.3
452.409	21805.75
452.615	21613.24
452.821	21287.61
453.027	20937.41
453.233	21736.12
453.44	21033.66
453.646	21273.28
453.852	21533.37
454.058	21721.78
454.264	21076.67
454.47	21437.11
454.676	21084.86
454.882	21969.58
455.088	19708.63
455.294	19950.29
455.5	20452.04
455.705	20865.73
455.911	20013.77
456.117	19585.75
456.323	19165.92
456.529	18193.13
456.735	18795.23
456.941	18610.92
457.147	18125.55
457.352	17750.77
457.558	17926.89
457.764	17244.92
457.97	17259.26
458.176	16943.87
458.381	17281.78
458.587	15903.5
458.793	16161.55
458.999	15346.45
459.204	16286.47
459.41	15543.06
459.616	14650.14
459.821	14586.66
460.027	14707.49
460.233	14324.52
460.438	13878.06
460.644	13951.79
460.85	13153.08
461.055	13148.98
461.261	13085.5
461.466	12012.36
461.672	11840.33
461.878	12544.83
462.083	11699.02
462.289	11690.83
462.494	11420.5
462.7	10918.75
462.905	10779.48
463.111	10885.98
463.316	10773.34
463.522	10748.76
463.727	10840.92
463.932	10527.58
464.138	10541.92
464.343	10494.82
464.549	10339.17
464.754	10668.89
464.959	10595.17
465.165	10472.29
465.37	10122.09
465.575	9888.62
465.781	10259.3
465.986	10357.6
466.191	9837.42
466.397	9808.75
466.602	9376.62
466.807	9841.51
467.012	9751.4
467.218	9534.32
467.423	9558.89
467.628	9649
467.833	10025.83
468.038	9472.88
468.244	9202.55
468.449	9669.48
468.654	9423.73
468.859	9266.03
469.064	9345.91
469.269	9038.71
469.474	9010.04
