Data from USB4F104151__4__12-58-23-790.txt Node

Date: Fri Mar 14 12:58:23 EDT 2025
User: louis
Spectrometer: USB4F10415
Trigger mode: 4
Integration Time (sec): 1.000000E-2
Scans to average: 1
Electric dark correction enabled: true
Nonlinearity correction enabled: false
Boxcar width: 0
XAxis mode: Wavelengths
Number of Pixels in Spectrum: 3648
>>>>>Begin Spectral Data<<<<<
178.204	16.9
178.424	16.9
178.644	16.9
178.864	-26.11
179.084	-5.63
179.304	4.61
179.524	-11.78
179.744	8.7
179.964	-7.68
180.184	-60.93
180.404	31.23
180.624	31.23
180.844	-13.82
181.064	6.66
181.283	-7.68
181.503	20.99
181.723	-1.54
181.943	-9.73
182.163	55.81
182.383	47.62
182.602	64
182.822	2.56
183.042	-22.02
183.262	43.52
183.482	43.52
183.701	-19.97
183.921	47.62
184.141	2.56
184.361	45.57
184.58	-34.3
184.8	-28.16
185.02	8.7
185.239	-9.73
185.459	25.09
185.679	33.28
185.898	35.33
186.118	-13.82
186.338	78.33
186.557	57.86
186.777	37.38
186.997	31.23
187.216	23.04
187.436	37.38
187.655	47.62
187.875	-15.87
188.095	-9.73
188.314	66.05
188.534	-69.12
188.753	-42.5
188.973	35.33
189.192	0.51
189.412	-1.54
189.631	47.62
189.851	2.56
190.07	68.09
190.29	76.29
190.509	14.85
190.729	31.23
190.948	14.85
191.168	86.53
191.387	10.75
191.607	-1.54
191.826	55.81
192.045	-5.63
192.265	39.42
192.484	10.75
192.704	-58.88
192.923	25.09
193.142	10.75
193.362	25.09
193.581	23.04
193.8	23.04
194.02	64
194.239	18.94
194.458	68.09
194.678	131.58
194.897	35.33
195.116	4.61
195.335	47.62
195.555	0.51
195.774	-22.02
195.993	59.9
196.212	20.99
196.432	-44.54
196.651	27.14
196.87	68.09
197.089	23.04
197.308	29.18
197.528	53.76
197.747	-1.54
197.966	55.81
198.185	20.99
198.404	-26.11
198.623	14.85
198.842	57.86
199.062	14.85
199.281	2.56
199.5	66.05
199.719	74.24
199.938	55.81
200.157	82.43
200.376	6.66
200.595	-7.68
200.814	18.94
201.033	35.33
201.252	35.33
201.471	2.56
201.69	27.14
201.909	68.09
202.128	8.7
202.347	-1.54
202.566	-30.21
202.785	25.09
203.004	0.51
203.223	-38.4
203.442	12.8
203.661	47.62
203.879	35.33
204.098	94.72
204.317	35.33
204.536	39.42
204.755	6.66
204.974	-36.35
205.193	47.62
205.411	39.42
205.63	31.23
205.849	23.04
206.068	-9.73
206.287	27.14
206.505	-79.36
206.724	0.51
206.943	61.95
207.162	10.75
207.381	-30.21
207.599	68.09
207.818	20.99
208.037	92.67
208.255	66.05
208.474	39.42
208.693	20.99
208.911	12.8
209.13	6.66
209.349	-19.97
209.567	31.23
209.786	64
210.005	20.99
210.223	18.94
210.442	-19.97
210.661	41.47
210.879	49.66
211.098	43.52
211.316	57.86
211.535	31.23
211.753	2.56
211.972	12.8
212.191	45.57
212.409	12.8
212.628	25.09
212.846	47.62
213.065	70.14
213.283	94.72
213.502	20.99
213.72	12.8
213.938	49.66
214.157	27.14
214.375	57.86
214.594	2.56
214.812	10.75
215.031	2.56
215.249	-15.87
215.467	78.33
215.686	-19.97
215.904	47.62
216.122	-58.88
216.341	68.09
216.559	10.75
216.778	66.05
216.996	-11.78
217.214	12.8
217.432	-36.35
217.651	14.85
217.869	78.33
218.087	12.8
218.306	-7.68
218.524	25.09
218.742	8.7
218.96	-5.63
219.179	0.51
219.397	92.67
219.615	39.42
219.833	25.09
220.051	23.04
220.27	18.94
220.488	-17.92
220.706	-19.97
220.924	37.38
221.142	55.81
221.36	39.42
221.578	-30.21
221.796	-15.87
222.015	43.52
222.233	18.94
222.451	68.09
222.669	-24.06
222.887	51.71
223.105	49.66
223.323	41.47
223.541	-1.54
223.759	72.19
223.977	-1.54
224.195	55.81
224.413	31.23
224.631	51.71
224.849	37.38
225.067	41.47
225.285	49.66
225.503	39.42
225.721	39.42
225.939	57.86
226.157	-17.92
226.375	37.38
226.592	-7.68
226.81	6.66
227.028	-24.06
227.246	92.67
227.464	4.61
227.682	33.28
227.9	33.28
228.117	133.63
228.335	-22.02
228.553	31.23
228.771	31.23
228.989	-11.78
229.206	-11.78
229.424	20.99
229.642	12.8
229.86	90.62
230.077	76.29
230.295	-26.11
230.513	39.42
230.731	4.61
230.948	45.57
231.166	10.75
231.384	-60.93
231.601	33.28
231.819	70.14
232.037	47.62
232.254	-5.63
232.472	102.91
232.689	72.19
232.907	14.85
233.125	25.09
233.342	31.23
233.56	35.33
233.777	12.8
233.995	10.75
234.213	64
234.43	0.51
234.648	39.42
234.865	-52.74
235.083	33.28
235.3	104.96
235.518	61.95
235.735	61.95
235.953	94.72
236.17	35.33
236.388	39.42
236.605	55.81
236.822	37.38
237.04	74.24
237.257	49.66
237.475	20.99
237.692	72.19
237.909	31.23
238.127	49.66
238.344	-28.16
238.562	29.18
238.779	-26.11
238.996	49.66
239.214	2.56
239.431	23.04
239.648	20.99
239.865	8.7
240.083	59.9
240.3	-28.16
240.517	35.33
240.735	16.9
240.952	-50.69
241.169	86.53
241.386	20.99
241.603	43.52
241.821	39.42
242.038	64
242.255	-13.82
242.472	45.57
242.689	31.23
242.907	18.94
243.124	16.9
243.341	4.61
243.558	2.56
243.775	74.24
243.992	47.62
244.209	43.52
244.426	68.09
244.643	59.9
244.86	-1.54
245.078	37.38
245.295	4.61
245.512	0.51
245.729	82.43
245.946	6.66
246.163	-26.11
246.38	78.33
246.597	94.72
246.814	59.9
247.031	51.71
247.248	23.04
247.464	12.8
247.681	12.8
247.898	18.94
248.115	6.66
248.332	-34.3
248.549	59.9
248.766	-11.78
248.983	33.28
249.2	6.66
249.417	41.47
249.633	-13.82
249.85	-30.21
250.067	-24.06
250.284	-58.88
250.501	72.19
250.717	72.19
250.934	-1.54
251.151	14.85
251.368	51.71
251.585	64
251.801	31.23
252.018	51.71
252.235	82.43
252.451	-17.92
252.668	47.62
252.885	57.86
253.102	76.29
253.318	29.18
253.535	25.09
253.752	31.23
253.968	-1.54
254.185	27.14
254.401	-3.58
254.618	47.62
254.835	57.86
255.051	4.61
255.268	-28.16
255.484	47.62
255.701	-34.3
255.917	37.38
256.134	-9.73
256.351	23.04
256.567	25.09
256.784	51.71
257	-60.93
257.217	43.52
257.433	35.33
257.65	20.99
257.866	68.09
258.082	-11.78
258.299	59.9
258.515	23.04
258.732	-3.58
258.948	0.51
259.165	-44.54
259.381	35.33
259.597	2.56
259.814	92.67
260.03	-17.92
260.246	76.29
260.463	45.57
260.679	2.56
260.895	-15.87
261.112	51.71
261.328	47.62
261.544	31.23
261.761	37.38
261.977	4.61
262.193	0.51
262.409	68.09
262.626	14.85
262.842	47.62
263.058	-7.68
263.274	47.62
263.49	39.42
263.707	35.33
263.923	-19.97
264.139	-7.68
264.355	8.7
264.571	16.9
264.787	35.33
265.004	14.85
265.22	53.76
265.436	0.51
265.652	25.09
265.868	27.14
266.084	4.61
266.3	-13.82
266.516	27.14
266.732	61.95
266.948	47.62
267.164	-1.54
267.38	4.61
267.596	129.53
267.812	37.38
268.028	29.18
268.244	35.33
268.46	64
268.676	47.62
268.892	-11.78
269.108	14.85
269.324	12.8
269.54	23.04
269.756	25.09
269.972	10.75
270.188	27.14
270.403	-42.5
270.619	57.86
270.835	51.71
271.051	-24.06
271.267	-42.5
271.483	23.04
271.698	18.94
271.914	2.56
272.13	35.33
272.346	-7.68
272.562	49.66
272.777	66.05
272.993	-1.54
273.209	45.57
273.425	-17.92
273.64	109.05
273.856	41.47
274.072	49.66
274.287	14.85
274.503	43.52
274.719	-9.73
274.934	100.86
275.15	0.51
275.366	70.14
275.581	-7.68
275.797	-11.78
276.012	51.71
276.228	-1.54
276.444	35.33
276.659	92.67
276.875	27.14
277.09	-13.82
277.306	18.94
277.521	51.71
277.737	23.04
277.952	-17.92
278.168	-13.82
278.383	12.8
278.599	37.38
278.814	57.86
279.03	8.7
279.245	6.66
279.461	53.76
279.676	6.66
279.892	-40.45
280.107	-38.4
280.322	88.57
280.538	29.18
280.753	12.8
280.969	55.81
281.184	88.57
281.399	57.86
281.615	-5.63
281.83	43.52
282.045	27.14
282.26	20.99
282.476	12.8
282.691	96.77
282.906	53.76
283.122	49.66
283.337	-22.02
283.552	-7.68
283.767	-22.02
283.983	82.43
284.198	64
284.413	39.42
284.628	-15.87
284.843	33.28
285.058	8.7
285.274	90.62
285.489	16.9
285.704	68.09
285.919	55.81
286.134	29.18
286.349	49.66
286.564	70.14
286.779	-1.54
286.995	8.7
287.21	-15.87
287.425	27.14
287.64	23.04
287.855	-9.73
288.07	-3.58
288.285	-19.97
288.5	39.42
288.715	80.38
288.93	35.33
289.145	74.24
289.36	68.09
289.575	-34.3
289.79	12.8
290.004	53.76
290.219	10.75
290.434	37.38
290.649	20.99
290.864	-11.78
291.079	74.24
291.294	47.62
291.509	-3.58
291.724	18.94
291.938	8.7
292.153	72.19
292.368	8.7
292.583	39.42
292.798	49.66
293.012	43.52
293.227	35.33
293.442	49.66
293.657	43.52
293.871	92.67
294.086	31.23
294.301	12.8
294.516	96.77
294.73	-1.54
294.945	43.52
295.16	74.24
295.374	25.09
295.589	76.29
295.804	-17.92
296.018	88.57
296.233	8.7
296.447	55.81
296.662	8.7
296.877	18.94
297.091	-1.54
297.306	88.57
297.52	43.52
297.735	37.38
297.949	10.75
298.164	4.61
298.378	68.09
298.593	68.09
298.807	-7.68
299.022	-5.63
299.236	14.85
299.451	-3.58
299.665	2.56
299.88	25.09
300.094	47.62
300.309	59.9
300.523	107.01
300.737	80.38
300.952	-17.92
301.166	64
301.381	121.34
301.595	18.94
301.809	8.7
302.024	66.05
302.238	33.28
302.452	31.23
302.667	-24.06
302.881	51.71
303.095	76.29
303.309	-40.45
303.524	14.85
303.738	80.38
303.952	-79.36
304.166	20.99
304.381	66.05
304.595	20.99
304.809	2.56
305.023	-24.06
305.237	27.14
305.452	37.38
305.666	55.81
305.88	-1.54
306.094	39.42
306.308	31.23
306.522	33.28
306.736	-1.54
306.95	25.09
307.164	55.81
307.379	-9.73
307.593	57.86
307.807	-26.11
308.021	57.86
308.235	76.29
308.449	8.7
308.663	98.81
308.877	-32.26
309.091	88.57
309.305	20.99
309.519	2.56
309.733	2.56
309.947	6.66
310.161	14.85
310.374	35.33
310.588	127.49
310.802	55.81
311.016	6.66
311.23	35.33
311.444	90.62
311.658	96.77
311.872	16.9
312.085	-9.73
312.299	43.52
312.513	86.53
312.727	-3.58
312.941	64
313.154	25.09
313.368	-1.54
313.582	78.33
313.796	39.42
314.009	41.47
314.223	61.95
314.437	31.23
314.651	55.81
314.864	47.62
315.078	98.81
315.292	16.9
315.505	29.18
315.719	43.52
315.933	64
316.146	6.66
316.36	88.57
316.573	90.62
316.787	27.14
317.001	20.99
317.214	-24.06
317.428	53.76
317.641	39.42
317.855	-19.97
318.068	41.47
318.282	61.95
318.495	47.62
318.709	47.62
318.922	-24.06
319.136	29.18
319.349	74.24
319.563	96.77
319.776	43.52
319.99	6.66
320.203	47.62
320.417	0.51
320.63	10.75
320.843	35.33
321.057	-46.59
321.27	10.75
321.483	-26.11
321.697	92.67
321.91	14.85
322.124	59.9
322.337	-15.87
322.55	35.33
322.763	27.14
322.977	55.81
323.19	-54.78
323.403	-3.58
323.617	12.8
323.83	2.56
324.043	27.14
324.256	-26.11
324.469	107.01
324.683	35.33
324.896	-17.92
325.109	51.71
325.322	-11.78
325.535	119.29
325.748	10.75
325.962	51.71
326.175	-3.58
326.388	102.91
326.601	39.42
326.814	64
327.027	-3.58
327.24	49.66
327.453	94.72
327.666	59.9
327.879	20.99
328.092	0.51
328.305	-30.21
328.518	35.33
328.731	23.04
328.944	84.48
329.157	31.23
329.37	76.29
329.583	43.52
329.796	25.09
330.009	25.09
330.222	0.51
330.435	29.18
330.648	-15.87
330.861	98.81
331.073	6.66
331.286	18.94
331.499	20.99
331.712	31.23
331.925	23.04
332.138	53.76
332.35	74.24
332.563	41.47
332.776	-19.97
332.989	64
333.202	35.33
333.414	20.99
333.627	18.94
333.84	43.52
334.053	49.66
334.265	100.86
334.478	4.61
334.691	-7.68
334.903	-22.02
335.116	72.19
335.329	74.24
335.541	25.09
335.754	51.71
335.966	37.38
336.179	74.24
336.392	8.7
336.604	64
336.817	96.77
337.029	27.14
337.242	55.81
337.454	68.09
337.667	16.9
337.88	68.09
338.092	25.09
338.305	-15.87
338.517	55.81
338.729	86.53
338.942	68.09
339.154	2.56
339.367	16.9
339.579	12.8
339.792	6.66
340.004	74.24
340.217	74.24
340.429	74.24
340.641	-38.4
340.854	37.38
341.066	47.62
341.278	59.9
341.491	72.19
341.703	51.71
341.915	82.43
342.128	72.19
342.34	41.47
342.552	78.33
342.764	53.76
342.977	100.86
343.189	-1.54
343.401	82.43
343.613	20.99
343.826	20.99
344.038	16.9
344.25	23.04
344.462	-32.26
344.674	41.47
344.886	74.24
345.099	66.05
345.311	-30.21
345.523	-15.87
345.735	12.8
345.947	0.51
346.159	6.66
346.371	74.24
346.583	43.52
346.795	80.38
347.007	12.8
347.219	57.86
347.431	66.05
347.643	115.2
347.855	-17.92
348.067	66.05
348.279	12.8
348.491	14.85
348.703	92.67
348.915	41.47
349.127	10.75
349.339	31.23
349.551	-32.26
349.763	74.24
349.975	59.9
350.187	96.77
350.399	-19.97
350.61	53.76
350.822	57.86
351.034	53.76
351.246	53.76
351.458	8.7
351.669	20.99
351.881	45.57
352.093	47.62
352.305	98.81
352.517	23.04
352.728	47.62
352.94	31.23
353.152	-7.68
353.363	25.09
353.575	82.43
353.787	35.33
353.999	-32.26
354.21	51.71
354.422	27.14
354.633	121.34
354.845	20.99
355.057	43.52
355.268	31.23
355.48	25.09
355.692	98.81
355.903	51.71
356.115	16.9
356.326	23.04
356.538	66.05
356.749	35.33
356.961	18.94
357.172	59.9
357.384	16.9
357.595	31.23
357.807	25.09
358.018	55.81
358.23	76.29
358.441	43.52
358.653	111.1
358.864	2.56
359.075	57.86
359.287	10.75
359.498	37.38
359.709	64
359.921	51.71
360.132	123.39
360.344	-40.45
360.555	-1.54
360.766	123.39
360.977	-22.02
361.189	47.62
361.4	59.9
361.611	20.99
361.823	66.05
362.034	12.8
362.245	4.61
362.456	-34.3
362.667	33.28
362.879	47.62
363.09	27.14
363.301	-28.16
363.512	31.23
363.723	111.1
363.935	31.23
364.146	41.47
364.357	-83.45
364.568	92.67
364.779	16.9
364.99	39.42
365.201	70.14
365.412	4.61
365.623	72.19
365.834	64
366.045	39.42
366.256	47.62
366.467	10.75
366.678	16.9
366.889	66.05
367.1	25.09
367.311	57.86
367.522	72.19
367.733	-62.98
367.944	66.05
368.155	94.72
368.366	53.76
368.577	16.9
368.788	94.72
368.999	39.42
369.209	64
369.42	41.47
369.631	-26.11
369.842	51.71
370.053	33.28
370.264	88.57
370.474	33.28
370.685	27.14
370.896	39.42
371.107	53.76
371.317	49.66
371.528	39.42
371.739	37.38
371.95	123.39
372.16	16.9
372.371	35.33
372.582	41.47
372.792	61.95
373.003	51.71
373.214	8.7
373.424	12.8
373.635	59.9
373.846	82.43
374.056	25.09
374.267	-7.68
374.477	66.05
374.688	72.19
374.898	119.29
375.109	-28.16
375.319	4.61
375.53	8.7
375.74	49.66
375.951	143.87
376.161	39.42
376.372	18.94
376.582	12.8
376.793	43.52
377.003	-46.59
377.214	94.72
377.424	78.33
377.635	68.09
377.845	-28.16
378.055	66.05
378.266	64
378.476	-15.87
378.686	0.51
378.897	127.49
379.107	41.47
379.317	78.33
379.528	8.7
379.738	64
379.948	47.62
380.158	82.43
380.369	14.85
380.579	-28.16
380.789	66.05
380.999	33.28
381.21	33.28
381.42	96.77
381.63	102.91
381.84	96.77
382.05	18.94
382.261	70.14
382.471	94.72
382.681	23.04
382.891	-5.63
383.101	152.06
383.311	-7.68
383.521	29.18
383.731	84.48
383.941	66.05
384.151	16.9
384.361	14.85
384.571	76.29
384.781	74.24
384.991	88.57
385.201	74.24
385.411	-38.4
385.621	66.05
385.831	100.86
386.041	94.72
386.251	90.62
386.461	64
386.671	88.57
386.881	74.24
387.091	31.23
387.301	80.38
387.511	-5.63
387.72	2.56
387.93	94.72
388.14	80.38
388.35	25.09
388.56	41.47
388.769	2.56
388.979	6.66
389.189	45.57
389.399	82.43
389.609	76.29
389.818	68.09
390.028	43.52
390.238	84.48
390.447	84.48
390.657	27.14
390.867	-26.11
391.076	27.14
391.286	35.33
391.496	70.14
391.705	104.96
391.915	137.73
392.125	70.14
392.334	51.71
392.544	109.05
392.753	-3.58
392.963	47.62
393.172	92.67
393.382	74.24
393.591	121.34
393.801	59.9
394.01	131.58
394.22	104.96
394.429	31.23
394.639	68.09
394.848	147.97
395.058	104.96
395.267	-15.87
395.477	45.57
395.686	131.58
395.895	35.33
396.105	172.54
396.314	100.86
396.524	14.85
396.733	80.38
396.942	102.91
397.152	59.9
397.361	145.92
397.57	74.24
397.78	53.76
397.989	-9.73
398.198	90.62
398.407	117.25
398.617	47.62
398.826	74.24
399.035	49.66
399.244	80.38
399.453	72.19
399.663	14.85
399.872	41.47
400.081	96.77
400.29	94.72
400.499	57.86
400.708	131.58
400.917	68.09
401.127	78.33
401.336	51.71
401.545	86.53
401.754	90.62
401.963	59.9
402.172	100.86
402.381	141.82
402.59	104.96
402.799	96.77
403.008	123.39
403.217	86.53
403.426	84.48
403.635	127.49
403.844	78.33
404.053	125.44
404.262	61.95
404.471	80.38
404.68	133.63
404.888	145.92
405.097	82.43
405.306	131.58
405.515	152.06
405.724	92.67
405.933	190.97
406.142	150.01
406.35	174.59
406.559	160.25
406.768	119.29
406.977	96.77
407.185	160.25
407.394	203.26
407.603	135.68
407.812	139.77
408.02	240.12
408.229	219.64
408.438	205.31
408.646	236.03
408.855	195.07
409.064	219.64
409.272	260.6
409.481	166.4
409.69	221.69
409.898	233.98
410.107	309.76
410.315	229.88
410.524	244.22
410.733	270.84
410.941	262.65
411.15	383.48
411.358	283.13
411.567	326.14
411.775	340.47
411.984	326.14
412.192	324.09
412.401	399.87
412.609	287.23
412.818	387.58
413.026	336.38
413.234	354.81
413.443	446.97
413.651	432.63
413.86	473.59
414.068	530.94
414.276	461.3
414.485	489.98
414.693	494.07
414.901	600.57
415.11	530.94
415.318	575.99
415.526	608.76
415.734	616.95
415.943	633.33
416.151	596.47
416.359	725.49
416.567	631.29
416.776	754.16
416.984	702.97
417.192	801.27
417.4	707.06
417.608	801.27
417.817	877.04
418.025	874.99
418.233	948.72
418.441	834.04
418.649	973.3
418.857	973.3
419.065	997.87
419.273	995.82
419.481	1014.26
419.689	1128.94
419.897	1149.42
420.105	1137.13
420.313	1227.25
420.521	1227.25
420.729	1202.67
420.937	1262.06
421.145	1350.12
421.353	1282.54
421.561	1466.86
421.769	1454.57
421.977	1579.5
422.185	1542.63
422.393	1710.57
422.601	1825.25
422.809	1831.4
423.017	1731.05
423.224	1851.88
423.432	1972.71
423.64	1860.07
423.848	2015.71
424.056	2040.29
424.263	2208.22
424.471	2269.66
424.679	2122.21
424.887	2384.35
425.094	2435.55
425.302	2402.78
425.51	2591.19
425.718	2683.35
425.925	2699.73
426.133	2714.07
426.341	3000.79
426.548	2961.87
426.756	2972.11
426.964	3097.04
427.171	3295.69
427.379	3377.61
427.586	3451.34
427.794	3508.68
428.001	3649.99
428.209	3817.93
428.417	3652.04
428.624	3969.48
428.832	4096.45
429.039	3934.66
429.247	4006.34
429.454	4551.1
429.662	4512.19
429.869	4272.57
430.076	4587.96
430.284	4426.17
430.491	4567.48
430.699	4954.55
430.906	4964.79
431.114	5011.89
431.321	5116.34
431.528	5390.77
431.736	5765.54
431.943	5818.79
432.15	5769.64
432.358	5890.47
432.565	6089.12
432.772	6146.47
432.979	6578.59
433.187	6556.06
433.394	6482.33
433.601	7008.66
433.808	7023
434.016	6992.28
434.223	7332.24
434.43	7680.39
434.637	7532.94
434.844	8032.65
435.052	8288.64
435.259	8081.8
435.466	8006.02
435.673	8321.41
435.88	8636.8
436.087	9341.3
436.294	9277.81
436.501	8812.92
436.708	9140.6
436.915	9441.65
437.122	9912.68
437.329	9800.04
437.537	10090.85
437.743	10484.06
437.95	10191.2
438.157	10754.4
438.364	11258.2
438.571	11166.04
438.778	11178.33
438.985	12200.26
439.192	11712.85
439.399	12134.73
439.606	12058.95
439.813	12425.54
440.02	13220.15
440.227	13136.18
440.433	12994.87
440.64	13150.52
440.847	13261.11
441.054	13601.07
441.261	14567.71
441.467	14209.32
441.674	14657.82
441.881	14987.55
442.088	15067.42
442.294	15005.98
442.501	15325.46
442.708	15677.71
442.914	16361.73
443.121	17092.86
443.328	16324.87
443.534	18010.35
443.741	16986.36
443.948	16965.89
444.154	18473.19
444.361	18340.07
444.568	18391.27
444.774	18254.06
444.981	18434.28
445.187	18854.11
445.394	19945.68
445.6	19632.34
445.807	21465.27
446.013	20807.87
446.22	21002.43
446.426	21786.8
446.633	21868.72
446.839	22845.6
447.046	22243.5
447.252	23335.07
447.459	23394.46
447.665	23124.13
447.871	23959.7
448.078	25168
448.284	23996.56
448.491	24498.31
448.697	25690.23
448.903	26226.8
449.11	25882.74
449.316	25630.84
449.522	26278
449.728	26902.63
449.935	27332.7
450.141	27170.91
450.347	27869.27
450.553	27379.81
450.76	27271.26
450.966	28565.58
451.172	28031.06
451.378	28586.06
451.584	28121.17
451.791	28684.36
451.997	28704.84
452.203	29251.65
452.409	29265.99
452.615	28649.55
452.821	27963.48
453.027	27631.71
453.233	29245.51
453.44	28201.04
453.646	28647.5
453.852	28538.96
454.058	29112.39
454.264	28213.33
454.47	28708.94
454.676	28358.74
454.882	29042.76
455.088	26325.1
455.294	26863.72
455.5	27228.26
455.705	27410.53
455.911	26564.71
456.117	25925.75
456.323	25702.52
456.529	24230.03
456.735	25421.95
456.941	24658.06
457.147	24357
457.352	23765.14
457.558	23320.73
457.764	23543.96
457.97	22919.33
458.176	22421.67
458.381	22585.51
458.587	21588.15
458.793	21686.45
458.999	20338.89
459.204	21739.7
459.41	21254.33
459.616	19749.07
459.821	19562.71
460.027	19654.87
460.233	19296.47
460.438	18366.7
460.644	18608.36
460.85	17531.12
461.055	17287.42
461.261	17164.54
461.466	16093.45
461.672	15538.45
461.878	16556.29
462.083	15726.86
462.289	15030.55
462.494	15198.49
462.7	14375.2
462.905	13875.5
463.111	14858.53
463.316	14512.42
463.522	14301.48
463.727	14430.5
463.932	14190.89
464.138	14068.01
464.343	14160.17
464.549	13654.32
464.754	14154.02
464.959	13928.75
465.165	14223.65
465.37	13349.17
465.575	13154.62
465.781	13564.21
465.986	13789.49
466.191	13062.46
466.397	12943.67
466.602	12159.3
466.807	12874.04
467.012	12644.67
467.218	12613.95
467.423	12529.98
467.628	12771.65
467.833	13148.47
468.038	12765.5
468.244	12364.1
468.449	12595.52
468.654	12476.74
468.859	12290.37
469.064	12216.65
469.269	11637.07
469.474	11784.52
