Data from USB4F104151__99__13-00-16-458.txt Node

Date: Fri Mar 14 13:00:16 EDT 2025
User: louis
Spectrometer: USB4F10415
Trigger mode: 4
Integration Time (sec): 1.000000E-2
Scans to average: 1
Electric dark correction enabled: true
Nonlinearity correction enabled: false
Boxcar width: 0
XAxis mode: Wavelengths
Number of Pixels in Spectrum: 3648
>>>>>Begin Spectral Data<<<<<
178.204	-52.22
178.424	-52.22
178.644	-52.22
178.864	-58.37
179.084	-29.7
179.304	-56.32
179.524	-15.36
179.744	-17.41
179.964	29.7
180.184	31.74
180.404	1.02
180.624	11.26
180.844	-33.79
181.064	-25.6
181.283	60.42
181.503	7.17
181.723	7.17
181.943	-9.22
182.163	27.65
182.383	-7.17
182.602	-7.17
182.822	-17.41
183.042	31.74
183.262	-44.03
183.482	-66.56
183.701	-15.36
183.921	50.18
184.141	-3.07
184.361	-54.27
184.58	17.41
184.8	-56.32
185.02	-35.84
185.239	-44.03
185.459	-33.79
185.679	25.6
185.898	7.17
186.118	1.02
186.338	13.31
186.557	-1.02
186.777	-93.18
186.997	25.6
187.216	15.36
187.436	29.7
187.655	-44.03
187.875	15.36
188.095	15.36
188.314	7.17
188.534	33.79
188.753	19.46
188.973	64.51
189.192	103.42
189.412	-48.13
189.631	-9.22
189.851	11.26
190.07	60.42
190.29	23.55
190.509	-23.55
190.729	-33.79
190.948	-7.17
191.168	84.99
191.387	72.7
191.607	7.17
191.826	17.41
192.045	-27.65
192.265	-23.55
192.484	7.17
192.704	7.17
192.923	-93.18
193.142	7.17
193.362	-3.07
193.581	95.23
193.8	-17.41
194.02	52.22
194.239	-60.42
194.458	15.36
194.678	3.07
194.897	29.7
195.116	-15.36
195.335	-80.89
195.555	-7.17
195.774	9.22
195.993	-41.98
196.212	46.08
196.432	-17.41
196.651	44.03
196.87	-5.12
197.089	37.89
197.308	25.6
197.528	52.22
197.747	35.84
197.966	1.02
198.185	-1.02
198.404	-23.55
198.623	-15.36
198.842	44.03
199.062	11.26
199.281	60.42
199.5	-21.5
199.719	-9.22
199.938	29.7
200.157	7.17
200.376	-1.02
200.595	-72.7
200.814	56.32
201.033	29.7
201.252	-62.46
201.471	19.46
201.69	44.03
201.909	-31.74
202.128	-66.56
202.347	-9.22
202.566	23.55
202.785	31.74
203.004	-58.37
203.223	39.94
203.442	-23.55
203.661	15.36
203.879	-50.18
204.098	-5.12
204.317	37.89
204.536	19.46
204.755	48.13
204.974	-21.5
205.193	-58.37
205.411	52.22
205.63	19.46
205.849	-33.79
206.068	31.74
206.287	44.03
206.505	15.36
206.724	1.02
206.943	15.36
207.162	35.84
207.381	7.17
207.599	31.74
207.818	3.07
208.037	-25.6
208.255	1.02
208.474	13.31
208.693	-25.6
208.911	-7.17
209.13	101.37
209.349	-50.18
209.567	72.7
209.786	1.02
210.005	1.02
210.223	-5.12
210.442	-21.5
210.661	-70.65
210.879	-17.41
211.098	-1.02
211.316	-1.02
211.535	-9.22
211.753	-58.37
211.972	-64.51
212.191	-31.74
212.409	-52.22
212.628	-21.5
212.846	35.84
213.065	1.02
213.283	72.7
213.502	-87.04
213.72	5.12
213.938	1.02
214.157	-27.65
214.375	23.55
214.594	-48.13
214.812	21.5
215.031	-60.42
215.249	-1.02
215.467	25.6
215.686	64.51
215.904	15.36
216.122	-70.65
216.341	-1.02
216.559	-7.17
216.778	54.27
216.996	-9.22
217.214	44.03
217.432	-39.94
217.651	-33.79
217.869	11.26
218.087	1.02
218.306	-39.94
218.524	-48.13
218.742	-13.31
218.96	15.36
219.179	15.36
219.397	11.26
219.615	33.79
219.833	-70.65
220.051	-76.8
220.27	78.85
220.488	-19.46
220.706	9.22
220.924	-37.89
221.142	60.42
221.36	7.17
221.578	-33.79
221.796	-19.46
222.015	23.55
222.233	64.51
222.451	44.03
222.669	21.5
222.887	58.37
223.105	-56.32
223.323	-1.02
223.541	-33.79
223.759	23.55
223.977	11.26
224.195	25.6
224.413	-21.5
224.631	19.46
224.849	52.22
225.067	70.65
225.285	9.22
225.503	-46.08
225.721	11.26
225.939	-1.02
226.157	13.31
226.375	-13.31
226.592	7.17
226.81	-3.07
227.028	-52.22
227.246	23.55
227.464	-15.36
227.682	-3.07
227.9	39.94
228.117	29.7
228.335	-23.55
228.553	-25.6
228.771	31.74
228.989	-11.26
229.206	-3.07
229.424	-50.18
229.642	29.7
229.86	-62.46
230.077	-7.17
230.295	15.36
230.513	17.41
230.731	58.37
230.948	-7.17
231.166	-9.22
231.384	50.18
231.601	91.13
231.819	101.37
232.037	21.5
232.254	7.17
232.472	-9.22
232.689	33.79
232.907	21.5
233.125	-39.94
233.342	-66.56
233.56	5.12
233.777	97.28
233.995	9.22
234.213	50.18
234.43	1.02
234.648	-3.07
234.865	-80.89
235.083	9.22
235.3	-5.12
235.518	19.46
235.735	-17.41
235.953	23.55
236.17	-5.12
236.388	7.17
236.605	31.74
236.822	44.03
237.04	37.89
237.257	-11.26
237.475	-1.02
237.692	-15.36
237.909	54.27
238.127	13.31
238.344	-15.36
238.562	93.18
238.779	13.31
238.996	-35.84
239.214	5.12
239.431	56.32
239.648	1.02
239.865	17.41
240.083	-19.46
240.3	56.32
240.517	11.26
240.735	35.84
240.952	48.13
241.169	39.94
241.386	56.32
241.603	3.07
241.821	-52.22
242.038	15.36
242.255	-3.07
242.472	-19.46
242.689	-37.89
242.907	72.7
243.124	-58.37
243.341	-5.12
243.558	60.42
243.775	-64.51
243.992	23.55
244.209	-50.18
244.426	-7.17
244.643	-9.22
244.86	3.07
245.078	-11.26
245.295	74.75
245.512	15.36
245.729	-72.7
245.946	-58.37
246.163	9.22
246.38	107.52
246.597	-39.94
246.814	33.79
247.031	1.02
247.248	-35.84
247.464	-5.12
247.681	1.02
247.898	-9.22
248.115	7.17
248.332	-3.07
248.549	7.17
248.766	31.74
248.983	-21.5
249.2	-1.02
249.417	66.56
249.633	-29.7
249.85	27.65
250.067	7.17
250.284	39.94
250.501	50.18
250.717	25.6
250.934	17.41
251.151	11.26
251.368	-11.26
251.585	21.5
251.801	25.6
252.018	-62.46
252.235	-48.13
252.451	25.6
252.668	11.26
252.885	3.07
253.102	66.56
253.318	56.32
253.535	-5.12
253.752	1.02
253.968	13.31
254.185	11.26
254.401	-29.7
254.618	99.33
254.835	-29.7
255.051	-5.12
255.268	-84.99
255.484	29.7
255.701	41.98
255.917	50.18
256.134	-78.85
256.351	9.22
256.567	-17.41
256.784	39.94
257	52.22
257.217	52.22
257.433	27.65
257.65	-5.12
257.866	-56.32
258.082	-23.55
258.299	-35.84
258.515	13.31
258.732	-68.61
258.948	60.42
259.165	-25.6
259.381	17.41
259.597	31.74
259.814	-25.6
260.03	21.5
260.246	-78.85
260.463	7.17
260.679	31.74
260.895	31.74
261.112	7.17
261.328	23.55
261.544	9.22
261.761	72.7
261.977	56.32
262.193	1.02
262.409	11.26
262.626	-19.46
262.842	-25.6
263.058	-39.94
263.274	48.13
263.49	-15.36
263.707	48.13
263.923	58.37
264.139	-29.7
264.355	-89.09
264.571	-15.36
264.787	13.31
265.004	41.98
265.22	-5.12
265.436	-19.46
265.652	21.5
265.868	15.36
266.084	-23.55
266.3	46.08
266.516	19.46
266.732	-37.89
266.948	-78.85
267.164	27.65
267.38	23.55
267.596	-27.65
267.812	29.7
268.028	-9.22
268.244	-56.32
268.46	5.12
268.676	39.94
268.892	-39.94
269.108	-27.65
269.324	-21.5
269.54	41.98
269.756	82.94
269.972	-84.99
270.188	23.55
270.403	35.84
270.619	17.41
270.835	-21.5
271.051	41.98
271.267	15.36
271.483	-31.74
271.698	-60.42
271.914	33.79
272.13	3.07
272.346	-27.65
272.562	-15.36
272.777	15.36
272.993	-15.36
273.209	15.36
273.425	-17.41
273.64	-80.89
273.856	-64.51
274.072	68.61
274.287	-23.55
274.503	52.22
274.719	-23.55
274.934	31.74
275.15	7.17
275.366	-1.02
275.581	-31.74
275.797	89.09
276.012	21.5
276.228	3.07
276.444	-29.7
276.659	15.36
276.875	31.74
277.09	-19.46
277.306	35.84
277.521	27.65
277.737	-13.31
277.952	103.42
278.168	17.41
278.383	44.03
278.599	-82.94
278.814	-5.12
279.03	17.41
279.245	70.65
279.461	7.17
279.676	33.79
279.892	-35.84
280.107	15.36
280.322	11.26
280.538	19.46
280.753	-21.5
280.969	-50.18
281.184	3.07
281.399	87.04
281.615	-3.07
281.83	37.89
282.045	-13.31
282.26	119.81
282.476	48.13
282.691	39.94
282.906	54.27
283.122	3.07
283.337	-3.07
283.552	1.02
283.767	-1.02
283.983	9.22
284.198	-25.6
284.413	-15.36
284.628	19.46
284.843	-11.26
285.058	7.17
285.274	80.89
285.489	-25.6
285.704	15.36
285.919	-1.02
286.134	7.17
286.349	-25.6
286.564	35.84
286.779	-5.12
286.995	64.51
287.21	-3.07
287.425	-9.22
287.64	29.7
287.855	-5.12
288.07	-11.26
288.285	31.74
288.5	44.03
288.715	-25.6
288.93	9.22
289.145	7.17
289.36	-29.7
289.575	44.03
289.79	123.9
290.004	15.36
290.219	-5.12
290.434	35.84
290.649	1.02
290.864	9.22
291.079	-15.36
291.294	29.7
291.509	-9.22
291.724	13.31
291.938	-41.98
292.153	17.41
292.368	-33.79
292.583	-52.22
292.798	93.18
293.012	-21.5
293.227	-15.36
293.442	33.79
293.657	29.7
293.871	-21.5
294.086	-27.65
294.301	109.57
294.516	48.13
294.73	13.31
294.945	-62.46
295.16	62.46
295.374	72.7
295.589	-15.36
295.804	-5.12
296.018	31.74
296.233	11.26
296.447	-7.17
296.662	9.22
296.877	35.84
297.091	19.46
297.306	21.5
297.52	-29.7
297.735	54.27
297.949	-64.51
298.164	-1.02
298.378	11.26
298.593	46.08
298.807	-23.55
299.022	35.84
299.236	48.13
299.451	-17.41
299.665	5.12
299.88	15.36
300.094	76.8
300.309	-29.7
300.523	25.6
300.737	23.55
300.952	-9.22
301.166	-1.02
301.381	54.27
301.595	31.74
301.809	41.98
302.024	52.22
302.238	-13.31
302.452	-1.02
302.667	-1.02
302.881	56.32
303.095	-5.12
303.309	15.36
303.524	9.22
303.738	-23.55
303.952	-5.12
304.166	33.79
304.381	48.13
304.595	54.27
304.809	-21.5
305.023	9.22
305.237	29.7
305.452	54.27
305.666	-41.98
305.88	11.26
306.094	39.94
306.308	-58.37
306.522	-15.36
306.736	58.37
306.95	33.79
307.164	64.51
307.379	-21.5
307.593	-37.89
307.807	-9.22
308.021	66.56
308.235	27.65
308.449	-29.7
308.663	-25.6
308.877	50.18
309.091	-31.74
309.305	-91.13
309.519	76.8
309.733	33.79
309.947	-21.5
310.161	17.41
310.374	-31.74
310.588	23.55
310.802	-7.17
311.016	-13.31
311.23	23.55
311.444	48.13
311.658	-23.55
311.872	17.41
312.085	-66.56
312.299	31.74
312.513	64.51
312.727	31.74
312.941	11.26
313.154	-9.22
313.368	13.31
313.582	-25.6
313.796	29.7
314.009	7.17
314.223	-13.31
314.437	23.55
314.651	1.02
314.864	3.07
315.078	-9.22
315.292	19.46
315.505	15.36
315.719	-25.6
315.933	-37.89
316.146	-13.31
316.36	-9.22
316.573	-25.6
316.787	-15.36
317.001	-27.65
317.214	33.79
317.428	11.26
317.641	-13.31
317.855	-41.98
318.068	29.7
318.282	-13.31
318.495	13.31
318.709	-3.07
318.922	-1.02
319.136	-23.55
319.349	23.55
319.563	-17.41
319.776	64.51
319.99	-72.7
320.203	46.08
320.417	39.94
320.63	39.94
320.843	68.61
321.057	11.26
321.27	15.36
321.483	17.41
321.697	41.98
321.91	27.65
322.124	23.55
322.337	-54.27
322.55	-17.41
322.763	-5.12
322.977	-15.36
323.19	-25.6
323.403	-17.41
323.617	62.46
323.83	44.03
324.043	-9.22
324.256	9.22
324.469	41.98
324.683	52.22
324.896	-1.02
325.109	21.5
325.322	25.6
325.535	25.6
325.748	-33.79
325.962	-29.7
326.175	-23.55
326.388	-44.03
326.601	-9.22
326.814	5.12
327.027	46.08
327.24	1.02
327.453	-41.98
327.666	50.18
327.879	115.71
328.092	-31.74
328.305	-29.7
328.518	19.46
328.731	19.46
328.944	7.17
329.157	15.36
329.37	37.89
329.583	-9.22
329.796	-7.17
330.009	23.55
330.222	13.31
330.435	7.17
330.648	60.42
330.861	-21.5
331.073	11.26
331.286	-58.37
331.499	23.55
331.712	31.74
331.925	44.03
332.138	-1.02
332.35	15.36
332.563	-19.46
332.776	-7.17
332.989	5.12
333.202	56.32
333.414	68.61
333.627	-48.13
333.84	-9.22
334.053	-9.22
334.265	7.17
334.478	23.55
334.691	1.02
334.903	-54.27
335.116	33.79
335.329	23.55
335.541	-39.94
335.754	35.84
335.966	7.17
336.179	13.31
336.392	-33.79
336.604	-31.74
336.817	-15.36
337.029	-25.6
337.242	33.79
337.454	82.94
337.667	-5.12
337.88	5.12
338.092	17.41
338.305	82.94
338.517	31.74
338.729	-11.26
338.942	7.17
339.154	62.46
339.367	-25.6
339.579	56.32
339.792	11.26
340.004	-31.74
340.217	21.5
340.429	-15.36
340.641	62.46
340.854	89.09
341.066	-7.17
341.278	35.84
341.491	56.32
341.703	-13.31
341.915	-9.22
342.128	62.46
342.34	46.08
342.552	148.48
342.764	31.74
342.977	13.31
343.189	27.65
343.401	-23.55
343.613	-64.51
343.826	15.36
344.038	11.26
344.25	7.17
344.462	80.89
344.674	-21.5
344.886	48.13
345.099	-1.02
345.311	-33.79
345.523	-9.22
345.735	-9.22
345.947	64.51
346.159	68.61
346.371	-9.22
346.583	39.94
346.795	52.22
347.007	-3.07
347.219	9.22
347.431	-23.55
347.643	23.55
347.855	-19.46
348.067	76.8
348.279	25.6
348.491	-37.89
348.703	3.07
348.915	72.7
349.127	-74.75
349.339	56.32
349.551	39.94
349.763	37.89
349.975	-1.02
350.187	89.09
350.399	15.36
350.61	7.17
350.822	19.46
351.034	-17.41
351.246	33.79
351.458	13.31
351.669	-21.5
351.881	1.02
352.093	5.12
352.305	1.02
352.517	-44.03
352.728	41.98
352.94	-48.13
353.152	52.22
353.363	7.17
353.575	-9.22
353.787	29.7
353.999	7.17
354.21	-29.7
354.422	68.61
354.633	-15.36
354.845	7.17
355.057	66.56
355.268	21.5
355.48	15.36
355.692	15.36
355.903	17.41
356.115	-9.22
356.326	50.18
356.538	3.07
356.749	72.7
356.961	-5.12
357.172	-19.46
357.384	-46.08
357.595	-13.31
357.807	-9.22
358.018	15.36
358.23	56.32
358.441	15.36
358.653	60.42
358.864	25.6
359.075	31.74
359.287	-60.42
359.498	11.26
359.709	15.36
359.921	-1.02
360.132	29.7
360.344	66.56
360.555	3.07
360.766	21.5
360.977	1.02
361.189	-15.36
361.4	5.12
361.611	9.22
361.823	-44.03
362.034	80.89
362.245	15.36
362.456	54.27
362.667	58.37
362.879	-1.02
363.09	58.37
363.301	87.04
363.512	19.46
363.723	-15.36
363.935	1.02
364.146	-41.98
364.357	-66.56
364.568	76.8
364.779	-7.17
364.99	-9.22
365.201	44.03
365.412	84.99
365.623	-17.41
365.834	-41.98
366.045	35.84
366.256	-15.36
366.467	9.22
366.678	35.84
366.889	50.18
367.1	31.74
367.311	-41.98
367.522	33.79
367.733	-1.02
367.944	-5.12
368.155	-7.17
368.366	44.03
368.577	-17.41
368.788	39.94
368.999	-9.22
369.209	46.08
369.42	50.18
369.631	1.02
369.842	31.74
370.053	19.46
370.264	29.7
370.474	17.41
370.685	27.65
370.896	39.94
371.107	3.07
371.317	39.94
371.528	-3.07
371.739	80.89
371.95	15.36
372.16	23.55
372.371	3.07
372.582	-7.17
372.792	56.32
373.003	60.42
373.214	9.22
373.424	66.56
373.635	-44.03
373.846	41.98
374.056	-31.74
374.267	-5.12
374.477	3.07
374.688	-7.17
374.898	31.74
375.109	-21.5
375.319	37.89
375.53	70.65
375.74	48.13
375.951	56.32
376.161	-39.94
376.372	1.02
376.582	-9.22
376.793	39.94
377.003	25.6
377.214	15.36
377.424	-13.31
377.635	48.13
377.845	-1.02
378.055	70.65
378.266	-15.36
378.476	46.08
378.686	-48.13
378.897	-60.42
379.107	5.12
379.317	11.26
379.528	-54.27
379.738	39.94
379.948	44.03
380.158	7.17
380.369	70.65
380.579	27.65
380.789	-99.33
380.999	25.6
381.21	-15.36
381.42	33.79
381.63	37.89
381.84	76.8
382.05	-17.41
382.261	-41.98
382.471	17.41
382.681	21.5
382.891	58.37
383.101	15.36
383.311	44.03
383.521	41.98
383.731	9.22
383.941	25.6
384.151	31.74
384.361	82.94
384.571	39.94
384.781	56.32
384.991	13.31
385.201	105.47
385.411	7.17
385.621	29.7
385.831	-15.36
386.041	27.65
386.251	21.5
386.461	117.76
386.671	15.36
386.881	-17.41
387.091	33.79
387.301	64.51
387.511	17.41
387.72	37.89
387.93	-3.07
388.14	-1.02
388.35	39.94
388.56	37.89
388.769	3.07
388.979	-37.89
389.189	35.84
389.399	-25.6
389.609	97.28
389.818	13.31
390.028	31.74
390.238	-25.6
390.447	35.84
390.657	35.84
390.867	-31.74
391.076	97.28
391.286	-35.84
391.496	41.98
391.705	1.02
391.915	33.79
392.125	29.7
392.334	-15.36
392.544	-31.74
392.753	27.65
392.963	27.65
393.172	52.22
393.382	-60.42
393.591	82.94
393.801	76.8
394.01	31.74
394.22	-1.02
394.429	-17.41
394.639	76.8
394.848	1.02
395.058	-33.79
395.267	54.27
395.477	-17.41
395.686	27.65
395.895	76.8
396.105	9.22
396.314	68.61
396.524	17.41
396.733	13.31
396.942	80.89
397.152	17.41
397.361	15.36
397.57	13.31
397.78	91.13
397.989	37.89
398.198	27.65
398.407	60.42
398.617	50.18
398.826	60.42
399.035	33.79
399.244	35.84
399.453	31.74
399.663	78.85
399.872	-25.6
400.081	54.27
400.29	50.18
400.499	23.55
400.708	35.84
400.917	-60.42
401.127	113.66
401.336	31.74
401.545	113.66
401.754	115.71
401.963	27.65
402.172	-1.02
402.381	-1.02
402.59	78.85
402.799	109.57
403.008	17.41
403.217	1.02
403.426	68.61
403.635	-50.18
403.844	52.22
404.053	19.46
404.262	74.75
404.471	117.76
404.68	15.36
404.888	115.71
405.097	87.04
405.306	93.18
405.515	115.71
405.724	17.41
405.933	33.79
406.142	111.61
406.35	70.65
406.559	91.13
406.768	121.85
406.977	103.42
407.185	76.8
407.394	89.09
407.603	74.75
407.812	128
408.02	62.46
408.229	87.04
408.438	93.18
408.646	115.71
408.855	52.22
409.064	119.81
409.272	109.57
409.481	91.13
409.69	44.03
409.898	197.63
410.107	107.52
410.315	119.81
410.524	140.29
410.733	103.42
410.941	29.7
411.15	226.3
411.358	74.75
411.567	109.57
411.775	207.87
411.984	148.48
412.192	197.63
412.401	164.86
412.609	125.95
412.818	263.16
413.026	218.11
413.234	166.91
413.443	259.07
413.651	207.87
413.86	158.72
414.068	228.35
414.276	240.64
414.485	291.84
414.693	226.3
414.901	271.36
415.11	338.94
415.318	300.03
415.526	310.27
415.734	340.99
415.943	220.16
416.151	340.99
416.359	293.88
416.567	334.84
416.776	316.41
416.984	379.9
417.192	416.76
417.4	433.15
417.608	455.67
417.817	441.34
418.025	443.39
418.233	506.87
418.441	474.1
418.649	431.1
418.857	506.87
419.065	570.36
419.273	599.03
419.481	678.9
419.689	623.61
419.897	592.89
420.105	566.26
420.313	588.79
420.521	633.85
420.729	674.81
420.937	656.37
421.145	771.06
421.353	789.49
421.561	787.44
421.769	881.65
421.977	789.49
422.185	668.66
422.393	867.31
422.601	916.47
422.809	918.51
423.017	969.71
423.224	910.32
423.432	953.33
423.64	1131.5
423.848	1149.93
424.056	1088.5
424.263	1104.88
424.471	1227.76
424.679	1137.65
424.887	1223.66
425.094	1278.96
425.302	1332.2
425.51	1487.85
425.718	1412.07
425.925	1381.35
426.133	1594.34
426.341	1557.48
426.548	1557.48
426.756	1659.88
426.964	1620.97
427.171	1598.44
427.379	1833.96
427.586	1827.81
427.794	1897.44
428.001	1973.22
428.209	2061.28
428.417	2079.71
428.624	2198.49
428.832	2128.86
429.039	2231.26
429.247	2116.58
429.454	2434.01
429.662	2425.82
429.869	2382.81
430.076	2575.32
430.284	2339.8
430.491	2528.22
430.699	2698.2
430.906	2722.77
431.114	2796.5
431.321	2792.41
431.528	3025.87
431.736	2937.81
431.943	3152.85
432.15	3132.37
432.358	3009.49
432.565	3261.39
432.772	3210.19
432.979	3470.28
433.187	3548.11
433.394	3580.87
433.601	3883.97
433.808	3824.58
434.016	3820.49
434.223	3845.06
434.43	4170.69
434.637	4058.05
434.844	4430.78
435.052	4453.31
435.259	4445.12
435.466	4486.08
435.673	4467.64
435.88	4686.78
436.087	4895.67
436.294	4783.03
436.501	4799.41
436.708	5000.12
436.915	5055.41
437.122	5309.36
437.329	5323.69
437.537	5444.52
437.743	5663.66
437.95	5489.58
438.157	5721
438.364	6081.44
438.571	6106.02
438.778	6077.35
438.985	6493.08
439.192	6271.9
439.399	6497.18
439.606	6470.56
439.813	6749.08
440.02	7152.53
440.227	7099.28
440.433	7058.32
440.64	7345.04
440.847	7170.96
441.054	7318.42
441.261	7881.61
441.467	7701.39
441.674	7838.6
441.881	8192.9
442.088	8174.47
442.294	8049.54
442.501	8160.13
442.708	8500.09
442.914	8854.39
443.121	9247.6
443.328	8852.34
443.534	9571.18
443.741	9237.36
443.948	9065.33
444.154	9845.61
444.361	9919.34
444.568	10062.69
444.774	9857.9
444.981	10083.17
445.187	10490.72
445.394	10834.78
445.6	10695.52
445.807	11782.99
446.013	11588.43
446.22	11473.74
446.426	11699.02
446.633	12032.84
446.839	12385.09
447.046	11899.72
447.252	12663.61
447.459	12389.19
447.665	12616.51
447.871	13257.53
448.078	13691.7
448.284	13151.03
448.491	13519.67
448.697	14072.62
448.903	14172.97
449.11	14275.37
449.316	14146.34
449.522	14408.48
449.728	14871.33
449.935	14768.93
450.141	14750.49
450.347	15317.78
450.553	14621.47
450.76	15115.03
450.966	15606.55
451.172	15366.93
451.378	15647.51
451.584	15618.83
451.791	16016.14
451.997	16079.63
452.203	16055.05
452.409	15950.6
452.615	15813.39
452.821	15315.73
453.027	15239.96
453.233	16147.21
453.44	15334.17
453.646	15504.15
453.852	15770.38
454.058	16139.02
454.264	15299.35
454.47	15866.64
454.676	15608.59
454.882	16100.11
455.088	14320.42
455.294	14641.95
455.5	15033.11
455.705	15117.08
455.911	14654.24
456.117	14541.6
456.323	14166.82
456.529	13398.84
456.735	14179.11
456.941	13615.92
457.147	13294.39
457.352	13179.7
457.558	12835.64
457.764	13108.02
457.97	12548.93
458.176	12587.84
458.381	12483.39
458.587	11776.84
458.793	11826
458.999	11103.06
459.204	12073.8
459.41	11512.66
459.616	10955.61
459.821	10779.48
460.027	10732.38
460.233	10556.25
460.438	10087.27
460.644	10146.66
460.85	9610.09
461.055	9597.81
461.261	9503.6
461.466	8811.39
461.672	8629.12
461.878	9061.24
462.083	8473.47
462.289	8305.54
462.494	8532.86
462.7	7789.45
462.905	7852.94
463.111	7916.42
463.316	8063.88
463.522	7867.27
463.727	7955.33
463.932	7787.4
464.138	7883.66
464.343	7621.52
464.549	7707.53
464.754	7844.74
464.959	7930.76
465.165	7543.69
465.37	7326.61
465.575	7320.46
465.781	7498.64
465.986	7373.71
466.191	7297.94
466.397	7089.04
466.602	6665.11
466.807	7240.59
467.012	7029.65
467.218	7023.51
467.423	7087
467.628	7027.6
467.833	7297.94
468.038	6982.55
468.244	6943.64
468.449	7076.76
468.654	6851.48
468.859	6906.77
469.064	6607.77
