Data from USB4F104151__104__13-00-27-037.txt Node

Date: Fri Mar 14 13:00:27 EDT 2025
User: louis
Spectrometer: USB4F10415
Trigger mode: 4
Integration Time (sec): 1.000000E-2
Scans to average: 1
Electric dark correction enabled: true
Nonlinearity correction enabled: false
Boxcar width: 0
XAxis mode: Wavelengths
Number of Pixels in Spectrum: 3648
>>>>>Begin Spectral Data<<<<<
178.204	-87.38
178.424	-87.38
178.644	-87.38
178.864	17.07
179.084	-34.13
179.304	-9.56
179.524	-25.94
179.744	35.5
179.964	-27.99
180.184	-36.18
180.404	33.45
180.624	-21.85
180.844	-32.08
181.064	-19.8
181.283	-25.94
181.503	60.07
181.723	70.31
181.943	-13.65
182.163	41.64
182.383	-7.51
182.602	33.45
182.822	25.26
183.042	-46.42
183.262	33.45
183.482	-40.28
183.701	41.64
183.921	-48.47
184.141	33.45
184.361	27.31
184.58	70.31
184.8	-1.37
185.02	23.21
185.239	64.17
185.459	76.46
185.679	62.12
185.898	6.83
186.118	31.4
186.338	43.69
186.557	39.59
186.777	-11.61
186.997	47.79
187.216	39.59
187.436	31.4
187.655	-19.8
187.875	68.27
188.095	15.02
188.314	55.98
188.534	72.36
188.753	-5.46
188.973	64.17
189.192	-27.99
189.412	-9.56
189.631	41.64
189.851	51.88
190.07	60.07
190.29	-75.09
190.509	51.88
190.729	33.45
190.948	51.88
191.168	88.75
191.387	-23.89
191.607	90.79
191.826	19.11
192.045	55.98
192.265	41.64
192.484	33.45
192.704	80.55
192.923	-15.7
193.142	49.83
193.362	2.73
193.581	64.17
193.8	6.83
194.02	25.26
194.239	-1.37
194.458	15.02
194.678	-40.28
194.897	-1.37
195.116	72.36
195.335	8.87
195.555	-52.56
195.774	6.83
195.993	55.98
196.212	15.02
196.432	-15.7
196.651	-40.28
196.87	-1.37
197.089	45.74
197.308	94.89
197.528	15.02
197.747	-17.75
197.966	-25.94
198.185	74.41
198.404	-64.85
198.623	-17.75
198.842	31.4
199.062	-27.99
199.281	37.55
199.5	4.78
199.719	49.83
199.938	53.93
200.157	31.4
200.376	-34.13
200.595	21.16
200.814	60.07
201.033	-17.75
201.252	-48.47
201.471	8.87
201.69	4.78
201.909	62.12
202.128	-32.08
202.347	25.26
202.566	-13.65
202.785	12.97
203.004	23.21
203.223	6.83
203.442	4.78
203.661	-32.08
203.879	29.35
204.098	-23.89
204.317	-19.8
204.536	58.03
204.755	41.64
204.974	8.87
205.193	37.55
205.411	119.46
205.63	19.11
205.849	0.68
206.068	17.07
206.287	31.4
206.505	-46.42
206.724	-75.09
206.943	29.35
207.162	29.35
207.381	12.97
207.599	6.83
207.818	33.45
208.037	29.35
208.255	-34.13
208.474	68.27
208.693	-42.32
208.911	76.46
209.13	-15.7
209.349	8.87
209.567	53.93
209.786	70.31
210.005	60.07
210.223	-19.8
210.442	62.12
210.661	51.88
210.879	8.87
211.098	-1.37
211.316	2.73
211.535	-11.61
211.753	47.79
211.972	27.31
212.191	51.88
212.409	72.36
212.628	33.45
212.846	-34.13
213.065	19.11
213.283	55.98
213.502	2.73
213.72	37.55
213.938	-34.13
214.157	6.83
214.375	25.26
214.594	43.69
214.812	37.55
215.031	90.79
215.249	58.03
215.467	37.55
215.686	25.26
215.904	-9.56
216.122	27.31
216.341	64.17
216.559	47.79
216.778	43.69
216.996	35.5
217.214	8.87
217.432	35.5
217.651	-42.32
217.869	-1.37
218.087	17.07
218.306	19.11
218.524	-5.46
218.742	-9.56
218.96	43.69
219.179	-25.94
219.397	8.87
219.615	39.59
219.833	12.97
220.051	-5.46
220.27	39.59
220.488	25.26
220.706	8.87
220.924	15.02
221.142	-25.94
221.36	51.88
221.578	-36.18
221.796	64.17
222.015	25.26
222.233	70.31
222.451	37.55
222.669	-19.8
222.887	8.87
223.105	58.03
223.323	72.36
223.541	-13.65
223.759	-15.7
223.977	39.59
224.195	103.08
224.413	45.74
224.631	23.21
224.849	-34.13
225.067	35.5
225.285	17.07
225.503	60.07
225.721	-60.76
225.939	10.92
226.157	39.59
226.375	78.51
226.592	47.79
226.81	29.35
227.028	80.55
227.246	35.5
227.464	-48.47
227.682	55.98
227.9	45.74
228.117	-17.75
228.335	45.74
228.553	62.12
228.771	27.31
228.989	35.5
229.206	2.73
229.424	-25.94
229.642	68.27
229.86	0.68
230.077	41.64
230.295	23.21
230.513	-9.56
230.731	-15.7
230.948	-11.61
231.166	58.03
231.384	23.21
231.601	27.31
231.819	43.69
232.037	-11.61
232.254	21.16
232.472	23.21
232.689	21.16
232.907	53.93
233.125	6.83
233.342	58.03
233.56	70.31
233.777	-5.46
233.995	-44.37
234.213	35.5
234.43	49.83
234.648	33.45
234.865	4.78
235.083	-13.65
235.3	0.68
235.518	0.68
235.735	31.4
235.953	74.41
236.17	-1.37
236.388	31.4
236.605	43.69
236.822	90.79
237.04	55.98
237.257	-1.37
237.475	41.64
237.692	-5.46
237.909	25.26
238.127	31.4
238.344	39.59
238.562	55.98
238.779	35.5
238.996	49.83
239.214	-23.89
239.431	123.56
239.648	43.69
239.865	-1.37
240.083	12.97
240.3	35.5
240.517	-21.85
240.735	33.45
240.952	-23.89
241.169	8.87
241.386	-1.37
241.603	31.4
241.821	25.26
242.038	8.87
242.255	-62.8
242.472	-23.89
242.689	6.83
242.907	33.45
243.124	-1.37
243.341	66.22
243.558	25.26
243.775	-1.37
243.992	31.4
244.209	15.02
244.426	37.55
244.643	51.88
244.86	25.26
245.078	0.68
245.295	60.07
245.512	25.26
245.729	58.03
245.946	-56.66
246.163	-9.56
246.38	33.45
246.597	64.17
246.814	27.31
247.031	58.03
247.248	6.83
247.464	74.41
247.681	60.07
247.898	0.68
248.115	19.11
248.332	0.68
248.549	-25.94
248.766	66.22
248.983	88.75
249.2	23.21
249.417	0.68
249.633	29.35
249.85	4.78
250.067	-21.85
250.284	27.31
250.501	35.5
250.717	-13.65
250.934	-25.94
251.151	60.07
251.368	25.26
251.585	-19.8
251.801	-21.85
252.018	0.68
252.235	41.64
252.451	-1.37
252.668	29.35
252.885	62.12
253.102	-27.99
253.318	-15.7
253.535	8.87
253.752	72.36
253.968	-9.56
254.185	49.83
254.401	-7.51
254.618	53.93
254.835	27.31
255.051	68.27
255.268	-1.37
255.484	58.03
255.701	-21.85
255.917	43.69
256.134	-5.46
256.351	92.84
256.567	-9.56
256.784	92.84
257	23.21
257.217	-5.46
257.433	55.98
257.65	-21.85
257.866	78.51
258.082	27.31
258.299	66.22
258.515	23.21
258.732	-7.51
258.948	-56.66
259.165	-42.32
259.381	-3.41
259.597	23.21
259.814	107.18
260.03	92.84
260.246	17.07
260.463	6.83
260.679	64.17
260.895	12.97
261.112	23.21
261.328	64.17
261.544	43.69
261.761	101.03
261.977	-11.61
262.193	-13.65
262.409	35.5
262.626	49.83
262.842	-30.04
263.058	37.55
263.274	-21.85
263.49	31.4
263.707	86.7
263.923	12.97
264.139	31.4
264.355	-3.41
264.571	-7.51
264.787	-40.28
265.004	43.69
265.22	68.27
265.436	80.55
265.652	74.41
265.868	-38.23
266.084	35.5
266.3	31.4
266.516	12.97
266.732	-19.8
266.948	33.45
267.164	53.93
267.38	53.93
267.596	62.12
267.812	-25.94
268.028	33.45
268.244	12.97
268.46	15.02
268.676	-3.41
268.892	12.97
269.108	-15.7
269.324	-19.8
269.54	-34.13
269.756	12.97
269.972	39.59
270.188	-19.8
270.403	43.69
270.619	-1.37
270.835	80.55
271.051	2.73
271.267	-9.56
271.483	6.83
271.698	17.07
271.914	10.92
272.13	105.13
272.346	64.17
272.562	84.65
272.777	17.07
272.993	53.93
273.209	45.74
273.425	-9.56
273.64	33.45
273.856	72.36
274.072	-1.37
274.287	-58.71
274.503	39.59
274.719	-17.75
274.934	-46.42
275.15	-91.48
275.366	-15.7
275.581	47.79
275.797	-15.7
276.012	-40.28
276.228	33.45
276.444	92.84
276.659	90.79
276.875	64.17
277.09	37.55
277.306	2.73
277.521	62.12
277.737	-23.89
277.952	76.46
278.168	10.92
278.383	62.12
278.599	-32.08
278.814	86.7
279.03	41.64
279.245	60.07
279.461	31.4
279.676	-44.37
279.892	37.55
280.107	25.26
280.322	39.59
280.538	10.92
280.753	-36.18
280.969	-9.56
281.184	51.88
281.399	-15.7
281.615	-32.08
281.83	37.55
282.045	6.83
282.26	43.69
282.476	-11.61
282.691	10.92
282.906	53.93
283.122	19.11
283.337	6.83
283.552	-15.7
283.767	-42.32
283.983	-1.37
284.198	35.5
284.413	101.03
284.628	-13.65
284.843	-1.37
285.058	-9.56
285.274	-54.61
285.489	12.97
285.704	0.68
285.919	43.69
286.134	55.98
286.349	21.16
286.564	88.75
286.779	55.98
286.995	33.45
287.21	58.03
287.425	6.83
287.64	-38.23
287.855	35.5
288.07	10.92
288.285	74.41
288.5	41.64
288.715	47.79
288.93	31.4
289.145	0.68
289.36	33.45
289.575	10.92
289.79	17.07
290.004	-9.56
290.219	72.36
290.434	72.36
290.649	6.83
290.864	27.31
291.079	80.55
291.294	-32.08
291.509	12.97
291.724	0.68
291.938	55.98
292.153	76.46
292.368	-54.61
292.583	27.31
292.798	62.12
293.012	-9.56
293.227	80.55
293.442	37.55
293.657	45.74
293.871	68.27
294.086	25.26
294.301	64.17
294.516	53.93
294.73	33.45
294.945	-1.37
295.16	39.59
295.374	19.11
295.589	15.02
295.804	33.45
296.018	33.45
296.233	10.92
296.447	101.03
296.662	37.55
296.877	47.79
297.091	92.84
297.306	-30.04
297.52	29.35
297.735	33.45
297.949	21.16
298.164	39.59
298.378	-1.37
298.593	-19.8
298.807	58.03
299.022	-3.41
299.236	78.51
299.451	41.64
299.665	10.92
299.88	45.74
300.094	8.87
300.309	47.79
300.523	6.83
300.737	-58.71
300.952	33.45
301.166	15.02
301.381	-17.75
301.595	41.64
301.809	-62.8
302.024	45.74
302.238	-62.8
302.452	55.98
302.667	76.46
302.881	21.16
303.095	-7.51
303.309	23.21
303.524	53.93
303.738	31.4
303.952	21.16
304.166	37.55
304.381	-21.85
304.595	76.46
304.809	19.11
305.023	-9.56
305.237	-58.71
305.452	58.03
305.666	-17.75
305.88	33.45
306.094	12.97
306.308	72.36
306.522	-1.37
306.736	17.07
306.95	27.31
307.164	51.88
307.379	27.31
307.593	-13.65
307.807	33.45
308.021	-5.46
308.235	-25.94
308.449	66.22
308.663	60.07
308.877	80.55
309.091	98.99
309.305	49.83
309.519	39.59
309.733	-3.41
309.947	-9.56
310.161	43.69
310.374	0.68
310.588	31.4
310.802	37.55
311.016	66.22
311.23	23.21
311.444	25.26
311.658	64.17
311.872	90.79
312.085	37.55
312.299	49.83
312.513	-32.08
312.727	90.79
312.941	19.11
313.154	23.21
313.368	105.13
313.582	60.07
313.796	41.64
314.009	39.59
314.223	25.26
314.437	8.87
314.651	6.83
314.864	25.26
315.078	-15.7
315.292	70.31
315.505	51.88
315.719	35.5
315.933	55.98
316.146	-5.46
316.36	0.68
316.573	39.59
316.787	111.27
317.001	25.26
317.214	19.11
317.428	19.11
317.641	27.31
317.855	58.03
318.068	60.07
318.282	96.94
318.495	49.83
318.709	41.64
318.922	10.92
319.136	31.4
319.349	31.4
319.563	45.74
319.776	27.31
319.99	47.79
320.203	31.4
320.417	101.03
320.63	78.51
320.843	49.83
321.057	21.16
321.27	64.17
321.483	51.88
321.697	43.69
321.91	-5.46
322.124	-13.65
322.337	29.35
322.55	29.35
322.763	58.03
322.977	55.98
323.19	-7.51
323.403	19.11
323.617	10.92
323.83	101.03
324.043	-50.52
324.256	37.55
324.469	27.31
324.683	31.4
324.896	21.16
325.109	35.5
325.322	105.13
325.535	45.74
325.748	43.69
325.962	19.11
326.175	29.35
326.388	-32.08
326.601	86.7
326.814	-7.51
327.027	21.16
327.24	17.07
327.453	-5.46
327.666	-13.65
327.879	53.93
328.092	10.92
328.305	21.16
328.518	64.17
328.731	-64.85
328.944	41.64
329.157	21.16
329.37	-23.89
329.583	0.68
329.796	-7.51
330.009	53.93
330.222	84.65
330.435	-5.46
330.648	-9.56
330.861	72.36
331.073	64.17
331.286	27.31
331.499	-15.7
331.712	-19.8
331.925	105.13
332.138	-9.56
332.35	51.88
332.563	60.07
332.776	2.73
332.989	55.98
333.202	41.64
333.414	25.26
333.627	78.51
333.84	-9.56
334.053	-34.13
334.265	19.11
334.478	47.79
334.691	27.31
334.903	-17.75
335.116	15.02
335.329	92.84
335.541	37.55
335.754	62.12
335.966	49.83
336.179	-5.46
336.392	37.55
336.604	49.83
336.817	96.94
337.029	25.26
337.242	2.73
337.454	12.97
337.667	39.59
337.88	33.45
338.092	29.35
338.305	62.12
338.517	8.87
338.729	33.45
338.942	86.7
339.154	33.45
339.367	0.68
339.579	47.79
339.792	101.03
340.004	-52.56
340.217	115.37
340.429	55.98
340.641	64.17
340.854	51.88
341.066	49.83
341.278	60.07
341.491	-23.89
341.703	62.12
341.915	84.65
342.128	55.98
342.34	-30.04
342.552	84.65
342.764	19.11
342.977	-23.89
343.189	15.02
343.401	82.6
343.613	45.74
343.826	88.75
344.038	82.6
344.25	15.02
344.462	31.4
344.674	43.69
344.886	-23.89
345.099	23.21
345.311	31.4
345.523	76.46
345.735	8.87
345.947	21.16
346.159	80.55
346.371	47.79
346.583	4.78
346.795	86.7
347.007	17.07
347.219	0.68
347.431	6.83
347.643	105.13
347.855	-60.76
348.067	29.35
348.279	-15.7
348.491	72.36
348.703	2.73
348.915	19.11
349.127	25.26
349.339	131.75
349.551	39.59
349.763	98.99
349.975	23.21
350.187	27.31
350.399	2.73
350.61	31.4
350.822	47.79
351.034	27.31
351.246	8.87
351.458	45.74
351.669	23.21
351.881	31.4
352.093	27.31
352.305	121.51
352.517	33.45
352.728	76.46
352.94	8.87
353.152	6.83
353.363	2.73
353.575	86.7
353.787	33.45
353.999	27.31
354.21	60.07
354.422	74.41
354.633	49.83
354.845	10.92
355.057	39.59
355.268	19.11
355.48	72.36
355.692	80.55
355.903	8.87
356.115	-3.41
356.326	6.83
356.538	135.85
356.749	27.31
356.961	-21.85
357.172	27.31
357.384	103.08
357.595	82.6
357.807	6.83
358.018	70.31
358.23	64.17
358.441	43.69
358.653	-23.89
358.864	49.83
359.075	39.59
359.287	-38.23
359.498	23.21
359.709	96.94
359.921	41.64
360.132	55.98
360.344	60.07
360.555	72.36
360.766	10.92
360.977	64.17
361.189	4.78
361.4	39.59
361.611	88.75
361.823	19.11
362.034	15.02
362.245	10.92
362.456	68.27
362.667	39.59
362.879	58.03
363.09	37.55
363.301	49.83
363.512	8.87
363.723	-27.99
363.935	90.79
364.146	64.17
364.357	-11.61
364.568	25.26
364.779	49.83
364.99	37.55
365.201	-7.51
365.412	-11.61
365.623	39.59
365.834	76.46
366.045	66.22
366.256	55.98
366.467	-1.37
366.678	39.59
366.889	64.17
367.1	27.31
367.311	-1.37
367.522	19.11
367.733	31.4
367.944	74.41
368.155	35.5
368.366	25.26
368.577	6.83
368.788	49.83
368.999	-19.8
369.209	43.69
369.42	111.27
369.631	72.36
369.842	31.4
370.053	39.59
370.264	60.07
370.474	39.59
370.685	37.55
370.896	66.22
371.107	80.55
371.317	64.17
371.528	51.88
371.739	33.45
371.95	105.13
372.16	-54.61
372.371	39.59
372.582	29.35
372.792	90.79
373.003	8.87
373.214	31.4
373.424	66.22
373.635	12.97
373.846	88.75
374.056	2.73
374.267	-1.37
374.477	35.5
374.688	43.69
374.898	41.64
375.109	-38.23
375.319	68.27
375.53	49.83
375.74	103.08
375.951	55.98
376.161	17.07
376.372	88.75
376.582	33.45
376.793	64.17
377.003	12.97
377.214	55.98
377.424	15.02
377.635	35.5
377.845	19.11
378.055	-13.65
378.266	45.74
378.476	31.4
378.686	0.68
378.897	74.41
379.107	33.45
379.317	35.5
379.528	-19.8
379.738	82.6
379.948	29.35
380.158	15.02
380.369	39.59
380.579	10.92
380.789	80.55
380.999	6.83
381.21	2.73
381.42	29.35
381.63	47.79
381.84	49.83
382.05	29.35
382.261	80.55
382.471	64.17
382.681	23.21
382.891	51.88
383.101	39.59
383.311	70.31
383.521	74.41
383.731	53.93
383.941	64.17
384.151	41.64
384.361	62.12
384.571	35.5
384.781	43.69
384.991	15.02
385.201	94.89
385.411	101.03
385.621	141.99
385.831	80.55
386.041	33.45
386.251	35.5
386.461	70.31
386.671	62.12
386.881	23.21
387.091	45.74
387.301	70.31
387.511	8.87
387.72	-15.7
387.93	6.83
388.14	35.5
388.35	33.45
388.56	66.22
388.769	105.13
388.979	111.27
389.189	10.92
389.399	-23.89
389.609	25.26
389.818	-56.66
390.028	-15.7
390.238	80.55
390.447	45.74
390.657	35.5
390.867	4.78
391.076	80.55
391.286	146.09
391.496	-25.94
391.705	19.11
391.915	72.36
392.125	105.13
392.334	25.26
392.544	53.93
392.753	15.02
392.963	49.83
393.172	105.13
393.382	12.97
393.591	80.55
393.801	109.22
394.01	10.92
394.22	74.41
394.429	90.79
394.639	33.45
394.848	-34.13
395.058	35.5
395.267	92.84
395.477	94.89
395.686	90.79
395.895	25.26
396.105	123.56
396.314	35.5
396.524	88.75
396.733	82.6
396.942	111.27
397.152	53.93
397.361	146.09
397.57	27.31
397.78	60.07
397.989	72.36
398.198	125.61
398.407	109.22
398.617	49.83
398.826	49.83
399.035	55.98
399.244	68.27
399.453	72.36
399.663	33.45
399.872	6.83
400.081	55.98
400.29	66.22
400.499	17.07
400.708	154.28
400.917	82.6
401.127	101.03
401.336	27.31
401.545	98.99
401.754	80.55
401.963	115.37
402.172	103.08
402.381	109.22
402.59	49.83
402.799	60.07
403.008	121.51
403.217	115.37
403.426	127.66
403.635	146.09
403.844	29.35
404.053	90.79
404.262	43.69
404.471	109.22
404.68	72.36
404.888	156.33
405.097	90.79
405.306	109.22
405.515	86.7
405.724	137.9
405.933	70.31
406.142	80.55
406.35	90.79
406.559	105.13
406.768	129.7
406.977	84.65
407.185	66.22
407.394	96.94
407.603	117.42
407.812	148.14
408.02	185
408.229	109.22
408.438	168.62
408.646	139.94
408.855	144.04
409.064	94.89
409.272	193.19
409.481	266.92
409.69	139.94
409.898	219.82
410.107	144.04
410.315	205.48
410.524	225.96
410.733	207.53
410.941	168.62
411.15	174.76
411.358	223.91
411.567	303.78
411.775	268.97
411.984	297.64
412.192	307.88
412.401	230.06
412.609	301.73
412.818	348.84
413.026	262.82
413.234	332.45
413.443	291.49
413.651	260.77
413.86	291.49
414.068	424.61
414.276	336.55
414.485	383.65
414.693	404.13
414.901	408.23
415.11	361.13
415.318	441
415.526	457.38
415.734	510.63
415.943	475.81
416.151	506.53
416.359	588.45
416.567	539.3
416.776	557.73
416.984	570.02
417.192	561.83
417.4	602.79
417.608	651.94
417.817	633.5
418.025	637.6
418.233	660.13
418.441	705.18
418.649	719.52
418.857	711.33
419.065	850.59
419.273	848.54
419.481	952.99
419.689	916.12
419.897	901.79
420.105	846.49
420.313	952.99
420.521	946.84
420.729	963.23
420.937	1055.39
421.145	1090.2
421.353	1122.97
421.561	1165.98
421.769	1198.74
421.977	1243.8
422.185	1215.13
422.393	1407.64
422.601	1389.21
422.809	1413.78
423.017	1362.58
423.224	1518.23
423.432	1567.38
423.64	1589.91
423.848	1671.83
424.056	1637.01
424.263	1802.9
424.471	1655.44
424.679	1755.79
424.887	1804.94
425.094	1960.59
425.302	2022.03
425.51	2075.27
425.718	2022.03
425.925	2140.81
426.133	2173.58
426.341	2398.85
426.548	2419.33
426.756	2423.43
426.964	2427.53
427.171	2607.75
427.379	2660.99
427.586	2665.09
427.794	2859.65
428.001	2976.38
428.209	2957.95
428.417	2970.24
428.624	3082.88
428.832	3072.64
429.039	3097.21
429.247	3209.85
429.454	3480.18
429.662	3678.83
429.869	3418.74
430.076	3635.83
430.284	3523.19
430.491	3637.88
430.699	4026.99
430.906	3846.77
431.114	3902.06
431.321	4201.07
431.528	4196.97
431.736	4399.72
431.943	4635.24
432.15	4629.09
432.358	4477.54
432.565	4893.28
432.772	4915.81
432.979	5106.27
433.187	5253.72
433.394	5157.47
433.601	5577.3
433.808	5610.07
434.016	5601.88
434.223	5816.91
434.43	6072.91
434.637	6060.62
434.844	6183.5
435.052	6619.72
435.259	6425.16
435.466	6634.05
435.673	6505.03
435.88	6928.96
436.087	7270.97
436.294	7287.36
436.501	7047.74
436.708	7223.87
436.915	7789.11
437.122	8067.63
437.329	7608.89
437.537	8077.87
437.743	8436.27
437.95	8127.02
438.157	8559.14
438.364	8768.04
438.571	8639.01
438.778	8731.17
438.985	9677.34
439.192	9339.42
439.399	9773.59
439.606	9521.69
439.813	10007.06
440.02	10492.43
440.227	10496.52
440.433	10359.31
440.64	10756.61
440.847	10582.54
441.054	10830.34
441.261	11389.44
441.467	11434.49
441.674	11557.37
441.881	12261.87
442.088	12050.93
442.294	12003.83
442.501	12169.71
442.708	12653.03
442.914	13052.39
443.121	13457.89
443.328	13449.69
443.534	14035.41
443.741	13588.96
443.948	13734.36
444.154	14481.87
444.361	14559.69
444.568	14901.7
444.774	14725.58
444.981	14883.27
445.187	15235.52
445.394	15933.88
445.6	15540.67
445.807	17224.1
446.013	16599.47
446.22	16789.93
446.426	17533.34
446.633	17637.79
446.839	18508.18
447.046	17623.45
447.252	18397.59
447.459	18794.89
447.665	18506.13
447.871	19483.01
448.078	20142.46
448.284	19427.71
448.491	19497.35
448.697	20646.26
448.903	20906.35
449.11	21100.9
449.316	20730.22
449.522	21061.99
449.728	21653.86
449.935	21713.25
450.141	21666.14
450.347	22251.86
450.553	21623.14
450.76	21850.46
450.966	22899.02
451.172	22380.89
451.378	22948.17
451.584	22696.27
451.791	23363.91
451.997	22876.49
452.203	23611.71
452.409	23359.81
452.615	23552.32
452.821	22565.2
453.027	22376.79
453.233	23421.25
453.44	22770
453.646	22841.68
453.852	22985.04
454.058	23275.85
454.264	22567.25
454.47	23224.65
454.676	22493.52
454.882	23343.43
455.088	21293.41
455.294	21539.17
455.5	22145.37
455.705	22448.47
455.911	21092.71
456.117	20883.82
456.323	20658.54
456.529	19468.67
456.735	20564.34
456.941	20007.29
457.147	19620.22
457.352	19011.98
457.558	18663.82
457.764	18983.31
457.97	18641.29
458.176	18006.42
458.381	18237.84
458.587	17123.75
458.793	17373.6
458.999	16245.17
459.204	17703.32
459.41	17013.16
459.616	15997.37
459.821	15854.01
460.027	15909.3
460.233	15610.3
460.438	14561.74
460.644	14903.75
460.85	14334.42
461.055	14072.28
461.261	14277.07
461.466	12863.97
461.672	12573.16
461.878	13390.3
462.083	12462.57
462.289	12249.58
462.494	12149.23
462.7	11469.31
462.905	11428.35
463.111	11700.73
463.316	11794.93
463.522	11426.3
463.727	11555.32
463.932	11540.99
464.138	11467.26
464.343	11452.92
464.549	11158.02
464.754	11547.13
464.959	11368.96
465.165	11338.24
465.37	10873.35
465.575	10557.96
465.781	10992.13
465.986	10985.99
466.191	10514.95
466.397	10465.8
466.602	10015.25
466.807	10459.66
467.012	10484.23
467.218	10160.66
467.423	10398.22
467.628	10232.33
467.833	10682.89
468.038	10435.08
468.244	10156.56
468.449	10457.61
