Data from USB4F104151__100__13-00-16-818.txt Node

Date: Fri Mar 14 13:00:16 EDT 2025
User: louis
Spectrometer: USB4F10415
Trigger mode: 4
Integration Time (sec): 1.000000E-2
Scans to average: 1
Electric dark correction enabled: true
Nonlinearity correction enabled: false
Boxcar width: 0
XAxis mode: Wavelengths
Number of Pixels in Spectrum: 3648
>>>>>Begin Spectral Data<<<<<
178.204	-149.5
178.424	-149.5
178.644	-149.5
178.864	-59.39
179.084	-20.48
179.304	20.48
179.524	-22.53
179.744	38.91
179.964	-28.67
180.184	43.01
180.404	-14.34
180.624	-12.29
180.844	-8.19
181.064	-75.77
181.283	22.53
181.503	16.38
181.723	20.48
181.943	-32.77
182.163	-92.16
182.383	14.34
182.602	-38.91
182.822	-6.14
183.042	55.3
183.262	-45.06
183.482	55.3
183.701	-24.58
183.921	77.82
184.141	-8.19
184.361	65.53
184.58	-49.15
184.8	-6.14
185.02	-34.82
185.239	-22.53
185.459	4.1
185.679	22.53
185.898	-81.92
186.118	-10.24
186.338	-73.73
186.557	47.1
186.777	-4.1
186.997	-71.68
187.216	-26.62
187.436	-10.24
187.655	-59.39
187.875	-30.72
188.095	-49.15
188.314	24.58
188.534	-26.62
188.753	-32.77
188.973	75.77
189.192	10.24
189.412	8.19
189.631	18.43
189.851	-26.62
190.07	-10.24
190.29	-6.14
190.509	-4.1
190.729	-18.43
190.948	-38.91
191.168	-43.01
191.387	-16.38
191.607	0
191.826	26.62
192.045	-6.14
192.265	-47.1
192.484	2.05
192.704	75.77
192.923	14.34
193.142	-24.58
193.362	-38.91
193.581	26.62
193.8	-30.72
194.02	8.19
194.239	-26.62
194.458	24.58
194.678	-22.53
194.897	16.38
195.116	2.05
195.335	2.05
195.555	53.25
195.774	16.38
195.993	77.82
196.212	-26.62
196.432	16.38
196.651	6.14
196.87	-10.24
197.089	18.43
197.308	40.96
197.528	0
197.747	-28.67
197.966	10.24
198.185	-6.14
198.404	14.34
198.623	6.14
198.842	57.34
199.062	40.96
199.281	90.11
199.5	36.86
199.719	-47.1
199.938	-67.58
200.157	6.14
200.376	-14.34
200.595	20.48
200.814	32.77
201.033	14.34
201.252	-22.53
201.471	-4.1
201.69	-30.72
201.909	-73.73
202.128	-34.82
202.347	-63.49
202.566	20.48
202.785	65.53
203.004	4.1
203.223	-63.49
203.442	2.05
203.661	10.24
203.879	116.73
204.098	14.34
204.317	30.72
204.536	-2.05
204.755	55.3
204.974	28.67
205.193	-83.97
205.411	-34.82
205.63	-28.67
205.849	-28.67
206.068	-51.2
206.287	-8.19
206.505	18.43
206.724	-47.1
206.943	22.53
207.162	0
207.381	-34.82
207.599	-8.19
207.818	14.34
208.037	-20.48
208.255	10.24
208.474	-26.62
208.693	-26.62
208.911	-67.58
209.13	43.01
209.349	-71.68
209.567	-14.34
209.786	36.86
210.005	-34.82
210.223	51.2
210.442	6.14
210.661	-14.34
210.879	-2.05
211.098	-18.43
211.316	6.14
211.535	47.1
211.753	-32.77
211.972	8.19
212.191	-36.86
212.409	-40.96
212.628	-20.48
212.846	8.19
213.065	24.58
213.283	4.1
213.502	0
213.72	32.77
213.938	0
214.157	-6.14
214.375	-30.72
214.594	-43.01
214.812	-12.29
215.031	-14.34
215.249	12.29
215.467	-81.92
215.686	26.62
215.904	90.11
216.122	-34.82
216.341	18.43
216.559	-10.24
216.778	-55.3
216.996	-10.24
217.214	-18.43
217.432	-79.87
217.651	51.2
217.869	-98.3
218.087	20.48
218.306	-18.43
218.524	20.48
218.742	2.05
218.96	-6.14
219.179	32.77
219.397	-75.77
219.615	0
219.833	-100.35
220.051	-10.24
220.27	-40.96
220.488	22.53
220.706	-22.53
220.924	18.43
221.142	61.44
221.36	-30.72
221.578	32.77
221.796	38.91
222.015	-32.77
222.233	-8.19
222.451	-10.24
222.669	-2.05
222.887	-4.1
223.105	12.29
223.323	22.53
223.541	-49.15
223.759	6.14
223.977	-4.1
224.195	-18.43
224.413	6.14
224.631	-14.34
224.849	-45.06
225.067	26.62
225.285	-4.1
225.503	-59.39
225.721	-8.19
225.939	-32.77
226.157	14.34
226.375	16.38
226.592	14.34
226.81	8.19
227.028	-30.72
227.246	40.96
227.464	-10.24
227.682	-16.38
227.9	2.05
228.117	-2.05
228.335	-55.3
228.553	14.34
228.771	2.05
228.989	-18.43
229.206	24.58
229.424	47.1
229.642	-18.43
229.86	32.77
230.077	2.05
230.295	65.53
230.513	-12.29
230.731	-12.29
230.948	28.67
231.166	-34.82
231.384	-18.43
231.601	18.43
231.819	12.29
232.037	-26.62
232.254	28.67
232.472	-43.01
232.689	-18.43
232.907	-34.82
233.125	22.53
233.342	30.72
233.56	2.05
233.777	-47.1
233.995	-32.77
234.213	-2.05
234.43	92.16
234.648	-24.58
234.865	26.62
235.083	71.68
235.3	36.86
235.518	-24.58
235.735	-14.34
235.953	53.25
236.17	18.43
236.388	24.58
236.605	-51.2
236.822	30.72
237.04	6.14
237.257	-20.48
237.475	-16.38
237.692	-8.19
237.909	20.48
238.127	6.14
238.344	22.53
238.562	-16.38
238.779	-43.01
238.996	-40.96
239.214	-32.77
239.431	73.73
239.648	22.53
239.865	12.29
240.083	-45.06
240.3	12.29
240.517	-38.91
240.735	8.19
240.952	-40.96
241.169	10.24
241.386	-38.91
241.603	-2.05
241.821	-61.44
242.038	24.58
242.255	18.43
242.472	-47.1
242.689	40.96
242.907	-28.67
243.124	12.29
243.341	10.24
243.558	22.53
243.775	-63.49
243.992	34.82
244.209	6.14
244.426	-10.24
244.643	-49.15
244.86	-67.58
245.078	-79.87
245.295	22.53
245.512	-2.05
245.729	-8.19
245.946	16.38
246.163	-73.73
246.38	-16.38
246.597	-51.2
246.814	0
247.031	0
247.248	-16.38
247.464	30.72
247.681	0
247.898	22.53
248.115	-51.2
248.332	-6.14
248.549	-67.58
248.766	59.39
248.983	45.06
249.2	43.01
249.417	57.34
249.633	-73.73
249.85	-81.92
250.067	-22.53
250.284	-20.48
250.501	-34.82
250.717	129.02
250.934	-36.86
251.151	-18.43
251.368	38.91
251.585	45.06
251.801	0
252.018	-2.05
252.235	30.72
252.451	-8.19
252.668	-24.58
252.885	14.34
253.102	-47.1
253.318	45.06
253.535	36.86
253.752	-32.77
253.968	-12.29
254.185	-47.1
254.401	28.67
254.618	10.24
254.835	-49.15
255.051	59.39
255.268	-22.53
255.484	22.53
255.701	-63.49
255.917	86.01
256.134	36.86
256.351	0
256.567	-40.96
256.784	43.01
257	10.24
257.217	-8.19
257.433	-38.91
257.65	24.58
257.866	-12.29
258.082	-86.01
258.299	6.14
258.515	26.62
258.732	79.87
258.948	10.24
259.165	73.73
259.381	10.24
259.597	30.72
259.814	-2.05
260.03	-81.92
260.246	-28.67
260.463	28.67
260.679	6.14
260.895	28.67
261.112	-14.34
261.328	12.29
261.544	6.14
261.761	-24.58
261.977	-8.19
262.193	-4.1
262.409	26.62
262.626	30.72
262.842	45.06
263.058	36.86
263.274	57.34
263.49	-57.34
263.707	-59.39
263.923	16.38
264.139	-55.3
264.355	-47.1
264.571	-12.29
264.787	16.38
265.004	-24.58
265.22	-18.43
265.436	-18.43
265.652	-28.67
265.868	14.34
266.084	14.34
266.3	-2.05
266.516	-6.14
266.732	-12.29
266.948	-16.38
267.164	57.34
267.38	32.77
267.596	26.62
267.812	-2.05
268.028	49.15
268.244	26.62
268.46	-96.25
268.676	16.38
268.892	8.19
269.108	-16.38
269.324	-6.14
269.54	16.38
269.756	8.19
269.972	-28.67
270.188	0
270.403	40.96
270.619	10.24
270.835	-12.29
271.051	-4.1
271.267	-14.34
271.483	83.97
271.698	6.14
271.914	2.05
272.13	-16.38
272.346	90.11
272.562	38.91
272.777	40.96
272.993	26.62
273.209	16.38
273.425	26.62
273.64	16.38
273.856	36.86
274.072	63.49
274.287	4.1
274.503	16.38
274.719	-22.53
274.934	-20.48
275.15	-18.43
275.366	-2.05
275.581	-55.3
275.797	-59.39
276.012	-45.06
276.228	49.15
276.444	-22.53
276.659	22.53
276.875	14.34
277.09	-40.96
277.306	47.1
277.521	-67.58
277.737	-6.14
277.952	-6.14
278.168	18.43
278.383	-43.01
278.599	-61.44
278.814	36.86
279.03	51.2
279.245	0
279.461	-14.34
279.676	14.34
279.892	-59.39
280.107	49.15
280.322	-55.3
280.538	-53.25
280.753	14.34
280.969	45.06
281.184	-38.91
281.399	-51.2
281.615	2.05
281.83	-2.05
282.045	45.06
282.26	-20.48
282.476	-59.39
282.691	73.73
282.906	-24.58
283.122	18.43
283.337	40.96
283.552	61.44
283.767	47.1
283.983	-16.38
284.198	-12.29
284.413	63.49
284.628	-26.62
284.843	-49.15
285.058	22.53
285.274	-30.72
285.489	-8.19
285.704	40.96
285.919	-36.86
286.134	26.62
286.349	-4.1
286.564	-26.62
286.779	-43.01
286.995	-24.58
287.21	16.38
287.425	-40.96
287.64	-71.68
287.855	-34.82
288.07	-69.63
288.285	2.05
288.5	-4.1
288.715	88.06
288.93	-16.38
289.145	16.38
289.36	26.62
289.575	-4.1
289.79	30.72
290.004	-57.34
290.219	-6.14
290.434	-14.34
290.649	-28.67
290.864	0
291.079	-36.86
291.294	8.19
291.509	0
291.724	20.48
291.938	10.24
292.153	-20.48
292.368	-34.82
292.583	-26.62
292.798	-24.58
293.012	-6.14
293.227	-26.62
293.442	12.29
293.657	14.34
293.871	16.38
294.086	20.48
294.301	-4.1
294.516	43.01
294.73	36.86
294.945	14.34
295.16	59.39
295.374	28.67
295.589	43.01
295.804	22.53
296.018	-47.1
296.233	2.05
296.447	-26.62
296.662	28.67
296.877	20.48
297.091	-55.3
297.306	-36.86
297.52	38.91
297.735	51.2
297.949	67.58
298.164	-18.43
298.378	32.77
298.593	14.34
298.807	-10.24
299.022	55.3
299.236	-34.82
299.451	18.43
299.665	-22.53
299.88	18.43
300.094	-57.34
300.309	32.77
300.523	28.67
300.737	6.14
300.952	-34.82
301.166	28.67
301.381	38.91
301.595	-28.67
301.809	-12.29
302.024	22.53
302.238	-20.48
302.452	45.06
302.667	51.2
302.881	22.53
303.095	14.34
303.309	-88.06
303.524	6.14
303.738	-8.19
303.952	2.05
304.166	-34.82
304.381	8.19
304.595	10.24
304.809	-22.53
305.023	65.53
305.237	-47.1
305.452	10.24
305.666	2.05
305.88	-12.29
306.094	12.29
306.308	-10.24
306.522	-16.38
306.736	20.48
306.95	-18.43
307.164	-10.24
307.379	-43.01
307.593	-22.53
307.807	55.3
308.021	-16.38
308.235	57.34
308.449	90.11
308.663	-18.43
308.877	8.19
309.091	-59.39
309.305	129.02
309.519	-51.2
309.733	-36.86
309.947	-38.91
310.161	32.77
310.374	-10.24
310.588	63.49
310.802	-86.01
311.016	-4.1
311.23	-14.34
311.444	43.01
311.658	-20.48
311.872	57.34
312.085	-18.43
312.299	22.53
312.513	-38.91
312.727	40.96
312.941	22.53
313.154	-16.38
313.368	34.82
313.582	69.63
313.796	4.1
314.009	43.01
314.223	-14.34
314.437	65.53
314.651	34.82
314.864	51.2
315.078	-22.53
315.292	-30.72
315.505	2.05
315.719	45.06
315.933	-59.39
316.146	-26.62
316.36	24.58
316.573	18.43
316.787	2.05
317.001	43.01
317.214	57.34
317.428	8.19
317.641	-57.34
317.855	-18.43
318.068	55.3
318.282	47.1
318.495	-32.77
318.709	0
318.922	-34.82
319.136	14.34
319.349	20.48
319.563	14.34
319.776	45.06
319.99	51.2
320.203	10.24
320.417	-26.62
320.63	83.97
320.843	32.77
321.057	-36.86
321.27	26.62
321.483	-26.62
321.697	43.01
321.91	-18.43
322.124	18.43
322.337	2.05
322.55	-20.48
322.763	6.14
322.977	8.19
323.19	-14.34
323.403	-36.86
323.617	14.34
323.83	-10.24
324.043	12.29
324.256	38.91
324.469	2.05
324.683	55.3
324.896	-14.34
325.109	16.38
325.322	6.14
325.535	10.24
325.748	104.45
325.962	6.14
326.175	16.38
326.388	16.38
326.601	43.01
326.814	18.43
327.027	-26.62
327.24	34.82
327.453	51.2
327.666	4.1
327.879	-20.48
328.092	-67.58
328.305	-55.3
328.518	0
328.731	-8.19
328.944	26.62
329.157	49.15
329.37	6.14
329.583	-22.53
329.796	57.34
330.009	22.53
330.222	49.15
330.435	24.58
330.648	-12.29
330.861	-30.72
331.073	20.48
331.286	28.67
331.499	63.49
331.712	53.25
331.925	16.38
332.138	-88.06
332.35	22.53
332.563	18.43
332.776	45.06
332.989	-34.82
333.202	49.15
333.414	20.48
333.627	22.53
333.84	-30.72
334.053	-32.77
334.265	-34.82
334.478	38.91
334.691	24.58
334.903	-6.14
335.116	-8.19
335.329	16.38
335.541	-26.62
335.754	-28.67
335.966	-30.72
336.179	-34.82
336.392	-40.96
336.604	-14.34
336.817	79.87
337.029	73.73
337.242	-63.49
337.454	-49.15
337.667	-61.44
337.88	32.77
338.092	-28.67
338.305	-18.43
338.517	6.14
338.729	-4.1
338.942	-6.14
339.154	-10.24
339.367	-10.24
339.579	81.92
339.792	57.34
340.004	30.72
340.217	-8.19
340.429	45.06
340.641	32.77
340.854	-22.53
341.066	-28.67
341.278	22.53
341.491	-10.24
341.703	38.91
341.915	22.53
342.128	30.72
342.34	-24.58
342.552	-57.34
342.764	-38.91
342.977	49.15
343.189	-22.53
343.401	-12.29
343.613	-22.53
343.826	-22.53
344.038	-47.1
344.25	67.58
344.462	-53.25
344.674	6.14
344.886	38.91
345.099	59.39
345.311	77.82
345.523	-12.29
345.735	-83.97
345.947	-28.67
346.159	45.06
346.371	-38.91
346.583	-26.62
346.795	63.49
347.007	79.87
347.219	67.58
347.431	30.72
347.643	6.14
347.855	22.53
348.067	24.58
348.279	14.34
348.491	20.48
348.703	36.86
348.915	22.53
349.127	-38.91
349.339	32.77
349.551	-63.49
349.763	-47.1
349.975	26.62
350.187	57.34
350.399	-57.34
350.61	57.34
350.822	-22.53
351.034	-16.38
351.246	-28.67
351.458	55.3
351.669	30.72
351.881	-8.19
352.093	0
352.305	59.39
352.517	63.49
352.728	14.34
352.94	-51.2
353.152	-36.86
353.363	-12.29
353.575	-40.96
353.787	12.29
353.999	61.44
354.21	51.2
354.422	-14.34
354.633	45.06
354.845	49.15
355.057	38.91
355.268	-18.43
355.48	-4.1
355.692	-20.48
355.903	116.73
356.115	8.19
356.326	-47.1
356.538	6.14
356.749	71.68
356.961	-55.3
357.172	-86.01
357.384	-24.58
357.595	24.58
357.807	-51.2
358.018	-92.16
358.23	47.1
358.441	63.49
358.653	-6.14
358.864	-26.62
359.075	28.67
359.287	0
359.498	98.3
359.709	-6.14
359.921	-34.82
360.132	-45.06
360.344	16.38
360.555	-10.24
360.766	75.77
360.977	24.58
361.189	20.48
361.4	-45.06
361.611	26.62
361.823	53.25
362.034	69.63
362.245	16.38
362.456	38.91
362.667	0
362.879	-18.43
363.09	6.14
363.301	14.34
363.512	51.2
363.723	26.62
363.935	8.19
364.146	16.38
364.357	-77.82
364.568	6.14
364.779	-24.58
364.99	65.53
365.201	75.77
365.412	24.58
365.623	59.39
365.834	-18.43
366.045	4.1
366.256	30.72
366.467	22.53
366.678	36.86
366.889	-2.05
367.1	-22.53
367.311	0
367.522	-32.77
367.733	2.05
367.944	-16.38
368.155	10.24
368.366	22.53
368.577	-8.19
368.788	40.96
368.999	14.34
369.209	-20.48
369.42	4.1
369.631	75.77
369.842	-4.1
370.053	20.48
370.264	88.06
370.474	-32.77
370.685	-22.53
370.896	124.93
371.107	-12.29
371.317	30.72
371.528	-14.34
371.739	24.58
371.95	-18.43
372.16	55.3
372.371	20.48
372.582	8.19
372.792	38.91
373.003	18.43
373.214	24.58
373.424	-34.82
373.635	-2.05
373.846	55.3
374.056	-14.34
374.267	43.01
374.477	32.77
374.688	-45.06
374.898	-26.62
375.109	10.24
375.319	-51.2
375.53	-20.48
375.74	-61.44
375.951	8.19
376.161	-40.96
376.372	-6.14
376.582	-6.14
376.793	65.53
377.003	53.25
377.214	8.19
377.424	-55.3
377.635	40.96
377.845	12.29
378.055	61.44
378.266	-32.77
378.476	14.34
378.686	-38.91
378.897	2.05
379.107	34.82
379.317	-53.25
379.528	8.19
379.738	57.34
379.948	22.53
380.158	8.19
380.369	-36.86
380.579	12.29
380.789	-63.49
380.999	51.2
381.21	14.34
381.42	-40.96
381.63	10.24
381.84	-32.77
382.05	8.19
382.261	51.2
382.471	28.67
382.681	-65.54
382.891	8.19
383.101	75.77
383.311	55.3
383.521	-24.58
383.731	-14.34
383.941	32.77
384.151	14.34
384.361	6.14
384.571	18.43
384.781	16.38
384.991	30.72
385.201	34.82
385.411	4.1
385.621	30.72
385.831	-47.1
386.041	51.2
386.251	-8.19
386.461	34.82
386.671	73.73
386.881	53.25
387.091	-18.43
387.301	32.77
387.511	61.44
387.72	8.19
387.93	22.53
388.14	4.1
388.35	-32.77
388.56	34.82
388.769	-20.48
388.979	14.34
389.189	22.53
389.399	88.06
389.609	73.73
389.818	-55.3
390.028	38.91
390.238	47.1
390.447	-43.01
390.657	16.38
390.867	-59.39
391.076	-4.1
391.286	28.67
391.496	-53.25
391.705	-14.34
391.915	75.77
392.125	67.58
392.334	6.14
392.544	12.29
392.753	14.34
392.963	-14.34
393.172	22.53
393.382	55.3
393.591	135.17
393.801	63.49
394.01	22.53
394.22	34.82
394.429	12.29
394.639	12.29
394.848	124.93
395.058	-2.05
395.267	49.15
395.477	10.24
395.686	36.86
395.895	43.01
396.105	96.25
396.314	0
396.524	83.97
396.733	12.29
396.942	-8.19
397.152	12.29
397.361	59.39
397.57	120.83
397.78	55.3
397.989	10.24
398.198	18.43
398.407	47.1
398.617	81.92
398.826	30.72
399.035	2.05
399.244	40.96
399.453	122.88
399.663	34.82
399.872	55.3
400.081	-10.24
400.29	6.14
400.499	16.38
400.708	26.62
400.917	-10.24
401.127	18.43
401.336	71.68
401.545	32.77
401.754	12.29
401.963	4.1
402.172	90.11
402.381	38.91
402.59	30.72
402.799	-2.05
403.008	47.1
403.217	43.01
403.426	110.59
403.635	38.91
403.844	16.38
404.053	28.67
404.262	22.53
404.471	63.49
404.68	90.11
404.888	90.11
405.097	106.49
405.306	102.4
405.515	38.91
405.724	14.34
405.933	28.67
406.142	88.06
406.35	55.3
406.559	34.82
406.768	59.39
406.977	79.87
407.185	51.2
407.394	34.82
407.603	63.49
407.812	104.45
408.02	126.97
408.229	98.3
408.438	49.15
408.646	137.21
408.855	161.79
409.064	79.87
409.272	108.54
409.481	81.92
409.69	88.06
409.898	155.65
410.107	110.59
410.315	120.83
410.524	122.88
410.733	112.64
410.941	153.6
411.15	174.08
411.358	153.6
411.567	165.89
411.775	118.78
411.984	147.45
412.192	135.17
412.401	167.93
412.609	215.04
412.818	163.84
413.026	172.03
413.234	237.56
413.443	229.37
413.651	182.27
413.86	198.65
414.068	204.8
414.276	292.86
414.485	212.99
414.693	253.95
414.901	268.28
415.11	305.15
415.318	321.53
415.526	249.85
415.734	262.14
415.943	366.59
416.151	317.44
416.359	374.78
416.567	362.49
416.776	309.24
416.984	364.54
417.192	452.6
417.4	403.45
417.608	352.25
417.817	485.37
418.025	454.65
418.233	440.31
418.441	471.03
418.649	489.46
418.857	501.75
419.065	595.96
419.273	579.58
419.481	581.62
419.689	505.85
419.897	669.69
420.105	550.9
420.313	657.4
420.521	704.5
420.729	739.32
420.937	784.37
421.145	757.75
421.353	774.13
421.561	780.28
421.769	731.12
421.977	860.15
422.185	755.7
422.393	923.63
422.601	909.3
422.809	958.45
423.017	894.96
423.224	1021.94
423.432	1064.94
423.64	972.79
423.848	1196.01
424.056	1091.57
424.263	1193.97
424.471	1228.78
424.679	1251.31
424.887	1236.97
425.094	1288.17
425.302	1316.84
425.51	1300.46
425.718	1384.43
425.925	1443.82
426.133	1523.69
426.341	1572.84
426.548	1621.99
426.756	1632.23
426.964	1624.04
427.171	1617.9
427.379	1832.93
427.586	1660.9
427.794	1906.66
428.001	1980.39
428.209	2101.22
428.417	1896.42
428.624	2136.03
428.832	2158.56
429.039	2123.74
429.247	2201.57
429.454	2287.58
429.662	2457.56
429.869	2299.87
430.076	2519
430.284	2432.99
430.491	2629.59
430.699	2713.56
430.906	2746.33
431.114	2619.35
431.321	2867.16
431.528	2914.26
431.736	3061.71
431.943	3192.78
432.15	2990.03
432.358	2959.31
432.565	3381.2
432.772	3307.47
432.979	3499.98
433.187	3522.51
433.394	3553.23
433.601	3669.96
433.808	3866.56
434.016	3907.52
434.223	3960.77
434.43	4161.47
434.637	4046.79
434.844	4308.93
435.052	4392.89
435.259	4351.93
435.466	4485.05
435.673	4384.7
435.88	4798.39
436.087	4974.52
436.294	4937.65
436.501	4904.89
436.708	4802.49
436.915	5027.76
437.122	5279.66
437.329	5253.04
437.537	5332.91
437.743	5494.7
437.95	5494.7
438.157	5779.37
438.364	5992.36
438.571	5922.73
438.778	5961.64
438.985	6596.51
439.192	6326.18
439.399	6514.59
439.606	6559.64
439.813	6715.29
440.02	7251.86
440.227	6889.37
440.433	7053.2
440.64	7157.65
440.847	7176.08
441.054	7325.58
441.261	7882.63
441.467	7731.08
441.674	7853.96
441.881	8118.15
442.088	8150.92
442.294	8198.02
442.501	8277.89
442.708	8529.79
442.914	8939.38
443.121	9179
443.328	8865.66
443.534	9445.23
443.741	9391.98
443.948	9185.14
444.154	9858.92
444.361	9811.82
444.568	9996.14
444.774	9930.6
444.981	9961.32
445.187	10516.32
445.394	10684.25
445.6	10614.62
445.807	11513.68
446.013	11335.51
446.22	11468.62
446.426	11933.51
446.633	11974.47
446.839	12588.86
447.046	11872.07
447.252	12568.38
447.459	12513.09
447.665	12635.97
447.871	12750.65
448.078	13842.22
448.284	13152.06
448.491	13289.27
448.697	13948.72
448.903	14442.28
449.11	14276.39
449.316	14098.22
449.522	14395.17
449.728	14702.37
449.935	14911.26
450.141	15087.39
450.347	15171.35
450.553	14745.38
450.76	14962.46
450.966	15413.01
451.172	15226.65
451.378	15605.52
451.584	15318.81
451.791	15736.59
451.997	15640.34
452.203	16137.99
452.409	15914.77
452.615	15974.16
452.821	15529.75
453.027	15429.4
453.233	16082.7
453.44	15509.27
453.646	15732.5
453.852	15394.58
454.058	16221.96
454.264	15400.72
454.47	15986.44
454.676	15312.66
454.882	15914.77
455.088	14587.68
455.294	14833.44
455.5	15005.47
455.705	15075.1
455.911	14802.72
456.117	14499.62
456.323	13946.67
456.529	13672.24
456.735	14081.83
456.941	13483.83
457.147	13334.32
457.352	13279.03
457.558	13197.11
457.764	12879.68
457.97	12592.96
458.176	12326.72
458.381	12281.67
458.587	11851.6
458.793	11798.35
458.999	11251.54
459.204	12089.16
459.41	11636.56
459.616	10876.76
459.821	10919.77
460.027	10895.19
460.233	10653.53
460.438	10098.53
460.644	10151.78
460.85	9768.81
461.055	9508.72
461.261	9578.35
461.466	8875.9
461.672	8660.86
461.878	9326.45
462.083	8548.22
462.289	8415.1
462.494	8189.83
462.7	7925.64
462.905	7831.43
463.111	8034.18
463.316	7847.82
463.522	8025.99
463.727	7982.98
463.932	7847.82
464.138	7872.39
464.343	8050.57
464.549	7651.21
464.754	7675.79
464.959	7769.99
465.165	7864.2
465.37	7368.59
465.575	7167.89
465.781	7454.61
465.986	7659.4
466.191	7188.37
466.397	7090.07
466.602	6797.21
466.807	7128.98
467.012	6991.77
467.218	7030.68
467.423	6854.55
467.628	7024.53
467.833	7165.84
468.038	6995.86
468.244	6860.7
