Data from USB4F104151__20__12-58-34-719.txt Node

Date: Fri Mar 14 12:58:34 EDT 2025
User: louis
Spectrometer: USB4F10415
Trigger mode: 4
Integration Time (sec): 1.000000E-2
Scans to average: 1
Electric dark correction enabled: true
Nonlinearity correction enabled: false
Boxcar width: 0
XAxis mode: Wavelengths
Number of Pixels in Spectrum: 3648
>>>>>Begin Spectral Data<<<<<
178.204	-74.92
178.424	-74.92
178.644	-74.92
178.864	4.95
179.084	-58.54
179.304	-29.87
179.524	7
179.744	-7.34
179.964	33.62
180.184	-23.72
180.404	17.24
180.624	35.67
180.844	23.38
181.064	-74.92
181.283	-1.19
181.503	19.29
181.723	0.85
181.943	-40.11
182.163	66.39
182.383	-19.63
182.602	56.15
182.822	19.29
183.042	4.95
183.262	68.44
183.482	68.44
183.701	-36.01
183.921	41.81
184.141	41.81
184.361	72.53
184.58	95.06
184.8	37.72
185.02	70.48
185.239	21.33
185.459	39.76
185.679	62.29
185.898	-5.29
186.118	54.1
186.338	41.81
186.557	7
186.777	68.44
186.997	70.48
187.216	43.86
187.436	86.87
187.655	25.43
187.875	-17.58
188.095	-1.19
188.314	29.52
188.534	80.72
188.753	4.95
188.973	115.54
189.192	97.11
189.412	-1.19
189.631	-11.43
189.851	84.82
190.07	50
190.29	33.62
190.509	25.43
190.729	31.57
190.948	37.72
191.168	74.58
191.387	80.72
191.607	15.19
191.826	54.1
192.045	86.87
192.265	52.05
192.484	-7.34
192.704	25.43
192.923	115.54
193.142	68.44
193.362	15.19
193.581	76.63
193.8	39.76
194.02	25.43
194.239	19.29
194.458	117.59
194.678	50
194.897	84.82
195.116	7
195.335	50
195.555	88.92
195.774	66.39
195.993	-7.34
196.212	21.33
196.432	35.67
196.651	66.39
196.87	52.05
197.089	56.15
197.308	15.19
197.528	25.43
197.747	27.48
197.966	62.29
198.185	86.87
198.404	54.1
198.623	88.92
198.842	64.34
199.062	-44.2
199.281	76.63
199.5	33.62
199.719	4.95
199.938	-9.39
200.157	54.1
200.376	-7.34
200.595	64.34
200.814	47.96
201.033	78.68
201.252	-7.34
201.471	15.19
201.69	19.29
201.909	29.52
202.128	-3.24
202.347	43.86
202.566	29.52
202.785	-11.43
203.004	52.05
203.223	23.38
203.442	35.67
203.661	78.68
203.879	25.43
204.098	60.24
204.317	37.72
204.536	86.87
204.755	60.24
204.974	62.29
205.193	37.72
205.411	23.38
205.63	-36.01
205.849	47.96
206.068	-1.19
206.287	33.62
206.505	13.14
206.724	-5.29
206.943	66.39
207.162	-3.24
207.381	29.52
207.599	37.72
207.818	50
208.037	52.05
208.255	33.62
208.474	-40.11
208.693	58.2
208.911	70.48
209.13	66.39
209.349	68.44
209.567	-36.01
209.786	17.24
210.005	50
210.223	43.86
210.442	-87.21
210.661	-5.29
210.879	23.38
211.098	23.38
211.316	27.48
211.535	74.58
211.753	47.96
211.972	107.35
212.191	-9.39
212.409	-11.43
212.628	74.58
212.846	76.63
213.065	35.67
213.283	7
213.502	56.15
213.72	23.38
213.938	-7.34
214.157	-19.63
214.375	72.53
214.594	35.67
214.812	82.77
215.031	33.62
215.249	23.38
215.467	68.44
215.686	11.09
215.904	103.25
216.122	72.53
216.341	4.95
216.559	-27.82
216.778	95.06
216.996	43.86
217.214	68.44
217.432	-15.53
217.651	47.96
217.869	-13.48
218.087	25.43
218.306	62.29
218.524	23.38
218.742	-21.67
218.96	52.05
219.179	7
219.397	13.14
219.615	17.24
219.833	33.62
220.051	45.91
220.27	13.14
220.488	15.19
220.706	13.14
220.924	129.88
221.142	29.52
221.36	-21.67
221.578	17.24
221.796	23.38
222.015	66.39
222.233	39.76
222.451	31.57
222.669	72.53
222.887	80.72
223.105	-9.39
223.323	-1.19
223.541	-29.87
223.759	54.1
223.977	62.29
224.195	66.39
224.413	93.01
224.631	-5.29
224.849	-13.48
225.067	37.72
225.285	45.91
225.503	17.24
225.721	31.57
225.939	33.62
226.157	52.05
226.375	88.92
226.592	-44.2
226.81	31.57
227.028	37.72
227.246	76.63
227.464	23.38
227.682	62.29
227.9	52.05
228.117	54.1
228.335	97.11
228.553	99.16
228.771	21.33
228.989	97.11
229.206	74.58
229.424	-21.67
229.642	-48.3
229.86	58.2
230.077	-5.29
230.295	58.2
230.513	50
230.731	15.19
230.948	119.64
231.166	43.86
231.384	72.53
231.601	19.29
231.819	7
232.037	133.97
232.254	-19.63
232.472	133.97
232.689	7
232.907	2.9
233.125	-21.67
233.342	0.85
233.56	56.15
233.777	15.19
233.995	-5.29
234.213	-89.26
234.43	2.9
234.648	72.53
234.865	101.2
235.083	64.34
235.3	74.58
235.518	21.33
235.735	-23.72
235.953	109.4
236.17	13.14
236.388	4.95
236.605	33.62
236.822	9.05
237.04	70.48
237.257	13.14
237.475	-11.43
237.692	-17.58
237.909	56.15
238.127	72.53
238.344	13.14
238.562	105.3
238.779	-11.43
238.996	76.63
239.214	39.76
239.431	37.72
239.648	56.15
239.865	97.11
240.083	33.62
240.3	33.62
240.517	56.15
240.735	4.95
240.952	74.58
241.169	47.96
241.386	31.57
241.603	-3.24
241.821	19.29
242.038	103.25
242.255	-7.34
242.472	41.81
242.689	43.86
242.907	84.82
243.124	29.52
243.341	19.29
243.558	95.06
243.775	52.05
243.992	33.62
244.209	82.77
244.426	23.38
244.643	4.95
244.86	56.15
245.078	62.29
245.295	2.9
245.512	43.86
245.729	-23.72
245.946	72.53
246.163	21.33
246.38	15.19
246.597	76.63
246.814	95.06
247.031	23.38
247.248	111.44
247.464	7
247.681	86.87
247.898	-5.29
248.115	13.14
248.332	39.76
248.549	74.58
248.766	60.24
248.983	117.59
249.2	43.86
249.417	47.96
249.633	58.2
249.85	29.52
250.067	45.91
250.284	13.14
250.501	29.52
250.717	64.34
250.934	56.15
251.151	88.92
251.368	68.44
251.585	97.11
251.801	97.11
252.018	66.39
252.235	13.14
252.451	88.92
252.668	-17.58
252.885	56.15
253.102	-23.72
253.318	0.85
253.535	54.1
253.752	13.14
253.968	21.33
254.185	39.76
254.401	39.76
254.618	-9.39
254.835	37.72
255.051	86.87
255.268	19.29
255.484	64.34
255.701	95.06
255.917	58.2
256.134	-56.49
256.351	29.52
256.567	74.58
256.784	84.82
257	41.81
257.217	23.38
257.433	70.48
257.65	76.63
257.866	-1.19
258.082	-11.43
258.299	33.62
258.515	-29.87
258.732	7
258.948	-19.63
259.165	-25.77
259.381	93.01
259.597	-3.24
259.814	17.24
260.03	111.44
260.246	47.96
260.463	47.96
260.679	27.48
260.895	31.57
261.112	105.3
261.328	58.2
261.544	4.95
261.761	82.77
261.977	29.52
262.193	27.48
262.409	13.14
262.626	27.48
262.842	37.72
263.058	19.29
263.274	62.29
263.49	113.49
263.707	15.19
263.923	29.52
264.139	50
264.355	31.57
264.571	-9.39
264.787	-17.58
265.004	88.92
265.22	117.59
265.436	54.1
265.652	19.29
265.868	9.05
266.084	82.77
266.3	23.38
266.516	-17.58
266.732	21.33
266.948	62.29
267.164	4.95
267.38	33.62
267.596	41.81
267.812	-3.24
268.028	74.58
268.244	7
268.46	54.1
268.676	33.62
268.892	29.52
269.108	11.09
269.324	-7.34
269.54	-25.77
269.756	62.29
269.972	45.91
270.188	31.57
270.403	62.29
270.619	58.2
270.835	39.76
271.051	70.48
271.267	19.29
271.483	43.86
271.698	35.67
271.914	52.05
272.13	45.91
272.346	47.96
272.562	2.9
272.777	29.52
272.993	-83.11
273.209	86.87
273.425	39.76
273.64	86.87
273.856	80.72
274.072	29.52
274.287	25.43
274.503	97.11
274.719	162.64
274.934	-13.48
275.15	11.09
275.366	-13.48
275.581	7
275.797	74.58
276.012	45.91
276.228	13.14
276.444	9.05
276.659	-31.91
276.875	29.52
277.09	66.39
277.306	78.68
277.521	60.24
277.737	-46.25
277.952	45.91
278.168	72.53
278.383	82.77
278.599	76.63
278.814	35.67
279.03	13.14
279.245	78.68
279.461	62.29
279.676	37.72
279.892	11.09
280.107	52.05
280.322	66.39
280.538	41.81
280.753	90.96
280.969	37.72
281.184	-9.39
281.399	45.91
281.615	25.43
281.83	56.15
282.045	-29.87
282.26	-44.2
282.476	13.14
282.691	62.29
282.906	47.96
283.122	27.48
283.337	9.05
283.552	70.48
283.767	-25.77
283.983	31.57
284.198	50
284.413	-17.58
284.628	19.29
284.843	95.06
285.058	23.38
285.274	17.24
285.489	-17.58
285.704	-9.39
285.919	56.15
286.134	119.64
286.349	31.57
286.564	90.96
286.779	4.95
286.995	56.15
287.21	56.15
287.425	33.62
287.64	9.05
287.855	54.1
288.07	-17.58
288.285	62.29
288.5	15.19
288.715	117.59
288.93	29.52
289.145	7
289.36	90.96
289.575	88.92
289.79	78.68
290.004	33.62
290.219	-31.91
290.434	-17.58
290.649	11.09
290.864	99.16
291.079	31.57
291.294	-29.87
291.509	15.19
291.724	13.14
291.938	88.92
292.153	-17.58
292.368	56.15
292.583	84.82
292.798	52.05
293.012	68.44
293.227	15.19
293.442	11.09
293.657	70.48
293.871	0.85
294.086	80.72
294.301	56.15
294.516	41.81
294.73	50
294.945	9.05
295.16	19.29
295.374	99.16
295.589	78.68
295.804	99.16
296.018	2.9
296.233	99.16
296.447	80.72
296.662	47.96
296.877	78.68
297.091	35.67
297.306	-33.96
297.52	-3.24
297.735	107.35
297.949	72.53
298.164	-1.19
298.378	9.05
298.593	23.38
298.807	68.44
299.022	37.72
299.236	-3.24
299.451	58.2
299.665	-7.34
299.88	80.72
300.094	35.67
300.309	39.76
300.523	37.72
300.737	93.01
300.952	-56.49
301.166	33.62
301.381	58.2
301.595	-50.35
301.809	35.67
302.024	29.52
302.238	47.96
302.452	109.4
302.667	33.62
302.881	115.54
303.095	25.43
303.309	19.29
303.524	101.2
303.738	7
303.952	66.39
304.166	-1.19
304.381	13.14
304.595	23.38
304.809	25.43
305.023	54.1
305.237	4.95
305.452	41.81
305.666	78.68
305.88	54.1
306.094	-15.53
306.308	47.96
306.522	133.97
306.736	97.11
306.95	93.01
307.164	88.92
307.379	31.57
307.593	23.38
307.807	21.33
308.021	88.92
308.235	-5.29
308.449	-19.63
308.663	129.88
308.877	97.11
309.091	76.63
309.305	-1.19
309.519	60.24
309.733	58.2
309.947	7
310.161	-3.24
310.374	66.39
310.588	80.72
310.802	-13.48
311.016	41.81
311.23	31.57
311.444	33.62
311.658	35.67
311.872	78.68
312.085	-9.39
312.299	37.72
312.513	47.96
312.727	29.52
312.941	23.38
313.154	82.77
313.368	107.35
313.582	31.57
313.796	17.24
314.009	-1.19
314.223	50
314.437	4.95
314.651	4.95
314.864	127.83
315.078	9.05
315.292	-36.01
315.505	62.29
315.719	86.87
315.933	33.62
316.146	-31.91
316.36	41.81
316.573	-17.58
316.787	97.11
317.001	29.52
317.214	97.11
317.428	105.3
317.641	13.14
317.855	37.72
318.068	76.63
318.282	19.29
318.495	70.48
318.709	56.15
318.922	45.91
319.136	-3.24
319.349	37.72
319.563	47.96
319.776	-44.2
319.99	-11.43
320.203	82.77
320.417	64.34
320.63	90.96
320.843	-11.43
321.057	-3.24
321.27	23.38
321.483	72.53
321.697	95.06
321.91	15.19
322.124	-7.34
322.337	-25.77
322.55	119.64
322.763	52.05
322.977	43.86
323.19	11.09
323.403	76.63
323.617	45.91
323.83	90.96
324.043	47.96
324.256	31.57
324.469	47.96
324.683	17.24
324.896	-27.82
325.109	39.76
325.322	17.24
325.535	113.49
325.748	9.05
325.962	80.72
326.175	13.14
326.388	41.81
326.601	111.44
326.814	23.38
327.027	84.82
327.24	72.53
327.453	27.48
327.666	74.58
327.879	15.19
328.092	66.39
328.305	64.34
328.518	-9.39
328.731	37.72
328.944	21.33
329.157	47.96
329.37	41.81
329.583	45.91
329.796	70.48
330.009	29.52
330.222	35.67
330.435	15.19
330.648	31.57
330.861	113.49
331.073	33.62
331.286	21.33
331.499	76.63
331.712	9.05
331.925	35.67
332.138	64.34
332.35	131.92
332.563	66.39
332.776	31.57
332.989	-17.58
333.202	11.09
333.414	-9.39
333.627	76.63
333.84	58.2
334.053	37.72
334.265	-5.29
334.478	111.44
334.691	54.1
334.903	80.72
335.116	37.72
335.329	2.9
335.541	66.39
335.754	29.52
335.966	47.96
336.179	66.39
336.392	21.33
336.604	125.78
336.817	82.77
337.029	25.43
337.242	25.43
337.454	103.25
337.667	68.44
337.88	21.33
338.092	56.15
338.305	99.16
338.517	50
338.729	88.92
338.942	62.29
339.154	29.52
339.367	72.53
339.579	66.39
339.792	45.91
340.004	31.57
340.217	62.29
340.429	33.62
340.641	27.48
340.854	37.72
341.066	37.72
341.278	103.25
341.491	119.64
341.703	27.48
341.915	17.24
342.128	39.76
342.34	11.09
342.552	-5.29
342.764	41.81
342.977	0.85
343.189	52.05
343.401	37.72
343.613	88.92
343.826	86.87
344.038	50
344.25	60.24
344.462	29.52
344.674	29.52
344.886	29.52
345.099	158.55
345.311	37.72
345.523	76.63
345.735	35.67
345.947	-9.39
346.159	7
346.371	-7.34
346.583	23.38
346.795	131.92
347.007	33.62
347.219	56.15
347.431	-23.72
347.643	45.91
347.855	82.77
348.067	37.72
348.279	90.96
348.491	39.76
348.703	-23.72
348.915	29.52
349.127	27.48
349.339	54.1
349.551	-3.24
349.763	66.39
349.975	78.68
350.187	78.68
350.399	2.9
350.61	54.1
350.822	35.67
351.034	88.92
351.246	62.29
351.458	99.16
351.669	43.86
351.881	111.44
352.093	138.07
352.305	84.82
352.517	31.57
352.728	90.96
352.94	58.2
353.152	80.72
353.363	39.76
353.575	93.01
353.787	25.43
353.999	39.76
354.21	113.49
354.422	80.72
354.633	58.2
354.845	103.25
355.057	17.24
355.268	29.52
355.48	39.76
355.692	13.14
355.903	29.52
356.115	84.82
356.326	35.67
356.538	47.96
356.749	-15.53
356.961	95.06
357.172	11.09
357.384	-1.19
357.595	95.06
357.807	23.38
358.018	37.72
358.23	72.53
358.441	78.68
358.653	39.76
358.864	39.76
359.075	-11.43
359.287	58.2
359.498	95.06
359.709	13.14
359.921	54.1
360.132	35.67
360.344	-23.72
360.555	-3.24
360.766	58.2
360.977	60.24
361.189	-36.01
361.4	21.33
361.611	76.63
361.823	54.1
362.034	62.29
362.245	-9.39
362.456	37.72
362.667	50
362.879	88.92
363.09	64.34
363.301	-9.39
363.512	52.05
363.723	-3.24
363.935	58.2
364.146	66.39
364.357	-62.63
364.568	2.9
364.779	37.72
364.99	23.38
365.201	88.92
365.412	127.83
365.623	7
365.834	15.19
366.045	15.19
366.256	103.25
366.467	68.44
366.678	17.24
366.889	54.1
367.1	35.67
367.311	47.96
367.522	70.48
367.733	119.64
367.944	148.31
368.155	43.86
368.366	35.67
368.577	68.44
368.788	9.05
368.999	64.34
369.209	117.59
369.42	2.9
369.631	86.87
369.842	54.1
370.053	111.44
370.264	25.43
370.474	84.82
370.685	21.33
370.896	17.24
371.107	31.57
371.317	86.87
371.528	62.29
371.739	78.68
371.95	17.24
372.16	21.33
372.371	-1.19
372.582	-11.43
372.792	97.11
373.003	29.52
373.214	47.96
373.424	39.76
373.635	35.67
373.846	19.29
374.056	33.62
374.267	80.72
374.477	117.59
374.688	37.72
374.898	33.62
375.109	43.86
375.319	101.2
375.53	144.21
375.74	95.06
375.951	64.34
376.161	95.06
376.372	88.92
376.582	54.1
376.793	70.48
377.003	50
377.214	-27.82
377.424	64.34
377.635	62.29
377.845	21.33
378.055	45.91
378.266	0.85
378.476	115.54
378.686	70.48
378.897	62.29
379.107	15.19
379.317	136.02
379.528	84.82
379.738	68.44
379.948	84.82
380.158	47.96
380.369	56.15
380.579	45.91
380.789	80.72
380.999	0.85
381.21	56.15
381.42	95.06
381.63	111.44
381.84	82.77
382.05	93.01
382.261	41.81
382.471	50
382.681	86.87
382.891	86.87
383.101	43.86
383.311	76.63
383.521	50
383.731	54.1
383.941	86.87
384.151	33.62
384.361	29.52
384.571	25.43
384.781	93.01
384.991	72.53
385.201	103.25
385.411	131.92
385.621	54.1
385.831	58.2
386.041	64.34
386.251	4.95
386.461	95.06
386.671	45.91
386.881	115.54
387.091	52.05
387.301	125.78
387.511	121.68
387.72	56.15
387.93	101.2
388.14	13.14
388.35	39.76
388.56	88.92
388.769	119.64
388.979	86.87
389.189	86.87
389.399	86.87
389.609	195.41
389.818	74.58
390.028	9.05
390.238	41.81
390.447	47.96
390.657	146.26
390.867	99.16
391.076	52.05
391.286	76.63
391.496	86.87
391.705	19.29
391.915	74.58
392.125	82.77
392.334	99.16
392.544	72.53
392.753	95.06
392.963	74.58
393.172	111.44
393.382	64.34
393.591	60.24
393.801	82.77
394.01	80.72
394.22	58.2
394.429	103.25
394.639	17.24
394.848	115.54
395.058	121.68
395.267	119.64
395.477	68.44
395.686	97.11
395.895	111.44
396.105	-17.58
396.314	74.58
396.524	127.83
396.733	19.29
396.942	109.4
397.152	136.02
397.361	111.44
397.57	2.9
397.78	144.21
397.989	115.54
398.198	113.49
398.407	21.33
398.617	78.68
398.826	62.29
399.035	109.4
399.244	103.25
399.453	95.06
399.663	97.11
399.872	70.48
400.081	107.35
400.29	58.2
400.499	109.4
400.708	99.16
400.917	93.01
401.127	90.96
401.336	74.58
401.545	152.4
401.754	113.49
401.963	201.55
402.172	181.07
402.381	62.29
402.59	21.33
402.799	160.59
403.008	62.29
403.217	160.59
403.426	125.78
403.635	95.06
403.844	125.78
404.053	52.05
404.262	168.79
404.471	138.07
404.68	82.77
404.888	146.26
405.097	45.91
405.306	119.64
405.515	86.87
405.724	109.4
405.933	150.36
406.142	131.92
406.35	97.11
406.559	142.16
406.768	117.59
406.977	156.5
407.185	97.11
407.394	127.83
407.603	138.07
407.812	119.64
408.02	127.83
408.229	152.4
408.438	152.4
408.646	119.64
408.855	150.36
409.064	234.32
409.272	197.46
409.481	228.18
409.69	238.42
409.898	197.46
410.107	299.86
410.315	209.75
410.524	258.9
410.733	234.32
410.941	226.13
411.15	260.95
411.358	271.19
411.567	301.9
411.775	295.76
411.984	289.62
412.192	244.56
412.401	369.49
412.609	299.86
412.818	381.78
413.026	334.67
413.234	365.39
413.443	375.63
413.651	328.53
413.86	273.23
414.068	318.29
414.276	400.21
414.485	465.74
414.693	443.21
414.901	529.23
415.11	465.74
415.318	432.97
415.526	500.56
415.734	467.79
415.943	545.61
416.151	574.28
416.359	553.8
416.567	486.22
416.776	656.2
416.984	635.72
417.192	686.92
417.4	594.76
417.608	619.34
417.817	701.26
418.025	668.49
418.233	664.4
418.441	774.99
418.649	791.37
418.857	758.6
419.065	779.08
419.273	807.75
419.481	889.67
419.689	908.1
419.897	951.11
420.105	908.1
420.313	1028.93
420.521	1069.89
420.729	1051.46
420.937	1057.61
421.145	1121.09
421.353	1151.81
421.561	1233.73
421.769	1327.94
421.977	1434.43
422.185	1276.74
422.393	1411.9
422.601	1450.82
422.809	1407.81
423.017	1512.25
423.224	1538.88
423.432	1592.13
423.64	1596.22
423.848	1715
424.056	1702.72
424.263	1852.22
424.471	1760.06
424.679	1903.42
424.887	2044.73
425.094	1971
425.302	1993.53
425.51	2095.93
425.718	2159.41
425.925	2247.48
426.133	2341.68
426.341	2421.55
426.548	2513.71
426.756	2556.72
426.964	2452.27
427.171	2624.3
427.379	2859.82
427.586	2816.81
427.794	2771.76
428.001	2990.89
428.209	3048.23
428.417	3048.23
428.624	3302.18
428.832	3314.47
429.039	3316.51
429.247	3402.53
429.454	3545.89
429.662	3887.9
429.869	3691.29
430.076	3779.36
430.284	3722.01
430.491	4008.73
430.699	4244.24
430.906	4174.61
431.114	4174.61
431.321	4340.5
431.528	4528.91
431.736	4672.27
431.943	5047.05
432.15	4774.67
432.358	4829.96
432.565	4981.51
432.772	4920.07
432.979	5505.79
433.187	5346.05
433.394	5384.96
433.601	5853.95
433.808	5643.01
434.016	5825.28
434.223	6079.22
434.43	6224.63
434.637	6277.88
434.844	6679.28
435.052	6935.28
435.259	6789.87
435.466	6869.74
435.673	6705.9
435.88	7250.66
436.087	7586.53
436.294	7527.14
436.501	7254.76
436.708	7529.19
436.915	7709.41
437.122	8092.38
437.329	7946.97
437.537	8510.16
437.743	8477.4
437.95	8354.52
438.157	8975.05
438.364	9155.27
438.571	9210.57
438.778	9188.04
438.985	10201.79
439.192	9618.11
439.399	9878.21
439.606	9720.51
439.813	10232.51
440.02	10873.52
440.227	10754.74
440.433	10638
440.64	11047.6
440.847	10941.1
441.054	11385.51
441.261	11981.47
441.467	11817.63
441.674	12030.62
441.881	12681.88
442.088	12624.53
442.294	12346.01
442.501	12622.48
442.708	12978.83
442.914	13562.5
443.121	14066.3
443.328	13779.59
443.534	14692.98
443.741	14238.33
443.948	13908.61
444.154	15256.17
444.361	14967.41
444.568	14971.5
444.774	15264.36
444.981	15196.78
445.187	15749.73
445.394	16390.75
445.6	16261.73
445.807	17855.04
446.013	16988.75
446.22	17508.94
446.426	17807.94
446.633	18301.5
446.839	18825.78
447.046	18362.94
447.252	19067.44
447.459	19216.94
447.665	19065.39
447.871	19970.6
448.078	20759.06
448.284	19618.35
448.491	20396.57
448.697	21168.66
448.903	21389.84
449.11	21527.05
449.316	21189.14
449.522	21522.96
449.728	22254.08
449.935	22790.65
450.141	22733.31
450.347	22784.51
450.553	22245.89
450.76	22534.65
450.966	23181.81
451.172	22850.04
451.378	23708.14
451.584	23161.33
451.791	23951.85
451.997	23396.85
452.203	23962.09
452.409	23966.18
452.615	24244.71
452.821	23190
453.027	23085.56
453.233	24058.34
453.44	23103.99
453.646	23515.63
453.852	23597.55
454.058	23818.73
454.264	23026.17
454.47	23716.33
454.676	22972.92
454.882	23892.46
455.088	21701.13
455.294	22254.08
455.5	22667.77
455.705	22766.07
455.911	22114.82
456.117	21445.13
456.323	20779.54
456.529	19954.21
456.735	20961.81
456.941	20570.65
457.147	20124.19
457.352	19331.63
457.558	19284.53
457.764	19388.97
457.97	18985.52
458.176	18502.2
458.381	18403.9
458.587	17621.58
458.793	17721.93
458.999	16644.7
459.204	17863.24
459.41	17250.89
459.616	16357.98
459.821	16214.62
460.027	15989.35
460.233	15784.55
460.438	15188.59
460.644	15528.55
460.85	14600.82
461.055	14367.35
461.261	14281.34
461.466	13177.48
461.672	12907.15
461.878	13740.68
462.083	12792.47
462.289	12368.54
462.494	12651.16
462.7	12006.05
462.905	11680.42
463.111	12077.73
463.316	11874.98
463.522	11645.6
463.727	11666.08
463.932	11709.09
464.138	11696.8
464.343	11586.21
464.549	11319.98
464.754	11897.5
464.959	11586.21
465.165	11569.83
465.37	11143.85
465.575	10785.46
465.781	11096.75
465.986	11229.87
466.191	10922.67
466.397	10681.01
466.602	10105.53
466.807	10580.66
467.012	10531.51
467.218	10359.48
467.423	10406.58
467.628	10412.73
467.833	10816.18
468.038	10326.71
468.244	10169.02
468.449	10394.29
468.654	10040
468.859	10115.77
469.064	10220.22
469.269	9501.38
469.474	9812.67
