Data from USB4F104151__54__12-24-05-213.txt Node

Date: Fri Mar 14 12:24:05 EDT 2025
User: louis
Spectrometer: USB4F10415
Trigger mode: 4
Integration Time (sec): 3.500000E-2
Scans to average: 1
Electric dark correction enabled: true
Nonlinearity correction enabled: false
Boxcar width: 0
XAxis mode: Wavelengths
Number of Pixels in Spectrum: 3648
>>>>>Begin Spectral Data<<<<<
178.204	-183.63
178.424	-183.63
178.644	-183.63
178.864	-148.82
179.084	-175.44
179.304	12.97
179.524	-89.43
179.744	-3.41
179.964	17.07
180.184	15.02
180.404	51.88
180.624	41.64
180.844	-11.61
181.064	-34.13
181.283	27.31
181.503	-5.46
181.723	-21.85
181.943	-62.8
182.163	154.28
182.383	35.5
182.602	25.26
182.822	15.02
183.042	41.64
183.262	27.31
183.482	17.07
183.701	0.68
183.921	-5.46
184.141	17.07
184.361	31.4
184.58	37.55
184.8	-3.41
185.02	86.7
185.239	51.88
185.459	53.93
185.679	90.79
185.898	-40.28
186.118	25.26
186.338	4.78
186.557	90.79
186.777	8.87
186.997	-17.75
187.216	-7.51
187.436	84.65
187.655	35.5
187.875	41.64
188.095	41.64
188.314	4.78
188.534	166.57
188.753	19.11
188.973	98.99
189.192	49.83
189.412	31.4
189.631	58.03
189.851	0.68
190.07	94.89
190.29	45.74
190.509	31.4
190.729	-75.09
190.948	37.55
191.168	141.99
191.387	66.22
191.607	60.07
191.826	53.93
192.045	17.07
192.265	6.83
192.484	-56.66
192.704	19.11
192.923	10.92
193.142	72.36
193.362	96.94
193.581	113.32
193.8	51.88
194.02	62.12
194.239	23.21
194.458	49.83
194.678	39.59
194.897	49.83
195.116	17.07
195.335	-13.65
195.555	72.36
195.774	-60.76
195.993	19.11
196.212	-27.99
196.432	39.59
196.651	-19.8
196.87	-21.85
197.089	29.35
197.308	41.64
197.528	37.55
197.747	37.55
197.966	-56.66
198.185	55.98
198.404	-21.85
198.623	-30.04
198.842	55.98
199.062	12.97
199.281	33.45
199.5	15.02
199.719	-38.23
199.938	-21.85
200.157	41.64
200.376	-23.89
200.595	33.45
200.814	45.74
201.033	-9.56
201.252	96.94
201.471	49.83
201.69	10.92
201.909	64.17
202.128	47.79
202.347	-1.37
202.566	86.7
202.785	-21.85
203.004	-1.37
203.223	141.99
203.442	27.31
203.661	-54.61
203.879	33.45
204.098	37.55
204.317	-15.7
204.536	25.26
204.755	29.35
204.974	21.16
205.193	-36.18
205.411	39.59
205.63	47.79
205.849	4.78
206.068	15.02
206.287	64.17
206.505	72.36
206.724	53.93
206.943	29.35
207.162	4.78
207.381	47.79
207.599	64.17
207.818	-52.56
208.037	-38.23
208.255	-27.99
208.474	-5.46
208.693	10.92
208.911	2.73
209.13	6.83
209.349	60.07
209.567	82.6
209.786	58.03
210.005	43.69
210.223	70.31
210.442	37.55
210.661	-3.41
210.879	8.87
211.098	8.87
211.316	17.07
211.535	4.78
211.753	68.27
211.972	29.35
212.191	23.21
212.409	53.93
212.628	25.26
212.846	-17.75
213.065	19.11
213.283	17.07
213.502	-40.28
213.72	39.59
213.938	88.75
214.157	113.32
214.375	-17.75
214.594	-17.75
214.812	-5.46
215.031	37.55
215.249	-7.51
215.467	92.84
215.686	-21.85
215.904	127.66
216.122	-71
216.341	76.46
216.559	49.83
216.778	-34.13
216.996	49.83
217.214	4.78
217.432	25.26
217.651	66.22
217.869	-13.65
218.087	29.35
218.306	-11.61
218.524	41.64
218.742	4.78
218.96	82.6
219.179	-25.94
219.397	90.79
219.615	23.21
219.833	6.83
220.051	27.31
220.27	41.64
220.488	80.55
220.706	0.68
220.924	72.36
221.142	-34.13
221.36	53.93
221.578	-11.61
221.796	25.26
222.015	-36.18
222.233	43.69
222.451	90.79
222.669	-25.94
222.887	43.69
223.105	2.73
223.323	-44.37
223.541	2.73
223.759	37.55
223.977	72.36
224.195	-25.94
224.413	156.33
224.631	70.31
224.849	53.93
225.067	92.84
225.285	43.69
225.503	107.18
225.721	-23.89
225.939	17.07
226.157	-15.7
226.375	121.51
226.592	-21.85
226.81	33.45
227.028	21.16
227.246	39.59
227.464	55.98
227.682	25.26
227.9	35.5
228.117	-9.56
228.335	-27.99
228.553	-21.85
228.771	10.92
228.989	84.65
229.206	12.97
229.424	6.83
229.642	-11.61
229.86	25.26
230.077	49.83
230.295	41.64
230.513	64.17
230.731	49.83
230.948	76.46
231.166	123.56
231.384	68.27
231.601	19.11
231.819	158.38
232.037	17.07
232.254	12.97
232.472	41.64
232.689	-9.56
232.907	113.32
233.125	-40.28
233.342	53.93
233.56	-32.08
233.777	-9.56
233.995	0.68
234.213	41.64
234.43	27.31
234.648	-34.13
234.865	6.83
235.083	68.27
235.3	76.46
235.518	-7.51
235.735	127.66
235.953	76.46
236.17	0.68
236.388	-27.99
236.605	-30.04
236.822	64.17
237.04	49.83
237.257	94.89
237.475	17.07
237.692	27.31
237.909	51.88
238.127	-60.76
238.344	-30.04
238.562	60.07
238.779	-30.04
238.996	-15.7
239.214	-5.46
239.431	41.64
239.648	-7.51
239.865	101.03
240.083	39.59
240.3	49.83
240.517	-3.41
240.735	21.16
240.952	78.51
241.169	58.03
241.386	-5.46
241.603	-11.61
241.821	29.35
242.038	25.26
242.255	-36.18
242.472	-36.18
242.689	62.12
242.907	41.64
243.124	23.21
243.341	4.78
243.558	-34.13
243.775	-11.61
243.992	-5.46
244.209	66.22
244.426	84.65
244.643	-23.89
244.86	-3.41
245.078	68.27
245.295	62.12
245.512	37.55
245.729	-30.04
245.946	-17.75
246.163	-25.94
246.38	27.31
246.597	80.55
246.814	-5.46
247.031	76.46
247.248	12.97
247.464	88.75
247.681	41.64
247.898	58.03
248.115	15.02
248.332	-21.85
248.549	37.55
248.766	111.27
248.983	62.12
249.2	27.31
249.417	109.22
249.633	-7.51
249.85	39.59
250.067	45.74
250.284	64.17
250.501	10.92
250.717	64.17
250.934	-81.24
251.151	12.97
251.368	-19.8
251.585	119.46
251.801	17.07
252.018	-3.41
252.235	-1.37
252.451	-17.75
252.668	21.16
252.885	88.75
253.102	74.41
253.318	27.31
253.535	15.02
253.752	-27.99
253.968	-13.65
254.185	-13.65
254.401	-23.89
254.618	-40.28
254.835	72.36
255.051	55.98
255.268	45.74
255.484	88.75
255.701	49.83
255.917	98.99
256.134	-62.8
256.351	0.68
256.567	-15.7
256.784	29.35
257	29.35
257.217	2.73
257.433	10.92
257.65	49.83
257.866	105.13
258.082	33.45
258.299	17.07
258.515	17.07
258.732	41.64
258.948	2.73
259.165	82.6
259.381	51.88
259.597	51.88
259.814	19.11
260.03	8.87
260.246	15.02
260.463	53.93
260.679	37.55
260.895	78.51
261.112	41.64
261.328	80.55
261.544	33.45
261.761	92.84
261.977	92.84
262.193	6.83
262.409	111.27
262.626	58.03
262.842	70.31
263.058	-42.32
263.274	58.03
263.49	10.92
263.707	15.02
263.923	27.31
264.139	-30.04
264.355	-19.8
264.571	35.5
264.787	-36.18
265.004	2.73
265.22	43.69
265.436	-1.37
265.652	-25.94
265.868	43.69
266.084	-21.85
266.3	31.4
266.516	80.55
266.732	19.11
266.948	43.69
267.164	-13.65
267.38	107.18
267.596	19.11
267.812	43.69
268.028	0.68
268.244	21.16
268.46	60.07
268.676	-15.7
268.892	8.87
269.108	-73.04
269.324	25.26
269.54	-36.18
269.756	-30.04
269.972	-42.32
270.188	25.26
270.403	-30.04
270.619	51.88
270.835	-17.75
271.051	66.22
271.267	27.31
271.483	-7.51
271.698	27.31
271.914	80.55
272.13	-5.46
272.346	-32.08
272.562	72.36
272.777	47.79
272.993	33.45
273.209	6.83
273.425	4.78
273.64	98.99
273.856	27.31
274.072	-54.61
274.287	53.93
274.503	82.6
274.719	84.65
274.934	-13.65
275.15	15.02
275.366	10.92
275.581	4.78
275.797	43.69
276.012	35.5
276.228	-5.46
276.444	-30.04
276.659	29.35
276.875	-109.91
277.09	47.79
277.306	-15.7
277.521	55.98
277.737	53.93
277.952	19.11
278.168	51.88
278.383	66.22
278.599	88.75
278.814	68.27
279.03	12.97
279.245	113.32
279.461	-1.37
279.676	51.88
279.892	-40.28
280.107	47.79
280.322	-46.42
280.538	15.02
280.753	-17.75
280.969	37.55
281.184	49.83
281.399	68.27
281.615	49.83
281.83	41.64
282.045	-30.04
282.26	55.98
282.476	-17.75
282.691	72.36
282.906	-5.46
283.122	78.51
283.337	51.88
283.552	76.46
283.767	15.02
283.983	76.46
284.198	58.03
284.413	-11.61
284.628	-109.91
284.843	2.73
285.058	45.74
285.274	-15.7
285.489	15.02
285.704	33.45
285.919	-27.99
286.134	-17.75
286.349	39.59
286.564	43.69
286.779	-15.7
286.995	21.16
287.21	2.73
287.425	92.84
287.64	15.02
287.855	133.8
288.07	-40.28
288.285	47.79
288.5	74.41
288.715	31.4
288.93	8.87
289.145	-7.51
289.36	68.27
289.575	94.89
289.79	62.12
290.004	68.27
290.219	88.75
290.434	-46.42
290.649	-17.75
290.864	68.27
291.079	-5.46
291.294	-11.61
291.509	35.5
291.724	47.79
291.938	6.83
292.153	12.97
292.368	0.68
292.583	27.31
292.798	41.64
293.012	33.45
293.227	-25.94
293.442	41.64
293.657	17.07
293.871	23.21
294.086	76.46
294.301	0.68
294.516	127.66
294.73	68.27
294.945	29.35
295.16	47.79
295.374	37.55
295.589	49.83
295.804	4.78
296.018	17.07
296.233	21.16
296.447	10.92
296.662	27.31
296.877	64.17
297.091	53.93
297.306	27.31
297.52	-44.37
297.735	58.03
297.949	-71
298.164	103.08
298.378	0.68
298.593	-32.08
298.807	-58.71
299.022	2.73
299.236	51.88
299.451	-38.23
299.665	-21.85
299.88	12.97
300.094	60.07
300.309	-5.46
300.523	29.35
300.737	62.12
300.952	103.08
301.166	70.31
301.381	76.46
301.595	2.73
301.809	-7.51
302.024	-15.7
302.238	-48.47
302.452	78.51
302.667	19.11
302.881	103.08
303.095	23.21
303.309	17.07
303.524	-66.9
303.738	10.92
303.952	17.07
304.166	-15.7
304.381	-36.18
304.595	10.92
304.809	2.73
305.023	25.26
305.237	80.55
305.452	23.21
305.666	78.51
305.88	76.46
306.094	23.21
306.308	-42.32
306.522	23.21
306.736	8.87
306.95	-23.89
307.164	-52.56
307.379	-11.61
307.593	55.98
307.807	72.36
308.021	23.21
308.235	10.92
308.449	-60.76
308.663	47.79
308.877	72.36
309.091	53.93
309.305	47.79
309.519	-68.95
309.733	43.69
309.947	2.73
310.161	98.99
310.374	31.4
310.588	33.45
310.802	-40.28
311.016	-25.94
311.23	53.93
311.444	0.68
311.658	-15.7
311.872	72.36
312.085	62.12
312.299	131.75
312.513	29.35
312.727	-11.61
312.941	33.45
313.154	-13.65
313.368	-11.61
313.582	19.11
313.796	55.98
314.009	-38.23
314.223	47.79
314.437	-46.42
314.651	58.03
314.864	-42.32
315.078	-17.75
315.292	-11.61
315.505	-32.08
315.719	37.55
315.933	58.03
316.146	76.46
316.36	27.31
316.573	86.7
316.787	33.45
317.001	51.88
317.214	-17.75
317.428	8.87
317.641	-62.8
317.855	25.26
318.068	8.87
318.282	17.07
318.495	82.6
318.709	98.99
318.922	29.35
319.136	94.89
319.349	37.55
319.563	12.97
319.776	27.31
319.99	64.17
320.203	39.59
320.417	94.89
320.63	64.17
320.843	88.75
321.057	23.21
321.27	47.79
321.483	8.87
321.697	68.27
321.91	-9.56
322.124	43.69
322.337	23.21
322.55	-17.75
322.763	35.5
322.977	-32.08
323.19	37.55
323.403	-9.56
323.617	90.79
323.83	33.45
324.043	-27.99
324.256	-13.65
324.469	53.93
324.683	78.51
324.896	47.79
325.109	12.97
325.322	-32.08
325.535	21.16
325.748	39.59
325.962	-11.61
326.175	45.74
326.388	82.6
326.601	49.83
326.814	29.35
327.027	58.03
327.24	-1.37
327.453	0.68
327.666	47.79
327.879	111.27
328.092	27.31
328.305	51.88
328.518	39.59
328.731	-5.46
328.944	31.4
329.157	-21.85
329.37	76.46
329.583	31.4
329.796	33.45
330.009	19.11
330.222	60.07
330.435	43.69
330.648	23.21
330.861	-13.65
331.073	55.98
331.286	72.36
331.499	39.59
331.712	33.45
331.925	55.98
332.138	21.16
332.35	10.92
332.563	-36.18
332.776	-32.08
332.989	43.69
333.202	33.45
333.414	88.75
333.627	-11.61
333.84	-3.41
334.053	25.26
334.265	41.64
334.478	62.12
334.691	10.92
334.903	-38.23
335.116	-30.04
335.329	-7.51
335.541	0.68
335.754	29.35
335.966	-7.51
336.179	10.92
336.392	88.75
336.604	39.59
336.817	70.31
337.029	78.51
337.242	6.83
337.454	96.94
337.667	-17.75
337.88	72.36
338.092	31.4
338.305	33.45
338.517	-68.95
338.729	64.17
338.942	29.35
339.154	-27.99
339.367	-42.32
339.579	88.75
339.792	23.21
340.004	39.59
340.217	27.31
340.429	74.41
340.641	17.07
340.854	-1.37
341.066	-32.08
341.278	49.83
341.491	107.18
341.703	-40.28
341.915	-23.89
342.128	8.87
342.34	43.69
342.552	-36.18
342.764	64.17
342.977	8.87
343.189	55.98
343.401	35.5
343.613	-54.61
343.826	43.69
344.038	4.78
344.25	10.92
344.462	6.83
344.674	39.59
344.886	-3.41
345.099	0.68
345.311	49.83
345.523	15.02
345.735	-3.41
345.947	62.12
346.159	15.02
346.371	-38.23
346.583	-23.89
346.795	123.56
347.007	0.68
347.219	43.69
347.431	-25.94
347.643	19.11
347.855	-56.66
348.067	70.31
348.279	-42.32
348.491	10.92
348.703	29.35
348.915	-13.65
349.127	12.97
349.339	51.88
349.551	-7.51
349.763	51.88
349.975	25.26
350.187	45.74
350.399	101.03
350.61	0.68
350.822	-60.76
351.034	80.55
351.246	-3.41
351.458	84.65
351.669	31.4
351.881	19.11
352.093	49.83
352.305	31.4
352.517	-9.56
352.728	49.83
352.94	29.35
353.152	35.5
353.363	25.26
353.575	51.88
353.787	88.75
353.999	-11.61
354.21	19.11
354.422	-73.04
354.633	35.5
354.845	76.46
355.057	41.64
355.268	-40.28
355.48	51.88
355.692	-3.41
355.903	-19.8
356.115	17.07
356.326	-52.56
356.538	96.94
356.749	-11.61
356.961	150.18
357.172	-62.8
357.384	8.87
357.595	115.37
357.807	4.78
358.018	-15.7
358.23	15.02
358.441	43.69
358.653	64.17
358.864	-17.75
359.075	49.83
359.287	35.5
359.498	29.35
359.709	-5.46
359.921	15.02
360.132	-7.51
360.344	-13.65
360.555	-11.61
360.766	25.26
360.977	70.31
361.189	164.52
361.4	53.93
361.611	45.74
361.823	60.07
362.034	-1.37
362.245	-9.56
362.456	29.35
362.667	80.55
362.879	15.02
363.09	64.17
363.301	19.11
363.512	33.45
363.723	-38.23
363.935	33.45
364.146	-32.08
364.357	-11.61
364.568	6.83
364.779	-5.46
364.99	49.83
365.201	43.69
365.412	21.16
365.623	-50.52
365.834	0.68
366.045	27.31
366.256	74.41
366.467	66.22
366.678	-50.52
366.889	-3.41
367.1	17.07
367.311	39.59
367.522	41.64
367.733	43.69
367.944	19.11
368.155	-5.46
368.366	70.31
368.577	82.6
368.788	45.74
368.999	8.87
369.209	43.69
369.42	98.99
369.631	80.55
369.842	0.68
370.053	4.78
370.264	115.37
370.474	35.5
370.685	23.21
370.896	51.88
371.107	4.78
371.317	148.14
371.528	25.26
371.739	49.83
371.95	17.07
372.16	72.36
372.371	-1.37
372.582	31.4
372.792	101.03
373.003	-3.41
373.214	-19.8
373.424	98.99
373.635	62.12
373.846	35.5
374.056	39.59
374.267	115.37
374.477	-13.65
374.688	-17.75
374.898	25.26
375.109	41.64
375.319	-32.08
375.53	84.65
375.74	105.13
375.951	8.87
376.161	53.93
376.372	29.35
376.582	68.27
376.793	92.84
377.003	101.03
377.214	58.03
377.424	8.87
377.635	109.22
377.845	78.51
378.055	178.86
378.266	72.36
378.476	-1.37
378.686	60.07
378.897	-21.85
379.107	107.18
379.317	-68.95
379.528	43.69
379.738	101.03
379.948	43.69
380.158	74.41
380.369	15.02
380.579	2.73
380.789	66.22
380.999	47.79
381.21	90.79
381.42	58.03
381.63	10.92
381.84	31.4
382.05	66.22
382.261	64.17
382.471	27.31
382.681	43.69
382.891	129.7
383.101	17.07
383.311	-9.56
383.521	-9.56
383.731	72.36
383.941	-3.41
384.151	53.93
384.361	19.11
384.571	41.64
384.781	74.41
384.991	88.75
385.201	72.36
385.411	-7.51
385.621	33.45
385.831	17.07
386.041	35.5
386.251	55.98
386.461	27.31
386.671	-1.37
386.881	4.78
387.091	43.69
387.301	27.31
387.511	92.84
387.72	84.65
387.93	25.26
388.14	25.26
388.35	47.79
388.56	58.03
388.769	68.27
388.979	31.4
389.189	49.83
389.399	-23.89
389.609	105.13
389.818	-46.42
390.028	2.73
390.238	66.22
390.447	29.35
390.657	-17.75
390.867	-15.7
391.076	-40.28
391.286	29.35
391.496	12.97
391.705	25.26
391.915	76.46
392.125	25.26
392.334	-38.23
392.544	82.6
392.753	70.31
392.963	-13.65
393.172	-1.37
393.382	-11.61
393.591	121.51
393.801	31.4
394.01	82.6
394.22	117.42
394.429	62.12
394.639	10.92
394.848	29.35
395.058	101.03
395.267	17.07
395.477	64.17
395.686	35.5
395.895	66.22
396.105	70.31
396.314	86.7
396.524	0.68
396.733	2.73
396.942	105.13
397.152	94.89
397.361	103.08
397.57	113.32
397.78	15.02
397.989	25.26
398.198	125.61
398.407	43.69
398.617	45.74
398.826	94.89
399.035	68.27
399.244	105.13
399.453	53.93
399.663	29.35
399.872	88.75
400.081	8.87
400.29	86.7
400.499	35.5
400.708	25.26
400.917	47.79
401.127	23.21
401.336	25.26
401.545	178.86
401.754	98.99
401.963	101.03
402.172	58.03
402.381	96.94
402.59	76.46
402.799	66.22
403.008	105.13
403.217	35.5
403.426	98.99
403.635	125.61
403.844	62.12
404.053	150.18
404.262	88.75
404.471	144.04
404.68	129.7
404.888	119.46
405.097	58.03
405.306	139.94
405.515	51.88
405.724	82.6
405.933	168.62
406.142	94.89
406.35	146.09
406.559	103.08
406.768	101.03
406.977	123.56
407.185	111.27
407.394	96.94
407.603	94.89
407.812	121.51
408.02	195.24
408.229	94.89
408.438	84.65
408.646	86.7
408.855	80.55
409.064	115.37
409.272	174.76
409.481	176.81
409.69	146.09
409.898	144.04
410.107	152.23
410.315	328.36
410.524	150.18
410.733	221.86
410.941	187.05
411.15	248.49
411.358	258.73
411.567	189.1
411.775	260.77
411.984	228.01
412.192	264.87
412.401	221.86
412.609	268.97
412.818	289.45
413.026	228.01
413.234	344.74
413.443	309.93
413.651	342.69
413.86	236.2
414.068	318.12
414.276	346.79
414.485	395.94
414.693	311.97
414.901	465.57
415.11	412.32
415.318	408.23
415.526	332.45
415.734	389.8
415.943	463.52
416.151	441
416.359	477.86
416.567	494.24
416.776	529.06
416.984	594.59
417.192	518.82
417.4	559.78
417.608	545.44
417.817	496.29
418.025	615.07
418.233	643.74
418.441	584.35
418.649	662.18
418.857	647.84
419.065	699.04
419.273	723.62
419.481	707.23
419.689	819.87
419.897	881.31
420.105	895.64
420.313	879.26
420.521	883.36
420.729	891.55
420.937	871.07
421.145	961.18
421.353	1018.52
421.561	1036.95
421.769	1030.81
421.977	1122.97
422.185	1010.33
422.393	1274.52
422.601	1157.78
422.809	1241.75
423.017	1305.24
423.224	1260.18
423.432	1419.92
423.64	1487.51
423.848	1573.52
424.056	1530.52
424.263	1626.77
424.471	1546.9
424.679	1698.45
424.887	1606.29
425.094	1725.07
425.302	1884.81
425.51	1884.81
425.718	1952.4
425.925	1954.44
426.133	1911.44
426.341	1964.68
426.548	2112.14
426.756	2243.21
426.964	2251.4
427.171	2325.13
427.379	2409.09
427.586	2349.7
427.794	2566.79
428.001	2595.46
428.209	2638.47
428.417	2714.24
428.624	2798.21
428.832	2976.38
429.039	2882.17
429.247	2816.64
429.454	3172.99
429.662	3334.78
429.869	3156.6
430.076	3392.12
430.284	3275.38
430.491	3455.61
430.699	3705.46
430.906	3549.81
431.114	3662.45
431.321	3936.88
431.528	3746.42
431.736	3988.08
431.943	4338.28
432.15	4166.25
432.358	4151.92
432.565	4430.44
432.772	4381.29
432.979	4672.1
433.187	4694.63
433.394	4801.12
433.601	5003.87
433.808	5157.47
434.016	5190.24
434.223	5313.11
434.43	5661.27
434.637	5522.01
434.844	5712.47
435.052	6060.62
435.259	5847.63
435.466	5933.65
435.673	5890.64
435.88	6349.39
436.087	6677.06
436.294	6679.11
436.501	6341.19
436.708	6597.19
436.915	6832.71
437.122	7254.59
437.329	7148.09
437.537	7391.8
437.743	7457.34
437.95	7430.71
438.157	7799.35
438.364	8186.41
438.571	8139.31
438.778	7971.38
438.985	8815.14
439.192	8516.14
439.399	8688.17
439.606	8444.46
439.813	8886.82
440.02	9617.94
440.227	9546.26
440.433	9318.94
440.64	9710.1
440.847	9581.08
441.054	9765.4
441.261	10643.98
441.467	10441.23
441.674	10764.81
441.881	11035.14
442.088	11102.72
442.294	10697.22
442.501	11282.94
442.708	11487.74
442.914	11989.49
443.121	12241.39
443.328	11928.05
443.534	12816.87
443.741	12777.96
443.948	12274.16
444.154	13222.37
444.361	13093.35
444.568	13355.49
444.774	13265.38
444.981	13382.11
445.187	13918.68
445.394	14322.13
445.6	14166.48
445.807	15673.79
446.013	14909.9
446.22	15038.92
446.426	15739.32
446.633	15931.83
446.839	16232.88
447.046	15770.04
447.252	16830.89
447.459	16787.88
447.665	16787.88
447.871	17363.36
448.078	18026.9
448.284	17330.59
448.491	17764.76
448.697	18516.37
448.903	18813.32
449.11	18753.93
449.316	18385.3
449.522	18909.58
449.728	19419.52
449.935	19782.01
450.141	19503.49
450.347	20046.2
450.553	19411.33
450.76	19685.76
450.966	20162.94
451.172	20162.94
451.378	20740.46
451.584	20058.49
451.791	20689.26
451.997	20427.12
452.203	20748.65
452.409	21010.79
452.615	20832.62
452.821	20119.93
453.027	19999.1
453.233	20988.27
453.44	20093.3
453.646	20425.08
453.852	20294.01
454.058	20679.02
454.264	20097.4
454.47	20545.91
454.676	20210.04
454.882	20767.09
455.088	19079.56
455.294	19106.18
455.5	19724.67
455.705	19495.3
455.911	19270.02
456.117	18465.17
456.323	18260.37
456.529	17379.75
456.735	18162.07
456.941	17600.93
457.147	17557.92
457.352	16787.88
457.558	16732.59
457.764	16675.24
457.97	16122.29
458.176	16073.14
458.381	16112.05
458.587	15290.82
458.793	15149.51
458.999	14371.28
459.204	15378.88
459.41	15112.64
459.616	13963.73
459.821	13943.25
460.027	13717.98
460.233	13947.35
460.438	12909.03
460.644	13048.29
460.85	12671.47
461.055	12362.22
461.261	12145.14
461.466	11256.32
461.672	10971.65
461.878	11866.61
462.083	11143.68
462.289	10738.18
462.494	10762.76
462.7	10258.96
462.905	10082.83
463.111	10471.95
463.316	10324.49
463.522	10048.02
463.727	10080.78
463.932	10101.26
464.138	10013.2
464.343	10215.95
464.549	9714.2
464.754	10164.75
464.959	9900.56
465.165	9949.71
465.37	9445.91
465.575	9062.94
465.781	9763.35
465.986	9722.39
466.191	9421.34
466.397	9099.81
466.602	8899.11
466.807	9038.37
467.012	9073.18
467.218	8931.87
467.423	8964.64
467.628	8917.54
