Data from USB4F104151__25__12-23-37-636.txt Node

Date: Fri Mar 14 12:23:37 EDT 2025
User: louis
Spectrometer: USB4F10415
Trigger mode: 4
Integration Time (sec): 3.500000E-2
Scans to average: 1
Electric dark correction enabled: true
Nonlinearity correction enabled: false
Boxcar width: 0
XAxis mode: Wavelengths
Number of Pixels in Spectrum: 3648
>>>>>Begin Spectral Data<<<<<
178.204	-135
178.424	-135
178.644	-135
178.864	-202.58
179.084	-112.47
179.304	-12.12
179.524	2.22
179.744	14.51
179.964	57.51
180.184	57.51
180.404	8.36
180.624	-38.74
180.844	41.13
181.064	-89.94
181.283	-36.69
181.503	-22.36
181.723	18.6
181.943	-22.36
182.163	32.94
182.383	-38.74
182.602	82.09
182.822	-34.64
183.042	24.75
183.262	-48.98
183.482	-18.26
183.701	-32.6
183.921	-5.97
184.141	-69.46
184.361	49.32
184.58	32.94
184.8	61.61
185.02	-51.03
185.239	106.67
185.459	22.7
185.679	12.46
185.898	4.27
186.118	12.46
186.338	-36.69
186.557	24.75
186.777	0.17
186.997	6.31
187.216	-40.79
187.436	77.99
187.655	47.27
187.875	14.51
188.095	-26.45
188.314	0.17
188.534	73.9
188.753	-53.08
188.973	-8.02
189.192	59.56
189.412	-53.08
189.631	47.27
189.851	32.94
190.07	69.8
190.29	-28.5
190.509	39.08
190.729	-40.79
190.948	73.9
191.168	92.33
191.387	-30.55
191.607	67.75
191.826	45.23
192.045	-28.5
192.265	-55.12
192.484	-48.98
192.704	34.99
192.923	-42.84
193.142	45.23
193.362	24.75
193.581	22.7
193.8	-30.55
194.02	45.23
194.239	-18.26
194.458	65.71
194.678	-34.64
194.897	-30.55
195.116	24.75
195.335	63.66
195.555	-12.12
195.774	-36.69
195.993	20.65
196.212	-28.5
196.432	67.75
196.651	12.46
196.87	41.13
197.089	96.43
197.308	45.23
197.528	39.08
197.747	-10.07
197.966	-75.6
198.185	41.13
198.404	4.27
198.623	47.27
198.842	55.47
199.062	-28.5
199.281	92.33
199.5	34.99
199.719	77.99
199.938	-40.79
200.157	57.51
200.376	12.46
200.595	80.04
200.814	24.75
201.033	-5.97
201.252	12.46
201.471	73.9
201.69	0.17
201.909	4.27
202.128	12.46
202.347	-1.88
202.566	-18.26
202.785	28.84
203.004	6.31
203.223	12.46
203.442	57.51
203.661	32.94
203.879	28.84
204.098	65.71
204.317	-65.36
204.536	22.7
204.755	-26.45
204.974	30.89
205.193	-14.17
205.411	57.51
205.63	16.55
205.849	22.7
206.068	39.08
206.287	24.75
206.505	47.27
206.724	55.47
206.943	18.6
207.162	-5.97
207.381	63.66
207.599	34.99
207.818	24.75
208.037	2.22
208.255	49.32
208.474	16.55
208.693	18.6
208.911	59.56
209.13	-14.17
209.349	-42.84
209.567	75.95
209.786	49.32
210.005	28.84
210.223	-16.21
210.442	-20.31
210.661	16.55
210.879	4.27
211.098	-14.17
211.316	2.22
211.535	-1.88
211.753	-5.97
211.972	34.99
212.191	-16.21
212.409	-53.08
212.628	-46.93
212.846	-51.03
213.065	77.99
213.283	47.27
213.502	-32.6
213.72	14.51
213.938	24.75
214.157	6.31
214.375	108.71
214.594	-44.88
214.812	24.75
215.031	8.36
215.249	39.08
215.467	43.18
215.686	57.51
215.904	39.08
216.122	-10.07
216.341	39.08
216.559	51.37
216.778	10.41
216.996	-1.88
217.214	-26.45
217.432	10.41
217.651	-5.97
217.869	-28.5
218.087	20.65
218.306	-8.02
218.524	47.27
218.742	16.55
218.96	-5.97
219.179	-22.36
219.397	20.65
219.615	8.36
219.833	34.99
220.051	10.41
220.27	100.52
220.488	104.62
220.706	135.34
220.924	-100.18
221.142	71.85
221.36	71.85
221.578	0.17
221.796	-3.93
222.015	75.95
222.233	-1.88
222.451	129.19
222.669	-48.98
222.887	53.42
223.105	-91.99
223.323	-14.17
223.541	2.22
223.759	112.81
223.977	39.08
224.195	0.17
224.413	61.61
224.631	77.99
224.849	77.99
225.067	71.85
225.285	2.22
225.503	-18.26
225.721	2.22
225.939	84.14
226.157	-34.64
226.375	108.71
226.592	-8.02
226.81	24.75
227.028	84.14
227.246	80.04
227.464	32.94
227.682	65.71
227.9	-22.36
228.117	32.94
228.335	26.79
228.553	-3.93
228.771	-20.31
228.989	-59.22
229.206	-8.02
229.424	59.56
229.642	-10.07
229.86	51.37
230.077	80.04
230.295	-20.31
230.513	77.99
230.731	57.51
230.948	18.6
231.166	24.75
231.384	-83.8
231.601	-32.6
231.819	12.46
232.037	-53.08
232.254	-61.27
232.472	47.27
232.689	-20.31
232.907	73.9
233.125	-16.21
233.342	-20.31
233.56	-65.36
233.777	59.56
233.995	-24.4
234.213	55.47
234.43	-32.6
234.648	14.51
234.865	-46.93
235.083	108.71
235.3	41.13
235.518	4.27
235.735	-8.02
235.953	47.27
236.17	-12.12
236.388	45.23
236.605	-87.89
236.822	16.55
237.04	8.36
237.257	49.32
237.475	-24.4
237.692	92.33
237.909	-26.45
238.127	18.6
238.344	-42.84
238.562	6.31
238.779	-5.97
238.996	-51.03
239.214	-40.79
239.431	28.84
239.648	4.27
239.865	80.04
240.083	10.41
240.3	-14.17
240.517	-34.64
240.735	-40.79
240.952	24.75
241.169	20.65
241.386	63.66
241.603	-42.84
241.821	-48.98
242.038	88.23
242.255	16.55
242.472	2.22
242.689	-36.69
242.907	71.85
243.124	-1.88
243.341	39.08
243.558	-12.12
243.775	0.17
243.992	14.51
244.209	53.42
244.426	139.43
244.643	55.47
244.86	-22.36
245.078	39.08
245.295	22.7
245.512	22.7
245.729	-42.84
245.946	-22.36
246.163	34.99
246.38	57.51
246.597	16.55
246.814	-36.69
247.031	49.32
247.248	14.51
247.464	75.95
247.681	14.51
247.898	-24.4
248.115	51.37
248.332	26.79
248.549	47.27
248.766	69.8
248.983	32.94
249.2	63.66
249.417	47.27
249.633	22.7
249.85	59.56
250.067	14.51
250.284	-22.36
250.501	34.99
250.717	39.08
250.934	-71.51
251.151	-34.64
251.368	18.6
251.585	-55.12
251.801	-57.17
252.018	18.6
252.235	65.71
252.451	-57.17
252.668	28.84
252.885	71.85
253.102	0.17
253.318	-12.12
253.535	55.47
253.752	-32.6
253.968	8.36
254.185	-16.21
254.401	-36.69
254.618	24.75
254.835	-5.97
255.051	116.9
255.268	26.79
255.484	69.8
255.701	8.36
255.917	-24.4
256.134	-5.97
256.351	92.33
256.567	-55.12
256.784	-16.21
257	-28.5
257.217	100.52
257.433	-22.36
257.65	-26.45
257.866	43.18
258.082	-40.79
258.299	39.08
258.515	32.94
258.732	-22.36
258.948	-10.07
259.165	57.51
259.381	-5.97
259.597	51.37
259.814	-26.45
260.03	8.36
260.246	-16.21
260.463	20.65
260.679	110.76
260.895	18.6
261.112	61.61
261.328	-57.17
261.544	14.51
261.761	37.03
261.977	-20.31
262.193	-81.75
262.409	-14.17
262.626	2.22
262.842	71.85
263.058	8.36
263.274	-22.36
263.49	8.36
263.707	-32.6
263.923	8.36
264.139	-38.74
264.355	12.46
264.571	18.6
264.787	34.99
265.004	86.19
265.22	-44.88
265.436	77.99
265.652	63.66
265.868	8.36
266.084	-28.5
266.3	55.47
266.516	6.31
266.732	10.41
266.948	12.46
267.164	-48.98
267.38	18.6
267.596	14.51
267.812	123.05
268.028	-20.31
268.244	-55.12
268.46	-18.26
268.676	-67.41
268.892	-46.93
269.108	-5.97
269.324	32.94
269.54	0.17
269.756	34.99
269.972	-36.69
270.188	34.99
270.403	-48.98
270.619	41.13
270.835	-85.84
271.051	-26.45
271.267	41.13
271.483	39.08
271.698	37.03
271.914	14.51
272.13	8.36
272.346	43.18
272.562	-30.55
272.777	34.99
272.993	6.31
273.209	22.7
273.425	-38.74
273.64	-85.84
273.856	80.04
274.072	39.08
274.287	8.36
274.503	14.51
274.719	12.46
274.934	-16.21
275.15	-48.98
275.366	28.84
275.581	-18.26
275.797	6.31
276.012	16.55
276.228	-57.17
276.444	-22.36
276.659	-18.26
276.875	-22.36
277.09	12.46
277.306	-14.17
277.521	65.71
277.737	-16.21
277.952	-36.69
278.168	32.94
278.383	-79.7
278.599	59.56
278.814	49.32
279.03	-75.6
279.245	51.37
279.461	30.89
279.676	75.95
279.892	-20.31
280.107	-18.26
280.322	65.71
280.538	12.46
280.753	-24.4
280.969	28.84
281.184	4.27
281.399	98.47
281.615	24.75
281.83	-8.02
282.045	-36.69
282.26	45.23
282.476	73.9
282.691	-14.17
282.906	26.79
283.122	47.27
283.337	-1.88
283.552	-3.93
283.767	-28.5
283.983	71.85
284.198	-132.95
284.413	57.51
284.628	-46.93
284.843	28.84
285.058	8.36
285.274	8.36
285.489	-46.93
285.704	65.71
285.919	0.17
286.134	-46.93
286.349	-12.12
286.564	-30.55
286.779	22.7
286.995	47.27
287.21	-34.64
287.425	37.03
287.64	26.79
287.855	22.7
288.07	-26.45
288.285	96.43
288.5	45.23
288.715	86.19
288.93	18.6
289.145	18.6
289.36	-8.02
289.575	-1.88
289.79	26.79
290.004	-1.88
290.219	65.71
290.434	-28.5
290.649	-22.36
290.864	10.41
291.079	-36.69
291.294	6.31
291.509	20.65
291.724	-48.98
291.938	-22.36
292.153	2.22
292.368	-14.17
292.583	53.42
292.798	77.99
293.012	39.08
293.227	59.56
293.442	16.55
293.657	28.84
293.871	4.27
294.086	34.99
294.301	61.61
294.516	-14.17
294.73	-5.97
294.945	-22.36
295.16	71.85
295.374	4.27
295.589	61.61
295.804	-12.12
296.018	-22.36
296.233	92.33
296.447	65.71
296.662	73.9
296.877	-5.97
297.091	47.27
297.306	-12.12
297.52	-1.88
297.735	10.41
297.949	108.71
298.164	-10.07
298.378	47.27
298.593	-30.55
298.807	-48.98
299.022	26.79
299.236	24.75
299.451	-36.69
299.665	-36.69
299.88	16.55
300.094	57.51
300.309	-34.64
300.523	69.8
300.737	10.41
300.952	10.41
301.166	24.75
301.381	-94.04
301.595	69.8
301.809	14.51
302.024	96.43
302.238	-5.97
302.452	59.56
302.667	41.13
302.881	55.47
303.095	77.99
303.309	-8.02
303.524	10.41
303.738	57.51
303.952	-53.08
304.166	-16.21
304.381	-3.93
304.595	59.56
304.809	12.46
305.023	94.38
305.237	-44.88
305.452	18.6
305.666	-10.07
305.88	-28.5
306.094	34.99
306.308	30.89
306.522	114.86
306.736	104.62
306.95	94.38
307.164	114.86
307.379	8.36
307.593	8.36
307.807	-24.4
308.021	10.41
308.235	53.42
308.449	16.55
308.663	-85.84
308.877	84.14
309.091	-32.6
309.305	43.18
309.519	2.22
309.733	18.6
309.947	-69.46
310.161	41.13
310.374	61.61
310.588	45.23
310.802	-26.45
311.016	-14.17
311.23	-55.12
311.444	34.99
311.658	98.47
311.872	22.7
312.085	41.13
312.299	98.47
312.513	-1.88
312.727	32.94
312.941	-153.43
313.154	-10.07
313.368	-48.98
313.582	-24.4
313.796	-28.5
314.009	0.17
314.223	0.17
314.437	-8.02
314.651	34.99
314.864	-26.45
315.078	-22.36
315.292	-16.21
315.505	-63.32
315.719	20.65
315.933	16.55
316.146	104.62
316.36	-98.13
316.573	20.65
316.787	14.51
317.001	-8.02
317.214	18.6
317.428	39.08
317.641	16.55
317.855	4.27
318.068	16.55
318.282	26.79
318.495	63.66
318.709	37.03
318.922	41.13
319.136	100.52
319.349	53.42
319.563	41.13
319.776	10.41
319.99	-5.97
320.203	-10.07
320.417	-67.41
320.63	-1.88
320.843	92.33
321.057	63.66
321.27	-26.45
321.483	10.41
321.697	55.47
321.91	-36.69
322.124	-18.26
322.337	24.75
322.55	-42.84
322.763	63.66
322.977	37.03
323.19	-59.22
323.403	-73.56
323.617	30.89
323.83	16.55
324.043	75.95
324.256	14.51
324.469	-36.69
324.683	63.66
324.896	16.55
325.109	39.08
325.322	20.65
325.535	53.42
325.748	-8.02
325.962	-3.93
326.175	-38.74
326.388	49.32
326.601	110.76
326.814	-18.26
327.027	2.22
327.24	71.85
327.453	-36.69
327.666	-16.21
327.879	-32.6
328.092	-18.26
328.305	37.03
328.518	-65.36
328.731	-34.64
328.944	49.32
329.157	67.75
329.37	-91.99
329.583	98.47
329.796	47.27
330.009	-32.6
330.222	0.17
330.435	-28.5
330.648	-1.88
330.861	20.65
331.073	28.84
331.286	73.9
331.499	86.19
331.712	-8.02
331.925	12.46
332.138	-16.21
332.35	53.42
332.563	-36.69
332.776	47.27
332.989	34.99
333.202	24.75
333.414	-32.6
333.627	8.36
333.84	10.41
334.053	2.22
334.265	51.37
334.478	-8.02
334.691	-16.21
334.903	-16.21
335.116	-48.98
335.329	-30.55
335.541	77.99
335.754	53.42
335.966	6.31
336.179	0.17
336.392	10.41
336.604	73.9
336.817	88.23
337.029	12.46
337.242	-32.6
337.454	45.23
337.667	-40.79
337.88	37.03
338.092	18.6
338.305	86.19
338.517	-14.17
338.729	24.75
338.942	47.27
339.154	14.51
339.367	0.17
339.579	30.89
339.792	10.41
340.004	34.99
340.217	45.23
340.429	65.71
340.641	-71.51
340.854	4.27
341.066	0.17
341.278	82.09
341.491	147.62
341.703	-28.5
341.915	-57.17
342.128	24.75
342.34	18.6
342.552	-38.74
342.764	-1.88
342.977	-1.88
343.189	34.99
343.401	26.79
343.613	-106.32
343.826	-10.07
344.038	-14.17
344.25	-1.88
344.462	-5.97
344.674	80.04
344.886	-42.84
345.099	32.94
345.311	20.65
345.523	14.51
345.735	-26.45
345.947	-57.17
346.159	43.18
346.371	61.61
346.583	-69.46
346.795	90.28
347.007	0.17
347.219	14.51
347.431	45.23
347.643	84.14
347.855	-5.97
348.067	59.56
348.279	-14.17
348.491	6.31
348.703	98.47
348.915	4.27
349.127	4.27
349.339	-8.02
349.551	39.08
349.763	77.99
349.975	-10.07
350.187	67.75
350.399	28.84
350.61	49.32
350.822	-5.97
351.034	65.71
351.246	80.04
351.458	30.89
351.669	14.51
351.881	24.75
352.093	-36.69
352.305	57.51
352.517	65.71
352.728	6.31
352.94	47.27
353.152	43.18
353.363	-61.27
353.575	34.99
353.787	10.41
353.999	20.65
354.21	123.05
354.422	10.41
354.633	6.31
354.845	73.9
355.057	51.37
355.268	22.7
355.48	110.76
355.692	18.6
355.903	-55.12
356.115	-38.74
356.326	-24.4
356.538	94.38
356.749	20.65
356.961	96.43
357.172	39.08
357.384	-75.6
357.595	53.42
357.807	63.66
358.018	-16.21
358.23	45.23
358.441	116.9
358.653	92.33
358.864	39.08
359.075	59.56
359.287	2.22
359.498	53.42
359.709	-10.07
359.921	28.84
360.132	34.99
360.344	49.32
360.555	34.99
360.766	49.32
360.977	6.31
361.189	59.56
361.4	65.71
361.611	94.38
361.823	84.14
362.034	24.75
362.245	-16.21
362.456	-24.4
362.667	63.66
362.879	-36.69
363.09	53.42
363.301	34.99
363.512	82.09
363.723	67.75
363.935	-63.32
364.146	55.47
364.357	20.65
364.568	30.89
364.779	-22.36
364.99	65.71
365.201	-20.31
365.412	45.23
365.623	-67.41
365.834	73.9
366.045	8.36
366.256	32.94
366.467	28.84
366.678	-8.02
366.889	18.6
367.1	51.37
367.311	0.17
367.522	45.23
367.733	37.03
367.944	-18.26
368.155	12.46
368.366	16.55
368.577	2.22
368.788	63.66
368.999	-14.17
369.209	30.89
369.42	69.8
369.631	55.47
369.842	4.27
370.053	65.71
370.264	75.95
370.474	-26.45
370.685	-18.26
370.896	12.46
371.107	86.19
371.317	57.51
371.528	-18.26
371.739	32.94
371.95	8.36
372.16	61.61
372.371	28.84
372.582	18.6
372.792	12.46
373.003	2.22
373.214	30.89
373.424	67.75
373.635	16.55
373.846	157.86
374.056	10.41
374.267	20.65
374.477	0.17
374.688	-28.5
374.898	102.57
375.109	28.84
375.319	-5.97
375.53	82.09
375.74	63.66
375.951	16.55
376.161	24.75
376.372	112.81
376.582	32.94
376.793	-12.12
377.003	-16.21
377.214	14.51
377.424	82.09
377.635	26.79
377.845	41.13
378.055	24.75
378.266	24.75
378.476	47.27
378.686	32.94
378.897	-20.31
379.107	110.76
379.317	98.47
379.528	8.36
379.738	51.37
379.948	-44.88
380.158	53.42
380.369	57.51
380.579	-34.64
380.789	20.65
380.999	47.27
381.21	30.89
381.42	73.9
381.63	28.84
381.84	-12.12
382.05	65.71
382.261	16.55
382.471	-8.02
382.681	-18.26
382.891	47.27
383.101	22.7
383.311	16.55
383.521	-28.5
383.731	-20.31
383.941	65.71
384.151	-34.64
384.361	-30.55
384.571	6.31
384.781	-16.21
384.991	98.47
385.201	88.23
385.411	73.9
385.621	0.17
385.831	57.51
386.041	82.09
386.251	34.99
386.461	6.31
386.671	26.79
386.881	-8.02
387.091	47.27
387.301	88.23
387.511	-10.07
387.72	-22.36
387.93	49.32
388.14	39.08
388.35	-22.36
388.56	-16.21
388.769	2.22
388.979	-24.4
389.189	12.46
389.399	45.23
389.609	86.19
389.818	51.37
390.028	39.08
390.238	51.37
390.447	10.41
390.657	30.89
390.867	-51.03
391.076	-22.36
391.286	47.27
391.496	43.18
391.705	71.85
391.915	100.52
392.125	28.84
392.334	-32.6
392.544	-20.31
392.753	57.51
392.963	90.28
393.172	59.56
393.382	-22.36
393.591	86.19
393.801	92.33
394.01	92.33
394.22	77.99
394.429	61.61
394.639	65.71
394.848	73.9
395.058	-20.31
395.267	-10.07
395.477	63.66
395.686	41.13
395.895	-20.31
396.105	100.52
396.314	28.84
396.524	39.08
396.733	20.65
396.942	137.38
397.152	63.66
397.361	63.66
397.57	57.51
397.78	104.62
397.989	49.32
398.198	133.29
398.407	-30.55
398.617	69.8
398.826	65.71
399.035	32.94
399.244	57.51
399.453	55.47
399.663	94.38
399.872	-1.88
400.081	67.75
400.29	82.09
400.499	61.61
400.708	116.9
400.917	41.13
401.127	71.85
401.336	131.24
401.545	102.57
401.754	80.04
401.963	47.27
402.172	43.18
402.381	24.75
402.59	57.51
402.799	51.37
403.008	73.9
403.217	118.95
403.426	112.81
403.635	73.9
403.844	114.86
404.053	96.43
404.262	73.9
404.471	151.72
404.68	151.72
404.888	108.71
405.097	71.85
405.306	61.61
405.515	47.27
405.724	127.14
405.933	116.9
406.142	55.47
406.35	161.96
406.559	139.43
406.768	71.85
406.977	168.1
407.185	92.33
407.394	137.38
407.603	131.24
407.812	57.51
408.02	98.47
408.229	196.78
408.438	96.43
408.646	98.47
408.855	67.75
409.064	184.49
409.272	129.19
409.481	262.31
409.69	133.29
409.898	145.58
410.107	141.48
410.315	176.3
410.524	186.54
410.733	254.12
410.941	170.15
411.15	164.01
411.358	229.54
411.567	297.13
411.775	274.6
411.984	219.3
412.192	272.55
412.401	260.26
412.609	333.99
412.818	309.41
413.026	319.65
413.234	276.65
413.443	288.93
413.651	290.98
413.86	286.89
414.068	393.38
414.276	372.9
414.485	358.57
414.693	456.87
414.901	518.31
415.11	385.19
415.318	426.15
415.526	501.92
415.734	534.69
415.943	569.51
416.151	549.03
416.359	542.88
416.567	577.7
416.776	508.07
416.984	559.27
417.192	600.23
417.4	600.23
417.608	596.13
417.817	549.03
418.025	585.89
418.233	721.06
418.441	635.04
418.649	725.15
418.857	802.97
419.065	845.98
419.273	825.5
419.481	833.69
419.689	884.89
419.897	909.47
420.105	866.46
420.313	1024.16
420.521	929.95
420.729	999.58
420.937	1009.82
421.145	1155.23
421.353	1132.7
421.561	1206.42
421.769	1325.21
421.977	1144.99
422.185	1300.63
422.393	1245.34
422.601	1454.23
422.809	1337.49
423.017	1403.03
423.224	1521.81
423.432	1556.63
423.64	1538.2
423.848	1679.51
424.056	1640.59
424.263	1753.23
424.471	1648.79
424.679	1831.05
424.887	1896.59
425.094	1955.98
425.302	1978.51
425.51	1951.88
425.718	2166.92
425.925	2107.53
426.133	2146.44
426.341	2277.51
426.548	2416.77
426.756	2384.01
426.964	2431.11
427.171	2570.37
427.379	2625.67
427.586	2812.03
427.794	2779.26
428.001	2912.38
428.209	3094.65
428.417	2914.43
428.624	3340.41
428.832	3291.26
429.039	3156.09
429.247	3278.97
429.454	3528.82
429.662	3776.63
429.869	3514.49
430.076	3926.13
430.284	3580.02
430.491	3643.51
430.699	4036.72
430.906	4016.24
431.114	4143.21
431.321	4229.23
431.528	4511.85
431.736	4583.52
431.943	4849.76
432.15	4751.46
432.358	4894.82
432.565	4989.02
432.772	4954.21
432.979	5177.44
433.187	5208.16
433.394	5343.32
433.601	5883.98
433.808	5685.33
434.016	5595.22
434.223	5875.79
434.43	6309.96
434.637	6207.56
434.844	6574.15
435.052	6629.45
435.259	6627.4
435.466	6719.56
435.673	6656.07
435.88	7096.38
436.087	7424.06
436.294	7346.23
436.501	7317.56
436.708	7520.31
436.915	7782.45
437.122	7944.24
437.329	7997.49
437.537	8374.31
437.743	8284.2
437.95	8374.31
438.157	8841.25
438.364	8978.47
438.571	8855.59
438.778	9007.14
438.985	10027.03
439.192	9400.35
439.399	9721.88
439.606	9574.42
439.813	10168.34
440.02	11024.39
440.227	10639.37
440.433	10518.54
440.64	10825.73
440.847	10862.6
441.054	11077.63
441.261	11884.53
441.467	11649.02
441.674	11995.12
441.881	12247.02
442.088	12136.43
442.294	12267.5
442.501	12435.44
442.708	12673
442.914	13406.17
443.121	13584.35
443.328	13502.43
443.534	14467.02
443.741	13991.89
443.948	13838.3
444.154	14888.9
444.361	14839.75
444.568	14921.67
444.774	14915.53
444.981	15077.32
445.187	15708.09
445.394	16314.29
445.6	16066.49
445.807	17559.45
446.013	16766.89
446.22	17086.37
446.426	17649.57
446.633	17733.53
446.839	18698.13
447.046	17893.27
447.252	18679.69
447.459	18911.11
447.665	18780.04
447.871	19533.7
448.078	20068.22
448.284	19597.18
448.491	20017.02
448.697	20819.82
448.903	21112.68
449.11	21282.66
449.316	20856.68
449.522	21288.81
449.728	21753.69
449.935	22171.48
450.141	21591.91
450.347	22433.62
450.553	21852
450.76	21983.07
450.966	22810.45
451.172	22669.14
451.378	23297.86
451.584	22636.37
451.791	23306.06
451.997	23301.96
452.203	23664.45
452.409	23455.56
452.615	23551.81
452.821	22562.64
453.027	22517.59
453.233	23594.82
453.44	22849.36
453.646	22765.39
453.852	23369.54
454.058	23328.58
454.264	22384.47
454.47	23091.02
454.676	22308.69
454.882	23191.37
455.088	21372.77
455.294	21487.46
455.5	21964.64
455.705	22374.23
455.911	21282.66
456.117	20717.42
456.323	20068.22
456.529	19267.46
456.735	20189.05
456.941	19560.32
457.147	19449.73
457.352	18841.48
457.558	18665.36
457.764	18778
457.97	18149.27
458.176	17813.4
458.381	17833.88
458.587	17223.59
458.793	16783.27
458.999	15957.94
459.204	17096.61
459.41	16783.27
459.616	15712.19
459.821	15589.31
460.027	15603.64
460.233	15448
460.438	14725.07
460.644	14663.63
460.85	13965.27
461.055	13903.83
461.261	13811.67
461.466	12728.3
461.672	12187.63
461.878	13422.56
462.083	12343.28
462.289	12259.31
462.494	12034.04
462.7	11280.38
462.905	11296.77
463.111	11663.35
463.316	11448.32
463.522	11280.38
463.727	11483.13
463.932	11241.47
464.138	11188.22
464.343	11231.23
464.549	10629.13
464.754	11341.82
464.959	10930.18
465.165	11026.43
465.37	10577.93
465.575	10356.75
465.781	10752.01
465.986	10719.24
466.191	10481.67
466.397	10151.95
466.602	9529.37
466.807	10190.86
467.012	10229.77
