Data from USB4F104151__64__12-24-12-772.txt Node

Date: Fri Mar 14 12:24:12 EDT 2025
User: louis
Spectrometer: USB4F10415
Trigger mode: 4
Integration Time (sec): 3.500000E-2
Scans to average: 1
Electric dark correction enabled: true
Nonlinearity correction enabled: false
Boxcar width: 0
XAxis mode: Wavelengths
Number of Pixels in Spectrum: 3648
>>>>>Begin Spectral Data<<<<<
178.204	-128
178.424	-128
178.644	-128
178.864	-166.91
179.084	-111.61
179.304	-5.12
179.524	-13.31
179.744	-21.5
179.964	9.22
180.184	15.36
180.404	80.89
180.624	-25.6
180.844	-25.6
181.064	-60.42
181.283	39.94
181.503	-21.5
181.723	27.65
181.943	-33.79
182.163	66.56
182.383	46.08
182.602	33.79
182.822	41.98
183.042	-17.41
183.262	-29.7
183.482	31.74
183.701	5.12
183.921	52.22
184.141	9.22
184.361	23.55
184.58	-5.12
184.8	58.37
185.02	68.61
185.239	115.71
185.459	80.89
185.679	31.74
185.898	37.89
186.118	46.08
186.338	11.26
186.557	-17.41
186.777	-31.74
186.997	60.42
187.216	52.22
187.436	23.55
187.655	19.46
187.875	21.5
188.095	48.13
188.314	58.37
188.534	66.56
188.753	23.55
188.973	97.28
189.192	31.74
189.412	1.02
189.631	21.5
189.851	7.17
190.07	19.46
190.29	-70.65
190.509	25.6
190.729	48.13
190.948	-31.74
191.168	203.77
191.387	54.27
191.607	3.07
191.826	58.37
192.045	15.36
192.265	11.26
192.484	27.65
192.704	-9.22
192.923	11.26
193.142	84.99
193.362	-19.46
193.581	84.99
193.8	23.55
194.02	56.32
194.239	46.08
194.458	82.94
194.678	78.85
194.897	25.6
195.116	-13.31
195.335	1.02
195.555	11.26
195.774	-50.18
195.993	-13.31
196.212	-17.41
196.432	5.12
196.651	54.27
196.87	-41.98
197.089	160.77
197.308	46.08
197.528	7.17
197.747	-21.5
197.966	44.03
198.185	82.94
198.404	19.46
198.623	128
198.842	80.89
199.062	41.98
199.281	66.56
199.5	-82.94
199.719	33.79
199.938	56.32
200.157	99.33
200.376	62.46
200.595	78.85
200.814	46.08
201.033	48.13
201.252	25.6
201.471	50.18
201.69	29.7
201.909	3.07
202.128	27.65
202.347	84.99
202.566	29.7
202.785	52.22
203.004	-62.46
203.223	109.57
203.442	95.23
203.661	5.12
203.879	97.28
204.098	97.28
204.317	-74.75
204.536	21.5
204.755	-1.02
204.974	7.17
205.193	72.7
205.411	56.32
205.63	113.66
205.849	11.26
206.068	-78.85
206.287	29.7
206.505	1.02
206.724	46.08
206.943	39.94
207.162	74.75
207.381	70.65
207.599	35.84
207.818	-5.12
208.037	52.22
208.255	25.6
208.474	66.56
208.693	21.5
208.911	74.75
209.13	-15.36
209.349	54.27
209.567	-3.07
209.786	82.94
210.005	48.13
210.223	46.08
210.442	-82.94
210.661	17.41
210.879	5.12
211.098	-7.17
211.316	52.22
211.535	19.46
211.753	1.02
211.972	35.84
212.191	-31.74
212.409	-31.74
212.628	19.46
212.846	-84.99
213.065	82.94
213.283	60.42
213.502	23.55
213.72	62.46
213.938	31.74
214.157	68.61
214.375	60.42
214.594	-19.46
214.812	17.41
215.031	27.65
215.249	7.17
215.467	39.94
215.686	27.65
215.904	50.18
216.122	64.51
216.341	99.33
216.559	72.7
216.778	54.27
216.996	68.61
217.214	19.46
217.432	-7.17
217.651	31.74
217.869	105.47
218.087	74.75
218.306	-11.26
218.524	68.61
218.742	-21.5
218.96	60.42
219.179	33.79
219.397	52.22
219.615	82.94
219.833	29.7
220.051	11.26
220.27	58.37
220.488	-19.46
220.706	-39.94
220.924	-27.65
221.142	7.17
221.36	132.09
221.578	17.41
221.796	-13.31
222.015	132.09
222.233	-5.12
222.451	105.47
222.669	-56.32
222.887	15.36
223.105	-64.51
223.323	50.18
223.541	-7.17
223.759	70.65
223.977	-33.79
224.195	7.17
224.413	54.27
224.631	48.13
224.849	11.26
225.067	89.09
225.285	56.32
225.503	9.22
225.721	23.55
225.939	23.55
226.157	60.42
226.375	168.96
226.592	-3.07
226.81	33.79
227.028	-48.13
227.246	125.95
227.464	29.7
227.682	41.98
227.9	46.08
228.117	46.08
228.335	13.31
228.553	13.31
228.771	9.22
228.989	15.36
229.206	-35.84
229.424	9.22
229.642	7.17
229.86	-15.36
230.077	31.74
230.295	11.26
230.513	46.08
230.731	5.12
230.948	95.23
231.166	80.89
231.384	21.5
231.601	-91.13
231.819	29.7
232.037	-5.12
232.254	-27.65
232.472	48.13
232.689	11.26
232.907	78.85
233.125	25.6
233.342	-3.07
233.56	-13.31
233.777	11.26
233.995	-19.46
234.213	52.22
234.43	50.18
234.648	-31.74
234.865	60.42
235.083	68.61
235.3	-1.02
235.518	60.42
235.735	13.31
235.953	41.98
236.17	-13.31
236.388	-15.36
236.605	33.79
236.822	95.23
237.04	15.36
237.257	21.5
237.475	3.07
237.692	54.27
237.909	9.22
238.127	37.89
238.344	84.99
238.562	64.51
238.779	7.17
238.996	-23.55
239.214	-35.84
239.431	46.08
239.648	-31.74
239.865	35.84
240.083	19.46
240.3	56.32
240.517	-1.02
240.735	-3.07
240.952	33.79
241.169	48.13
241.386	70.65
241.603	62.46
241.821	-66.56
242.038	15.36
242.255	44.03
242.472	-13.31
242.689	25.6
242.907	50.18
243.124	15.36
243.341	-1.02
243.558	-41.98
243.775	93.18
243.992	-35.84
244.209	-5.12
244.426	74.75
244.643	41.98
244.86	-5.12
245.078	-5.12
245.295	21.5
245.512	-33.79
245.729	33.79
245.946	74.75
246.163	46.08
246.38	35.84
246.597	68.61
246.814	39.94
247.031	27.65
247.248	39.94
247.464	35.84
247.681	23.55
247.898	19.46
248.115	15.36
248.332	-3.07
248.549	115.71
248.766	39.94
248.983	9.22
249.2	19.46
249.417	80.89
249.633	-29.7
249.85	-46.08
250.067	29.7
250.284	-56.32
250.501	7.17
250.717	105.47
250.934	7.17
251.151	-46.08
251.368	64.51
251.585	44.03
251.801	11.26
252.018	-35.84
252.235	1.02
252.451	-11.26
252.668	-48.13
252.885	82.94
253.102	54.27
253.318	-15.36
253.535	50.18
253.752	13.31
253.968	46.08
254.185	-35.84
254.401	74.75
254.618	-29.7
254.835	19.46
255.051	89.09
255.268	48.13
255.484	37.89
255.701	-15.36
255.917	-27.65
256.134	48.13
256.351	-48.13
256.567	-50.18
256.784	87.04
257	19.46
257.217	52.22
257.433	52.22
257.65	-27.65
257.866	95.23
258.082	-3.07
258.299	23.55
258.515	-11.26
258.732	-9.22
258.948	-37.89
259.165	-1.02
259.381	35.84
259.597	58.37
259.814	13.31
260.03	3.07
260.246	15.36
260.463	48.13
260.679	27.65
260.895	35.84
261.112	60.42
261.328	46.08
261.544	-58.37
261.761	68.61
261.977	35.84
262.193	13.31
262.409	56.32
262.626	50.18
262.842	-35.84
263.058	11.26
263.274	-9.22
263.49	70.65
263.707	103.42
263.923	52.22
264.139	54.27
264.355	-44.03
264.571	64.51
264.787	7.17
265.004	31.74
265.22	-31.74
265.436	35.84
265.652	27.65
265.868	9.22
266.084	-15.36
266.3	99.33
266.516	-3.07
266.732	68.61
266.948	7.17
267.164	15.36
267.38	41.98
267.596	48.13
267.812	109.57
268.028	17.41
268.244	54.27
268.46	-31.74
268.676	72.7
268.892	46.08
269.108	9.22
269.324	-15.36
269.54	1.02
269.756	74.75
269.972	-66.56
270.188	60.42
270.403	31.74
270.619	-3.07
270.835	5.12
271.051	44.03
271.267	-52.22
271.483	29.7
271.698	-17.41
271.914	-58.37
272.13	13.31
272.346	-21.5
272.562	-5.12
272.777	35.84
272.993	80.89
273.209	5.12
273.425	21.5
273.64	-15.36
273.856	76.8
274.072	5.12
274.287	27.65
274.503	33.79
274.719	37.89
274.934	52.22
275.15	31.74
275.366	25.6
275.581	17.41
275.797	5.12
276.012	17.41
276.228	17.41
276.444	-13.31
276.659	44.03
276.875	11.26
277.09	29.7
277.306	-13.31
277.521	7.17
277.737	-17.41
277.952	33.79
278.168	70.65
278.383	52.22
278.599	46.08
278.814	70.65
279.03	52.22
279.245	19.46
279.461	62.46
279.676	46.08
279.892	-5.12
280.107	-60.42
280.322	-1.02
280.538	25.6
280.753	5.12
280.969	-15.36
281.184	37.89
281.399	48.13
281.615	41.98
281.83	15.36
282.045	29.7
282.26	33.79
282.476	41.98
282.691	19.46
282.906	56.32
283.122	3.07
283.337	5.12
283.552	68.61
283.767	-7.17
283.983	19.46
284.198	3.07
284.413	128
284.628	-44.03
284.843	-27.65
285.058	15.36
285.274	23.55
285.489	1.02
285.704	101.37
285.919	-27.65
286.134	25.6
286.349	-35.84
286.564	-78.85
286.779	15.36
286.995	25.6
287.21	54.27
287.425	21.5
287.64	9.22
287.855	-19.46
288.07	-76.8
288.285	3.07
288.5	99.33
288.715	84.99
288.93	29.7
289.145	-15.36
289.36	84.99
289.575	95.23
289.79	23.55
290.004	48.13
290.219	7.17
290.434	-39.94
290.649	21.5
290.864	-7.17
291.079	29.7
291.294	58.37
291.509	41.98
291.724	56.32
291.938	64.51
292.153	113.66
292.368	-46.08
292.583	-13.31
292.798	70.65
293.012	41.98
293.227	-5.12
293.442	74.75
293.657	48.13
293.871	128
294.086	62.46
294.301	15.36
294.516	46.08
294.73	121.85
294.945	-3.07
295.16	35.84
295.374	64.51
295.589	48.13
295.804	7.17
296.018	-1.02
296.233	17.41
296.447	146.43
296.662	93.18
296.877	33.79
297.091	84.99
297.306	31.74
297.52	21.5
297.735	70.65
297.949	72.7
298.164	23.55
298.378	56.32
298.593	-5.12
298.807	3.07
299.022	33.79
299.236	68.61
299.451	19.46
299.665	48.13
299.88	50.18
300.094	72.7
300.309	70.65
300.523	-11.26
300.737	52.22
300.952	84.99
301.166	-9.22
301.381	44.03
301.595	-15.36
301.809	-1.02
302.024	7.17
302.238	80.89
302.452	134.14
302.667	31.74
302.881	60.42
303.095	3.07
303.309	13.31
303.524	-56.32
303.738	62.46
303.952	-5.12
304.166	-23.55
304.381	23.55
304.595	48.13
304.809	-19.46
305.023	29.7
305.237	54.27
305.452	29.7
305.666	82.94
305.88	21.5
306.094	48.13
306.308	54.27
306.522	68.61
306.736	48.13
306.95	35.84
307.164	1.02
307.379	-13.31
307.593	66.56
307.807	-3.07
308.021	31.74
308.235	29.7
308.449	-3.07
308.663	44.03
308.877	70.65
309.091	117.76
309.305	44.03
309.519	-29.7
309.733	54.27
309.947	11.26
310.161	101.37
310.374	-1.02
310.588	64.51
310.802	-9.22
311.016	-35.84
311.23	7.17
311.444	9.22
311.658	44.03
311.872	58.37
312.085	72.7
312.299	41.98
312.513	101.37
312.727	89.09
312.941	37.89
313.154	-33.79
313.368	48.13
313.582	39.94
313.796	-13.31
314.009	37.89
314.223	11.26
314.437	-11.26
314.651	46.08
314.864	41.98
315.078	37.89
315.292	-33.79
315.505	52.22
315.719	70.65
315.933	11.26
316.146	68.61
316.36	17.41
316.573	58.37
316.787	107.52
317.001	64.51
317.214	7.17
317.428	-46.08
317.641	33.79
317.855	15.36
318.068	15.36
318.282	56.32
318.495	64.51
318.709	103.42
318.922	-13.31
319.136	39.94
319.349	87.04
319.563	25.6
319.776	97.28
319.99	11.26
320.203	41.98
320.417	107.52
320.63	39.94
320.843	95.23
321.057	50.18
321.27	-27.65
321.483	27.65
321.697	128
321.91	-54.27
322.124	-15.36
322.337	52.22
322.55	27.65
322.763	-31.74
322.977	29.7
323.19	46.08
323.403	21.5
323.617	-72.7
323.83	113.66
324.043	-39.94
324.256	33.79
324.469	-9.22
324.683	60.42
324.896	62.46
325.109	82.94
325.322	1.02
325.535	-11.26
325.748	39.94
325.962	15.36
326.175	76.8
326.388	89.09
326.601	82.94
326.814	15.36
327.027	17.41
327.24	125.95
327.453	-44.03
327.666	64.51
327.879	-17.41
328.092	84.99
328.305	70.65
328.518	-3.07
328.731	39.94
328.944	46.08
329.157	-5.12
329.37	64.51
329.583	87.04
329.796	121.85
330.009	-23.55
330.222	15.36
330.435	52.22
330.648	13.31
330.861	121.85
331.073	107.52
331.286	87.04
331.499	13.31
331.712	48.13
331.925	58.37
332.138	50.18
332.35	33.79
332.563	-11.26
332.776	117.76
332.989	56.32
333.202	66.56
333.414	3.07
333.627	15.36
333.84	-3.07
334.053	7.17
334.265	62.46
334.478	-54.27
334.691	3.07
334.903	-50.18
335.116	-25.6
335.329	48.13
335.541	52.22
335.754	23.55
335.966	41.98
336.179	76.8
336.392	11.26
336.604	46.08
336.817	-19.46
337.029	89.09
337.242	82.94
337.454	52.22
337.667	11.26
337.88	64.51
338.092	107.52
338.305	31.74
338.517	31.74
338.729	21.5
338.942	93.18
339.154	-19.46
339.367	-19.46
339.579	46.08
339.792	33.79
340.004	-35.84
340.217	-13.31
340.429	-13.31
340.641	-11.26
340.854	-54.27
341.066	58.37
341.278	78.85
341.491	74.75
341.703	72.7
341.915	17.41
342.128	41.98
342.34	46.08
342.552	1.02
342.764	97.28
342.977	-15.36
343.189	-35.84
343.401	3.07
343.613	41.98
343.826	87.04
344.038	74.75
344.25	56.32
344.462	23.55
344.674	-37.89
344.886	41.98
345.099	31.74
345.311	41.98
345.523	78.85
345.735	-31.74
345.947	109.57
346.159	-58.37
346.371	72.7
346.583	-29.7
346.795	113.66
347.007	35.84
347.219	66.56
347.431	23.55
347.643	84.99
347.855	-13.31
348.067	-11.26
348.279	-17.41
348.491	-50.18
348.703	78.85
348.915	60.42
349.127	-5.12
349.339	46.08
349.551	23.55
349.763	58.37
349.975	27.65
350.187	7.17
350.399	91.13
350.61	17.41
350.822	-19.46
351.034	27.65
351.246	7.17
351.458	-39.94
351.669	62.46
351.881	44.03
352.093	84.99
352.305	62.46
352.517	35.84
352.728	84.99
352.94	48.13
353.152	41.98
353.363	7.17
353.575	60.42
353.787	-3.07
353.999	97.28
354.21	68.61
354.422	-3.07
354.633	-7.17
354.845	33.79
355.057	-3.07
355.268	48.13
355.48	27.65
355.692	23.55
355.903	76.8
356.115	17.41
356.326	23.55
356.538	72.7
356.749	95.23
356.961	93.18
357.172	68.61
357.384	91.13
357.595	66.56
357.807	84.99
358.018	97.28
358.23	39.94
358.441	64.51
358.653	52.22
358.864	44.03
359.075	62.46
359.287	52.22
359.498	95.23
359.709	66.56
359.921	17.41
360.132	35.84
360.344	66.56
360.555	13.31
360.766	89.09
360.977	27.65
361.189	-19.46
361.4	13.31
361.611	70.65
361.823	89.09
362.034	44.03
362.245	-109.57
362.456	3.07
362.667	33.79
362.879	5.12
363.09	3.07
363.301	89.09
363.512	64.51
363.723	56.32
363.935	3.07
364.146	-13.31
364.357	-1.02
364.568	80.89
364.779	-7.17
364.99	91.13
365.201	25.6
365.412	58.37
365.623	-37.89
365.834	50.18
366.045	9.22
366.256	33.79
366.467	-27.65
366.678	-7.17
366.889	50.18
367.1	9.22
367.311	41.98
367.522	66.56
367.733	58.37
367.944	111.61
368.155	1.02
368.366	97.28
368.577	62.46
368.788	64.51
368.999	-31.74
369.209	31.74
369.42	93.18
369.631	123.9
369.842	15.36
370.053	21.5
370.264	27.65
370.474	31.74
370.685	70.65
370.896	74.75
371.107	128
371.317	-37.89
371.528	-7.17
371.739	64.51
371.95	39.94
372.16	68.61
372.371	25.6
372.582	11.26
372.792	29.7
373.003	113.66
373.214	3.07
373.424	27.65
373.635	9.22
373.846	70.65
374.056	93.18
374.267	-74.75
374.477	84.99
374.688	17.41
374.898	-19.46
375.109	54.27
375.319	50.18
375.53	50.18
375.74	13.31
375.951	15.36
376.161	31.74
376.372	46.08
376.582	23.55
376.793	74.75
377.003	21.5
377.214	11.26
377.424	56.32
377.635	66.56
377.845	37.89
378.055	103.42
378.266	-15.36
378.476	84.99
378.686	80.89
378.897	58.37
379.107	58.37
379.317	50.18
379.528	-9.22
379.738	76.8
379.948	33.79
380.158	91.13
380.369	29.7
380.579	56.32
380.789	-15.36
380.999	37.89
381.21	64.51
381.42	148.48
381.63	-33.79
381.84	162.81
382.05	48.13
382.261	-17.41
382.471	60.42
382.681	13.31
382.891	58.37
383.101	13.31
383.311	39.94
383.521	23.55
383.731	39.94
383.941	31.74
384.151	7.17
384.361	52.22
384.571	50.18
384.781	138.24
384.991	82.94
385.201	125.95
385.411	91.13
385.621	52.22
385.831	39.94
386.041	15.36
386.251	56.32
386.461	162.81
386.671	17.41
386.881	41.98
387.091	44.03
387.301	136.19
387.511	11.26
387.72	-23.55
387.93	76.8
388.14	25.6
388.35	-7.17
388.56	105.47
388.769	41.98
388.979	48.13
389.189	-9.22
389.399	111.61
389.609	87.04
389.818	70.65
390.028	-3.07
390.238	107.52
390.447	37.89
390.657	93.18
390.867	11.26
391.076	-15.36
391.286	25.6
391.496	64.51
391.705	25.6
391.915	111.61
392.125	17.41
392.334	87.04
392.544	93.18
392.753	11.26
392.963	31.74
393.172	76.8
393.382	33.79
393.591	140.29
393.801	58.37
394.01	72.7
394.22	111.61
394.429	74.75
394.639	74.75
394.848	-21.5
395.058	84.99
395.267	87.04
395.477	25.6
395.686	123.9
395.895	136.19
396.105	80.89
396.314	91.13
396.524	31.74
396.733	93.18
396.942	152.57
397.152	91.13
397.361	68.61
397.57	103.42
397.78	50.18
397.989	152.57
398.198	168.96
398.407	91.13
398.617	31.74
398.826	91.13
399.035	99.33
399.244	60.42
399.453	76.8
399.663	119.81
399.872	107.52
400.081	58.37
400.29	177.15
400.499	29.7
400.708	64.51
400.917	76.8
401.127	140.29
401.336	93.18
401.545	162.81
401.754	97.28
401.963	119.81
402.172	64.51
402.381	111.61
402.59	99.33
402.799	152.57
403.008	142.33
403.217	117.76
403.426	107.52
403.635	82.94
403.844	91.13
404.053	107.52
404.262	58.37
404.471	166.91
404.68	173.05
404.888	171.01
405.097	113.66
405.306	142.33
405.515	166.91
405.724	171.01
405.933	195.58
406.142	173.05
406.35	203.77
406.559	123.9
406.768	152.57
406.977	164.86
407.185	146.43
407.394	156.67
407.603	101.37
407.812	195.58
408.02	189.44
408.229	160.77
408.438	160.77
408.646	160.77
408.855	119.81
409.064	168.96
409.272	230.4
409.481	275.45
409.69	214.01
409.898	191.49
410.107	240.64
410.315	312.32
410.524	254.97
410.733	267.26
410.941	248.83
411.15	349.18
411.358	361.47
411.567	461.82
411.775	404.47
411.984	441.34
412.192	361.47
412.401	406.52
412.609	390.14
412.818	455.67
413.026	400.38
413.234	463.86
413.443	386.04
413.651	465.91
413.86	472.06
414.068	582.65
414.276	537.59
414.485	523.26
414.693	576.5
414.901	625.65
415.11	605.17
415.318	580.6
415.526	658.42
415.734	707.57
415.943	719.86
416.151	707.57
416.359	699.38
416.567	826.36
416.776	838.64
416.984	842.74
417.192	943.09
417.4	803.83
417.608	848.88
417.817	875.51
418.025	1053.68
418.233	1031.15
418.441	1072.11
418.649	1035.25
418.857	1088.5
419.065	1133.55
419.273	1076.21
419.481	1164.27
419.689	1186.8
419.897	1342.44
420.105	1385.45
420.313	1416.17
420.521	1446.89
420.729	1448.94
420.937	1553.38
421.145	1414.12
421.353	1643.49
421.561	1711.08
421.769	1803.24
421.977	1850.34
422.185	1790.95
422.393	1930.21
422.601	2092
422.809	2083.81
423.017	2005.99
423.224	2102.24
423.432	2212.83
423.64	2157.54
423.848	2509.79
424.056	2307.04
424.263	2538.46
424.471	2503.64
424.679	2618.33
424.887	2671.58
425.094	2839.51
425.302	2798.55
425.51	2898.9
425.718	3007.44
425.925	3056.59
426.133	3046.35
426.341	3458
426.548	3468.24
426.756	3398.6
426.964	3515.34
427.171	3763.14
427.379	3660.74
427.586	3933.12
427.794	3853.25
428.001	4150.21
428.209	4326.33
428.417	4330.43
428.624	4479.93
428.832	4567.99
429.039	4496.32
429.247	4633.53
429.454	4856.76
429.662	5112.75
429.869	4805.56
430.076	5526.44
430.284	5233.58
430.491	5581.74
430.699	5835.69
430.906	5764.01
431.114	5888.93
431.321	5915.56
431.528	6179.75
431.736	6548.38
431.943	6925.21
432.15	6448.03
432.358	6976.41
432.565	7138.2
432.772	6972.31
432.979	7463.82
433.187	7531.41
433.394	7627.66
433.601	8156.04
433.808	8262.53
434.016	8133.51
434.223	8229.76
434.43	8903.54
434.637	8981.37
434.844	9094.01
435.052	9501.55
435.259	9329.52
435.466	9429.87
435.673	9329.52
435.88	10068.84
436.087	10462.05
436.294	10498.91
436.501	10175.33
436.708	10437.47
436.915	10883.93
437.122	11293.52
437.329	11236.18
437.537	11651.92
437.743	12098.38
437.95	11901.77
438.157	12464.96
438.364	12712.77
438.571	13052.73
438.778	12860.22
438.985	14226.21
439.192	13609.78
439.399	14072.62
439.606	13531.95
439.813	14496.55
440.02	15510.29
440.227	14988.06
440.433	14922.52
440.64	15440.66
440.847	15311.64
441.054	15563.54
441.261	16675.59
441.467	16450.31
441.674	16790.27
441.881	17521.4
442.088	17457.91
442.294	17091.32
442.501	17906.41
442.708	18229.99
442.914	18778.85
443.121	19843.79
443.328	18883.3
443.534	20441.8
443.741	20089.55
443.948	19665.62
444.154	20968.13
444.361	21217.98
444.568	21029.57
444.774	21158.59
444.981	21291.71
445.187	22131.37
445.394	22831.78
445.6	22878.88
445.807	24713.86
446.013	23784.09
446.22	24101.52
446.426	25170.56
446.633	25287.29
446.839	26237.55
447.046	24967.81
447.252	26866.28
447.459	26630.76
447.665	26360.43
447.871	27609.69
448.078	28951.11
448.284	27480.67
448.491	28199.51
448.697	29106.76
448.903	29780.54
449.11	29907.51
449.316	29387.33
449.522	30216.75
449.728	30708.27
449.935	30734.89
450.141	31148.58
450.347	31752.73
450.553	30841.39
450.76	31187.49
450.966	32186.9
451.172	31818.27
451.378	32639.5
451.584	32147.99
451.791	32795.15
451.997	32735.76
452.203	33217.03
452.409	33253.89
452.615	33294.85
452.821	31459.87
453.027	31203.88
453.233	33024.52
453.44	31601.18
453.646	32219.67
453.852	32444.94
454.058	32791.05
454.264	31844.89
454.47	32446.99
454.676	31812.12
454.882	32746
455.088	30040.63
455.294	30282.29
455.5	30816.81
455.705	31025.7
455.911	30018.1
456.117	29131.33
456.323	28871.24
456.529	27136.61
456.735	28408.4
456.941	27847.26
457.147	27384.41
457.352	26548.84
457.558	26225.26
457.764	26401.39
457.97	26104.43
458.176	25291.39
458.381	25246.33
458.587	23947.92
458.793	24015.51
458.999	22878.88
459.204	24099.47
459.41	23526.04
459.616	22158
459.821	22256.3
460.027	21858.99
460.233	21566.13
460.438	20726.47
460.644	20843.2
460.85	19700.44
461.055	19571.41
461.261	19198.68
461.466	17887.98
461.672	17441.53
461.878	18860.77
462.083	17533.68
462.289	17101.56
462.494	16804.61
462.7	16202.5
462.905	15901.45
463.111	16476.93
463.316	16218.89
463.522	16048.91
463.727	15969.04
463.932	16036.62
464.138	15801.1
464.343	16186.12
464.549	15545.11
464.754	15905.55
464.959	15670.03
465.165	15768.34
465.37	14994.2
465.575	14904.09
465.781	15233.82
465.986	15295.25
466.191	14555.94
466.397	14560.03
466.602	13886.25
466.807	14512.93
467.012	14189.35
467.218	14054.19
467.423	13910.83
467.628	14345
