Data from USB4F104151__90__12-24-51-932.txt Node

Date: Fri Mar 14 12:24:51 EDT 2025
User: louis
Spectrometer: USB4F10415
Trigger mode: 4
Integration Time (sec): 3.500000E-2
Scans to average: 1
Electric dark correction enabled: true
Nonlinearity correction enabled: false
Boxcar width: 0
XAxis mode: Wavelengths
Number of Pixels in Spectrum: 3648
>>>>>Begin Spectral Data<<<<<
178.204	-161.62
178.424	-161.62
178.644	-161.62
178.864	-208.72
179.084	-167.76
179.304	-12.12
179.524	-8.02
179.744	22.7
179.964	18.6
180.184	12.46
180.404	32.94
180.624	37.03
180.844	-81.75
181.064	6.31
181.283	2.22
181.503	-48.98
181.723	18.6
181.943	-75.6
182.163	73.9
182.383	26.79
182.602	57.51
182.822	61.61
183.042	-10.07
183.262	-24.4
183.482	63.66
183.701	20.65
183.921	102.57
184.141	-10.07
184.361	53.42
184.58	-26.45
184.8	-44.88
185.02	18.6
185.239	39.08
185.459	55.47
185.679	-16.21
185.898	-14.17
186.118	28.84
186.338	-16.21
186.557	65.71
186.777	-28.5
186.997	-18.26
187.216	0.17
187.436	49.32
187.655	92.33
187.875	37.03
188.095	55.47
188.314	43.18
188.534	57.51
188.753	24.75
188.973	65.71
189.192	22.7
189.412	2.22
189.631	-10.07
189.851	49.32
190.07	43.18
190.29	34.99
190.509	116.9
190.729	49.32
190.948	96.43
191.168	116.9
191.387	59.56
191.607	-46.93
191.826	82.09
192.045	57.51
192.265	57.51
192.484	18.6
192.704	18.6
192.923	24.75
193.142	16.55
193.362	100.52
193.581	73.9
193.8	28.84
194.02	59.56
194.239	18.6
194.458	59.56
194.678	-5.97
194.897	51.37
195.116	-18.26
195.335	55.47
195.555	4.27
195.774	-16.21
195.993	26.79
196.212	16.55
196.432	0.17
196.651	-67.41
196.87	-42.84
197.089	100.52
197.308	30.89
197.528	63.66
197.747	-81.75
197.966	34.99
198.185	59.56
198.404	-12.12
198.623	45.23
198.842	59.56
199.062	98.47
199.281	57.51
199.5	77.99
199.719	-5.97
199.938	30.89
200.157	59.56
200.376	98.47
200.595	53.42
200.814	4.27
201.033	22.7
201.252	53.42
201.471	-8.02
201.69	67.75
201.909	51.37
202.128	49.32
202.347	34.99
202.566	-42.84
202.785	-55.12
203.004	-55.12
203.223	59.56
203.442	-3.93
203.661	-46.93
203.879	57.51
204.098	67.75
204.317	-18.26
204.536	73.9
204.755	24.75
204.974	104.62
205.193	-3.93
205.411	92.33
205.63	82.09
205.849	-16.21
206.068	-26.45
206.287	-18.26
206.505	37.03
206.724	55.47
206.943	51.37
207.162	80.04
207.381	30.89
207.599	-8.02
207.818	10.41
208.037	-77.65
208.255	-36.69
208.474	-26.45
208.693	22.7
208.911	-36.69
209.13	57.51
209.349	-8.02
209.567	-14.17
209.786	84.14
210.005	86.19
210.223	18.6
210.442	0.17
210.661	57.51
210.879	24.75
211.098	10.41
211.316	22.7
211.535	63.66
211.753	45.23
211.972	8.36
212.191	18.6
212.409	2.22
212.628	-3.93
212.846	-30.55
213.065	26.79
213.283	61.61
213.502	30.89
213.72	-8.02
213.938	26.79
214.157	61.61
214.375	67.75
214.594	-14.17
214.812	26.79
215.031	37.03
215.249	10.41
215.467	59.56
215.686	26.79
215.904	69.8
216.122	16.55
216.341	16.55
216.559	24.75
216.778	100.52
216.996	73.9
217.214	-18.26
217.432	4.27
217.651	65.71
217.869	51.37
218.087	51.37
218.306	14.51
218.524	80.04
218.742	4.27
218.96	12.46
219.179	-14.17
219.397	41.13
219.615	65.71
219.833	12.46
220.051	-1.88
220.27	110.76
220.488	104.62
220.706	59.56
220.924	30.89
221.142	-5.97
221.36	98.47
221.578	51.37
221.796	2.22
222.015	51.37
222.233	30.89
222.451	4.27
222.669	2.22
222.887	71.85
223.105	-22.36
223.323	116.9
223.541	-24.4
223.759	-53.08
223.977	2.22
224.195	20.65
224.413	24.75
224.631	30.89
224.849	18.6
225.067	77.99
225.285	39.08
225.503	0.17
225.721	22.7
225.939	-42.84
226.157	8.36
226.375	102.57
226.592	-26.45
226.81	57.51
227.028	116.9
227.246	39.08
227.464	10.41
227.682	55.47
227.9	22.7
228.117	108.71
228.335	-14.17
228.553	26.79
228.771	-30.55
228.989	86.19
229.206	-12.12
229.424	-20.31
229.642	-36.69
229.86	24.75
230.077	106.67
230.295	-3.93
230.513	61.61
230.731	51.37
230.948	96.43
231.166	57.51
231.384	47.27
231.601	14.51
231.819	100.52
232.037	-24.4
232.254	-14.17
232.472	6.31
232.689	-10.07
232.907	26.79
233.125	92.33
233.342	102.57
233.56	-32.6
233.777	-12.12
233.995	45.23
234.213	-8.02
234.43	16.55
234.648	94.38
234.865	45.23
235.083	-57.17
235.3	14.51
235.518	63.66
235.735	45.23
235.953	24.75
236.17	51.37
236.388	51.37
236.605	37.03
236.822	63.66
237.04	30.89
237.257	18.6
237.475	-67.41
237.692	14.51
237.909	10.41
238.127	-14.17
238.344	14.51
238.562	4.27
238.779	-61.27
238.996	-77.65
239.214	88.23
239.431	45.23
239.648	-38.74
239.865	41.13
240.083	37.03
240.3	67.75
240.517	-20.31
240.735	-1.88
240.952	0.17
241.169	8.36
241.386	-8.02
241.603	2.22
241.821	24.75
242.038	84.14
242.255	41.13
242.472	-5.97
242.689	41.13
242.907	84.14
243.124	-20.31
243.341	26.79
243.558	4.27
243.775	-16.21
243.992	-81.75
244.209	63.66
244.426	86.19
244.643	75.95
244.86	-30.55
245.078	90.28
245.295	32.94
245.512	65.71
245.729	28.84
245.946	61.61
246.163	-1.88
246.38	-24.4
246.597	10.41
246.814	49.32
247.031	-40.79
247.248	8.36
247.464	92.33
247.681	51.37
247.898	67.75
248.115	34.99
248.332	-12.12
248.549	-30.55
248.766	96.43
248.983	20.65
249.2	10.41
249.417	22.7
249.633	-24.4
249.85	59.56
250.067	-5.97
250.284	-1.88
250.501	96.43
250.717	24.75
250.934	-30.55
251.151	53.42
251.368	71.85
251.585	47.27
251.801	45.23
252.018	-28.5
252.235	24.75
252.451	-10.07
252.668	-63.32
252.885	43.18
253.102	-20.31
253.318	37.03
253.535	0.17
253.752	28.84
253.968	80.04
254.185	43.18
254.401	-69.46
254.618	110.76
254.835	8.36
255.051	94.38
255.268	37.03
255.484	57.51
255.701	47.27
255.917	45.23
256.134	18.6
256.351	-40.79
256.567	-16.21
256.784	8.36
257	-38.74
257.217	69.8
257.433	57.51
257.65	-8.02
257.866	6.31
258.082	34.99
258.299	-18.26
258.515	-5.97
258.732	-12.12
258.948	-32.6
259.165	80.04
259.381	43.18
259.597	59.56
259.814	16.55
260.03	94.38
260.246	12.46
260.463	53.42
260.679	41.13
260.895	65.71
261.112	98.47
261.328	-10.07
261.544	4.27
261.761	137.38
261.977	20.65
262.193	2.22
262.409	92.33
262.626	-3.93
262.842	47.27
263.058	51.37
263.274	51.37
263.49	53.42
263.707	-12.12
263.923	-28.5
264.139	-69.46
264.355	-12.12
264.571	75.95
264.787	82.09
265.004	-10.07
265.22	43.18
265.436	-59.22
265.652	-8.02
265.868	6.31
266.084	-73.56
266.3	73.9
266.516	-28.5
266.732	4.27
266.948	8.36
267.164	12.46
267.38	102.57
267.596	98.47
267.812	75.95
268.028	12.46
268.244	20.65
268.46	80.04
268.676	24.75
268.892	-1.88
269.108	-22.36
269.324	18.6
269.54	-10.07
269.756	67.75
269.972	-48.98
270.188	30.89
270.403	28.84
270.619	-24.4
270.835	-14.17
271.051	37.03
271.267	16.55
271.483	90.28
271.698	67.75
271.914	-42.84
272.13	63.66
272.346	53.42
272.562	67.75
272.777	16.55
272.993	39.08
273.209	6.31
273.425	28.84
273.64	8.36
273.856	139.43
274.072	-3.93
274.287	16.55
274.503	32.94
274.719	10.41
274.934	20.65
275.15	-30.55
275.366	30.89
275.581	-3.93
275.797	84.14
276.012	14.51
276.228	39.08
276.444	-5.97
276.659	55.47
276.875	8.36
277.09	-20.31
277.306	39.08
277.521	24.75
277.737	34.99
277.952	12.46
278.168	20.65
278.383	118.95
278.599	39.08
278.814	18.6
279.03	6.31
279.245	12.46
279.461	-12.12
279.676	-24.4
279.892	-16.21
280.107	32.94
280.322	-24.4
280.538	71.85
280.753	8.36
280.969	20.65
281.184	80.04
281.399	102.57
281.615	-22.36
281.83	43.18
282.045	-28.5
282.26	6.31
282.476	-8.02
282.691	-22.36
282.906	-14.17
283.122	100.52
283.337	-12.12
283.552	22.7
283.767	-75.6
283.983	98.47
284.198	39.08
284.413	49.32
284.628	22.7
284.843	49.32
285.058	61.61
285.274	-1.88
285.489	-5.97
285.704	104.62
285.919	28.84
286.134	28.84
286.349	12.46
286.564	2.22
286.779	61.61
286.995	73.9
287.21	18.6
287.425	-3.93
287.64	8.36
287.855	43.18
288.07	8.36
288.285	53.42
288.5	71.85
288.715	43.18
288.93	57.51
289.145	-1.88
289.36	30.89
289.575	-1.88
289.79	92.33
290.004	-51.03
290.219	147.62
290.434	71.85
290.649	10.41
290.864	-8.02
291.079	110.76
291.294	16.55
291.509	-8.02
291.724	2.22
291.938	-34.64
292.153	135.34
292.368	61.61
292.583	18.6
292.798	-28.5
293.012	73.9
293.227	51.37
293.442	41.13
293.657	57.51
293.871	77.99
294.086	43.18
294.301	63.66
294.516	-10.07
294.73	61.61
294.945	-38.74
295.16	-1.88
295.374	106.67
295.589	-32.6
295.804	63.66
296.018	63.66
296.233	82.09
296.447	53.42
296.662	-20.31
296.877	-5.97
297.091	10.41
297.306	98.47
297.52	32.94
297.735	34.99
297.949	8.36
298.164	20.65
298.378	39.08
298.593	-20.31
298.807	-12.12
299.022	59.56
299.236	90.28
299.451	14.51
299.665	-36.69
299.88	-20.31
300.094	4.27
300.309	-55.12
300.523	61.61
300.737	-28.5
300.952	18.6
301.166	102.57
301.381	51.37
301.595	18.6
301.809	37.03
302.024	43.18
302.238	51.37
302.452	39.08
302.667	-18.26
302.881	100.52
303.095	114.86
303.309	96.43
303.524	-8.02
303.738	53.42
303.952	65.71
304.166	26.79
304.381	16.55
304.595	41.13
304.809	16.55
305.023	45.23
305.237	-8.02
305.452	-8.02
305.666	94.38
305.88	4.27
306.094	24.75
306.308	106.67
306.522	-12.12
306.736	47.27
306.95	47.27
307.164	71.85
307.379	2.22
307.593	28.84
307.807	12.46
308.021	26.79
308.235	16.55
308.449	37.03
308.663	24.75
308.877	123.05
309.091	6.31
309.305	37.03
309.519	-20.31
309.733	77.99
309.947	-44.88
310.161	75.95
310.374	90.28
310.588	8.36
310.802	34.99
311.016	20.65
311.23	73.9
311.444	49.32
311.658	-100.18
311.872	34.99
312.085	30.89
312.299	37.03
312.513	61.61
312.727	47.27
312.941	45.23
313.154	65.71
313.368	-12.12
313.582	20.65
313.796	116.9
314.009	41.13
314.223	10.41
314.437	10.41
314.651	22.7
314.864	10.41
315.078	37.03
315.292	-8.02
315.505	22.7
315.719	16.55
315.933	-22.36
316.146	0.17
316.36	-12.12
316.573	96.43
316.787	18.6
317.001	34.99
317.214	-36.69
317.428	30.89
317.641	12.46
317.855	30.89
318.068	4.27
318.282	6.31
318.495	137.38
318.709	69.8
318.922	-73.56
319.136	82.09
319.349	65.71
319.563	-65.36
319.776	37.03
319.99	-38.74
320.203	45.23
320.417	8.36
320.63	73.9
320.843	24.75
321.057	49.32
321.27	28.84
321.483	-8.02
321.697	57.51
321.91	12.46
322.124	-10.07
322.337	37.03
322.55	-14.17
322.763	4.27
322.977	-5.97
323.19	-42.84
323.403	34.99
323.617	22.7
323.83	16.55
324.043	49.32
324.256	-3.93
324.469	-5.97
324.683	14.51
324.896	32.94
325.109	-1.88
325.322	16.55
325.535	-12.12
325.748	-3.93
325.962	4.27
326.175	0.17
326.388	0.17
326.601	84.14
326.814	51.37
327.027	82.09
327.24	127.14
327.453	-38.74
327.666	-40.79
327.879	-12.12
328.092	47.27
328.305	61.61
328.518	12.46
328.731	14.51
328.944	34.99
329.157	0.17
329.37	53.42
329.583	102.57
329.796	39.08
330.009	-16.21
330.222	28.84
330.435	34.99
330.648	18.6
330.861	16.55
331.073	135.34
331.286	28.84
331.499	53.42
331.712	-28.5
331.925	86.19
332.138	61.61
332.35	51.37
332.563	61.61
332.776	71.85
332.989	-22.36
333.202	18.6
333.414	16.55
333.627	2.22
333.84	22.7
334.053	-5.97
334.265	-1.88
334.478	-32.6
334.691	18.6
334.903	-44.88
335.116	-38.74
335.329	22.7
335.541	37.03
335.754	22.7
335.966	24.75
336.179	2.22
336.392	-51.03
336.604	116.9
336.817	77.99
337.029	32.94
337.242	16.55
337.454	4.27
337.667	18.6
337.88	51.37
338.092	30.89
338.305	94.38
338.517	-75.6
338.729	34.99
338.942	65.71
339.154	53.42
339.367	-51.03
339.579	26.79
339.792	2.22
340.004	18.6
340.217	28.84
340.429	-8.02
340.641	28.84
340.854	-24.4
341.066	8.36
341.278	-14.17
341.491	51.37
341.703	55.47
341.915	-8.02
342.128	37.03
342.34	4.27
342.552	30.89
342.764	32.94
342.977	45.23
343.189	28.84
343.401	32.94
343.613	-14.17
343.826	133.29
344.038	-12.12
344.25	41.13
344.462	34.99
344.674	8.36
344.886	59.56
345.099	61.61
345.311	10.41
345.523	37.03
345.735	-8.02
345.947	59.56
346.159	88.23
346.371	-14.17
346.583	8.36
346.795	65.71
347.007	39.08
347.219	20.65
347.431	65.71
347.643	90.28
347.855	10.41
348.067	51.37
348.279	-67.41
348.491	59.56
348.703	106.67
348.915	-22.36
349.127	0.17
349.339	-14.17
349.551	-14.17
349.763	65.71
349.975	-73.56
350.187	20.65
350.399	22.7
350.61	2.22
350.822	6.31
351.034	61.61
351.246	106.67
351.458	47.27
351.669	69.8
351.881	-20.31
352.093	59.56
352.305	37.03
352.517	-28.5
352.728	106.67
352.94	32.94
353.152	49.32
353.363	18.6
353.575	41.13
353.787	43.18
353.999	53.42
354.21	96.43
354.422	84.14
354.633	20.65
354.845	84.14
355.057	37.03
355.268	43.18
355.48	43.18
355.692	20.65
355.903	43.18
356.115	34.99
356.326	10.41
356.538	80.04
356.749	-18.26
356.961	90.28
357.172	24.75
357.384	30.89
357.595	84.14
357.807	51.37
358.018	26.79
358.23	24.75
358.441	118.95
358.653	86.19
358.864	-42.84
359.075	16.55
359.287	67.75
359.498	10.41
359.709	20.65
359.921	102.57
360.132	37.03
360.344	86.19
360.555	-5.97
360.766	-14.17
360.977	37.03
361.189	92.33
361.4	6.31
361.611	90.28
361.823	71.85
362.034	47.27
362.245	90.28
362.456	28.84
362.667	61.61
362.879	-34.64
363.09	43.18
363.301	18.6
363.512	20.65
363.723	32.94
363.935	61.61
364.146	-20.31
364.357	43.18
364.568	26.79
364.779	34.99
364.99	53.42
365.201	-42.84
365.412	26.79
365.623	2.22
365.834	47.27
366.045	49.32
366.256	26.79
366.467	24.75
366.678	8.36
366.889	67.75
367.1	49.32
367.311	104.62
367.522	32.94
367.733	12.46
367.944	75.95
368.155	-44.88
368.366	96.43
368.577	110.76
368.788	59.56
368.999	22.7
369.209	14.51
369.42	65.71
369.631	2.22
369.842	34.99
370.053	10.41
370.264	84.14
370.474	2.22
370.685	55.47
370.896	37.03
371.107	96.43
371.317	24.75
371.528	-10.07
371.739	129.19
371.95	67.75
372.16	90.28
372.371	32.94
372.582	37.03
372.792	63.66
373.003	71.85
373.214	0.17
373.424	86.19
373.635	-20.31
373.846	106.67
374.056	51.37
374.267	26.79
374.477	53.42
374.688	14.51
374.898	-18.26
375.109	-14.17
375.319	2.22
375.53	71.85
375.74	104.62
375.951	-26.45
376.161	37.03
376.372	118.95
376.582	-1.88
376.793	59.56
377.003	8.36
377.214	12.46
377.424	12.46
377.635	90.28
377.845	-20.31
378.055	102.57
378.266	-16.21
378.476	-38.74
378.686	37.03
378.897	32.94
379.107	41.13
379.317	57.51
379.528	37.03
379.738	125.1
379.948	-1.88
380.158	67.75
380.369	41.13
380.579	55.47
380.789	53.42
380.999	100.52
381.21	110.76
381.42	102.57
381.63	-5.97
381.84	32.94
382.05	61.61
382.261	51.37
382.471	22.7
382.681	43.18
382.891	84.14
383.101	53.42
383.311	-20.31
383.521	49.32
383.731	43.18
383.941	24.75
384.151	57.51
384.361	16.55
384.571	-18.26
384.781	110.76
384.991	94.38
385.201	135.34
385.411	-12.12
385.621	47.27
385.831	45.23
386.041	82.09
386.251	32.94
386.461	55.47
386.671	59.56
386.881	108.71
387.091	98.47
387.301	34.99
387.511	39.08
387.72	90.28
387.93	18.6
388.14	28.84
388.35	94.38
388.56	67.75
388.769	98.47
388.979	10.41
389.189	-59.22
389.399	-1.88
389.609	34.99
389.818	82.09
390.028	75.95
390.238	102.57
390.447	14.51
390.657	-28.5
390.867	20.65
391.076	-18.26
391.286	104.62
391.496	43.18
391.705	4.27
391.915	106.67
392.125	110.76
392.334	102.57
392.544	98.47
392.753	6.31
392.963	67.75
393.172	73.9
393.382	0.17
393.591	41.13
393.801	61.61
394.01	96.43
394.22	106.67
394.429	129.19
394.639	65.71
394.848	84.14
395.058	-3.93
395.267	106.67
395.477	37.03
395.686	-12.12
395.895	131.24
396.105	149.67
396.314	108.71
396.524	39.08
396.733	39.08
396.942	90.28
397.152	100.52
397.361	153.77
397.57	51.37
397.78	127.14
397.989	100.52
398.198	135.34
398.407	137.38
398.617	65.71
398.826	73.9
399.035	67.75
399.244	63.66
399.453	135.34
399.663	92.33
399.872	127.14
400.081	65.71
400.29	190.63
400.499	53.42
400.708	75.95
400.917	82.09
401.127	77.99
401.336	82.09
401.545	84.14
401.754	161.96
401.963	53.42
402.172	86.19
402.381	75.95
402.59	77.99
402.799	61.61
403.008	63.66
403.217	96.43
403.426	116.9
403.635	69.8
403.844	112.81
404.053	129.19
404.262	104.62
404.471	174.25
404.68	172.2
404.888	102.57
405.097	129.19
405.306	108.71
405.515	92.33
405.724	118.95
405.933	164.01
406.142	182.44
406.35	139.43
406.559	127.14
406.768	123.05
406.977	147.62
407.185	186.54
407.394	141.48
407.603	59.56
407.812	155.82
408.02	159.91
408.229	149.67
408.438	221.35
408.646	174.25
408.855	161.96
409.064	213.16
409.272	200.87
409.481	227.5
409.69	186.54
409.898	231.59
410.107	272.55
410.315	182.44
410.524	239.78
410.733	256.17
410.941	276.65
411.15	266.41
411.358	321.7
411.567	288.93
411.775	258.21
411.984	303.27
412.192	350.37
412.401	370.85
412.609	362.66
412.818	331.94
413.026	440.48
413.234	295.08
413.443	403.62
413.651	393.38
413.86	434.34
414.068	530.59
414.276	583.84
414.485	428.2
414.693	557.22
414.901	549.03
415.11	641.18
415.318	565.41
415.526	567.46
415.734	624.8
415.943	573.6
416.151	518.31
416.359	680.1
416.567	649.38
416.776	751.78
416.984	784.54
417.192	712.86
417.4	731.3
417.608	764.06
417.817	839.84
418.025	807.07
418.233	948.38
418.441	764.06
418.649	860.32
418.857	1036.44
419.065	942.24
419.273	934.04
419.481	1069.21
419.689	1179.8
419.897	1091.74
420.105	1151.13
420.313	1310.87
420.521	1251.48
420.729	1249.43
420.937	1249.43
421.145	1439.89
421.353	1448.08
421.561	1544.34
421.769	1542.29
421.977	1587.35
422.185	1603.73
422.393	1786
422.601	1798.29
422.809	1777.81
423.017	1759.38
423.224	1888.4
423.432	2003.08
423.64	1917.07
423.848	2203.79
424.056	2005.13
424.263	2234.5
424.471	2226.31
424.679	2300.04
424.887	2224.26
425.094	2404.49
425.302	2607.23
425.51	2574.47
425.718	2615.43
425.925	2642.05
426.133	2719.87
426.341	2920.57
426.548	3035.26
426.756	3098.75
426.964	3070.08
427.171	3213.43
427.379	3311.74
427.586	3446.9
427.794	3397.75
428.001	3848.3
428.209	3969.13
428.417	3772.53
428.624	4061.29
428.832	3911.79
429.039	3985.52
429.247	3930.22
429.454	4474.98
429.662	4757.6
429.869	4534.37
430.076	4616.29
430.284	4718.69
430.491	4892.77
430.699	4980.83
430.906	5126.24
431.114	5163.1
431.321	5316.7
431.528	5482.58
431.736	5623.89
431.943	6037.58
432.15	5945.42
432.358	5914.7
432.565	6215.76
432.772	6180.94
432.979	6518.86
433.187	6711.36
433.394	6815.81
433.601	7102.53
433.808	7204.92
434.016	7161.92
434.223	7407.67
434.43	7882.8
434.637	7688.25
434.844	8372.27
435.052	8517.67
435.259	8310.83
435.466	8259.63
435.673	8300.59
435.88	8921.12
436.087	9535.51
436.294	9512.99
436.501	9062.43
436.708	9402.4
436.915	9648.15
437.122	10086.42
437.329	9902.1
437.537	10160.14
437.743	10416.14
437.95	10493.96
438.157	11073.54
438.364	11452.41
438.571	11517.95
438.778	11446.27
438.985	12566.51
439.192	11972.6
439.399	12343.28
439.606	12064.75
439.813	12648.43
440.02	13367.26
440.227	13240.29
440.433	13080.55
440.64	13791.19
440.847	13643.74
441.054	13819.86
441.261	14768.07
441.467	14786.51
441.674	14979.01
441.881	15345.6
442.088	15370.18
442.294	15546.3
442.501	15781.82
442.708	15984.57
442.914	16553.9
443.121	17584.03
443.328	17121.19
443.534	18032.54
443.741	17713.05
443.948	17604.51
444.154	18745.23
444.361	18632.59
444.568	18679.69
444.774	18522
444.981	18896.78
445.187	19502.98
445.394	20344.69
445.6	19980.15
445.807	21856.09
446.013	21116.78
446.22	21628.77
446.426	22251.35
446.633	22601.55
446.839	23304.01
447.046	22298.45
447.252	23410.5
447.459	23457.6
447.665	23488.32
447.871	24571.7
448.078	25468.71
448.284	24547.12
448.491	25057.07
448.697	26044.19
448.903	26461.97
449.11	26523.41
449.316	26060.57
449.522	26525.46
449.728	27246.35
449.935	27434.76
450.141	27166.48
450.347	27868.93
450.553	27375.37
450.76	27862.79
450.966	28352.25
451.172	28266.24
451.378	29335.28
451.584	28610.29
451.791	29196.01
451.997	28919.54
452.203	29427.43
452.409	29624.04
452.615	29566.7
452.821	28593.91
453.027	27940.61
453.233	29495.02
453.44	28241.66
453.646	28686.07
453.852	28866.29
454.058	29130.48
454.264	28208.89
454.47	29363.95
454.676	28221.18
454.882	29419.24
455.088	26916.62
455.294	27215.63
455.5	27365.13
455.705	27596.55
455.911	26777.36
456.117	26214.17
456.323	25808.67
456.529	24487.73
456.735	25546.53
456.941	24674.1
457.147	24387.38
457.352	23740.22
457.558	23357.25
457.764	23586.63
457.97	22959.95
458.176	22572.88
458.381	22384.47
458.587	21485.41
458.793	21303.14
458.999	20387.7
459.204	21628.77
459.41	20897.64
459.616	19738.49
459.821	19961.72
460.027	19648.38
460.233	19273.6
460.438	18370.45
460.644	18546.58
460.85	17606.56
461.055	17686.43
461.261	17418.14
461.466	16015.29
461.672	15704
461.878	16717.74
462.083	15697.85
462.289	15390.66
462.494	15228.87
462.7	14622.67
462.905	14233.55
463.111	14835.66
463.316	14555.08
463.522	14352.34
463.727	14544.84
463.932	14059.48
464.138	14258.13
464.343	14190.55
464.549	13770.71
464.754	14055.38
464.959	14075.86
465.165	14055.38
465.37	13506.52
465.575	13271.01
465.781	13586.4
465.986	13733.85
466.191	13252.58
466.397	12941.29
466.602	12253.17
466.807	12900.33
467.012	12740.58
467.218	12703.72
467.423	12507.12
