Data from USB4F104151__55__12-24-05-528.txt Node

Date: Fri Mar 14 12:24:05 EDT 2025
User: louis
Spectrometer: USB4F10415
Trigger mode: 4
Integration Time (sec): 3.500000E-2
Scans to average: 1
Electric dark correction enabled: true
Nonlinearity correction enabled: false
Boxcar width: 0
XAxis mode: Wavelengths
Number of Pixels in Spectrum: 3648
>>>>>Begin Spectral Data<<<<<
178.204	-149.67
178.424	-149.67
178.644	-149.67
178.864	-184.49
179.084	-174.25
179.304	-6.31
179.524	-32.94
179.744	8.02
179.964	20.31
180.184	8.02
180.404	-18.6
180.624	18.26
180.844	-28.84
181.064	-71.85
181.283	-0.17
181.503	108.37
181.723	-4.27
181.943	-10.41
182.163	114.52
182.383	-2.22
182.602	24.4
182.822	91.99
183.042	77.65
183.262	-0.17
183.482	55.12
183.701	34.64
183.921	57.17
184.141	14.17
184.361	53.08
184.58	16.21
184.8	83.8
185.02	14.17
185.239	57.17
185.459	112.47
185.679	-30.89
185.898	24.4
186.118	5.97
186.338	46.93
186.557	44.88
186.777	38.74
186.997	30.55
187.216	36.69
187.436	46.93
187.655	-12.46
187.875	12.12
188.095	73.56
188.314	102.23
188.534	112.47
188.753	55.12
188.973	28.5
189.192	38.74
189.412	63.32
189.631	42.84
189.851	48.98
190.07	44.88
190.29	-24.75
190.509	12.12
190.729	44.88
190.948	61.27
191.168	169.81
191.387	63.32
191.607	-28.84
191.826	120.66
192.045	30.55
192.265	73.56
192.484	20.31
192.704	28.5
192.923	-24.75
193.142	108.37
193.362	28.5
193.581	14.17
193.8	-59.56
194.02	83.8
194.239	1.88
194.458	32.6
194.678	102.23
194.897	12.12
195.116	8.02
195.335	48.98
195.555	-32.94
195.774	59.22
195.993	38.74
196.212	24.4
196.432	16.21
196.651	-6.31
196.87	16.21
197.089	116.56
197.308	128.85
197.528	57.17
197.747	-61.61
197.966	12.12
198.185	141.14
198.404	-0.17
198.623	59.22
198.842	67.41
199.062	1.88
199.281	63.32
199.5	53.08
199.719	71.51
199.938	20.31
200.157	46.93
200.376	51.03
200.595	96.08
200.814	48.98
201.033	30.55
201.252	46.93
201.471	89.94
201.69	-32.94
201.909	36.69
202.128	87.89
202.347	61.27
202.566	5.97
202.785	-49.32
203.004	30.55
203.223	122.71
203.442	87.89
203.661	12.12
203.879	124.76
204.098	100.18
204.317	20.31
204.536	110.42
204.755	59.22
204.974	63.32
205.193	53.08
205.411	36.69
205.63	34.64
205.849	67.41
206.068	-22.7
206.287	10.07
206.505	106.32
206.724	-2.22
206.943	-51.37
207.162	75.6
207.381	71.51
207.599	61.27
207.818	8.02
208.037	83.8
208.255	61.27
208.474	24.4
208.693	36.69
208.911	16.21
209.13	32.6
209.349	48.98
209.567	16.21
209.786	83.8
210.005	79.7
210.223	63.32
210.442	-8.36
210.661	104.28
210.879	124.76
211.098	48.98
211.316	3.93
211.535	116.56
211.753	57.17
211.972	-10.41
212.191	34.64
212.409	59.22
212.628	98.13
212.846	40.79
213.065	59.22
213.283	77.65
213.502	-6.31
213.72	40.79
213.938	-14.51
214.157	-16.55
214.375	79.7
214.594	61.27
214.812	34.64
215.031	32.6
215.249	20.31
215.467	55.12
215.686	46.93
215.904	69.46
216.122	30.55
216.341	100.18
216.559	14.17
216.778	-6.31
216.996	57.17
217.214	69.46
217.432	69.46
217.651	-2.22
217.869	53.08
218.087	22.36
218.306	75.6
218.524	79.7
218.742	-16.55
218.96	10.07
219.179	57.17
219.397	44.88
219.615	38.74
219.833	65.36
220.051	51.03
220.27	75.6
220.488	38.74
220.706	42.84
220.924	-45.23
221.142	73.56
221.36	42.84
221.578	34.64
221.796	81.75
222.015	-26.79
222.233	38.74
222.451	91.99
222.669	65.36
222.887	48.98
223.105	-26.79
223.323	91.99
223.541	-39.08
223.759	81.75
223.977	67.41
224.195	65.36
224.413	85.84
224.631	30.55
224.849	-0.17
225.067	145.24
225.285	3.93
225.503	51.03
225.721	-18.6
225.939	18.26
226.157	38.74
226.375	184.15
226.592	-39.08
226.81	32.6
227.028	126.8
227.246	91.99
227.464	77.65
227.682	42.84
227.9	53.08
228.117	65.36
228.335	135
228.553	71.51
228.771	30.55
228.989	63.32
229.206	61.27
229.424	20.31
229.642	3.93
229.86	10.07
230.077	20.31
230.295	22.36
230.513	61.27
230.731	89.94
230.948	122.71
231.166	186.19
231.384	3.93
231.601	-41.13
231.819	71.51
232.037	67.41
232.254	24.4
232.472	61.27
232.689	8.02
232.907	30.55
233.125	102.23
233.342	22.36
233.56	87.89
233.777	61.27
233.995	75.6
234.213	46.93
234.43	-10.41
234.648	-10.41
234.865	69.46
235.083	44.88
235.3	46.93
235.518	89.94
235.735	89.94
235.953	87.89
236.17	106.32
236.388	5.97
236.605	1.88
236.822	89.94
237.04	36.69
237.257	28.5
237.475	-43.18
237.692	5.97
237.909	10.07
238.127	71.51
238.344	28.5
238.562	38.74
238.779	73.56
238.996	-39.08
239.214	73.56
239.431	69.46
239.648	46.93
239.865	-8.36
240.083	10.07
240.3	-30.89
240.517	22.36
240.735	-2.22
240.952	165.71
241.169	112.47
241.386	55.12
241.603	32.6
241.821	20.31
242.038	102.23
242.255	87.89
242.472	-0.17
242.689	8.02
242.907	44.88
243.124	24.4
243.341	55.12
243.558	32.6
243.775	12.12
243.992	67.41
244.209	89.94
244.426	81.75
244.643	5.97
244.86	-30.89
245.078	-4.27
245.295	120.66
245.512	32.6
245.729	38.74
245.946	16.21
246.163	57.17
246.38	16.21
246.597	73.56
246.814	36.69
247.031	8.02
247.248	57.17
247.464	-12.46
247.681	40.79
247.898	1.88
248.115	-0.17
248.332	18.26
248.549	126.8
248.766	108.37
248.983	69.46
249.2	48.98
249.417	40.79
249.633	-10.41
249.85	1.88
250.067	83.8
250.284	-22.7
250.501	24.4
250.717	171.86
250.934	85.84
251.151	57.17
251.368	51.03
251.585	22.36
251.801	61.27
252.018	42.84
252.235	124.76
252.451	-22.7
252.668	36.69
252.885	28.5
253.102	108.37
253.318	42.84
253.535	67.41
253.752	-12.46
253.968	30.55
254.185	-53.42
254.401	-24.75
254.618	48.98
254.835	-71.85
255.051	81.75
255.268	-8.36
255.484	51.03
255.701	-24.75
255.917	51.03
256.134	16.21
256.351	102.23
256.567	46.93
256.784	51.03
257	14.17
257.217	94.04
257.433	48.98
257.65	96.08
257.866	79.7
258.082	18.26
258.299	-0.17
258.515	71.51
258.732	10.07
258.948	24.4
259.165	48.98
259.381	32.6
259.597	38.74
259.814	-14.51
260.03	-6.31
260.246	46.93
260.463	30.55
260.679	38.74
260.895	10.07
261.112	40.79
261.328	67.41
261.544	22.36
261.761	120.66
261.977	34.64
262.193	42.84
262.409	34.64
262.626	-16.55
262.842	28.5
263.058	100.18
263.274	59.22
263.49	-6.31
263.707	89.94
263.923	71.51
264.139	-14.51
264.355	59.22
264.571	32.6
264.787	22.36
265.004	145.24
265.22	14.17
265.436	18.26
265.652	-20.65
265.868	81.75
266.084	-37.03
266.3	110.42
266.516	57.17
266.732	20.31
266.948	65.36
267.164	-28.84
267.38	112.47
267.596	38.74
267.812	85.84
268.028	40.79
268.244	51.03
268.46	-4.27
268.676	34.64
268.892	71.51
269.108	-18.6
269.324	-57.51
269.54	77.65
269.756	32.6
269.972	-18.6
270.188	102.23
270.403	-2.22
270.619	34.64
270.835	38.74
271.051	57.17
271.267	20.31
271.483	14.17
271.698	38.74
271.914	22.36
272.13	104.28
272.346	57.17
272.562	5.97
272.777	36.69
272.993	65.36
273.209	-6.31
273.425	124.76
273.64	75.6
273.856	69.46
274.072	36.69
274.287	81.75
274.503	77.65
274.719	40.79
274.934	5.97
275.15	-55.47
275.366	-6.31
275.581	51.03
275.797	-2.22
276.012	110.42
276.228	94.04
276.444	20.31
276.659	75.6
276.875	-24.75
277.09	73.56
277.306	79.7
277.521	122.71
277.737	28.5
277.952	55.12
278.168	32.6
278.383	-2.22
278.599	57.17
278.814	51.03
279.03	-20.65
279.245	20.31
279.461	53.08
279.676	75.6
279.892	-10.41
280.107	-32.94
280.322	-32.94
280.538	42.84
280.753	51.03
280.969	81.75
281.184	20.31
281.399	42.84
281.615	-2.22
281.83	61.27
282.045	-71.85
282.26	110.42
282.476	-41.13
282.691	106.32
282.906	-32.94
283.122	118.61
283.337	-37.03
283.552	18.26
283.767	1.88
283.983	102.23
284.198	5.97
284.413	32.6
284.628	28.5
284.843	59.22
285.058	71.51
285.274	59.22
285.489	65.36
285.704	81.75
285.919	44.88
286.134	36.69
286.349	8.02
286.564	34.64
286.779	38.74
286.995	77.65
287.21	-24.75
287.425	1.88
287.64	-32.94
287.855	75.6
288.07	-63.66
288.285	137.04
288.5	42.84
288.715	85.84
288.93	-24.75
289.145	34.64
289.36	75.6
289.575	61.27
289.79	167.76
290.004	36.69
290.219	48.98
290.434	8.02
290.649	-20.65
290.864	75.6
291.079	96.08
291.294	48.98
291.509	-4.27
291.724	-4.27
291.938	-18.6
292.153	44.88
292.368	63.32
292.583	122.71
292.798	38.74
293.012	83.8
293.227	38.74
293.442	22.36
293.657	96.08
293.871	96.08
294.086	1.88
294.301	32.6
294.516	85.84
294.73	10.07
294.945	-47.27
295.16	53.08
295.374	83.8
295.589	61.27
295.804	22.36
296.018	48.98
296.233	159.57
296.447	34.64
296.662	-18.6
296.877	81.75
297.091	42.84
297.306	1.88
297.52	-12.46
297.735	-26.79
297.949	79.7
298.164	5.97
298.378	42.84
298.593	69.46
298.807	-26.79
299.022	34.64
299.236	38.74
299.451	12.12
299.665	34.64
299.88	98.13
300.094	22.36
300.309	42.84
300.523	53.08
300.737	61.27
300.952	81.75
301.166	46.93
301.381	38.74
301.595	-18.6
301.809	10.07
302.024	48.98
302.238	16.21
302.452	46.93
302.667	8.02
302.881	63.32
303.095	-2.22
303.309	20.31
303.524	26.45
303.738	12.12
303.952	32.6
304.166	114.52
304.381	-18.6
304.595	10.07
304.809	-22.7
305.023	-69.8
305.237	65.36
305.452	94.04
305.666	-39.08
305.88	55.12
306.094	-26.79
306.308	100.18
306.522	98.13
306.736	10.07
306.95	139.09
307.164	85.84
307.379	14.17
307.593	73.56
307.807	57.17
308.021	81.75
308.235	12.12
308.449	42.84
308.663	100.18
308.877	143.19
309.091	63.32
309.305	46.93
309.519	-20.65
309.733	89.94
309.947	1.88
310.161	65.36
310.374	63.32
310.588	91.99
310.802	28.5
311.016	69.46
311.23	32.6
311.444	36.69
311.658	59.22
311.872	81.75
312.085	-20.65
312.299	139.09
312.513	75.6
312.727	141.14
312.941	81.75
313.154	67.41
313.368	69.46
313.582	-6.31
313.796	94.04
314.009	18.26
314.223	-0.17
314.437	55.12
314.651	67.41
314.864	40.79
315.078	48.98
315.292	57.17
315.505	46.93
315.719	73.56
315.933	65.36
316.146	20.31
316.36	79.7
316.573	40.79
316.787	40.79
317.001	-20.65
317.214	1.88
317.428	34.64
317.641	-41.13
317.855	32.6
318.068	61.27
318.282	65.36
318.495	79.7
318.709	26.45
318.922	-28.84
319.136	83.8
319.349	20.31
319.563	8.02
319.776	63.32
319.99	-10.41
320.203	77.65
320.417	69.46
320.63	44.88
320.843	67.41
321.057	40.79
321.27	36.69
321.483	-4.27
321.697	85.84
321.91	8.02
322.124	28.5
322.337	48.98
322.55	73.56
322.763	-22.7
322.977	102.23
323.19	36.69
323.403	77.65
323.617	71.51
323.83	61.27
324.043	69.46
324.256	110.42
324.469	8.02
324.683	51.03
324.896	73.56
325.109	28.5
325.322	-16.55
325.535	87.89
325.748	79.7
325.962	85.84
326.175	30.55
326.388	79.7
326.601	53.08
326.814	96.08
327.027	40.79
327.24	91.99
327.453	22.36
327.666	59.22
327.879	30.55
328.092	48.98
328.305	77.65
328.518	36.69
328.731	-16.55
328.944	79.7
329.157	108.37
329.37	40.79
329.583	120.66
329.796	8.02
330.009	5.97
330.222	118.61
330.435	42.84
330.648	59.22
330.861	-8.36
331.073	-28.84
331.286	120.66
331.499	36.69
331.712	87.89
331.925	48.98
332.138	-20.65
332.35	104.28
332.563	-69.8
332.776	42.84
332.989	77.65
333.202	-0.17
333.414	5.97
333.627	91.99
333.84	59.22
334.053	132.95
334.265	-6.31
334.478	28.5
334.691	14.17
334.903	-2.22
335.116	3.93
335.329	36.69
335.541	18.26
335.754	96.08
335.966	14.17
336.179	12.12
336.392	20.31
336.604	3.93
336.817	55.12
337.029	34.64
337.242	100.18
337.454	75.6
337.667	55.12
337.88	57.17
338.092	-8.36
338.305	28.5
338.517	-6.31
338.729	-39.08
338.942	48.98
339.154	53.08
339.367	12.12
339.579	44.88
339.792	34.64
340.004	34.64
340.217	67.41
340.429	38.74
340.641	-0.17
340.854	-22.7
341.066	10.07
341.278	32.6
341.491	59.22
341.703	34.64
341.915	20.31
342.128	61.27
342.34	53.08
342.552	-16.55
342.764	-16.55
342.977	-34.99
343.189	55.12
343.401	24.4
343.613	-18.6
343.826	-4.27
344.038	77.65
344.25	83.8
344.462	28.5
344.674	36.69
344.886	30.55
345.099	28.5
345.311	30.55
345.523	67.41
345.735	-34.99
345.947	48.98
346.159	5.97
346.371	3.93
346.583	12.12
346.795	34.64
347.007	1.88
347.219	89.94
347.431	-8.36
347.643	57.17
347.855	24.4
348.067	132.95
348.279	26.45
348.491	69.46
348.703	128.85
348.915	20.31
349.127	32.6
349.339	73.56
349.551	1.88
349.763	14.17
349.975	53.08
350.187	130.9
350.399	75.6
350.61	-8.36
350.822	44.88
351.034	-6.31
351.246	22.36
351.458	48.98
351.669	18.26
351.881	104.28
352.093	18.26
352.305	34.64
352.517	51.03
352.728	51.03
352.94	36.69
353.152	65.36
353.363	-43.18
353.575	96.08
353.787	42.84
353.999	61.27
354.21	53.08
354.422	-16.55
354.633	5.97
354.845	5.97
355.057	34.64
355.268	32.6
355.48	87.89
355.692	12.12
355.903	18.26
356.115	34.64
356.326	-53.42
356.538	8.02
356.749	75.6
356.961	104.28
357.172	57.17
357.384	61.27
357.595	102.23
357.807	12.12
358.018	36.69
358.23	-18.6
358.441	106.32
358.653	48.98
358.864	36.69
359.075	65.36
359.287	55.12
359.498	75.6
359.709	8.02
359.921	-24.75
360.132	44.88
360.344	104.28
360.555	91.99
360.766	124.76
360.977	28.5
361.189	-2.22
361.4	40.79
361.611	61.27
361.823	98.13
362.034	71.51
362.245	-45.23
362.456	81.75
362.667	139.09
362.879	108.37
363.09	-2.22
363.301	14.17
363.512	91.99
363.723	59.22
363.935	-55.47
364.146	71.51
364.357	59.22
364.568	14.17
364.779	-8.36
364.99	75.6
365.201	18.26
365.412	100.18
365.623	67.41
365.834	22.36
366.045	65.36
366.256	16.21
366.467	36.69
366.678	-8.36
366.889	-39.08
367.1	-57.51
367.311	8.02
367.522	-16.55
367.733	46.93
367.944	28.5
368.155	57.17
368.366	63.32
368.577	69.46
368.788	96.08
368.999	-8.36
369.209	28.5
369.42	137.04
369.631	108.37
369.842	36.69
370.053	-16.55
370.264	36.69
370.474	42.84
370.685	67.41
370.896	73.56
371.107	73.56
371.317	91.99
371.528	20.31
371.739	122.71
371.95	83.8
372.16	106.32
372.371	18.26
372.582	1.88
372.792	102.23
373.003	61.27
373.214	94.04
373.424	69.46
373.635	98.13
373.846	116.56
374.056	22.36
374.267	-24.75
374.477	83.8
374.688	24.4
374.898	61.27
375.109	53.08
375.319	53.08
375.53	130.9
375.74	75.6
375.951	-12.46
376.161	22.36
376.372	96.08
376.582	22.36
376.793	98.13
377.003	34.64
377.214	42.84
377.424	81.75
377.635	71.51
377.845	94.04
378.055	122.71
378.266	-37.03
378.476	38.74
378.686	36.69
378.897	55.12
379.107	65.36
379.317	24.4
379.528	30.55
379.738	48.98
379.948	-73.9
380.158	55.12
380.369	141.14
380.579	46.93
380.789	-26.79
380.999	89.94
381.21	61.27
381.42	118.61
381.63	-4.27
381.84	75.6
382.05	3.93
382.261	65.36
382.471	67.41
382.681	51.03
382.891	91.99
383.101	-2.22
383.311	-4.27
383.521	28.5
383.731	77.65
383.941	75.6
384.151	38.74
384.361	-24.75
384.571	69.46
384.781	79.7
384.991	3.93
385.201	77.65
385.411	102.23
385.621	38.74
385.831	67.41
386.041	69.46
386.251	69.46
386.461	75.6
386.671	87.89
386.881	55.12
387.091	77.65
387.301	53.08
387.511	63.32
387.72	65.36
387.93	32.6
388.14	-8.36
388.35	81.75
388.56	143.19
388.769	143.19
388.979	48.98
389.189	36.69
389.399	69.46
389.609	73.56
389.818	48.98
390.028	24.4
390.238	73.56
390.447	20.31
390.657	91.99
390.867	81.75
391.076	8.02
391.286	3.93
391.496	48.98
391.705	89.94
391.915	67.41
392.125	89.94
392.334	24.4
392.544	87.89
392.753	63.32
392.963	65.36
393.172	83.8
393.382	36.69
393.591	57.17
393.801	63.32
394.01	118.61
394.22	30.55
394.429	-16.55
394.639	42.84
394.848	126.8
395.058	26.45
395.267	75.6
395.477	67.41
395.686	40.79
395.895	34.64
396.105	137.04
396.314	48.98
396.524	69.46
396.733	67.41
396.942	161.62
397.152	114.52
397.361	151.38
397.57	114.52
397.78	96.08
397.989	36.69
398.198	112.47
398.407	87.89
398.617	96.08
398.826	63.32
399.035	53.08
399.244	46.93
399.453	81.75
399.663	87.89
399.872	46.93
400.081	124.76
400.29	48.98
400.499	102.23
400.708	89.94
400.917	139.09
401.127	48.98
401.336	22.36
401.545	112.47
401.754	124.76
401.963	173.91
402.172	42.84
402.381	46.93
402.59	67.41
402.799	-14.51
403.008	122.71
403.217	118.61
403.426	157.52
403.635	55.12
403.844	114.52
404.053	120.66
404.262	114.52
404.471	173.91
404.68	77.65
404.888	145.24
405.097	161.62
405.306	108.37
405.515	75.6
405.724	159.57
405.933	83.8
406.142	94.04
406.35	145.24
406.559	110.42
406.768	67.41
406.977	128.85
407.185	151.38
407.394	202.58
407.603	67.41
407.812	212.82
408.02	85.84
408.229	120.66
408.438	108.37
408.646	75.6
408.855	116.56
409.064	212.82
409.272	151.38
409.481	178
409.69	159.57
409.898	225.11
410.107	165.71
410.315	208.72
410.524	91.99
410.733	245.59
410.941	114.52
411.15	204.63
411.358	139.09
411.567	302.93
411.775	204.63
411.984	200.53
412.192	227.15
412.401	237.39
412.609	368.46
412.818	325.46
413.026	255.83
413.234	233.3
413.443	288.59
413.651	264.02
413.86	313.17
414.068	333.65
414.276	460.62
414.485	292.69
414.693	397.14
414.901	452.43
415.11	431.95
415.318	436.05
415.526	403.28
415.734	403.28
415.943	448.33
416.151	489.29
416.359	431.95
416.567	495.44
416.776	567.12
416.984	522.06
417.192	632.65
417.4	526.16
417.608	565.07
417.817	550.73
418.025	624.46
418.233	720.71
418.441	573.26
418.649	685.9
418.857	808.78
419.065	806.73
419.273	622.41
419.481	786.25
419.689	722.76
419.897	839.5
420.105	769.87
420.313	927.56
420.521	902.98
420.729	874.31
420.937	915.27
421.145	1034.05
421.353	993.09
421.561	1060.68
421.769	1152.84
421.977	1283.91
422.185	1150.79
422.393	1326.91
422.601	1228.61
422.809	1394.5
423.017	1302.34
423.224	1347.39
423.432	1544
423.64	1388.35
423.848	1548.09
424.056	1517.37
424.263	1711.93
424.471	1597.24
424.679	1558.33
424.887	1648.44
425.094	1830.71
425.302	1771.32
425.51	1863.48
425.718	1980.22
425.925	1949.5
426.133	2023.22
426.341	2135.86
426.548	2193.2
426.756	2109.24
426.964	2375.47
427.171	2344.75
427.379	2457.39
427.586	2522.93
427.794	2537.26
428.001	2617.13
428.209	2662.19
428.417	2678.57
428.624	2897.71
428.832	2957.1
429.039	2809.64
429.247	3000.1
429.454	3182.37
429.662	3374.88
429.869	3165.99
430.076	3387.17
430.284	3249.96
430.491	3454.75
430.699	3559.2
430.906	3641.12
431.114	3725.08
431.321	3757.85
431.528	3890.97
431.736	4089.62
431.943	4343.57
432.15	4300.56
432.358	4171.54
432.565	4480.78
432.772	4425.49
432.979	4593.42
433.187	4744.97
433.394	4912.91
433.601	5195.53
433.808	5078.79
434.016	5111.56
434.223	5365.51
434.43	5703.42
434.637	5519.11
434.844	5818.11
435.052	6053.62
435.259	5889.79
435.466	6035.19
435.673	5877.5
435.88	6201.08
436.087	6770.41
436.294	6547.19
436.501	6489.84
436.708	6518.51
436.915	6938.35
437.122	7227.11
437.329	7137
437.537	7319.27
437.743	7542.5
437.95	7403.24
438.157	7687.9
438.364	8097.5
438.571	8017.63
438.778	8117.98
438.985	8998.6
439.192	8410.84
439.399	8881.87
439.606	8672.98
439.813	9096.91
440.02	9557.7
440.227	9500.36
440.433	9408.2
440.64	9776.83
440.847	9647.81
441.054	9893.57
441.261	10565.3
441.467	10364.6
441.674	10778.29
441.881	10983.09
442.088	10940.08
442.294	10774.19
442.501	11101.87
442.708	11493.03
442.914	11964.06
443.121	12330.65
443.328	12048.03
443.534	12867.22
443.741	12494.49
443.948	12435.1
444.154	13411.98
444.361	13395.59
444.568	13282.95
444.774	13264.52
444.981	13172.36
445.187	13893.25
445.394	14431.87
445.6	14274.17
445.807	15779.43
446.013	15013.49
446.22	15224.43
446.426	16021.09
446.633	16137.82
446.839	16426.59
447.046	16080.48
447.252	16711.25
447.459	16768.6
447.665	16750.17
447.871	17350.22
448.078	18165.31
448.284	17477.19
448.491	17788.49
448.697	18435.64
448.903	18851.38
449.11	18988.6
449.316	18611.77
449.522	19123.76
449.728	19428.91
449.935	19486.25
450.141	19723.82
450.347	20039.2
450.553	19291.69
450.76	19793.45
450.966	20358.69
451.172	20223.52
451.378	20708.89
451.584	20264.48
451.791	20649.5
451.997	20909.59
452.203	20893.21
452.409	21052.95
452.615	21059.09
452.821	20104.74
453.027	19961.38
453.233	21075.48
453.44	20315.68
453.646	20225.57
453.852	20383.26
454.058	20651.55
454.264	20047.4
454.47	20561.44
454.676	20229.66
454.882	20858.39
455.088	18775.61
455.294	19465.77
455.5	19629.61
455.705	19658.28
455.911	19236.4
456.117	18724.41
456.323	18288.19
456.529	17241.68
456.735	18069.06
456.941	17634.89
457.147	17362.51
457.352	16682.58
457.558	16799.32
457.764	16649.82
457.97	16307.8
458.176	16082.53
458.381	15990.37
458.587	15339.12
458.793	15378.03
458.999	14317.18
459.204	15416.94
459.41	14839.41
459.616	14204.54
459.821	14128.77
460.027	14093.95
460.233	13756.04
460.438	12910.22
460.644	13301.39
460.85	12482.2
461.055	12435.1
461.261	12498.58
461.466	11364.01
461.672	11364.01
461.878	11796.13
462.083	11034.28
462.289	10890.93
462.494	10622.64
462.7	10356.41
462.905	10073.79
463.111	10387.13
463.316	10374.84
463.522	10254.01
463.727	10165.95
463.932	10008.25
464.138	10055.36
464.343	9955.01
464.549	9641.67
464.754	10086.08
464.959	9955.01
465.165	9801.41
465.37	9531.08
465.575	9205.45
465.781	9504.45
465.986	9801.41
466.191	9330.37
466.397	9088.71
466.602	8709.84
466.807	9041.61
467.012	9002.7
467.218	9301.7
467.423	9074.38
467.628	8996.56
467.833	9328.33
468.038	9000.65
468.244	8769.23
468.449	9168.59
