Data from USB4F104151__59__12-24-08-852.txt Node

Date: Fri Mar 14 12:24:08 EDT 2025
User: louis
Spectrometer: USB4F10415
Trigger mode: 4
Integration Time (sec): 3.500000E-2
Scans to average: 1
Electric dark correction enabled: true
Nonlinearity correction enabled: false
Boxcar width: 0
XAxis mode: Wavelengths
Number of Pixels in Spectrum: 3648
>>>>>Begin Spectral Data<<<<<
178.204	-111.1
178.424	-111.1
178.644	-111.1
178.864	-193.02
179.084	-131.58
179.304	26.11
179.524	-76.29
179.744	83.45
179.964	11.78
180.184	5.63
180.404	-6.66
180.624	38.4
180.844	-18.94
181.064	-43.52
181.283	13.82
181.503	-47.62
181.723	13.82
181.943	-68.09
182.163	69.12
182.383	30.21
182.602	38.4
182.822	134.65
183.042	50.69
183.262	-2.56
183.482	-51.71
183.701	-2.56
183.921	46.59
184.141	-4.61
184.361	87.55
184.58	26.11
184.8	38.4
185.02	-25.09
185.239	118.27
185.459	50.69
185.679	97.79
185.898	-8.7
186.118	120.32
186.338	9.73
186.557	101.89
186.777	114.17
186.997	-16.9
187.216	15.87
187.436	97.79
187.655	124.41
187.875	13.82
188.095	-35.33
188.314	44.54
188.534	116.22
188.753	-23.04
188.973	69.12
189.192	81.41
189.412	54.78
189.631	30.21
189.851	40.45
190.07	56.83
190.29	54.78
190.509	26.11
190.729	32.26
190.948	48.64
191.168	171.52
191.387	11.78
191.607	1.54
191.826	62.98
192.045	7.68
192.265	44.54
192.484	13.82
192.704	9.73
192.923	-0.51
193.142	101.89
193.362	-18.94
193.581	22.02
193.8	19.97
194.02	85.5
194.239	-33.28
194.458	103.93
194.678	71.17
194.897	42.5
195.116	30.21
195.335	56.83
195.555	52.74
195.774	87.55
195.993	34.3
196.212	7.68
196.432	-10.75
196.651	42.5
196.87	-10.75
197.089	89.6
197.308	140.8
197.528	30.21
197.747	38.4
197.966	52.74
198.185	67.07
198.404	-25.09
198.623	67.07
198.842	81.41
199.062	114.17
199.281	138.75
199.5	52.74
199.719	56.83
199.938	93.69
200.157	38.4
200.376	122.37
200.595	116.22
200.814	58.88
201.033	-14.85
201.252	60.93
201.471	46.59
201.69	134.65
201.909	62.98
202.128	144.89
202.347	46.59
202.566	58.88
202.785	44.54
203.004	-16.9
203.223	69.12
203.442	95.74
203.661	42.5
203.879	44.54
204.098	58.88
204.317	-23.04
204.536	62.98
204.755	65.02
204.974	83.45
205.193	87.55
205.411	116.22
205.63	22.02
205.849	56.83
206.068	52.74
206.287	62.98
206.505	15.87
206.724	67.07
206.943	-8.7
207.162	58.88
207.381	-74.24
207.599	50.69
207.818	28.16
208.037	42.5
208.255	17.92
208.474	32.26
208.693	17.92
208.911	-33.28
209.13	-4.61
209.349	58.88
209.567	81.41
209.786	28.16
210.005	58.88
210.223	34.3
210.442	-2.56
210.661	44.54
210.879	103.93
211.098	11.78
211.316	11.78
211.535	54.78
211.753	73.21
211.972	-12.8
212.191	46.59
212.409	58.88
212.628	42.5
212.846	11.78
213.065	65.02
213.283	48.64
213.502	52.74
213.72	38.4
213.938	32.26
214.157	22.02
214.375	91.65
214.594	17.92
214.812	75.26
215.031	22.02
215.249	46.59
215.467	52.74
215.686	24.06
215.904	132.61
216.122	85.5
216.341	54.78
216.559	77.31
216.778	169.47
216.996	69.12
217.214	11.78
217.432	69.12
217.651	56.83
217.869	15.87
218.087	65.02
218.306	60.93
218.524	24.06
218.742	91.65
218.96	54.78
219.179	60.93
219.397	62.98
219.615	93.69
219.833	52.74
220.051	5.63
220.27	46.59
220.488	52.74
220.706	83.45
220.924	24.06
221.142	-16.9
221.36	54.78
221.578	67.07
221.796	40.45
222.015	-4.61
222.233	60.93
222.451	138.75
222.669	56.83
222.887	65.02
223.105	-10.75
223.323	65.02
223.541	-4.61
223.759	-8.7
223.977	5.63
224.195	93.69
224.413	22.02
224.631	146.94
224.849	13.82
225.067	144.89
225.285	3.58
225.503	7.68
225.721	5.63
225.939	-16.9
226.157	69.12
226.375	136.7
226.592	42.5
226.81	-6.66
227.028	114.17
227.246	89.6
227.464	73.21
227.682	58.88
227.9	11.78
228.117	46.59
228.335	60.93
228.553	30.21
228.771	79.36
228.989	30.21
229.206	48.64
229.424	60.93
229.642	50.69
229.86	54.78
230.077	134.65
230.295	11.78
230.513	75.26
230.731	24.06
230.948	69.12
231.166	30.21
231.384	11.78
231.601	24.06
231.819	91.65
232.037	-8.7
232.254	60.93
232.472	130.56
232.689	44.54
232.907	28.16
233.125	-0.51
233.342	52.74
233.56	-18.94
233.777	17.92
233.995	26.11
234.213	77.31
234.43	-2.56
234.648	38.4
234.865	32.26
235.083	50.69
235.3	-16.9
235.518	97.79
235.735	87.55
235.953	65.02
236.17	77.31
236.388	48.64
236.605	-33.28
236.822	69.12
237.04	52.74
237.257	15.87
237.475	15.87
237.692	75.26
237.909	110.08
238.127	-10.75
238.344	5.63
238.562	32.26
238.779	-4.61
238.996	15.87
239.214	1.54
239.431	65.02
239.648	5.63
239.865	69.12
240.083	48.64
240.3	-51.71
240.517	36.35
240.735	7.68
240.952	42.5
241.169	58.88
241.386	7.68
241.603	32.26
241.821	-59.9
242.038	81.41
242.255	58.88
242.472	-12.8
242.689	81.41
242.907	56.83
243.124	108.03
243.341	32.26
243.558	19.97
243.775	-20.99
243.992	-61.95
244.209	89.6
244.426	85.5
244.643	32.26
244.86	32.26
245.078	42.5
245.295	-6.66
245.512	108.03
245.729	89.6
245.946	46.59
246.163	24.06
246.38	60.93
246.597	3.58
246.814	46.59
247.031	46.59
247.248	-8.7
247.464	56.83
247.681	36.35
247.898	71.17
248.115	48.64
248.332	1.54
248.549	34.3
248.766	91.65
248.983	44.54
249.2	9.73
249.417	28.16
249.633	34.3
249.85	50.69
250.067	97.79
250.284	83.45
250.501	58.88
250.717	65.02
250.934	-27.14
251.151	-18.94
251.368	54.78
251.585	85.5
251.801	54.78
252.018	-2.56
252.235	73.21
252.451	81.41
252.668	118.27
252.885	73.21
253.102	89.6
253.318	17.92
253.535	17.92
253.752	60.93
253.968	44.54
254.185	-12.8
254.401	46.59
254.618	34.3
254.835	36.35
255.051	56.83
255.268	50.69
255.484	5.63
255.701	30.21
255.917	48.64
256.134	-90.62
256.351	9.73
256.567	-6.66
256.784	5.63
257	15.87
257.217	-16.9
257.433	50.69
257.65	83.45
257.866	101.89
258.082	22.02
258.299	73.21
258.515	65.02
258.732	42.5
258.948	40.45
259.165	40.45
259.381	36.35
259.597	30.21
259.814	-18.94
260.03	24.06
260.246	1.54
260.463	118.27
260.679	-6.66
260.895	30.21
261.112	13.82
261.328	-2.56
261.544	7.68
261.761	87.55
261.977	54.78
262.193	-2.56
262.409	77.31
262.626	50.69
262.842	124.41
263.058	7.68
263.274	73.21
263.49	36.35
263.707	65.02
263.923	30.21
264.139	52.74
264.355	89.6
264.571	56.83
264.787	22.02
265.004	103.93
265.22	11.78
265.436	22.02
265.652	34.3
265.868	144.89
266.084	-33.28
266.3	24.06
266.516	28.16
266.732	56.83
266.948	75.26
267.164	-4.61
267.38	-29.18
267.596	22.02
267.812	54.78
268.028	11.78
268.244	32.26
268.46	40.45
268.676	50.69
268.892	85.5
269.108	-41.47
269.324	17.92
269.54	-49.66
269.756	89.6
269.972	17.92
270.188	44.54
270.403	1.54
270.619	11.78
270.835	-2.56
271.051	79.36
271.267	69.12
271.483	19.97
271.698	-12.8
271.914	-8.7
272.13	36.35
272.346	28.16
272.562	-10.75
272.777	118.27
272.993	71.17
273.209	34.3
273.425	30.21
273.64	50.69
273.856	24.06
274.072	-51.71
274.287	24.06
274.503	122.37
274.719	40.45
274.934	60.93
275.15	-18.94
275.366	48.64
275.581	50.69
275.797	56.83
276.012	67.07
276.228	81.41
276.444	-14.85
276.659	75.26
276.875	-37.38
277.09	17.92
277.306	-39.42
277.521	105.98
277.737	34.3
277.952	101.89
278.168	-23.04
278.383	34.3
278.599	-2.56
278.814	48.64
279.03	114.17
279.245	101.89
279.461	17.92
279.676	62.98
279.892	-16.9
280.107	28.16
280.322	19.97
280.538	32.26
280.753	11.78
280.969	36.35
281.184	-23.04
281.399	103.93
281.615	42.5
281.83	-47.62
282.045	7.68
282.26	-20.99
282.476	75.26
282.691	52.74
282.906	46.59
283.122	54.78
283.337	7.68
283.552	24.06
283.767	30.21
283.983	118.27
284.198	65.02
284.413	75.26
284.628	-4.61
284.843	38.4
285.058	126.46
285.274	-0.51
285.489	32.26
285.704	17.92
285.919	60.93
286.134	44.54
286.349	-33.28
286.564	54.78
286.779	44.54
286.995	79.36
287.21	42.5
287.425	17.92
287.64	1.54
287.855	124.41
288.07	40.45
288.285	42.5
288.5	36.35
288.715	71.17
288.93	40.45
289.145	17.92
289.36	62.98
289.575	85.5
289.79	22.02
290.004	13.82
290.219	81.41
290.434	-18.94
290.649	32.26
290.864	54.78
291.079	22.02
291.294	-59.9
291.509	26.11
291.724	62.98
291.938	19.97
292.153	91.65
292.368	81.41
292.583	-8.7
292.798	89.6
293.012	85.5
293.227	-20.99
293.442	40.45
293.657	101.89
293.871	60.93
294.086	65.02
294.301	11.78
294.516	26.11
294.73	50.69
294.945	-0.51
295.16	-10.75
295.374	38.4
295.589	-27.14
295.804	17.92
296.018	46.59
296.233	120.32
296.447	79.36
296.662	-57.86
296.877	95.74
297.091	103.93
297.306	91.65
297.52	34.3
297.735	-16.9
297.949	56.83
298.164	56.83
298.378	17.92
298.593	-37.38
298.807	77.31
299.022	44.54
299.236	28.16
299.451	7.68
299.665	110.08
299.88	-23.04
300.094	22.02
300.309	54.78
300.523	142.85
300.737	22.02
300.952	-8.7
301.166	30.21
301.381	13.82
301.595	95.74
301.809	-31.23
302.024	-6.66
302.238	-4.61
302.452	30.21
302.667	101.89
302.881	42.5
303.095	67.07
303.309	28.16
303.524	-10.75
303.738	50.69
303.952	48.64
304.166	19.97
304.381	83.45
304.595	69.12
304.809	65.02
305.023	69.12
305.237	34.3
305.452	52.74
305.666	46.59
305.88	69.12
306.094	130.56
306.308	75.26
306.522	87.55
306.736	13.82
306.95	32.26
307.164	5.63
307.379	-23.04
307.593	157.18
307.807	22.02
308.021	44.54
308.235	118.27
308.449	-37.38
308.663	56.83
308.877	83.45
309.091	71.17
309.305	116.22
309.519	-31.23
309.733	30.21
309.947	19.97
310.161	77.31
310.374	19.97
310.588	52.74
310.802	62.98
311.016	1.54
311.23	28.16
311.444	44.54
311.658	67.07
311.872	42.5
312.085	52.74
312.299	85.5
312.513	54.78
312.727	101.89
312.941	-20.99
313.154	28.16
313.368	1.54
313.582	-0.51
313.796	67.07
314.009	34.3
314.223	32.26
314.437	3.58
314.651	83.45
314.864	-20.99
315.078	9.73
315.292	42.5
315.505	65.02
315.719	38.4
315.933	7.68
316.146	-0.51
316.36	-12.8
316.573	89.6
316.787	146.94
317.001	40.45
317.214	-25.09
317.428	67.07
317.641	-33.28
317.855	19.97
318.068	-2.56
318.282	75.26
318.495	116.22
318.709	103.93
318.922	-29.18
319.136	101.89
319.349	42.5
319.563	69.12
319.776	40.45
319.99	30.21
320.203	60.93
320.417	22.02
320.63	36.35
320.843	110.08
321.057	-2.56
321.27	69.12
321.483	157.18
321.697	79.36
321.91	58.88
322.124	-49.66
322.337	24.06
322.55	30.21
322.763	1.54
322.977	54.78
323.19	50.69
323.403	13.82
323.617	36.35
323.83	22.02
324.043	48.64
324.256	30.21
324.469	-0.51
324.683	26.11
324.896	46.59
325.109	93.69
325.322	48.64
325.535	108.03
325.748	65.02
325.962	89.6
326.175	54.78
326.388	77.31
326.601	56.83
326.814	-2.56
327.027	46.59
327.24	136.7
327.453	3.58
327.666	13.82
327.879	71.17
328.092	40.45
328.305	40.45
328.518	65.02
328.731	5.63
328.944	50.69
329.157	36.35
329.37	97.79
329.583	110.08
329.796	69.12
330.009	73.21
330.222	99.84
330.435	62.98
330.648	34.3
330.861	24.06
331.073	-10.75
331.286	30.21
331.499	62.98
331.712	28.16
331.925	75.26
332.138	48.64
332.35	73.21
332.563	7.68
332.776	157.18
332.989	7.68
333.202	97.79
333.414	69.12
333.627	13.82
333.84	38.4
334.053	99.84
334.265	-0.51
334.478	38.4
334.691	42.5
334.903	-16.9
335.116	-16.9
335.329	46.59
335.541	71.17
335.754	34.3
335.966	58.88
336.179	118.27
336.392	13.82
336.604	77.31
336.817	15.87
337.029	38.4
337.242	69.12
337.454	71.17
337.667	75.26
337.88	36.35
338.092	87.55
338.305	132.61
338.517	-8.7
338.729	58.88
338.942	34.3
339.154	60.93
339.367	-41.47
339.579	32.26
339.792	44.54
340.004	32.26
340.217	46.59
340.429	124.41
340.641	9.73
340.854	1.54
341.066	52.74
341.278	95.74
341.491	77.31
341.703	28.16
341.915	85.5
342.128	36.35
342.34	-23.04
342.552	7.68
342.764	36.35
342.977	-12.8
343.189	13.82
343.401	36.35
343.613	-0.51
343.826	40.45
344.038	73.21
344.25	126.46
344.462	5.63
344.674	13.82
344.886	67.07
345.099	67.07
345.311	126.46
345.523	-33.28
345.735	-74.24
345.947	24.06
346.159	56.83
346.371	-6.66
346.583	62.98
346.795	116.22
347.007	-29.18
347.219	126.46
347.431	46.59
347.643	93.69
347.855	52.74
348.067	85.5
348.279	-10.75
348.491	85.5
348.703	32.26
348.915	30.21
349.127	-23.04
349.339	101.89
349.551	56.83
349.763	44.54
349.975	58.88
350.187	110.08
350.399	-4.61
350.61	60.93
350.822	-2.56
351.034	11.78
351.246	36.35
351.458	50.69
351.669	17.92
351.881	52.74
352.093	50.69
352.305	83.45
352.517	85.5
352.728	32.26
352.94	81.41
353.152	67.07
353.363	-18.94
353.575	101.89
353.787	112.13
353.999	67.07
354.21	22.02
354.422	120.32
354.633	50.69
354.845	73.21
355.057	95.74
355.268	1.54
355.48	58.88
355.692	30.21
355.903	54.78
356.115	60.93
356.326	-31.23
356.538	56.83
356.749	73.21
356.961	36.35
357.172	-12.8
357.384	-18.94
357.595	95.74
357.807	46.59
358.018	-20.99
358.23	-16.9
358.441	97.79
358.653	19.97
358.864	22.02
359.075	13.82
359.287	81.41
359.498	120.32
359.709	1.54
359.921	22.02
360.132	120.32
360.344	3.58
360.555	28.16
360.766	-25.09
360.977	54.78
361.189	91.65
361.4	11.78
361.611	17.92
361.823	69.12
362.034	30.21
362.245	-29.18
362.456	42.5
362.667	67.07
362.879	-4.61
363.09	124.41
363.301	19.97
363.512	62.98
363.723	11.78
363.935	101.89
364.146	38.4
364.357	19.97
364.568	3.58
364.779	-41.47
364.99	50.69
365.201	22.02
365.412	81.41
365.623	-12.8
365.834	65.02
366.045	-37.38
366.256	99.84
366.467	48.64
366.678	1.54
366.889	28.16
367.1	36.35
367.311	28.16
367.522	-18.94
367.733	34.3
367.944	62.98
368.155	83.45
368.366	87.55
368.577	30.21
368.788	91.65
368.999	-12.8
369.209	-35.33
369.42	60.93
369.631	77.31
369.842	69.12
370.053	58.88
370.264	50.69
370.474	48.64
370.685	69.12
370.896	87.55
371.107	79.36
371.317	1.54
371.528	34.3
371.739	114.17
371.95	79.36
372.16	89.6
372.371	-29.18
372.582	-2.56
372.792	19.97
373.003	60.93
373.214	-18.94
373.424	79.36
373.635	24.06
373.846	48.64
374.056	93.69
374.267	71.17
374.477	7.68
374.688	112.13
374.898	-8.7
375.109	19.97
375.319	46.59
375.53	89.6
375.74	73.21
375.951	24.06
376.161	85.5
376.372	95.74
376.582	-20.99
376.793	73.21
377.003	9.73
377.214	32.26
377.424	52.74
377.635	-20.99
377.845	30.21
378.055	19.97
378.266	81.41
378.476	97.79
378.686	83.45
378.897	97.79
379.107	-6.66
379.317	11.78
379.528	-57.86
379.738	73.21
379.948	79.36
380.158	89.6
380.369	69.12
380.579	54.78
380.789	24.06
380.999	124.41
381.21	108.03
381.42	89.6
381.63	67.07
381.84	-4.61
382.05	-0.51
382.261	101.89
382.471	44.54
382.681	11.78
382.891	91.65
383.101	71.17
383.311	-25.09
383.521	26.11
383.731	19.97
383.941	112.13
384.151	93.69
384.361	81.41
384.571	67.07
384.781	62.98
384.991	71.17
385.201	142.85
385.411	24.06
385.621	17.92
385.831	40.45
386.041	114.17
386.251	30.21
386.461	19.97
386.671	69.12
386.881	-4.61
387.091	79.36
387.301	54.78
387.511	75.26
387.72	-29.18
387.93	73.21
388.14	-4.61
388.35	83.45
388.56	56.83
388.769	56.83
388.979	36.35
389.189	40.45
389.399	48.64
389.609	89.6
389.818	122.37
390.028	79.36
390.238	73.21
390.447	-41.47
390.657	103.93
390.867	40.45
391.076	67.07
391.286	112.13
391.496	5.63
391.705	36.35
391.915	60.93
392.125	46.59
392.334	56.83
392.544	105.98
392.753	5.63
392.963	7.68
393.172	62.98
393.382	46.59
393.591	60.93
393.801	9.73
394.01	114.17
394.22	54.78
394.429	105.98
394.639	58.88
394.848	83.45
395.058	89.6
395.267	69.12
395.477	169.47
395.686	103.93
395.895	83.45
396.105	138.75
396.314	54.78
396.524	56.83
396.733	38.4
396.942	30.21
397.152	148.99
397.361	87.55
397.57	97.79
397.78	40.45
397.989	38.4
398.198	126.46
398.407	118.27
398.617	97.79
398.826	130.56
399.035	87.55
399.244	81.41
399.453	3.58
399.663	62.98
399.872	118.27
400.081	99.84
400.29	110.08
400.499	71.17
400.708	101.89
400.917	-39.42
401.127	85.5
401.336	58.88
401.545	251.39
401.754	126.46
401.963	11.78
402.172	140.8
402.381	24.06
402.59	124.41
402.799	95.74
403.008	79.36
403.217	101.89
403.426	128.51
403.635	142.85
403.844	99.84
404.053	142.85
404.262	60.93
404.471	163.33
404.68	159.23
404.888	177.66
405.097	93.69
405.306	171.52
405.515	118.27
405.724	105.98
405.933	155.13
406.142	67.07
406.35	122.37
406.559	134.65
406.768	140.8
406.977	146.94
407.185	220.67
407.394	167.42
407.603	157.18
407.812	112.13
408.02	181.76
408.229	222.72
408.438	196.09
408.646	192
408.855	132.61
409.064	202.24
409.272	124.41
409.481	177.66
409.69	183.81
409.898	249.34
410.107	126.46
410.315	241.15
410.524	212.48
410.733	142.85
410.941	253.44
411.15	255.48
411.358	245.24
411.567	361.98
411.775	255.48
411.984	306.68
412.192	333.31
412.401	304.64
412.609	378.36
412.818	374.27
413.026	310.78
413.234	359.93
413.443	308.73
413.651	310.78
413.86	413.18
414.068	484.86
414.276	505.34
414.485	454.14
414.693	488.95
414.901	513.53
415.11	370.17
415.318	429.56
415.526	534.01
415.734	593.4
415.943	564.73
416.151	552.44
416.359	515.58
416.567	595.45
416.776	636.41
416.984	658.93
417.192	669.17
417.4	687.61
417.608	703.99
417.817	685.56
418.025	663.03
418.233	792.05
418.441	798.2
418.649	794.1
418.857	859.63
419.065	853.49
419.273	908.79
419.481	865.78
419.689	984.56
419.897	1005.04
420.105	1062.38
420.313	1021.42
420.521	1017.33
420.729	1138.16
420.937	1076.72
421.145	1101.3
421.353	1201.65
421.561	1285.61
421.769	1299.95
421.977	1312.24
422.185	1381.87
422.393	1390.06
422.601	1576.42
422.809	1568.23
423.017	1623.53
423.224	1650.15
423.432	1682.92
423.64	1539.56
423.848	1783.27
424.056	1711.59
424.263	1930.72
424.471	1920.48
424.679	1949.15
424.887	2031.07
425.094	2067.94
425.302	2129.38
425.51	2266.59
425.718	2219.49
425.925	2299.36
426.133	2309.6
426.341	2524.63
426.548	2598.36
426.756	2602.46
426.964	2735.57
427.171	2721.24
427.379	2907.6
427.586	2905.56
427.794	2840.02
428.001	3167.7
428.209	3206.61
428.417	3284.43
428.624	3429.84
428.832	3503.56
429.039	3464.65
429.247	3435.98
429.454	3640.78
429.662	4036.03
429.869	3765.7
430.076	4023.75
430.284	3950.02
430.491	4089.28
430.699	4357.57
430.906	4390.33
431.114	4474.3
431.321	4554.17
431.528	4574.65
431.736	4937.14
431.943	5209.52
432.15	4984.24
432.358	4990.39
432.565	5246.38
432.772	5287.34
432.979	5504.43
433.187	5737.9
433.394	5635.5
433.601	6065.57
433.808	6102.43
434.016	6213.03
434.223	6215.07
434.43	6841.75
434.637	6344.1
434.844	6905.24
435.052	7230.87
435.259	7101.84
435.466	7173.52
435.673	7224.72
435.88	7576.97
436.087	8115.59
436.294	7921.03
436.501	7816.58
436.708	7968.13
436.915	8304
437.122	8566.14
437.329	8686.97
437.537	8959.35
437.743	8869.24
437.95	8764.79
438.157	9317.75
438.364	9747.82
438.571	9596.27
438.778	9899.37
438.985	10673.5
439.192	10145.13
439.399	10687.84
439.606	10079.59
439.813	10827.1
440.02	11621.71
440.227	11304.28
440.433	11197.78
440.64	11451.73
440.847	11576.66
441.054	11803.98
441.261	12756.29
441.467	12528.96
441.674	12629.31
441.881	13057.34
442.088	12909.88
442.294	13204.79
442.501	13376.82
442.708	13569.33
442.914	14189.86
443.121	14787.87
443.328	14562.59
443.534	15357.21
443.741	15082.78
443.948	14662.94
444.154	15973.64
444.361	15785.23
444.568	15975.69
444.774	15822.09
444.981	15932.68
445.187	16413.96
445.394	17046.78
445.6	17032.44
445.807	18656.48
446.013	17884.4
446.22	18504.93
446.426	18709.73
446.633	19213.53
446.839	19516.63
447.046	18726.11
447.252	19924.18
447.459	19772.63
447.665	19715.28
447.871	20948.16
448.078	21834.93
448.284	20712.64
448.491	21220.54
448.697	22195.37
448.903	22412.46
449.11	22422.7
449.316	22002.86
449.522	22668.45
449.728	23348.38
449.935	23454.87
450.141	23559.32
450.347	24104.08
450.553	22998.18
450.76	23782.55
450.966	24446.09
451.172	24089.74
451.378	24396.94
451.584	23983.25
451.791	24700.04
451.997	24700.04
452.203	24931.46
452.409	24902.79
452.615	25113.73
452.821	23835.8
453.027	23526.55
453.233	25228.42
453.44	24042.64
453.646	24360.08
453.852	24261.77
454.058	24542.35
454.264	23938.19
454.47	24519.82
454.676	23866.52
454.882	24829.06
455.088	22688.93
455.294	22983.84
455.5	23317.66
455.705	23514.27
455.911	22420.65
456.117	21968.05
456.323	21828.79
456.529	20765.89
456.735	21740.72
456.941	20894.91
457.147	20354.25
457.352	20081.87
457.558	19768.53
457.764	19754.19
457.97	19565.78
458.176	19197.15
458.381	18861.28
458.587	18273.51
458.793	18048.24
458.999	17034.49
459.204	18210.03
459.41	17730.8
459.616	16596.23
459.821	16758.02
460.027	16622.85
460.233	16346.37
460.438	15533.33
460.644	15693.07
460.85	15064.35
461.055	14816.54
461.261	14683.42
461.466	13546.8
461.672	13253.94
461.878	13987.11
462.083	13208.89
462.289	12983.61
462.494	12772.67
462.7	12244.29
462.905	11849.04
463.111	12125.51
463.316	12332.36
463.522	12070.22
463.727	12072.26
463.932	12068.17
464.138	11935.05
464.343	12037.45
464.549	11691.34
464.754	12195.14
464.959	12006.73
465.165	11625.81
465.37	11310.42
465.575	10974.55
465.781	11609.42
465.986	11482.45
466.191	10925.4
466.397	10915.16
466.602	10399.07
466.807	10952.02
467.012	10743.13
467.218	10827.1
467.423	10632.54
467.628	10601.82
467.833	11146.58
