Data from USB4F104151__26__12-23-38-021.txt Node

Date: Fri Mar 14 12:23:38 EDT 2025
User: louis
Spectrometer: USB4F10415
Trigger mode: 4
Integration Time (sec): 3.500000E-2
Scans to average: 1
Electric dark correction enabled: true
Nonlinearity correction enabled: false
Boxcar width: 0
XAxis mode: Wavelengths
Number of Pixels in Spectrum: 3648
>>>>>Begin Spectral Data<<<<<
178.204	-201.55
178.424	-201.55
178.644	-201.55
178.864	-189.27
179.084	-164.69
179.304	9.39
179.524	19.63
179.744	-9.05
179.964	56.49
180.184	-70.48
180.404	5.29
180.624	-4.95
180.844	-39.76
181.064	-37.72
181.283	-4.95
181.503	17.58
181.723	58.54
181.943	-68.44
182.163	66.73
182.383	-2.9
182.602	-0.85
182.822	11.43
183.042	76.97
183.262	79.02
183.482	13.48
183.701	-66.39
183.921	52.39
184.141	-31.57
184.361	46.25
184.58	1.19
184.8	-58.2
185.02	-29.52
185.239	66.73
185.459	-15.19
185.679	-47.96
185.898	-17.24
186.118	44.2
186.338	33.96
186.557	-13.14
186.777	-4.95
186.997	-0.85
187.216	21.67
187.436	64.68
187.655	-2.9
187.875	62.63
188.095	-64.34
188.314	70.83
188.534	15.53
188.753	-39.76
188.973	-9.05
189.192	1.19
189.412	42.15
189.631	-4.95
189.851	70.83
190.07	85.16
190.29	-7
190.509	-33.62
190.729	31.91
190.948	27.82
191.168	171.18
191.387	68.78
191.607	3.24
191.826	70.83
192.045	3.24
192.265	-50
192.484	-13.14
192.704	11.43
192.923	-78.68
193.142	146.6
193.362	29.87
193.581	33.96
193.8	40.11
194.02	9.39
194.239	-9.05
194.458	-9.05
194.678	-58.2
194.897	-54.1
195.116	-52.05
195.335	-62.29
195.555	1.19
195.774	-41.81
195.993	38.06
196.212	-4.95
196.432	-17.24
196.651	-9.05
196.87	1.19
197.089	50.35
197.308	-17.24
197.528	38.06
197.747	-54.1
197.966	1.19
198.185	1.19
198.404	52.39
198.623	44.2
198.842	44.2
199.062	23.72
199.281	31.91
199.5	11.43
199.719	-29.52
199.938	68.78
200.157	1.19
200.376	7.34
200.595	66.73
200.814	76.97
201.033	-72.53
201.252	1.19
201.471	-17.24
201.69	48.3
201.909	58.54
202.128	-52.05
202.347	9.39
202.566	-7
202.785	-21.33
203.004	-15.19
203.223	74.92
203.442	9.39
203.661	58.54
203.879	44.2
204.098	23.72
204.317	-78.68
204.536	-21.33
204.755	64.68
204.974	68.78
205.193	-2.9
205.411	101.55
205.63	48.3
205.849	9.39
206.068	-50
206.287	-39.76
206.505	13.48
206.724	-4.95
206.943	-0.85
207.162	46.25
207.381	54.44
207.599	-7
207.818	23.72
208.037	-25.43
208.255	7.34
208.474	-7
208.693	-27.48
208.911	-15.19
209.13	-11.09
209.349	62.63
209.567	89.26
209.786	38.06
210.005	76.97
210.223	-64.34
210.442	-11.09
210.661	-52.05
210.879	-7
211.098	-11.09
211.316	-23.38
211.535	36.01
211.753	50.35
211.972	-62.29
212.191	-13.14
212.409	-52.05
212.628	38.06
212.846	-84.82
213.065	-21.33
213.283	-31.57
213.502	-31.57
213.72	-21.33
213.938	-27.48
214.157	-2.9
214.375	44.2
214.594	31.91
214.812	70.83
215.031	-0.85
215.249	19.63
215.467	52.39
215.686	44.2
215.904	48.3
216.122	-23.38
216.341	72.87
216.559	5.29
216.778	31.91
216.996	72.87
217.214	56.49
217.432	-45.91
217.651	-37.72
217.869	70.83
218.087	79.02
218.306	-21.33
218.524	66.73
218.742	-17.24
218.96	60.59
219.179	-25.43
219.397	-58.2
219.615	99.5
219.833	-11.09
220.051	3.24
220.27	5.29
220.488	-43.86
220.706	13.48
220.924	33.96
221.142	19.63
221.36	-17.24
221.578	56.49
221.796	-15.19
222.015	7.34
222.233	33.96
222.451	46.25
222.669	-11.09
222.887	95.4
223.105	-13.14
223.323	-52.05
223.541	-43.86
223.759	-13.14
223.977	11.43
224.195	-76.63
224.413	38.06
224.631	76.97
224.849	-41.81
225.067	93.35
225.285	-68.44
225.503	5.29
225.721	-37.72
225.939	-4.95
226.157	62.63
226.375	132.26
226.592	33.96
226.81	-27.48
227.028	64.68
227.246	36.01
227.464	7.34
227.682	81.07
227.9	99.5
228.117	40.11
228.335	-37.72
228.553	31.91
228.771	5.29
228.989	44.2
229.206	25.77
229.424	-4.95
229.642	-39.76
229.86	15.53
230.077	9.39
230.295	15.53
230.513	27.82
230.731	-21.33
230.948	25.77
231.166	52.39
231.384	-64.34
231.601	13.48
231.819	40.11
232.037	31.91
232.254	38.06
232.472	19.63
232.689	38.06
232.907	76.97
233.125	93.35
233.342	-52.05
233.56	52.39
233.777	-9.05
233.995	58.54
234.213	66.73
234.43	31.91
234.648	-0.85
234.865	-39.76
235.083	60.59
235.3	-31.57
235.518	83.11
235.735	105.64
235.953	40.11
236.17	-4.95
236.388	9.39
236.605	60.59
236.822	27.82
237.04	5.29
237.257	-2.9
237.475	-41.81
237.692	72.87
237.909	52.39
238.127	-33.62
238.344	27.82
238.562	-19.29
238.779	-60.24
238.996	-9.05
239.214	-43.86
239.431	48.3
239.648	-76.63
239.865	95.4
240.083	58.54
240.3	31.91
240.517	-62.29
240.735	83.11
240.952	70.83
241.169	66.73
241.386	-21.33
241.603	25.77
241.821	36.01
242.038	58.54
242.255	52.39
242.472	-2.9
242.689	115.88
242.907	-9.05
243.124	87.21
243.341	-56.15
243.558	27.82
243.775	-88.92
243.992	5.29
244.209	29.87
244.426	128.17
244.643	52.39
244.86	3.24
245.078	66.73
245.295	-27.48
245.512	3.24
245.729	-43.86
245.946	44.2
246.163	1.19
246.38	-52.05
246.597	11.43
246.814	-47.96
247.031	48.3
247.248	17.58
247.464	93.35
247.681	72.87
247.898	38.06
248.115	101.55
248.332	62.63
248.549	21.67
248.766	124.07
248.983	87.21
249.2	-4.95
249.417	105.64
249.633	103.59
249.85	11.43
250.067	15.53
250.284	7.34
250.501	113.83
250.717	29.87
250.934	-29.52
251.151	17.58
251.368	-19.29
251.585	52.39
251.801	27.82
252.018	-13.14
252.235	46.25
252.451	-9.05
252.668	5.29
252.885	85.16
253.102	29.87
253.318	-0.85
253.535	-21.33
253.752	7.34
253.968	48.3
254.185	25.77
254.401	-21.33
254.618	97.45
254.835	11.43
255.051	87.21
255.268	13.48
255.484	60.59
255.701	48.3
255.917	21.67
256.134	-62.29
256.351	79.02
256.567	-21.33
256.784	-9.05
257	-109.4
257.217	19.63
257.433	-15.19
257.65	-7
257.866	68.78
258.082	-17.24
258.299	-60.24
258.515	33.96
258.732	-70.48
258.948	-25.43
259.165	5.29
259.381	36.01
259.597	-9.05
259.814	-17.24
260.03	15.53
260.246	42.15
260.463	-2.9
260.679	11.43
260.895	36.01
261.112	-37.72
261.328	50.35
261.544	23.72
261.761	132.26
261.977	-19.29
262.193	-33.62
262.409	83.11
262.626	-7
262.842	-27.48
263.058	72.87
263.274	-4.95
263.49	-21.33
263.707	60.59
263.923	19.63
264.139	-9.05
264.355	13.48
264.571	5.29
264.787	-17.24
265.004	19.63
265.22	-25.43
265.436	-2.9
265.652	15.53
265.868	-2.9
266.084	33.96
266.3	-13.14
266.516	27.82
266.732	23.72
266.948	23.72
267.164	48.3
267.38	-56.15
267.596	66.73
267.812	68.78
268.028	66.73
268.244	3.24
268.46	31.91
268.676	60.59
268.892	-21.33
269.108	54.44
269.324	-13.14
269.54	-4.95
269.756	31.91
269.972	-78.68
270.188	17.58
270.403	-0.85
270.619	-7
270.835	-0.85
271.051	74.92
271.267	-29.52
271.483	-7
271.698	7.34
271.914	9.39
272.13	3.24
272.346	33.96
272.562	-13.14
272.777	46.25
272.993	-17.24
273.209	-11.09
273.425	-4.95
273.64	-35.67
273.856	48.3
274.072	33.96
274.287	25.77
274.503	21.67
274.719	17.58
274.934	19.63
275.15	-21.33
275.366	33.96
275.581	-9.05
275.797	-11.09
276.012	-27.48
276.228	-39.76
276.444	25.77
276.659	42.15
276.875	40.11
277.09	60.59
277.306	1.19
277.521	1.19
277.737	5.29
277.952	46.25
278.168	11.43
278.383	-43.86
278.599	-41.81
278.814	-35.67
279.03	-31.57
279.245	44.2
279.461	1.19
279.676	1.19
279.892	42.15
280.107	-0.85
280.322	42.15
280.538	44.2
280.753	3.24
280.969	21.67
281.184	-2.9
281.399	93.35
281.615	87.21
281.83	29.87
282.045	-9.05
282.26	21.67
282.476	-37.72
282.691	42.15
282.906	11.43
283.122	52.39
283.337	-33.62
283.552	21.67
283.767	-86.87
283.983	3.24
284.198	29.87
284.413	9.39
284.628	-7
284.843	23.72
285.058	60.59
285.274	9.39
285.489	-45.91
285.704	-23.38
285.919	-52.05
286.134	62.63
286.349	13.48
286.564	-13.14
286.779	62.63
286.995	72.87
287.21	-33.62
287.425	-17.24
287.64	-25.43
287.855	-11.09
288.07	-29.52
288.285	52.39
288.5	36.01
288.715	52.39
288.93	-19.29
289.145	27.82
289.36	48.3
289.575	38.06
289.79	54.44
290.004	9.39
290.219	44.2
290.434	23.72
290.649	-17.24
290.864	-19.29
291.079	-37.72
291.294	62.63
291.509	31.91
291.724	-45.91
291.938	-9.05
292.153	99.5
292.368	70.83
292.583	66.73
292.798	-9.05
293.012	-7
293.227	-31.57
293.442	-35.67
293.657	58.54
293.871	48.3
294.086	-4.95
294.301	74.92
294.516	-2.9
294.73	-33.62
294.945	-66.39
295.16	-25.43
295.374	27.82
295.589	9.39
295.804	-7
296.018	-9.05
296.233	97.45
296.447	42.15
296.662	44.2
296.877	115.88
297.091	74.92
297.306	46.25
297.52	-45.91
297.735	1.19
297.949	97.45
298.164	-0.85
298.378	13.48
298.593	-70.48
298.807	46.25
299.022	9.39
299.236	-4.95
299.451	-19.29
299.665	72.87
299.88	-41.81
300.094	23.72
300.309	17.58
300.523	81.07
300.737	-27.48
300.952	19.63
301.166	91.31
301.381	79.02
301.595	-31.57
301.809	27.82
302.024	-2.9
302.238	-33.62
302.452	21.67
302.667	-2.9
302.881	17.58
303.095	72.87
303.309	9.39
303.524	-39.76
303.738	-11.09
303.952	15.53
304.166	-17.24
304.381	-84.82
304.595	54.44
304.809	38.06
305.023	-9.05
305.237	13.48
305.452	3.24
305.666	58.54
305.88	44.2
306.094	21.67
306.308	44.2
306.522	-33.62
306.736	38.06
306.95	54.44
307.164	-54.1
307.379	-58.2
307.593	11.43
307.807	70.83
308.021	36.01
308.235	3.24
308.449	-39.76
308.663	13.48
308.877	66.73
309.091	38.06
309.305	23.72
309.519	11.43
309.733	83.11
309.947	-50
310.161	48.3
310.374	66.73
310.588	50.35
310.802	-31.57
311.016	-37.72
311.23	-56.15
311.444	-4.95
311.658	19.63
311.872	66.73
312.085	130.22
312.299	76.97
312.513	76.97
312.727	79.02
312.941	105.64
313.154	17.58
313.368	66.73
313.582	-52.05
313.796	11.43
314.009	60.59
314.223	44.2
314.437	19.63
314.651	93.35
314.864	-11.09
315.078	19.63
315.292	-19.29
315.505	-7
315.719	-62.29
315.933	-13.14
316.146	-37.72
316.36	17.58
316.573	44.2
316.787	13.48
317.001	11.43
317.214	-0.85
317.428	87.21
317.641	-52.05
317.855	31.91
318.068	-17.24
318.282	79.02
318.495	136.36
318.709	3.24
318.922	15.53
319.136	83.11
319.349	52.39
319.563	21.67
319.776	15.53
319.99	7.34
320.203	29.87
320.417	7.34
320.63	36.01
320.843	31.91
321.057	13.48
321.27	42.15
321.483	-74.58
321.697	48.3
321.91	62.63
322.124	-23.38
322.337	33.96
322.55	-29.52
322.763	-4.95
322.977	-4.95
323.19	-31.57
323.403	13.48
323.617	74.92
323.83	66.73
324.043	9.39
324.256	-0.85
324.469	17.58
324.683	105.64
324.896	-15.19
325.109	48.3
325.322	-35.67
325.535	-9.05
325.748	27.82
325.962	46.25
326.175	66.73
326.388	1.19
326.601	-23.38
326.814	-7
327.027	38.06
327.24	19.63
327.453	-47.96
327.666	70.83
327.879	38.06
328.092	66.73
328.305	13.48
328.518	-19.29
328.731	23.72
328.944	-11.09
329.157	33.96
329.37	-7
329.583	-13.14
329.796	17.58
330.009	-95.06
330.222	42.15
330.435	-43.86
330.648	27.82
330.861	11.43
331.073	33.96
331.286	54.44
331.499	9.39
331.712	-27.48
331.925	-13.14
332.138	7.34
332.35	36.01
332.563	52.39
332.776	-66.39
332.989	3.24
333.202	31.91
333.414	52.39
333.627	-27.48
333.84	-15.19
334.053	60.59
334.265	-27.48
334.478	40.11
334.691	36.01
334.903	56.49
335.116	-23.38
335.329	54.44
335.541	38.06
335.754	130.22
335.966	-54.1
336.179	40.11
336.392	40.11
336.604	60.59
336.817	60.59
337.029	17.58
337.242	-27.48
337.454	60.59
337.667	64.68
337.88	99.5
338.092	-0.85
338.305	36.01
338.517	50.35
338.729	1.19
338.942	33.96
339.154	-13.14
339.367	-25.43
339.579	105.64
339.792	-43.86
340.004	-9.05
340.217	7.34
340.429	-43.86
340.641	-17.24
340.854	31.91
341.066	-54.1
341.278	66.73
341.491	109.74
341.703	36.01
341.915	17.58
342.128	-9.05
342.34	-0.85
342.552	21.67
342.764	42.15
342.977	-23.38
343.189	56.49
343.401	-25.43
343.613	-0.85
343.826	74.92
344.038	-50
344.25	21.67
344.462	23.72
344.674	19.63
344.886	48.3
345.099	38.06
345.311	-23.38
345.523	3.24
345.735	40.11
345.947	56.49
346.159	40.11
346.371	-4.95
346.583	-66.39
346.795	124.07
347.007	56.49
347.219	54.44
347.431	-17.24
347.643	58.54
347.855	-7
348.067	31.91
348.279	-15.19
348.491	62.63
348.703	33.96
348.915	79.02
349.127	23.72
349.339	48.3
349.551	-2.9
349.763	-11.09
349.975	15.53
350.187	27.82
350.399	-13.14
350.61	70.83
350.822	-60.24
351.034	13.48
351.246	42.15
351.458	15.53
351.669	72.87
351.881	93.35
352.093	11.43
352.305	-17.24
352.517	42.15
352.728	64.68
352.94	1.19
353.152	50.35
353.363	-41.81
353.575	15.53
353.787	13.48
353.999	97.45
354.21	101.55
354.422	-21.33
354.633	-19.29
354.845	42.15
355.057	50.35
355.268	33.96
355.48	-13.14
355.692	-13.14
355.903	74.92
356.115	-9.05
356.326	-99.16
356.538	-7
356.749	23.72
356.961	62.63
357.172	7.34
357.384	-15.19
357.595	99.5
357.807	-0.85
358.018	-7
358.23	-15.19
358.441	56.49
358.653	25.77
358.864	1.19
359.075	79.02
359.287	111.78
359.498	-50
359.709	40.11
359.921	1.19
360.132	-15.19
360.344	-4.95
360.555	19.63
360.766	54.44
360.977	-19.29
361.189	50.35
361.4	21.67
361.611	17.58
361.823	-13.14
362.034	17.58
362.245	-41.81
362.456	62.63
362.667	50.35
362.879	-7
363.09	46.25
363.301	68.78
363.512	85.16
363.723	-21.33
363.935	7.34
364.146	-7
364.357	21.67
364.568	7.34
364.779	-88.92
364.99	36.01
365.201	21.67
365.412	15.53
365.623	-97.11
365.834	46.25
366.045	44.2
366.256	76.97
366.467	42.15
366.678	36.01
366.889	-4.95
367.1	23.72
367.311	11.43
367.522	46.25
367.733	119.98
367.944	107.69
368.155	52.39
368.366	3.24
368.577	48.3
368.788	70.83
368.999	-2.9
369.209	62.63
369.42	66.73
369.631	81.07
369.842	40.11
370.053	-11.09
370.264	21.67
370.474	-17.24
370.685	29.87
370.896	3.24
371.107	15.53
371.317	21.67
371.528	-2.9
371.739	56.49
371.95	-35.67
372.16	-21.33
372.371	-47.96
372.582	31.91
372.792	33.96
373.003	97.45
373.214	85.16
373.424	-2.9
373.635	42.15
373.846	62.63
374.056	-0.85
374.267	62.63
374.477	19.63
374.688	15.53
374.898	64.68
375.109	13.48
375.319	-29.52
375.53	42.15
375.74	11.43
375.951	62.63
376.161	79.02
376.372	60.59
376.582	-25.43
376.793	38.06
377.003	48.3
377.214	1.19
377.424	-4.95
377.635	-7
377.845	29.87
378.055	66.73
378.266	17.58
378.476	70.83
378.686	21.67
378.897	29.87
379.107	29.87
379.317	-13.14
379.528	-19.29
379.738	81.07
379.948	1.19
380.158	-4.95
380.369	68.78
380.579	52.39
380.789	-19.29
380.999	50.35
381.21	25.77
381.42	81.07
381.63	54.44
381.84	23.72
382.05	3.24
382.261	83.11
382.471	83.11
382.681	-2.9
382.891	70.83
383.101	-19.29
383.311	-19.29
383.521	-35.67
383.731	117.93
383.941	97.45
384.151	89.26
384.361	50.35
384.571	48.3
384.781	5.29
384.991	33.96
385.201	83.11
385.411	-23.38
385.621	5.29
385.831	-2.9
386.041	31.91
386.251	62.63
386.461	-7
386.671	36.01
386.881	-11.09
387.091	60.59
387.301	124.07
387.511	9.39
387.72	44.2
387.93	89.26
388.14	-11.09
388.35	-4.95
388.56	83.11
388.769	56.49
388.979	40.11
389.189	-7
389.399	60.59
389.609	17.58
389.818	62.63
390.028	23.72
390.238	117.93
390.447	5.29
390.657	89.26
390.867	64.68
391.076	-0.85
391.286	-19.29
391.496	56.49
391.705	70.83
391.915	56.49
392.125	15.53
392.334	15.53
392.544	9.39
392.753	52.39
392.963	56.49
393.172	97.45
393.382	-21.33
393.591	95.4
393.801	62.63
394.01	91.31
394.22	99.5
394.429	60.59
394.639	95.4
394.848	5.29
395.058	31.91
395.267	-21.33
395.477	21.67
395.686	83.11
395.895	185.51
396.105	107.69
396.314	148.65
396.524	25.77
396.733	81.07
396.942	48.3
397.152	40.11
397.361	64.68
397.57	56.49
397.78	21.67
397.989	85.16
398.198	107.69
398.407	46.25
398.617	40.11
398.826	54.44
399.035	-11.09
399.244	109.74
399.453	1.19
399.663	-2.9
399.872	87.21
400.081	38.06
400.29	54.44
400.499	-13.14
400.708	122.02
400.917	58.54
401.127	60.59
401.336	19.63
401.545	183.46
401.754	113.83
401.963	91.31
402.172	60.59
402.381	19.63
402.59	128.17
402.799	87.21
403.008	64.68
403.217	38.06
403.426	52.39
403.635	97.45
403.844	-4.95
404.053	142.5
404.262	9.39
404.471	169.13
404.68	9.39
404.888	99.5
405.097	42.15
405.306	113.83
405.515	91.31
405.724	21.67
405.933	54.44
406.142	134.31
406.35	169.13
406.559	79.02
406.768	142.5
406.977	146.6
407.185	83.11
407.394	255.14
407.603	42.15
407.812	138.41
408.02	224.42
408.229	146.6
408.438	113.83
408.646	52.39
408.855	181.42
409.064	101.55
409.272	169.13
409.481	203.94
409.69	142.5
409.898	173.22
410.107	181.42
410.315	273.57
410.524	187.56
410.733	208.04
410.941	203.94
411.15	236.71
411.358	271.53
411.567	214.18
411.775	203.94
411.984	228.52
412.192	246.95
412.401	269.48
412.609	353.45
412.818	312.49
413.026	281.77
413.234	322.73
413.443	345.25
413.651	283.81
413.86	318.63
414.068	441.51
414.276	396.45
414.485	414.88
414.693	365.73
414.901	476.32
415.11	447.65
415.318	355.49
415.526	453.8
415.734	498.85
415.943	486.56
416.151	468.13
416.359	373.92
416.567	513.19
416.776	578.72
416.984	574.63
417.192	584.87
417.4	550.05
417.608	578.72
417.817	738.46
418.025	664.74
418.233	760.99
418.441	722.08
418.649	763.04
418.857	812.19
419.065	775.33
419.273	756.9
419.481	904.35
419.689	859.29
419.897	976.03
420.105	914.59
420.313	879.77
420.521	1025.18
420.729	1031.32
420.937	1039.51
421.145	1111.19
421.353	1074.33
421.561	1146.01
421.769	1283.22
421.977	1258.65
422.185	1195.16
422.393	1356.95
422.601	1410.2
422.809	1361.05
423.017	1498.26
423.224	1455.25
423.432	1518.74
423.64	1588.37
423.848	1698.96
424.056	1602.71
424.263	1690.77
424.471	1731.73
424.679	1795.22
424.887	1858.7
425.094	1938.57
425.302	2071.69
425.51	2065.55
425.718	2000.01
425.925	2114.7
426.133	2090.12
426.341	2325.64
426.548	2393.22
426.756	2507.91
426.964	2477.19
427.171	2481.28
427.379	2636.93
427.586	2655.36
427.794	2600.07
428.001	2956.41
428.209	3128.44
428.417	2948.22
428.624	3243.13
428.832	3243.13
429.039	3374.2
429.247	3171.45
429.454	3527.8
429.662	3716.21
429.869	3474.55
430.076	3751.03
430.284	3632.24
430.491	3765.36
430.699	4058.22
430.906	4041.84
431.114	4125.8
431.321	4332.65
431.528	4273.26
431.736	4500.58
431.943	4766.82
432.15	4611.17
432.358	4793.44
432.565	4969.57
432.772	4961.37
432.979	5184.6
433.187	5252.19
433.394	5313.63
433.601	5586.01
433.808	5780.56
434.016	5749.84
434.223	5823.57
434.43	6159.44
434.637	6175.82
434.844	6526.02
435.052	6579.27
435.259	6681.67
435.466	6896.71
435.673	6597.7
435.88	7052.35
436.087	7597.11
436.294	7502.9
436.501	7332.92
436.708	7433.27
436.915	7595.06
437.122	8006.7
437.329	8094.77
437.537	8334.38
437.743	8305.71
437.95	8408.11
438.157	8819.75
438.364	9178.14
438.571	8997.92
438.778	9180.19
438.985	9817.11
439.192	9673.75
439.399	9694.23
439.606	9593.88
439.813	10253.33
440.02	10714.12
440.227	10562.57
440.433	10466.31
440.64	10845.19
440.847	10505.23
441.054	11224.06
441.261	11877.37
441.467	11523.07
441.674	11783.16
441.881	12332.01
442.088	12268.53
442.294	12006.39
442.501	12667.88
442.708	12784.62
442.914	13229.02
443.121	13808.6
443.328	13472.73
443.534	14435.28
443.741	14074.84
443.948	13691.87
444.154	14775.24
444.361	14742.47
444.568	14994.37
444.774	14676.94
444.981	15070.15
445.187	15627.2
445.394	16348.08
445.6	15848.38
445.807	17374.11
446.013	16913.32
446.22	16884.65
446.426	17929.11
446.633	17931.16
446.839	18457.49
447.046	17853.34
447.252	18760.59
447.459	18813.84
447.665	18885.51
447.871	19440.51
448.078	20441.97
448.284	19424.13
448.491	19964.79
448.697	20839.28
448.903	21166.95
449.11	21136.23
449.316	20845.42
449.522	21035.88
449.728	21832.54
449.935	21924.7
450.141	22109.02
450.347	22649.68
450.553	21916.51
450.76	21695.33
450.966	22481.75
451.172	22575.95
451.378	23184.2
451.584	22745.94
451.791	23063.37
451.997	23171.91
452.203	23405.38
452.409	23444.29
452.615	23386.95
452.821	22276.95
453.027	22104.92
453.233	23601.99
453.44	22799.18
453.646	22725.46
453.852	23194.44
454.058	23186.25
454.264	22575.95
454.47	23122.76
454.676	22590.29
454.882	23356.23
455.088	21033.83
455.294	21465.96
455.5	21695.33
455.705	22395.73
455.911	21148.52
456.117	20751.21
456.323	20370.29
456.529	19411.84
456.735	20159.35
456.941	19710.85
457.147	19299.2
457.352	18848.65
457.558	18488.21
457.764	18514.83
457.97	18240.4
458.176	17849.24
458.381	17767.32
458.587	17073.06
458.793	16835.5
458.999	15860.66
459.204	17253.28
459.41	16753.58
459.616	15684.54
459.821	15727.55
460.027	15358.91
460.233	15199.17
460.438	14420.94
460.644	14773.19
460.85	14015.44
461.055	13886.42
461.261	13818.84
461.466	12712.94
461.672	12229.62
461.878	13339.62
462.083	12278.77
462.289	12010.48
462.494	12012.53
462.7	11627.51
462.905	11013.12
463.111	11531.26
463.316	11533.31
463.522	11318.27
463.727	11107.33
463.932	11359.23
464.138	11342.85
464.343	11244.54
464.549	10830.85
464.754	11316.22
464.959	11164.67
465.165	11162.62
465.37	10509.32
465.575	10302.48
465.781	10726.41
465.986	10990.59
466.191	10327.05
466.397	10269.71
466.602	9792.53
466.807	10095.63
467.012	10208.27
467.218	10210.32
467.423	9946.13
467.628	10089.49
467.833	10312.72
468.038	10109.97
