Data from USB4F104151__4__12-23-17-058.txt Node

Date: Fri Mar 14 12:23:17 EDT 2025
User: louis
Spectrometer: USB4F10415
Trigger mode: 4
Integration Time (sec): 3.500000E-2
Scans to average: 1
Electric dark correction enabled: true
Nonlinearity correction enabled: false
Boxcar width: 0
XAxis mode: Wavelengths
Number of Pixels in Spectrum: 3648
>>>>>Begin Spectral Data<<<<<
178.204	-196.26
178.424	-196.26
178.644	-196.26
178.864	-110.25
179.084	-163.5
179.304	-61.1
179.524	-11.95
179.744	4.44
179.964	-20.14
180.184	61.78
180.404	29.01
180.624	8.53
180.844	6.49
181.064	8.53
181.283	-16.04
181.503	-5.8
181.723	-3.75
181.943	-57
182.163	67.92
182.383	8.53
182.602	-36.52
182.822	-46.76
183.042	-46.76
183.262	-9.9
183.482	-54.95
183.701	0.34
183.921	-16.04
184.141	-24.23
184.361	63.83
184.58	45.4
184.8	-13.99
185.02	-32.43
185.239	80.21
185.459	-61.1
185.679	49.49
185.898	-50.86
186.118	24.92
186.338	22.87
186.557	35.16
186.777	14.68
186.997	22.87
187.216	-79.53
187.436	117.08
187.655	72.02
187.875	67.92
188.095	10.58
188.314	76.12
188.534	55.64
188.753	33.11
188.973	20.82
189.192	6.49
189.412	-5.8
189.631	41.3
189.851	8.53
190.07	67.92
190.29	12.63
190.509	22.87
190.729	-16.04
190.948	22.87
191.168	153.94
191.387	10.58
191.607	-7.85
191.826	-1.71
192.045	26.96
192.265	55.64
192.484	72.02
192.704	53.59
192.923	-63.15
193.142	12.63
193.362	-34.47
193.581	63.83
193.8	37.2
194.02	45.4
194.239	-63.15
194.458	-9.9
194.678	16.73
194.897	67.92
195.116	-1.71
195.335	24.92
195.555	2.39
195.774	26.96
195.993	2.39
196.212	33.11
196.432	72.02
196.651	63.83
196.87	14.68
197.089	86.36
197.308	-22.19
197.528	31.06
197.747	-1.71
197.966	47.44
198.185	45.4
198.404	-28.33
198.623	37.2
198.842	6.49
199.062	35.16
199.281	80.21
199.5	12.63
199.719	10.58
199.938	6.49
200.157	78.16
200.376	22.87
200.595	57.68
200.814	10.58
201.033	45.4
201.252	20.82
201.471	39.25
201.69	37.2
201.909	65.88
202.128	35.16
202.347	-36.52
202.566	-46.76
202.785	2.39
203.004	6.49
203.223	106.84
203.442	-36.52
203.661	-52.91
203.879	45.4
204.098	-5.8
204.317	-71.34
204.536	90.45
204.755	-13.99
204.974	90.45
205.193	45.4
205.411	53.59
205.63	67.92
205.849	-28.33
206.068	-69.29
206.287	35.16
206.505	43.35
206.724	-20.14
206.943	-20.14
207.162	35.16
207.381	86.36
207.599	49.49
207.818	-3.75
208.037	-42.67
208.255	-9.9
208.474	-18.09
208.693	26.96
208.911	80.21
209.13	-13.99
209.349	-3.75
209.567	31.06
209.786	108.88
210.005	43.35
210.223	31.06
210.442	-46.76
210.661	-38.57
210.879	-46.76
211.098	-13.99
211.316	10.58
211.535	88.4
211.753	31.06
211.972	8.53
212.191	-22.19
212.409	-28.33
212.628	-16.04
212.846	8.53
213.065	49.49
213.283	33.11
213.502	4.44
213.72	-83.63
213.938	18.77
214.157	10.58
214.375	47.44
214.594	80.21
214.812	33.11
215.031	0.34
215.249	-44.71
215.467	-20.14
215.686	-13.99
215.904	72.02
216.122	35.16
216.341	2.39
216.559	55.64
216.778	18.77
216.996	20.82
217.214	-3.75
217.432	-34.47
217.651	-79.53
217.869	-61.1
218.087	16.73
218.306	55.64
218.524	-11.95
218.742	39.25
218.96	-9.9
219.179	22.87
219.397	-7.85
219.615	59.73
219.833	82.26
220.051	-18.09
220.27	49.49
220.488	29.01
220.706	78.16
220.924	43.35
221.142	-24.23
221.36	29.01
221.578	61.78
221.796	-18.09
222.015	35.16
222.233	59.73
222.451	16.73
222.669	-26.28
222.887	33.11
223.105	-44.71
223.323	14.68
223.541	6.49
223.759	26.96
223.977	-18.09
224.195	92.5
224.413	26.96
224.631	-9.9
224.849	69.97
225.067	108.88
225.285	-28.33
225.503	-1.71
225.721	-36.52
225.939	-3.75
226.157	-30.38
226.375	131.41
226.592	4.44
226.81	47.44
227.028	53.59
227.246	45.4
227.464	-22.19
227.682	18.77
227.9	45.4
228.117	6.49
228.335	-1.71
228.553	2.39
228.771	20.82
228.989	-5.8
229.206	74.07
229.424	-50.86
229.642	37.2
229.86	33.11
230.077	-28.33
230.295	47.44
230.513	37.2
230.731	67.92
230.948	90.45
231.166	117.08
231.384	22.87
231.601	10.58
231.819	53.59
232.037	-7.85
232.254	-30.38
232.472	51.54
232.689	-20.14
232.907	67.92
233.125	-7.85
233.342	4.44
233.56	0.34
233.777	39.25
233.995	125.27
234.213	106.84
234.43	37.2
234.648	-16.04
234.865	55.64
235.083	31.06
235.3	35.16
235.518	-1.71
235.735	86.36
235.953	45.4
236.17	45.4
236.388	45.4
236.605	61.78
236.822	20.82
237.04	51.54
237.257	-5.8
237.475	-61.1
237.692	45.4
237.909	51.54
238.127	6.49
238.344	-1.71
238.562	22.87
238.779	-54.95
238.996	-59.05
239.214	41.3
239.431	33.11
239.648	12.63
239.865	-18.09
240.083	76.12
240.3	-48.81
240.517	33.11
240.735	43.35
240.952	26.96
241.169	26.96
241.386	51.54
241.603	-79.53
241.821	2.39
242.038	35.16
242.255	49.49
242.472	26.96
242.689	47.44
242.907	59.73
243.124	39.25
243.341	-28.33
243.558	29.01
243.775	-18.09
243.992	22.87
244.209	53.59
244.426	59.73
244.643	-28.33
244.86	-7.85
245.078	-3.75
245.295	24.92
245.512	-50.86
245.729	-13.99
245.946	94.55
246.163	-50.86
246.38	26.96
246.597	2.39
246.814	2.39
247.031	-61.1
247.248	57.68
247.464	39.25
247.681	-24.23
247.898	-32.43
248.115	0.34
248.332	51.54
248.549	8.53
248.766	78.16
248.983	63.83
249.2	20.82
249.417	45.4
249.633	43.35
249.85	-48.81
250.067	-61.1
250.284	-22.19
250.501	24.92
250.717	-9.9
250.934	-38.57
251.151	16.73
251.368	2.39
251.585	-24.23
251.801	0.34
252.018	-46.76
252.235	29.01
252.451	-81.58
252.668	16.73
252.885	-7.85
253.102	49.49
253.318	-9.9
253.535	0.34
253.752	-69.29
253.968	-22.19
254.185	-59.05
254.401	-7.85
254.618	86.36
254.835	12.63
255.051	35.16
255.268	18.77
255.484	12.63
255.701	6.49
255.917	53.59
256.134	-63.15
256.351	33.11
256.567	8.53
256.784	43.35
257	-7.85
257.217	10.58
257.433	31.06
257.65	-42.67
257.866	76.12
258.082	-32.43
258.299	-11.95
258.515	90.45
258.732	-26.28
258.948	22.87
259.165	53.59
259.381	-30.38
259.597	-87.72
259.814	6.49
260.03	-5.8
260.246	26.96
260.463	55.64
260.679	76.12
260.895	14.68
261.112	-48.81
261.328	41.3
261.544	-13.99
261.761	-11.95
261.977	-38.57
262.193	18.77
262.409	49.49
262.626	47.44
262.842	55.64
263.058	-54.95
263.274	-3.75
263.49	-24.23
263.707	74.07
263.923	39.25
264.139	0.34
264.355	-22.19
264.571	-7.85
264.787	43.35
265.004	2.39
265.22	-1.71
265.436	12.63
265.652	-20.14
265.868	10.58
266.084	18.77
266.3	-24.23
266.516	-114.34
266.732	4.44
266.948	24.92
267.164	-11.95
267.38	-7.85
267.596	2.39
267.812	76.12
268.028	18.77
268.244	-67.24
268.46	29.01
268.676	20.82
268.892	65.88
269.108	8.53
269.324	-59.05
269.54	0.34
269.756	100.69
269.972	2.39
270.188	-38.57
270.403	-87.72
270.619	-20.14
270.835	78.16
271.051	-16.04
271.267	49.49
271.483	24.92
271.698	31.06
271.914	47.44
272.13	20.82
272.346	8.53
272.562	47.44
272.777	20.82
272.993	16.73
273.209	-1.71
273.425	4.44
273.64	-69.29
273.856	31.06
274.072	-46.76
274.287	20.82
274.503	-42.67
274.719	41.3
274.934	35.16
275.15	0.34
275.366	16.73
275.581	20.82
275.797	0.34
276.012	47.44
276.228	88.4
276.444	-34.47
276.659	76.12
276.875	22.87
277.09	-34.47
277.306	10.58
277.521	76.12
277.737	-20.14
277.952	24.92
278.168	47.44
278.383	35.16
278.599	-83.63
278.814	39.25
279.03	26.96
279.245	72.02
279.461	14.68
279.676	63.83
279.892	-1.71
280.107	-22.19
280.322	-71.34
280.538	55.64
280.753	-3.75
280.969	-38.57
281.184	-30.38
281.399	29.01
281.615	84.31
281.83	61.78
282.045	-9.9
282.26	-81.58
282.476	41.3
282.691	29.01
282.906	-20.14
283.122	-7.85
283.337	10.58
283.552	80.21
283.767	22.87
283.983	45.4
284.198	24.92
284.413	-5.8
284.628	35.16
284.843	-22.19
285.058	69.97
285.274	31.06
285.489	-22.19
285.704	-42.67
285.919	-30.38
286.134	51.54
286.349	18.77
286.564	33.11
286.779	117.08
286.995	-7.85
287.21	-52.91
287.425	80.21
287.64	-36.52
287.855	98.64
288.07	-48.81
288.285	41.3
288.5	31.06
288.715	121.17
288.93	-22.19
289.145	14.68
289.36	-81.58
289.575	29.01
289.79	69.97
290.004	-42.67
290.219	-13.99
290.434	20.82
290.649	33.11
290.864	2.39
291.079	12.63
291.294	88.4
291.509	61.78
291.724	76.12
291.938	82.26
292.153	0.34
292.368	-42.67
292.583	10.58
292.798	76.12
293.012	43.35
293.227	69.97
293.442	49.49
293.657	16.73
293.871	29.01
294.086	78.16
294.301	104.79
294.516	18.77
294.73	31.06
294.945	22.87
295.16	-22.19
295.374	92.5
295.589	10.58
295.804	-40.62
296.018	-69.29
296.233	57.68
296.447	26.96
296.662	24.92
296.877	55.64
297.091	65.88
297.306	33.11
297.52	57.68
297.735	10.58
297.949	69.97
298.164	-5.8
298.378	53.59
298.593	22.87
298.807	-36.52
299.022	-11.95
299.236	-11.95
299.451	-20.14
299.665	10.58
299.88	-57
300.094	12.63
300.309	8.53
300.523	24.92
300.737	22.87
300.952	-16.04
301.166	53.59
301.381	-28.33
301.595	-18.09
301.809	-11.95
302.024	4.44
302.238	-46.76
302.452	67.92
302.667	59.73
302.881	-18.09
303.095	37.2
303.309	-9.9
303.524	39.25
303.738	22.87
303.952	-13.99
304.166	41.3
304.381	-44.71
304.595	33.11
304.809	-16.04
305.023	49.49
305.237	45.4
305.452	10.58
305.666	14.68
305.88	-24.23
306.094	98.64
306.308	-20.14
306.522	20.82
306.736	0.34
306.95	65.88
307.164	12.63
307.379	67.92
307.593	26.96
307.807	63.83
308.021	14.68
308.235	22.87
308.449	16.73
308.663	53.59
308.877	82.26
309.091	-67.24
309.305	43.35
309.519	31.06
309.733	82.26
309.947	2.39
310.161	10.58
310.374	26.96
310.588	-16.04
310.802	20.82
311.016	10.58
311.23	65.88
311.444	-36.52
311.658	76.12
311.872	0.34
312.085	49.49
312.299	59.73
312.513	72.02
312.727	37.2
312.941	-32.43
313.154	4.44
313.368	33.11
313.582	47.44
313.796	-69.29
314.009	-36.52
314.223	16.73
314.437	-16.04
314.651	61.78
314.864	-11.95
315.078	-11.95
315.292	-77.48
315.505	-36.52
315.719	-32.43
315.933	-52.91
316.146	8.53
316.36	31.06
316.573	22.87
316.787	20.82
317.001	22.87
317.214	26.96
317.428	10.58
317.641	-122.54
317.855	-1.71
318.068	45.4
318.282	37.2
318.495	-42.67
318.709	82.26
318.922	-5.8
319.136	10.58
319.349	29.01
319.563	6.49
319.776	-59.05
319.99	-69.29
320.203	20.82
320.417	41.3
320.63	24.92
320.843	63.83
321.057	43.35
321.27	69.97
321.483	37.2
321.697	37.2
321.91	31.06
322.124	-52.91
322.337	4.44
322.55	-18.09
322.763	29.01
322.977	63.83
323.19	-3.75
323.403	72.02
323.617	0.34
323.83	84.31
324.043	-18.09
324.256	-34.47
324.469	-9.9
324.683	49.49
324.896	55.64
325.109	16.73
325.322	-52.91
325.535	24.92
325.748	29.01
325.962	0.34
326.175	-3.75
326.388	49.49
326.601	-44.71
326.814	-52.91
327.027	-7.85
327.24	110.93
327.453	-20.14
327.666	72.02
327.879	74.07
328.092	69.97
328.305	92.5
328.518	31.06
328.731	8.53
328.944	63.83
329.157	57.68
329.37	98.64
329.583	88.4
329.796	82.26
330.009	61.78
330.222	72.02
330.435	20.82
330.648	-1.71
330.861	4.44
331.073	37.2
331.286	43.35
331.499	-32.43
331.712	41.3
331.925	12.63
332.138	24.92
332.35	88.4
332.563	-16.04
332.776	29.01
332.989	-50.86
333.202	4.44
333.414	10.58
333.627	35.16
333.84	49.49
334.053	39.25
334.265	-16.04
334.478	22.87
334.691	-18.09
334.903	29.01
335.116	24.92
335.329	-36.52
335.541	106.84
335.754	102.74
335.966	53.59
336.179	-54.95
336.392	22.87
336.604	20.82
336.817	-11.95
337.029	12.63
337.242	-50.86
337.454	26.96
337.667	-3.75
337.88	4.44
338.092	-20.14
338.305	35.16
338.517	43.35
338.729	47.44
338.942	53.59
339.154	-5.8
339.367	-9.9
339.579	10.58
339.792	41.3
340.004	47.44
340.217	18.77
340.429	61.78
340.641	-28.33
340.854	29.01
341.066	-24.23
341.278	92.5
341.491	33.11
341.703	49.49
341.915	6.49
342.128	-65.19
342.34	39.25
342.552	10.58
342.764	4.44
342.977	-34.47
343.189	47.44
343.401	6.49
343.613	-7.85
343.826	33.11
344.038	10.58
344.25	65.88
344.462	-59.05
344.674	39.25
344.886	80.21
345.099	-42.67
345.311	-13.99
345.523	-40.62
345.735	-9.9
345.947	51.54
346.159	61.78
346.371	72.02
346.583	26.96
346.795	41.3
347.007	29.01
347.219	4.44
347.431	-40.62
347.643	57.68
347.855	-16.04
348.067	37.2
348.279	-42.67
348.491	35.16
348.703	12.63
348.915	6.49
349.127	37.2
349.339	22.87
349.551	4.44
349.763	45.4
349.975	-5.8
350.187	-28.33
350.399	96.6
350.61	67.92
350.822	-18.09
351.034	45.4
351.246	33.11
351.458	61.78
351.669	-1.71
351.881	53.59
352.093	22.87
352.305	96.6
352.517	22.87
352.728	24.92
352.94	35.16
353.152	22.87
353.363	43.35
353.575	33.11
353.787	110.93
353.999	53.59
354.21	20.82
354.422	10.58
354.633	-48.81
354.845	35.16
355.057	49.49
355.268	59.73
355.48	20.82
355.692	33.11
355.903	63.83
356.115	16.73
356.326	-3.75
356.538	78.16
356.749	76.12
356.961	39.25
357.172	-46.76
357.384	20.82
357.595	69.97
357.807	-11.95
358.018	-9.9
358.23	45.4
358.441	18.77
358.653	0.34
358.864	-5.8
359.075	86.36
359.287	65.88
359.498	14.68
359.709	37.2
359.921	8.53
360.132	16.73
360.344	-81.58
360.555	-54.95
360.766	18.77
360.977	47.44
361.189	-16.04
361.4	72.02
361.611	92.5
361.823	-7.85
362.034	6.49
362.245	26.96
362.456	-24.23
362.667	0.34
362.879	-46.76
363.09	37.2
363.301	-13.99
363.512	10.58
363.723	4.44
363.935	20.82
364.146	86.36
364.357	31.06
364.568	0.34
364.779	72.02
364.99	33.11
365.201	-22.19
365.412	37.2
365.623	12.63
365.834	-32.43
366.045	-30.38
366.256	106.84
366.467	-28.33
366.678	-1.71
366.889	65.88
367.1	2.39
367.311	76.12
367.522	59.73
367.733	31.06
367.944	18.77
368.155	-16.04
368.366	8.53
368.577	20.82
368.788	8.53
368.999	35.16
369.209	-26.28
369.42	63.83
369.631	135.51
369.842	-71.34
370.053	94.55
370.264	63.83
370.474	6.49
370.685	-28.33
370.896	-24.23
371.107	31.06
371.317	37.2
371.528	10.58
371.739	22.87
371.95	125.27
372.16	35.16
372.371	0.34
372.582	-40.62
372.792	-22.19
373.003	63.83
373.214	43.35
373.424	26.96
373.635	121.17
373.846	145.75
374.056	-3.75
374.267	26.96
374.477	65.88
374.688	-32.43
374.898	65.88
375.109	37.2
375.319	20.82
375.53	8.53
375.74	45.4
375.951	41.3
376.161	31.06
376.372	41.3
376.582	-5.8
376.793	16.73
377.003	-46.76
377.214	4.44
377.424	8.53
377.635	6.49
377.845	31.06
378.055	80.21
378.266	37.2
378.476	72.02
378.686	51.54
378.897	47.44
379.107	31.06
379.317	39.25
379.528	-20.14
379.738	63.83
379.948	49.49
380.158	-9.9
380.369	26.96
380.579	31.06
380.789	35.16
380.999	86.36
381.21	88.4
381.42	59.73
381.63	-28.33
381.84	6.49
382.05	37.2
382.261	2.39
382.471	84.31
382.681	20.82
382.891	133.46
383.101	45.4
383.311	8.53
383.521	10.58
383.731	123.22
383.941	-1.71
384.151	49.49
384.361	-16.04
384.571	-7.85
384.781	14.68
384.991	92.5
385.201	74.07
385.411	78.16
385.621	43.35
385.831	37.2
386.041	41.3
386.251	14.68
386.461	88.4
386.671	-9.9
386.881	53.59
387.091	-7.85
387.301	-26.28
387.511	6.49
387.72	63.83
387.93	-16.04
388.14	-24.23
388.35	10.58
388.56	69.97
388.769	33.11
388.979	-24.23
389.189	26.96
389.399	14.68
389.609	-54.95
389.818	10.58
390.028	55.64
390.238	-9.9
390.447	72.02
390.657	-5.8
390.867	20.82
391.076	-20.14
391.286	49.49
391.496	18.77
391.705	33.11
391.915	47.44
392.125	127.32
392.334	-75.43
392.544	37.2
392.753	0.34
392.963	84.31
393.172	0.34
393.382	110.93
393.591	149.84
393.801	-3.75
394.01	102.74
394.22	18.77
394.429	57.68
394.639	45.4
394.848	100.69
395.058	6.49
395.267	47.44
395.477	45.4
395.686	-7.85
395.895	123.22
396.105	155.99
396.314	51.54
396.524	98.64
396.733	94.55
396.942	78.16
397.152	63.83
397.361	123.22
397.57	-16.04
397.78	80.21
397.989	106.84
398.198	76.12
398.407	43.35
398.617	88.4
398.826	22.87
399.035	67.92
399.244	51.54
399.453	100.69
399.663	26.96
399.872	131.41
400.081	20.82
400.29	110.93
400.499	31.06
400.708	55.64
400.917	86.36
401.127	61.78
401.336	45.4
401.545	80.21
401.754	67.92
401.963	100.69
402.172	90.45
402.381	82.26
402.59	104.79
402.799	92.5
403.008	49.49
403.217	115.03
403.426	26.96
403.635	63.83
403.844	69.97
404.053	31.06
404.262	76.12
404.471	106.84
404.68	168.27
404.888	12.63
405.097	123.22
405.306	49.49
405.515	158.03
405.724	92.5
405.933	110.93
406.142	98.64
406.35	174.42
406.559	102.74
406.768	106.84
406.977	149.84
407.185	133.46
407.394	176.47
407.603	115.03
407.812	72.02
408.02	211.28
408.229	76.12
408.438	102.74
408.646	172.37
408.855	104.79
409.064	155.99
409.272	129.36
409.481	170.32
409.69	117.08
409.898	20.82
410.107	108.88
410.315	170.32
410.524	217.43
410.733	225.62
410.941	227.67
411.15	215.38
411.358	256.34
411.567	227.67
411.775	252.24
411.984	186.71
412.192	207.19
412.401	205.14
412.609	364.88
412.818	350.54
413.026	334.16
413.234	287.06
413.443	266.58
413.651	342.35
413.86	352.59
414.068	364.88
414.276	368.98
414.485	368.98
414.693	471.37
414.901	475.47
415.11	414.03
415.318	373.07
415.526	454.99
415.734	532.81
415.943	457.04
416.151	487.76
416.359	532.81
416.567	524.62
416.776	500.05
416.984	538.96
417.192	612.68
417.4	524.62
417.608	592.2
417.817	639.31
418.025	637.26
418.233	756.04
418.441	635.21
418.649	676.17
418.857	743.75
419.065	811.34
419.273	743.75
419.481	911.69
419.689	858.44
419.897	926.02
420.105	915.78
420.313	995.65
420.521	1014.09
420.729	1040.71
420.937	1089.86
421.145	1063.24
421.353	1079.62
421.561	1274.18
421.769	1214.79
421.977	1243.46
422.185	1229.12
422.393	1341.76
422.601	1362.24
422.809	1423.68
423.017	1417.54
423.224	1411.39
423.432	1624.38
423.64	1524.03
423.848	1739.07
424.056	1671.48
424.263	1763.64
424.471	1605.95
424.679	1837.37
424.887	2003.25
425.094	1892.66
425.302	1966.39
425.51	1939.77
425.718	2021.69
425.925	2083.13
426.133	2154.8
426.341	2425.14
426.548	2300.21
426.756	2363.7
426.964	2509.1
427.171	2609.45
427.379	2588.97
427.586	2703.66
427.794	2810.15
428.001	3017
428.209	2916.65
428.417	2992.42
428.624	3254.56
428.832	3131.69
429.039	3246.37
429.247	3123.49
429.454	3459.36
429.662	3729.69
429.869	3449.12
430.076	3643.68
430.284	3549.47
430.491	3758.36
430.699	3920.15
430.906	4067.61
431.114	4047.13
431.321	4307.22
431.528	4380.95
431.736	4462.87
431.943	4776.2
432.15	4632.85
432.358	4712.72
432.565	4937.99
432.772	4778.25
432.979	5087.5
433.187	5439.75
433.394	5335.3
433.601	5615.87
433.808	5660.93
434.016	5615.87
434.223	5912.83
434.43	6177.02
434.637	6148.34
434.844	6430.96
435.052	6506.74
435.259	6531.31
435.466	6856.94
435.673	6668.53
435.88	6965.48
436.087	7258.34
436.294	7438.56
436.501	7184.62
436.708	7444.71
436.915	7594.21
437.122	7954.65
437.329	7854.3
437.537	8044.76
437.743	8270.04
437.95	8196.31
438.157	8677.58
438.364	8749.26
438.571	8974.54
438.778	9097.42
438.985	9857.21
439.192	9517.25
439.399	9748.67
439.606	9556.16
439.813	10127.55
440.02	10692.79
440.227	10543.28
440.433	10391.73
440.64	10850.48
440.847	10621.11
441.054	11147.44
441.261	11548.84
441.467	11606.18
441.674	11755.68
441.881	12351.64
442.088	12165.28
442.294	12411.03
442.501	12253.34
442.708	12712.08
442.914	13308.04
443.121	13693.06
443.328	13361.29
443.534	14372.99
443.741	13953.15
443.948	13901.95
444.154	14692.47
444.361	14499.96
444.568	14661.75
444.774	14829.68
444.981	15108.21
445.187	15364.2
445.394	16121.95
445.6	15671.4
445.807	17160.27
446.013	16668.76
446.22	16918.61
446.426	17541.19
446.633	17832.01
446.839	18434.11
447.046	17743.94
447.252	18982.96
447.459	18481.21
447.665	18649.14
447.871	19245.1
448.078	20322.34
448.284	19351.6
448.491	19918.89
448.697	20621.34
448.903	21041.17
449.11	21153.81
449.316	20578.33
449.522	21407.76
449.728	21807.11
449.935	21868.55
450.141	21606.41
450.347	22503.42
450.553	21608.46
450.76	22007.81
450.966	22646.78
451.172	22169.6
451.378	23080.95
451.584	22310.91
451.791	22951.93
451.997	23207.92
452.203	23422.96
452.409	23310.32
452.615	23504.88
452.821	22398.98
453.027	22253.57
453.233	23420.91
453.44	22384.64
453.646	22726.65
453.852	22827
454.058	23171.06
454.264	22644.73
454.47	22544.38
454.676	22333.44
454.882	23191.54
455.088	21119
455.294	21301.26
455.5	21682.19
455.705	22265.86
455.911	21141.52
456.117	20885.53
456.323	20234.27
456.529	19370.03
456.735	20099.11
456.941	19427.37
457.147	19236.91
457.352	18798.65
457.558	18233.41
457.764	18384.96
457.97	18223.17
458.176	18128.96
458.381	17520.71
458.587	16746.58
458.793	16801.88
458.999	15921.25
459.204	16869.46
459.41	16699.48
459.616	15437.93
459.821	15478.89
460.027	15376.49
460.233	15085.68
460.438	14762.1
460.644	14409.85
460.85	14028.93
461.055	13572.23
461.261	13467.78
461.466	12759.19
461.672	12081.31
461.878	13103.25
462.083	12148.89
462.289	11925.66
462.494	11894.94
462.7	11526.31
462.905	11210.92
463.111	11663.52
463.316	11419.82
463.522	11415.72
463.727	11262.12
463.932	11094.19
464.138	10950.83
464.343	11153.58
464.549	10965.17
464.754	11032.75
464.959	11223.21
465.165	10981.55
465.37	10469.56
465.575	10289.34
465.781	10821.81
465.986	10764.47
466.191	10168.51
466.397	9965.76
466.602	9525.44
466.807	10064.06
467.012	10019
467.218	10025.15
467.423	9953.47
467.628	9932.99
467.833	10340.54
