Data from USB4F104151__6__12-23-19-649.txt Node

Date: Fri Mar 14 12:23:19 EDT 2025
User: louis
Spectrometer: USB4F10415
Trigger mode: 4
Integration Time (sec): 3.500000E-2
Scans to average: 1
Electric dark correction enabled: true
Nonlinearity correction enabled: false
Boxcar width: 0
XAxis mode: Wavelengths
Number of Pixels in Spectrum: 3648
>>>>>Begin Spectral Data<<<<<
178.204	-149.67
178.424	-149.67
178.644	-149.67
178.864	-110.76
179.084	-51.37
179.304	-20.65
179.524	-32.94
179.744	-22.7
179.964	42.84
180.184	61.27
180.404	-32.94
180.624	28.5
180.844	81.75
181.064	-123.05
181.283	-8.36
181.503	-30.89
181.723	57.17
181.943	-65.71
182.163	108.37
182.383	-10.41
182.602	30.55
182.822	87.89
183.042	44.88
183.262	81.75
183.482	77.65
183.701	16.21
183.921	3.93
184.141	-43.18
184.361	55.12
184.58	44.88
184.8	-10.41
185.02	94.04
185.239	89.94
185.459	16.21
185.679	-8.36
185.898	-2.22
186.118	44.88
186.338	69.46
186.557	28.5
186.777	-2.22
186.997	-24.75
187.216	87.89
187.436	57.17
187.655	73.56
187.875	-16.55
188.095	104.28
188.314	94.04
188.534	87.89
188.753	26.45
188.973	55.12
189.192	85.84
189.412	53.08
189.631	63.32
189.851	38.74
190.07	94.04
190.29	3.93
190.509	18.26
190.729	36.69
190.948	61.27
191.168	239.44
191.387	67.41
191.607	-41.13
191.826	28.5
192.045	36.69
192.265	10.07
192.484	-2.22
192.704	3.93
192.923	22.36
193.142	116.56
193.362	67.41
193.581	100.18
193.8	3.93
194.02	42.84
194.239	46.93
194.458	30.55
194.678	36.69
194.897	24.4
195.116	24.4
195.335	-22.7
195.555	63.32
195.774	55.12
195.993	1.88
196.212	5.97
196.432	-0.17
196.651	-12.46
196.87	32.6
197.089	124.76
197.308	46.93
197.528	100.18
197.747	-22.7
197.966	65.36
198.185	81.75
198.404	59.22
198.623	38.74
198.842	91.99
199.062	30.55
199.281	126.8
199.5	61.27
199.719	69.46
199.938	61.27
200.157	51.03
200.376	114.52
200.595	51.03
200.814	71.51
201.033	61.27
201.252	75.6
201.471	38.74
201.69	65.36
201.909	87.89
202.128	55.12
202.347	57.17
202.566	71.51
202.785	-53.42
203.004	48.98
203.223	102.23
203.442	38.74
203.661	3.93
203.879	102.23
204.098	94.04
204.317	16.21
204.536	32.6
204.755	100.18
204.974	24.4
205.193	14.17
205.411	147.28
205.63	91.99
205.849	26.45
206.068	42.84
206.287	32.6
206.505	-34.99
206.724	42.84
206.943	-18.6
207.162	32.6
207.381	3.93
207.599	40.79
207.818	34.64
208.037	8.02
208.255	-14.51
208.474	16.21
208.693	44.88
208.911	30.55
209.13	75.6
209.349	61.27
209.567	79.7
209.786	59.22
210.005	59.22
210.223	40.79
210.442	-10.41
210.661	38.74
210.879	30.55
211.098	106.32
211.316	69.46
211.535	108.37
211.753	44.88
211.972	48.98
212.191	-2.22
212.409	-6.31
212.628	30.55
212.846	-14.51
213.065	22.36
213.283	94.04
213.502	-4.27
213.72	28.5
213.938	51.03
214.157	59.22
214.375	75.6
214.594	63.32
214.812	8.02
215.031	-53.42
215.249	44.88
215.467	3.93
215.686	14.17
215.904	65.36
216.122	48.98
216.341	51.03
216.559	40.79
216.778	75.6
216.996	-30.89
217.214	26.45
217.432	-12.46
217.651	-16.55
217.869	10.07
218.087	24.4
218.306	-47.27
218.524	-22.7
218.742	1.88
218.96	42.84
219.179	26.45
219.397	5.97
219.615	120.66
219.833	42.84
220.051	-8.36
220.27	65.36
220.488	18.26
220.706	14.17
220.924	-45.23
221.142	40.79
221.36	46.93
221.578	3.93
221.796	8.02
222.015	65.36
222.233	102.23
222.451	120.66
222.669	46.93
222.887	77.65
223.105	18.26
223.323	20.31
223.541	-14.51
223.759	73.56
223.977	30.55
224.195	55.12
224.413	28.5
224.631	57.17
224.849	67.41
225.067	51.03
225.285	-28.84
225.503	-16.55
225.721	32.6
225.939	32.6
226.157	44.88
226.375	151.38
226.592	48.98
226.81	26.45
227.028	26.45
227.246	132.95
227.464	77.65
227.682	59.22
227.9	51.03
228.117	16.21
228.335	26.45
228.553	42.84
228.771	63.32
228.989	3.93
229.206	71.51
229.424	-22.7
229.642	53.08
229.86	14.17
230.077	14.17
230.295	10.07
230.513	51.03
230.731	40.79
230.948	46.93
231.166	91.99
231.384	3.93
231.601	-32.94
231.819	137.04
232.037	108.37
232.254	20.31
232.472	16.21
232.689	1.88
232.907	89.94
233.125	-30.89
233.342	32.6
233.56	20.31
233.777	61.27
233.995	59.22
234.213	8.02
234.43	-18.6
234.648	38.74
234.865	59.22
235.083	192.34
235.3	20.31
235.518	75.6
235.735	69.46
235.953	38.74
236.17	51.03
236.388	42.84
236.605	-6.31
236.822	-10.41
237.04	104.28
237.257	14.17
237.475	36.69
237.692	-28.84
237.909	48.98
238.127	46.93
238.344	65.36
238.562	48.98
238.779	67.41
238.996	-24.75
239.214	18.26
239.431	91.99
239.648	-8.36
239.865	100.18
240.083	110.42
240.3	-12.46
240.517	22.36
240.735	18.26
240.952	61.27
241.169	59.22
241.386	-4.27
241.603	71.51
241.821	16.21
242.038	59.22
242.255	67.41
242.472	-18.6
242.689	65.36
242.907	16.21
243.124	89.94
243.341	-6.31
243.558	51.03
243.775	40.79
243.992	18.26
244.209	55.12
244.426	1.88
244.643	30.55
244.86	48.98
245.078	-2.22
245.295	69.46
245.512	98.13
245.729	28.5
245.946	65.36
246.163	16.21
246.38	-26.79
246.597	81.75
246.814	22.36
247.031	63.32
247.248	26.45
247.464	102.23
247.681	57.17
247.898	42.84
248.115	-0.17
248.332	10.07
248.549	51.03
248.766	118.61
248.983	114.52
249.2	-20.65
249.417	73.56
249.633	30.55
249.85	65.36
250.067	-12.46
250.284	46.93
250.501	36.69
250.717	8.02
250.934	-20.65
251.151	-39.08
251.368	55.12
251.585	22.36
251.801	98.13
252.018	-12.46
252.235	98.13
252.451	-32.94
252.668	46.93
252.885	40.79
253.102	-12.46
253.318	85.84
253.535	55.12
253.752	63.32
253.968	38.74
254.185	3.93
254.401	59.22
254.618	145.24
254.835	59.22
255.051	26.45
255.268	57.17
255.484	69.46
255.701	104.28
255.917	96.08
256.134	-0.17
256.351	18.26
256.567	20.31
256.784	22.36
257	-43.18
257.217	85.84
257.433	71.51
257.65	30.55
257.866	94.04
258.082	51.03
258.299	71.51
258.515	65.36
258.732	8.02
258.948	-26.79
259.165	8.02
259.381	-4.27
259.597	48.98
259.814	61.27
260.03	51.03
260.246	38.74
260.463	67.41
260.679	59.22
260.895	-2.22
261.112	24.4
261.328	16.21
261.544	34.64
261.761	98.13
261.977	59.22
262.193	-18.6
262.409	108.37
262.626	5.97
262.842	34.64
263.058	-34.99
263.274	40.79
263.49	-55.47
263.707	8.02
263.923	12.12
264.139	12.12
264.355	8.02
264.571	120.66
264.787	75.6
265.004	94.04
265.22	155.47
265.436	32.6
265.652	28.5
265.868	36.69
266.084	-10.41
266.3	73.56
266.516	20.31
266.732	32.6
266.948	42.84
267.164	87.89
267.38	-18.6
267.596	55.12
267.812	108.37
268.028	114.52
268.244	1.88
268.46	28.5
268.676	30.55
268.892	83.8
269.108	-26.79
269.324	42.84
269.54	24.4
269.756	24.4
269.972	-8.36
270.188	-4.27
270.403	5.97
270.619	14.17
270.835	61.27
271.051	81.75
271.267	26.45
271.483	59.22
271.698	8.02
271.914	44.88
272.13	-2.22
272.346	69.46
272.562	38.74
272.777	67.41
272.993	46.93
273.209	26.45
273.425	91.99
273.64	-43.18
273.856	-34.99
274.072	44.88
274.287	12.12
274.503	122.71
274.719	124.76
274.934	10.07
275.15	16.21
275.366	98.13
275.581	12.12
275.797	44.88
276.012	104.28
276.228	59.22
276.444	5.97
276.659	65.36
276.875	-2.22
277.09	34.64
277.306	18.26
277.521	42.84
277.737	8.02
277.952	26.45
278.168	63.32
278.383	55.12
278.599	42.84
278.814	51.03
279.03	94.04
279.245	89.94
279.461	89.94
279.676	44.88
279.892	-4.27
280.107	-6.31
280.322	32.6
280.538	36.69
280.753	-26.79
280.969	83.8
281.184	96.08
281.399	67.41
281.615	149.33
281.83	46.93
282.045	-47.27
282.26	34.64
282.476	-22.7
282.691	69.46
282.906	30.55
283.122	100.18
283.337	26.45
283.552	44.88
283.767	18.26
283.983	71.51
284.198	42.84
284.413	87.89
284.628	22.36
284.843	-34.99
285.058	69.46
285.274	36.69
285.489	-14.51
285.704	46.93
285.919	-14.51
286.134	38.74
286.349	53.08
286.564	65.36
286.779	81.75
286.995	-41.13
287.21	-37.03
287.425	46.93
287.64	53.08
287.855	30.55
288.07	44.88
288.285	75.6
288.5	59.22
288.715	-16.55
288.93	-24.75
289.145	8.02
289.36	44.88
289.575	55.12
289.79	20.31
290.004	30.55
290.219	71.51
290.434	28.5
290.649	20.31
290.864	57.17
291.079	-2.22
291.294	61.27
291.509	85.84
291.724	77.65
291.938	-2.22
292.153	143.19
292.368	-14.51
292.583	61.27
292.798	55.12
293.012	36.69
293.227	32.6
293.442	48.98
293.657	79.7
293.871	94.04
294.086	22.36
294.301	85.84
294.516	16.21
294.73	73.56
294.945	-63.66
295.16	20.31
295.374	81.75
295.589	122.71
295.804	18.26
296.018	-6.31
296.233	14.17
296.447	55.12
296.662	28.5
296.877	96.08
297.091	16.21
297.306	59.22
297.52	-41.13
297.735	69.46
297.949	14.17
298.164	114.52
298.378	79.7
298.593	30.55
298.807	14.17
299.022	40.79
299.236	128.85
299.451	77.65
299.665	-6.31
299.88	26.45
300.094	55.12
300.309	32.6
300.523	34.64
300.737	-30.89
300.952	36.69
301.166	81.75
301.381	12.12
301.595	57.17
301.809	75.6
302.024	-4.27
302.238	-51.37
302.452	36.69
302.667	-4.27
302.881	165.71
303.095	1.88
303.309	-26.79
303.524	3.93
303.738	102.23
303.952	26.45
304.166	75.6
304.381	38.74
304.595	10.07
304.809	63.32
305.023	-43.18
305.237	36.69
305.452	-16.55
305.666	75.6
305.88	100.18
306.094	106.32
306.308	42.84
306.522	79.7
306.736	24.4
306.95	30.55
307.164	-10.41
307.379	24.4
307.593	83.8
307.807	63.32
308.021	48.98
308.235	34.64
308.449	-24.75
308.663	40.79
308.877	40.79
309.091	36.69
309.305	10.07
309.519	-14.51
309.733	1.88
309.947	-18.6
310.161	114.52
310.374	12.12
310.588	69.46
310.802	32.6
311.016	48.98
311.23	8.02
311.444	132.95
311.658	12.12
311.872	32.6
312.085	40.79
312.299	75.6
312.513	71.51
312.727	36.69
312.941	44.88
313.154	12.12
313.368	65.36
313.582	81.75
313.796	77.65
314.009	106.32
314.223	44.88
314.437	40.79
314.651	-14.51
314.864	16.21
315.078	32.6
315.292	46.93
315.505	81.75
315.719	8.02
315.933	65.36
316.146	20.31
316.36	16.21
316.573	69.46
316.787	98.13
317.001	135
317.214	55.12
317.428	65.36
317.641	3.93
317.855	100.18
318.068	44.88
318.282	135
318.495	100.18
318.709	96.08
318.922	-49.32
319.136	163.67
319.349	85.84
319.563	-26.79
319.776	122.71
319.99	46.93
320.203	34.64
320.417	44.88
320.63	40.79
320.843	112.47
321.057	94.04
321.27	10.07
321.483	8.02
321.697	112.47
321.91	12.12
322.124	91.99
322.337	55.12
322.55	61.27
322.763	34.64
322.977	57.17
323.19	-14.51
323.403	-22.7
323.617	-14.51
323.83	65.36
324.043	48.98
324.256	65.36
324.469	-28.84
324.683	118.61
324.896	14.17
325.109	18.26
325.322	18.26
325.535	75.6
325.748	53.08
325.962	-4.27
326.175	12.12
326.388	63.32
326.601	51.03
326.814	104.28
327.027	75.6
327.24	122.71
327.453	-28.84
327.666	100.18
327.879	38.74
328.092	55.12
328.305	18.26
328.518	1.88
328.731	-20.65
328.944	40.79
329.157	61.27
329.37	89.94
329.583	59.22
329.796	91.99
330.009	16.21
330.222	57.17
330.435	14.17
330.648	-30.89
330.861	28.5
331.073	100.18
331.286	67.41
331.499	91.99
331.712	100.18
331.925	14.17
332.138	67.41
332.35	98.13
332.563	48.98
332.776	100.18
332.989	32.6
333.202	36.69
333.414	104.28
333.627	36.69
333.84	79.7
334.053	16.21
334.265	42.84
334.478	53.08
334.691	71.51
334.903	1.88
335.116	14.17
335.329	30.55
335.541	-12.46
335.754	143.19
335.966	24.4
336.179	32.6
336.392	18.26
336.604	42.84
336.817	38.74
337.029	89.94
337.242	18.26
337.454	69.46
337.667	-6.31
337.88	75.6
338.092	1.88
338.305	143.19
338.517	73.56
338.729	63.32
338.942	30.55
339.154	57.17
339.367	-30.89
339.579	36.69
339.792	116.56
340.004	26.45
340.217	20.31
340.429	69.46
340.641	77.65
340.854	44.88
341.066	20.31
341.278	100.18
341.491	132.95
341.703	104.28
341.915	51.03
342.128	63.32
342.34	1.88
342.552	22.36
342.764	-4.27
342.977	40.79
343.189	16.21
343.401	94.04
343.613	32.6
343.826	126.8
344.038	-20.65
344.25	42.84
344.462	42.84
344.674	42.84
344.886	3.93
345.099	57.17
345.311	110.42
345.523	65.36
345.735	14.17
345.947	112.47
346.159	51.03
346.371	104.28
346.583	71.51
346.795	110.42
347.007	-0.17
347.219	40.79
347.431	59.22
347.643	106.32
347.855	-22.7
348.067	89.94
348.279	81.75
348.491	67.41
348.703	36.69
348.915	8.02
349.127	48.98
349.339	51.03
349.551	12.12
349.763	26.45
349.975	30.55
350.187	135
350.399	81.75
350.61	22.36
350.822	36.69
351.034	71.51
351.246	98.13
351.458	12.12
351.669	73.56
351.881	67.41
352.093	67.41
352.305	75.6
352.517	18.26
352.728	153.43
352.94	1.88
353.152	137.04
353.363	28.5
353.575	87.89
353.787	141.14
353.999	46.93
354.21	83.8
354.422	24.4
354.633	32.6
354.845	10.07
355.057	59.22
355.268	57.17
355.48	83.8
355.692	26.45
355.903	-16.55
356.115	32.6
356.326	-69.8
356.538	69.46
356.749	-22.7
356.961	120.66
357.172	42.84
357.384	81.75
357.595	173.91
357.807	22.36
358.018	-8.36
358.23	67.41
358.441	67.41
358.653	71.51
358.864	32.6
359.075	20.31
359.287	36.69
359.498	30.55
359.709	42.84
359.921	69.46
360.132	26.45
360.344	55.12
360.555	38.74
360.766	40.79
360.977	14.17
361.189	132.95
361.4	-4.27
361.611	132.95
361.823	73.56
362.034	51.03
362.245	28.5
362.456	38.74
362.667	94.04
362.879	10.07
363.09	112.47
363.301	57.17
363.512	24.4
363.723	30.55
363.935	32.6
364.146	28.5
364.357	91.99
364.568	55.12
364.779	18.26
364.99	65.36
365.201	38.74
365.412	94.04
365.623	32.6
365.834	3.93
366.045	38.74
366.256	91.99
366.467	104.28
366.678	96.08
366.889	94.04
367.1	16.21
367.311	24.4
367.522	-12.46
367.733	-2.22
367.944	77.65
368.155	96.08
368.366	65.36
368.577	83.8
368.788	83.8
368.999	22.36
369.209	12.12
369.42	57.17
369.631	153.43
369.842	32.6
370.053	-18.6
370.264	79.7
370.474	20.31
370.685	57.17
370.896	69.46
371.107	147.28
371.317	30.55
371.528	114.52
371.739	79.7
371.95	126.8
372.16	98.13
372.371	12.12
372.582	-4.27
372.792	40.79
373.003	137.04
373.214	61.27
373.424	85.84
373.635	-16.55
373.846	106.32
374.056	24.4
374.267	32.6
374.477	38.74
374.688	63.32
374.898	42.84
375.109	59.22
375.319	102.23
375.53	26.45
375.74	20.31
375.951	53.08
376.161	69.46
376.372	71.51
376.582	59.22
376.793	1.88
377.003	69.46
377.214	61.27
377.424	30.55
377.635	18.26
377.845	53.08
378.055	89.94
378.266	42.84
378.476	48.98
378.686	130.9
378.897	145.24
379.107	55.12
379.317	118.61
379.528	63.32
379.738	71.51
379.948	32.6
380.158	73.56
380.369	3.93
380.579	69.46
380.789	30.55
380.999	118.61
381.21	100.18
381.42	116.56
381.63	124.76
381.84	65.36
382.05	42.84
382.261	65.36
382.471	94.04
382.681	40.79
382.891	48.98
383.101	143.19
383.311	3.93
383.521	24.4
383.731	102.23
383.941	65.36
384.151	24.4
384.361	69.46
384.571	26.45
384.781	100.18
384.991	143.19
385.201	51.03
385.411	40.79
385.621	26.45
385.831	55.12
386.041	69.46
386.251	116.56
386.461	26.45
386.671	102.23
386.881	65.36
387.091	26.45
387.301	79.7
387.511	22.36
387.72	91.99
387.93	175.95
388.14	67.41
388.35	-10.41
388.56	81.75
388.769	69.46
388.979	85.84
389.189	65.36
389.399	61.27
389.609	73.56
389.818	48.98
390.028	63.32
390.238	110.42
390.447	36.69
390.657	102.23
390.867	18.26
391.076	-2.22
391.286	89.94
391.496	106.32
391.705	16.21
391.915	73.56
392.125	102.23
392.334	53.08
392.544	94.04
392.753	124.76
392.963	77.65
393.172	89.94
393.382	14.17
393.591	87.89
393.801	98.13
394.01	83.8
394.22	53.08
394.429	73.56
394.639	20.31
394.848	67.41
395.058	75.6
395.267	126.8
395.477	94.04
395.686	48.98
395.895	130.9
396.105	165.71
396.314	73.56
396.524	16.21
396.733	91.99
396.942	159.57
397.152	116.56
397.361	89.94
397.57	124.76
397.78	-2.22
397.989	79.7
398.198	112.47
398.407	141.14
398.617	48.98
398.826	83.8
399.035	126.8
399.244	79.7
399.453	91.99
399.663	132.95
399.872	57.17
400.081	38.74
400.29	94.04
400.499	65.36
400.708	188.24
400.917	108.37
401.127	42.84
401.336	36.69
401.545	137.04
401.754	200.53
401.963	149.33
402.172	67.41
402.381	83.8
402.59	126.8
402.799	132.95
403.008	83.8
403.217	180.05
403.426	96.08
403.635	132.95
403.844	94.04
404.053	28.5
404.262	55.12
404.471	180.05
404.68	94.04
404.888	77.65
405.097	98.13
405.306	130.9
405.515	139.09
405.724	135
405.933	200.53
406.142	124.76
406.35	178
406.559	132.95
406.768	188.24
406.977	247.63
407.185	139.09
407.394	194.39
407.603	96.08
407.812	241.49
408.02	210.77
408.229	165.71
408.438	157.52
408.646	104.28
408.855	184.15
409.064	196.43
409.272	114.52
409.481	200.53
409.69	165.71
409.898	204.63
410.107	272.21
410.315	175.95
410.524	202.58
410.733	216.91
410.941	192.34
411.15	307.02
411.358	231.25
411.567	300.88
411.775	261.97
411.984	374.61
412.192	368.46
412.401	313.17
412.609	409.42
412.818	313.17
413.026	317.26
413.234	325.46
413.443	399.18
413.651	393.04
413.86	417.61
414.068	526.16
414.276	515.92
414.485	540.49
414.693	466.77
414.901	454.48
415.11	481.1
415.318	522.06
415.526	509.77
415.734	558.92
415.943	571.21
416.151	579.4
416.359	591.69
416.567	546.64
416.776	597.84
416.984	626.51
417.192	704.33
417.4	649.04
417.608	661.32
417.817	737.1
418.025	802.63
418.233	800.59
418.441	790.35
418.649	821.06
418.857	915.27
419.065	1007.43
419.273	902.98
419.481	1017.67
419.689	1054.53
419.897	964.42
420.105	1029.96
420.313	1158.98
420.521	1187.65
420.729	1165.12
420.937	1154.88
421.145	1247.04
421.353	1285.95
421.561	1345.34
421.769	1382.21
421.977	1306.43
422.185	1357.63
422.393	1478.46
422.601	1593.15
422.809	1578.81
423.017	1627.96
423.224	1601.34
423.432	1851.19
423.64	1881.91
423.848	1898.3
424.056	1910.58
424.263	2041.65
424.471	2088.76
424.679	2041.65
424.887	2197.3
425.094	2219.83
425.302	2242.36
425.51	2320.18
425.718	2410.29
425.925	2422.58
426.133	2576.17
426.341	2578.22
426.548	2772.78
426.756	2662.19
426.964	2742.06
427.171	2971.43
427.379	2879.27
427.586	3209
427.794	3147.56
428.001	3299.11
428.209	3573.53
428.417	3436.32
428.624	3712.8
428.832	3749.66
429.039	3667.74
429.247	3618.59
429.454	3989.27
429.662	4198.17
429.869	4013.85
430.076	4177.69
430.284	4087.57
430.491	4243.22
430.699	4552.46
430.906	4536.08
431.114	4620.05
431.321	4830.99
431.528	4681.49
431.736	5355.27
431.943	5379.84
432.15	5306.12
432.358	5213.96
432.565	5644.03
432.772	5631.74
432.979	5908.22
433.187	5703.42
433.394	5879.55
433.601	6452.98
433.808	6463.22
434.016	6629.1
434.223	6715.12
434.43	7188.2
434.637	7005.93
434.844	7454.44
435.052	7511.78
435.259	7384.8
435.466	7395.04
435.673	7765.73
435.88	7800.54
436.087	8568.53
436.294	8478.42
436.501	8226.52
436.708	8326.87
436.915	8687.31
437.122	9043.66
437.329	8916.69
437.537	9342.66
437.743	9490.12
437.95	9170.63
438.157	10016.44
438.364	10194.62
438.571	10282.68
438.778	10491.57
438.985	11181.74
439.192	10690.23
439.399	11099.82
439.606	10921.65
439.813	11458.21
440.02	12052.13
440.227	12070.56
440.433	11888.29
440.64	12412.57
440.847	12002.97
441.054	12390.04
441.261	13301.39
441.467	13317.77
441.674	13424.26
441.881	14073.47
442.088	13985.41
442.294	13758.08
442.501	14171.77
442.708	14298.75
442.914	14780.02
443.121	15439.47
443.328	15289.96
443.534	16426.59
443.741	15674.98
443.948	15838.82
444.154	16688.73
444.361	16522.84
444.568	16795.22
444.774	16684.63
444.981	16856.66
445.187	17663.56
445.394	18163.26
445.6	17903.17
445.807	19836.45
446.013	19123.76
446.22	19342.89
446.426	20342.3
446.633	20256.29
446.839	21261.84
447.046	19875.37
447.252	21167.63
447.459	21272.08
447.665	21116.44
447.871	22304.26
448.078	23023.09
448.284	21822.98
448.491	22619.64
448.697	23412.21
448.903	23891.43
449.11	23993.83
449.316	23244.27
449.522	24149.48
449.728	24311.27
449.935	24665.56
450.141	24634.85
450.347	25435.6
450.553	24657.37
450.76	25140.69
450.966	25501.14
451.172	25347.54
451.378	26058.18
451.584	25593.29
451.791	26070.47
451.997	26019.27
452.203	26439.11
452.409	26209.73
452.615	26262.98
452.821	25468.37
453.027	25177.56
453.233	26637.76
453.44	25361.87
453.646	25609.68
453.852	25701.84
454.058	26234.31
454.264	25118.17
454.47	25650.64
454.676	25320.91
454.882	26265.03
455.088	23735.79
455.294	24360.42
455.5	24468.96
455.705	24675.8
455.911	23954.92
456.117	23612.91
456.323	23266.8
456.529	21960.2
456.735	22830.58
456.941	22257.15
457.147	22101.51
457.352	20919.83
457.558	21057.04
457.764	21184.02
457.97	20696.6
458.176	20209.18
458.381	19955.24
458.587	19072.56
458.793	18900.53
458.999	18202.18
459.204	19385.9
459.41	19000.88
459.616	17614.41
459.821	17534.54
460.027	17335.88
460.233	17518.15
460.438	16250.46
460.644	16461.4
460.85	15871.59
461.055	15375.98
461.261	15629.93
461.466	14220.92
461.672	13891.2
461.878	14792.31
462.083	13958.78
462.289	13733.51
462.494	13420.17
462.7	12947.09
462.905	12387.99
463.111	13112.97
463.316	13055.63
463.522	12899.98
463.727	12887.7
463.932	12684.95
464.138	12627.6
464.343	12635.8
464.549	12275.35
464.754	12568.21
464.959	12586.65
465.165	12590.74
465.37	11886.24
465.575	11583.14
465.781	12054.17
465.986	12080.8
466.191	11613.86
466.397	11458.21
466.602	10897.07
466.807	11482.79
467.012	11329.19
467.218	11302.57
467.423	11200.17
467.628	11144.88
467.833	11787.94
