Data from USB4F104151__18__12-23-27-102.txt Node

Date: Fri Mar 14 12:23:27 EDT 2025
User: louis
Spectrometer: USB4F10415
Trigger mode: 4
Integration Time (sec): 3.500000E-2
Scans to average: 1
Electric dark correction enabled: true
Nonlinearity correction enabled: false
Boxcar width: 0
XAxis mode: Wavelengths
Number of Pixels in Spectrum: 3648
>>>>>Begin Spectral Data<<<<<
178.204	-167.76
178.424	-167.76
178.644	-167.76
178.864	-104.28
179.084	-198.48
179.304	18.6
179.524	39.08
179.744	-40.79
179.964	10.41
180.184	-75.6
180.404	20.65
180.624	-22.36
180.844	-20.31
181.064	26.79
181.283	-8.02
181.503	12.46
181.723	39.08
181.943	26.79
182.163	30.89
182.383	-30.55
182.602	-10.07
182.822	10.41
183.042	14.51
183.262	16.55
183.482	-63.32
183.701	-18.26
183.921	-48.98
184.141	-30.55
184.361	114.86
184.58	22.7
184.8	61.61
185.02	-36.69
185.239	51.37
185.459	34.99
185.679	59.56
185.898	59.56
186.118	61.61
186.338	26.79
186.557	96.43
186.777	8.36
186.997	4.27
187.216	30.89
187.436	67.75
187.655	94.38
187.875	45.23
188.095	67.75
188.314	-1.88
188.534	30.89
188.753	34.99
188.973	-30.55
189.192	143.53
189.412	16.55
189.631	-28.5
189.851	39.08
190.07	92.33
190.29	-14.17
190.509	16.55
190.729	24.75
190.948	90.28
191.168	166.06
191.387	114.86
191.607	16.55
191.826	75.95
192.045	82.09
192.265	14.51
192.484	18.6
192.704	155.82
192.923	30.89
193.142	143.53
193.362	22.7
193.581	57.51
193.8	49.32
194.02	88.23
194.239	26.79
194.458	51.37
194.678	-12.12
194.897	86.19
195.116	55.47
195.335	18.6
195.555	84.14
195.774	49.32
195.993	90.28
196.212	32.94
196.432	88.23
196.651	0.17
196.87	6.31
197.089	69.8
197.308	61.61
197.528	30.89
197.747	53.42
197.966	125.1
198.185	80.04
198.404	47.27
198.623	37.03
198.842	-5.97
199.062	94.38
199.281	63.66
199.5	75.95
199.719	84.14
199.938	22.7
200.157	22.7
200.376	127.14
200.595	82.09
200.814	55.47
201.033	10.41
201.252	59.56
201.471	63.66
201.69	43.18
201.909	8.36
202.128	57.51
202.347	69.8
202.566	-16.21
202.785	-14.17
203.004	-12.12
203.223	110.76
203.442	4.27
203.661	84.14
203.879	71.85
204.098	77.99
204.317	-73.56
204.536	125.1
204.755	80.04
204.974	106.67
205.193	24.75
205.411	164.01
205.63	4.27
205.849	114.86
206.068	47.27
206.287	57.51
206.505	26.79
206.724	-5.97
206.943	75.95
207.162	6.31
207.381	92.33
207.599	-16.21
207.818	84.14
208.037	16.55
208.255	125.1
208.474	82.09
208.693	45.23
208.911	-16.21
209.13	90.28
209.349	30.89
209.567	49.32
209.786	77.99
210.005	20.65
210.223	49.32
210.442	-22.36
210.661	-12.12
210.879	84.14
211.098	-16.21
211.316	88.23
211.535	100.52
211.753	-14.17
211.972	88.23
212.191	-1.88
212.409	137.38
212.628	71.85
212.846	18.6
213.065	110.76
213.283	125.1
213.502	39.08
213.72	4.27
213.938	8.36
214.157	71.85
214.375	4.27
214.594	14.51
214.812	-40.79
215.031	30.89
215.249	-30.55
215.467	71.85
215.686	106.67
215.904	45.23
216.122	8.36
216.341	51.37
216.559	53.42
216.778	55.47
216.996	80.04
217.214	34.99
217.432	28.84
217.651	-26.45
217.869	18.6
218.087	69.8
218.306	0.17
218.524	147.62
218.742	4.27
218.96	96.43
219.179	69.8
219.397	41.13
219.615	92.33
219.833	43.18
220.051	-16.21
220.27	84.14
220.488	86.19
220.706	8.36
220.924	67.75
221.142	59.56
221.36	18.6
221.578	55.47
221.796	2.22
222.015	20.65
222.233	69.8
222.451	67.75
222.669	2.22
222.887	61.61
223.105	-24.4
223.323	32.94
223.541	55.47
223.759	28.84
223.977	6.31
224.195	57.51
224.413	69.8
224.631	59.56
224.849	30.89
225.067	125.1
225.285	63.66
225.503	4.27
225.721	-5.97
225.939	88.23
226.157	-30.55
226.375	139.43
226.592	112.81
226.81	49.32
227.028	8.36
227.246	86.19
227.464	65.71
227.682	73.9
227.9	75.95
228.117	86.19
228.335	73.9
228.553	77.99
228.771	30.89
228.989	-3.93
229.206	32.94
229.424	43.18
229.642	-26.45
229.86	49.32
230.077	59.56
230.295	121
230.513	108.71
230.731	88.23
230.948	34.99
231.166	123.05
231.384	63.66
231.601	41.13
231.819	53.42
232.037	14.51
232.254	61.61
232.472	65.71
232.689	57.51
232.907	51.37
233.125	26.79
233.342	59.56
233.56	10.41
233.777	41.13
233.995	14.51
234.213	82.09
234.43	57.51
234.648	39.08
234.865	92.33
235.083	100.52
235.3	18.6
235.518	108.71
235.735	59.56
235.953	67.75
236.17	28.84
236.388	-40.79
236.605	49.32
236.822	41.13
237.04	61.61
237.257	41.13
237.475	-10.07
237.692	32.94
237.909	47.27
238.127	-5.97
238.344	65.71
238.562	86.19
238.779	-1.88
238.996	53.42
239.214	32.94
239.431	2.22
239.648	-22.36
239.865	118.95
240.083	57.51
240.3	28.84
240.517	22.7
240.735	88.23
240.952	26.79
241.169	47.27
241.386	69.8
241.603	88.23
241.821	-16.21
242.038	69.8
242.255	41.13
242.472	12.46
242.689	0.17
242.907	80.04
243.124	47.27
243.341	14.51
243.558	71.85
243.775	59.56
243.992	2.22
244.209	141.48
244.426	112.81
244.643	75.95
244.86	32.94
245.078	59.56
245.295	39.08
245.512	18.6
245.729	75.95
245.946	45.23
246.163	104.62
246.38	61.61
246.597	41.13
246.814	34.99
247.031	53.42
247.248	24.75
247.464	20.65
247.681	37.03
247.898	49.32
248.115	34.99
248.332	0.17
248.549	45.23
248.766	110.76
248.983	59.56
249.2	12.46
249.417	141.48
249.633	49.32
249.85	100.52
250.067	100.52
250.284	-3.93
250.501	88.23
250.717	73.9
250.934	-24.4
251.151	47.27
251.368	53.42
251.585	77.99
251.801	59.56
252.018	59.56
252.235	116.9
252.451	28.84
252.668	47.27
252.885	59.56
253.102	112.81
253.318	86.19
253.535	45.23
253.752	4.27
253.968	8.36
254.185	43.18
254.401	112.81
254.618	49.32
254.835	34.99
255.051	104.62
255.268	32.94
255.484	18.6
255.701	86.19
255.917	110.76
256.134	-14.17
256.351	8.36
256.567	39.08
256.784	47.27
257	-26.45
257.217	75.95
257.433	155.82
257.65	106.67
257.866	43.18
258.082	22.7
258.299	41.13
258.515	123.05
258.732	-63.32
258.948	45.23
259.165	18.6
259.381	39.08
259.597	14.51
259.814	-20.31
260.03	157.86
260.246	45.23
260.463	-20.31
260.679	133.29
260.895	57.51
261.112	82.09
261.328	2.22
261.544	-8.02
261.761	143.53
261.977	8.36
262.193	28.84
262.409	59.56
262.626	98.47
262.842	65.71
263.058	18.6
263.274	65.71
263.49	51.37
263.707	90.28
263.923	41.13
264.139	16.55
264.355	51.37
264.571	51.37
264.787	20.65
265.004	73.9
265.22	-5.97
265.436	53.42
265.652	-14.17
265.868	61.61
266.084	32.94
266.3	55.47
266.516	69.8
266.732	12.46
266.948	77.99
267.164	65.71
267.38	55.47
267.596	88.23
267.812	75.95
268.028	20.65
268.244	30.89
268.46	73.9
268.676	-16.21
268.892	32.94
269.108	24.75
269.324	-12.12
269.54	51.37
269.756	139.43
269.972	20.65
270.188	32.94
270.403	22.7
270.619	55.47
270.835	6.31
271.051	84.14
271.267	0.17
271.483	2.22
271.698	75.95
271.914	92.33
272.13	-22.36
272.346	-26.45
272.562	8.36
272.777	0.17
272.993	14.51
273.209	0.17
273.425	88.23
273.64	45.23
273.856	90.28
274.072	37.03
274.287	6.31
274.503	75.95
274.719	43.18
274.934	-77.65
275.15	32.94
275.366	55.47
275.581	47.27
275.797	37.03
276.012	34.99
276.228	-14.17
276.444	32.94
276.659	151.72
276.875	49.32
277.09	-38.74
277.306	41.13
277.521	30.89
277.737	47.27
277.952	80.04
278.168	0.17
278.383	51.37
278.599	32.94
278.814	129.19
279.03	39.08
279.245	108.71
279.461	59.56
279.676	37.03
279.892	6.31
280.107	34.99
280.322	20.65
280.538	49.32
280.753	39.08
280.969	57.51
281.184	20.65
281.399	-24.4
281.615	6.31
281.83	71.85
282.045	26.79
282.26	63.66
282.476	121
282.691	145.58
282.906	-20.31
283.122	82.09
283.337	18.6
283.552	67.75
283.767	61.61
283.983	41.13
284.198	45.23
284.413	14.51
284.628	34.99
284.843	61.61
285.058	-5.97
285.274	26.79
285.489	-14.17
285.704	53.42
285.919	-10.07
286.134	73.9
286.349	-5.97
286.564	39.08
286.779	168.1
286.995	57.51
287.21	-40.79
287.425	24.75
287.64	61.61
287.855	102.57
288.07	-10.07
288.285	104.62
288.5	28.84
288.715	69.8
288.93	-3.93
289.145	4.27
289.36	39.08
289.575	8.36
289.79	10.41
290.004	118.95
290.219	59.56
290.434	6.31
290.649	106.67
290.864	37.03
291.079	-8.02
291.294	30.89
291.509	32.94
291.724	77.99
291.938	28.84
292.153	39.08
292.368	12.46
292.583	14.51
292.798	8.36
293.012	90.28
293.227	34.99
293.442	12.46
293.657	92.33
293.871	39.08
294.086	118.95
294.301	47.27
294.516	43.18
294.73	39.08
294.945	45.23
295.16	-20.31
295.374	139.43
295.589	14.51
295.804	53.42
296.018	94.38
296.233	94.38
296.447	143.53
296.662	-24.4
296.877	26.79
297.091	43.18
297.306	61.61
297.52	104.62
297.735	2.22
297.949	32.94
298.164	108.71
298.378	106.67
298.593	34.99
298.807	-14.17
299.022	51.37
299.236	112.81
299.451	4.27
299.665	18.6
299.88	49.32
300.094	20.65
300.309	-36.69
300.523	75.95
300.737	90.28
300.952	51.37
301.166	-3.93
301.381	-34.64
301.595	34.99
301.809	98.47
302.024	127.14
302.238	49.32
302.452	32.94
302.667	63.66
302.881	143.53
303.095	12.46
303.309	34.99
303.524	30.89
303.738	10.41
303.952	37.03
304.166	96.43
304.381	41.13
304.595	71.85
304.809	82.09
305.023	-3.93
305.237	77.99
305.452	-63.32
305.666	63.66
305.88	49.32
306.094	12.46
306.308	127.14
306.522	30.89
306.736	30.89
306.95	118.95
307.164	53.42
307.379	26.79
307.593	86.19
307.807	73.9
308.021	94.38
308.235	53.42
308.449	-32.6
308.663	34.99
308.877	127.14
309.091	90.28
309.305	69.8
309.519	59.56
309.733	84.14
309.947	-30.55
310.161	77.99
310.374	57.51
310.588	12.46
310.802	49.32
311.016	-32.6
311.23	14.51
311.444	47.27
311.658	108.71
311.872	61.61
312.085	-3.93
312.299	88.23
312.513	73.9
312.727	30.89
312.941	34.99
313.154	28.84
313.368	10.41
313.582	51.37
313.796	67.75
314.009	26.79
314.223	24.75
314.437	10.41
314.651	69.8
314.864	-1.88
315.078	22.7
315.292	41.13
315.505	41.13
315.719	51.37
315.933	71.85
316.146	22.7
316.36	14.51
316.573	77.99
316.787	39.08
317.001	30.89
317.214	12.46
317.428	61.61
317.641	53.42
317.855	63.66
318.068	10.41
318.282	84.14
318.495	65.71
318.709	41.13
318.922	86.19
319.136	39.08
319.349	49.32
319.563	37.03
319.776	34.99
319.99	-14.17
320.203	102.57
320.417	-30.55
320.63	77.99
320.843	98.47
321.057	-55.12
321.27	63.66
321.483	61.61
321.697	159.91
321.91	49.32
322.124	37.03
322.337	90.28
322.55	100.52
322.763	51.37
322.977	71.85
323.19	16.55
323.403	59.56
323.617	-5.97
323.83	73.9
324.043	49.32
324.256	14.51
324.469	73.9
324.683	77.99
324.896	-30.55
325.109	98.47
325.322	-73.56
325.535	84.14
325.748	49.32
325.962	71.85
326.175	10.41
326.388	94.38
326.601	73.9
326.814	-12.12
327.027	6.31
327.24	121
327.453	98.47
327.666	39.08
327.879	73.9
328.092	106.67
328.305	34.99
328.518	22.7
328.731	55.47
328.944	63.66
329.157	92.33
329.37	80.04
329.583	135.34
329.796	106.67
330.009	26.79
330.222	98.47
330.435	180.39
330.648	82.09
330.861	65.71
331.073	26.79
331.286	20.65
331.499	57.51
331.712	-10.07
331.925	47.27
332.138	24.75
332.35	10.41
332.563	-10.07
332.776	63.66
332.989	-16.21
333.202	129.19
333.414	18.6
333.627	14.51
333.84	47.27
334.053	22.7
334.265	45.23
334.478	49.32
334.691	32.94
334.903	57.51
335.116	6.31
335.329	84.14
335.541	-8.02
335.754	51.37
335.966	51.37
336.179	102.57
336.392	16.55
336.604	32.94
336.817	75.95
337.029	86.19
337.242	96.43
337.454	-22.36
337.667	39.08
337.88	82.09
338.092	55.47
338.305	47.27
338.517	55.47
338.729	30.89
338.942	106.67
339.154	51.37
339.367	-3.93
339.579	8.36
339.792	34.99
340.004	61.61
340.217	34.99
340.429	34.99
340.641	-22.36
340.854	22.7
341.066	22.7
341.278	24.75
341.491	61.61
341.703	18.6
341.915	67.75
342.128	53.42
342.34	-3.93
342.552	32.94
342.764	-20.31
342.977	55.47
343.189	51.37
343.401	55.47
343.613	0.17
343.826	32.94
344.038	14.51
344.25	71.85
344.462	-22.36
344.674	110.76
344.886	67.75
345.099	143.53
345.311	16.55
345.523	67.75
345.735	8.36
345.947	67.75
346.159	55.47
346.371	86.19
346.583	45.23
346.795	67.75
347.007	6.31
347.219	98.47
347.431	-8.02
347.643	96.43
347.855	41.13
348.067	96.43
348.279	32.94
348.491	28.84
348.703	53.42
348.915	41.13
349.127	34.99
349.339	65.71
349.551	24.75
349.763	96.43
349.975	55.47
350.187	65.71
350.399	139.43
350.61	75.95
350.822	-38.74
351.034	116.9
351.246	106.67
351.458	8.36
351.669	67.75
351.881	37.03
352.093	80.04
352.305	61.61
352.517	100.52
352.728	139.43
352.94	30.89
353.152	24.75
353.363	-12.12
353.575	96.43
353.787	51.37
353.999	22.7
354.21	80.04
354.422	41.13
354.633	102.57
354.845	-8.02
355.057	71.85
355.268	51.37
355.48	141.48
355.692	-20.31
355.903	121
356.115	28.84
356.326	-1.88
356.538	80.04
356.749	86.19
356.961	-28.5
357.172	-3.93
357.384	-26.45
357.595	110.76
357.807	71.85
358.018	39.08
358.23	129.19
358.441	77.99
358.653	49.32
358.864	20.65
359.075	51.37
359.287	30.89
359.498	182.44
359.709	110.76
359.921	92.33
360.132	88.23
360.344	10.41
360.555	32.94
360.766	59.56
360.977	102.57
361.189	133.29
361.4	12.46
361.611	28.84
361.823	106.67
362.034	84.14
362.245	55.47
362.456	14.51
362.667	63.66
362.879	-24.4
363.09	49.32
363.301	22.7
363.512	57.51
363.723	45.23
363.935	26.79
364.146	96.43
364.357	26.79
364.568	20.65
364.779	-32.6
364.99	67.75
365.201	8.36
365.412	67.75
365.623	43.18
365.834	28.84
366.045	51.37
366.256	45.23
366.467	-5.97
366.678	88.23
366.889	37.03
367.1	30.89
367.311	53.42
367.522	8.36
367.733	28.84
367.944	37.03
368.155	104.62
368.366	67.75
368.577	37.03
368.788	20.65
368.999	14.51
369.209	22.7
369.42	61.61
369.631	112.81
369.842	45.23
370.053	51.37
370.264	145.58
370.474	32.94
370.685	16.55
370.896	53.42
371.107	65.71
371.317	106.67
371.528	-18.26
371.739	174.25
371.95	104.62
372.16	69.8
372.371	75.95
372.582	39.08
372.792	80.04
373.003	55.47
373.214	80.04
373.424	92.33
373.635	61.61
373.846	104.62
374.056	34.99
374.267	77.99
374.477	57.51
374.688	63.66
374.898	80.04
375.109	75.95
375.319	-40.79
375.53	82.09
375.74	16.55
375.951	100.52
376.161	39.08
376.372	75.95
376.582	65.71
376.793	59.56
377.003	-59.22
377.214	-3.93
377.424	57.51
377.635	4.27
377.845	94.38
378.055	143.53
378.266	14.51
378.476	28.84
378.686	20.65
378.897	61.61
379.107	112.81
379.317	172.2
379.528	22.7
379.738	51.37
379.948	-20.31
380.158	129.19
380.369	67.75
380.579	75.95
380.789	32.94
380.999	92.33
381.21	77.99
381.42	100.52
381.63	59.56
381.84	86.19
382.05	47.27
382.261	137.38
382.471	26.79
382.681	-30.55
382.891	71.85
383.101	30.89
383.311	80.04
383.521	-3.93
383.731	69.8
383.941	77.99
384.151	8.36
384.361	88.23
384.571	49.32
384.781	22.7
384.991	92.33
385.201	88.23
385.411	10.41
385.621	121
385.831	41.13
386.041	30.89
386.251	43.18
386.461	108.71
386.671	34.99
386.881	61.61
387.091	-24.4
387.301	155.82
387.511	-26.45
387.72	108.71
387.93	88.23
388.14	-24.4
388.35	39.08
388.56	24.75
388.769	67.75
388.979	18.6
389.189	100.52
389.399	100.52
389.609	47.27
389.818	100.52
390.028	12.46
390.238	75.95
390.447	47.27
390.657	30.89
390.867	22.7
391.076	20.65
391.286	16.55
391.496	67.75
391.705	65.71
391.915	135.34
392.125	118.95
392.334	75.95
392.544	135.34
392.753	84.14
392.963	55.47
393.172	102.57
393.382	28.84
393.591	118.95
393.801	0.17
394.01	65.71
394.22	92.33
394.429	61.61
394.639	41.13
394.848	53.42
395.058	86.19
395.267	61.61
395.477	57.51
395.686	92.33
395.895	137.38
396.105	151.72
396.314	39.08
396.524	82.09
396.733	86.19
396.942	198.82
397.152	69.8
397.361	73.9
397.57	94.38
397.78	182.44
397.989	28.84
398.198	114.86
398.407	71.85
398.617	30.89
398.826	71.85
399.035	59.56
399.244	125.1
399.453	102.57
399.663	73.9
399.872	155.82
400.081	80.04
400.29	102.57
400.499	26.79
400.708	73.9
400.917	88.23
401.127	84.14
401.336	37.03
401.545	100.52
401.754	127.14
401.963	84.14
402.172	82.09
402.381	127.14
402.59	53.42
402.799	82.09
403.008	106.67
403.217	131.24
403.426	88.23
403.635	32.94
403.844	90.28
404.053	106.67
404.262	108.71
404.471	176.3
404.68	131.24
404.888	135.34
405.097	155.82
405.306	176.3
405.515	141.48
405.724	133.29
405.933	102.57
406.142	161.96
406.35	149.67
406.559	198.82
406.768	151.72
406.977	241.83
407.185	104.62
407.394	133.29
407.603	125.1
407.812	145.58
408.02	288.93
408.229	190.63
408.438	129.19
408.646	182.44
408.855	176.3
409.064	258.21
409.272	161.96
409.481	217.26
409.69	188.58
409.898	194.73
410.107	297.13
410.315	274.6
410.524	207.02
410.733	258.21
410.941	233.64
411.15	305.32
411.358	219.3
411.567	374.95
411.775	288.93
411.984	252.07
412.192	338.09
412.401	333.99
412.609	374.95
412.818	354.47
413.026	344.23
413.234	467.11
413.443	381.09
413.651	297.13
413.86	374.95
414.068	489.64
414.276	495.78
414.485	372.9
414.693	503.97
414.901	561.31
415.11	479.4
415.318	526.5
415.526	438.44
415.734	567.46
415.943	608.42
416.151	620.71
416.359	585.89
416.567	520.35
416.776	632.99
416.984	626.85
417.192	620.71
417.4	669.86
417.608	587.94
417.817	706.72
418.025	667.81
418.233	891.04
418.441	790.69
418.649	745.63
418.857	866.46
419.065	870.56
419.273	891.04
419.481	868.51
419.689	977.05
419.897	1075.35
420.105	1054.87
420.313	983.2
420.521	1101.98
420.729	1101.98
420.937	1157.27
421.145	1054.87
421.353	1212.57
421.561	1208.47
421.769	1380.5
421.977	1321.11
422.185	1362.07
422.393	1509.52
422.601	1538.2
422.809	1517.72
423.017	1583.25
423.224	1542.29
423.432	1587.35
423.64	1644.69
423.848	1808.53
424.056	1699.98
424.263	1980.56
424.471	1919.12
424.679	2037.9
424.887	2007.18
425.094	2068.62
425.302	2168.97
425.51	2222.22
425.718	2220.17
425.925	2363.53
426.133	2265.22
426.341	2386.05
426.548	2582.66
426.756	2766.98
426.964	2664.58
427.171	2818.18
427.379	2832.51
427.586	2852.99
427.794	3033.21
428.001	3129.47
428.209	3426.42
428.417	3248.25
428.624	3514.49
428.832	3448.95
429.039	3360.89
429.247	3424.37
429.454	3852.4
429.662	3956.85
429.869	3661.94
430.076	4155.5
430.284	3909.74
430.491	4223.08
430.699	4423.78
430.906	4259.95
431.114	4464.74
431.321	4425.83
431.528	4640.87
431.736	4882.53
431.943	5032.03
432.15	4974.69
432.358	5126.24
432.565	5281.88
432.772	5328.99
432.979	5568.6
433.187	5746.77
433.394	5699.67
433.601	6068.3
433.808	6080.59
434.016	5996.62
434.223	6477.9
434.43	6852.67
434.637	6662.21
434.844	6887.49
435.052	7163.97
435.259	6969.41
435.466	7180.35
435.673	7182.4
435.88	7393.34
436.087	7999.54
436.294	7829.56
436.501	7772.21
436.708	7860.27
436.915	8167.47
437.122	8638.5
437.329	8507.43
437.537	8818.72
437.743	9007.14
437.95	8796.2
438.157	9336.86
438.364	9627.67
438.571	9568.28
438.778	9771.03
438.985	10643.46
439.192	10313.74
439.399	10463.24
439.606	10160.14
439.813	10852.36
440.02	11329.53
440.227	11214.85
440.433	11411.45
440.64	11581.43
440.847	11556.86
441.054	11753.46
441.261	12763.11
441.467	12382.19
441.674	12492.78
441.881	12988.39
442.088	13215.71
442.294	13000.68
442.501	13486.04
442.708	13608.92
442.914	13979.61
443.121	14776.27
443.328	14338
443.534	15310.79
443.741	14663.63
443.948	14618.57
444.154	16000.95
444.361	15665.08
444.568	15953.85
444.774	15859.64
444.981	15959.99
445.187	16471.98
445.394	17377.19
445.6	16717.74
445.807	18556.82
446.013	17977.24
446.22	17938.33
446.426	19060.62
446.633	19132.29
446.839	19898.24
447.046	18710.41
447.252	20119.42
447.459	20086.65
447.665	19609.47
447.871	20836.2
448.078	21694.3
448.284	20502.39
448.491	21124.97
448.697	21950.3
448.903	22255.45
449.11	22648.66
449.316	22095.71
449.522	22802.25
449.728	22976.33
449.935	23201.61
450.141	23336.77
450.347	23768.9
450.553	23213.9
450.76	23396.17
450.966	24405.81
451.172	23889.73
451.378	24782.64
451.584	23836.48
451.791	24573.75
451.997	24549.17
452.203	25022.25
452.409	24858.42
452.615	25030.44
452.821	24158.01
453.027	23371.59
453.233	24921.9
453.44	24031.04
453.646	24241.98
453.852	24057.66
454.058	24600.37
454.264	23459.65
454.47	24282.94
454.676	24022.84
454.882	24860.46
455.088	22415.19
455.294	22871.89
455.5	22918.99
455.705	23459.65
455.911	22566.74
456.117	21815.13
456.323	21596
456.529	20432.75
456.735	21282.66
456.941	21167.98
457.147	20408.18
457.352	19883.9
457.558	19746.69
457.764	19859.32
457.97	19392.39
458.176	18605.97
458.381	18771.85
458.587	17782.68
458.793	18085.78
458.999	16975.78
459.204	18093.97
459.41	17874.84
459.616	16480.18
459.821	16611.25
460.027	16218.04
460.233	16191.41
460.438	15411.14
460.644	15396.8
460.85	14962.63
461.055	14413.77
461.261	14428.11
461.466	13490.14
461.672	13043.68
461.878	13844.44
462.083	12972
462.289	12650.47
462.494	12769.26
462.7	12406.77
462.905	11915.25
463.111	12109.81
463.316	12249.07
463.522	12062.71
463.727	12150.77
463.932	11968.5
464.138	11794.42
464.343	11941.88
464.549	11517.95
464.754	12171.25
464.959	11945.97
465.165	11888.63
465.37	11173.89
465.575	10737.67
465.781	11290.62
465.986	11415.55
466.191	10850.31
466.397	10737.67
466.602	10174.48
466.807	10696.71
467.012	10737.67
467.218	10614.79
467.423	10371.08
467.628	10491.91
