Data from USB4F104151__71__12-24-17-776.txt Node

Date: Fri Mar 14 12:24:17 EDT 2025
User: louis
Spectrometer: USB4F10415
Trigger mode: 4
Integration Time (sec): 3.500000E-2
Scans to average: 1
Electric dark correction enabled: true
Nonlinearity correction enabled: false
Boxcar width: 0
XAxis mode: Wavelengths
Number of Pixels in Spectrum: 3648
>>>>>Begin Spectral Data<<<<<
178.204	-169.64
178.424	-169.64
178.644	-169.64
178.864	-112.3
179.084	-134.82
179.304	-79.53
179.524	41.3
179.744	20.82
179.964	20.82
180.184	47.44
180.404	67.92
180.624	-9.9
180.844	-26.28
181.064	-118.44
181.283	10.58
181.503	-5.8
181.723	31.06
181.943	-28.33
182.163	65.88
182.383	-3.75
182.602	59.73
182.822	-3.75
183.042	45.4
183.262	26.96
183.482	-11.95
183.701	18.77
183.921	57.68
184.141	-26.28
184.361	4.44
184.58	43.35
184.8	59.73
185.02	-32.43
185.239	90.45
185.459	12.63
185.679	-16.04
185.898	-50.86
186.118	55.64
186.338	72.02
186.557	16.73
186.777	-20.14
186.997	35.16
187.216	-57
187.436	98.64
187.655	6.49
187.875	24.92
188.095	47.44
188.314	59.73
188.534	67.92
188.753	-81.58
188.973	145.75
189.192	31.06
189.412	67.92
189.631	-13.99
189.851	-9.9
190.07	78.16
190.29	-30.38
190.509	29.01
190.729	49.49
190.948	88.4
191.168	123.22
191.387	53.59
191.607	-87.72
191.826	-5.8
192.045	35.16
192.265	14.68
192.484	31.06
192.704	-30.38
192.923	-46.76
193.142	112.98
193.362	78.16
193.581	49.49
193.8	-7.85
194.02	2.39
194.239	6.49
194.458	8.53
194.678	26.96
194.897	8.53
195.116	-26.28
195.335	-9.9
195.555	18.77
195.774	31.06
195.993	51.54
196.212	-75.43
196.432	-36.52
196.651	0.34
196.87	-48.81
197.089	47.44
197.308	29.01
197.528	16.73
197.747	16.73
197.966	-3.75
198.185	72.02
198.404	12.63
198.623	35.16
198.842	18.77
199.062	14.68
199.281	24.92
199.5	-63.15
199.719	24.92
199.938	86.36
200.157	37.2
200.376	39.25
200.595	78.16
200.814	14.68
201.033	-36.52
201.252	88.4
201.471	6.49
201.69	10.58
201.909	12.63
202.128	72.02
202.347	65.88
202.566	31.06
202.785	47.44
203.004	-28.33
203.223	155.99
203.442	16.73
203.661	-91.82
203.879	-52.91
204.098	14.68
204.317	2.39
204.536	90.45
204.755	16.73
204.974	55.64
205.193	12.63
205.411	80.21
205.63	-16.04
205.849	-26.28
206.068	2.39
206.287	63.83
206.505	47.44
206.724	2.39
206.943	-69.29
207.162	51.54
207.381	-28.33
207.599	63.83
207.818	49.49
208.037	31.06
208.255	-30.38
208.474	24.92
208.693	33.11
208.911	-11.95
209.13	-36.52
209.349	-1.71
209.567	51.54
209.786	133.46
210.005	-30.38
210.223	65.88
210.442	63.83
210.661	6.49
210.879	-54.95
211.098	-40.62
211.316	-26.28
211.535	57.68
211.753	57.68
211.972	61.78
212.191	45.4
212.409	-13.99
212.628	47.44
212.846	33.11
213.065	67.92
213.283	106.84
213.502	12.63
213.72	-57
213.938	12.63
214.157	12.63
214.375	94.55
214.594	0.34
214.812	59.73
215.031	35.16
215.249	-22.19
215.467	-24.23
215.686	-48.81
215.904	-13.99
216.122	0.34
216.341	59.73
216.559	-7.85
216.778	51.54
216.996	-42.67
217.214	-5.8
217.432	67.92
217.651	47.44
217.869	39.25
218.087	-18.09
218.306	-44.71
218.524	-36.52
218.742	51.54
218.96	8.53
219.179	26.96
219.397	-28.33
219.615	49.49
219.833	26.96
220.051	10.58
220.27	67.92
220.488	33.11
220.706	33.11
220.924	24.92
221.142	-69.29
221.36	92.5
221.578	47.44
221.796	14.68
222.015	31.06
222.233	-16.04
222.451	24.92
222.669	-1.71
222.887	20.82
223.105	-26.28
223.323	63.83
223.541	47.44
223.759	-36.52
223.977	14.68
224.195	-40.62
224.413	37.2
224.631	82.26
224.849	-20.14
225.067	96.6
225.285	-32.43
225.503	26.96
225.721	-50.86
225.939	-57
226.157	117.08
226.375	74.07
226.592	22.87
226.81	-32.43
227.028	43.35
227.246	82.26
227.464	-67.24
227.682	45.4
227.9	31.06
228.117	51.54
228.335	-32.43
228.553	53.59
228.771	33.11
228.989	26.96
229.206	72.02
229.424	-61.1
229.642	16.73
229.86	20.82
230.077	4.44
230.295	53.59
230.513	39.25
230.731	119.12
230.948	84.31
231.166	100.69
231.384	6.49
231.601	33.11
231.819	51.54
232.037	-26.28
232.254	-26.28
232.472	49.49
232.689	-20.14
232.907	-48.81
233.125	-18.09
233.342	26.96
233.56	-71.34
233.777	-18.09
233.995	43.35
234.213	39.25
234.43	29.01
234.648	4.44
234.865	96.6
235.083	41.3
235.3	12.63
235.518	47.44
235.735	-22.19
235.953	-1.71
236.17	16.73
236.388	61.78
236.605	-7.85
236.822	90.45
237.04	4.44
237.257	18.77
237.475	-30.38
237.692	47.44
237.909	37.2
238.127	35.16
238.344	18.77
238.562	35.16
238.779	-79.53
238.996	31.06
239.214	47.44
239.431	69.97
239.648	-16.04
239.865	0.34
240.083	12.63
240.3	22.87
240.517	-61.1
240.735	0.34
240.952	24.92
241.169	29.01
241.386	24.92
241.603	22.87
241.821	-34.47
242.038	100.69
242.255	22.87
242.472	-9.9
242.689	59.73
242.907	-9.9
243.124	14.68
243.341	20.82
243.558	39.25
243.775	57.68
243.992	-71.34
244.209	49.49
244.426	84.31
244.643	14.68
244.86	-28.33
245.078	-13.99
245.295	57.68
245.512	-9.9
245.729	6.49
245.946	-30.38
246.163	82.26
246.38	84.31
246.597	29.01
246.814	29.01
247.031	14.68
247.248	20.82
247.464	55.64
247.681	8.53
247.898	-5.8
248.115	98.64
248.332	-34.47
248.549	143.7
248.766	131.41
248.983	45.4
249.2	-28.33
249.417	-13.99
249.633	37.2
249.85	92.5
250.067	-28.33
250.284	72.02
250.501	55.64
250.717	-9.9
250.934	-1.71
251.151	-26.28
251.368	22.87
251.585	6.49
251.801	10.58
252.018	-46.76
252.235	22.87
252.451	-24.23
252.668	-28.33
252.885	49.49
253.102	41.3
253.318	-32.43
253.535	-9.9
253.752	-20.14
253.968	2.39
254.185	39.25
254.401	10.58
254.618	-102.06
254.835	-1.71
255.051	26.96
255.268	24.92
255.484	10.58
255.701	-9.9
255.917	88.4
256.134	18.77
256.351	35.16
256.567	-40.62
256.784	47.44
257	-106.15
257.217	59.73
257.433	24.92
257.65	33.11
257.866	55.64
258.082	61.78
258.299	-42.67
258.515	82.26
258.732	-30.38
258.948	-9.9
259.165	16.73
259.381	51.54
259.597	47.44
259.814	-36.52
260.03	12.63
260.246	-32.43
260.463	84.31
260.679	10.58
260.895	-69.29
261.112	-9.9
261.328	-18.09
261.544	29.01
261.761	92.5
261.977	51.54
262.193	-54.95
262.409	43.35
262.626	-32.43
262.842	45.4
263.058	-22.19
263.274	108.88
263.49	76.12
263.707	82.26
263.923	6.49
264.139	37.2
264.355	18.77
264.571	24.92
264.787	-7.85
265.004	78.16
265.22	22.87
265.436	-13.99
265.652	22.87
265.868	49.49
266.084	-136.87
266.3	24.92
266.516	4.44
266.732	-42.67
266.948	-77.48
267.164	14.68
267.38	74.07
267.596	26.96
267.812	41.3
268.028	22.87
268.244	53.59
268.46	-52.91
268.676	-67.24
268.892	16.73
269.108	4.44
269.324	-9.9
269.54	-26.28
269.756	-3.75
269.972	-40.62
270.188	-22.19
270.403	67.92
270.619	24.92
270.835	61.78
271.051	-20.14
271.267	-28.33
271.483	41.3
271.698	47.44
271.914	55.64
272.13	59.73
272.346	-36.52
272.562	76.12
272.777	53.59
272.993	-38.57
273.209	-16.04
273.425	92.5
273.64	31.06
273.856	94.55
274.072	29.01
274.287	-34.47
274.503	47.44
274.719	6.49
274.934	-42.67
275.15	59.73
275.366	6.49
275.581	-91.82
275.797	33.11
276.012	37.2
276.228	0.34
276.444	31.06
276.659	-7.85
276.875	22.87
277.09	29.01
277.306	-36.52
277.521	72.02
277.737	24.92
277.952	-18.09
278.168	-89.77
278.383	51.54
278.599	-20.14
278.814	39.25
279.03	-11.95
279.245	78.16
279.461	20.82
279.676	22.87
279.892	-48.81
280.107	-1.71
280.322	-1.71
280.538	29.01
280.753	2.39
280.969	4.44
281.184	31.06
281.399	39.25
281.615	100.69
281.83	49.49
282.045	-18.09
282.26	-42.67
282.476	2.39
282.691	-11.95
282.906	-42.67
283.122	22.87
283.337	26.96
283.552	8.53
283.767	-36.52
283.983	33.11
284.198	-22.19
284.413	37.2
284.628	8.53
284.843	-30.38
285.058	24.92
285.274	-26.28
285.489	-61.1
285.704	55.64
285.919	14.68
286.134	-9.9
286.349	4.44
286.564	29.01
286.779	84.31
286.995	55.64
287.21	-57
287.425	69.97
287.64	8.53
287.855	80.21
288.07	-40.62
288.285	4.44
288.5	78.16
288.715	41.3
288.93	2.39
289.145	-20.14
289.36	63.83
289.575	22.87
289.79	29.01
290.004	-30.38
290.219	39.25
290.434	-7.85
290.649	-11.95
290.864	-26.28
291.079	108.88
291.294	-20.14
291.509	29.01
291.724	-34.47
291.938	29.01
292.153	29.01
292.368	-3.75
292.583	14.68
292.798	94.55
293.012	63.83
293.227	51.54
293.442	33.11
293.657	53.59
293.871	108.88
294.086	55.64
294.301	37.2
294.516	59.73
294.73	74.07
294.945	-9.9
295.16	61.78
295.374	-18.09
295.589	55.64
295.804	37.2
296.018	65.88
296.233	98.64
296.447	4.44
296.662	-65.19
296.877	26.96
297.091	51.54
297.306	2.39
297.52	-9.9
297.735	63.83
297.949	12.63
298.164	67.92
298.378	-40.62
298.593	-9.9
298.807	22.87
299.022	-5.8
299.236	33.11
299.451	26.96
299.665	-7.85
299.88	8.53
300.094	22.87
300.309	18.77
300.523	6.49
300.737	4.44
300.952	-42.67
301.166	-3.75
301.381	31.06
301.595	41.3
301.809	37.2
302.024	-63.15
302.238	20.82
302.452	-7.85
302.667	-18.09
302.881	-1.71
303.095	61.78
303.309	12.63
303.524	22.87
303.738	41.3
303.952	-42.67
304.166	0.34
304.381	4.44
304.595	43.35
304.809	-87.72
305.023	2.39
305.237	-26.28
305.452	39.25
305.666	12.63
305.88	55.64
306.094	63.83
306.308	55.64
306.522	8.53
306.736	29.01
306.95	53.59
307.164	55.64
307.379	6.49
307.593	6.49
307.807	41.3
308.021	63.83
308.235	-22.19
308.449	24.92
308.663	41.3
308.877	61.78
309.091	-5.8
309.305	84.31
309.519	10.58
309.733	63.83
309.947	14.68
310.161	-46.76
310.374	69.97
310.588	35.16
310.802	-50.86
311.016	29.01
311.23	18.77
311.444	12.63
311.658	-26.28
311.872	102.74
312.085	49.49
312.299	33.11
312.513	-11.95
312.727	-18.09
312.941	-36.52
313.154	37.2
313.368	-7.85
313.582	33.11
313.796	31.06
314.009	37.2
314.223	37.2
314.437	26.96
314.651	2.39
314.864	4.44
315.078	31.06
315.292	-13.99
315.505	-54.95
315.719	14.68
315.933	6.49
316.146	-22.19
316.36	-5.8
316.573	45.4
316.787	22.87
317.001	82.26
317.214	-18.09
317.428	74.07
317.641	35.16
317.855	43.35
318.068	-20.14
318.282	12.63
318.495	-1.71
318.709	69.97
318.922	10.58
319.136	80.21
319.349	4.44
319.563	65.88
319.776	51.54
319.99	-36.52
320.203	76.12
320.417	24.92
320.63	16.73
320.843	74.07
321.057	12.63
321.27	-1.71
321.483	35.16
321.697	31.06
321.91	-16.04
322.124	20.82
322.337	90.45
322.55	-42.67
322.763	67.92
322.977	-20.14
323.19	51.54
323.403	22.87
323.617	45.4
323.83	4.44
324.043	74.07
324.256	-30.38
324.469	39.25
324.683	29.01
324.896	8.53
325.109	-16.04
325.322	-1.71
325.535	14.68
325.748	-52.91
325.962	51.54
326.175	69.97
326.388	57.68
326.601	39.25
326.814	6.49
327.027	-52.91
327.24	74.07
327.453	-77.48
327.666	-7.85
327.879	41.3
328.092	94.55
328.305	35.16
328.518	0.34
328.731	10.58
328.944	-5.8
329.157	78.16
329.37	-50.86
329.583	106.84
329.796	100.69
330.009	-3.75
330.222	12.63
330.435	35.16
330.648	43.35
330.861	14.68
331.073	-5.8
331.286	78.16
331.499	20.82
331.712	12.63
331.925	14.68
332.138	22.87
332.35	57.68
332.563	-40.62
332.776	61.78
332.989	-26.28
333.202	63.83
333.414	-32.43
333.627	22.87
333.84	12.63
334.053	6.49
334.265	-77.48
334.478	0.34
334.691	41.3
334.903	-20.14
335.116	51.54
335.329	49.49
335.541	6.49
335.754	53.59
335.966	59.73
336.179	39.25
336.392	35.16
336.604	-9.9
336.817	12.63
337.029	-34.47
337.242	-57
337.454	16.73
337.667	18.77
337.88	51.54
338.092	31.06
338.305	-1.71
338.517	-9.9
338.729	24.92
338.942	88.4
339.154	31.06
339.367	10.58
339.579	39.25
339.792	-46.76
340.004	82.26
340.217	10.58
340.429	37.2
340.641	8.53
340.854	-7.85
341.066	-18.09
341.278	24.92
341.491	31.06
341.703	67.92
341.915	-112.3
342.128	98.64
342.34	155.99
342.552	-52.91
342.764	22.87
342.977	49.49
343.189	51.54
343.401	65.88
343.613	-30.38
343.826	39.25
344.038	-44.71
344.25	96.6
344.462	8.53
344.674	8.53
344.886	-11.95
345.099	88.4
345.311	69.97
345.523	-1.71
345.735	41.3
345.947	0.34
346.159	22.87
346.371	43.35
346.583	10.58
346.795	53.59
347.007	-32.43
347.219	-7.85
347.431	-40.62
347.643	84.31
347.855	-9.9
348.067	8.53
348.279	-36.52
348.491	82.26
348.703	57.68
348.915	63.83
349.127	24.92
349.339	59.73
349.551	35.16
349.763	43.35
349.975	24.92
350.187	31.06
350.399	2.39
350.61	65.88
350.822	-50.86
351.034	-5.8
351.246	2.39
351.458	88.4
351.669	22.87
351.881	59.73
352.093	55.64
352.305	14.68
352.517	53.59
352.728	57.68
352.94	33.11
353.152	72.02
353.363	-26.28
353.575	26.96
353.787	72.02
353.999	2.39
354.21	49.49
354.422	-7.85
354.633	-38.57
354.845	45.4
355.057	45.4
355.268	-11.95
355.48	-16.04
355.692	55.64
355.903	26.96
356.115	24.92
356.326	-48.81
356.538	14.68
356.749	18.77
356.961	-16.04
357.172	53.59
357.384	-11.95
357.595	121.17
357.807	-38.57
358.018	67.92
358.23	33.11
358.441	117.08
358.653	84.31
358.864	12.63
359.075	-18.09
359.287	20.82
359.498	72.02
359.709	20.82
359.921	39.25
360.132	-57
360.344	20.82
360.555	-1.71
360.766	69.97
360.977	55.64
361.189	112.98
361.4	53.59
361.611	49.49
361.823	6.49
362.034	31.06
362.245	-7.85
362.456	80.21
362.667	53.59
362.879	26.96
363.09	57.68
363.301	69.97
363.512	110.93
363.723	65.88
363.935	2.39
364.146	33.11
364.357	35.16
364.568	43.35
364.779	-44.71
364.99	51.54
365.201	-3.75
365.412	41.3
365.623	26.96
365.834	-20.14
366.045	84.31
366.256	-3.75
366.467	16.73
366.678	47.44
366.889	63.83
367.1	43.35
367.311	76.12
367.522	14.68
367.733	53.59
367.944	-48.81
368.155	-20.14
368.366	35.16
368.577	67.92
368.788	57.68
368.999	10.58
369.209	-38.57
369.42	53.59
369.631	102.74
369.842	-3.75
370.053	10.58
370.264	53.59
370.474	98.64
370.685	49.49
370.896	31.06
371.107	78.16
371.317	-13.99
371.528	-1.71
371.739	24.92
371.95	84.31
372.16	-13.99
372.371	16.73
372.582	115.03
372.792	51.54
373.003	20.82
373.214	55.64
373.424	112.98
373.635	-28.33
373.846	69.97
374.056	74.07
374.267	18.77
374.477	-28.33
374.688	8.53
374.898	22.87
375.109	43.35
375.319	65.88
375.53	84.31
375.74	35.16
375.951	49.49
376.161	37.2
376.372	47.44
376.582	-30.38
376.793	53.59
377.003	84.31
377.214	-22.19
377.424	69.97
377.635	16.73
377.845	35.16
378.055	115.03
378.266	82.26
378.476	57.68
378.686	29.01
378.897	22.87
379.107	10.58
379.317	-20.14
379.528	43.35
379.738	51.54
379.948	63.83
380.158	63.83
380.369	69.97
380.579	51.54
380.789	61.78
380.999	6.49
381.21	29.01
381.42	76.12
381.63	61.78
381.84	-1.71
382.05	-7.85
382.261	80.21
382.471	78.16
382.681	-1.71
382.891	106.84
383.101	31.06
383.311	-24.23
383.521	76.12
383.731	4.44
383.941	-13.99
384.151	57.68
384.361	-30.38
384.571	76.12
384.781	29.01
384.991	24.92
385.201	133.46
385.411	12.63
385.621	6.49
385.831	59.73
386.041	-22.19
386.251	47.44
386.461	-5.8
386.671	31.06
386.881	20.82
387.091	6.49
387.301	69.97
387.511	-7.85
387.72	72.02
387.93	67.92
388.14	14.68
388.35	8.53
388.56	-22.19
388.769	-18.09
388.979	18.77
389.189	24.92
389.399	37.2
389.609	2.39
389.818	59.73
390.028	57.68
390.238	65.88
390.447	57.68
390.657	-22.19
390.867	-24.23
391.076	-13.99
391.286	29.01
391.496	-30.38
391.705	43.35
391.915	84.31
392.125	37.2
392.334	-16.04
392.544	82.26
392.753	67.92
392.963	18.77
393.172	-7.85
393.382	-46.76
393.591	65.88
393.801	-59.05
394.01	43.35
394.22	110.93
394.429	10.58
394.639	43.35
394.848	61.78
395.058	18.77
395.267	43.35
395.477	-73.39
395.686	4.44
395.895	119.12
396.105	110.93
396.314	51.54
396.524	63.83
396.733	47.44
396.942	22.87
397.152	115.03
397.361	96.6
397.57	86.36
397.78	31.06
397.989	108.88
398.198	61.78
398.407	45.4
398.617	88.4
398.826	39.25
399.035	78.16
399.244	4.44
399.453	78.16
399.663	59.73
399.872	88.4
400.081	29.01
400.29	141.65
400.499	-13.99
400.708	78.16
400.917	86.36
401.127	14.68
401.336	-7.85
401.545	102.74
401.754	110.93
401.963	151.89
402.172	16.73
402.381	6.49
402.59	31.06
402.799	82.26
403.008	-3.75
403.217	37.2
403.426	41.3
403.635	45.4
403.844	133.46
404.053	41.3
404.262	74.07
404.471	184.66
404.68	22.87
404.888	57.68
405.097	61.78
405.306	112.98
405.515	137.56
405.724	37.2
405.933	84.31
406.142	76.12
406.35	55.64
406.559	94.55
406.768	76.12
406.977	182.61
407.185	127.32
407.394	192.85
407.603	125.27
407.812	174.42
408.02	164.18
408.229	209.23
408.438	141.65
408.646	110.93
408.855	123.22
409.064	211.28
409.272	176.47
409.481	158.03
409.69	158.03
409.898	143.7
410.107	198.99
410.315	209.23
410.524	166.23
410.733	184.66
410.941	106.84
411.15	205.14
411.358	252.24
411.567	278.87
411.775	213.33
411.984	258.39
412.192	280.91
412.401	174.42
412.609	323.92
412.818	285.01
413.026	287.06
413.234	256.34
413.443	196.95
413.651	282.96
413.86	360.78
414.068	383.31
414.276	397.65
414.485	313.68
414.693	383.31
414.901	420.17
415.11	442.7
415.318	354.64
415.526	450.89
415.734	526.67
415.943	481.61
416.151	491.85
416.359	473.42
416.567	526.67
416.776	567.63
416.984	483.66
417.192	524.62
417.4	600.4
417.608	522.57
417.817	686.41
418.025	680.27
418.233	708.94
418.441	661.84
418.649	715.08
418.857	700.75
419.065	774.47
419.273	622.92
419.481	799.05
419.689	850.25
419.897	897.35
420.105	868.68
420.313	923.98
420.521	936.26
420.729	987.46
420.937	1001.8
421.145	1007.94
421.353	1038.66
421.561	1118.53
421.769	1120.58
421.977	1126.72
422.185	1124.68
422.393	1329.47
422.601	1372.48
422.809	1327.43
423.017	1315.14
423.224	1452.35
423.432	1448.26
423.64	1388.86
423.848	1655.1
424.056	1470.78
424.263	1669.44
424.471	1554.75
424.679	1593.66
424.887	1767.74
425.094	1886.52
425.302	1790.27
425.51	1962.3
425.718	1960.25
425.925	2025.78
426.133	2031.93
426.341	2287.92
426.548	2275.63
426.756	2320.69
426.964	2253.11
427.171	2470.19
427.379	2470.19
427.586	2449.71
427.794	2697.52
428.001	2679.08
428.209	2869.55
428.417	2732.33
428.624	3135.78
428.832	3035.43
429.039	3041.57
429.247	2939.18
429.454	3270.95
429.662	3471.65
429.869	3166.5
430.076	3541.28
430.284	3326.24
430.491	3531.04
430.699	3717.4
430.906	3862.81
431.114	3864.86
431.321	4024.6
431.528	3862.81
431.736	4421.91
431.943	4352.27
432.15	4282.64
432.358	4426
432.565	4710.67
432.772	4725.01
432.979	4800.78
433.187	5036.3
433.394	4835.6
433.601	5331.2
433.808	5503.23
434.016	5314.82
434.223	5544.19
434.43	5970.17
434.637	5804.28
434.844	6109.43
435.052	6201.59
435.259	6154.49
435.466	6183.16
435.673	6033.66
435.88	6488.31
436.087	6908.14
436.294	6899.95
436.501	6744.3
436.708	6945
436.915	7282.92
437.122	7418.08
437.329	7420.13
437.537	7815.39
437.743	7737.57
437.95	7796.96
438.157	8143.07
438.364	8446.16
438.571	8331.48
438.778	8575.19
438.985	9312.46
439.192	8882.38
439.399	9113.8
439.606	8902.86
439.813	9605.31
440.02	10092.73
440.227	9920.7
440.433	9715.91
440.64	10225.85
440.847	10172.6
441.054	10297.53
441.261	10954.93
441.467	10776.75
441.674	11004.08
441.881	11581.6
442.088	11344.04
442.294	11323.56
442.501	11708.58
442.708	11839.65
442.914	12122.27
443.121	13002.89
443.328	12333.21
443.534	13435.02
443.741	13244.56
443.948	12693.65
444.154	13850.75
444.361	14049.41
444.568	13973.63
444.774	13897.86
444.981	13971.58
445.187	14717.04
445.394	15044.72
445.6	14682.23
445.807	16400.48
446.013	15657.06
446.22	15841.38
446.426	16377.95
446.633	16646.23
446.839	17330.25
447.046	16425.05
447.252	17731.65
447.459	17332.3
447.665	17346.64
447.871	18331.71
448.078	18995.25
448.284	18010.18
448.491	18501.69
448.697	19353.65
448.903	19699.75
449.11	19355.69
449.316	19380.27
449.522	19728.42
449.728	20353.05
449.935	20596.76
450.141	20705.31
450.347	21094.42
450.553	20367.39
450.76	20498.46
450.966	21219.35
451.172	20768.79
451.378	21766.15
451.584	21008.4
451.791	21630.99
451.997	21618.7
452.203	21776.39
452.409	22333.44
452.615	22167.56
452.821	21260.3
453.027	20846.62
453.233	21760.01
453.44	20830.23
453.646	21366.8
453.852	21602.32
454.058	21929.99
454.264	21024.79
454.47	21438.48
454.676	20869.14
454.882	21553.16
455.088	19775.53
455.294	19826.73
455.5	20221.98
455.705	20578.33
455.911	19787.82
456.117	19349.55
456.323	18952.24
456.529	18210.88
456.735	18870.33
456.941	18341.95
457.147	17875.01
457.352	17477.71
457.558	17193.04
457.764	17500.23
457.97	16920.66
458.176	16744.53
458.381	16687.19
458.587	15702.12
458.793	15868
458.999	15208.56
459.204	16076.9
459.41	15585.38
459.616	14739.57
459.821	14575.73
460.027	14667.89
460.233	14098.56
460.438	13631.62
460.644	13541.51
460.85	13070.48
461.055	12808.34
461.261	12884.11
461.466	11962.53
461.672	11413.67
461.878	12282.01
462.083	11518.12
462.289	11260.07
462.494	11133.1
462.7	10625.2
462.905	10438.84
463.111	10948.78
463.316	10703.03
463.522	10674.35
463.727	10612.92
463.932	10383.54
464.138	10410.17
464.343	10487.99
464.549	10313.91
464.754	10608.82
464.959	10418.36
465.165	10334.39
465.37	9918.65
465.575	9726.14
465.781	10080.44
465.986	10080.44
466.191	9633.99
466.397	9648.32
466.602	9089.23
466.807	9638.08
467.012	9527.49
467.218	9294.02
467.423	9191.63
467.628	9459.91
467.833	9601.22
468.038	9416.9
