Data from USB4F104151__63__12-24-10-287.txt Node

Date: Fri Mar 14 12:24:10 EDT 2025
User: louis
Spectrometer: USB4F10415
Trigger mode: 4
Integration Time (sec): 3.500000E-2
Scans to average: 1
Electric dark correction enabled: true
Nonlinearity correction enabled: false
Boxcar width: 0
XAxis mode: Wavelengths
Number of Pixels in Spectrum: 3648
>>>>>Begin Spectral Data<<<<<
178.204	-185
178.424	-185
178.644	-185
178.864	-156.33
179.084	-111.27
179.304	-21.16
179.524	-6.83
179.744	13.65
179.964	50.52
180.184	5.46
180.404	38.23
180.624	-10.92
180.844	44.37
181.064	-17.07
181.283	-8.87
181.503	-17.07
181.723	-70.31
181.943	-6.83
182.163	95.57
182.383	89.43
182.602	58.71
182.822	109.91
183.042	50.52
183.262	3.41
183.482	-25.26
183.701	-41.64
183.921	73.04
184.141	1.37
184.361	-37.55
184.58	40.28
184.8	91.48
185.02	73.04
185.239	109.91
185.459	34.13
185.679	79.19
185.898	17.75
186.118	101.72
186.338	40.28
186.557	56.66
186.777	-92.84
186.997	-66.22
187.216	3.41
187.436	58.71
187.655	66.9
187.875	30.04
188.095	-10.92
188.314	-12.97
188.534	11.61
188.753	-2.73
188.973	75.09
189.192	79.19
189.412	17.75
189.631	30.04
189.851	-6.83
190.07	66.9
190.29	23.89
190.509	-0.68
190.729	9.56
190.948	32.08
191.168	83.28
191.387	46.42
191.607	25.94
191.826	11.61
192.045	44.37
192.265	30.04
192.484	30.04
192.704	-8.87
192.923	-6.83
193.142	77.14
193.362	36.18
193.581	11.61
193.8	-0.68
194.02	81.24
194.239	-23.21
194.458	5.46
194.678	44.37
194.897	23.89
195.116	23.89
195.335	56.66
195.555	66.9
195.774	-6.83
195.993	71
196.212	-25.26
196.432	-58.03
196.651	1.37
196.87	81.24
197.089	202.07
197.308	19.8
197.528	17.75
197.747	-60.07
197.966	62.8
198.185	71
198.404	-0.68
198.623	15.7
198.842	116.05
199.062	38.23
199.281	-35.5
199.5	38.23
199.719	-4.78
199.938	54.61
200.157	54.61
200.376	-6.83
200.595	-2.73
200.814	46.42
201.033	-10.92
201.252	93.52
201.471	-21.16
201.69	83.28
201.909	5.46
202.128	79.19
202.347	107.86
202.566	-37.55
202.785	17.75
203.004	23.89
203.223	138.58
203.442	-43.69
203.661	23.89
203.879	-17.07
204.098	89.43
204.317	7.51
204.536	79.19
204.755	7.51
204.974	52.56
205.193	-25.26
205.411	60.76
205.63	1.37
205.849	73.04
206.068	107.86
206.287	52.56
206.505	-0.68
206.724	-6.83
206.943	48.47
207.162	11.61
207.381	-49.83
207.599	-15.02
207.818	89.43
208.037	-6.83
208.255	38.23
208.474	21.85
208.693	54.61
208.911	60.76
209.13	15.7
209.349	48.47
209.567	11.61
209.786	107.86
210.005	17.75
210.223	-4.78
210.442	-47.79
210.661	-45.74
210.879	42.32
211.098	-23.21
211.316	32.08
211.535	93.52
211.753	36.18
211.972	19.8
212.191	44.37
212.409	56.66
212.628	46.42
212.846	11.61
213.065	32.08
213.283	68.95
213.502	7.51
213.72	87.38
213.938	64.85
214.157	15.7
214.375	15.7
214.594	58.71
214.812	44.37
215.031	36.18
215.249	11.61
215.467	-39.59
215.686	58.71
215.904	5.46
216.122	13.65
216.341	73.04
216.559	-2.73
216.778	38.23
216.996	44.37
217.214	38.23
217.432	32.08
217.651	73.04
217.869	83.28
218.087	19.8
218.306	19.8
218.524	19.8
218.742	-33.45
218.96	27.99
219.179	15.7
219.397	83.28
219.615	109.91
219.833	66.9
220.051	60.76
220.27	-8.87
220.488	-39.59
220.706	15.7
220.924	-45.74
221.142	11.61
221.36	32.08
221.578	118.1
221.796	13.65
222.015	85.33
222.233	62.8
222.451	1.37
222.669	-4.78
222.887	77.14
223.105	52.56
223.323	-4.78
223.541	-43.69
223.759	42.32
223.977	34.13
224.195	60.76
224.413	36.18
224.631	44.37
224.849	21.85
225.067	52.56
225.285	-72.36
225.503	-29.35
225.721	15.7
225.939	23.89
226.157	36.18
226.375	89.43
226.592	7.51
226.81	34.13
227.028	77.14
227.246	60.76
227.464	-4.78
227.682	54.61
227.9	25.94
228.117	38.23
228.335	-17.07
228.553	48.47
228.771	-8.87
228.989	13.65
229.206	17.75
229.424	-29.35
229.642	-84.65
229.86	27.99
230.077	27.99
230.295	3.41
230.513	73.04
230.731	83.28
230.948	77.14
231.166	99.67
231.384	7.51
231.601	-0.68
231.819	46.42
232.037	23.89
232.254	-6.83
232.472	-15.02
232.689	-0.68
232.907	-12.97
233.125	34.13
233.342	42.32
233.56	-19.11
233.777	44.37
233.995	5.46
234.213	52.56
234.43	52.56
234.648	1.37
234.865	-27.31
235.083	50.52
235.3	50.52
235.518	34.13
235.735	81.24
235.953	25.94
236.17	-0.68
236.388	-10.92
236.605	21.85
236.822	85.33
237.04	81.24
237.257	-15.02
237.475	15.7
237.692	73.04
237.909	75.09
238.127	7.51
238.344	36.18
238.562	36.18
238.779	-47.79
238.996	-119.46
239.214	40.28
239.431	42.32
239.648	-37.55
239.865	93.52
240.083	-10.92
240.3	-4.78
240.517	-31.4
240.735	62.8
240.952	95.57
241.169	52.56
241.386	9.56
241.603	62.8
241.821	3.41
242.038	48.47
242.255	48.47
242.472	-51.88
242.689	93.52
242.907	71
243.124	-2.73
243.341	9.56
243.558	-19.11
243.775	38.23
243.992	-127.66
244.209	11.61
244.426	-0.68
244.643	128.34
244.86	-17.07
245.078	32.08
245.295	-0.68
245.512	-29.35
245.729	77.14
245.946	68.95
246.163	79.19
246.38	-10.92
246.597	-19.11
246.814	21.85
247.031	30.04
247.248	89.43
247.464	15.7
247.681	-17.07
247.898	9.56
248.115	50.52
248.332	-35.5
248.549	68.95
248.766	58.71
248.983	-37.55
249.2	34.13
249.417	15.7
249.633	71
249.85	13.65
250.067	-17.07
250.284	25.94
250.501	73.04
250.717	27.99
250.934	-19.11
251.151	-8.87
251.368	-27.31
251.585	32.08
251.801	30.04
252.018	62.8
252.235	48.47
252.451	40.28
252.668	-31.4
252.885	58.71
253.102	99.67
253.318	75.09
253.535	-35.5
253.752	34.13
253.968	-39.59
254.185	-53.93
254.401	25.94
254.618	-2.73
254.835	1.37
255.051	48.47
255.268	11.61
255.484	40.28
255.701	60.76
255.917	44.37
256.134	9.56
256.351	36.18
256.567	-131.75
256.784	50.52
257	-35.5
257.217	1.37
257.433	3.41
257.65	103.76
257.866	46.42
258.082	3.41
258.299	-51.88
258.515	25.94
258.732	99.67
258.948	-51.88
259.165	27.99
259.381	17.75
259.597	40.28
259.814	40.28
260.03	-8.87
260.246	50.52
260.463	136.53
260.679	40.28
260.895	83.28
261.112	-41.64
261.328	-55.98
261.544	-10.92
261.761	60.76
261.977	23.89
262.193	5.46
262.409	118.1
262.626	66.9
262.842	32.08
263.058	27.99
263.274	23.89
263.49	44.37
263.707	73.04
263.923	95.57
264.139	-21.16
264.355	40.28
264.571	11.61
264.787	25.94
265.004	-29.35
265.22	-2.73
265.436	79.19
265.652	79.19
265.868	111.96
266.084	-37.55
266.3	50.52
266.516	9.56
266.732	15.7
266.948	50.52
267.164	21.85
267.38	30.04
267.596	3.41
267.812	52.56
268.028	46.42
268.244	-31.4
268.46	23.89
268.676	34.13
268.892	50.52
269.108	-60.07
269.324	68.95
269.54	-15.02
269.756	48.47
269.972	15.7
270.188	50.52
270.403	17.75
270.619	42.32
270.835	34.13
271.051	17.75
271.267	21.85
271.483	-21.16
271.698	71
271.914	81.24
272.13	-10.92
272.346	15.7
272.562	7.51
272.777	23.89
272.993	71
273.209	-23.21
273.425	50.52
273.64	-41.64
273.856	56.66
274.072	-64.17
274.287	-45.74
274.503	-8.87
274.719	27.99
274.934	40.28
275.15	-31.4
275.366	-31.4
275.581	-8.87
275.797	60.76
276.012	-31.4
276.228	-6.83
276.444	11.61
276.659	36.18
276.875	9.56
277.09	75.09
277.306	71
277.521	3.41
277.737	21.85
277.952	95.57
278.168	36.18
278.383	-49.83
278.599	-15.02
278.814	44.37
279.03	11.61
279.245	15.7
279.461	40.28
279.676	89.43
279.892	-39.59
280.107	52.56
280.322	5.46
280.538	66.9
280.753	56.66
280.969	46.42
281.184	62.8
281.399	25.94
281.615	9.56
281.83	-10.92
282.045	34.13
282.26	-15.02
282.476	-55.98
282.691	79.19
282.906	23.89
283.122	21.85
283.337	21.85
283.552	54.61
283.767	32.08
283.983	64.85
284.198	19.8
284.413	68.95
284.628	-6.83
284.843	32.08
285.058	42.32
285.274	-35.5
285.489	-8.87
285.704	60.76
285.919	42.32
286.134	17.75
286.349	3.41
286.564	17.75
286.779	126.29
286.995	3.41
287.21	-19.11
287.425	71
287.64	17.75
287.855	19.8
288.07	81.24
288.285	38.23
288.5	-19.11
288.715	-19.11
288.93	93.52
289.145	-35.5
289.36	3.41
289.575	163.15
289.79	-21.16
290.004	-84.65
290.219	87.38
290.434	7.51
290.649	-15.02
290.864	-35.5
291.079	15.7
291.294	11.61
291.509	46.42
291.724	21.85
291.938	-2.73
292.153	93.52
292.368	-8.87
292.583	34.13
292.798	91.48
293.012	62.8
293.227	15.7
293.442	-86.7
293.657	83.28
293.871	62.8
294.086	27.99
294.301	85.33
294.516	87.38
294.73	71
294.945	15.7
295.16	-15.02
295.374	13.65
295.589	44.37
295.804	30.04
296.018	3.41
296.233	107.86
296.447	85.33
296.662	36.18
296.877	21.85
297.091	-0.68
297.306	68.95
297.52	62.8
297.735	64.85
297.949	40.28
298.164	32.08
298.378	9.56
298.593	-58.03
298.807	13.65
299.022	30.04
299.236	21.85
299.451	17.75
299.665	-15.02
299.88	7.51
300.094	32.08
300.309	58.71
300.523	64.85
300.737	-53.93
300.952	-0.68
301.166	52.56
301.381	-19.11
301.595	62.8
301.809	36.18
302.024	21.85
302.238	87.38
302.452	48.47
302.667	-19.11
302.881	19.8
303.095	50.52
303.309	81.24
303.524	42.32
303.738	40.28
303.952	21.85
304.166	-25.26
304.381	-6.83
304.595	99.67
304.809	-15.02
305.023	48.47
305.237	15.7
305.452	73.04
305.666	-6.83
305.88	52.56
306.094	62.8
306.308	87.38
306.522	40.28
306.736	40.28
306.95	-4.78
307.164	101.72
307.379	30.04
307.593	58.71
307.807	23.89
308.021	85.33
308.235	-33.45
308.449	17.75
308.663	5.46
308.877	109.91
309.091	60.76
309.305	68.95
309.519	-2.73
309.733	9.56
309.947	9.56
310.161	99.67
310.374	21.85
310.588	9.56
310.802	-8.87
311.016	58.71
311.23	79.19
311.444	-17.07
311.658	-10.92
311.872	85.33
312.085	52.56
312.299	46.42
312.513	60.76
312.727	64.85
312.941	-62.12
313.154	-27.31
313.368	-31.4
313.582	73.04
313.796	11.61
314.009	19.8
314.223	-64.17
314.437	58.71
314.651	15.7
314.864	-21.16
315.078	27.99
315.292	-27.31
315.505	-27.31
315.719	58.71
315.933	23.89
316.146	19.8
316.36	-4.78
316.573	50.52
316.787	109.91
317.001	91.48
317.214	15.7
317.428	13.65
317.641	-33.45
317.855	11.61
318.068	52.56
318.282	3.41
318.495	103.76
318.709	48.47
318.922	44.37
319.136	32.08
319.349	36.18
319.563	-8.87
319.776	23.89
319.99	-31.4
320.203	58.71
320.417	-29.35
320.63	73.04
320.843	120.15
321.057	58.71
321.27	-39.59
321.483	48.47
321.697	36.18
321.91	-33.45
322.124	17.75
322.337	54.61
322.55	42.32
322.763	7.51
322.977	-35.5
323.19	-41.64
323.403	-4.78
323.617	142.68
323.83	32.08
324.043	9.56
324.256	75.09
324.469	73.04
324.683	71
324.896	3.41
325.109	11.61
325.322	23.89
325.535	-6.83
325.748	30.04
325.962	30.04
326.175	-2.73
326.388	-4.78
326.601	40.28
326.814	93.52
327.027	3.41
327.24	77.14
327.453	17.75
327.666	13.65
327.879	52.56
328.092	68.95
328.305	21.85
328.518	-2.73
328.731	64.85
328.944	-47.79
329.157	23.89
329.37	5.46
329.583	77.14
329.796	132.44
330.009	1.37
330.222	58.71
330.435	118.1
330.648	68.95
330.861	36.18
331.073	-4.78
331.286	71
331.499	30.04
331.712	-6.83
331.925	48.47
332.138	15.7
332.35	73.04
332.563	3.41
332.776	105.81
332.989	-15.02
333.202	25.94
333.414	58.71
333.627	-82.6
333.84	-25.26
334.053	-2.73
334.265	3.41
334.478	7.51
334.691	17.75
334.903	21.85
335.116	17.75
335.329	-35.5
335.541	77.14
335.754	83.28
335.966	-82.6
336.179	19.8
336.392	13.65
336.604	68.95
336.817	46.42
337.029	62.8
337.242	15.7
337.454	73.04
337.667	7.51
337.88	25.94
338.092	48.47
338.305	15.7
338.517	-2.73
338.729	34.13
338.942	140.63
339.154	58.71
339.367	-29.35
339.579	40.28
339.792	11.61
340.004	34.13
340.217	38.23
340.429	13.65
340.641	-29.35
340.854	-4.78
341.066	81.24
341.278	146.77
341.491	132.44
341.703	95.57
341.915	-53.93
342.128	38.23
342.34	-78.51
342.552	71
342.764	40.28
342.977	9.56
343.189	114
343.401	3.41
343.613	27.99
343.826	62.8
344.038	17.75
344.25	21.85
344.462	-37.55
344.674	56.66
344.886	-43.69
345.099	-15.02
345.311	54.61
345.523	79.19
345.735	-0.68
345.947	25.94
346.159	32.08
346.371	40.28
346.583	109.91
346.795	58.71
347.007	-39.59
347.219	42.32
347.431	54.61
347.643	46.42
347.855	21.85
348.067	56.66
348.279	-33.45
348.491	21.85
348.703	1.37
348.915	-27.31
349.127	-19.11
349.339	19.8
349.551	23.89
349.763	36.18
349.975	107.86
350.187	52.56
350.399	58.71
350.61	64.85
350.822	17.75
351.034	71
351.246	-4.78
351.458	99.67
351.669	111.96
351.881	23.89
352.093	7.51
352.305	120.15
352.517	46.42
352.728	107.86
352.94	3.41
353.152	56.66
353.363	-23.21
353.575	38.23
353.787	38.23
353.999	75.09
354.21	52.56
354.422	93.52
354.633	83.28
354.845	52.56
355.057	-31.4
355.268	40.28
355.48	114
355.692	7.51
355.903	40.28
356.115	52.56
356.326	-62.12
356.538	75.09
356.749	3.41
356.961	105.81
357.172	52.56
357.384	-25.26
357.595	101.72
357.807	-10.92
358.018	17.75
358.23	25.94
358.441	142.68
358.653	38.23
358.864	-31.4
359.075	-72.36
359.287	124.24
359.498	85.33
359.709	-10.92
359.921	19.8
360.132	52.56
360.344	1.37
360.555	19.8
360.766	38.23
360.977	56.66
361.189	54.61
361.4	-4.78
361.611	81.24
361.823	58.71
362.034	1.37
362.245	-25.26
362.456	19.8
362.667	66.9
362.879	7.51
363.09	34.13
363.301	89.43
363.512	73.04
363.723	25.94
363.935	32.08
364.146	77.14
364.357	-47.79
364.568	79.19
364.779	-45.74
364.99	-8.87
365.201	79.19
365.412	71
365.623	-31.4
365.834	89.43
366.045	77.14
366.256	3.41
366.467	27.99
366.678	32.08
366.889	75.09
367.1	42.32
367.311	95.57
367.522	-27.31
367.733	85.33
367.944	11.61
368.155	48.47
368.366	71
368.577	50.52
368.788	68.95
368.999	66.9
369.209	19.8
369.42	64.85
369.631	83.28
369.842	97.62
370.053	-47.79
370.264	83.28
370.474	-37.55
370.685	-6.83
370.896	19.8
371.107	64.85
371.317	58.71
371.528	17.75
371.739	122.2
371.95	75.09
372.16	50.52
372.371	-45.74
372.582	-51.88
372.792	34.13
373.003	36.18
373.214	42.32
373.424	-10.92
373.635	34.13
373.846	77.14
374.056	60.76
374.267	130.39
374.477	19.8
374.688	71
374.898	46.42
375.109	3.41
375.319	64.85
375.53	73.04
375.74	75.09
375.951	38.23
376.161	-15.02
376.372	-12.97
376.582	-2.73
376.793	-47.79
377.003	-8.87
377.214	27.99
377.424	5.46
377.635	56.66
377.845	5.46
378.055	120.15
378.266	-70.31
378.476	25.94
378.686	109.91
378.897	34.13
379.107	105.81
379.317	11.61
379.528	-6.83
379.738	23.89
379.948	-74.41
380.158	38.23
380.369	73.04
380.579	58.71
380.789	13.65
380.999	64.85
381.21	89.43
381.42	122.2
381.63	-10.92
381.84	42.32
382.05	68.95
382.261	66.9
382.471	118.1
382.681	21.85
382.891	54.61
383.101	19.8
383.311	-35.5
383.521	73.04
383.731	95.57
383.941	52.56
384.151	95.57
384.361	58.71
384.571	66.9
384.781	56.66
384.991	48.47
385.201	44.37
385.411	81.24
385.621	-0.68
385.831	32.08
386.041	1.37
386.251	32.08
386.461	83.28
386.671	1.37
386.881	62.8
387.091	-66.22
387.301	91.48
387.511	50.52
387.72	68.95
387.93	64.85
388.14	85.33
388.35	-31.4
388.56	27.99
388.769	56.66
388.979	3.41
389.189	-6.83
389.399	107.86
389.609	116.05
389.818	64.85
390.028	42.32
390.238	60.76
390.447	30.04
390.657	46.42
390.867	-4.78
391.076	40.28
391.286	62.8
391.496	9.56
391.705	21.85
391.915	44.37
392.125	19.8
392.334	42.32
392.544	50.52
392.753	93.52
392.963	7.51
393.172	48.47
393.382	30.04
393.591	58.71
393.801	38.23
394.01	181.59
394.22	48.47
394.429	85.33
394.639	7.51
394.848	60.76
395.058	73.04
395.267	77.14
395.477	132.44
395.686	79.19
395.895	64.85
396.105	95.57
396.314	159.06
396.524	73.04
396.733	50.52
396.942	83.28
397.152	-21.16
397.361	114
397.57	122.2
397.78	-29.35
397.989	32.08
398.198	93.52
398.407	101.72
398.617	-4.78
398.826	50.52
399.035	73.04
399.244	107.86
399.453	93.52
399.663	25.94
399.872	142.68
400.081	40.28
400.29	116.05
400.499	120.15
400.708	46.42
400.917	91.48
401.127	9.56
401.336	9.56
401.545	159.06
401.754	163.15
401.963	93.52
402.172	-6.83
402.381	30.04
402.59	77.14
402.799	52.56
403.008	32.08
403.217	93.52
403.426	64.85
403.635	89.43
403.844	64.85
404.053	87.38
404.262	75.09
404.471	132.44
404.68	177.49
404.888	128.34
405.097	99.67
405.306	99.67
405.515	191.83
405.724	109.91
405.933	97.62
406.142	150.87
406.35	163.15
406.559	52.56
406.768	128.34
406.977	200.02
407.185	142.68
407.394	122.2
407.603	95.57
407.812	173.39
408.02	173.39
408.229	118.1
408.438	142.68
408.646	126.29
408.855	134.48
409.064	208.21
409.272	210.26
409.481	245.07
409.69	181.59
409.898	179.54
410.107	150.87
410.315	175.44
410.524	220.5
410.733	226.64
410.941	195.92
411.15	275.79
411.358	247.12
411.567	331.09
411.775	238.93
411.984	267.6
412.192	290.13
412.401	341.33
412.609	228.69
412.818	437.58
413.026	415.06
413.234	296.27
413.443	355.66
413.651	376.14
413.86	331.09
414.068	451.92
414.276	449.87
414.485	427.34
414.693	429.39
414.901	451.92
415.11	443.73
415.318	492.88
415.526	488.78
415.734	529.74
415.943	499.02
416.151	613.71
416.359	570.7
416.567	603.47
416.776	623.95
416.984	664.91
417.192	699.72
417.4	570.7
417.608	642.38
417.817	601.42
418.025	609.61
418.233	820.55
418.441	724.3
418.649	750.92
418.857	802.12
419.065	798.03
419.273	892.23
419.481	873.8
419.689	881.99
419.897	951.62
420.105	996.68
420.313	1037.64
420.521	1103.17
420.729	1074.5
420.937	1129.8
421.145	1207.62
421.353	1181
421.561	1174.85
421.769	1355.07
421.977	1361.22
422.185	1264.96
422.393	1453.38
422.601	1566.01
422.809	1545.53
423.017	1586.49
423.224	1668.41
423.432	1652.03
423.64	1658.17
423.848	1871.16
424.056	1766.71
424.263	1938.74
424.471	1885.5
424.679	1910.07
424.887	2022.71
425.094	2090.29
425.302	2121.01
425.51	2071.86
425.718	2295.09
425.925	2180.4
426.133	2303.28
426.341	2540.85
426.548	2600.24
426.756	2647.34
426.964	2694.44
427.171	2792.75
427.379	2798.89
427.586	2923.82
427.794	2835.75
428.001	3011.88
428.209	3255.59
428.417	3036.45
428.624	3517.73
428.832	3527.97
429.039	3403.04
429.247	3403.04
429.454	3708.19
429.662	3912.99
429.869	3726.62
430.076	3976.47
430.284	3908.89
430.491	4015.38
430.699	4183.32
430.906	4351.25
431.114	4326.68
431.321	4644.11
431.528	4564.24
431.736	5004.55
431.943	5072.14
432.15	5018.89
432.358	5096.71
432.565	5428.48
432.772	5414.15
432.979	5504.26
433.187	5725.44
433.394	5672.19
433.601	5901.56
433.808	6165.75
434.016	5901.56
434.223	6247.67
434.43	6452.47
434.637	6554.87
434.844	7009.51
435.052	7077.1
435.259	7130.34
435.466	7091.43
435.673	7134.44
435.88	7560.42
436.087	7931.1
436.294	7896.28
436.501	7595.23
436.708	7853.28
436.915	8248.54
437.122	8469.72
437.329	8559.83
437.537	8778.96
437.743	8754.38
437.95	8944.84
438.157	9268.42
438.364	9419.97
438.571	9557.19
438.778	9761.98
438.985	10661.04
439.192	10212.54
439.399	10351.8
439.606	10044.6
439.813	10947.76
440.02	11521.19
440.227	11383.98
440.433	11109.55
440.64	11476.13
440.847	11261.1
441.054	11852.96
441.261	12692.63
441.467	12344.47
441.674	12399.77
441.881	12936.34
442.088	13003.92
442.294	13163.66
442.501	13151.37
442.708	13472.9
442.914	14259.32
443.121	14699.64
443.328	14232.7
443.534	15379.56
443.741	14711.92
443.948	14769.27
444.154	15776.87
444.361	15703.14
444.568	15549.54
444.774	15615.08
444.981	15803.49
445.187	16620.63
445.394	17359.95
445.6	16948.31
445.807	18392.12
446.013	17597.51
446.22	17962.05
446.426	18641.98
446.633	19119.15
446.839	19883.05
447.046	18879.54
447.252	19821.61
447.459	19792.94
447.665	19952.68
447.871	20804.63
448.078	21554.19
448.284	20544.54
448.491	21103.64
448.697	21998.6
448.903	22547.45
449.11	22354.94
449.316	21914.63
449.522	22594.56
449.728	23022.58
449.935	23362.54
450.141	22991.86
450.347	23743.47
450.553	22787.07
450.76	23325.68
450.966	24050.66
451.172	24021.99
451.378	24515.55
451.584	24318.95
451.791	24437.73
451.997	24153.06
452.203	24802.27
452.409	25134.04
452.615	24730.59
452.821	23950.31
453.027	23589.87
453.233	24753.12
453.44	23821.29
453.646	24400.86
453.852	24263.65
454.058	24749.02
454.264	23589.87
454.47	24277.99
454.676	23929.83
454.882	24832.99
455.088	22647.8
455.294	22961.14
455.5	23075.83
455.705	23200.76
455.911	22543.36
456.117	21791.75
456.323	21695.5
456.529	20569.12
456.735	21490.7
456.941	20753.43
457.147	20472.86
457.352	19909.67
457.558	19676.2
457.764	19631.15
457.97	19237.94
458.176	19231.79
458.381	18928.69
458.587	17861.7
458.793	17992.77
458.999	17028.18
459.204	18185.28
459.41	17734.73
459.616	16280.67
459.821	16503.9
460.027	16454.75
460.233	15930.47
460.438	15344.75
460.644	15318.12
460.85	14806.13
461.055	14599.29
461.261	14408.83
461.466	13495.43
461.672	13192.33
461.878	13978.75
462.083	13042.83
462.289	12733.59
462.494	12367
462.7	12070.05
462.905	11762.85
463.111	12266.65
463.316	12346.52
463.522	11875.49
463.727	11893.92
463.932	11818.15
464.138	11674.79
464.343	12080.28
464.549	11422.89
464.754	11852.96
464.959	11883.68
465.165	11781.28
465.37	11291.82
465.575	10919.09
465.781	11349.16
465.986	11457.7
466.191	11064.49
466.397	10851.5
466.602	10366.14
466.807	10734.77
467.012	10509.49
467.218	10681.52
467.423	10601.65
467.628	10517.68
467.833	11019.44
468.038	10585.27
468.244	10280.12
468.449	10536.12
468.654	10437.81
