Data from USB4F104151__93__12-24-55-257.txt Node

Date: Fri Mar 14 12:24:55 EDT 2025
User: louis
Spectrometer: USB4F10415
Trigger mode: 4
Integration Time (sec): 3.500000E-2
Scans to average: 1
Electric dark correction enabled: true
Nonlinearity correction enabled: false
Boxcar width: 0
XAxis mode: Wavelengths
Number of Pixels in Spectrum: 3648
>>>>>Begin Spectral Data<<<<<
178.204	-172.37
178.424	-172.37
178.644	-172.37
178.864	-135.51
179.084	-168.27
179.304	-78.16
179.524	36.52
179.744	-31.06
179.964	-2.39
180.184	-49.49
180.404	3.75
180.624	-10.58
180.844	26.28
181.064	-59.73
181.283	91.82
181.503	-24.92
181.723	97.96
181.943	-43.35
182.163	73.39
182.383	-78.16
182.602	20.14
182.822	13.99
183.042	-35.16
183.262	-26.96
183.482	-37.2
183.701	1.71
183.921	52.91
184.141	-16.73
184.361	28.33
184.58	20.14
184.8	-10.58
185.02	-4.44
185.239	83.63
185.459	-4.44
185.679	46.76
185.898	-78.16
186.118	-31.06
186.338	7.85
186.557	63.15
186.777	11.95
186.997	69.29
187.216	48.81
187.436	183.98
187.655	24.23
187.875	36.52
188.095	-8.53
188.314	44.71
188.534	46.76
188.753	28.33
188.973	-18.77
189.192	89.77
189.412	48.81
189.631	54.95
189.851	-14.68
190.07	97.96
190.29	5.8
190.509	46.76
190.729	71.34
190.948	-14.68
191.168	147.11
191.387	13.99
191.607	34.47
191.826	28.33
192.045	26.28
192.265	-65.88
192.484	-10.58
192.704	34.47
192.923	-51.54
193.142	28.33
193.362	16.04
193.581	61.1
193.8	52.91
194.02	71.34
194.239	3.75
194.458	-16.73
194.678	-45.4
194.897	65.19
195.116	85.67
195.335	104.11
195.555	-8.53
195.774	-2.39
195.993	-41.3
196.212	-26.96
196.432	-16.73
196.651	-49.49
196.87	9.9
197.089	177.83
197.308	22.19
197.528	-10.58
197.747	-33.11
197.966	-65.88
198.185	73.39
198.404	-39.25
198.623	-45.4
198.842	9.9
199.062	81.58
199.281	-53.59
199.5	-20.82
199.719	93.87
199.938	-2.39
200.157	97.96
200.376	9.9
200.595	75.43
200.814	57
201.033	-65.88
201.252	83.63
201.471	-4.44
201.69	67.24
201.909	36.52
202.128	34.47
202.347	-0.34
202.566	-4.44
202.785	48.81
203.004	9.9
203.223	69.29
203.442	93.87
203.661	34.47
203.879	-8.53
204.098	128.68
204.317	-6.49
204.536	40.62
204.755	-26.96
204.974	32.43
205.193	26.28
205.411	130.73
205.63	28.33
205.849	40.62
206.068	7.85
206.287	16.04
206.505	63.15
206.724	-16.73
206.943	-8.53
207.162	-63.83
207.381	-65.88
207.599	-53.59
207.818	46.76
208.037	-10.58
208.255	-4.44
208.474	48.81
208.693	-22.87
208.911	5.8
209.13	-18.77
209.349	48.81
209.567	28.33
209.786	-4.44
210.005	79.53
210.223	-14.68
210.442	-43.35
210.661	63.15
210.879	48.81
211.098	7.85
211.316	32.43
211.535	-22.87
211.753	13.99
211.972	20.14
212.191	30.38
212.409	-57.68
212.628	-26.96
212.846	-47.44
213.065	-43.35
213.283	61.1
213.502	-43.35
213.72	-8.53
213.938	-80.21
214.157	63.15
214.375	-24.92
214.594	-72.02
214.812	-4.44
215.031	-22.87
215.249	-67.92
215.467	24.23
215.686	-6.49
215.904	46.76
216.122	11.95
216.341	122.54
216.559	26.28
216.778	61.1
216.996	22.19
217.214	16.04
217.432	9.9
217.651	34.47
217.869	73.39
218.087	-24.92
218.306	-33.11
218.524	61.1
218.742	-31.06
218.96	-4.44
219.179	-0.34
219.397	-26.96
219.615	71.34
219.833	36.52
220.051	42.67
220.27	71.34
220.488	57
220.706	93.87
220.924	26.28
221.142	-47.44
221.36	5.8
221.578	-22.87
221.796	-45.4
222.015	16.04
222.233	22.19
222.451	48.81
222.669	-12.63
222.887	-6.49
223.105	-4.44
223.323	40.62
223.541	22.19
223.759	38.57
223.977	36.52
224.195	77.48
224.413	22.19
224.631	32.43
224.849	20.14
225.067	73.39
225.285	46.76
225.503	75.43
225.721	-92.5
225.939	22.19
226.157	-59.73
226.375	85.67
226.592	-10.58
226.81	20.14
227.028	73.39
227.246	106.15
227.464	7.85
227.682	38.57
227.9	40.62
228.117	5.8
228.335	48.81
228.553	-51.54
228.771	22.19
228.989	-29.01
229.206	-31.06
229.424	-29.01
229.642	20.14
229.86	-39.25
230.077	52.91
230.295	87.72
230.513	20.14
230.731	-26.96
230.948	-18.77
231.166	38.57
231.384	-2.39
231.601	-49.49
231.819	52.91
232.037	-84.31
232.254	-8.53
232.472	-0.34
232.689	13.99
232.907	16.04
233.125	52.91
233.342	30.38
233.56	-41.3
233.777	-10.58
233.995	5.8
234.213	69.29
234.43	20.14
234.648	32.43
234.865	34.47
235.083	3.75
235.3	54.95
235.518	-6.49
235.735	87.72
235.953	-16.73
236.17	30.38
236.388	-37.2
236.605	18.09
236.822	-8.53
237.04	28.33
237.257	9.9
237.475	-43.35
237.692	48.81
237.909	-20.82
238.127	7.85
238.344	57
238.562	9.9
238.779	-47.44
238.996	-39.25
239.214	50.86
239.431	-26.96
239.648	26.28
239.865	-2.39
240.083	-6.49
240.3	9.9
240.517	-20.82
240.735	22.19
240.952	20.14
241.169	-8.53
241.386	44.71
241.603	24.23
241.821	-26.96
242.038	46.76
242.255	77.48
242.472	1.71
242.689	59.05
242.907	32.43
243.124	-39.25
243.341	16.04
243.558	-43.35
243.775	-8.53
243.992	-22.87
244.209	7.85
244.426	89.77
244.643	69.29
244.86	24.23
245.078	57
245.295	13.99
245.512	32.43
245.729	18.09
245.946	38.57
246.163	57
246.38	7.85
246.597	28.33
246.814	30.38
247.031	18.09
247.248	59.05
247.464	48.81
247.681	-12.63
247.898	54.95
248.115	48.81
248.332	-31.06
248.549	-0.34
248.766	13.99
248.983	-33.11
249.2	-22.87
249.417	-22.87
249.633	5.8
249.85	57
250.067	24.23
250.284	-12.63
250.501	7.85
250.717	20.14
250.934	-76.12
251.151	9.9
251.368	16.04
251.585	59.05
251.801	102.06
252.018	-26.96
252.235	11.95
252.451	-12.63
252.668	28.33
252.885	22.19
253.102	63.15
253.318	-29.01
253.535	-92.5
253.752	7.85
253.968	-4.44
254.185	59.05
254.401	-0.34
254.618	7.85
254.835	-45.4
255.051	30.38
255.268	81.58
255.484	59.05
255.701	-98.64
255.917	38.57
256.134	-18.77
256.351	-4.44
256.567	-0.34
256.784	28.33
257	-12.63
257.217	63.15
257.433	-20.82
257.65	32.43
257.866	48.81
258.082	38.57
258.299	-49.49
258.515	5.8
258.732	11.95
258.948	-35.16
259.165	-18.77
259.381	-6.49
259.597	-20.82
259.814	54.95
260.03	16.04
260.246	7.85
260.463	54.95
260.679	59.05
260.895	38.57
261.112	46.76
261.328	52.91
261.544	-61.78
261.761	91.82
261.977	22.19
262.193	-8.53
262.409	5.8
262.626	11.95
262.842	28.33
263.058	-41.3
263.274	71.34
263.49	7.85
263.707	69.29
263.923	71.34
264.139	32.43
264.355	81.58
264.571	26.28
264.787	32.43
265.004	-2.39
265.22	16.04
265.436	-14.68
265.652	20.14
265.868	-65.88
266.084	5.8
266.3	-6.49
266.516	-10.58
266.732	22.19
266.948	5.8
267.164	1.71
267.38	40.62
267.596	-53.59
267.812	120.49
268.028	-24.92
268.244	-45.4
268.46	-4.44
268.676	22.19
268.892	118.44
269.108	-14.68
269.324	63.15
269.54	-37.2
269.756	67.24
269.972	-43.35
270.188	-16.73
270.403	-2.39
270.619	118.44
270.835	52.91
271.051	-8.53
271.267	-29.01
271.483	18.09
271.698	28.33
271.914	-16.73
272.13	-18.77
272.346	-72.02
272.562	-41.3
272.777	9.9
272.993	7.85
273.209	-12.63
273.425	-6.49
273.64	-26.96
273.856	38.57
274.072	-22.87
274.287	-45.4
274.503	42.67
274.719	-39.25
274.934	3.75
275.15	11.95
275.366	26.28
275.581	13.99
275.797	50.86
276.012	34.47
276.228	-16.73
276.444	61.1
276.659	28.33
276.875	-72.02
277.09	-22.87
277.306	36.52
277.521	97.96
277.737	-67.92
277.952	-2.39
278.168	-55.64
278.383	11.95
278.599	69.29
278.814	30.38
279.03	65.19
279.245	7.85
279.461	18.09
279.676	-14.68
279.892	-18.77
280.107	28.33
280.322	-37.2
280.538	-12.63
280.753	-35.16
280.969	42.67
281.184	-24.92
281.399	13.99
281.615	-20.82
281.83	-26.96
282.045	30.38
282.26	-61.78
282.476	48.81
282.691	18.09
282.906	7.85
283.122	42.67
283.337	9.9
283.552	73.39
283.767	32.43
283.983	46.76
284.198	13.99
284.413	1.71
284.628	-61.78
284.843	42.67
285.058	75.43
285.274	34.47
285.489	-63.83
285.704	54.95
285.919	7.85
286.134	24.23
286.349	20.14
286.564	81.58
286.779	75.43
286.995	-133.46
287.21	-6.49
287.425	83.63
287.64	-20.82
287.855	16.04
288.07	-6.49
288.285	57
288.5	16.04
288.715	85.67
288.93	24.23
289.145	-6.49
289.36	34.47
289.575	-8.53
289.79	67.24
290.004	-57.68
290.219	61.1
290.434	73.39
290.649	-43.35
290.864	24.23
291.079	5.8
291.294	-12.63
291.509	-2.39
291.724	-6.49
291.938	-14.68
292.153	34.47
292.368	34.47
292.583	-8.53
292.798	1.71
293.012	22.19
293.227	-12.63
293.442	-35.16
293.657	59.05
293.871	59.05
294.086	-6.49
294.301	104.11
294.516	1.71
294.73	42.67
294.945	42.67
295.16	-18.77
295.374	75.43
295.589	36.52
295.804	-31.06
296.018	-57.68
296.233	63.15
296.447	54.95
296.662	-49.49
296.877	42.67
297.091	24.23
297.306	32.43
297.52	-14.68
297.735	61.1
297.949	-4.44
298.164	42.67
298.378	-37.2
298.593	-61.78
298.807	22.19
299.022	5.8
299.236	22.19
299.451	-51.54
299.665	-16.73
299.88	-49.49
300.094	5.8
300.309	-6.49
300.523	9.9
300.737	16.04
300.952	-10.58
301.166	79.53
301.381	-20.82
301.595	32.43
301.809	-51.54
302.024	52.91
302.238	-12.63
302.452	85.67
302.667	57
302.881	122.54
303.095	48.81
303.309	-4.44
303.524	-26.96
303.738	-6.49
303.952	32.43
304.166	30.38
304.381	-2.39
304.595	87.72
304.809	13.99
305.023	-59.73
305.237	22.19
305.452	63.15
305.666	75.43
305.88	36.52
306.094	26.28
306.308	38.57
306.522	50.86
306.736	13.99
306.95	5.8
307.164	46.76
307.379	-22.87
307.593	128.68
307.807	95.91
308.021	30.38
308.235	102.06
308.449	-31.06
308.663	-2.39
308.877	132.78
309.091	42.67
309.305	-4.44
309.519	16.04
309.733	20.14
309.947	-72.02
310.161	5.8
310.374	114.34
310.588	54.95
310.802	-37.2
311.016	-35.16
311.23	-55.64
311.444	30.38
311.658	36.52
311.872	77.48
312.085	77.48
312.299	122.54
312.513	34.47
312.727	38.57
312.941	3.75
313.154	18.09
313.368	77.48
313.582	57
313.796	38.57
314.009	24.23
314.223	40.62
314.437	1.71
314.651	79.53
314.864	5.8
315.078	18.09
315.292	7.85
315.505	61.1
315.719	32.43
315.933	9.9
316.146	-12.63
316.36	28.33
316.573	89.77
316.787	40.62
317.001	-0.34
317.214	-4.44
317.428	-0.34
317.641	-29.01
317.855	-22.87
318.068	65.19
318.282	114.34
318.495	59.05
318.709	-22.87
318.922	32.43
319.136	77.48
319.349	106.15
319.563	-6.49
319.776	9.9
319.99	1.71
320.203	38.57
320.417	-6.49
320.63	50.86
320.843	52.91
321.057	5.8
321.27	-29.01
321.483	16.04
321.697	128.68
321.91	-8.53
322.124	65.19
322.337	34.47
322.55	-33.11
322.763	18.09
322.977	50.86
323.19	46.76
323.403	38.57
323.617	69.29
323.83	89.77
324.043	5.8
324.256	122.54
324.469	13.99
324.683	48.81
324.896	34.47
325.109	3.75
325.322	11.95
325.535	5.8
325.748	-72.02
325.962	-24.92
326.175	-4.44
326.388	54.95
326.601	48.81
326.814	59.05
327.027	26.28
327.24	69.29
327.453	-24.92
327.666	89.77
327.879	126.63
328.092	147.11
328.305	-2.39
328.518	38.57
328.731	-0.34
328.944	40.62
329.157	36.52
329.37	32.43
329.583	87.72
329.796	108.2
330.009	-18.77
330.222	46.76
330.435	20.14
330.648	32.43
330.861	36.52
331.073	13.99
331.286	32.43
331.499	1.71
331.712	-26.96
331.925	38.57
332.138	48.81
332.35	73.39
332.563	5.8
332.776	44.71
332.989	-22.87
333.202	46.76
333.414	11.95
333.627	40.62
333.84	69.29
334.053	38.57
334.265	-10.58
334.478	-22.87
334.691	5.8
334.903	-20.82
335.116	5.8
335.329	-18.77
335.541	-41.3
335.754	7.85
335.966	9.9
336.179	102.06
336.392	-53.59
336.604	67.24
336.817	61.1
337.029	20.14
337.242	38.57
337.454	52.91
337.667	28.33
337.88	69.29
338.092	9.9
338.305	42.67
338.517	-12.63
338.729	-88.4
338.942	83.63
339.154	34.47
339.367	-43.35
339.579	1.71
339.792	-67.92
340.004	24.23
340.217	38.57
340.429	22.19
340.641	22.19
340.854	32.43
341.066	-59.73
341.278	13.99
341.491	54.95
341.703	87.72
341.915	7.85
342.128	26.28
342.34	-0.34
342.552	5.8
342.764	71.34
342.977	32.43
343.189	-6.49
343.401	24.23
343.613	-22.87
343.826	-4.44
344.038	13.99
344.25	28.33
344.462	-8.53
344.674	-2.39
344.886	-47.44
345.099	20.14
345.311	-8.53
345.523	93.87
345.735	-55.64
345.947	30.38
346.159	3.75
346.371	73.39
346.583	-49.49
346.795	163.5
347.007	-22.87
347.219	28.33
347.431	22.19
347.643	38.57
347.855	16.04
348.067	89.77
348.279	-22.87
348.491	65.19
348.703	95.91
348.915	-20.82
349.127	-86.36
349.339	61.1
349.551	-20.82
349.763	77.48
349.975	61.1
350.187	132.78
350.399	9.9
350.61	48.81
350.822	-57.68
351.034	3.75
351.246	-0.34
351.458	-12.63
351.669	18.09
351.881	50.86
352.093	28.33
352.305	32.43
352.517	3.75
352.728	28.33
352.94	-22.87
353.152	-0.34
353.363	50.86
353.575	-18.77
353.787	38.57
353.999	38.57
354.21	114.34
354.422	44.71
354.633	-22.87
354.845	13.99
355.057	-16.73
355.268	-31.06
355.48	69.29
355.692	-67.92
355.903	46.76
356.115	-6.49
356.326	22.19
356.538	48.81
356.749	91.82
356.961	57
357.172	-43.35
357.384	28.33
357.595	77.48
357.807	71.34
358.018	-39.25
358.23	97.96
358.441	71.34
358.653	48.81
358.864	-10.58
359.075	5.8
359.287	59.05
359.498	71.34
359.709	65.19
359.921	-10.58
360.132	48.81
360.344	22.19
360.555	-4.44
360.766	18.09
360.977	65.19
361.189	89.77
361.4	13.99
361.611	13.99
361.823	-2.39
362.034	24.23
362.245	-90.45
362.456	16.04
362.667	40.62
362.879	-29.01
363.09	13.99
363.301	69.29
363.512	42.67
363.723	71.34
363.935	-55.64
364.146	-2.39
364.357	-29.01
364.568	-16.73
364.779	1.71
364.99	32.43
365.201	11.95
365.412	83.63
365.623	-31.06
365.834	69.29
366.045	-80.21
366.256	67.24
366.467	22.19
366.678	77.48
366.889	-35.16
367.1	32.43
367.311	48.81
367.522	38.57
367.733	59.05
367.944	65.19
368.155	-49.49
368.366	46.76
368.577	22.19
368.788	73.39
368.999	30.38
369.209	65.19
369.42	42.67
369.631	122.54
369.842	69.29
370.053	59.05
370.264	-2.39
370.474	-33.11
370.685	-14.68
370.896	54.95
371.107	22.19
371.317	48.81
371.528	52.91
371.739	97.96
371.95	-35.16
372.16	32.43
372.371	-16.73
372.582	-0.34
372.792	28.33
373.003	61.1
373.214	28.33
373.424	-10.58
373.635	5.8
373.846	57
374.056	-4.44
374.267	48.81
374.477	54.95
374.688	13.99
374.898	42.67
375.109	100.01
375.319	16.04
375.53	48.81
375.74	32.43
375.951	40.62
376.161	18.09
376.372	26.28
376.582	30.38
376.793	-2.39
377.003	130.73
377.214	-31.06
377.424	-72.02
377.635	18.09
377.845	9.9
378.055	93.87
378.266	-49.49
378.476	114.34
378.686	36.52
378.897	40.62
379.107	24.23
379.317	22.19
379.528	-29.01
379.738	52.91
379.948	-43.35
380.158	-8.53
380.369	-16.73
380.579	30.38
380.789	42.67
380.999	48.81
381.21	54.95
381.42	91.82
381.63	16.04
381.84	73.39
382.05	42.67
382.261	54.95
382.471	48.81
382.681	20.14
382.891	59.05
383.101	28.33
383.311	59.05
383.521	85.67
383.731	97.96
383.941	106.15
384.151	73.39
384.361	181.93
384.571	46.76
384.781	28.33
384.991	46.76
385.201	63.15
385.411	63.15
385.621	36.52
385.831	5.8
386.041	-0.34
386.251	57
386.461	87.72
386.671	34.47
386.881	-14.68
387.091	28.33
387.301	36.52
387.511	3.75
387.72	46.76
387.93	61.1
388.14	-10.58
388.35	-18.77
388.56	61.1
388.769	140.97
388.979	42.67
389.189	59.05
389.399	120.49
389.609	61.1
389.818	48.81
390.028	-4.44
390.238	36.52
390.447	13.99
390.657	81.58
390.867	22.19
391.076	59.05
391.286	-35.16
391.496	28.33
391.705	-4.44
391.915	57
392.125	34.47
392.334	5.8
392.544	95.91
392.753	28.33
392.963	38.57
393.172	122.54
393.382	-29.01
393.591	116.39
393.801	-22.87
394.01	71.34
394.22	42.67
394.429	54.95
394.639	36.52
394.848	147.11
395.058	13.99
395.267	18.09
395.477	61.1
395.686	85.67
395.895	118.44
396.105	134.82
396.314	38.57
396.524	67.24
396.733	114.34
396.942	71.34
397.152	124.58
397.361	36.52
397.57	11.95
397.78	59.05
397.989	3.75
398.198	161.45
398.407	48.81
398.617	59.05
398.826	63.15
399.035	46.76
399.244	77.48
399.453	145.06
399.663	93.87
399.872	30.38
400.081	34.47
400.29	91.82
400.499	-20.82
400.708	159.4
400.917	65.19
401.127	83.63
401.336	75.43
401.545	114.34
401.754	42.67
401.963	122.54
402.172	65.19
402.381	48.81
402.59	20.14
402.799	93.87
403.008	57
403.217	85.67
403.426	79.53
403.635	44.71
403.844	63.15
404.053	104.11
404.262	-24.92
404.471	32.43
404.68	124.58
404.888	110.25
405.097	75.43
405.306	102.06
405.515	124.58
405.724	143.02
405.933	124.58
406.142	124.58
406.35	124.58
406.559	93.87
406.768	143.02
406.977	124.58
407.185	114.34
407.394	132.78
407.603	93.87
407.812	124.58
408.02	186.02
408.229	179.88
408.438	151.21
408.646	163.5
408.855	188.07
409.064	173.74
409.272	212.65
409.481	229.03
409.69	149.16
409.898	241.32
410.107	192.17
410.315	147.11
410.524	245.41
410.733	257.7
410.941	132.78
411.15	272.04
411.358	257.7
411.567	325.29
411.775	302.76
411.984	257.7
412.192	294.57
412.401	304.81
412.609	380.58
412.818	321.19
413.026	386.72
413.234	415.4
413.443	374.44
413.651	388.77
413.86	378.53
414.068	409.25
414.276	433.83
414.485	351.91
414.693	413.35
414.901	503.46
415.11	523.94
415.318	482.98
415.526	532.13
415.734	540.32
415.943	573.09
416.151	622.24
416.359	560.8
416.567	550.56
416.776	700.06
416.984	657.06
417.192	769.69
417.4	687.78
417.608	724.64
417.817	761.5
418.025	853.66
418.233	872.09
418.441	796.32
418.649	784.03
418.857	872.09
419.065	947.87
419.273	890.53
419.481	894.62
419.689	1033.88
419.897	1076.89
420.105	1040.03
420.313	1091.23
420.521	1150.62
420.729	1199.77
420.937	1205.91
421.145	1154.71
421.353	1373.85
421.561	1463.96
421.769	1416.85
421.977	1441.43
422.185	1488.53
422.393	1525.4
422.601	1611.41
422.809	1605.27
423.017	1664.66
423.224	1756.82
423.432	1783.44
423.64	1842.83
423.848	2033.29
424.056	2021
424.263	2150.03
424.471	2113.16
424.679	2119.31
424.887	2143.88
425.094	2283.14
425.302	2301.58
425.51	2502.28
425.718	2565.76
425.925	2393.73
426.133	2555.52
426.341	2805.38
426.548	2840.19
426.756	2899.58
426.964	2825.86
427.171	3147.39
427.379	3251.83
427.586	3202.68
427.794	3241.59
428.001	3411.57
428.209	3634.8
428.417	3626.61
428.624	3790.45
428.832	3673.71
429.039	3817.07
429.247	3835.5
429.454	4140.65
429.662	4511.33
429.869	4165.23
430.076	4445.8
430.284	4331.11
430.491	4658.79
430.699	4726.37
430.906	4853.34
431.114	4828.77
431.321	5127.77
431.528	5074.53
431.736	5467.74
431.943	5693.01
432.15	5539.41
432.358	5641.81
432.565	5887.57
432.772	6078.03
432.979	6176.33
433.187	6205
433.394	6448.71
433.601	6717
433.808	6835.78
434.016	6645.32
434.223	7142.97
434.43	7554.62
434.637	7329.34
434.844	7706.17
435.052	7884.34
435.259	7947.83
435.466	7980.59
435.673	7673.4
435.88	8400.43
436.087	8584.74
436.294	8832.55
436.501	8601.13
436.708	8781.35
436.915	9074.21
437.122	9448.99
437.329	9432.6
437.537	9649.69
437.743	9917.97
437.95	9768.47
438.157	10511.88
438.364	10851.85
438.571	10601.99
438.778	10601.99
438.985	11945.46
439.192	11460.09
439.399	11562.49
439.606	11345.41
439.813	12213.74
440.02	12697.06
440.227	12510.7
440.433	12344.81
440.64	13016.55
440.847	12873.19
441.054	13030.88
441.261	13954.52
441.467	13866.46
441.674	14009.81
441.881	14607.82
442.088	14415.31
442.294	14398.93
442.501	14650.83
442.708	15115.72
442.914	15625.66
443.121	16315.83
443.328	15666.62
443.534	16795.05
443.741	16360.88
443.948	16487.86
444.154	17497.5
444.361	17391.01
444.568	17534.37
444.774	17331.62
444.981	17763.74
445.187	18408.85
445.394	19342.72
445.6	19209.61
445.807	20686.19
446.013	19905.91
446.22	20149.62
446.426	20747.63
446.633	21155.18
446.839	21630.3
447.046	20751.73
447.252	22033.75
447.459	22410.58
447.665	22185.3
447.871	22859.09
448.078	24044.86
448.284	23072.07
448.491	23639.36
448.697	24833.33
448.903	25066.8
449.11	24868.14
449.316	24743.22
449.522	25077.04
449.728	25570.6
449.935	25754.91
450.141	25765.15
450.347	26537.24
450.553	25533.73
450.76	25922.85
450.966	26938.64
451.172	26572.05
451.378	27249.93
451.584	26942.74
451.791	27249.93
451.997	27458.82
452.203	27499.78
452.409	27589.89
452.615	27426.06
452.821	26739.99
453.027	26176.8
453.233	27784.45
453.44	26690.84
453.646	27112.72
453.852	27075.85
454.058	27559.17
454.264	26602.77
454.47	27292.94
454.676	26461.46
454.882	27573.51
455.088	25183.53
455.294	25347.37
455.5	26084.64
455.705	26285.34
455.911	24958.25
456.117	24425.78
456.323	24216.89
456.529	23147.85
456.735	23983.42
456.941	23321.93
457.147	22838.61
457.352	22230.36
457.558	22050.14
457.764	22377.81
457.97	21812.57
458.176	21015.91
458.381	21087.59
458.587	20043.13
458.793	20204.92
458.999	18914.7
459.204	20639.09
459.41	19965.31
459.616	18443.67
459.821	18470.29
460.027	18359.7
460.233	18177.43
460.438	17438.11
460.644	17563.04
460.85	16790.95
461.055	16197.04
461.261	16459.18
461.466	15164.87
461.672	14540.24
461.878	15867.32
462.083	14650.83
462.289	14413.26
462.494	14325.2
462.7	13495.77
462.905	13059.56
463.111	13663.71
463.316	13856.22
463.522	13424.09
463.727	13483.48
463.932	13528.54
464.138	13110.75
464.343	13409.76
464.549	12975.59
464.754	13338.08
464.959	13014.5
465.165	12994.02
465.37	12492.27
465.575	12303.85
465.781	12582.38
465.986	12905.96
466.191	12215.79
466.397	12013.04
466.602	11509.24
466.807	12002.8
467.012	11881.97
467.218	12146.16
467.423	11736.57
