Data from USB4F104151__8__12-23-20-348.txt Node

Date: Fri Mar 14 12:23:20 EDT 2025
User: louis
Spectrometer: USB4F10415
Trigger mode: 4
Integration Time (sec): 3.500000E-2
Scans to average: 1
Electric dark correction enabled: true
Nonlinearity correction enabled: false
Boxcar width: 0
XAxis mode: Wavelengths
Number of Pixels in Spectrum: 3648
>>>>>Begin Spectral Data<<<<<
178.204	-73.9
178.424	-73.9
178.644	-73.9
178.864	-184.49
179.084	-121
179.304	-32.94
179.524	-22.7
179.744	-18.6
179.964	65.36
180.184	8.02
180.404	14.17
180.624	-57.51
180.844	-2.22
181.064	5.97
181.283	34.64
181.503	36.69
181.723	-30.89
181.943	-37.03
182.163	143.19
182.383	10.07
182.602	61.27
182.822	36.69
183.042	-0.17
183.262	-57.51
183.482	16.21
183.701	-39.08
183.921	77.65
184.141	30.55
184.361	-2.22
184.58	46.93
184.8	28.5
185.02	-16.55
185.239	16.21
185.459	42.84
185.679	96.08
185.898	67.41
186.118	73.56
186.338	26.45
186.557	65.36
186.777	-49.32
186.997	14.17
187.216	-45.23
187.436	96.08
187.655	24.4
187.875	38.74
188.095	-6.31
188.314	63.32
188.534	59.22
188.753	1.88
188.973	122.71
189.192	94.04
189.412	14.17
189.631	26.45
189.851	34.64
190.07	51.03
190.29	44.88
190.509	73.56
190.729	12.12
190.948	63.32
191.168	245.59
191.387	106.32
191.607	1.88
191.826	5.97
192.045	-39.08
192.265	-8.36
192.484	59.22
192.704	5.97
192.923	40.79
193.142	116.56
193.362	128.85
193.581	94.04
193.8	48.98
194.02	-22.7
194.239	-2.22
194.458	40.79
194.678	71.51
194.897	18.26
195.116	96.08
195.335	20.31
195.555	89.94
195.774	57.17
195.993	169.81
196.212	30.55
196.432	51.03
196.651	14.17
196.87	75.6
197.089	91.99
197.308	28.5
197.528	38.74
197.747	-22.7
197.966	28.5
198.185	71.51
198.404	-12.46
198.623	5.97
198.842	81.75
199.062	87.89
199.281	106.32
199.5	34.64
199.719	102.23
199.938	53.08
200.157	98.13
200.376	34.64
200.595	104.28
200.814	40.79
201.033	22.36
201.252	-8.36
201.471	53.08
201.69	34.64
201.909	94.04
202.128	18.26
202.347	28.5
202.566	-24.75
202.785	32.6
203.004	-28.84
203.223	104.28
203.442	69.46
203.661	8.02
203.879	42.84
204.098	30.55
204.317	18.26
204.536	71.51
204.755	-47.27
204.974	-39.08
205.193	-6.31
205.411	122.71
205.63	61.27
205.849	-6.31
206.068	38.74
206.287	22.36
206.505	12.12
206.724	8.02
206.943	75.6
207.162	30.55
207.381	42.84
207.599	51.03
207.818	36.69
208.037	110.42
208.255	38.74
208.474	53.08
208.693	67.41
208.911	-10.41
209.13	132.95
209.349	-16.55
209.567	44.88
209.786	71.51
210.005	30.55
210.223	79.7
210.442	-63.66
210.661	53.08
210.879	32.6
211.098	38.74
211.316	114.52
211.535	87.89
211.753	46.93
211.972	-2.22
212.191	-53.42
212.409	5.97
212.628	89.94
212.846	-16.55
213.065	112.47
213.283	28.5
213.502	42.84
213.72	81.75
213.938	14.17
214.157	81.75
214.375	36.69
214.594	71.51
214.812	14.17
215.031	10.07
215.249	61.27
215.467	34.64
215.686	55.12
215.904	122.71
216.122	8.02
216.341	77.65
216.559	36.69
216.778	71.51
216.996	75.6
217.214	44.88
217.432	120.66
217.651	71.51
217.869	-30.89
218.087	12.12
218.306	-22.7
218.524	71.51
218.742	-16.55
218.96	63.32
219.179	73.56
219.397	65.36
219.615	36.69
219.833	1.88
220.051	16.21
220.27	42.84
220.488	55.12
220.706	8.02
220.924	-6.31
221.142	30.55
221.36	59.22
221.578	69.46
221.796	30.55
222.015	83.8
222.233	48.98
222.451	79.7
222.669	-34.99
222.887	28.5
223.105	22.36
223.323	14.17
223.541	-69.8
223.759	51.03
223.977	42.84
224.195	53.08
224.413	20.31
224.631	96.08
224.849	61.27
225.067	124.76
225.285	71.51
225.503	-0.17
225.721	-45.23
225.939	-0.17
226.157	32.6
226.375	100.18
226.592	-37.03
226.81	67.41
227.028	100.18
227.246	112.47
227.464	69.46
227.682	48.98
227.9	26.45
228.117	91.99
228.335	79.7
228.553	67.41
228.771	61.27
228.989	57.17
229.206	124.76
229.424	63.32
229.642	-20.65
229.86	-10.41
230.077	75.6
230.295	61.27
230.513	38.74
230.731	67.41
230.948	128.85
231.166	83.8
231.384	24.4
231.601	20.31
231.819	40.79
232.037	5.97
232.254	20.31
232.472	-2.22
232.689	26.45
232.907	124.76
233.125	100.18
233.342	-12.46
233.56	-41.13
233.777	67.41
233.995	118.61
234.213	120.66
234.43	59.22
234.648	10.07
234.865	-26.79
235.083	14.17
235.3	28.5
235.518	44.88
235.735	77.65
235.953	110.42
236.17	18.26
236.388	59.22
236.605	55.12
236.822	102.23
237.04	77.65
237.257	51.03
237.475	3.93
237.692	75.6
237.909	12.12
238.127	71.51
238.344	61.27
238.562	32.6
238.779	14.17
238.996	1.88
239.214	24.4
239.431	26.45
239.648	42.84
239.865	67.41
240.083	130.9
240.3	81.75
240.517	75.6
240.735	38.74
240.952	73.56
241.169	69.46
241.386	83.8
241.603	22.36
241.821	-57.51
242.038	36.69
242.255	46.93
242.472	-69.8
242.689	22.36
242.907	73.56
243.124	71.51
243.341	-6.31
243.558	20.31
243.775	5.97
243.992	-0.17
244.209	53.08
244.426	63.32
244.643	28.5
244.86	46.93
245.078	38.74
245.295	36.69
245.512	71.51
245.729	10.07
245.946	1.88
246.163	14.17
246.38	22.36
246.597	16.21
246.814	42.84
247.031	73.56
247.248	-0.17
247.464	91.99
247.681	75.6
247.898	55.12
248.115	71.51
248.332	42.84
248.549	94.04
248.766	161.62
248.983	51.03
249.2	98.13
249.417	18.26
249.633	-57.51
249.85	89.94
250.067	26.45
250.284	59.22
250.501	40.79
250.717	102.23
250.934	46.93
251.151	22.36
251.368	28.5
251.585	110.42
251.801	30.55
252.018	-14.51
252.235	98.13
252.451	-63.66
252.668	5.97
252.885	-16.55
253.102	81.75
253.318	14.17
253.535	20.31
253.752	61.27
253.968	12.12
254.185	12.12
254.401	-8.36
254.618	26.45
254.835	28.5
255.051	141.14
255.268	53.08
255.484	79.7
255.701	14.17
255.917	81.75
256.134	30.55
256.351	28.5
256.567	32.6
256.784	-18.6
257	-51.37
257.217	44.88
257.433	83.8
257.65	22.36
257.866	61.27
258.082	32.6
258.299	44.88
258.515	36.69
258.732	69.46
258.948	22.36
259.165	44.88
259.381	94.04
259.597	24.4
259.814	-53.42
260.03	20.31
260.246	-41.13
260.463	-4.27
260.679	69.46
260.895	-14.51
261.112	108.37
261.328	22.36
261.544	36.69
261.761	102.23
261.977	69.46
262.193	42.84
262.409	85.84
262.626	-2.22
262.842	16.21
263.058	30.55
263.274	110.42
263.49	40.79
263.707	102.23
263.923	67.41
264.139	18.26
264.355	89.94
264.571	65.36
264.787	30.55
265.004	53.08
265.22	10.07
265.436	-47.27
265.652	40.79
265.868	32.6
266.084	24.4
266.3	-4.27
266.516	46.93
266.732	71.51
266.948	-24.75
267.164	18.26
267.38	128.85
267.596	81.75
267.812	30.55
268.028	28.5
268.244	-14.51
268.46	120.66
268.676	124.76
268.892	116.56
269.108	12.12
269.324	34.64
269.54	48.98
269.756	110.42
269.972	51.03
270.188	85.84
270.403	20.31
270.619	143.19
270.835	-2.22
271.051	61.27
271.267	34.64
271.483	22.36
271.698	-2.22
271.914	-12.46
272.13	57.17
272.346	-0.17
272.562	61.27
272.777	83.8
272.993	63.32
273.209	22.36
273.425	77.65
273.64	32.6
273.856	-2.22
274.072	44.88
274.287	5.97
274.503	100.18
274.719	-4.27
274.934	63.32
275.15	-39.08
275.366	51.03
275.581	67.41
275.797	-12.46
276.012	-30.89
276.228	12.12
276.444	18.26
276.659	57.17
276.875	61.27
277.09	91.99
277.306	8.02
277.521	3.93
277.737	42.84
277.952	73.56
278.168	94.04
278.383	106.32
278.599	22.36
278.814	67.41
279.03	34.64
279.245	98.13
279.461	30.55
279.676	5.97
279.892	-49.32
280.107	12.12
280.322	3.93
280.538	51.03
280.753	-14.51
280.969	83.8
281.184	79.7
281.399	42.84
281.615	5.97
281.83	157.52
282.045	75.6
282.26	22.36
282.476	-2.22
282.691	63.32
282.906	71.51
283.122	1.88
283.337	34.64
283.552	32.6
283.767	57.17
283.983	75.6
284.198	5.97
284.413	83.8
284.628	-4.27
284.843	83.8
285.058	18.26
285.274	44.88
285.489	44.88
285.704	81.75
285.919	14.17
286.134	34.64
286.349	169.81
286.564	26.45
286.779	42.84
286.995	112.47
287.21	26.45
287.425	28.5
287.64	-22.7
287.855	36.69
288.07	30.55
288.285	42.84
288.5	85.84
288.715	79.7
288.93	3.93
289.145	57.17
289.36	73.56
289.575	3.93
289.79	-16.55
290.004	63.32
290.219	5.97
290.434	-14.51
290.649	102.23
290.864	18.26
291.079	24.4
291.294	59.22
291.509	10.07
291.724	-2.22
291.938	51.03
292.153	1.88
292.368	-4.27
292.583	42.84
292.798	28.5
293.012	51.03
293.227	-67.75
293.442	46.93
293.657	-16.55
293.871	65.36
294.086	24.4
294.301	65.36
294.516	87.89
294.73	28.5
294.945	10.07
295.16	44.88
295.374	94.04
295.589	63.32
295.804	5.97
296.018	-55.47
296.233	100.18
296.447	63.32
296.662	40.79
296.877	32.6
297.091	18.26
297.306	22.36
297.52	-2.22
297.735	-10.41
297.949	22.36
298.164	94.04
298.378	26.45
298.593	89.94
298.807	24.4
299.022	57.17
299.236	96.08
299.451	83.8
299.665	48.98
299.88	-41.13
300.094	28.5
300.309	28.5
300.523	71.51
300.737	48.98
300.952	57.17
301.166	61.27
301.381	-2.22
301.595	53.08
301.809	53.08
302.024	-4.27
302.238	3.93
302.452	36.69
302.667	24.4
302.881	48.98
303.095	-24.75
303.309	75.6
303.524	18.26
303.738	-2.22
303.952	32.6
304.166	98.13
304.381	3.93
304.595	128.85
304.809	-14.51
305.023	-24.75
305.237	81.75
305.452	59.22
305.666	12.12
305.88	55.12
306.094	89.94
306.308	-26.79
306.522	102.23
306.736	112.47
306.95	139.09
307.164	5.97
307.379	-18.6
307.593	-6.31
307.807	57.17
308.021	42.84
308.235	73.56
308.449	16.21
308.663	-26.79
308.877	118.61
309.091	81.75
309.305	71.51
309.519	-34.99
309.733	53.08
309.947	-26.79
310.161	14.17
310.374	89.94
310.588	59.22
310.802	81.75
311.016	12.12
311.23	91.99
311.444	26.45
311.658	20.31
311.872	55.12
312.085	-0.17
312.299	55.12
312.513	124.76
312.727	8.02
312.941	3.93
313.154	126.8
313.368	-12.46
313.582	-43.18
313.796	-8.36
314.009	126.8
314.223	40.79
314.437	44.88
314.651	51.03
314.864	10.07
315.078	-45.23
315.292	40.79
315.505	69.46
315.719	102.23
315.933	83.8
316.146	44.88
316.36	38.74
316.573	91.99
316.787	108.37
317.001	57.17
317.214	30.55
317.428	-24.75
317.641	40.79
317.855	30.55
318.068	73.56
318.282	77.65
318.495	157.52
318.709	73.56
318.922	-14.51
319.136	91.99
319.349	38.74
319.563	-8.36
319.776	75.6
319.99	-0.17
320.203	34.64
320.417	59.22
320.63	26.45
320.843	122.71
321.057	40.79
321.27	-26.79
321.483	77.65
321.697	46.93
321.91	38.74
322.124	100.18
322.337	20.31
322.55	5.97
322.763	85.84
322.977	26.45
323.19	55.12
323.403	128.85
323.617	75.6
323.83	83.8
324.043	18.26
324.256	16.21
324.469	28.5
324.683	98.13
324.896	83.8
325.109	10.07
325.322	44.88
325.535	48.98
325.748	1.88
325.962	8.02
326.175	63.32
326.388	14.17
326.601	10.07
326.814	22.36
327.027	71.51
327.24	94.04
327.453	16.21
327.666	83.8
327.879	55.12
328.092	63.32
328.305	22.36
328.518	48.98
328.731	32.6
328.944	73.56
329.157	-0.17
329.37	-20.65
329.583	89.94
329.796	77.65
330.009	-47.27
330.222	67.41
330.435	110.42
330.648	-41.13
330.861	-6.31
331.073	98.13
331.286	32.6
331.499	75.6
331.712	44.88
331.925	67.41
332.138	18.26
332.35	91.99
332.563	10.07
332.776	55.12
332.989	3.93
333.202	32.6
333.414	34.64
333.627	32.6
333.84	61.27
334.053	1.88
334.265	-32.94
334.478	36.69
334.691	61.27
334.903	69.46
335.116	40.79
335.329	28.5
335.541	53.08
335.754	89.94
335.966	53.08
336.179	8.02
336.392	-26.79
336.604	24.4
336.817	65.36
337.029	108.37
337.242	-22.7
337.454	34.64
337.667	34.64
337.88	106.32
338.092	128.85
338.305	22.36
338.517	-14.51
338.729	114.52
338.942	83.8
339.154	65.36
339.367	28.5
339.579	10.07
339.792	5.97
340.004	63.32
340.217	-18.6
340.429	28.5
340.641	55.12
340.854	-16.55
341.066	1.88
341.278	65.36
341.491	67.41
341.703	94.04
341.915	57.17
342.128	102.23
342.34	12.12
342.552	8.02
342.764	46.93
342.977	73.56
343.189	10.07
343.401	-16.55
343.613	-0.17
343.826	77.65
344.038	30.55
344.25	38.74
344.462	-20.65
344.674	40.79
344.886	32.6
345.099	83.8
345.311	128.85
345.523	-45.23
345.735	-26.79
345.947	32.6
346.159	77.65
346.371	48.98
346.583	-16.55
346.795	98.13
347.007	22.36
347.219	24.4
347.431	79.7
347.643	-12.46
347.855	100.18
348.067	120.66
348.279	32.6
348.491	3.93
348.703	83.8
348.915	44.88
349.127	26.45
349.339	30.55
349.551	-49.32
349.763	18.26
349.975	87.89
350.187	48.98
350.399	40.79
350.61	102.23
350.822	-24.75
351.034	165.71
351.246	79.7
351.458	42.84
351.669	24.4
351.881	85.84
352.093	94.04
352.305	24.4
352.517	46.93
352.728	28.5
352.94	73.56
353.152	5.97
353.363	-20.65
353.575	-22.7
353.787	18.26
353.999	67.41
354.21	91.99
354.422	24.4
354.633	14.17
354.845	75.6
355.057	20.31
355.268	57.17
355.48	75.6
355.692	53.08
355.903	55.12
356.115	89.94
356.326	30.55
356.538	81.75
356.749	32.6
356.961	106.32
357.172	16.21
357.384	132.95
357.595	18.26
357.807	-12.46
358.018	-20.65
358.23	71.51
358.441	161.62
358.653	-24.75
358.864	5.97
359.075	20.31
359.287	63.32
359.498	67.41
359.709	118.61
359.921	51.03
360.132	112.47
360.344	108.37
360.555	57.17
360.766	30.55
360.977	20.31
361.189	67.41
361.4	-4.27
361.611	126.8
361.823	77.65
362.034	36.69
362.245	44.88
362.456	89.94
362.667	79.7
362.879	22.36
363.09	-20.65
363.301	38.74
363.512	63.32
363.723	-28.84
363.935	40.79
364.146	83.8
364.357	114.52
364.568	79.7
364.779	67.41
364.99	30.55
365.201	20.31
365.412	48.98
365.623	-28.84
365.834	71.51
366.045	18.26
366.256	69.46
366.467	116.56
366.678	59.22
366.889	-2.22
367.1	-2.22
367.311	65.36
367.522	-2.22
367.733	77.65
367.944	-8.36
368.155	-12.46
368.366	16.21
368.577	34.64
368.788	91.99
368.999	75.6
369.209	28.5
369.42	100.18
369.631	108.37
369.842	67.41
370.053	53.08
370.264	30.55
370.474	42.84
370.685	3.93
370.896	14.17
371.107	91.99
371.317	65.36
371.528	51.03
371.739	69.46
371.95	77.65
372.16	89.94
372.371	34.64
372.582	75.6
372.792	75.6
373.003	48.98
373.214	8.02
373.424	46.93
373.635	16.21
373.846	69.46
374.056	16.21
374.267	77.65
374.477	10.07
374.688	20.31
374.898	100.18
375.109	53.08
375.319	89.94
375.53	69.46
375.74	32.6
375.951	-57.51
376.161	28.5
376.372	91.99
376.582	-10.41
376.793	28.5
377.003	8.02
377.214	-49.32
377.424	75.6
377.635	10.07
377.845	44.88
378.055	143.19
378.266	-47.27
378.476	96.08
378.686	55.12
378.897	75.6
379.107	53.08
379.317	79.7
379.528	16.21
379.738	75.6
379.948	63.32
380.158	75.6
380.369	55.12
380.579	96.08
380.789	16.21
380.999	48.98
381.21	53.08
381.42	178
381.63	53.08
381.84	10.07
382.05	75.6
382.261	143.19
382.471	28.5
382.681	-28.84
382.891	102.23
383.101	126.8
383.311	114.52
383.521	40.79
383.731	190.29
383.941	57.17
384.151	-14.51
384.361	48.98
384.571	91.99
384.781	79.7
384.991	120.66
385.201	73.56
385.411	114.52
385.621	91.99
385.831	85.84
386.041	42.84
386.251	22.36
386.461	26.45
386.671	51.03
386.881	85.84
387.091	71.51
387.301	106.32
387.511	67.41
387.72	63.32
387.93	67.41
388.14	-26.79
388.35	73.56
388.56	46.93
388.769	112.47
388.979	112.47
389.189	57.17
389.399	42.84
389.609	34.64
389.818	85.84
390.028	137.04
390.238	36.69
390.447	46.93
390.657	65.36
390.867	30.55
391.076	-22.7
391.286	8.02
391.496	63.32
391.705	48.98
391.915	112.47
392.125	20.31
392.334	124.76
392.544	71.51
392.753	59.22
392.963	81.75
393.172	59.22
393.382	46.93
393.591	102.23
393.801	24.4
394.01	87.89
394.22	112.47
394.429	59.22
394.639	53.08
394.848	69.46
395.058	145.24
395.267	24.4
395.477	110.42
395.686	36.69
395.895	77.65
396.105	137.04
396.314	116.56
396.524	81.75
396.733	112.47
396.942	38.74
397.152	151.38
397.361	96.08
397.57	83.8
397.78	5.97
397.989	110.42
398.198	149.33
398.407	42.84
398.617	69.46
398.826	108.37
399.035	135
399.244	20.31
399.453	63.32
399.663	69.46
399.872	96.08
400.081	22.36
400.29	65.36
400.499	48.98
400.708	106.32
400.917	104.28
401.127	87.89
401.336	100.18
401.545	163.67
401.754	139.09
401.963	204.63
402.172	106.32
402.381	30.55
402.59	38.74
402.799	83.8
403.008	200.53
403.217	116.56
403.426	57.17
403.635	51.03
403.844	124.76
404.053	61.27
404.262	79.7
404.471	155.47
404.68	126.8
404.888	106.32
405.097	65.36
405.306	167.76
405.515	130.9
405.724	87.89
405.933	130.9
406.142	171.86
406.35	112.47
406.559	100.18
406.768	212.82
406.977	171.86
407.185	155.47
407.394	155.47
407.603	194.39
407.812	182.1
408.02	214.87
408.229	124.76
408.438	112.47
408.646	141.14
408.855	149.33
409.064	259.92
409.272	231.25
409.481	157.52
409.69	135
409.898	100.18
410.107	331.6
410.315	307.02
410.524	239.44
410.733	341.84
410.941	175.95
411.15	276.31
411.358	335.7
411.567	374.61
411.775	251.73
411.984	319.31
412.192	413.52
412.401	323.41
412.609	372.56
412.818	388.94
413.026	311.12
413.234	284.5
413.443	368.46
413.651	423.76
413.86	395.09
414.068	434
414.276	407.38
414.485	436.05
414.693	497.49
414.901	497.49
415.11	597.84
415.318	540.49
415.526	515.92
415.734	583.5
415.943	634.7
416.151	579.4
416.359	595.79
416.567	649.04
416.776	638.8
416.984	782.15
417.192	687.95
417.4	628.56
417.608	726.86
417.817	640.84
418.025	804.68
418.233	823.11
418.441	751.43
418.649	923.46
418.857	1021.77
419.065	882.5
419.273	882.5
419.481	966.47
419.689	1032.01
419.897	1072.96
420.105	945.99
420.313	1079.11
420.521	1126.21
420.729	1279.81
420.937	1167.17
421.145	1345.34
421.353	1300.29
421.561	1316.67
421.769	1398.59
421.977	1521.47
422.185	1408.83
422.393	1593.15
422.601	1496.89
422.809	1697.6
423.017	1687.36
423.224	1619.77
423.432	1843
423.64	1691.45
423.848	2002.74
424.056	1914.68
424.263	1963.83
424.471	2039.61
424.679	2025.27
424.887	2182.96
425.094	2187.06
425.302	2166.58
425.51	2416.43
425.718	2518.83
425.925	2367.28
426.133	2520.88
426.341	2586.41
426.548	2854.7
426.756	2856.75
426.964	2787.11
427.171	2924.33
427.379	3047.21
427.586	3135.27
427.794	3192.61
428.001	3356.45
428.209	3524.38
428.417	3401.51
428.624	3643.17
428.832	3710.75
429.039	3649.31
429.247	3671.84
429.454	4030.23
429.662	4275.99
429.869	3907.35
430.076	4249.36
430.284	4106.01
430.491	4380.43
430.699	4476.69
430.906	4450.07
431.114	4493.07
431.321	4716.3
431.528	4826.89
431.736	5160.71
431.943	5388.04
432.15	5289.73
432.358	5291.78
432.565	5797.63
432.772	5465.86
432.979	6053.62
433.187	5977.85
433.394	5893.88
433.601	6549.23
433.808	6549.23
434.016	6424.31
434.223	6741.74
434.43	6868.72
434.637	6913.77
434.844	7466.72
435.052	7519.97
435.259	7612.13
435.466	7632.61
435.673	7542.5
435.88	7841.5
436.087	8472.28
436.294	8277.72
436.501	8025.82
436.708	8464.08
436.915	8754.9
437.122	9045.71
437.329	8920.78
437.537	9490.12
437.743	9451.21
437.95	9332.42
438.157	9934.53
438.364	10174.14
438.571	10088.12
438.778	10194.62
438.985	11380.39
439.192	10671.79
439.399	10927.79
439.606	10727.09
439.813	11744.93
440.02	12183.2
440.227	11794.08
440.433	11867.81
440.64	12230.3
440.847	12287.64
441.054	12617.36
441.261	13270.67
441.467	13280.91
441.674	13418.12
441.881	14022.27
442.088	14005.89
442.294	13604.49
442.501	14306.94
442.708	14483.06
442.914	14892.66
443.121	15701.61
443.328	15576.68
443.534	16207.45
443.741	15527.53
443.948	15664.74
444.154	17034.83
444.361	16684.63
444.568	16811.6
444.774	16838.23
444.981	16871
445.187	17569.35
445.394	18366.01
445.6	18060.87
445.807	19906.09
446.013	18933.3
446.22	19277.36
446.426	20176.42
446.633	20219.42
446.839	20784.66
447.046	20399.65
447.252	21190.16
447.459	21190.16
447.665	21048.85
447.871	22117.89
448.078	23076.34
448.284	21900.81
448.491	22523.39
448.697	23168.5
448.903	23987.69
449.11	23588.33
449.316	23500.27
449.522	23967.21
449.728	24436.19
449.935	24384.99
450.141	24702.43
450.347	25374.16
450.553	24729.05
450.76	24913.37
450.966	25759.18
451.172	25286.1
451.378	25896.39
451.584	25347.54
451.791	26164.68
451.997	26293.7
452.203	26381.76
452.409	26244.55
452.615	26351.04
452.821	25411.03
453.027	25216.47
453.233	26396.1
453.44	25535.95
453.646	25662.93
453.852	25771.47
454.058	26195.4
454.264	25335.25
454.47	25839.05
454.676	25050.58
454.882	26179.01
455.088	23924.2
455.294	24110.57
455.5	24503.78
455.705	24856.03
455.911	24077.8
456.117	23580.14
456.323	22928.89
456.529	21669.39
456.735	22773.24
456.941	22257.15
457.147	22107.65
457.352	21198.35
457.558	20880.92
457.764	20940.31
457.97	20450.85
458.176	20024.87
458.381	20022.82
458.587	19090.99
458.793	18976.31
458.999	17948.23
459.204	19596.84
459.41	18757.18
459.616	17790.53
459.821	17741.38
460.027	17354.32
460.233	17055.31
460.438	16307.8
460.644	16541.27
460.85	15683.17
461.055	15533.67
461.261	15525.48
461.466	14321.27
461.672	13979.26
461.878	14923.38
462.083	14050.94
462.289	13565.57
462.494	13348.49
462.7	12850.83
462.905	12529.3
463.111	13051.53
463.316	12869.26
463.522	12906.13
463.727	12605.08
463.932	12783.25
464.138	12684.95
464.343	12613.27
464.549	12502.68
464.754	12867.22
464.959	12510.87
465.165	12293.79
465.37	12060.32
465.575	11437.73
465.781	12091.04
465.986	12168.86
466.191	11832.99
466.397	11536.04
466.602	10817.2
466.807	11271.85
467.012	11441.83
467.218	11271.85
467.423	11118.25
467.628	11230.89
467.833	11515.56
468.038	11232.94
468.244	10970.8
