Data from USB4F104151__2__12-23-16-358.txt Node

Date: Fri Mar 14 12:23:16 EDT 2025
User: louis
Spectrometer: USB4F10415
Trigger mode: 4
Integration Time (sec): 3.500000E-2
Scans to average: 1
Electric dark correction enabled: true
Nonlinearity correction enabled: false
Boxcar width: 0
XAxis mode: Wavelengths
Number of Pixels in Spectrum: 3648
>>>>>Begin Spectral Data<<<<<
178.204	-129.88
178.424	-129.88
178.644	-129.88
178.864	-86.87
179.084	-119.64
179.304	-74.58
179.524	-35.67
179.744	9.39
179.964	76.97
180.184	-17.24
180.404	21.67
180.624	29.87
180.844	11.43
181.064	-45.91
181.283	58.54
181.503	-58.2
181.723	23.72
181.943	21.67
182.163	124.07
182.383	83.11
182.602	62.63
182.822	62.63
183.042	56.49
183.262	40.11
183.482	-23.38
183.701	-70.48
183.921	13.48
184.141	7.34
184.361	101.55
184.58	31.91
184.8	50.35
185.02	115.88
185.239	1.19
185.459	-25.43
185.679	58.54
185.898	-13.14
186.118	7.34
186.338	31.91
186.557	40.11
186.777	48.3
186.997	29.87
187.216	-25.43
187.436	25.77
187.655	25.77
187.875	54.44
188.095	23.72
188.314	87.21
188.534	48.3
188.753	-13.14
188.973	95.4
189.192	162.98
189.412	52.39
189.631	93.35
189.851	-93.01
190.07	68.78
190.29	-27.48
190.509	13.48
190.729	1.19
190.948	87.21
191.168	99.5
191.387	101.55
191.607	9.39
191.826	64.68
192.045	87.21
192.265	13.48
192.484	48.3
192.704	66.73
192.923	-17.24
193.142	109.74
193.362	29.87
193.581	74.92
193.8	-33.62
194.02	42.15
194.239	-2.9
194.458	50.35
194.678	48.3
194.897	3.24
195.116	76.97
195.335	3.24
195.555	19.63
195.774	5.29
195.993	7.34
196.212	7.34
196.432	17.58
196.651	-29.52
196.87	5.29
197.089	148.65
197.308	31.91
197.528	46.25
197.747	-2.9
197.966	-9.05
198.185	144.55
198.404	25.77
198.623	58.54
198.842	130.22
199.062	7.34
199.281	44.2
199.5	113.83
199.719	93.35
199.938	74.92
200.157	72.87
200.376	126.12
200.595	113.83
200.814	38.06
201.033	1.19
201.252	68.78
201.471	33.96
201.69	5.29
201.909	66.73
202.128	124.07
202.347	36.01
202.566	-13.14
202.785	15.53
203.004	-27.48
203.223	109.74
203.442	79.02
203.661	-11.09
203.879	40.11
204.098	85.16
204.317	5.29
204.536	62.63
204.755	15.53
204.974	-13.14
205.193	72.87
205.411	66.73
205.63	33.96
205.849	50.35
206.068	38.06
206.287	-29.52
206.505	68.78
206.724	27.82
206.943	19.63
207.162	-11.09
207.381	50.35
207.599	52.39
207.818	97.45
208.037	-21.33
208.255	23.72
208.474	68.78
208.693	83.11
208.911	33.96
209.13	15.53
209.349	66.73
209.567	-13.14
209.786	91.31
210.005	68.78
210.223	58.54
210.442	7.34
210.661	11.43
210.879	72.87
211.098	89.26
211.316	50.35
211.535	64.68
211.753	56.49
211.972	58.54
212.191	9.39
212.409	58.54
212.628	33.96
212.846	5.29
213.065	85.16
213.283	23.72
213.502	-25.43
213.72	68.78
213.938	68.78
214.157	7.34
214.375	81.07
214.594	40.11
214.812	95.4
215.031	-9.05
215.249	31.91
215.467	27.82
215.686	132.26
215.904	87.21
216.122	11.43
216.341	48.3
216.559	-0.85
216.778	23.72
216.996	85.16
217.214	-13.14
217.432	46.25
217.651	1.19
217.869	68.78
218.087	40.11
218.306	93.35
218.524	13.48
218.742	11.43
218.96	105.64
219.179	5.29
219.397	-2.9
219.615	111.78
219.833	7.34
220.051	-11.09
220.27	40.11
220.488	83.11
220.706	15.53
220.924	46.25
221.142	5.29
221.36	7.34
221.578	52.39
221.796	54.44
222.015	70.83
222.233	74.92
222.451	-2.9
222.669	83.11
222.887	119.98
223.105	91.31
223.323	11.43
223.541	81.07
223.759	99.5
223.977	126.12
224.195	122.02
224.413	9.39
224.631	87.21
224.849	79.02
225.067	160.94
225.285	-37.72
225.503	-2.9
225.721	-2.9
225.939	85.16
226.157	58.54
226.375	91.31
226.592	85.16
226.81	40.11
227.028	81.07
227.246	38.06
227.464	29.87
227.682	60.59
227.9	-9.05
228.117	81.07
228.335	58.54
228.553	36.01
228.771	62.63
228.989	95.4
229.206	105.64
229.424	56.49
229.642	9.39
229.86	50.35
230.077	46.25
230.295	-2.9
230.513	91.31
230.731	33.96
230.948	107.69
231.166	44.2
231.384	-2.9
231.601	7.34
231.819	48.3
232.037	-2.9
232.254	19.63
232.472	17.58
232.689	23.72
232.907	66.73
233.125	9.39
233.342	44.2
233.56	-68.44
233.777	54.44
233.995	21.67
234.213	99.5
234.43	19.63
234.648	48.3
234.865	72.87
235.083	21.67
235.3	21.67
235.518	33.96
235.735	25.77
235.953	117.93
236.17	150.7
236.388	44.2
236.605	25.77
236.822	111.78
237.04	50.35
237.257	1.19
237.475	23.72
237.692	29.87
237.909	111.78
238.127	64.68
238.344	62.63
238.562	46.25
238.779	-21.33
238.996	36.01
239.214	50.35
239.431	74.92
239.648	19.63
239.865	79.02
240.083	11.43
240.3	91.31
240.517	25.77
240.735	42.15
240.952	50.35
241.169	33.96
241.386	91.31
241.603	44.2
241.821	66.73
242.038	3.24
242.255	56.49
242.472	5.29
242.689	165.03
242.907	83.11
243.124	91.31
243.341	1.19
243.558	-19.29
243.775	44.2
243.992	42.15
244.209	68.78
244.426	117.93
244.643	27.82
244.86	17.58
245.078	36.01
245.295	66.73
245.512	5.29
245.729	25.77
245.946	74.92
246.163	44.2
246.38	-7
246.597	23.72
246.814	33.96
247.031	-19.29
247.248	60.59
247.464	31.91
247.681	68.78
247.898	66.73
248.115	11.43
248.332	31.91
248.549	68.78
248.766	50.35
248.983	42.15
249.2	-11.09
249.417	25.77
249.633	36.01
249.85	66.73
250.067	7.34
250.284	95.4
250.501	56.49
250.717	142.5
250.934	-31.57
251.151	54.44
251.368	27.82
251.585	74.92
251.801	85.16
252.018	-64.34
252.235	68.78
252.451	38.06
252.668	13.48
252.885	44.2
253.102	-23.38
253.318	38.06
253.535	48.3
253.752	17.58
253.968	27.82
254.185	-29.52
254.401	33.96
254.618	46.25
254.835	33.96
255.051	66.73
255.268	99.5
255.484	97.45
255.701	19.63
255.917	42.15
256.134	83.11
256.351	62.63
256.567	27.82
256.784	23.72
257	-29.52
257.217	66.73
257.433	36.01
257.65	56.49
257.866	38.06
258.082	-4.95
258.299	60.59
258.515	103.59
258.732	50.35
258.948	25.77
259.165	9.39
259.381	1.19
259.597	-0.85
259.814	44.2
260.03	23.72
260.246	-17.24
260.463	46.25
260.679	11.43
260.895	15.53
261.112	101.55
261.328	50.35
261.544	-33.62
261.761	101.55
261.977	3.24
262.193	46.25
262.409	111.78
262.626	62.63
262.842	76.97
263.058	105.64
263.274	79.02
263.49	15.53
263.707	40.11
263.923	58.54
264.139	-25.43
264.355	-25.43
264.571	89.26
264.787	27.82
265.004	70.83
265.22	-45.91
265.436	-33.62
265.652	27.82
265.868	31.91
266.084	-17.24
266.3	-39.76
266.516	-4.95
266.732	66.73
266.948	40.11
267.164	74.92
267.38	13.48
267.596	68.78
267.812	95.4
268.028	17.58
268.244	36.01
268.46	25.77
268.676	-47.96
268.892	72.87
269.108	68.78
269.324	13.48
269.54	50.35
269.756	117.93
269.972	-23.38
270.188	-9.05
270.403	7.34
270.619	54.44
270.835	103.59
271.051	7.34
271.267	23.72
271.483	38.06
271.698	91.31
271.914	79.02
272.13	38.06
272.346	23.72
272.562	19.63
272.777	76.97
272.993	40.11
273.209	-15.19
273.425	29.87
273.64	15.53
273.856	68.78
274.072	-33.62
274.287	-41.81
274.503	62.63
274.719	93.35
274.934	56.49
275.15	38.06
275.366	-0.85
275.581	-54.1
275.797	-0.85
276.012	136.36
276.228	48.3
276.444	72.87
276.659	72.87
276.875	7.34
277.09	87.21
277.306	50.35
277.521	44.2
277.737	70.83
277.952	136.36
278.168	52.39
278.383	13.48
278.599	-74.58
278.814	91.31
279.03	5.29
279.245	76.97
279.461	19.63
279.676	3.24
279.892	29.87
280.107	-13.14
280.322	105.64
280.538	105.64
280.753	17.58
280.969	-0.85
281.184	-13.14
281.399	132.26
281.615	74.92
281.83	-21.33
282.045	-21.33
282.26	40.11
282.476	40.11
282.691	138.41
282.906	31.91
283.122	44.2
283.337	23.72
283.552	76.97
283.767	-37.72
283.983	38.06
284.198	48.3
284.413	99.5
284.628	9.39
284.843	136.36
285.058	89.26
285.274	17.58
285.489	54.44
285.704	76.97
285.919	36.01
286.134	33.96
286.349	-7
286.564	33.96
286.779	91.31
286.995	56.49
287.21	5.29
287.425	122.02
287.64	31.91
287.855	-27.48
288.07	62.63
288.285	72.87
288.5	87.21
288.715	68.78
288.93	3.24
289.145	-13.14
289.36	70.83
289.575	9.39
289.79	64.68
290.004	-11.09
290.219	111.78
290.434	42.15
290.649	-11.09
290.864	-4.95
291.079	27.82
291.294	36.01
291.509	48.3
291.724	15.53
291.938	38.06
292.153	-17.24
292.368	9.39
292.583	79.02
292.798	177.32
293.012	89.26
293.227	70.83
293.442	1.19
293.657	109.74
293.871	60.59
294.086	33.96
294.301	97.45
294.516	42.15
294.73	42.15
294.945	17.58
295.16	60.59
295.374	46.25
295.589	107.69
295.804	21.67
296.018	101.55
296.233	91.31
296.447	9.39
296.662	25.77
296.877	109.74
297.091	25.77
297.306	42.15
297.52	38.06
297.735	31.91
297.949	103.59
298.164	66.73
298.378	-2.9
298.593	62.63
298.807	91.31
299.022	70.83
299.236	70.83
299.451	46.25
299.665	-50
299.88	89.26
300.094	33.96
300.309	7.34
300.523	56.49
300.737	36.01
300.952	66.73
301.166	91.31
301.381	17.58
301.595	42.15
301.809	56.49
302.024	-7
302.238	23.72
302.452	40.11
302.667	50.35
302.881	138.41
303.095	42.15
303.309	3.24
303.524	31.91
303.738	-2.9
303.952	42.15
304.166	25.77
304.381	9.39
304.595	128.17
304.809	40.11
305.023	-2.9
305.237	31.91
305.452	9.39
305.666	91.31
305.88	117.93
306.094	38.06
306.308	107.69
306.522	33.96
306.736	83.11
306.95	13.48
307.164	89.26
307.379	-4.95
307.593	29.87
307.807	33.96
308.021	-7
308.235	99.5
308.449	21.67
308.663	107.69
308.877	62.63
309.091	42.15
309.305	27.82
309.519	5.29
309.733	60.59
309.947	-45.91
310.161	46.25
310.374	101.55
310.588	79.02
310.802	1.19
311.016	38.06
311.23	60.59
311.444	-4.95
311.658	87.21
311.872	126.12
312.085	31.91
312.299	99.5
312.513	89.26
312.727	52.39
312.941	7.34
313.154	54.44
313.368	105.64
313.582	-17.24
313.796	-11.09
314.009	44.2
314.223	62.63
314.437	48.3
314.651	50.35
314.864	17.58
315.078	-4.95
315.292	11.43
315.505	-17.24
315.719	56.49
315.933	64.68
316.146	1.19
316.36	38.06
316.573	31.91
316.787	19.63
317.001	66.73
317.214	19.63
317.428	25.77
317.641	79.02
317.855	50.35
318.068	9.39
318.282	103.59
318.495	115.88
318.709	52.39
318.922	56.49
319.136	109.74
319.349	64.68
319.563	27.82
319.776	81.07
319.99	42.15
320.203	70.83
320.417	56.49
320.63	62.63
320.843	76.97
321.057	101.55
321.27	46.25
321.483	1.19
321.697	42.15
321.91	54.44
322.124	3.24
322.337	-2.9
322.55	19.63
322.763	17.58
322.977	52.39
323.19	40.11
323.403	115.88
323.617	50.35
323.83	54.44
324.043	5.29
324.256	95.4
324.469	-41.81
324.683	124.07
324.896	50.35
325.109	-31.57
325.322	-19.29
325.535	66.73
325.748	64.68
325.962	72.87
326.175	66.73
326.388	64.68
326.601	46.25
326.814	76.97
327.027	89.26
327.24	66.73
327.453	-11.09
327.666	42.15
327.879	62.63
328.092	76.97
328.305	52.39
328.518	11.43
328.731	-9.05
328.944	9.39
329.157	11.43
329.37	17.58
329.583	40.11
329.796	119.98
330.009	13.48
330.222	29.87
330.435	68.78
330.648	74.92
330.861	19.63
331.073	74.92
331.286	62.63
331.499	52.39
331.712	52.39
331.925	56.49
332.138	-47.96
332.35	42.15
332.563	74.92
332.776	62.63
332.989	-19.29
333.202	-80.72
333.414	72.87
333.627	68.78
333.84	52.39
334.053	-2.9
334.265	36.01
334.478	-4.95
334.691	50.35
334.903	9.39
335.116	21.67
335.329	25.77
335.541	36.01
335.754	72.87
335.966	-19.29
336.179	-13.14
336.392	-13.14
336.604	117.93
336.817	74.92
337.029	91.31
337.242	91.31
337.454	60.59
337.667	29.87
337.88	21.67
338.092	-11.09
338.305	48.3
338.517	7.34
338.729	68.78
338.942	50.35
339.154	50.35
339.367	-25.43
339.579	-7
339.792	-21.33
340.004	140.46
340.217	64.68
340.429	21.67
340.641	-21.33
340.854	83.11
341.066	-43.86
341.278	66.73
341.491	87.21
341.703	27.82
341.915	25.77
342.128	81.07
342.34	58.54
342.552	7.34
342.764	-23.38
342.977	27.82
343.189	99.5
343.401	81.07
343.613	-9.05
343.826	95.4
344.038	58.54
344.25	27.82
344.462	15.53
344.674	50.35
344.886	64.68
345.099	101.55
345.311	42.15
345.523	-7
345.735	9.39
345.947	81.07
346.159	54.44
346.371	-21.33
346.583	93.35
346.795	117.93
347.007	36.01
347.219	50.35
347.431	9.39
347.643	1.19
347.855	93.35
348.067	142.5
348.279	40.11
348.491	42.15
348.703	111.78
348.915	33.96
349.127	52.39
349.339	36.01
349.551	38.06
349.763	158.89
349.975	93.35
350.187	95.4
350.399	122.02
350.61	48.3
350.822	3.24
351.034	68.78
351.246	-31.57
351.458	79.02
351.669	-17.24
351.881	142.5
352.093	117.93
352.305	93.35
352.517	36.01
352.728	81.07
352.94	60.59
353.152	31.91
353.363	60.59
353.575	74.92
353.787	40.11
353.999	122.02
354.21	136.36
354.422	17.58
354.633	40.11
354.845	95.4
355.057	64.68
355.268	25.77
355.48	-0.85
355.692	29.87
355.903	42.15
356.115	1.19
356.326	52.39
356.538	101.55
356.749	7.34
356.961	11.43
357.172	87.21
357.384	3.24
357.595	91.31
357.807	33.96
358.018	46.25
358.23	-13.14
358.441	95.4
358.653	126.12
358.864	15.53
359.075	50.35
359.287	85.16
359.498	58.54
359.709	25.77
359.921	31.91
360.132	-0.85
360.344	44.2
360.555	56.49
360.766	25.77
360.977	62.63
361.189	48.3
361.4	27.82
361.611	64.68
361.823	103.59
362.034	33.96
362.245	-60.24
362.456	50.35
362.667	42.15
362.879	25.77
363.09	70.83
363.301	68.78
363.512	40.11
363.723	36.01
363.935	-4.95
364.146	138.41
364.357	-13.14
364.568	66.73
364.779	9.39
364.99	81.07
365.201	27.82
365.412	144.55
365.623	-0.85
365.834	-7
366.045	5.29
366.256	58.54
366.467	19.63
366.678	33.96
366.889	17.58
367.1	25.77
367.311	107.69
367.522	11.43
367.733	83.11
367.944	95.4
368.155	40.11
368.366	85.16
368.577	60.59
368.788	60.59
368.999	-54.1
369.209	29.87
369.42	93.35
369.631	165.03
369.842	48.3
370.053	3.24
370.264	48.3
370.474	42.15
370.685	74.92
370.896	13.48
371.107	97.45
371.317	36.01
371.528	60.59
371.739	33.96
371.95	103.59
372.16	126.12
372.371	29.87
372.582	19.63
372.792	38.06
373.003	62.63
373.214	60.59
373.424	42.15
373.635	36.01
373.846	17.58
374.056	52.39
374.267	7.34
374.477	1.19
374.688	11.43
374.898	60.59
375.109	101.55
375.319	95.4
375.53	122.02
375.74	101.55
375.951	66.73
376.161	-21.33
376.372	119.98
376.582	-0.85
376.793	99.5
377.003	-17.24
377.214	52.39
377.424	101.55
377.635	70.83
377.845	7.34
378.055	74.92
378.266	23.72
378.476	81.07
378.686	52.39
378.897	68.78
379.107	46.25
379.317	60.59
379.528	5.29
379.738	36.01
379.948	50.35
380.158	19.63
380.369	72.87
380.579	134.31
380.789	134.31
380.999	62.63
381.21	91.31
381.42	107.69
381.63	29.87
381.84	25.77
382.05	-9.05
382.261	56.49
382.471	76.97
382.681	23.72
382.891	132.26
383.101	89.26
383.311	48.3
383.521	-7
383.731	42.15
383.941	76.97
384.151	56.49
384.361	23.72
384.571	68.78
384.781	44.2
384.991	97.45
385.201	150.7
385.411	66.73
385.621	68.78
385.831	19.63
386.041	97.45
386.251	-0.85
386.461	76.97
386.671	-0.85
386.881	72.87
387.091	70.83
387.301	95.4
387.511	48.3
387.72	79.02
387.93	132.26
388.14	9.39
388.35	74.92
388.56	93.35
388.769	60.59
388.979	46.25
389.189	-4.95
389.399	81.07
389.609	81.07
389.818	58.54
390.028	29.87
390.238	99.5
390.447	60.59
390.657	91.31
390.867	91.31
391.076	5.29
391.286	113.83
391.496	-31.57
391.705	44.2
391.915	124.07
392.125	29.87
392.334	54.44
392.544	-0.85
392.753	140.46
392.963	-13.14
393.172	54.44
393.382	68.78
393.591	76.97
393.801	9.39
394.01	93.35
394.22	56.49
394.429	89.26
394.639	136.36
394.848	95.4
395.058	132.26
395.267	33.96
395.477	87.21
395.686	130.22
395.895	117.93
396.105	124.07
396.314	132.26
396.524	111.78
396.733	97.45
396.942	181.42
397.152	85.16
397.361	21.67
397.57	76.97
397.78	66.73
397.989	97.45
398.198	95.4
398.407	-17.24
398.617	124.07
398.826	122.02
399.035	66.73
399.244	117.93
399.453	27.82
399.663	83.11
399.872	95.4
400.081	76.97
400.29	138.41
400.499	95.4
400.708	150.7
400.917	72.87
401.127	128.17
401.336	38.06
401.545	109.74
401.754	158.89
401.963	68.78
402.172	119.98
402.381	60.59
402.59	105.64
402.799	83.11
403.008	83.11
403.217	111.78
403.426	107.69
403.635	72.87
403.844	173.22
404.053	113.83
404.262	62.63
404.471	177.32
404.68	193.7
404.888	58.54
405.097	79.02
405.306	148.65
405.515	103.59
405.724	175.27
405.933	115.88
406.142	158.89
406.35	117.93
406.559	87.21
406.768	154.79
406.977	220.33
407.185	103.59
407.394	97.45
407.603	126.12
407.812	144.55
408.02	255.14
408.229	144.55
408.438	154.79
408.646	179.37
408.855	183.46
409.064	183.46
409.272	99.5
409.481	173.22
409.69	152.74
409.898	216.23
410.107	216.23
410.315	236.71
410.524	203.94
410.733	199.85
410.941	222.38
411.15	230.57
411.358	249
411.567	330.92
411.775	283.81
411.984	292.01
412.192	242.85
412.401	275.62
412.609	326.82
412.818	386.21
413.026	341.16
413.234	316.58
413.443	300.2
413.651	335.01
413.86	404.64
414.068	451.75
414.276	429.22
414.485	425.12
414.693	359.59
414.901	429.22
415.11	396.45
415.318	552.1
415.526	461.99
415.734	488.61
415.943	521.38
416.151	556.19
416.359	572.58
416.567	545.95
416.776	625.83
416.984	595.11
417.192	638.11
417.4	601.25
417.608	672.93
417.817	664.74
418.025	674.98
418.233	756.9
418.441	728.22
418.649	732.32
418.857	857.25
419.065	865.44
419.273	781.47
419.481	885.92
419.689	935.07
419.897	838.81
420.105	1021.08
420.313	1057.95
420.521	996.51
420.729	1016.99
420.937	1029.27
421.145	1049.75
421.353	1090.71
421.561	1252.5
421.769	1359
421.977	1201.3
422.185	1236.12
422.393	1377.43
422.601	1440.92
422.809	1465.49
423.017	1471.64
423.224	1531.03
423.432	1672.34
423.64	1488.02
423.848	1731.73
424.056	1778.83
424.263	1766.54
424.471	1608.85
424.679	1928.33
424.887	1948.81
425.094	1936.53
425.302	2022.54
425.51	2047.12
425.718	2155.66
425.925	2186.38
426.133	2256.01
426.341	2428.04
426.548	2378.89
426.756	2401.41
426.964	2430.09
427.171	2614.4
427.379	2624.64
427.586	2694.27
427.794	2849.92
428.001	2946.17
428.209	3050.62
428.417	3067
428.624	3187.83
428.832	3282.04
429.039	3146.87
429.247	3112.06
429.454	3468.41
429.662	3691.63
429.869	3556.47
430.076	3755.12
430.284	3720.31
430.491	3716.21
430.699	4025.45
430.906	4056.17
431.114	4074.6
431.321	4246.63
431.528	4377.7
431.736	4553.83
431.943	4944.99
432.15	4670.56
432.358	4732
432.565	4996.19
432.772	4897.89
432.979	5162.08
433.187	5360.73
433.394	5252.19
433.601	5745.75
433.808	5698.64
434.016	5698.64
434.223	5858.39
434.43	6227.02
434.637	6132.81
434.844	6585.41
435.052	6632.52
435.259	6665.28
435.466	6683.72
435.673	6573.13
435.88	7038.02
436.087	7447.61
436.294	7324.73
436.501	7115.84
436.708	7398.46
436.915	7623.73
437.122	8025.14
437.329	7996.46
437.537	8203.31
437.743	8483.88
437.95	8277.04
438.157	8887.33
438.364	9137.18
438.571	8989.73
438.778	9149.47
438.985	9765.91
439.192	9665.56
439.399	9716.76
439.606	9524.25
439.813	10212.37
440.02	10847.24
440.227	10474.51
440.433	10460.17
440.64	10662.92
440.847	10705.93
441.054	10968.07
441.261	11729.91
441.467	11600.89
441.674	11975.67
441.881	12411.89
442.088	12162.03
442.294	12127.22
442.501	12549.1
442.708	12653.55
442.914	12999.65
443.121	13859.8
443.328	13263.84
443.534	14537.68
443.741	13884.37
443.948	13810.65
444.154	14742.47
444.361	14711.75
444.568	14685.13
444.774	14822.34
444.981	15027.14
445.187	15459.26
445.394	16063.41
445.6	16081.85
445.807	17392.55
446.013	16946.09
446.22	16980.9
446.426	17793.95
446.633	17988.5
446.839	18576.27
447.046	17517.47
447.252	18617.23
447.459	18668.43
447.665	18819.98
447.871	19270.53
448.078	20179.83
448.284	19358.6
448.491	19770.24
448.697	20636.53
448.903	20958.06
449.11	21056.36
449.316	20740.97
449.522	21363.56
449.728	21791.58
449.935	21965.66
450.141	21787.49
450.347	22569.81
450.553	21887.84
450.76	21963.61
450.966	22846.29
451.172	22381.4
451.378	23481.16
451.584	22385.49
451.791	23141.19
451.997	22868.81
452.203	23550.79
452.409	23274.31
452.615	23311.17
452.821	22727.5
453.027	22242.14
453.233	23556.93
453.44	22534.99
453.646	22504.28
453.852	22750.03
454.058	23341.89
454.264	22371.16
454.47	23157.58
454.676	22260.57
454.882	23044.94
455.088	20994.92
455.294	21594.98
455.5	21844.83
455.705	21881.69
455.911	21125.99
456.117	20818.8
456.323	20317.04
456.529	19348.36
456.735	20001.66
456.941	19397.51
457.147	19217.29
457.352	18572.18
457.558	18424.72
457.764	18459.54
457.97	18285.46
458.176	17929.11
458.381	17724.32
458.587	16982.95
458.793	16890.79
458.999	16049.08
459.204	17179.56
459.41	16563.12
459.616	15504.32
459.821	15602.62
460.027	15496.13
460.233	15119.3
460.438	14396.37
460.644	14744.52
460.85	13904.85
461.055	13849.56
461.261	13636.57
461.466	12647.4
461.672	12215.28
461.878	13042.66
462.083	12289.01
462.289	11971.57
462.494	11830.26
462.7	11398.14
462.905	10951.68
463.111	11504.64
463.316	11414.52
463.522	11277.31
463.727	11238.4
463.932	11340.8
464.138	11176.96
464.343	11113.47
464.549	10796.04
464.754	11119.62
464.959	11068.42
465.165	11006.98
465.37	10456.08
465.575	10476.55
465.781	10716.17
465.986	10693.64
466.191	10251.28
466.397	10284.05
466.602	9640.98
466.807	9960.47
467.012	10085.39
467.218	9974.8
467.423	9614.36
467.628	10026
467.833	10417.16
468.038	10126.35
468.244	9688.09
468.449	10050.58
