Data from USB4F104151__50__12-24-00-768.txt Node

Date: Fri Mar 14 12:24:00 EDT 2025
User: louis
Spectrometer: USB4F10415
Trigger mode: 4
Integration Time (sec): 3.500000E-2
Scans to average: 1
Electric dark correction enabled: true
Nonlinearity correction enabled: false
Boxcar width: 0
XAxis mode: Wavelengths
Number of Pixels in Spectrum: 3648
>>>>>Begin Spectral Data<<<<<
178.204	-137.04
178.424	-137.04
178.644	-137.04
178.864	-135
179.084	-143.19
179.304	-8.02
179.524	-8.02
179.744	-26.45
179.964	55.47
180.184	-34.64
180.404	6.31
180.624	-57.17
180.844	0.17
181.064	-1.88
181.283	18.6
181.503	-18.26
181.723	73.9
181.943	-81.75
182.163	114.86
182.383	26.79
182.602	8.36
182.822	61.61
183.042	53.42
183.262	-59.22
183.482	-12.12
183.701	63.66
183.921	39.08
184.141	63.66
184.361	127.14
184.58	22.7
184.8	45.23
185.02	84.14
185.239	125.1
185.459	30.89
185.679	88.23
185.898	-44.88
186.118	71.85
186.338	67.75
186.557	43.18
186.777	24.75
186.997	39.08
187.216	-24.4
187.436	90.28
187.655	102.57
187.875	77.99
188.095	0.17
188.314	26.79
188.534	98.47
188.753	14.51
188.973	-24.4
189.192	90.28
189.412	53.42
189.631	63.66
189.851	65.71
190.07	131.24
190.29	-1.88
190.509	0.17
190.729	59.56
190.948	67.75
191.168	123.05
191.387	75.95
191.607	26.79
191.826	51.37
192.045	6.31
192.265	-1.88
192.484	127.14
192.704	34.99
192.923	12.46
193.142	67.75
193.362	86.19
193.581	96.43
193.8	59.56
194.02	100.52
194.239	-20.31
194.458	123.05
194.678	75.95
194.897	2.22
195.116	82.09
195.335	30.89
195.555	53.42
195.774	53.42
195.993	82.09
196.212	-5.97
196.432	-20.31
196.651	0.17
196.87	6.31
197.089	47.27
197.308	20.65
197.528	75.95
197.747	75.95
197.966	-46.93
198.185	102.57
198.404	-1.88
198.623	94.38
198.842	-18.26
199.062	98.47
199.281	100.52
199.5	28.84
199.719	14.51
199.938	143.53
200.157	114.86
200.376	49.32
200.595	63.66
200.814	77.99
201.033	20.65
201.252	65.71
201.471	28.84
201.69	49.32
201.909	16.55
202.128	30.89
202.347	82.09
202.566	4.27
202.785	-12.12
203.004	14.51
203.223	168.1
203.442	-14.17
203.661	59.56
203.879	41.13
204.098	8.36
204.317	69.8
204.536	57.51
204.755	12.46
204.974	57.51
205.193	-40.79
205.411	127.14
205.63	-8.02
205.849	-10.07
206.068	18.6
206.287	-8.02
206.505	71.85
206.724	-14.17
206.943	47.27
207.162	63.66
207.381	30.89
207.599	41.13
207.818	24.75
208.037	16.55
208.255	-102.23
208.474	2.22
208.693	28.84
208.911	-5.97
209.13	49.32
209.349	10.41
209.567	59.56
209.786	24.75
210.005	-42.84
210.223	75.95
210.442	10.41
210.661	12.46
210.879	41.13
211.098	37.03
211.316	157.86
211.535	34.99
211.753	6.31
211.972	10.41
212.191	34.99
212.409	75.95
212.628	53.42
212.846	49.32
213.065	96.43
213.283	47.27
213.502	94.38
213.72	92.33
213.938	34.99
214.157	49.32
214.375	61.61
214.594	-32.6
214.812	63.66
215.031	82.09
215.249	16.55
215.467	30.89
215.686	88.23
215.904	32.94
216.122	-24.4
216.341	84.14
216.559	12.46
216.778	121
216.996	47.27
217.214	-20.31
217.432	82.09
217.651	82.09
217.869	-1.88
218.087	82.09
218.306	73.9
218.524	45.23
218.742	53.42
218.96	2.22
219.179	75.95
219.397	82.09
219.615	125.1
219.833	100.52
220.051	-1.88
220.27	39.08
220.488	96.43
220.706	90.28
220.924	-1.88
221.142	53.42
221.36	67.75
221.578	-34.64
221.796	-24.4
222.015	8.36
222.233	4.27
222.451	82.09
222.669	77.99
222.887	161.96
223.105	63.66
223.323	47.27
223.541	-10.07
223.759	-3.93
223.977	80.04
224.195	63.66
224.413	47.27
224.631	108.71
224.849	59.56
225.067	118.95
225.285	12.46
225.503	12.46
225.721	-18.26
225.939	-18.26
226.157	20.65
226.375	174.25
226.592	14.51
226.81	-22.36
227.028	63.66
227.246	96.43
227.464	77.99
227.682	98.47
227.9	80.04
228.117	94.38
228.335	26.79
228.553	69.8
228.771	100.52
228.989	22.7
229.206	49.32
229.424	20.65
229.642	16.55
229.86	32.94
230.077	164.01
230.295	94.38
230.513	90.28
230.731	6.31
230.948	71.85
231.166	80.04
231.384	71.85
231.601	26.79
231.819	57.51
232.037	0.17
232.254	6.31
232.472	20.65
232.689	69.8
232.907	43.18
233.125	24.75
233.342	10.41
233.56	12.46
233.777	34.99
233.995	20.65
234.213	131.24
234.43	-8.02
234.648	84.14
234.865	-34.64
235.083	18.6
235.3	-14.17
235.518	51.37
235.735	84.14
235.953	65.71
236.17	24.75
236.388	69.8
236.605	53.42
236.822	71.85
237.04	57.51
237.257	47.27
237.475	30.89
237.692	88.23
237.909	-3.93
238.127	71.85
238.344	94.38
238.562	73.9
238.779	4.27
238.996	22.7
239.214	57.51
239.431	80.04
239.648	28.84
239.865	61.61
240.083	59.56
240.3	14.51
240.517	45.23
240.735	100.52
240.952	98.47
241.169	135.34
241.386	63.66
241.603	2.22
241.821	108.71
242.038	-5.97
242.255	137.38
242.472	77.99
242.689	57.51
242.907	47.27
243.124	57.51
243.341	-42.84
243.558	2.22
243.775	-38.74
243.992	-30.55
244.209	47.27
244.426	71.85
244.643	-3.93
244.86	69.8
245.078	37.03
245.295	39.08
245.512	-8.02
245.729	18.6
245.946	55.47
246.163	98.47
246.38	34.99
246.597	47.27
246.814	22.7
247.031	45.23
247.248	57.51
247.464	143.53
247.681	77.99
247.898	67.75
248.115	84.14
248.332	-20.31
248.549	90.28
248.766	57.51
248.983	22.7
249.2	67.75
249.417	73.9
249.633	26.79
249.85	41.13
250.067	94.38
250.284	28.84
250.501	108.71
250.717	108.71
250.934	47.27
251.151	108.71
251.368	28.84
251.585	63.66
251.801	32.94
252.018	28.84
252.235	86.19
252.451	16.55
252.668	14.51
252.885	94.38
253.102	32.94
253.318	71.85
253.535	22.7
253.752	-5.97
253.968	37.03
254.185	65.71
254.401	-16.21
254.618	43.18
254.835	55.47
255.051	114.86
255.268	94.38
255.484	41.13
255.701	80.04
255.917	39.08
256.134	-26.45
256.351	-22.36
256.567	59.56
256.784	-24.4
257	16.55
257.217	2.22
257.433	80.04
257.65	51.37
257.866	100.52
258.082	14.51
258.299	-24.4
258.515	39.08
258.732	-12.12
258.948	14.51
259.165	14.51
259.381	61.61
259.597	65.71
259.814	90.28
260.03	-32.6
260.246	69.8
260.463	57.51
260.679	30.89
260.895	28.84
261.112	80.04
261.328	-42.84
261.544	127.14
261.761	137.38
261.977	26.79
262.193	53.42
262.409	114.86
262.626	106.67
262.842	108.71
263.058	51.37
263.274	-14.17
263.49	55.47
263.707	71.85
263.923	-40.79
264.139	39.08
264.355	71.85
264.571	141.48
264.787	32.94
265.004	26.79
265.22	41.13
265.436	26.79
265.652	22.7
265.868	-59.22
266.084	-30.55
266.3	47.27
266.516	20.65
266.732	47.27
266.948	2.22
267.164	18.6
267.38	90.28
267.596	65.71
267.812	6.31
268.028	59.56
268.244	37.03
268.46	59.56
268.676	34.99
268.892	8.36
269.108	-20.31
269.324	55.47
269.54	39.08
269.756	47.27
269.972	-24.4
270.188	77.99
270.403	51.37
270.619	137.38
270.835	43.18
271.051	37.03
271.267	39.08
271.483	30.89
271.698	104.62
271.914	88.23
272.13	84.14
272.346	39.08
272.562	-38.74
272.777	129.19
272.993	67.75
273.209	121
273.425	-14.17
273.64	22.7
273.856	73.9
274.072	49.32
274.287	6.31
274.503	106.67
274.719	43.18
274.934	141.48
275.15	30.89
275.366	8.36
275.581	22.7
275.797	94.38
276.012	71.85
276.228	51.37
276.444	47.27
276.659	112.81
276.875	-1.88
277.09	53.42
277.306	39.08
277.521	57.51
277.737	88.23
277.952	45.23
278.168	43.18
278.383	24.75
278.599	77.99
278.814	24.75
279.03	53.42
279.245	125.1
279.461	32.94
279.676	37.03
279.892	39.08
280.107	57.51
280.322	-28.5
280.538	90.28
280.753	41.13
280.969	16.55
281.184	90.28
281.399	84.14
281.615	8.36
281.83	127.14
282.045	-14.17
282.26	2.22
282.476	41.13
282.691	69.8
282.906	-36.69
283.122	84.14
283.337	73.9
283.552	47.27
283.767	22.7
283.983	20.65
284.198	12.46
284.413	-34.64
284.628	57.51
284.843	73.9
285.058	86.19
285.274	88.23
285.489	-8.02
285.704	131.24
285.919	-1.88
286.134	92.33
286.349	51.37
286.564	45.23
286.779	67.75
286.995	45.23
287.21	-3.93
287.425	114.86
287.64	104.62
287.855	75.95
288.07	20.65
288.285	108.71
288.5	82.09
288.715	63.66
288.93	55.47
289.145	30.89
289.36	24.75
289.575	34.99
289.79	37.03
290.004	32.94
290.219	20.65
290.434	-1.88
290.649	24.75
290.864	10.41
291.079	-1.88
291.294	-8.02
291.509	94.38
291.724	84.14
291.938	69.8
292.153	110.76
292.368	-26.45
292.583	65.71
292.798	43.18
293.012	6.31
293.227	71.85
293.442	45.23
293.657	71.85
293.871	114.86
294.086	39.08
294.301	161.96
294.516	86.19
294.73	106.67
294.945	39.08
295.16	34.99
295.374	53.42
295.589	49.32
295.804	-26.45
296.018	-3.93
296.233	96.43
296.447	39.08
296.662	-3.93
296.877	18.6
297.091	-1.88
297.306	96.43
297.52	51.37
297.735	108.71
297.949	71.85
298.164	45.23
298.378	28.84
298.593	65.71
298.807	59.56
299.022	10.41
299.236	77.99
299.451	-32.6
299.665	57.51
299.88	28.84
300.094	65.71
300.309	8.36
300.523	71.85
300.737	10.41
300.952	16.55
301.166	75.95
301.381	20.65
301.595	43.18
301.809	10.41
302.024	59.56
302.238	4.27
302.452	63.66
302.667	75.95
302.881	43.18
303.095	102.57
303.309	24.75
303.524	8.36
303.738	-10.07
303.952	82.09
304.166	127.14
304.381	-1.88
304.595	37.03
304.809	110.76
305.023	-5.97
305.237	22.7
305.452	92.33
305.666	51.37
305.88	18.6
306.094	82.09
306.308	75.95
306.522	51.37
306.736	53.42
306.95	26.79
307.164	63.66
307.379	49.32
307.593	57.51
307.807	82.09
308.021	92.33
308.235	61.61
308.449	8.36
308.663	59.56
308.877	98.47
309.091	-16.21
309.305	24.75
309.519	10.41
309.733	110.76
309.947	20.65
310.161	73.9
310.374	141.48
310.588	77.99
310.802	12.46
311.016	-14.17
311.23	18.6
311.444	73.9
311.658	8.36
311.872	114.86
312.085	77.99
312.299	114.86
312.513	100.52
312.727	118.95
312.941	22.7
313.154	88.23
313.368	92.33
313.582	71.85
313.796	71.85
314.009	0.17
314.223	168.1
314.437	28.84
314.651	-3.93
314.864	24.75
315.078	-53.08
315.292	24.75
315.505	73.9
315.719	24.75
315.933	84.14
316.146	32.94
316.36	10.41
316.573	12.46
316.787	92.33
317.001	43.18
317.214	30.89
317.428	6.31
317.641	80.04
317.855	51.37
318.068	26.79
318.282	30.89
318.495	123.05
318.709	39.08
318.922	22.7
319.136	59.56
319.349	59.56
319.563	49.32
319.776	73.9
319.99	102.57
320.203	61.61
320.417	20.65
320.63	26.79
320.843	96.43
321.057	106.67
321.27	24.75
321.483	71.85
321.697	82.09
321.91	71.85
322.124	96.43
322.337	96.43
322.55	26.79
322.763	43.18
322.977	20.65
323.19	16.55
323.403	88.23
323.617	96.43
323.83	118.95
324.043	16.55
324.256	67.75
324.469	8.36
324.683	96.43
324.896	-3.93
325.109	57.51
325.322	49.32
325.535	90.28
325.748	49.32
325.962	82.09
326.175	47.27
326.388	94.38
326.601	57.51
326.814	45.23
327.027	77.99
327.24	135.34
327.453	37.03
327.666	0.17
327.879	30.89
328.092	82.09
328.305	100.52
328.518	41.13
328.731	61.61
328.944	41.13
329.157	51.37
329.37	118.95
329.583	4.27
329.796	121
330.009	63.66
330.222	137.38
330.435	73.9
330.648	88.23
330.861	90.28
331.073	98.47
331.286	114.86
331.499	-8.02
331.712	14.51
331.925	88.23
332.138	49.32
332.35	108.71
332.563	75.95
332.776	127.14
332.989	137.38
333.202	2.22
333.414	-8.02
333.627	4.27
333.84	20.65
334.053	110.76
334.265	67.75
334.478	47.27
334.691	82.09
334.903	0.17
335.116	57.51
335.329	123.05
335.541	106.67
335.754	102.57
335.966	10.41
336.179	104.62
336.392	77.99
336.604	90.28
336.817	114.86
337.029	45.23
337.242	84.14
337.454	116.9
337.667	75.95
337.88	127.14
338.092	34.99
338.305	77.99
338.517	37.03
338.729	116.9
338.942	102.57
339.154	16.55
339.367	75.95
339.579	55.47
339.792	63.66
340.004	77.99
340.217	104.62
340.429	73.9
340.641	-3.93
340.854	-30.55
341.066	55.47
341.278	92.33
341.491	153.77
341.703	94.38
341.915	34.99
342.128	18.6
342.34	-1.88
342.552	41.13
342.764	24.75
342.977	65.71
343.189	63.66
343.401	176.3
343.613	45.23
343.826	55.47
344.038	6.31
344.25	96.43
344.462	73.9
344.674	59.56
344.886	94.38
345.099	151.72
345.311	63.66
345.523	0.17
345.735	43.18
345.947	75.95
346.159	24.75
346.371	-5.97
346.583	59.56
346.795	84.14
347.007	39.08
347.219	135.34
347.431	30.89
347.643	41.13
347.855	57.51
348.067	53.42
348.279	12.46
348.491	75.95
348.703	63.66
348.915	73.9
349.127	8.36
349.339	59.56
349.551	75.95
349.763	129.19
349.975	61.61
350.187	90.28
350.399	125.1
350.61	127.14
350.822	0.17
351.034	114.86
351.246	47.27
351.458	57.51
351.669	92.33
351.881	139.43
352.093	75.95
352.305	63.66
352.517	100.52
352.728	168.1
352.94	106.67
353.152	116.9
353.363	59.56
353.575	39.08
353.787	67.75
353.999	75.95
354.21	141.48
354.422	28.84
354.633	49.32
354.845	108.71
355.057	34.99
355.268	53.42
355.48	67.75
355.692	63.66
355.903	102.57
356.115	-22.36
356.326	34.99
356.538	159.91
356.749	28.84
356.961	149.67
357.172	129.19
357.384	55.47
357.595	182.44
357.807	-28.5
358.018	30.89
358.23	43.18
358.441	194.73
358.653	49.32
358.864	28.84
359.075	18.6
359.287	143.53
359.498	43.18
359.709	37.03
359.921	51.37
360.132	65.71
360.344	82.09
360.555	-3.93
360.766	77.99
360.977	43.18
361.189	30.89
361.4	106.67
361.611	145.58
361.823	90.28
362.034	14.51
362.245	-81.75
362.456	67.75
362.667	86.19
362.879	20.65
363.09	123.05
363.301	77.99
363.512	32.94
363.723	86.19
363.935	49.32
364.146	75.95
364.357	80.04
364.568	22.7
364.779	59.56
364.99	147.62
365.201	43.18
365.412	82.09
365.623	-53.08
365.834	26.79
366.045	88.23
366.256	22.7
366.467	41.13
366.678	69.8
366.889	92.33
367.1	49.32
367.311	96.43
367.522	28.84
367.733	121
367.944	133.29
368.155	121
368.366	82.09
368.577	41.13
368.788	104.62
368.999	16.55
369.209	121
369.42	57.51
369.631	112.81
369.842	73.9
370.053	47.27
370.264	30.89
370.474	59.56
370.685	69.8
370.896	94.38
371.107	112.81
371.317	106.67
371.528	112.81
371.739	59.56
371.95	63.66
372.16	104.62
372.371	55.47
372.582	6.31
372.792	59.56
373.003	131.24
373.214	43.18
373.424	80.04
373.635	8.36
373.846	59.56
374.056	59.56
374.267	86.19
374.477	57.51
374.688	63.66
374.898	82.09
375.109	65.71
375.319	112.81
375.53	104.62
375.74	102.57
375.951	16.55
376.161	47.27
376.372	112.81
376.582	63.66
376.793	127.14
377.003	59.56
377.214	-18.26
377.424	59.56
377.635	90.28
377.845	26.79
378.055	108.71
378.266	30.89
378.476	67.75
378.686	28.84
378.897	18.6
379.107	69.8
379.317	69.8
379.528	69.8
379.738	24.75
379.948	-10.07
380.158	114.86
380.369	73.9
380.579	204.97
380.789	96.43
380.999	71.85
381.21	67.75
381.42	129.19
381.63	112.81
381.84	131.24
382.05	88.23
382.261	73.9
382.471	200.87
382.681	65.71
382.891	121
383.101	57.51
383.311	26.79
383.521	125.1
383.731	30.89
383.941	55.47
384.151	4.27
384.361	67.75
384.571	47.27
384.781	125.1
384.991	145.58
385.201	51.37
385.411	34.99
385.621	149.67
385.831	73.9
386.041	100.52
386.251	90.28
386.461	39.08
386.671	43.18
386.881	84.14
387.091	100.52
387.301	86.19
387.511	75.95
387.72	63.66
387.93	94.38
388.14	43.18
388.35	55.47
388.56	125.1
388.769	184.49
388.979	34.99
389.189	143.53
389.399	98.47
389.609	41.13
389.818	137.38
390.028	57.51
390.238	80.04
390.447	12.46
390.657	34.99
390.867	34.99
391.076	-30.55
391.286	73.9
391.496	49.32
391.705	61.61
391.915	110.76
392.125	123.05
392.334	94.38
392.544	135.34
392.753	65.71
392.963	65.71
393.172	88.23
393.382	-3.93
393.591	145.58
393.801	82.09
394.01	143.53
394.22	172.2
394.429	59.56
394.639	108.71
394.848	127.14
395.058	59.56
395.267	123.05
395.477	153.77
395.686	164.01
395.895	114.86
396.105	213.16
396.314	82.09
396.524	139.43
396.733	90.28
396.942	190.63
397.152	221.35
397.361	182.44
397.57	94.38
397.78	164.01
397.989	108.71
398.198	227.5
398.407	59.56
398.617	237.74
398.826	121
399.035	123.05
399.244	147.62
399.453	125.1
399.663	84.14
399.872	176.3
400.081	168.1
400.29	129.19
400.499	159.91
400.708	184.49
400.917	149.67
401.127	137.38
401.336	225.45
401.545	329.89
401.754	215.21
401.963	131.24
402.172	166.06
402.381	131.24
402.59	172.2
402.799	159.91
403.008	166.06
403.217	192.68
403.426	272.55
403.635	106.67
403.844	241.83
404.053	239.78
404.262	110.76
404.471	196.78
404.68	209.06
404.888	221.35
405.097	184.49
405.306	221.35
405.515	157.86
405.724	157.86
405.933	243.88
406.142	264.36
406.35	370.85
406.559	241.83
406.768	225.45
406.977	268.45
407.185	295.08
407.394	321.7
407.603	207.02
407.812	362.66
408.02	379.04
408.229	327.85
408.438	243.88
408.646	309.41
408.855	338.09
409.064	370.85
409.272	301.22
409.481	387.24
409.69	336.04
409.898	395.43
410.107	352.42
410.315	432.29
410.524	491.68
410.733	422.05
410.941	489.64
411.15	479.4
411.358	536.74
411.567	585.89
411.775	506.02
411.984	602.27
412.192	522.4
412.401	557.22
412.609	745.63
412.818	692.38
413.026	749.73
413.234	649.38
413.443	706.72
413.651	737.44
413.86	788.64
414.068	835.74
414.276	817.31
414.485	919.71
414.693	891.04
414.901	981.15
415.11	1020.06
415.318	913.56
415.526	1024.16
415.734	1118.36
415.943	1155.23
416.151	1194.14
416.359	1138.84
416.567	1253.53
416.776	1228.95
416.984	1226.9
417.192	1364.12
417.4	1337.49
417.608	1339.54
417.817	1382.55
418.025	1509.52
418.233	1599.63
418.441	1536.15
418.649	1564.82
418.857	1786
419.065	1763.47
419.273	1796.24
419.481	1888.4
419.689	1984.65
419.897	1953.93
420.105	2121.87
420.313	2201.74
420.521	2279.56
420.729	2320.52
420.937	2279.56
421.145	2373.77
421.353	2457.73
421.561	2705.54
421.769	2709.63
421.977	2869.37
422.185	2799.74
422.393	2840.7
422.601	3104.89
422.809	3201.15
423.017	3207.29
423.224	3295.35
423.432	3561.59
423.64	3496.05
423.848	3827.82
424.056	3674.23
424.263	3889.26
424.471	3850.35
424.679	4071.53
424.887	4202.6
425.094	4483.17
425.302	4552.81
425.51	4612.2
425.718	4757.6
425.925	4730.98
426.133	4925.54
426.341	5279.83
426.548	5441.62
426.756	5392.47
426.964	5402.71
427.171	5914.7
427.379	5943.38
427.586	6144.08
427.794	6271.05
428.001	6479.94
428.209	6953.02
428.417	6758.47
428.624	7417.91
428.832	7231.55
429.039	7116.86
429.247	7163.97
429.454	7989.3
429.662	8357.93
429.869	7819.32
430.076	8519.72
430.284	8271.92
430.491	8611.88
430.699	9166.88
430.906	8939.55
431.114	9269.28
431.321	9709.59
431.528	9781.27
431.736	10289.17
431.943	10844.17
432.15	10496.01
432.358	10555.4
432.565	11208.7
432.772	11046.91
432.979	11724.79
433.187	11853.81
433.394	12062.71
433.601	12957.67
433.808	13049.83
434.016	12795.88
434.223	13440.99
434.43	14264.27
434.637	14012.37
434.844	14782.41
435.052	14972.87
435.259	14948.29
435.466	15144.9
435.673	15077.32
435.88	15994.81
436.087	16836.52
436.294	16662.44
436.501	16510.89
436.708	16549.81
436.915	17338.27
437.122	18147.22
437.329	17852.31
437.537	18501.52
437.743	19072.9
437.95	18689.93
438.157	19816.32
438.364	20326.26
438.571	20418.42
438.778	20420.47
438.985	22337.37
439.192	21682.02
439.399	22347.61
439.606	21520.23
439.813	23103.31
440.02	24065.85
440.227	23875.39
440.433	23676.74
440.64	24479.54
440.847	24702.77
441.054	24975.15
441.261	26570.52
441.467	26455.83
441.674	26898.19
441.881	27938.56
442.088	27682.56
442.294	27643.65
442.501	28106.49
442.708	28872.43
442.914	29914.85
443.121	31162.06
443.328	30422.75
443.534	32532.15
443.741	31944.39
443.948	31170.26
444.154	33640.11
444.361	33316.53
444.568	33400.49
444.774	33724.07
444.981	34031.27
445.187	34881.17
445.394	36376.19
445.6	35722.89
445.807	39257.68
446.013	37674.6
446.22	38764.12
446.426	39798.35
446.633	40089.16
446.839	41494.07
447.046	39749.2
447.252	42083.88
447.459	42186.28
447.665	42028.59
447.871	43677.2
448.078	45618.67
448.284	43517.46
448.491	44623.36
448.697	46321.13
448.903	46857.7
449.11	47273.43
449.316	46329.32
449.522	47613.4
449.728	49264.06
449.935	49126.85
450.141	48944.58
450.347	49477.05
450.553	48557.51
450.76	48870.85
450.966	50605.48
451.172	50079.15
451.378	51740.05
451.584	50343.34
451.791	51414.43
451.997	51201.44
452.203	51969.43
452.409	52069.78
452.615	51735.96
452.821	49874.35
453.027	49038.78
453.233	51998.1
453.44	50036.14
453.646	50679.21
453.852	50965.92
454.058	51246.49
454.264	49626.55
454.47	51119.52
454.676	49431.99
454.882	51047.84
455.088	46999.01
455.294	47875.54
455.5	48221.64
455.705	48793.03
455.911	46718.43
456.117	46157.29
456.323	45239.8
456.529	43388.44
456.735	44916.22
456.941	43718.16
457.147	42841.63
457.352	41625.14
457.558	41371.19
457.764	41717.29
457.97	40824.38
458.176	39900.75
458.381	39779.92
458.587	37701.23
458.793	37697.13
458.999	35667.59
459.204	38268.51
459.41	37271.15
459.616	34748.06
459.821	34772.63
460.027	34698.91
460.233	33791.66
460.438	32210.62
460.644	32681.66
460.85	30783.19
461.055	30891.73
461.261	30643.93
461.466	28151.55
461.672	27485.96
461.878	29585.13
462.083	28055.29
462.289	26863.38
462.494	26572.57
462.7	25345.83
462.905	24852.27
463.111	25937.69
463.316	25868.06
463.522	24991.53
463.727	25440.04
463.932	25362.22
464.138	24696.63
464.343	25306.92
464.549	24164.15
464.754	25132.84
464.959	24893.23
465.165	24942.38
465.37	23650.11
465.575	23043.92
465.781	24012.6
465.986	23818.05
466.191	23332.68
466.397	22736.72
