Data from USB4F104151__96__12-24-56-167.txt Node

Date: Fri Mar 14 12:24:56 EDT 2025
User: louis
Spectrometer: USB4F10415
Trigger mode: 4
Integration Time (sec): 3.500000E-2
Scans to average: 1
Electric dark correction enabled: true
Nonlinearity correction enabled: false
Boxcar width: 0
XAxis mode: Wavelengths
Number of Pixels in Spectrum: 3648
>>>>>Begin Spectral Data<<<<<
178.204	-157.01
178.424	-157.01
178.644	-157.01
178.864	-159.06
179.084	-175.44
179.304	43.69
179.524	0.68
179.744	-30.04
179.964	-11.61
180.184	8.87
180.404	-13.65
180.624	-9.56
180.844	31.4
181.064	-42.32
181.283	-19.8
181.503	-7.51
181.723	49.83
181.943	-50.52
182.163	74.41
182.383	-34.13
182.602	80.55
182.822	78.51
183.042	43.69
183.262	-75.09
183.482	-5.46
183.701	31.4
183.921	21.16
184.141	-32.08
184.361	27.31
184.58	31.4
184.8	25.26
185.02	35.5
185.239	-5.46
185.459	43.69
185.679	12.97
185.898	-77.14
186.118	27.31
186.338	35.5
186.557	-19.8
186.777	-30.04
186.997	12.97
187.216	-5.46
187.436	23.21
187.655	-1.37
187.875	29.35
188.095	4.78
188.314	74.41
188.534	60.07
188.753	43.69
188.973	-19.8
189.192	29.35
189.412	94.89
189.631	39.59
189.851	35.5
190.07	117.42
190.29	-11.61
190.509	35.5
190.729	8.87
190.948	47.79
191.168	205.48
191.387	113.32
191.607	-34.13
191.826	-3.41
192.045	-17.75
192.265	-27.99
192.484	-7.51
192.704	43.69
192.923	-38.23
193.142	121.51
193.362	2.73
193.581	19.11
193.8	76.46
194.02	51.88
194.239	4.78
194.458	35.5
194.678	123.56
194.897	-21.84
195.116	37.55
195.335	101.03
195.555	27.31
195.774	70.31
195.993	51.88
196.212	2.73
196.432	10.92
196.651	10.92
196.87	-27.99
197.089	101.03
197.308	25.26
197.528	27.31
197.747	10.92
197.966	60.07
198.185	25.26
198.404	-3.41
198.623	41.64
198.842	10.92
199.062	25.26
199.281	-32.08
199.5	-13.65
199.719	68.27
199.938	33.45
200.157	76.46
200.376	-58.71
200.595	39.59
200.814	62.12
201.033	-30.04
201.252	12.97
201.471	-17.75
201.69	109.23
201.909	-7.51
202.128	45.74
202.347	68.27
202.566	-56.66
202.785	-19.8
203.004	33.45
203.223	45.74
203.442	51.88
203.661	-21.84
203.879	-19.8
204.098	19.11
204.317	12.97
204.536	88.75
204.755	35.5
204.974	117.42
205.193	0.68
205.411	107.18
205.63	37.55
205.849	21.16
206.068	90.79
206.287	4.78
206.505	35.5
206.724	27.31
206.943	68.27
207.162	0.68
207.381	86.7
207.599	60.07
207.818	17.07
208.037	-9.56
208.255	35.5
208.474	-1.37
208.693	17.07
208.911	-50.52
209.13	78.51
209.349	4.78
209.567	15.02
209.786	68.27
210.005	82.6
210.223	15.02
210.442	-17.75
210.661	19.11
210.879	-64.85
211.098	-52.56
211.316	25.26
211.535	66.22
211.753	29.35
211.972	27.31
212.191	51.88
212.409	33.45
212.628	-23.89
212.846	33.45
213.065	45.74
213.283	103.08
213.502	-34.13
213.72	-19.8
213.938	17.07
214.157	6.83
214.375	6.83
214.594	19.11
214.812	96.94
215.031	19.11
215.249	4.78
215.467	37.55
215.686	2.73
215.904	39.59
216.122	43.69
216.341	-21.84
216.559	-17.75
216.778	0.68
216.996	35.5
217.214	-48.47
217.432	-54.61
217.651	51.88
217.869	-30.04
218.087	31.4
218.306	0.68
218.524	35.5
218.742	19.11
218.96	80.55
219.179	51.88
219.397	53.93
219.615	55.98
219.833	47.79
220.051	-21.84
220.27	60.07
220.488	19.11
220.706	-25.94
220.924	-23.89
221.142	62.12
221.36	45.74
221.578	23.21
221.796	12.97
222.015	-64.85
222.233	33.45
222.451	2.73
222.669	-30.04
222.887	101.03
223.105	2.73
223.323	10.92
223.541	-36.18
223.759	19.11
223.977	-21.84
224.195	-7.51
224.413	-77.14
224.631	27.31
224.849	37.55
225.067	152.23
225.285	23.21
225.503	-56.66
225.721	4.78
225.939	84.65
226.157	-17.75
226.375	86.7
226.592	2.73
226.81	-44.37
227.028	47.79
227.246	27.31
227.464	-40.28
227.682	-13.65
227.9	-30.04
228.117	68.27
228.335	-9.56
228.553	41.64
228.771	-40.28
228.989	33.45
229.206	-1.37
229.424	-42.32
229.642	-9.56
229.86	-11.61
230.077	33.45
230.295	45.74
230.513	62.12
230.731	-1.37
230.948	41.64
231.166	21.16
231.384	0.68
231.601	10.92
231.819	76.46
232.037	-62.8
232.254	-54.61
232.472	43.69
232.689	37.55
232.907	64.17
233.125	-27.99
233.342	-17.75
233.56	-27.99
233.777	35.5
233.995	31.4
234.213	2.73
234.43	8.87
234.648	15.02
234.865	-13.65
235.083	-44.37
235.3	35.5
235.518	105.13
235.735	92.84
235.953	53.93
236.17	12.97
236.388	43.69
236.605	68.27
236.822	21.16
237.04	-19.8
237.257	25.26
237.475	17.07
237.692	51.88
237.909	8.87
238.127	109.23
238.344	-17.75
238.562	-13.65
238.779	-23.89
238.996	-17.75
239.214	45.74
239.431	62.12
239.648	0.68
239.865	72.36
240.083	-15.7
240.3	-32.08
240.517	-7.51
240.735	47.79
240.952	27.31
241.169	152.23
241.386	19.11
241.603	-5.46
241.821	2.73
242.038	-19.8
242.255	76.46
242.472	-21.84
242.689	43.69
242.907	125.61
243.124	15.02
243.341	53.93
243.558	-11.61
243.775	31.4
243.992	31.4
244.209	64.17
244.426	53.93
244.643	-5.46
244.86	-3.41
245.078	-34.13
245.295	21.16
245.512	29.35
245.729	-17.75
245.946	-36.18
246.163	35.5
246.38	-17.75
246.597	-19.8
246.814	58.03
247.031	-1.37
247.248	53.93
247.464	-30.04
247.681	29.35
247.898	88.75
248.115	8.87
248.332	-7.51
248.549	-15.7
248.766	45.74
248.983	19.11
249.2	15.02
249.417	51.88
249.633	12.97
249.85	72.36
250.067	37.55
250.284	37.55
250.501	41.64
250.717	43.69
250.934	-23.89
251.151	27.31
251.368	-1.37
251.585	51.88
251.801	-17.75
252.018	-38.23
252.235	64.17
252.451	43.69
252.668	43.69
252.885	51.88
253.102	55.98
253.318	-1.37
253.535	33.45
253.752	-7.51
253.968	27.31
254.185	-21.84
254.401	137.9
254.618	8.87
254.835	-46.42
255.051	15.02
255.268	76.46
255.484	37.55
255.701	43.69
255.917	115.37
256.134	17.07
256.351	12.97
256.567	23.21
256.784	39.59
257	15.02
257.217	23.21
257.433	66.22
257.65	23.21
257.866	43.69
258.082	21.16
258.299	39.59
258.515	98.99
258.732	-46.42
258.948	39.59
259.165	17.07
259.381	-13.65
259.597	43.69
259.814	31.4
260.03	-40.28
260.246	19.11
260.463	33.45
260.679	21.16
260.895	-50.52
261.112	70.31
261.328	78.51
261.544	-13.65
261.761	144.04
261.977	55.98
262.193	-87.38
262.409	47.79
262.626	41.64
262.842	-5.46
263.058	-38.23
263.274	53.93
263.49	-9.56
263.707	64.17
263.923	39.59
264.139	-46.42
264.355	-19.8
264.571	43.69
264.787	17.07
265.004	49.83
265.22	49.83
265.436	-32.08
265.652	53.93
265.868	64.17
266.084	-42.32
266.3	19.11
266.516	-38.23
266.732	60.07
266.948	17.07
267.164	17.07
267.38	29.35
267.596	23.21
267.812	33.45
268.028	-13.65
268.244	41.64
268.46	23.21
268.676	55.98
268.892	72.36
269.108	31.4
269.324	35.5
269.54	17.07
269.756	74.41
269.972	-27.99
270.188	-15.7
270.403	31.4
270.619	55.98
270.835	4.78
271.051	70.31
271.267	-64.85
271.483	-64.85
271.698	-1.37
271.914	-1.37
272.13	-48.47
272.346	-44.37
272.562	68.27
272.777	31.4
272.993	-11.61
273.209	-23.89
273.425	37.55
273.64	-13.65
273.856	2.73
274.072	21.16
274.287	-52.56
274.503	37.55
274.719	68.27
274.934	19.11
275.15	-17.75
275.366	55.98
275.581	10.92
275.797	-56.66
276.012	70.31
276.228	-32.08
276.444	0.68
276.659	-3.41
276.875	-17.75
277.09	-1.37
277.306	6.83
277.521	80.55
277.737	8.87
277.952	-5.46
278.168	47.79
278.383	72.36
278.599	43.69
278.814	58.03
279.03	12.97
279.245	23.21
279.461	12.97
279.676	-27.99
279.892	21.16
280.107	-23.89
280.322	-75.09
280.538	-1.37
280.753	43.69
280.969	-42.32
281.184	55.98
281.399	82.6
281.615	82.6
281.83	80.55
282.045	-30.04
282.26	-30.04
282.476	72.36
282.691	-3.41
282.906	35.5
283.122	31.4
283.337	47.79
283.552	80.55
283.767	-34.13
283.983	45.74
284.198	-15.7
284.413	31.4
284.628	2.73
284.843	-25.94
285.058	21.16
285.274	-5.46
285.489	-34.13
285.704	19.11
285.919	-30.04
286.134	15.02
286.349	21.16
286.564	-19.8
286.779	17.07
286.995	15.02
287.21	-103.76
287.425	90.79
287.64	4.78
287.855	23.21
288.07	8.87
288.285	121.51
288.5	17.07
288.715	15.02
288.93	-13.65
289.145	-32.08
289.36	43.69
289.575	47.79
289.79	62.12
290.004	-23.89
290.219	66.22
290.434	-9.56
290.649	-17.75
290.864	19.11
291.079	4.78
291.294	53.93
291.509	8.87
291.724	-9.56
291.938	17.07
292.153	35.5
292.368	78.51
292.583	45.74
292.798	35.5
293.012	-5.46
293.227	35.5
293.442	-7.51
293.657	27.31
293.871	78.51
294.086	27.31
294.301	80.55
294.516	84.65
294.73	-13.65
294.945	-27.99
295.16	23.21
295.374	70.31
295.589	60.07
295.804	-3.41
296.018	15.02
296.233	55.98
296.447	8.87
296.662	-1.37
296.877	88.75
297.091	2.73
297.306	8.87
297.52	-5.46
297.735	-11.61
297.949	2.73
298.164	27.31
298.378	41.64
298.593	-30.04
298.807	62.12
299.022	-13.65
299.236	19.11
299.451	-68.95
299.665	4.78
299.88	82.6
300.094	12.97
300.309	62.12
300.523	10.92
300.737	15.02
300.952	78.51
301.166	12.97
301.381	-40.28
301.595	-1.37
301.809	47.79
302.024	74.41
302.238	-62.8
302.452	37.55
302.667	37.55
302.881	115.37
303.095	12.97
303.309	-36.18
303.524	8.87
303.738	12.97
303.952	-9.56
304.166	70.31
304.381	-52.56
304.595	31.4
304.809	19.11
305.023	17.07
305.237	29.35
305.452	64.17
305.666	-11.61
305.88	84.65
306.094	39.59
306.308	43.69
306.522	10.92
306.736	-42.32
306.95	27.31
307.164	17.07
307.379	0.68
307.593	127.66
307.807	47.79
308.021	33.45
308.235	17.07
308.449	-7.51
308.663	37.55
308.877	86.7
309.091	-38.23
309.305	37.55
309.519	-48.47
309.733	-21.84
309.947	-46.42
310.161	12.97
310.374	0.68
310.588	45.74
310.802	68.27
311.016	53.93
311.23	-13.65
311.444	6.83
311.658	27.31
311.872	43.69
312.085	115.37
312.299	17.07
312.513	78.51
312.727	125.61
312.941	43.69
313.154	15.02
313.368	25.26
313.582	6.83
313.796	150.18
314.009	66.22
314.223	78.51
314.437	45.74
314.651	-3.41
314.864	12.97
315.078	25.26
315.292	8.87
315.505	-19.8
315.719	55.98
315.933	2.73
316.146	31.4
316.36	-19.8
316.573	43.69
316.787	62.12
317.001	53.93
317.214	27.31
317.428	53.93
317.641	17.07
317.855	-1.37
318.068	25.26
318.282	-5.46
318.495	101.03
318.709	27.31
318.922	41.64
319.136	10.92
319.349	131.75
319.563	12.97
319.776	72.36
319.99	-42.32
320.203	96.94
320.417	60.07
320.63	39.59
320.843	49.83
321.057	-15.7
321.27	-5.46
321.483	0.68
321.697	84.65
321.91	41.64
322.124	8.87
322.337	15.02
322.55	-19.8
322.763	12.97
322.977	27.31
323.19	82.6
323.403	33.45
323.617	6.83
323.83	64.17
324.043	23.21
324.256	-13.65
324.469	-21.84
324.683	84.65
324.896	41.64
325.109	72.36
325.322	6.83
325.535	80.55
325.748	41.64
325.962	-27.99
326.175	94.89
326.388	29.35
326.601	45.74
326.814	101.03
327.027	68.27
327.24	84.65
327.453	-44.37
327.666	115.37
327.879	103.08
328.092	41.64
328.305	0.68
328.518	31.4
328.731	-46.42
328.944	-19.8
329.157	115.37
329.37	53.93
329.583	27.31
329.796	78.51
330.009	-42.32
330.222	19.11
330.435	66.22
330.648	10.92
330.861	60.07
331.073	10.92
331.286	109.23
331.499	51.88
331.712	-7.51
331.925	-7.51
332.138	19.11
332.35	113.32
332.563	76.46
332.776	109.23
332.989	25.26
333.202	-5.46
333.414	-34.13
333.627	12.97
333.84	8.87
334.053	39.59
334.265	-60.76
334.478	113.32
334.691	31.4
334.903	-1.37
335.116	2.73
335.329	23.21
335.541	64.17
335.754	21.16
335.966	-1.37
336.179	45.74
336.392	-9.56
336.604	12.97
336.817	-13.65
337.029	39.59
337.242	4.78
337.454	111.27
337.667	53.93
337.88	43.69
338.092	33.45
338.305	19.11
338.517	2.73
338.729	39.59
338.942	92.84
339.154	51.88
339.367	-38.23
339.579	33.45
339.792	-9.56
340.004	41.64
340.217	-11.61
340.429	-32.08
340.641	12.97
340.854	-60.76
341.066	-62.8
341.278	41.64
341.491	-7.51
341.703	78.51
341.915	-52.56
342.128	27.31
342.34	-13.65
342.552	-9.56
342.764	27.31
342.977	23.21
343.189	15.02
343.401	-11.61
343.613	-44.37
343.826	92.84
344.038	-7.51
344.25	119.46
344.462	-17.75
344.674	-38.23
344.886	-3.41
345.099	49.83
345.311	19.11
345.523	68.27
345.735	2.73
345.947	-5.46
346.159	64.17
346.371	2.73
346.583	4.78
346.795	98.99
347.007	-17.75
347.219	113.32
347.431	76.46
347.643	49.83
347.855	51.88
348.067	103.08
348.279	78.51
348.491	15.02
348.703	76.46
348.915	-7.51
349.127	10.92
349.339	70.31
349.551	-32.08
349.763	51.88
349.975	60.07
350.187	60.07
350.399	55.98
350.61	78.51
350.822	4.78
351.034	27.31
351.246	15.02
351.458	68.27
351.669	82.6
351.881	49.83
352.093	4.78
352.305	68.27
352.517	58.03
352.728	29.35
352.94	47.79
353.152	-1.37
353.363	-5.46
353.575	139.94
353.787	15.02
353.999	58.03
354.21	55.98
354.422	-5.46
354.633	68.27
354.845	0.68
355.057	-23.89
355.268	86.7
355.48	-34.13
355.692	-3.41
355.903	74.41
356.115	-50.52
356.326	-5.46
356.538	19.11
356.749	51.88
356.961	29.35
357.172	31.4
357.384	21.16
357.595	78.51
357.807	-48.47
358.018	94.89
358.23	-17.75
358.441	68.27
358.653	133.8
358.864	-40.28
359.075	-25.94
359.287	31.4
359.498	47.79
359.709	27.31
359.921	-5.46
360.132	55.98
360.344	-13.65
360.555	10.92
360.766	53.93
360.977	70.31
361.189	84.65
361.4	-32.08
361.611	53.93
361.823	29.35
362.034	-23.89
362.245	43.69
362.456	-3.41
362.667	115.37
362.879	35.5
363.09	35.5
363.301	-17.75
363.512	92.84
363.723	33.45
363.935	-15.7
364.146	51.88
364.357	21.16
364.568	70.31
364.779	33.45
364.99	82.6
365.201	4.78
365.412	4.78
365.623	-15.7
365.834	96.94
366.045	-1.37
366.256	-9.56
366.467	123.56
366.678	90.79
366.889	60.07
367.1	84.65
367.311	25.26
367.522	39.59
367.733	25.26
367.944	29.35
368.155	29.35
368.366	33.45
368.577	25.26
368.788	31.4
368.999	49.83
369.209	60.07
369.42	98.99
369.631	66.22
369.842	45.74
370.053	33.45
370.264	17.07
370.474	4.78
370.685	-1.37
370.896	49.83
371.107	45.74
371.317	23.21
371.528	35.5
371.739	51.88
371.95	17.07
372.16	-32.08
372.371	-5.46
372.582	88.75
372.792	60.07
373.003	33.45
373.214	-3.41
373.424	98.99
373.635	-50.52
373.846	4.78
374.056	72.36
374.267	74.41
374.477	43.69
374.688	35.5
374.898	10.92
375.109	25.26
375.319	-13.65
375.53	92.84
375.74	80.55
375.951	-73.04
376.161	74.41
376.372	88.75
376.582	-7.51
376.793	4.78
377.003	43.69
377.214	12.97
377.424	84.65
377.635	-52.56
377.845	-9.56
378.055	29.35
378.266	19.11
378.476	25.26
378.686	70.31
378.897	17.07
379.107	15.02
379.317	64.17
379.528	72.36
379.738	51.88
379.948	-1.37
380.158	60.07
380.369	8.87
380.579	70.31
380.789	-17.75
380.999	25.26
381.21	41.64
381.42	82.6
381.63	55.98
381.84	6.83
382.05	51.88
382.261	127.66
382.471	64.17
382.681	25.26
382.891	41.64
383.101	37.55
383.311	-23.89
383.521	60.07
383.731	17.07
383.941	78.51
384.151	-40.28
384.361	49.83
384.571	88.75
384.781	84.65
384.991	129.7
385.201	37.55
385.411	109.23
385.621	8.87
385.831	31.4
386.041	10.92
386.251	86.7
386.461	39.59
386.671	60.07
386.881	74.41
387.091	49.83
387.301	39.59
387.511	37.55
387.72	43.69
387.93	39.59
388.14	70.31
388.35	8.87
388.56	125.61
388.769	60.07
388.979	-5.46
389.189	2.73
389.399	23.21
389.609	-3.41
389.818	78.51
390.028	43.69
390.238	-1.37
390.447	92.84
390.657	53.93
390.867	43.69
391.076	-5.46
391.286	80.55
391.496	43.69
391.705	25.26
391.915	53.93
392.125	62.12
392.334	86.7
392.544	53.93
392.753	51.88
392.963	-56.66
393.172	25.26
393.382	53.93
393.591	64.17
393.801	23.21
394.01	33.45
394.22	92.84
394.429	45.74
394.639	47.79
394.848	68.27
395.058	62.12
395.267	35.5
395.477	58.03
395.686	113.32
395.895	98.99
396.105	117.42
396.314	6.83
396.524	62.12
396.733	-5.46
396.942	31.4
397.152	105.13
397.361	150.18
397.57	51.88
397.78	68.27
397.989	119.46
398.198	123.56
398.407	35.5
398.617	15.02
398.826	4.78
399.035	76.46
399.244	178.86
399.453	25.26
399.663	82.6
399.872	35.5
400.081	94.89
400.29	70.31
400.499	19.11
400.708	37.55
400.917	96.94
401.127	119.46
401.336	53.93
401.545	62.12
401.754	62.12
401.963	41.64
402.172	55.98
402.381	29.35
402.59	55.98
402.799	150.18
403.008	47.79
403.217	76.46
403.426	109.23
403.635	70.31
403.844	64.17
404.053	51.88
404.262	74.41
404.471	189.1
404.68	58.03
404.888	217.77
405.097	88.75
405.306	141.99
405.515	178.86
405.724	33.45
405.933	96.94
406.142	219.82
406.35	127.66
406.559	144.04
406.768	125.61
406.977	182.95
407.185	182.95
407.394	174.76
407.603	144.04
407.812	250.53
408.02	180.9
408.229	158.38
408.438	160.42
408.646	131.75
408.855	168.62
409.064	191.14
409.272	182.95
409.481	205.48
409.69	152.23
409.898	131.75
410.107	213.67
410.315	174.76
410.524	223.91
410.733	256.68
410.941	189.1
411.15	289.45
411.358	316.07
411.567	371.37
411.775	311.97
411.984	305.83
412.192	305.83
412.401	281.25
412.609	334.5
412.818	348.84
413.026	295.59
413.234	363.17
413.443	352.93
413.651	348.84
413.86	457.38
414.068	496.29
414.276	561.83
414.485	490.15
414.693	553.63
414.901	570.02
415.11	508.58
415.318	533.15
415.526	520.87
415.734	533.15
415.943	574.11
416.151	639.65
416.359	543.39
416.567	641.7
416.776	578.21
416.984	670.37
417.192	711.33
417.4	780.96
417.608	696.99
417.817	832.16
418.025	940.7
418.233	871.07
418.441	815.77
418.649	977.56
418.857	963.23
419.065	987.8
419.273	871.07
419.481	1026.72
419.689	1065.63
419.897	1075.87
420.105	1145.5
420.313	1221.27
420.521	1122.97
420.729	1239.7
420.937	1137.31
421.145	1368.73
421.353	1315.48
421.561	1487.51
421.769	1487.51
421.977	1481.36
422.185	1512.08
422.393	1479.32
422.601	1630.87
422.809	1708.69
423.017	1651.35
423.224	1759.89
423.432	1913.49
423.64	1927.82
423.848	2058.89
424.056	1868.43
424.263	2069.13
424.471	2042.51
424.679	2120.33
424.887	2124.43
425.094	2327.18
425.302	2247.3
425.51	2357.89
425.718	2552.45
425.925	2617.99
426.133	2589.32
426.341	2695.81
426.548	2861.69
426.756	2861.69
426.964	2966.14
427.171	2941.57
427.379	3095.16
427.586	3246.71
427.794	3277.43
428.001	3549.81
428.209	3601.01
428.417	3441.27
428.624	3754.61
428.832	3891.82
429.039	3824.24
429.247	3689.07
429.454	4182.63
429.662	4369
429.869	4098.67
430.076	4360.81
430.284	4248.17
430.491	4559.46
430.699	4737.63
430.906	4801.12
431.114	4819.55
431.321	5169.76
431.528	5069.41
431.736	5472.86
431.943	5665.36
432.15	5470.81
432.358	5546.58
432.565	5984.85
432.772	5821.01
432.979	6158.92
433.187	6402.63
433.394	6298.19
433.601	6734.4
433.808	6808.13
434.016	6732.36
434.223	7064.13
434.43	7336.51
434.637	7154.24
434.844	7834.16
435.052	7666.23
435.259	7969.33
435.466	7887.41
435.673	7787.06
435.88	8471.08
436.087	8720.93
436.294	8823.33
436.501	8487.47
436.708	8856.1
436.915	9089.57
437.122	9542.17
437.329	9441.82
437.537	9708.05
437.743	9792.02
437.95	9873.94
438.157	10353.16
438.364	10770.95
438.571	10480.14
438.778	10783.24
438.985	11766.26
439.192	11139.58
439.399	11510.27
439.606	11475.45
439.813	12108.27
440.02	12564.97
440.227	12392.94
440.433	12524.01
440.64	12839.4
440.847	12575.21
441.054	13177.31
441.261	14109.14
441.467	13892.05
441.674	14098.9
441.881	14690.76
442.088	14391.76
442.294	14537.16
442.501	14711.24
442.708	15163.84
442.914	15653.31
443.121	16171.44
443.328	15858.1
443.534	17162.66
443.741	16292.27
443.948	16212.4
444.154	17465.76
444.361	17306.02
444.568	17457.57
444.774	17543.58
444.981	17879.45
445.187	18299.28
445.394	19161.48
445.6	18612.62
445.807	20369.78
446.013	19847.55
446.22	20162.93
446.426	20963.69
446.633	21236.07
446.839	22034.78
447.046	20859.24
447.252	22165.85
447.459	21885.28
447.665	22085.98
447.871	23152.97
448.078	23970.11
448.284	22907.21
448.491	23597.38
448.697	24604.98
448.903	25221.42
449.11	25051.44
449.316	24533.3
449.522	25059.63
449.728	25995.55
449.935	25930.01
450.141	25997.6
450.347	26458.39
450.553	25612.58
450.76	26040.61
450.966	26872.08
451.172	26689.81
451.378	27412.74
451.584	26622.23
451.791	27515.14
451.997	27185.42
452.203	27746.56
452.409	27363.59
452.615	27513.09
452.821	26468.63
453.027	26294.55
453.233	27889.92
453.44	26644.76
453.646	27062.54
453.852	26917.14
454.058	27568.39
454.264	26673.43
454.47	27269.39
454.676	26511.64
454.882	27869.44
455.088	24996.14
455.294	25551.14
455.5	26038.56
455.705	25981.21
455.911	25426.21
456.117	24561.97
456.323	24254.78
456.529	22993.23
456.735	24164.67
456.941	23667.01
457.147	23023.95
457.352	22337.88
457.558	21903.71
457.764	22018.39
457.97	21989.72
458.176	21229.93
458.381	21406.05
458.587	19814.78
458.793	20093.3
458.999	19138.95
459.204	20560.24
459.41	19880.32
459.616	18483.6
459.821	18475.41
460.027	18514.32
460.233	18170.26
460.438	17346.98
460.644	17299.87
460.85	16609.71
461.055	16587.18
461.261	16535.98
461.466	15303.11
461.672	14832.07
461.878	15573.44
462.083	14744.01
462.289	14395.85
462.494	14254.55
462.7	13812.18
462.905	13281.76
463.111	13562.33
463.316	13920.73
463.522	13568.48
463.727	13459.93
463.932	13537.76
464.138	13193.7
464.343	13511.13
464.549	12753.38
464.754	13539.8
464.959	13140.45
465.165	13226.46
465.37	12560.88
465.575	12278.26
465.781	12691.94
465.986	12976.61
466.191	12317.17
466.397	12036.59
466.602	11565.56
466.807	11975.16
467.012	12114.42
467.218	11844.09
