Data from USB4F104151__32__12-23-44-426.txt Node

Date: Fri Mar 14 12:23:44 EDT 2025
User: louis
Spectrometer: USB4F10415
Trigger mode: 4
Integration Time (sec): 3.500000E-2
Scans to average: 1
Electric dark correction enabled: true
Nonlinearity correction enabled: false
Boxcar width: 0
XAxis mode: Wavelengths
Number of Pixels in Spectrum: 3648
>>>>>Begin Spectral Data<<<<<
178.204	-140.46
178.424	-140.46
178.644	-140.46
178.864	-93.35
179.084	-124.07
179.304	-9.39
179.524	-23.72
179.744	-38.06
179.964	2.9
180.184	21.33
180.404	35.67
180.624	-74.92
180.844	-36.01
181.064	7
181.283	60.24
181.503	-27.82
181.723	82.77
181.943	-46.25
182.163	99.16
182.383	19.29
182.602	45.91
182.822	133.97
183.042	52.05
183.262	47.96
183.482	27.48
183.701	39.76
183.921	115.54
184.141	-52.39
184.361	58.2
184.58	-21.67
184.8	74.58
185.02	41.81
185.239	60.24
185.459	70.48
185.679	56.15
185.898	25.43
186.118	88.92
186.338	17.24
186.557	23.38
186.777	-19.63
186.997	13.14
187.216	66.39
187.436	90.96
187.655	76.63
187.875	17.24
188.095	-3.24
188.314	78.68
188.534	41.81
188.753	35.67
188.973	47.96
189.192	47.96
189.412	-13.48
189.631	56.15
189.851	41.81
190.07	113.49
190.29	72.53
190.509	25.43
190.729	47.96
190.948	60.24
191.168	131.92
191.387	9.05
191.607	13.14
191.826	58.2
192.045	0.85
192.265	72.53
192.484	19.29
192.704	-9.39
192.923	29.52
193.142	129.88
193.362	-33.96
193.581	-17.58
193.8	7
194.02	82.77
194.239	70.48
194.458	90.96
194.678	131.92
194.897	0.85
195.116	74.58
195.335	113.49
195.555	-1.19
195.774	90.96
195.993	62.29
196.212	13.14
196.432	74.58
196.651	47.96
196.87	-9.39
197.089	60.24
197.308	17.24
197.528	47.96
197.747	2.9
197.966	84.82
198.185	127.83
198.404	21.33
198.623	121.68
198.842	58.2
199.062	27.48
199.281	70.48
199.5	2.9
199.719	-9.39
199.938	52.05
200.157	-31.91
200.376	50
200.595	19.29
200.814	9.05
201.033	-33.96
201.252	60.24
201.471	-23.72
201.69	142.16
201.909	60.24
202.128	19.29
202.347	-5.29
202.566	-3.24
202.785	-3.24
203.004	17.24
203.223	43.86
203.442	4.95
203.661	-31.91
203.879	58.2
204.098	74.58
204.317	4.95
204.536	13.14
204.755	25.43
204.974	84.82
205.193	17.24
205.411	54.1
205.63	115.54
205.849	70.48
206.068	70.48
206.287	-52.39
206.505	64.34
206.724	62.29
206.943	15.19
207.162	-50.35
207.381	15.19
207.599	50
207.818	27.48
208.037	35.67
208.255	37.72
208.474	117.59
208.693	84.82
208.911	41.81
209.13	37.72
209.349	-23.72
209.567	52.05
209.786	25.43
210.005	93.01
210.223	56.15
210.442	-23.72
210.661	72.53
210.879	31.57
211.098	-7.34
211.316	50
211.535	37.72
211.753	21.33
211.972	35.67
212.191	70.48
212.409	25.43
212.628	58.2
212.846	27.48
213.065	68.44
213.283	43.86
213.502	0.85
213.72	47.96
213.938	97.11
214.157	11.09
214.375	43.86
214.594	-3.24
214.812	31.57
215.031	-21.67
215.249	-3.24
215.467	78.68
215.686	54.1
215.904	2.9
216.122	19.29
216.341	62.29
216.559	19.29
216.778	41.81
216.996	80.72
217.214	-3.24
217.432	37.72
217.651	-15.53
217.869	66.39
218.087	31.57
218.306	-38.06
218.524	82.77
218.742	41.81
218.96	84.82
219.179	72.53
219.397	60.24
219.615	150.36
219.833	-25.77
220.051	95.06
220.27	133.97
220.488	33.62
220.706	4.95
220.924	31.57
221.142	-13.48
221.36	41.81
221.578	25.43
221.796	-36.01
222.015	23.38
222.233	-31.91
222.451	66.39
222.669	-33.96
222.887	125.78
223.105	-23.72
223.323	56.15
223.541	45.91
223.759	-33.96
223.977	-31.91
224.195	54.1
224.413	74.58
224.631	4.95
224.849	-25.77
225.067	31.57
225.285	19.29
225.503	-29.87
225.721	-85.16
225.939	43.86
226.157	78.68
226.375	103.25
226.592	-40.11
226.81	62.29
227.028	64.34
227.246	90.96
227.464	21.33
227.682	13.14
227.9	105.3
228.117	74.58
228.335	37.72
228.553	-31.91
228.771	62.29
228.989	84.82
229.206	95.06
229.424	-13.48
229.642	37.72
229.86	-1.19
230.077	35.67
230.295	17.24
230.513	68.44
230.731	2.9
230.948	62.29
231.166	76.63
231.384	23.38
231.601	52.05
231.819	19.29
232.037	7
232.254	-17.58
232.472	21.33
232.689	-1.19
232.907	109.4
233.125	39.76
233.342	52.05
233.56	11.09
233.777	23.38
233.995	29.52
234.213	43.86
234.43	45.91
234.648	-19.63
234.865	33.62
235.083	88.92
235.3	78.68
235.518	68.44
235.735	62.29
235.953	70.48
236.17	84.82
236.388	15.19
236.605	93.01
236.822	13.14
237.04	37.72
237.257	27.48
237.475	19.29
237.692	76.63
237.909	97.11
238.127	-42.15
238.344	62.29
238.562	111.44
238.779	-64.68
238.996	4.95
239.214	76.63
239.431	101.2
239.648	39.76
239.865	25.43
240.083	25.43
240.3	31.57
240.517	68.44
240.735	-38.06
240.952	62.29
241.169	90.96
241.386	54.1
241.603	27.48
241.821	0.85
242.038	41.81
242.255	-5.29
242.472	-21.67
242.689	25.43
242.907	93.01
243.124	47.96
243.341	31.57
243.558	15.19
243.775	60.24
243.992	-36.01
244.209	13.14
244.426	64.34
244.643	84.82
244.86	-21.67
245.078	64.34
245.295	-13.48
245.512	17.24
245.729	-9.39
245.946	-1.19
246.163	-25.77
246.38	17.24
246.597	7
246.814	17.24
247.031	45.91
247.248	39.76
247.464	-11.43
247.681	4.95
247.898	23.38
248.115	82.77
248.332	0.85
248.549	2.9
248.766	66.39
248.983	80.72
249.2	41.81
249.417	86.87
249.633	13.14
249.85	127.83
250.067	35.67
250.284	39.76
250.501	97.11
250.717	27.48
250.934	25.43
251.151	-3.24
251.368	54.1
251.585	117.59
251.801	35.67
252.018	27.48
252.235	56.15
252.451	9.05
252.668	21.33
252.885	131.92
253.102	39.76
253.318	47.96
253.535	25.43
253.752	13.14
253.968	-1.19
254.185	-3.24
254.401	37.72
254.618	-23.72
254.835	17.24
255.051	142.16
255.268	17.24
255.484	50
255.701	-17.58
255.917	2.9
256.134	64.34
256.351	41.81
256.567	-17.58
256.784	115.54
257	9.05
257.217	-7.34
257.433	72.53
257.65	4.95
257.866	31.57
258.082	17.24
258.299	31.57
258.515	95.06
258.732	7
258.948	-66.73
259.165	101.2
259.381	9.05
259.597	39.76
259.814	56.15
260.03	66.39
260.246	-27.82
260.463	58.2
260.679	54.1
260.895	0.85
261.112	39.76
261.328	21.33
261.544	52.05
261.761	72.53
261.977	-13.48
262.193	27.48
262.409	-7.34
262.626	-19.63
262.842	90.96
263.058	2.9
263.274	33.62
263.49	41.81
263.707	11.09
263.923	109.4
264.139	-7.34
264.355	60.24
264.571	101.2
264.787	25.43
265.004	181.07
265.22	33.62
265.436	52.05
265.652	80.72
265.868	31.57
266.084	-7.34
266.3	13.14
266.516	13.14
266.732	35.67
266.948	39.76
267.164	17.24
267.38	78.68
267.596	99.16
267.812	103.25
268.028	54.1
268.244	33.62
268.46	84.82
268.676	64.34
268.892	-7.34
269.108	31.57
269.324	-23.72
269.54	-17.58
269.756	47.96
269.972	33.62
270.188	-1.19
270.403	29.52
270.619	52.05
270.835	37.72
271.051	13.14
271.267	39.76
271.483	11.09
271.698	39.76
271.914	17.24
272.13	54.1
272.346	-23.72
272.562	-38.06
272.777	31.57
272.993	21.33
273.209	7
273.425	93.01
273.64	9.05
273.856	70.48
274.072	47.96
274.287	-36.01
274.503	101.2
274.719	11.09
274.934	9.05
275.15	-56.49
275.366	21.33
275.581	21.33
275.797	41.81
276.012	11.09
276.228	13.14
276.444	-50.35
276.659	60.24
276.875	33.62
277.09	86.87
277.306	25.43
277.521	41.81
277.737	43.86
277.952	50
278.168	97.11
278.383	70.48
278.599	47.96
278.814	45.91
279.03	66.39
279.245	84.82
279.461	78.68
279.676	88.92
279.892	-23.72
280.107	2.9
280.322	43.86
280.538	56.15
280.753	23.38
280.969	127.83
281.184	19.29
281.399	72.53
281.615	4.95
281.83	45.91
282.045	27.48
282.26	27.48
282.476	-23.72
282.691	142.16
282.906	25.43
283.122	0.85
283.337	-50.35
283.552	15.19
283.767	-3.24
283.983	76.63
284.198	37.72
284.413	2.9
284.628	-3.24
284.843	29.52
285.058	93.01
285.274	17.24
285.489	15.19
285.704	119.64
285.919	17.24
286.134	90.96
286.349	43.86
286.564	-25.77
286.779	23.38
286.995	97.11
287.21	9.05
287.425	11.09
287.64	37.72
287.855	15.19
288.07	-13.48
288.285	101.2
288.5	90.96
288.715	41.81
288.93	121.68
289.145	31.57
289.36	45.91
289.575	-9.39
289.79	93.01
290.004	-44.2
290.219	72.53
290.434	11.09
290.649	23.38
290.864	-56.49
291.079	11.09
291.294	33.62
291.509	74.58
291.724	15.19
291.938	-17.58
292.153	50
292.368	50
292.583	9.05
292.798	33.62
293.012	58.2
293.227	54.1
293.442	97.11
293.657	23.38
293.871	58.2
294.086	103.25
294.301	95.06
294.516	58.2
294.73	39.76
294.945	25.43
295.16	11.09
295.374	66.39
295.589	138.07
295.804	19.29
296.018	19.29
296.233	107.35
296.447	60.24
296.662	52.05
296.877	84.82
297.091	76.63
297.306	103.25
297.52	7
297.735	58.2
297.949	13.14
298.164	78.68
298.378	105.3
298.593	-15.53
298.807	35.67
299.022	58.2
299.236	113.49
299.451	50
299.665	-17.58
299.88	97.11
300.094	70.48
300.309	68.44
300.523	95.06
300.737	52.05
300.952	9.05
301.166	56.15
301.381	86.87
301.595	-3.24
301.809	0.85
302.024	17.24
302.238	-36.01
302.452	82.77
302.667	13.14
302.881	125.78
303.095	31.57
303.309	-15.53
303.524	-25.77
303.738	-33.96
303.952	31.57
304.166	70.48
304.381	-1.19
304.595	103.25
304.809	9.05
305.023	41.81
305.237	-7.34
305.452	7
305.666	50
305.88	19.29
306.094	78.68
306.308	25.43
306.522	80.72
306.736	50
306.95	80.72
307.164	56.15
307.379	33.62
307.593	45.91
307.807	82.77
308.021	97.11
308.235	33.62
308.449	-31.91
308.663	13.14
308.877	84.82
309.091	-11.43
309.305	78.68
309.519	-42.15
309.733	50
309.947	4.95
310.161	41.81
310.374	11.09
310.588	156.5
310.802	72.53
311.016	2.9
311.23	39.76
311.444	39.76
311.658	33.62
311.872	82.77
312.085	31.57
312.299	54.1
312.513	70.48
312.727	43.86
312.941	-3.24
313.154	99.16
313.368	13.14
313.582	72.53
313.796	58.2
314.009	43.86
314.223	33.62
314.437	101.2
314.651	23.38
314.864	68.44
315.078	60.24
315.292	25.43
315.505	-21.67
315.719	105.3
315.933	19.29
316.146	37.72
316.36	66.39
316.573	74.58
316.787	50
317.001	90.96
317.214	-44.2
317.428	4.95
317.641	-17.58
317.855	29.52
318.068	78.68
318.282	31.57
318.495	148.31
318.709	60.24
318.922	68.44
319.136	131.92
319.349	86.87
319.563	66.39
319.776	97.11
319.99	-7.34
320.203	86.87
320.417	88.92
320.63	88.92
320.843	74.58
321.057	-15.53
321.27	25.43
321.483	99.16
321.697	174.93
321.91	7
322.124	27.48
322.337	60.24
322.55	4.95
322.763	95.06
322.977	-23.72
323.19	9.05
323.403	-5.29
323.617	90.96
323.83	31.57
324.043	47.96
324.256	52.05
324.469	27.48
324.683	88.92
324.896	58.2
325.109	-7.34
325.322	-36.01
325.535	107.35
325.748	86.87
325.962	19.29
326.175	43.86
326.388	47.96
326.601	0.85
326.814	74.58
327.027	13.14
327.24	60.24
327.453	-66.73
327.666	93.01
327.879	4.95
328.092	-31.91
328.305	54.1
328.518	66.39
328.731	35.67
328.944	4.95
329.157	47.96
329.37	-15.53
329.583	29.52
329.796	86.87
330.009	19.29
330.222	0.85
330.435	103.25
330.648	31.57
330.861	43.86
331.073	39.76
331.286	50
331.499	68.44
331.712	-42.15
331.925	33.62
332.138	76.63
332.35	50
332.563	11.09
332.776	74.58
332.989	25.43
333.202	9.05
333.414	0.85
333.627	-1.19
333.84	52.05
334.053	25.43
334.265	17.24
334.478	148.31
334.691	76.63
334.903	50
335.116	0.85
335.329	15.19
335.541	121.68
335.754	43.86
335.966	58.2
336.179	-19.63
336.392	9.05
336.604	64.34
336.817	23.38
337.029	9.05
337.242	-1.19
337.454	50
337.667	11.09
337.88	15.19
338.092	54.1
338.305	125.78
338.517	101.2
338.729	68.44
338.942	66.39
339.154	90.96
339.367	-1.19
339.579	41.81
339.792	2.9
340.004	72.53
340.217	-5.29
340.429	31.57
340.641	27.48
340.854	93.01
341.066	-21.67
341.278	107.35
341.491	99.16
341.703	17.24
341.915	-27.82
342.128	-19.63
342.34	62.29
342.552	25.43
342.764	82.77
342.977	-17.58
343.189	86.87
343.401	29.52
343.613	11.09
343.826	13.14
344.038	-3.24
344.25	113.49
344.462	47.96
344.674	56.15
344.886	47.96
345.099	29.52
345.311	-17.58
345.523	0.85
345.735	-5.29
345.947	50
346.159	82.77
346.371	-11.43
346.583	64.34
346.795	127.83
347.007	15.19
347.219	-1.19
347.431	-13.48
347.643	80.72
347.855	160.59
348.067	66.39
348.279	27.48
348.491	37.72
348.703	52.05
348.915	58.2
349.127	84.82
349.339	93.01
349.551	35.67
349.763	31.57
349.975	23.38
350.187	117.59
350.399	54.1
350.61	41.81
350.822	41.81
351.034	113.49
351.246	76.63
351.458	41.81
351.669	11.09
351.881	99.16
352.093	90.96
352.305	74.58
352.517	66.39
352.728	80.72
352.94	39.76
353.152	19.29
353.363	-21.67
353.575	119.64
353.787	43.86
353.999	52.05
354.21	-3.24
354.422	47.96
354.633	9.05
354.845	31.57
355.057	62.29
355.268	13.14
355.48	50
355.692	-31.91
355.903	-23.72
356.115	86.87
356.326	-38.06
356.538	113.49
356.749	66.39
356.961	144.21
357.172	60.24
357.384	45.91
357.595	138.07
357.807	52.05
358.018	39.76
358.23	45.91
358.441	117.59
358.653	64.34
358.864	60.24
359.075	43.86
359.287	70.48
359.498	95.06
359.709	80.72
359.921	50
360.132	82.77
360.344	62.29
360.555	-42.15
360.766	58.2
360.977	47.96
361.189	52.05
361.4	13.14
361.611	115.54
361.823	76.63
362.034	78.68
362.245	-15.53
362.456	13.14
362.667	17.24
362.879	41.81
363.09	-5.29
363.301	2.9
363.512	76.63
363.723	19.29
363.935	19.29
364.146	52.05
364.357	52.05
364.568	76.63
364.779	-46.25
364.99	78.68
365.201	-85.16
365.412	125.78
365.623	-1.19
365.834	31.57
366.045	66.39
366.256	68.44
366.467	56.15
366.678	72.53
366.889	64.34
367.1	62.29
367.311	74.58
367.522	45.91
367.733	-13.48
367.944	58.2
368.155	23.38
368.366	133.97
368.577	66.39
368.788	78.68
368.999	13.14
369.209	47.96
369.42	127.83
369.631	154.45
369.842	93.01
370.053	2.9
370.264	35.67
370.474	13.14
370.685	7
370.896	25.43
371.107	74.58
371.317	70.48
371.528	35.67
371.739	86.87
371.95	64.34
372.16	33.62
372.371	-56.49
372.582	0.85
372.792	-5.29
373.003	35.67
373.214	56.15
373.424	113.49
373.635	17.24
373.846	121.68
374.056	9.05
374.267	35.67
374.477	123.73
374.688	-7.34
374.898	74.58
375.109	80.72
375.319	72.53
375.53	-13.48
375.74	33.62
375.951	29.52
376.161	9.05
376.372	0.85
376.582	45.91
376.793	88.92
377.003	-40.11
377.214	41.81
377.424	56.15
377.635	15.19
377.845	56.15
378.055	88.92
378.266	-13.48
378.476	66.39
378.686	43.86
378.897	76.63
379.107	105.3
379.317	99.16
379.528	50
379.738	37.72
379.948	-3.24
380.158	117.59
380.369	58.2
380.579	93.01
380.789	-3.24
380.999	95.06
381.21	31.57
381.42	101.2
381.63	41.81
381.84	39.76
382.05	-9.39
382.261	146.26
382.471	68.44
382.681	35.67
382.891	76.63
383.101	123.73
383.311	31.57
383.521	47.96
383.731	60.24
383.941	4.95
384.151	50
384.361	64.34
384.571	29.52
384.781	50
384.991	68.44
385.201	111.44
385.411	95.06
385.621	41.81
385.831	43.86
386.041	68.44
386.251	23.38
386.461	125.78
386.671	62.29
386.881	29.52
387.091	72.53
387.301	72.53
387.511	50
387.72	84.82
387.93	103.25
388.14	27.48
388.35	33.62
388.56	97.11
388.769	60.24
388.979	-5.29
389.189	27.48
389.399	-54.44
389.609	-23.72
389.818	113.49
390.028	111.44
390.238	37.72
390.447	54.1
390.657	45.91
390.867	21.33
391.076	4.95
391.286	60.24
391.496	0.85
391.705	13.14
391.915	166.74
392.125	31.57
392.334	82.77
392.544	103.25
392.753	60.24
392.963	90.96
393.172	45.91
393.382	82.77
393.591	107.35
393.801	54.1
394.01	97.11
394.22	29.52
394.429	29.52
394.639	93.01
394.848	88.92
395.058	7
395.267	72.53
395.477	68.44
395.686	90.96
395.895	209.75
396.105	189.27
396.314	74.58
396.524	74.58
396.733	62.29
396.942	97.11
397.152	82.77
397.361	45.91
397.57	37.72
397.78	80.72
397.989	60.24
398.198	193.36
398.407	90.96
398.617	45.91
398.826	90.96
399.035	119.64
399.244	101.2
399.453	66.39
399.663	72.53
399.872	45.91
400.081	17.24
400.29	187.22
400.499	103.25
400.708	97.11
400.917	56.15
401.127	101.2
401.336	109.4
401.545	109.4
401.754	125.78
401.963	105.3
402.172	121.68
402.381	56.15
402.59	4.95
402.799	76.63
403.008	113.49
403.217	70.48
403.426	179.03
403.635	84.82
403.844	115.54
404.053	58.2
404.262	64.34
404.471	224.08
404.68	109.4
404.888	142.16
405.097	88.92
405.306	113.49
405.515	101.2
405.724	103.25
405.933	148.31
406.142	127.83
406.35	123.73
406.559	152.4
406.768	203.6
406.977	179.03
407.185	119.64
407.394	133.97
407.603	144.21
407.812	187.22
408.02	199.51
408.229	158.55
408.438	201.55
408.646	121.68
408.855	150.36
409.064	136.02
409.272	144.21
409.481	238.42
409.69	224.08
409.898	154.45
410.107	279.38
410.315	222.03
410.524	224.08
410.733	293.71
410.941	306
411.15	287.57
411.358	281.43
411.567	394.06
411.775	312.14
411.984	291.66
412.192	349.01
412.401	330.58
412.609	365.39
412.818	367.44
413.026	328.53
413.234	275.28
413.443	328.53
413.651	332.62
413.86	369.49
414.068	461.65
414.276	553.8
414.485	418.64
414.693	531.28
414.901	529.23
415.11	582.48
415.318	600.91
415.526	523.09
415.734	496.46
415.943	598.86
416.151	645.96
416.359	543.57
416.567	623.44
416.776	738.12
416.984	658.25
417.192	799.56
417.4	680.78
417.608	783.18
417.817	834.38
418.025	838.47
418.233	889.67
418.441	713.55
418.649	858.95
418.857	926.54
419.065	953.16
419.273	983.88
419.481	953.16
419.689	1098.56
419.897	1059.65
420.105	1037.13
420.313	1137.48
420.521	1280.83
420.729	1215.3
420.937	1207.11
421.145	1225.54
421.353	1325.89
421.561	1461.06
421.769	1532.73
421.977	1545.02
422.185	1616.7
422.393	1516.35
422.601	1696.57
422.809	1755.96
423.017	1772.35
423.224	1749.82
423.432	1854.27
423.64	1827.64
423.848	1987.38
424.056	1919.8
424.263	2104.12
424.471	1968.95
424.679	2081.59
424.887	2351.92
425.094	2399.02
425.302	2327.35
425.51	2321.2
425.718	2587.44
425.925	2523.95
426.133	2648.88
426.341	2702.12
426.548	2933.54
426.756	2906.92
426.964	2843.43
427.171	3037.99
427.379	3277.6
427.586	3359.52
427.794	3246.88
428.001	3437.34
428.209	3705.63
428.417	3603.23
428.624	3754.78
428.832	3754.78
429.039	3935
429.247	3791.64
429.454	4211.48
429.662	4481.81
429.869	4141.85
430.076	4354.83
430.284	4193.05
430.491	4578.06
430.699	4866.83
430.906	4735.76
431.114	4922.12
431.321	4993.8
431.528	5208.84
431.736	5419.78
431.943	5677.82
432.15	5606.14
432.358	5526.27
432.565	5774.08
432.772	5901.05
432.979	6263.54
433.187	6482.67
433.394	6441.72
433.601	6642.42
433.808	7000.81
434.016	6765.29
434.223	7006.95
434.43	7428.84
434.637	7164.65
434.844	7807.71
435.052	7772.89
435.259	7936.73
435.466	7977.69
435.673	7811.81
435.88	8389.33
436.087	8948.43
436.294	8764.11
436.501	8630.99
436.708	8762.06
436.915	9134.79
437.122	9419.46
437.329	9493.19
437.537	9695.94
437.743	10052.28
437.95	9876.16
438.157	10404.53
438.364	10767.03
438.571	10650.29
438.778	11055.79
438.985	11901.6
439.192	11207.34
439.399	11772.58
439.606	11252.39
439.813	12098.2
440.02	12841.62
440.227	12409.5
440.433	12149.4
440.64	12806.8
440.847	12726.93
441.054	13077.13
441.261	13783.68
441.467	13550.21
441.674	13900.42
441.881	14602.87
442.088	14531.19
442.294	14439.03
442.501	14801.52
442.708	15237.74
442.914	15794.79
443.121	16409.18
443.328	15940.19
443.534	17154.64
443.741	16433.75
443.948	16228.96
444.154	17625.67
444.361	17584.71
444.568	17678.92
444.774	17750.6
444.981	17547.85
445.187	18391.61
445.394	19001.91
445.6	19016.24
445.807	20738.58
446.013	19935.78
446.22	20226.59
446.426	21025.3
446.633	21264.91
446.839	21758.47
447.046	21111.32
447.252	22241.79
447.459	22110.72
447.665	22020.61
447.871	23060.98
448.078	24392.16
448.284	22825.47
448.491	23384.56
448.697	24627.68
448.903	24785.37
449.11	24863.19
449.316	24347.11
449.522	24902.11
449.728	25778.64
449.935	25897.42
450.141	26012.1
450.347	26755.52
450.553	25606.61
450.76	26067.4
450.966	26606.02
451.172	26739.13
451.378	27292.08
451.584	26577.34
451.791	27253.17
451.997	26845.63
452.203	27767.21
452.409	27726.25
452.615	27480.5
452.821	26554.82
453.027	25858.51
453.233	27894.19
453.44	26722.75
453.646	26642.88
453.852	26968.51
454.058	27406.77
454.264	26698.17
454.47	27228.6
454.676	26186.18
454.882	27058.62
455.088	24801.75
455.294	25231.83
455.5	25387.47
455.705	25741.77
455.911	24807.9
456.117	24719.84
456.323	23788.01
456.529	23036.41
456.735	23921.13
456.941	23296.5
457.147	22630.91
457.352	22012.42
457.558	21621.26
457.764	21735.95
457.97	21527.05
458.176	20988.44
458.381	20890.13
458.587	19933.73
458.793	19704.36
458.999	18823.73
459.204	19835.43
459.41	19376.69
459.616	18248.25
459.821	18182.72
460.027	18225.73
460.233	17619.53
460.438	16919.12
460.644	17125.97
460.85	16400.99
461.055	15878.76
461.261	16319.07
461.466	14883.44
461.672	14348.92
461.878	15198.83
462.083	14375.55
462.289	14137.98
462.494	13982.34
462.7	13390.47
462.905	12915.34
463.111	13613.7
463.316	13556.36
463.522	13140.62
463.727	13216.4
463.932	13277.83
464.138	13005.45
464.343	13144.72
464.549	12737.17
464.754	13228.68
464.959	12944.02
465.165	12925.58
465.37	12401.3
465.575	12024.48
465.781	12692.12
465.986	12546.71
466.191	12206.75
466.397	11942.56
466.602	11182.76
466.807	11635.36
467.012	11850.4
467.218	11782.82
467.423	11625.12
467.628	11696.8
467.833	12159.64
468.038	11700.9
468.244	11408.04
468.449	11776.67
468.654	11358.89
468.859	11174.57
