Data from USB4F104151__56__12-24-05-913.txt Node

Date: Fri Mar 14 12:24:05 EDT 2025
User: louis
Spectrometer: USB4F10415
Trigger mode: 4
Integration Time (sec): 3.500000E-2
Scans to average: 1
Electric dark correction enabled: true
Nonlinearity correction enabled: false
Boxcar width: 0
XAxis mode: Wavelengths
Number of Pixels in Spectrum: 3648
>>>>>Begin Spectral Data<<<<<
178.204	-157.18
178.424	-157.18
178.644	-157.18
178.864	-157.18
179.084	-196.09
179.304	8.7
179.524	-15.87
179.744	23.04
179.964	55.81
180.184	31.23
180.404	29.18
180.624	-22.02
180.844	-28.16
181.064	-44.54
181.283	10.75
181.503	-44.54
181.723	-3.58
181.943	-44.54
182.163	55.81
182.383	-17.92
182.602	49.66
182.822	16.9
183.042	39.42
183.262	25.09
183.482	78.33
183.701	-19.97
183.921	27.14
184.141	-13.82
184.361	31.23
184.58	-5.63
184.8	-7.68
185.02	12.8
185.239	82.43
185.459	41.47
185.679	14.85
185.898	57.86
186.118	-54.78
186.338	-52.74
186.557	88.57
186.777	-50.69
186.997	-40.45
187.216	6.66
187.436	72.19
187.655	107.01
187.875	12.8
188.095	27.14
188.314	35.33
188.534	39.42
188.753	-1.54
188.973	2.56
189.192	-26.11
189.412	39.42
189.631	16.9
189.851	-36.35
190.07	6.66
190.29	-11.78
190.509	-69.12
190.729	-7.68
190.948	86.53
191.168	203.26
191.387	-32.26
191.607	-13.82
191.826	51.71
192.045	27.14
192.265	12.8
192.484	25.09
192.704	18.94
192.923	-58.88
193.142	72.19
193.362	45.57
193.581	-3.58
193.8	72.19
194.02	39.42
194.239	-30.21
194.458	12.8
194.678	43.52
194.897	-17.92
195.116	-28.16
195.335	-5.63
195.555	37.38
195.774	-38.4
195.993	20.99
196.212	39.42
196.432	23.04
196.651	90.62
196.87	12.8
197.089	53.76
197.308	96.77
197.528	49.66
197.747	41.47
197.966	51.71
198.185	33.28
198.404	14.85
198.623	18.94
198.842	2.56
199.062	88.57
199.281	72.19
199.5	25.09
199.719	37.38
199.938	31.23
200.157	27.14
200.376	12.8
200.595	-36.35
200.814	-7.68
201.033	64
201.252	-26.11
201.471	-54.78
201.69	27.14
201.909	59.9
202.128	16.9
202.347	31.23
202.566	-11.78
202.785	-15.87
203.004	49.66
203.223	23.04
203.442	-103.93
203.661	33.28
203.879	-13.82
204.098	55.81
204.317	-40.45
204.536	23.04
204.755	-15.87
204.974	-22.02
205.193	2.56
205.411	94.72
205.63	-34.3
205.849	41.47
206.068	-28.16
206.287	-7.68
206.505	0.51
206.724	-17.92
206.943	-17.92
207.162	18.94
207.381	8.7
207.599	49.66
207.818	-22.02
208.037	18.94
208.255	-7.68
208.474	29.18
208.693	10.75
208.911	-36.35
209.13	6.66
209.349	-42.5
209.567	14.85
209.786	12.8
210.005	12.8
210.223	-32.26
210.442	-79.36
210.661	-30.21
210.879	43.52
211.098	47.62
211.316	10.75
211.535	76.29
211.753	8.7
211.972	29.18
212.191	2.56
212.409	51.71
212.628	45.57
212.846	0.51
213.065	23.04
213.283	107.01
213.502	25.09
213.72	39.42
213.938	-77.31
214.157	8.7
214.375	41.47
214.594	-44.54
214.812	53.76
215.031	-58.88
215.249	8.7
215.467	20.99
215.686	-19.97
215.904	43.52
216.122	-28.16
216.341	90.62
216.559	-50.69
216.778	47.62
216.996	55.81
217.214	2.56
217.432	-9.73
217.651	-32.26
217.869	4.61
218.087	43.52
218.306	-1.54
218.524	-1.54
218.742	14.85
218.96	70.14
219.179	25.09
219.397	16.9
219.615	131.58
219.833	76.29
220.051	-7.68
220.27	76.29
220.488	96.77
220.706	14.85
220.924	-42.5
221.142	39.42
221.36	49.66
221.578	59.9
221.796	27.14
222.015	16.9
222.233	0.51
222.451	98.81
222.669	8.7
222.887	43.52
223.105	6.66
223.323	64
223.541	29.18
223.759	59.9
223.977	-48.64
224.195	57.86
224.413	61.95
224.631	25.09
224.849	43.52
225.067	90.62
225.285	31.23
225.503	8.7
225.721	-46.59
225.939	33.28
226.157	6.66
226.375	88.57
226.592	-108.03
226.81	-15.87
227.028	18.94
227.246	8.7
227.464	43.52
227.682	6.66
227.9	27.14
228.117	-34.3
228.335	-24.06
228.553	12.8
228.771	0.51
228.989	10.75
229.206	-19.97
229.424	-22.02
229.642	4.61
229.86	-7.68
230.077	102.91
230.295	29.18
230.513	100.86
230.731	61.95
230.948	41.47
231.166	18.94
231.384	-7.68
231.601	0.51
231.819	107.01
232.037	-17.92
232.254	-42.5
232.472	-1.54
232.689	-5.63
232.907	-5.63
233.125	-34.3
233.342	-62.98
233.56	10.75
233.777	-62.98
233.995	57.86
234.213	74.24
234.43	41.47
234.648	37.38
234.865	43.52
235.083	27.14
235.3	-42.5
235.518	84.48
235.735	59.9
235.953	57.86
236.17	20.99
236.388	-7.68
236.605	-99.84
236.822	37.38
237.04	68.09
237.257	-26.11
237.475	-52.74
237.692	113.15
237.909	49.66
238.127	-13.82
238.344	0.51
238.562	51.71
238.779	43.52
238.996	-13.82
239.214	-15.87
239.431	55.81
239.648	-42.5
239.865	82.43
240.083	-3.58
240.3	59.9
240.517	-54.78
240.735	33.28
240.952	-28.16
241.169	98.81
241.386	-58.88
241.603	-5.63
241.821	-52.74
242.038	49.66
242.255	-38.4
242.472	20.99
242.689	119.29
242.907	2.56
243.124	43.52
243.341	-24.06
243.558	8.7
243.775	-46.59
243.992	-9.73
244.209	37.38
244.426	33.28
244.643	47.62
244.86	-42.5
245.078	25.09
245.295	-11.78
245.512	18.94
245.729	-42.5
245.946	27.14
246.163	2.56
246.38	2.56
246.597	39.42
246.814	-32.26
247.031	10.75
247.248	47.62
247.464	64
247.681	-19.97
247.898	14.85
248.115	16.9
248.332	-34.3
248.549	94.72
248.766	98.81
248.983	115.2
249.2	27.14
249.417	37.38
249.633	-5.63
249.85	84.48
250.067	2.56
250.284	68.09
250.501	-5.63
250.717	51.71
250.934	-32.26
251.151	35.33
251.368	-38.4
251.585	45.57
251.801	37.38
252.018	18.94
252.235	10.75
252.451	-11.78
252.668	-54.78
252.885	76.29
253.102	-11.78
253.318	4.61
253.535	-34.3
253.752	0.51
253.968	41.47
254.185	-34.3
254.401	-7.68
254.618	76.29
254.835	41.47
255.051	107.01
255.268	18.94
255.484	18.94
255.701	29.18
255.917	10.75
256.134	-17.92
256.351	-24.06
256.567	10.75
256.784	-9.73
257	14.85
257.217	2.56
257.433	4.61
257.65	27.14
257.866	23.04
258.082	-44.54
258.299	8.7
258.515	-34.3
258.732	45.57
258.948	-1.54
259.165	64
259.381	-42.5
259.597	-1.54
259.814	4.61
260.03	-34.3
260.246	10.75
260.463	72.19
260.679	80.38
260.895	16.9
261.112	98.81
261.328	64
261.544	37.38
261.761	33.28
261.977	10.75
262.193	55.81
262.409	2.56
262.626	8.7
262.842	-42.5
263.058	41.47
263.274	2.56
263.49	35.33
263.707	80.38
263.923	-24.06
264.139	-3.58
264.355	45.57
264.571	37.38
264.787	35.33
265.004	80.38
265.22	-19.97
265.436	43.52
265.652	2.56
265.868	8.7
266.084	-19.97
266.3	55.81
266.516	39.42
266.732	64
266.948	-28.16
267.164	2.56
267.38	-24.06
267.596	-9.73
267.812	113.15
268.028	55.81
268.244	14.85
268.46	-11.78
268.676	78.33
268.892	20.99
269.108	-54.78
269.324	-3.58
269.54	41.47
269.756	78.33
269.972	-3.58
270.188	16.9
270.403	-32.26
270.619	-17.92
270.835	-9.73
271.051	33.28
271.267	86.53
271.483	90.62
271.698	49.66
271.914	8.7
272.13	-15.87
272.346	47.62
272.562	4.61
272.777	18.94
272.993	33.28
273.209	4.61
273.425	37.38
273.64	-19.97
273.856	31.23
274.072	-3.58
274.287	-48.64
274.503	78.33
274.719	-34.3
274.934	10.75
275.15	-89.6
275.366	37.38
275.581	-1.54
275.797	-1.54
276.012	45.57
276.228	43.52
276.444	-32.26
276.659	47.62
276.875	35.33
277.09	16.9
277.306	-48.64
277.521	16.9
277.737	4.61
277.952	41.47
278.168	12.8
278.383	49.66
278.599	-36.35
278.814	27.14
279.03	18.94
279.245	10.75
279.461	-42.5
279.676	41.47
279.892	-22.02
280.107	-17.92
280.322	23.04
280.538	33.28
280.753	10.75
280.969	70.14
281.184	33.28
281.399	76.29
281.615	-56.83
281.83	53.76
282.045	-1.54
282.26	37.38
282.476	-1.54
282.691	8.7
282.906	57.86
283.122	-24.06
283.337	-9.73
283.552	90.62
283.767	33.28
283.983	154.11
284.198	-19.97
284.413	55.81
284.628	8.7
284.843	16.9
285.058	-36.35
285.274	31.23
285.489	-34.3
285.704	45.57
285.919	-9.73
286.134	-30.21
286.349	59.9
286.564	57.86
286.779	84.48
286.995	-28.16
287.21	25.09
287.425	68.09
287.64	-17.92
287.855	-30.21
288.07	-42.5
288.285	104.96
288.5	64
288.715	-24.06
288.93	-3.58
289.145	-3.58
289.36	-17.92
289.575	41.47
289.79	-34.3
290.004	-87.55
290.219	8.7
290.434	-75.26
290.649	-19.97
290.864	-65.02
291.079	14.85
291.294	61.95
291.509	59.9
291.724	66.05
291.938	6.66
292.153	53.76
292.368	6.66
292.583	88.57
292.798	0.51
293.012	10.75
293.227	-11.78
293.442	18.94
293.657	14.85
293.871	31.23
294.086	33.28
294.301	96.77
294.516	47.62
294.73	-13.82
294.945	14.85
295.16	-46.59
295.374	109.05
295.589	25.09
295.804	-9.73
296.018	53.76
296.233	-13.82
296.447	94.72
296.662	-52.74
296.877	82.43
297.091	43.52
297.306	68.09
297.52	2.56
297.735	25.09
297.949	35.33
298.164	51.71
298.378	-36.35
298.593	16.9
298.807	-17.92
299.022	57.86
299.236	43.52
299.451	-15.87
299.665	8.7
299.88	6.66
300.094	37.38
300.309	-5.63
300.523	57.86
300.737	-44.54
300.952	-28.16
301.166	51.71
301.381	37.38
301.595	49.66
301.809	-46.59
302.024	-48.64
302.238	-7.68
302.452	20.99
302.667	-19.97
302.881	78.33
303.095	68.09
303.309	0.51
303.524	-69.12
303.738	29.18
303.952	-19.97
304.166	139.77
304.381	-40.45
304.595	39.42
304.809	6.66
305.023	4.61
305.237	-44.54
305.452	-3.58
305.666	64
305.88	23.04
306.094	2.56
306.308	29.18
306.522	-11.78
306.736	64
306.95	27.14
307.164	-36.35
307.379	47.62
307.593	109.05
307.807	33.28
308.021	14.85
308.235	-19.97
308.449	-26.11
308.663	-11.78
308.877	51.71
309.091	53.76
309.305	41.47
309.519	-54.78
309.733	86.53
309.947	-7.68
310.161	78.33
310.374	43.52
310.588	16.9
310.802	-34.3
311.016	14.85
311.23	29.18
311.444	-28.16
311.658	-24.06
311.872	39.42
312.085	35.33
312.299	61.95
312.513	-7.68
312.727	23.04
312.941	-5.63
313.154	-56.83
313.368	27.14
313.582	14.85
313.796	35.33
314.009	10.75
314.223	29.18
314.437	-17.92
314.651	39.42
314.864	-5.63
315.078	18.94
315.292	6.66
315.505	-54.78
315.719	2.56
315.933	12.8
316.146	27.14
316.36	-3.58
316.573	-58.88
316.787	2.56
317.001	-36.35
317.214	-13.82
317.428	43.52
317.641	-7.68
317.855	-11.78
318.068	4.61
318.282	45.57
318.495	51.71
318.709	18.94
318.922	27.14
319.136	88.57
319.349	39.42
319.563	16.9
319.776	55.81
319.99	-46.59
320.203	41.47
320.417	41.47
320.63	-1.54
320.843	31.23
321.057	-22.02
321.27	16.9
321.483	-26.11
321.697	53.76
321.91	57.86
322.124	39.42
322.337	25.09
322.55	-7.68
322.763	90.62
322.977	-1.54
323.19	-60.93
323.403	-26.11
323.617	55.81
323.83	-30.21
324.043	-24.06
324.256	-5.63
324.469	33.28
324.683	-7.68
324.896	-11.78
325.109	2.56
325.322	-62.98
325.535	16.9
325.748	27.14
325.962	-24.06
326.175	74.24
326.388	76.29
326.601	23.04
326.814	-50.69
327.027	20.99
327.24	12.8
327.453	-15.87
327.666	55.81
327.879	37.38
328.092	100.86
328.305	-5.63
328.518	27.14
328.731	-91.65
328.944	12.8
329.157	47.62
329.37	-5.63
329.583	-5.63
329.796	102.91
330.009	-75.26
330.222	45.57
330.435	51.71
330.648	4.61
330.861	23.04
331.073	33.28
331.286	47.62
331.499	10.75
331.712	-13.82
331.925	4.61
332.138	-19.97
332.35	27.14
332.563	-19.97
332.776	70.14
332.989	-19.97
333.202	43.52
333.414	43.52
333.627	16.9
333.84	25.09
334.053	29.18
334.265	23.04
334.478	14.85
334.691	14.85
334.903	-15.87
335.116	-40.45
335.329	57.86
335.541	47.62
335.754	74.24
335.966	-17.92
336.179	64
336.392	31.23
336.604	-50.69
336.817	66.05
337.029	-15.87
337.242	64
337.454	37.38
337.667	16.9
337.88	41.47
338.092	2.56
338.305	68.09
338.517	35.33
338.729	-1.54
338.942	102.91
339.154	-34.3
339.367	35.33
339.579	18.94
339.792	-5.63
340.004	8.7
340.217	76.29
340.429	55.81
340.641	-15.87
340.854	29.18
341.066	57.86
341.278	47.62
341.491	76.29
341.703	-1.54
341.915	-28.16
342.128	-9.73
342.34	98.81
342.552	-46.59
342.764	49.66
342.977	6.66
343.189	-13.82
343.401	0.51
343.613	-71.17
343.826	-1.54
344.038	-13.82
344.25	41.47
344.462	-19.97
344.674	-17.92
344.886	0.51
345.099	68.09
345.311	16.9
345.523	45.57
345.735	-3.58
345.947	20.99
346.159	27.14
346.371	12.8
346.583	-44.54
346.795	121.34
347.007	8.7
347.219	-15.87
347.431	39.42
347.643	-22.02
347.855	78.33
348.067	-1.54
348.279	-15.87
348.491	33.28
348.703	72.19
348.915	-1.54
349.127	10.75
349.339	51.71
349.551	-17.92
349.763	41.47
349.975	2.56
350.187	23.04
350.399	84.48
350.61	49.66
350.822	-13.82
351.034	2.56
351.246	-9.73
351.458	18.94
351.669	29.18
351.881	117.25
352.093	-11.78
352.305	35.33
352.517	-34.3
352.728	31.23
352.94	64
353.152	-95.74
353.363	-62.98
353.575	64
353.787	64
353.999	57.86
354.21	78.33
354.422	-7.68
354.633	-69.12
354.845	27.14
355.057	-34.3
355.268	8.7
355.48	25.09
355.692	-65.02
355.903	57.86
356.115	-81.41
356.326	70.14
356.538	74.24
356.749	78.33
356.961	27.14
357.172	55.81
357.384	-1.54
357.595	94.72
357.807	51.71
358.018	25.09
358.23	88.57
358.441	41.47
358.653	-9.73
358.864	68.09
359.075	12.8
359.287	29.18
359.498	64
359.709	37.38
359.921	33.28
360.132	51.71
360.344	-36.35
360.555	-3.58
360.766	92.67
360.977	-75.26
361.189	68.09
361.4	-15.87
361.611	96.77
361.823	14.85
362.034	53.76
362.245	41.47
362.456	16.9
362.667	20.99
362.879	57.86
363.09	27.14
363.301	64
363.512	23.04
363.723	-56.83
363.935	10.75
364.146	78.33
364.357	10.75
364.568	-52.74
364.779	-38.4
364.99	72.19
365.201	-13.82
365.412	61.95
365.623	-38.4
365.834	35.33
366.045	-75.26
366.256	8.7
366.467	45.57
366.678	12.8
366.889	18.94
367.1	-9.73
367.311	16.9
367.522	31.23
367.733	-32.26
367.944	10.75
368.155	12.8
368.366	72.19
368.577	29.18
368.788	10.75
368.999	-75.26
369.209	59.9
369.42	82.43
369.631	35.33
369.842	-9.73
370.053	18.94
370.264	66.05
370.474	-36.35
370.685	-30.21
370.896	10.75
371.107	55.81
371.317	72.19
371.528	-34.3
371.739	66.05
371.95	-28.16
372.16	41.47
372.371	-30.21
372.582	-65.02
372.792	-15.87
373.003	57.86
373.214	-9.73
373.424	25.09
373.635	4.61
373.846	84.48
374.056	33.28
374.267	41.47
374.477	55.81
374.688	2.56
374.898	-13.82
375.109	25.09
375.319	0.51
375.53	51.71
375.74	-54.78
375.951	8.7
376.161	27.14
376.372	82.43
376.582	-46.59
376.793	2.56
377.003	-24.06
377.214	4.61
377.424	-17.92
377.635	0.51
377.845	-17.92
378.055	156.16
378.266	2.56
378.476	76.29
378.686	53.76
378.897	20.99
379.107	29.18
379.317	-19.97
379.528	45.57
379.738	8.7
379.948	10.75
380.158	123.39
380.369	-3.58
380.579	41.47
380.789	57.86
380.999	10.75
381.21	-28.16
381.42	141.82
381.63	49.66
381.84	39.42
382.05	-1.54
382.261	51.71
382.471	-3.58
382.681	8.7
382.891	49.66
383.101	98.81
383.311	-50.69
383.521	29.18
383.731	39.42
383.941	66.05
384.151	18.94
384.361	-17.92
384.571	10.75
384.781	109.05
384.991	0.51
385.201	43.52
385.411	-34.3
385.621	70.14
385.831	-9.73
386.041	-13.82
386.251	-9.73
386.461	78.33
386.671	-60.93
386.881	70.14
387.091	-30.21
387.301	90.62
387.511	68.09
387.72	43.52
387.93	92.67
388.14	-11.78
388.35	-11.78
388.56	61.95
388.769	-58.88
388.979	6.66
389.189	18.94
389.399	10.75
389.609	53.76
389.818	76.29
390.028	18.94
390.238	25.09
390.447	-17.92
390.657	100.86
390.867	18.94
391.076	-65.02
391.286	-7.68
391.496	14.85
391.705	45.57
391.915	160.25
392.125	49.66
392.334	-48.64
392.544	55.81
392.753	14.85
392.963	90.62
393.172	41.47
393.382	98.81
393.591	29.18
393.801	-19.97
394.01	115.2
394.22	96.77
394.429	49.66
394.639	86.53
394.848	70.14
395.058	84.48
395.267	43.52
395.477	82.43
395.686	45.57
395.895	96.77
396.105	14.85
396.314	8.7
396.524	10.75
396.733	-11.78
396.942	150.01
397.152	70.14
397.361	88.57
397.57	92.67
397.78	102.91
397.989	70.14
398.198	102.91
398.407	20.99
398.617	59.9
398.826	-7.68
399.035	-30.21
399.244	74.24
399.453	-9.73
399.663	90.62
399.872	51.71
400.081	-19.97
400.29	49.66
400.499	68.09
400.708	10.75
400.917	100.86
401.127	43.52
401.336	49.66
401.545	64
401.754	143.87
401.963	66.05
402.172	84.48
402.381	53.76
402.59	-15.87
402.799	25.09
403.008	82.43
403.217	23.04
403.426	94.72
403.635	25.09
403.844	57.86
404.053	76.29
404.262	29.18
404.471	107.01
404.68	64
404.888	102.91
405.097	64
405.306	2.56
405.515	125.44
405.724	37.38
405.933	186.88
406.142	141.82
406.35	64
406.559	80.38
406.768	76.29
406.977	219.64
407.185	80.38
407.394	188.93
407.603	47.62
407.812	27.14
408.02	131.58
408.229	119.29
408.438	176.64
408.646	121.34
408.855	131.58
409.064	203.26
409.272	156.16
409.481	150.01
409.69	160.25
409.898	162.3
410.107	190.97
410.315	190.97
410.524	225.79
410.733	201.21
410.941	176.64
411.15	223.74
411.358	199.16
411.567	213.5
411.775	139.77
411.984	199.16
412.192	242.17
412.401	242.17
412.609	254.46
412.818	287.23
413.026	307.71
413.234	299.52
413.443	231.93
413.651	262.65
413.86	305.66
414.068	324.09
414.276	465.4
414.485	336.38
414.693	385.53
414.901	365.05
415.11	346.62
415.318	373.24
415.526	381.43
415.734	428.54
415.943	418.3
416.151	449.02
416.359	416.25
416.567	412.15
416.776	453.11
416.984	635.38
417.192	623.09
417.4	489.98
417.608	537.08
417.817	504.31
418.025	588.28
418.233	664.05
418.441	598.52
418.649	625.14
418.857	698.87
419.065	688.63
419.273	655.86
419.481	801.27
419.689	780.79
419.897	868.85
420.105	827.89
420.313	926.19
420.521	913.91
420.729	862.71
420.937	877.04
421.145	856.56
421.353	1053.17
421.561	1096.18
421.769	1094.13
421.977	1147.37
422.185	1217.01
422.393	1110.51
422.601	1210.86
422.809	1270.25
423.017	1245.68
423.224	1251.82
423.432	1393.13
423.64	1317.36
423.848	1483.24
424.056	1415.66
424.263	1618.41
424.471	1589.74
424.679	1704.42
424.887	1698.28
425.094	1825.25
425.302	1685.99
425.51	1825.25
425.718	1765.86
425.925	1927.65
426.133	1911.27
426.341	2114.02
426.548	2206.17
426.756	2218.46
426.964	2118.11
427.171	2347.48
427.379	2435.55
427.586	2406.88
427.794	2460.12
428.001	2671.06
428.209	2806.23
428.417	2701.78
428.624	2949.59
428.832	2865.62
429.039	2773.46
429.247	2920.92
429.454	3066.32
429.662	3240.4
429.869	3205.58
430.076	3428.81
430.284	3291.6
430.491	3369.42
430.699	3621.32
430.906	3668.42
431.114	3613.13
431.321	3713.48
431.528	3826.12
431.736	3944.9
431.943	4340.16
432.15	3992
432.358	4184.51
432.565	4401.6
432.772	4563.39
432.979	4641.21
433.187	4827.57
433.394	4796.85
433.601	5120.43
433.808	5054.9
434.016	4952.5
434.223	5296.56
434.43	5671.34
434.637	5247.41
434.844	5876.13
435.052	5898.66
435.259	5960.1
435.466	6017.44
435.673	5710.25
435.88	6486.43
436.087	6668.7
436.294	6713.75
436.501	6504.86
436.708	6730.14
436.915	6859.16
437.122	7211.41
437.329	7268.75
437.537	7469.45
437.743	7344.53
437.95	7498.13
438.157	7870.86
438.364	8067.46
438.571	7940.49
438.778	8235.39
438.985	8780.15
439.192	8542.59
439.399	8790.39
439.606	8548.73
439.813	9085.3
440.02	9587.05
440.227	9513.33
440.433	9435.5
440.64	9679.21
440.847	9738.6
441.054	9802.09
441.261	10617.18
441.467	10307.94
441.674	10572.13
441.881	11002.2
442.088	10807.64
442.294	11125.08
442.501	11194.71
442.708	11618.64
442.914	11741.52
443.121	12489.03
443.328	12007.75
443.534	12876.09
443.741	12501.31
443.948	12341.57
444.154	13242.68
444.361	13144.38
444.568	13347.12
444.774	13324.6
444.981	13525.3
445.187	13947.18
445.394	14383.4
445.6	14313.77
445.807	15542.55
446.013	15044.89
446.22	15077.66
446.426	15798.54
446.633	15991.05
446.839	16613.63
447.046	15620.37
447.252	16644.35
447.459	16720.13
447.665	17035.52
447.871	17373.43
448.078	17840.37
448.284	17242.36
448.491	17899.76
448.697	18442.47
448.903	18811.1
449.11	18909.41
449.316	18530.53
449.522	18862.3
449.728	19296.47
449.935	19550.42
450.141	19480.79
450.347	19970.26
450.553	19445.98
450.76	19833.04
450.966	20238.54
451.172	20027.6
451.378	20719.81
451.584	20304.07
451.791	20883.65
451.997	20803.78
452.203	21209.28
452.409	20924.61
452.615	20996.29
452.821	20232.4
453.027	19779.79
453.233	20842.69
453.44	20011.21
453.646	20484.3
453.852	20293.83
454.058	20824.26
454.264	20154.57
454.47	20652.23
454.676	20033.74
454.882	20672.71
455.088	18995.42
455.294	19491.03
455.5	19658.96
455.705	19894.48
455.911	18997.47
456.117	18407.66
456.323	18276.59
456.529	17561.84
456.735	18086.12
456.941	17533.17
457.147	17424.63
457.352	16943.36
457.558	16732.42
457.764	16623.87
457.97	16429.32
458.176	15946
458.381	15741.2
458.587	15067.42
458.793	15335.7
458.999	14319.91
459.204	15495.44
459.41	15001.88
459.616	14068.01
459.821	13912.36
460.027	13922.6
460.233	13570.35
460.438	13074.74
460.644	13107.51
460.85	12329.28
461.055	12212.55
461.261	12292.42
461.466	11356.5
461.672	11041.11
461.878	11880.78
462.083	11088.21
462.289	10932.57
462.494	10801.5
462.7	10264.93
462.905	9914.73
463.111	10430.82
463.316	10447.2
463.522	10361.19
463.727	10275.17
463.932	10006.89
464.138	10113.38
464.343	10088.81
464.549	9906.54
464.754	9834.86
464.959	9939.3
465.165	9791.85
465.37	9408.88
465.575	9136.5
465.781	9648.49
465.986	9738.6
466.191	9320.82
466.397	9183.6
466.602	8786.3
466.807	9077.11
467.012	9277.81
467.218	9130.36
467.423	8771.96
467.628	9054.58
467.833	9263.47
468.038	9019.77
468.244	8647.04
468.449	8948.09
468.654	8767.87
468.859	8876.41
