Data from USB4F104151__82__12-24-26-946.txt Node

Date: Fri Mar 14 12:24:26 EDT 2025
User: louis
Spectrometer: USB4F10415
Trigger mode: 4
Integration Time (sec): 3.500000E-2
Scans to average: 1
Electric dark correction enabled: true
Nonlinearity correction enabled: false
Boxcar width: 0
XAxis mode: Wavelengths
Number of Pixels in Spectrum: 3648
>>>>>Begin Spectral Data<<<<<
178.204	-153.94
178.424	-153.94
178.644	-153.94
178.864	-172.37
179.084	-209.23
179.304	13.99
179.524	-72.02
179.744	1.71
179.964	69.29
180.184	-4.44
180.404	22.19
180.624	-121.17
180.844	30.38
181.064	-57.68
181.283	63.15
181.503	5.8
181.723	48.81
181.943	83.63
182.163	85.67
182.383	-20.82
182.602	71.34
182.822	71.34
183.042	26.28
183.262	3.75
183.482	26.28
183.701	-45.4
183.921	69.29
184.141	-65.88
184.361	54.95
184.58	-10.58
184.8	-8.53
185.02	32.43
185.239	79.53
185.459	-59.73
185.679	50.86
185.898	-26.96
186.118	34.47
186.338	-22.87
186.557	-41.3
186.777	-63.83
186.997	5.8
187.216	48.81
187.436	73.39
187.655	20.14
187.875	54.95
188.095	-18.77
188.314	16.04
188.534	116.39
188.753	32.43
188.973	-26.96
189.192	116.39
189.412	89.77
189.631	-2.39
189.851	5.8
190.07	36.52
190.29	-10.58
190.509	-63.83
190.729	28.33
190.948	-2.39
191.168	106.15
191.387	48.81
191.607	-8.53
191.826	50.86
192.045	-104.79
192.265	18.09
192.484	9.9
192.704	54.95
192.923	3.75
193.142	81.58
193.362	42.67
193.581	69.29
193.8	28.33
194.02	65.19
194.239	42.67
194.458	34.47
194.678	20.14
194.897	-8.53
195.116	-20.82
195.335	48.81
195.555	44.71
195.774	-10.58
195.993	69.29
196.212	40.62
196.432	24.23
196.651	-55.64
196.87	-4.44
197.089	63.15
197.308	42.67
197.528	16.04
197.747	83.63
197.966	32.43
198.185	120.49
198.404	24.23
198.623	16.04
198.842	65.19
199.062	9.9
199.281	65.19
199.5	-31.06
199.719	9.9
199.938	22.19
200.157	73.39
200.376	34.47
200.595	1.71
200.814	48.81
201.033	-31.06
201.252	69.29
201.471	-55.64
201.69	40.62
201.909	-0.34
202.128	-4.44
202.347	-29.01
202.566	11.95
202.785	-29.01
203.004	61.1
203.223	83.63
203.442	75.43
203.661	-2.39
203.879	48.81
204.098	36.52
204.317	-55.64
204.536	81.58
204.755	7.85
204.974	54.95
205.193	97.96
205.411	95.91
205.63	3.75
205.849	30.38
206.068	-43.35
206.287	57
206.505	100.01
206.724	112.3
206.943	20.14
207.162	54.95
207.381	57
207.599	38.57
207.818	3.75
208.037	-0.34
208.255	7.85
208.474	16.04
208.693	42.67
208.911	57
209.13	20.14
209.349	32.43
209.567	87.72
209.786	32.43
210.005	-12.63
210.223	16.04
210.442	-4.44
210.661	30.38
210.879	48.81
211.098	-2.39
211.316	136.87
211.535	26.28
211.753	-43.35
211.972	130.73
212.191	59.05
212.409	50.86
212.628	36.52
212.846	-18.77
213.065	63.15
213.283	97.96
213.502	-6.49
213.72	-47.44
213.938	-41.3
214.157	-57.68
214.375	5.8
214.594	3.75
214.812	34.47
215.031	-20.82
215.249	-4.44
215.467	34.47
215.686	44.71
215.904	48.81
216.122	-8.53
216.341	50.86
216.559	71.34
216.778	-12.63
216.996	69.29
217.214	-0.34
217.432	40.62
217.651	7.85
217.869	-84.31
218.087	-16.73
218.306	9.9
218.524	75.43
218.742	1.71
218.96	67.24
219.179	-8.53
219.397	24.23
219.615	100.01
219.833	57
220.051	-39.25
220.27	114.34
220.488	5.8
220.706	110.25
220.924	42.67
221.142	30.38
221.36	38.57
221.578	32.43
221.796	-6.49
222.015	7.85
222.233	5.8
222.451	95.91
222.669	-22.87
222.887	73.39
223.105	-26.96
223.323	-22.87
223.541	-41.3
223.759	-35.16
223.977	-0.34
224.195	69.29
224.413	-16.73
224.631	48.81
224.849	-4.44
225.067	71.34
225.285	-76.12
225.503	46.76
225.721	-39.25
225.939	75.43
226.157	-41.3
226.375	95.91
226.592	-26.96
226.81	42.67
227.028	108.2
227.246	75.43
227.464	44.71
227.682	36.52
227.9	36.52
228.117	22.19
228.335	83.63
228.553	-24.92
228.771	46.76
228.989	24.23
229.206	-2.39
229.424	32.43
229.642	-4.44
229.86	-0.34
230.077	20.14
230.295	5.8
230.513	79.53
230.731	81.58
230.948	73.39
231.166	114.34
231.384	42.67
231.601	-18.77
231.819	48.81
232.037	-4.44
232.254	-41.3
232.472	69.29
232.689	5.8
232.907	97.96
233.125	44.71
233.342	-26.96
233.56	30.38
233.777	-22.87
233.995	13.99
234.213	79.53
234.43	46.76
234.648	-0.34
234.865	36.52
235.083	-8.53
235.3	-20.82
235.518	81.58
235.735	77.48
235.953	151.21
236.17	36.52
236.388	5.8
236.605	-49.49
236.822	65.19
237.04	54.95
237.257	-33.11
237.475	-18.77
237.692	83.63
237.909	-2.39
238.127	50.86
238.344	-53.59
238.562	28.33
238.779	-18.77
238.996	-12.63
239.214	34.47
239.431	30.38
239.648	54.95
239.865	75.43
240.083	85.67
240.3	67.24
240.517	13.99
240.735	-43.35
240.952	71.34
241.169	-2.39
241.386	26.28
241.603	65.19
241.821	13.99
242.038	11.95
242.255	13.99
242.472	-45.4
242.689	30.38
242.907	-4.44
243.124	-8.53
243.341	67.24
243.558	-63.83
243.775	-4.44
243.992	-29.01
244.209	-69.97
244.426	102.06
244.643	83.63
244.86	-20.82
245.078	38.57
245.295	44.71
245.512	-6.49
245.729	20.14
245.946	42.67
246.163	65.19
246.38	81.58
246.597	44.71
246.814	11.95
247.031	-63.83
247.248	16.04
247.464	48.81
247.681	-41.3
247.898	-10.58
248.115	85.67
248.332	7.85
248.549	42.67
248.766	106.15
248.983	16.04
249.2	11.95
249.417	83.63
249.633	-12.63
249.85	81.58
250.067	16.04
250.284	-12.63
250.501	106.15
250.717	48.81
250.934	20.14
251.151	-51.54
251.368	44.71
251.585	7.85
251.801	-26.96
252.018	28.33
252.235	1.71
252.451	71.34
252.668	9.9
252.885	106.15
253.102	-26.96
253.318	69.29
253.535	3.75
253.752	-37.2
253.968	-33.11
254.185	13.99
254.401	9.9
254.618	-16.73
254.835	-29.01
255.051	57
255.268	-6.49
255.484	-55.64
255.701	16.04
255.917	89.77
256.134	-24.92
256.351	-14.68
256.567	-69.97
256.784	36.52
257	-20.82
257.217	71.34
257.433	11.95
257.65	104.11
257.866	75.43
258.082	-39.25
258.299	48.81
258.515	7.85
258.732	-24.92
258.948	9.9
259.165	26.28
259.381	30.38
259.597	54.95
259.814	75.43
260.03	18.09
260.246	-33.11
260.463	32.43
260.679	16.04
260.895	20.14
261.112	104.11
261.328	38.57
261.544	-59.73
261.761	130.73
261.977	42.67
262.193	-39.25
262.409	26.28
262.626	79.53
262.842	-6.49
263.058	-22.87
263.274	20.14
263.49	-16.73
263.707	79.53
263.923	36.52
264.139	-18.77
264.355	50.86
264.571	91.82
264.787	18.09
265.004	26.28
265.22	48.81
265.436	28.33
265.652	-69.97
265.868	73.39
266.084	-59.73
266.3	46.76
266.516	13.99
266.732	42.67
266.948	93.87
267.164	52.91
267.38	59.05
267.596	16.04
267.812	145.06
268.028	-8.53
268.244	20.14
268.46	75.43
268.676	50.86
268.892	7.85
269.108	-35.16
269.324	-39.25
269.54	-20.82
269.756	130.73
269.972	28.33
270.188	34.47
270.403	30.38
270.619	-16.73
270.835	18.09
271.051	1.71
271.267	-12.63
271.483	1.71
271.698	32.43
271.914	5.8
272.13	52.91
272.346	-24.92
272.562	5.8
272.777	-6.49
272.993	-43.35
273.209	-29.01
273.425	20.14
273.64	50.86
273.856	34.47
274.072	-18.77
274.287	-8.53
274.503	28.33
274.719	26.28
274.934	9.9
275.15	22.19
275.366	77.48
275.581	-6.49
275.797	-37.2
276.012	30.38
276.228	71.34
276.444	26.28
276.659	108.2
276.875	1.71
277.09	36.52
277.306	3.75
277.521	91.82
277.737	-20.82
277.952	91.82
278.168	16.04
278.383	34.47
278.599	-22.87
278.814	22.19
279.03	38.57
279.245	69.29
279.461	-16.73
279.676	42.67
279.892	44.71
280.107	93.87
280.322	48.81
280.538	44.71
280.753	-18.77
280.969	40.62
281.184	18.09
281.399	73.39
281.615	9.9
281.83	24.23
282.045	1.71
282.26	-35.16
282.476	3.75
282.691	73.39
282.906	18.09
283.122	-16.73
283.337	42.67
283.552	52.91
283.767	100.01
283.983	26.28
284.198	-67.92
284.413	30.38
284.628	-47.44
284.843	-4.44
285.058	52.91
285.274	-78.16
285.489	5.8
285.704	81.58
285.919	11.95
286.134	32.43
286.349	-26.96
286.564	-18.77
286.779	-6.49
286.995	81.58
287.21	-76.12
287.425	28.33
287.64	-51.54
287.855	-49.49
288.07	11.95
288.285	-6.49
288.5	-16.73
288.715	89.77
288.93	40.62
289.145	13.99
289.36	67.24
289.575	50.86
289.79	100.01
290.004	24.23
290.219	95.91
290.434	7.85
290.649	71.34
290.864	54.95
291.079	26.28
291.294	-2.39
291.509	34.47
291.724	-26.96
291.938	-10.58
292.153	71.34
292.368	1.71
292.583	32.43
292.798	83.63
293.012	-37.2
293.227	-0.34
293.442	36.52
293.657	26.28
293.871	44.71
294.086	52.91
294.301	34.47
294.516	34.47
294.73	57
294.945	-16.73
295.16	-8.53
295.374	61.1
295.589	54.95
295.804	-49.49
296.018	34.47
296.233	54.95
296.447	42.67
296.662	13.99
296.877	91.82
297.091	-0.34
297.306	16.04
297.52	24.23
297.735	5.8
297.949	42.67
298.164	89.77
298.378	32.43
298.593	18.09
298.807	-12.63
299.022	83.63
299.236	61.1
299.451	50.86
299.665	-2.39
299.88	57
300.094	18.09
300.309	57
300.523	24.23
300.737	16.04
300.952	-14.68
301.166	-14.68
301.381	20.14
301.595	-14.68
301.809	26.28
302.024	-72.02
302.238	-65.88
302.452	-39.25
302.667	40.62
302.881	7.85
303.095	36.52
303.309	34.47
303.524	-6.49
303.738	20.14
303.952	5.8
304.166	3.75
304.381	-104.79
304.595	57
304.809	-0.34
305.023	67.24
305.237	108.2
305.452	89.77
305.666	-45.4
305.88	63.15
306.094	36.52
306.308	32.43
306.522	83.63
306.736	61.1
306.95	104.11
307.164	36.52
307.379	18.09
307.593	110.25
307.807	13.99
308.021	89.77
308.235	42.67
308.449	-33.11
308.663	18.09
308.877	100.01
309.091	28.33
309.305	63.15
309.519	22.19
309.733	-35.16
309.947	-53.59
310.161	52.91
310.374	54.95
310.588	69.29
310.802	7.85
311.016	-65.88
311.23	-6.49
311.444	-8.53
311.658	-35.16
311.872	89.77
312.085	63.15
312.299	9.9
312.513	65.19
312.727	32.43
312.941	20.14
313.154	16.04
313.368	34.47
313.582	34.47
313.796	-39.25
314.009	63.15
314.223	143.02
314.437	32.43
314.651	7.85
314.864	-26.96
315.078	-10.58
315.292	7.85
315.505	-18.77
315.719	-0.34
315.933	-53.59
316.146	-90.45
316.36	57
316.573	57
316.787	67.24
317.001	81.58
317.214	9.9
317.428	67.24
317.641	-37.2
317.855	22.19
318.068	100.01
318.282	75.43
318.495	85.67
318.709	71.34
318.922	-43.35
319.136	5.8
319.349	24.23
319.563	-4.44
319.776	-6.49
319.99	-4.44
320.203	65.19
320.417	77.48
320.63	67.24
320.843	54.95
321.057	-37.2
321.27	-16.73
321.483	-55.64
321.697	61.1
321.91	-2.39
322.124	13.99
322.337	11.95
322.55	-8.53
322.763	50.86
322.977	48.81
323.19	40.62
323.403	24.23
323.617	-2.39
323.83	11.95
324.043	-10.58
324.256	112.3
324.469	-69.97
324.683	71.34
324.896	13.99
325.109	110.25
325.322	-8.53
325.535	102.06
325.748	40.62
325.962	63.15
326.175	-26.96
326.388	-18.77
326.601	7.85
326.814	124.58
327.027	13.99
327.24	79.53
327.453	-65.88
327.666	91.82
327.879	89.77
328.092	102.06
328.305	40.62
328.518	16.04
328.731	18.09
328.944	3.75
329.157	83.63
329.37	-18.77
329.583	122.54
329.796	110.25
330.009	-16.73
330.222	38.57
330.435	50.86
330.648	13.99
330.861	63.15
331.073	32.43
331.286	75.43
331.499	59.05
331.712	-22.87
331.925	52.91
332.138	11.95
332.35	108.2
332.563	-29.01
332.776	22.19
332.989	-16.73
333.202	50.86
333.414	34.47
333.627	63.15
333.84	16.04
334.053	85.67
334.265	11.95
334.478	32.43
334.691	-2.39
334.903	52.91
335.116	20.14
335.329	-14.68
335.541	67.24
335.754	97.96
335.966	-24.92
336.179	22.19
336.392	-57.68
336.604	40.62
336.817	-2.39
337.029	-12.63
337.242	9.9
337.454	159.4
337.667	81.58
337.88	114.34
338.092	16.04
338.305	65.19
338.517	-8.53
338.729	108.2
338.942	42.67
339.154	-51.54
339.367	-18.77
339.579	44.71
339.792	-47.44
340.004	20.14
340.217	50.86
340.429	63.15
340.641	26.28
340.854	-0.34
341.066	42.67
341.278	57
341.491	-39.25
341.703	26.28
341.915	-24.92
342.128	132.78
342.34	59.05
342.552	30.38
342.764	13.99
342.977	7.85
343.189	1.71
343.401	11.95
343.613	-51.54
343.826	48.81
344.038	32.43
344.25	30.38
344.462	3.75
344.674	-35.16
344.886	24.23
345.099	57
345.311	46.76
345.523	20.14
345.735	-12.63
345.947	24.23
346.159	100.01
346.371	-39.25
346.583	32.43
346.795	57
347.007	-37.2
347.219	155.3
347.431	-57.68
347.643	63.15
347.855	20.14
348.067	112.3
348.279	-41.3
348.491	-0.34
348.703	63.15
348.915	38.57
349.127	-39.25
349.339	7.85
349.551	-18.77
349.763	9.9
349.975	34.47
350.187	124.58
350.399	79.53
350.61	48.81
350.822	13.99
351.034	30.38
351.246	44.71
351.458	54.95
351.669	22.19
351.881	89.77
352.093	126.63
352.305	24.23
352.517	13.99
352.728	97.96
352.94	73.39
353.152	-33.11
353.363	9.9
353.575	32.43
353.787	61.1
353.999	50.86
354.21	114.34
354.422	5.8
354.633	-0.34
354.845	-0.34
355.057	65.19
355.268	28.33
355.48	57
355.692	44.71
355.903	42.67
356.115	-10.58
356.326	-57.68
356.538	91.82
356.749	61.1
356.961	97.96
357.172	-22.87
357.384	3.75
357.595	30.38
357.807	42.67
358.018	71.34
358.23	-51.54
358.441	50.86
358.653	-6.49
358.864	13.99
359.075	26.28
359.287	57
359.498	59.05
359.709	22.19
359.921	40.62
360.132	-12.63
360.344	104.11
360.555	22.19
360.766	116.39
360.977	81.58
361.189	83.63
361.4	71.34
361.611	40.62
361.823	77.48
362.034	7.85
362.245	13.99
362.456	77.48
362.667	52.91
362.879	108.2
363.09	42.67
363.301	5.8
363.512	50.86
363.723	-29.01
363.935	-6.49
364.146	20.14
364.357	1.71
364.568	40.62
364.779	-84.31
364.99	52.91
365.201	48.81
365.412	126.63
365.623	-31.06
365.834	52.91
366.045	-31.06
366.256	7.85
366.467	65.19
366.678	-4.44
366.889	26.28
367.1	36.52
367.311	22.19
367.522	-0.34
367.733	50.86
367.944	97.96
368.155	36.52
368.366	32.43
368.577	85.67
368.788	38.57
368.999	-39.25
369.209	106.15
369.42	130.73
369.631	163.5
369.842	20.14
370.053	24.23
370.264	44.71
370.474	5.8
370.685	16.04
370.896	-16.73
371.107	26.28
371.317	5.8
371.528	46.76
371.739	26.28
371.95	20.14
372.16	20.14
372.371	52.91
372.582	89.77
372.792	34.47
373.003	52.91
373.214	18.09
373.424	-33.11
373.635	-16.73
373.846	63.15
374.056	-8.53
374.267	11.95
374.477	34.47
374.688	-2.39
374.898	-4.44
375.109	71.34
375.319	-8.53
375.53	134.82
375.74	59.05
375.951	85.67
376.161	136.87
376.372	32.43
376.582	1.71
376.793	87.72
377.003	16.04
377.214	-47.44
377.424	52.91
377.635	112.3
377.845	-80.21
378.055	48.81
378.266	-31.06
378.476	50.86
378.686	67.24
378.897	46.76
379.107	32.43
379.317	20.14
379.528	73.39
379.738	40.62
379.948	91.82
380.158	83.63
380.369	24.23
380.579	73.39
380.789	-41.3
380.999	52.91
381.21	77.48
381.42	11.95
381.63	22.19
381.84	3.75
382.05	5.8
382.261	81.58
382.471	73.39
382.681	-10.58
382.891	95.91
383.101	100.01
383.311	1.71
383.521	26.28
383.731	104.11
383.941	44.71
384.151	32.43
384.361	26.28
384.571	-35.16
384.781	67.24
384.991	69.29
385.201	65.19
385.411	54.95
385.621	63.15
385.831	54.95
386.041	30.38
386.251	24.23
386.461	52.91
386.671	7.85
386.881	-51.54
387.091	69.29
387.301	61.1
387.511	40.62
387.72	52.91
387.93	87.72
388.14	9.9
388.35	57
388.56	28.33
388.769	100.01
388.979	-2.39
389.189	87.72
389.399	42.67
389.609	124.58
389.818	63.15
390.028	89.77
390.238	9.9
390.447	-16.73
390.657	63.15
390.867	-2.39
391.076	48.81
391.286	50.86
391.496	28.33
391.705	36.52
391.915	54.95
392.125	108.2
392.334	-10.58
392.544	147.11
392.753	46.76
392.963	-33.11
393.172	13.99
393.382	69.29
393.591	95.91
393.801	18.09
394.01	85.67
394.22	42.67
394.429	83.63
394.639	52.91
394.848	54.95
395.058	52.91
395.267	130.73
395.477	48.81
395.686	67.24
395.895	87.72
396.105	130.73
396.314	65.19
396.524	54.95
396.733	40.62
396.942	116.39
397.152	42.67
397.361	116.39
397.57	50.86
397.78	42.67
397.989	95.91
398.198	153.26
398.407	104.11
398.617	81.58
398.826	71.34
399.035	42.67
399.244	54.95
399.453	57
399.663	159.4
399.872	128.68
400.081	61.1
400.29	108.2
400.499	5.8
400.708	149.16
400.917	32.43
401.127	38.57
401.336	67.24
401.545	151.21
401.754	130.73
401.963	128.68
402.172	122.54
402.381	69.29
402.59	87.72
402.799	50.86
403.008	75.43
403.217	83.63
403.426	97.96
403.635	106.15
403.844	110.25
404.053	145.06
404.262	57
404.471	167.59
404.68	13.99
404.888	67.24
405.097	5.8
405.306	136.87
405.515	218.79
405.724	179.88
405.933	114.34
406.142	190.12
406.35	81.58
406.559	145.06
406.768	100.01
406.977	247.46
407.185	167.59
407.394	134.82
407.603	95.91
407.812	136.87
408.02	257.7
408.229	257.7
408.438	226.98
408.646	155.3
408.855	272.04
409.064	198.31
409.272	147.11
409.481	237.22
409.69	226.98
409.898	292.52
410.107	218.79
410.315	239.27
410.524	249.51
410.733	353.96
410.941	278.18
411.15	325.29
411.358	347.81
411.567	386.72
411.775	390.82
411.984	431.78
412.192	315.05
412.401	358.05
412.609	415.4
412.818	493.22
413.026	458.4
413.234	439.97
413.443	364.2
413.651	431.78
413.86	472.74
414.068	517.79
414.276	521.89
414.485	435.88
414.693	558.75
414.901	624.29
415.11	595.62
415.318	571.04
415.526	607.91
415.734	618.15
415.943	620.19
416.151	734.88
416.359	726.69
416.567	704.16
416.776	716.45
416.984	831.13
417.192	835.23
417.4	646.82
417.608	716.45
417.817	851.61
418.025	827.04
418.233	994.97
418.441	1009.31
418.649	921.24
418.857	1029.79
419.065	1083.03
419.273	986.78
419.481	1058.46
419.689	1210.01
419.897	1228.44
420.105	1298.07
420.313	1187.48
420.521	1300.12
420.729	1369.75
420.937	1468.05
421.145	1416.85
421.353	1494.68
421.561	1586.83
421.769	1662.61
421.977	1756.82
422.185	1666.71
422.393	1744.53
422.601	1896.08
422.809	1869.45
423.017	1871.5
423.224	1955.47
423.432	2068.11
423.64	2045.58
423.848	2219.66
424.056	2356.87
424.263	2381.45
424.471	2401.93
424.679	2426.5
424.887	2539.14
425.094	2506.37
425.302	2530.95
425.51	2655.87
425.718	2713.22
425.925	2731.65
426.133	2870.91
426.341	3192.44
426.548	3251.83
426.756	3260.02
426.964	3247.74
427.171	3395.19
427.379	3575.41
427.586	3540.6
427.794	3776.11
428.001	3935.85
428.209	4107.88
428.417	4103.79
428.624	4320.87
428.832	4232.81
429.039	4353.64
429.247	4159.08
429.454	4578.92
429.662	4906.59
429.869	4752.99
430.076	5062.24
430.284	4879.97
430.491	5054.05
430.699	5353.05
430.906	5348.95
431.114	5512.79
431.321	5473.88
431.528	5826.13
431.736	6145.61
431.943	6424.14
432.15	6219.34
432.358	6303.31
432.565	6563.4
432.772	6598.21
432.979	6989.38
433.187	7036.48
433.394	7120.45
433.601	7566.9
433.808	7618.1
434.016	7566.9
434.223	7818.8
434.43	8416.81
434.637	8304.17
434.844	8670.76
435.052	8748.58
435.259	8871.46
435.466	8930.85
435.673	8771.11
435.88	9365.02
436.087	9788.95
436.294	9885.2
436.501	9823.76
436.708	9780.76
436.915	10366.48
437.122	10692.1
437.329	10679.82
437.537	11048.45
437.743	11200
437.95	11245.06
438.157	11793.91
438.364	11918.84
438.571	12078.58
438.778	12142.07
438.985	13135.33
439.192	12727.78
439.399	13086.18
439.606	12551.66
439.813	13772.25
440.02	14599.63
440.227	14192.08
440.433	14042.58
440.64	14599.63
440.847	14335.44
441.054	14663.11
441.261	15599.04
441.467	15615.42
441.674	15771.07
441.881	16227.76
442.088	16539.05
442.294	15977.91
442.501	16479.66
442.708	17180.07
442.914	17724.83
443.121	18361.75
443.328	18159
443.534	19166.6
443.741	18742.67
443.948	18496.91
444.154	19766.65
444.361	19676.54
444.568	19987.83
444.774	19842.43
444.981	19985.79
445.187	20680.05
445.394	21366.12
445.6	21134.7
445.807	23338.31
446.013	22314.33
446.22	22801.74
446.426	23778.62
446.633	23860.54
446.839	24593.72
447.046	23745.86
447.252	24878.38
447.459	25183.53
447.665	24935.73
447.871	26090.78
448.078	27540.74
448.284	25806.11
448.491	26436.89
448.697	27479.3
448.903	28042.49
449.11	28296.44
449.316	27933.95
449.522	28024.06
449.728	29244.65
449.935	28937.46
450.141	29461.74
450.347	29654.25
450.553	28828.91
450.76	29613.29
450.966	30278.88
451.172	29699.3
451.378	30883.03
451.584	29916.39
451.791	30702.81
451.997	30754.01
452.203	31274.19
452.409	30872.79
452.615	30831.83
452.821	29719.78
453.027	29727.97
453.233	31366.35
453.44	29861.09
453.646	30315.74
453.852	30360.8
454.058	30921.94
454.264	29914.34
454.47	30631.13
454.676	29691.11
454.882	30659.8
455.088	28138.75
455.294	28515.58
455.5	28742.9
455.705	29486.31
455.911	28187.9
456.117	27938.05
456.323	27098.38
456.529	25810.21
456.735	27043.09
456.941	26092.83
457.147	25789.73
457.352	24747.31
457.558	24636.72
457.764	24765.74
457.97	24014.14
458.176	23971.13
458.381	23784.77
458.587	22818.13
458.793	22447.44
458.999	21509.47
459.204	23106.89
459.41	22465.88
459.616	20753.77
459.821	20723.05
460.027	20618.61
460.233	20370.8
460.438	19242.37
460.644	19643.77
460.85	18646.41
461.055	18470.29
461.261	18199.96
461.466	17067.43
461.672	16422.32
461.878	17448.35
462.083	16512.43
462.289	16262.58
462.494	15871.42
462.7	15367.62
462.905	14970.31
463.111	15377.86
463.316	15443.39
463.522	15316.42
463.727	15250.88
463.932	14986.69
464.138	15062.47
464.343	14984.65
464.549	14435.79
464.754	15089.09
464.959	14990.79
465.165	14486.99
465.37	14179.79
465.575	13927.89
465.781	14474.7
465.986	14255.57
466.191	13831.64
466.397	13635.03
466.602	12975.59
466.807	13458.91
467.012	13333.98
467.218	13452.77
467.423	13426.14
467.628	13278.69
