Data from USB4F104151__84__12-24-30-235.txt Node

Date: Fri Mar 14 12:24:30 EDT 2025
User: louis
Spectrometer: USB4F10415
Trigger mode: 4
Integration Time (sec): 3.500000E-2
Scans to average: 1
Electric dark correction enabled: true
Nonlinearity correction enabled: false
Boxcar width: 0
XAxis mode: Wavelengths
Number of Pixels in Spectrum: 3648
>>>>>Begin Spectral Data<<<<<
178.204	-149.16
178.424	-149.16
178.644	-149.16
178.864	-190.12
179.084	-206.5
179.304	57.68
179.524	-18.09
179.744	18.77
179.964	39.25
180.184	-130.73
180.404	31.06
180.624	-32.43
180.844	-11.95
181.064	-24.23
181.283	98.64
181.503	-44.71
181.723	16.73
181.943	-30.38
182.163	74.07
182.383	-57
182.602	29.01
182.822	74.07
183.042	18.77
183.262	26.96
183.482	-50.86
183.701	16.73
183.921	16.73
184.141	10.58
184.361	22.87
184.58	90.45
184.8	-7.85
185.02	37.2
185.239	80.21
185.459	61.78
185.679	72.02
185.898	-20.14
186.118	-1.71
186.338	-11.95
186.557	2.39
186.777	-50.86
186.997	-7.85
187.216	8.53
187.436	35.16
187.655	-3.75
187.875	72.02
188.095	37.2
188.314	-3.75
188.534	69.97
188.753	31.06
188.973	29.01
189.192	24.92
189.412	57.68
189.631	78.16
189.851	6.49
190.07	188.75
190.29	67.92
190.509	51.54
190.729	47.44
190.948	35.16
191.168	94.55
191.387	-9.9
191.607	4.44
191.826	43.35
192.045	59.73
192.265	14.68
192.484	20.82
192.704	41.3
192.923	-22.19
193.142	94.55
193.362	88.4
193.581	72.02
193.8	47.44
194.02	2.39
194.239	26.96
194.458	86.36
194.678	4.44
194.897	80.21
195.116	-54.95
195.335	72.02
195.555	20.82
195.774	49.49
195.993	43.35
196.212	-61.1
196.432	-32.43
196.651	-7.85
196.87	-7.85
197.089	155.99
197.308	51.54
197.528	65.88
197.747	4.44
197.966	-7.85
198.185	80.21
198.404	-28.33
198.623	94.55
198.842	-5.8
199.062	80.21
199.281	108.88
199.5	-42.67
199.719	53.59
199.938	78.16
200.157	90.45
200.376	69.97
200.595	149.84
200.814	8.53
201.033	22.87
201.252	82.26
201.471	31.06
201.69	108.88
201.909	76.12
202.128	51.54
202.347	2.39
202.566	18.77
202.785	65.88
203.004	8.53
203.223	106.84
203.442	24.92
203.661	55.64
203.879	47.44
204.098	47.44
204.317	-9.9
204.536	18.77
204.755	59.73
204.974	59.73
205.193	26.96
205.411	49.49
205.63	69.97
205.849	29.01
206.068	104.79
206.287	12.63
206.505	-3.75
206.724	4.44
206.943	4.44
207.162	-28.33
207.381	69.97
207.599	43.35
207.818	102.74
208.037	-59.05
208.255	76.12
208.474	18.77
208.693	45.4
208.911	72.02
209.13	61.78
209.349	6.49
209.567	41.3
209.786	24.92
210.005	86.36
210.223	-30.38
210.442	22.87
210.661	84.31
210.879	0.34
211.098	98.64
211.316	72.02
211.535	59.73
211.753	-28.33
211.972	80.21
212.191	-5.8
212.409	-44.71
212.628	45.4
212.846	10.58
213.065	55.64
213.283	100.69
213.502	22.87
213.72	67.92
213.938	59.73
214.157	22.87
214.375	12.63
214.594	-9.9
214.812	102.74
215.031	-7.85
215.249	82.26
215.467	35.16
215.686	55.64
215.904	51.54
216.122	4.44
216.341	49.49
216.559	100.69
216.778	96.6
216.996	108.88
217.214	0.34
217.432	94.55
217.651	-13.99
217.869	6.49
218.087	29.01
218.306	-9.9
218.524	94.55
218.742	35.16
218.96	74.07
219.179	-1.71
219.397	29.01
219.615	82.26
219.833	96.6
220.051	12.63
220.27	72.02
220.488	117.08
220.706	41.3
220.924	-18.09
221.142	2.39
221.36	-26.28
221.578	47.44
221.796	43.35
222.015	92.5
222.233	57.68
222.451	10.58
222.669	16.73
222.887	14.68
223.105	-24.23
223.323	76.12
223.541	45.4
223.759	35.16
223.977	96.6
224.195	153.94
224.413	72.02
224.631	94.55
224.849	104.79
225.067	96.6
225.285	18.77
225.503	86.36
225.721	8.53
225.939	14.68
226.157	8.53
226.375	80.21
226.592	33.11
226.81	102.74
227.028	121.17
227.246	63.83
227.464	57.68
227.682	82.26
227.9	61.78
228.117	55.64
228.335	12.63
228.553	49.49
228.771	74.07
228.989	43.35
229.206	12.63
229.424	61.78
229.642	47.44
229.86	51.54
230.077	55.64
230.295	67.92
230.513	35.16
230.731	-1.71
230.948	59.73
231.166	67.92
231.384	-22.19
231.601	129.36
231.819	90.45
232.037	59.73
232.254	-46.76
232.472	69.97
232.689	61.78
232.907	51.54
233.125	94.55
233.342	6.49
233.56	53.59
233.777	43.35
233.995	74.07
234.213	53.59
234.43	86.36
234.648	63.83
234.865	41.3
235.083	74.07
235.3	6.49
235.518	6.49
235.735	110.93
235.953	-32.43
236.17	-11.95
236.388	94.55
236.605	47.44
236.822	90.45
237.04	10.58
237.257	51.54
237.475	6.49
237.692	104.79
237.909	6.49
238.127	-5.8
238.344	104.79
238.562	90.45
238.779	16.73
238.996	14.68
239.214	-63.15
239.431	-16.04
239.648	-32.43
239.865	37.2
240.083	4.44
240.3	22.87
240.517	-9.9
240.735	-9.9
240.952	78.16
241.169	84.31
241.386	51.54
241.603	-5.8
241.821	-40.62
242.038	67.92
242.255	84.31
242.472	-1.71
242.689	43.35
242.907	112.98
243.124	-20.14
243.341	76.12
243.558	20.82
243.775	20.82
243.992	-26.28
244.209	35.16
244.426	112.98
244.643	61.78
244.86	61.78
245.078	123.22
245.295	94.55
245.512	49.49
245.729	-75.43
245.946	98.64
246.163	35.16
246.38	33.11
246.597	135.51
246.814	108.88
247.031	41.3
247.248	51.54
247.464	16.73
247.681	26.96
247.898	80.21
248.115	112.98
248.332	18.77
248.549	43.35
248.766	129.36
248.983	100.69
249.2	35.16
249.417	90.45
249.633	4.44
249.85	82.26
250.067	-32.43
250.284	22.87
250.501	20.82
250.717	41.3
250.934	-67.24
251.151	-9.9
251.368	33.11
251.585	8.53
251.801	86.36
252.018	55.64
252.235	39.25
252.451	22.87
252.668	41.3
252.885	-3.75
253.102	29.01
253.318	0.34
253.535	-7.85
253.752	59.73
253.968	35.16
254.185	-7.85
254.401	-1.71
254.618	61.78
254.835	74.07
255.051	135.51
255.268	31.06
255.484	61.78
255.701	78.16
255.917	22.87
256.134	8.53
256.351	-50.86
256.567	-18.09
256.784	29.01
257	-18.09
257.217	90.45
257.433	43.35
257.65	72.02
257.866	39.25
258.082	14.68
258.299	-24.23
258.515	63.83
258.732	18.77
258.948	67.92
259.165	26.96
259.381	-9.9
259.597	98.64
259.814	-32.43
260.03	41.3
260.246	90.45
260.463	6.49
260.679	98.64
260.895	26.96
261.112	-3.75
261.328	33.11
261.544	-7.85
261.761	164.18
261.977	0.34
262.193	-22.19
262.409	43.35
262.626	55.64
262.842	33.11
263.058	35.16
263.274	2.39
263.49	80.21
263.707	4.44
263.923	41.3
264.139	49.49
264.355	90.45
264.571	133.46
264.787	61.78
265.004	53.59
265.22	-34.47
265.436	18.77
265.652	45.4
265.868	57.68
266.084	41.3
266.3	82.26
266.516	12.63
266.732	84.31
266.948	18.77
267.164	92.5
267.38	61.78
267.596	86.36
267.812	129.36
268.028	65.88
268.244	-5.8
268.46	69.97
268.676	53.59
268.892	47.44
269.108	-30.38
269.324	43.35
269.54	41.3
269.756	63.83
269.972	-1.71
270.188	61.78
270.403	26.96
270.619	86.36
270.835	90.45
271.051	-24.23
271.267	72.02
271.483	55.64
271.698	31.06
271.914	39.25
272.13	35.16
272.346	51.54
272.562	35.16
272.777	47.44
272.993	45.4
273.209	-1.71
273.425	96.6
273.64	35.16
273.856	37.2
274.072	41.3
274.287	2.39
274.503	80.21
274.719	49.49
274.934	2.39
275.15	-11.95
275.366	-3.75
275.581	-26.28
275.797	57.68
276.012	33.11
276.228	84.31
276.444	10.58
276.659	29.01
276.875	82.26
277.09	100.69
277.306	2.39
277.521	35.16
277.737	47.44
277.952	39.25
278.168	33.11
278.383	63.83
278.599	43.35
278.814	80.21
279.03	29.01
279.245	84.31
279.461	61.78
279.676	57.68
279.892	45.4
280.107	-22.19
280.322	6.49
280.538	100.69
280.753	12.63
280.969	18.77
281.184	57.68
281.399	61.78
281.615	57.68
281.83	22.87
282.045	14.68
282.26	0.34
282.476	-89.77
282.691	35.16
282.906	55.64
283.122	131.41
283.337	20.82
283.552	31.06
283.767	98.64
283.983	-7.85
284.198	12.63
284.413	72.02
284.628	18.77
284.843	39.25
285.058	4.44
285.274	74.07
285.489	-32.43
285.704	63.83
285.919	-3.75
286.134	92.5
286.349	76.12
286.564	82.26
286.779	35.16
286.995	63.83
287.21	-42.67
287.425	18.77
287.64	31.06
287.855	106.84
288.07	-46.76
288.285	14.68
288.5	86.36
288.715	112.98
288.93	16.73
289.145	53.59
289.36	63.83
289.575	43.35
289.79	80.21
290.004	59.73
290.219	74.07
290.434	4.44
290.649	-24.23
290.864	41.3
291.079	65.88
291.294	78.16
291.509	61.78
291.724	84.31
291.938	-22.19
292.153	-3.75
292.368	-63.15
292.583	37.2
292.798	88.4
293.012	121.17
293.227	35.16
293.442	-3.75
293.657	-5.8
293.871	88.4
294.086	-3.75
294.301	45.4
294.516	121.17
294.73	10.58
294.945	47.44
295.16	63.83
295.374	63.83
295.589	43.35
295.804	61.78
296.018	53.59
296.233	41.3
296.447	57.68
296.662	69.97
296.877	135.51
297.091	96.6
297.306	49.49
297.52	61.78
297.735	22.87
297.949	51.54
298.164	92.5
298.378	57.68
298.593	-16.04
298.807	-48.81
299.022	43.35
299.236	57.68
299.451	65.88
299.665	43.35
299.88	14.68
300.094	61.78
300.309	90.45
300.523	-18.09
300.737	41.3
300.952	4.44
301.166	53.59
301.381	69.97
301.595	86.36
301.809	35.16
302.024	-20.14
302.238	37.2
302.452	10.58
302.667	65.88
302.881	78.16
303.095	84.31
303.309	18.77
303.524	39.25
303.738	57.68
303.952	22.87
304.166	108.88
304.381	31.06
304.595	57.68
304.809	29.01
305.023	-9.9
305.237	4.44
305.452	22.87
305.666	12.63
305.88	78.16
306.094	121.17
306.308	139.6
306.522	41.3
306.736	6.49
306.95	26.96
307.164	88.4
307.379	10.58
307.593	112.98
307.807	104.79
308.021	45.4
308.235	18.77
308.449	33.11
308.663	35.16
308.877	121.17
309.091	37.2
309.305	-26.28
309.519	-3.75
309.733	59.73
309.947	-20.14
310.161	39.25
310.374	92.5
310.588	145.75
310.802	8.53
311.016	61.78
311.23	10.58
311.444	53.59
311.658	35.16
311.872	88.4
312.085	53.59
312.299	65.88
312.513	135.51
312.727	6.49
312.941	18.77
313.154	57.68
313.368	88.4
313.582	39.25
313.796	49.49
314.009	74.07
314.223	16.73
314.437	43.35
314.651	67.92
314.864	74.07
315.078	53.59
315.292	61.78
315.505	51.54
315.719	2.39
315.933	59.73
316.146	104.79
316.36	-11.95
316.573	104.79
316.787	45.4
317.001	94.55
317.214	-7.85
317.428	59.73
317.641	-50.86
317.855	37.2
318.068	26.96
318.282	47.44
318.495	123.22
318.709	100.69
318.922	47.44
319.136	76.12
319.349	125.27
319.563	41.3
319.776	53.59
319.99	20.82
320.203	20.82
320.417	59.73
320.63	67.92
320.843	117.08
321.057	12.63
321.27	55.64
321.483	57.68
321.697	65.88
321.91	61.78
322.124	2.39
322.337	92.5
322.55	8.53
322.763	20.82
322.977	45.4
323.19	-11.95
323.403	57.68
323.617	31.06
323.83	45.4
324.043	20.82
324.256	96.6
324.469	29.01
324.683	61.78
324.896	41.3
325.109	43.35
325.322	12.63
325.535	129.36
325.748	41.3
325.962	61.78
326.175	41.3
326.388	-20.14
326.601	55.64
326.814	-7.85
327.027	49.49
327.24	96.6
327.453	18.77
327.666	-18.09
327.879	164.18
328.092	18.77
328.305	80.21
328.518	29.01
328.731	4.44
328.944	22.87
329.157	12.63
329.37	-11.95
329.583	49.49
329.796	176.47
330.009	49.49
330.222	76.12
330.435	104.79
330.648	33.11
330.861	57.68
331.073	24.92
331.286	123.22
331.499	104.79
331.712	8.53
331.925	104.79
332.138	43.35
332.35	106.84
332.563	31.06
332.776	104.79
332.989	12.63
333.202	35.16
333.414	55.64
333.627	18.77
333.84	72.02
334.053	102.74
334.265	53.59
334.478	18.77
334.691	104.79
334.903	63.83
335.116	39.25
335.329	57.68
335.541	39.25
335.754	37.2
335.966	78.16
336.179	33.11
336.392	33.11
336.604	78.16
336.817	141.65
337.029	61.78
337.242	20.82
337.454	102.74
337.667	47.44
337.88	33.11
338.092	-13.99
338.305	72.02
338.517	10.58
338.729	33.11
338.942	51.54
339.154	45.4
339.367	-13.99
339.579	49.49
339.792	67.92
340.004	74.07
340.217	41.3
340.429	82.26
340.641	72.02
340.854	22.87
341.066	35.16
341.278	127.32
341.491	88.4
341.703	110.93
341.915	104.79
342.128	49.49
342.34	37.2
342.552	-18.09
342.764	-18.09
342.977	82.26
343.189	20.82
343.401	16.73
343.613	67.92
343.826	147.8
344.038	51.54
344.25	-5.8
344.462	-18.09
344.674	16.73
344.886	84.31
345.099	90.45
345.311	37.2
345.523	31.06
345.735	80.21
345.947	100.69
346.159	74.07
346.371	41.3
346.583	47.44
346.795	49.49
347.007	37.2
347.219	100.69
347.431	104.79
347.643	104.79
347.855	4.44
348.067	133.46
348.279	47.44
348.491	41.3
348.703	-9.9
348.915	72.02
349.127	14.68
349.339	24.92
349.551	18.77
349.763	-1.71
349.975	0.34
350.187	123.22
350.399	100.69
350.61	74.07
350.822	53.59
351.034	-16.04
351.246	59.73
351.458	26.96
351.669	37.2
351.881	125.27
352.093	119.12
352.305	69.97
352.517	41.3
352.728	213.33
352.94	53.59
353.152	53.59
353.363	82.26
353.575	102.74
353.787	133.46
353.999	69.97
354.21	160.08
354.422	-26.28
354.633	0.34
354.845	22.87
355.057	65.88
355.268	57.68
355.48	108.88
355.692	-36.52
355.903	104.79
356.115	96.6
356.326	26.96
356.538	102.74
356.749	100.69
356.961	67.92
357.172	-11.95
357.384	24.92
357.595	65.88
357.807	-5.8
358.018	-40.62
358.23	57.68
358.441	102.74
358.653	90.45
358.864	24.92
359.075	24.92
359.287	45.4
359.498	117.08
359.709	49.49
359.921	51.54
360.132	59.73
360.344	-3.75
360.555	31.06
360.766	2.39
360.977	39.25
361.189	59.73
361.4	22.87
361.611	65.88
361.823	29.01
362.034	117.08
362.245	2.39
362.456	18.77
362.667	53.59
362.879	86.36
363.09	74.07
363.301	80.21
363.512	90.45
363.723	61.78
363.935	129.36
364.146	88.4
364.357	22.87
364.568	112.98
364.779	22.87
364.99	127.32
365.201	115.03
365.412	72.02
365.623	41.3
365.834	88.4
366.045	51.54
366.256	119.12
366.467	20.82
366.678	82.26
366.889	31.06
367.1	20.82
367.311	158.03
367.522	96.6
367.733	90.45
367.944	115.03
368.155	43.35
368.366	100.69
368.577	170.32
368.788	147.8
368.999	4.44
369.209	72.02
369.42	143.7
369.631	137.56
369.842	49.49
370.053	37.2
370.264	65.88
370.474	43.35
370.685	35.16
370.896	41.3
371.107	137.56
371.317	47.44
371.528	-30.38
371.739	31.06
371.95	63.83
372.16	125.27
372.371	2.39
372.582	37.2
372.792	88.4
373.003	98.64
373.214	78.16
373.424	69.97
373.635	-1.71
373.846	74.07
374.056	80.21
374.267	-3.75
374.477	37.2
374.688	26.96
374.898	112.98
375.109	78.16
375.319	82.26
375.53	78.16
375.74	45.4
375.951	35.16
376.161	94.55
376.372	119.12
376.582	16.73
376.793	57.68
377.003	78.16
377.214	-20.14
377.424	82.26
377.635	4.44
377.845	-28.33
378.055	106.84
378.266	24.92
378.476	-5.8
378.686	65.88
378.897	104.79
379.107	98.64
379.317	125.27
379.528	69.97
379.738	104.79
379.948	22.87
380.158	20.82
380.369	12.63
380.579	59.73
380.789	96.6
380.999	84.31
381.21	61.78
381.42	94.55
381.63	67.92
381.84	98.64
382.05	26.96
382.261	74.07
382.471	135.51
382.681	80.21
382.891	53.59
383.101	94.55
383.311	47.44
383.521	65.88
383.731	92.5
383.941	92.5
384.151	82.26
384.361	117.08
384.571	39.25
384.781	47.44
384.991	201.04
385.201	123.22
385.411	160.08
385.621	78.16
385.831	96.6
386.041	57.68
386.251	51.54
386.461	51.54
386.671	88.4
386.881	106.84
387.091	108.88
387.301	102.74
387.511	104.79
387.72	55.64
387.93	18.77
388.14	-7.85
388.35	39.25
388.56	102.74
388.769	74.07
388.979	139.6
389.189	14.68
389.399	96.6
389.609	67.92
389.818	63.83
390.028	108.88
390.238	155.99
390.447	35.16
390.657	106.84
390.867	110.93
391.076	0.34
391.286	119.12
391.496	53.59
391.705	65.88
391.915	149.84
392.125	104.79
392.334	88.4
392.544	125.27
392.753	47.44
392.963	63.83
393.172	39.25
393.382	104.79
393.591	168.27
393.801	45.4
394.01	106.84
394.22	90.45
394.429	72.02
394.639	63.83
394.848	123.22
395.058	100.69
395.267	57.68
395.477	31.06
395.686	110.93
395.895	143.7
396.105	139.6
396.314	108.88
396.524	49.49
396.733	53.59
396.942	117.08
397.152	141.65
397.361	110.93
397.57	78.16
397.78	104.79
397.989	117.08
398.198	219.47
398.407	123.22
398.617	145.75
398.826	123.22
399.035	90.45
399.244	100.69
399.453	110.93
399.663	76.12
399.872	166.23
400.081	69.97
400.29	178.51
400.499	149.84
400.708	80.21
400.917	67.92
401.127	123.22
401.336	129.36
401.545	164.18
401.754	137.56
401.963	158.03
402.172	39.25
402.381	190.8
402.59	125.27
402.799	139.6
403.008	158.03
403.217	143.7
403.426	170.32
403.635	143.7
403.844	133.46
404.053	194.9
404.262	170.32
404.471	248.15
404.68	129.36
404.888	176.47
405.097	121.17
405.306	123.22
405.515	203.09
405.724	182.61
405.933	162.13
406.142	188.75
406.35	211.28
406.559	186.71
406.768	248.15
406.977	280.91
407.185	278.87
407.394	215.38
407.603	112.98
407.812	262.48
408.02	219.47
408.229	313.68
408.438	270.67
408.646	192.85
408.855	248.15
409.064	276.82
409.272	317.78
409.481	280.91
409.69	334.16
409.898	276.82
410.107	272.72
410.315	371.02
410.524	262.48
410.733	293.2
410.941	291.15
411.15	299.34
411.358	379.22
411.567	403.79
411.775	375.12
411.984	366.93
412.192	479.57
412.401	463.18
412.609	469.33
412.818	516.43
413.026	508.24
413.234	498
413.443	563.53
413.651	473.42
413.86	635.21
414.068	508.24
414.276	633.16
414.485	631.12
414.693	667.98
414.901	659.79
415.11	708.94
415.318	682.31
415.526	719.18
415.734	764.23
415.943	827.72
416.151	876.87
416.359	872.78
416.567	844.1
416.776	938.31
416.984	1036.61
417.192	975.17
417.4	928.07
417.608	917.83
417.817	1069.38
418.025	1153.35
418.233	1120.58
418.441	1005.89
418.649	1038.66
418.857	1253.7
419.065	1290.56
419.273	1208.64
419.481	1341.76
419.689	1370.43
419.897	1323.33
420.105	1530.17
420.313	1511.74
420.521	1526.08
420.729	1663.29
420.937	1624.38
421.145	1708.35
421.353	1700.16
421.561	1868.09
421.769	1886.52
421.977	2068.79
422.185	1974.58
422.393	2031.93
422.601	2203.96
422.809	2199.86
423.017	2320.69
423.224	2388.27
423.432	2437.42
423.64	2451.76
423.848	2746.67
424.056	2660.65
424.263	2771.24
424.471	2679.08
424.679	2787.63
424.887	2949.42
425.094	3070.25
425.302	3084.58
425.51	3256.61
425.718	3424.55
425.925	3297.57
426.133	3438.88
426.341	3645.73
426.548	3875.1
426.756	3936.54
426.964	3848.47
427.171	4038.94
427.379	4262.16
427.586	4233.49
427.794	4542.74
428.001	4727.05
428.209	4817.16
428.417	4688.14
428.624	5112.07
428.832	4985.1
429.039	5087.5
429.247	5183.75
429.454	5327.11
429.662	5884.16
429.869	5376.26
430.076	5910.78
430.284	5777.66
430.491	6088.95
430.699	6281.46
430.906	6037.75
431.114	6293.75
431.321	6664.43
431.528	6822.13
431.736	7076.07
431.943	7551.2
432.15	7397.6
432.358	7639.26
432.565	7862.49
432.772	7784.67
432.979	8052.95
433.187	8419.54
433.394	8423.64
433.601	8890.57
433.808	9031.88
434.016	8947.92
434.223	9406.66
434.43	9717.95
434.637	9846.98
434.844	10320.06
435.052	10393.78
435.259	10594.48
435.466	10571.96
435.673	10608.82
435.88	11088.04
436.087	11585.7
436.294	11700.39
436.501	11362.47
436.708	11585.7
436.915	12148.89
437.122	12578.97
437.329	12402.84
437.537	13076.62
437.743	13131.92
437.95	13123.73
438.157	13916.29
438.364	14116.99
438.571	14153.85
438.778	14225.53
438.985	15485.03
439.192	14835.83
439.399	15513.7
439.606	15044.72
439.813	16097.38
440.02	16902.23
440.227	16580.7
440.433	16513.11
440.64	17023.06
440.847	17049.68
441.054	17408.08
441.261	18987.06
441.467	18286.65
441.674	18825.27
441.881	19406.89
442.088	19243.06
442.294	18964.53
442.501	19804.2
442.708	20441.12
442.914	20856.86
443.121	21633.04
443.328	21331.98
443.534	22751.23
443.741	21936.13
443.948	21622.8
444.154	23271.41
444.361	23209.97
444.568	23240.69
444.774	23166.96
444.981	23601.13
445.187	24621.02
445.394	25235.41
445.6	25278.42
445.807	27555.76
446.013	26265.54
446.22	26816.44
446.426	27654.06
446.633	27916.2
446.839	28997.53
447.046	27944.87
447.252	29421.46
447.459	29329.3
447.665	29409.17
447.871	30707.58
448.078	31821.68
448.284	30504.84
448.491	31383.41
448.697	32538.47
448.903	33052.51
449.11	32919.39
449.316	32268.14
449.522	33167.2
449.728	33984.33
449.935	34332.49
450.141	34410.31
450.347	35084.09
450.553	34275.15
450.76	34113.36
450.966	35407.67
451.172	35280.7
451.378	35981.1
451.584	35385.15
451.791	36390.7
451.997	36159.28
452.203	36788
452.409	36605.73
452.615	36359.98
452.821	35276.6
453.027	34535.24
453.233	36562.73
453.44	35168.06
453.646	35540.79
453.852	35524.41
454.058	36347.69
454.264	35241.79
454.47	36011.82
454.676	35075.9
454.882	36151.09
455.088	33347.42
455.294	33746.77
455.5	33828.69
455.705	34080.59
455.911	32890.72
456.117	32386.92
456.323	32012.14
456.529	30330.76
456.735	31442.81
456.941	30822.27
457.147	30113.67
457.352	29560.72
457.558	29245.34
457.764	29147.03
457.97	28288.93
458.176	28028.84
458.381	27901.87
458.587	26191.81
458.793	26458.05
458.999	25133.01
459.204	26886.08
459.41	26025.93
459.616	24332.26
459.821	24338.4
460.027	24672.22
460.233	23908.33
460.438	22681.6
460.644	22898.68
460.85	21999.62
461.055	21555.21
461.261	21635.08
461.466	19793.96
461.672	19216.43
461.878	20602.91
462.083	19376.17
462.289	18706.49
462.494	18651.19
462.7	17965.12
462.905	17657.93
463.111	18282.56
463.316	18237.5
463.522	17664.07
463.727	18020.42
463.932	17827.91
464.138	17418.32
464.343	17467.47
464.549	17072.21
464.754	17641.54
464.959	17426.51
465.165	17420.36
465.37	16564.31
465.575	16162.91
465.781	16818.26
465.986	17037.39
466.191	16619.61
466.397	15890.53
466.602	15245.42
466.807	15788.13
467.012	15994.98
467.218	15702.12
