Data from USB4F104151__9__12-23-20-664.txt Node

Date: Fri Mar 14 12:23:20 EDT 2025
User: louis
Spectrometer: USB4F10415
Trigger mode: 4
Integration Time (sec): 3.500000E-2
Scans to average: 1
Electric dark correction enabled: true
Nonlinearity correction enabled: false
Boxcar width: 0
XAxis mode: Wavelengths
Number of Pixels in Spectrum: 3648
>>>>>Begin Spectral Data<<<<<
178.204	-219.47
178.424	-219.47
178.644	-219.47
178.864	-110.93
179.084	-180.56
179.304	-43.35
179.524	-0.34
179.744	9.9
179.964	42.67
180.184	-20.82
180.404	38.57
180.624	-51.54
180.844	30.38
181.064	-26.96
181.283	11.95
181.503	-84.31
181.723	93.87
181.943	-47.44
182.163	128.68
182.383	59.05
182.602	9.9
182.822	22.19
183.042	102.06
183.262	-12.63
183.482	36.52
183.701	-0.34
183.921	20.14
184.141	-12.63
184.361	-14.68
184.58	26.28
184.8	-14.68
185.02	-82.26
185.239	11.95
185.459	7.85
185.679	36.52
185.898	-51.54
186.118	13.99
186.338	-8.53
186.557	38.57
186.777	-4.44
186.997	-4.44
187.216	11.95
187.436	42.67
187.655	16.04
187.875	95.91
188.095	-8.53
188.314	128.68
188.534	30.38
188.753	48.81
188.973	9.9
189.192	38.57
189.412	-43.35
189.631	77.48
189.851	38.57
190.07	30.38
190.29	-67.92
190.509	-24.92
190.729	-35.16
190.948	63.15
191.168	169.64
191.387	104.11
191.607	-8.53
191.826	26.28
192.045	24.23
192.265	34.47
192.484	9.9
192.704	30.38
192.923	-72.02
193.142	46.76
193.362	48.81
193.581	38.57
193.8	40.62
194.02	52.91
194.239	36.52
194.458	32.43
194.678	63.15
194.897	57
195.116	59.05
195.335	61.1
195.555	57
195.774	-41.3
195.993	97.96
196.212	1.71
196.432	7.85
196.651	65.19
196.87	9.9
197.089	145.06
197.308	48.81
197.528	59.05
197.747	-47.44
197.966	-41.3
198.185	71.34
198.404	-16.73
198.623	89.77
198.842	69.29
199.062	106.15
199.281	91.82
199.5	-2.39
199.719	1.71
199.938	34.47
200.157	169.64
200.376	11.95
200.595	61.1
200.814	-39.25
201.033	-35.16
201.252	-20.82
201.471	44.71
201.69	81.58
201.909	89.77
202.128	57
202.347	44.71
202.566	57
202.785	73.39
203.004	16.04
203.223	65.19
203.442	46.76
203.661	42.67
203.879	71.34
204.098	34.47
204.317	-57.68
204.536	71.34
204.755	52.91
204.974	38.57
205.193	-10.58
205.411	81.58
205.63	71.34
205.849	34.47
206.068	50.86
206.287	-6.49
206.505	36.52
206.724	-4.44
206.943	-16.73
207.162	34.47
207.381	20.14
207.599	42.67
207.818	-45.4
208.037	13.99
208.255	24.23
208.474	-20.82
208.693	34.47
208.911	57
209.13	-26.96
209.349	-51.54
209.567	36.52
209.786	104.11
210.005	7.85
210.223	48.81
210.442	-10.58
210.661	73.39
210.879	30.38
211.098	-0.34
211.316	11.95
211.535	134.82
211.753	-29.01
211.972	-4.44
212.191	11.95
212.409	67.24
212.628	9.9
212.846	30.38
213.065	87.72
213.283	16.04
213.502	40.62
213.72	30.38
213.938	-33.11
214.157	32.43
214.375	73.39
214.594	38.57
214.812	9.9
215.031	71.34
215.249	36.52
215.467	-10.58
215.686	38.57
215.904	7.85
216.122	-14.68
216.341	44.71
216.559	48.81
216.778	18.09
216.996	65.19
217.214	26.28
217.432	167.59
217.651	-31.06
217.869	-16.73
218.087	71.34
218.306	-6.49
218.524	5.8
218.742	71.34
218.96	57
219.179	9.9
219.397	-10.58
219.615	79.53
219.833	-10.58
220.051	16.04
220.27	-55.64
220.488	87.72
220.706	20.14
220.924	3.75
221.142	30.38
221.36	52.91
221.578	22.19
221.796	71.34
222.015	-76.12
222.233	59.05
222.451	57
222.669	11.95
222.887	38.57
223.105	89.77
223.323	69.29
223.541	-29.01
223.759	18.09
223.977	38.57
224.195	50.86
224.413	34.47
224.631	-4.44
224.849	36.52
225.067	97.96
225.285	18.09
225.503	-4.44
225.721	-92.5
225.939	50.86
226.157	81.58
226.375	104.11
226.592	50.86
226.81	61.1
227.028	-14.68
227.246	69.29
227.464	36.52
227.682	52.91
227.9	30.38
228.117	73.39
228.335	-37.2
228.553	40.62
228.771	24.23
228.989	24.23
229.206	9.9
229.424	-10.58
229.642	28.33
229.86	-41.3
230.077	48.81
230.295	-10.58
230.513	59.05
230.731	63.15
230.948	63.15
231.166	77.48
231.384	46.76
231.601	61.1
231.819	-16.73
232.037	-18.77
232.254	-33.11
232.472	-39.25
232.689	-49.49
232.907	85.67
233.125	-29.01
233.342	-4.44
233.56	-33.11
233.777	63.15
233.995	30.38
234.213	46.76
234.43	32.43
234.648	71.34
234.865	9.9
235.083	-18.77
235.3	22.19
235.518	28.33
235.735	24.23
235.953	13.99
236.17	26.28
236.388	-26.96
236.605	22.19
236.822	44.71
237.04	13.99
237.257	44.71
237.475	13.99
237.692	22.19
237.909	13.99
238.127	-39.25
238.344	28.33
238.562	11.95
238.779	-18.77
238.996	-14.68
239.214	61.1
239.431	102.06
239.648	5.8
239.865	42.67
240.083	79.53
240.3	40.62
240.517	30.38
240.735	-0.34
240.952	67.24
241.169	42.67
241.386	52.91
241.603	22.19
241.821	-31.06
242.038	34.47
242.255	95.91
242.472	-43.35
242.689	104.11
242.907	69.29
243.124	7.85
243.341	30.38
243.558	38.57
243.775	48.81
243.992	13.99
244.209	52.91
244.426	52.91
244.643	5.8
244.86	63.15
245.078	1.71
245.295	-31.06
245.512	13.99
245.729	-69.97
245.946	22.19
246.163	-16.73
246.38	-2.39
246.597	-102.74
246.814	-43.35
247.031	-37.2
247.248	93.87
247.464	48.81
247.681	1.71
247.898	30.38
248.115	48.81
248.332	52.91
248.549	95.91
248.766	128.68
248.983	97.96
249.2	24.23
249.417	63.15
249.633	9.9
249.85	-37.2
250.067	77.48
250.284	38.57
250.501	83.63
250.717	20.14
250.934	7.85
251.151	-4.44
251.368	-12.63
251.585	-10.58
251.801	28.33
252.018	38.57
252.235	46.76
252.451	5.8
252.668	16.04
252.885	118.44
253.102	-16.73
253.318	-2.39
253.535	-78.16
253.752	-59.73
253.968	-12.63
254.185	-45.4
254.401	18.09
254.618	-26.96
254.835	-41.3
255.051	87.72
255.268	26.28
255.484	75.43
255.701	38.57
255.917	65.19
256.134	24.23
256.351	26.28
256.567	-37.2
256.784	65.19
257	-0.34
257.217	71.34
257.433	36.52
257.65	48.81
257.866	91.82
258.082	-53.59
258.299	-41.3
258.515	11.95
258.732	-26.96
258.948	-10.58
259.165	16.04
259.381	-20.82
259.597	1.71
259.814	30.38
260.03	40.62
260.246	32.43
260.463	38.57
260.679	42.67
260.895	40.62
261.112	-14.68
261.328	38.57
261.544	44.71
261.761	52.91
261.977	34.47
262.193	3.75
262.409	13.99
262.626	38.57
262.842	13.99
263.058	13.99
263.274	26.28
263.49	30.38
263.707	77.48
263.923	3.75
264.139	-80.21
264.355	46.76
264.571	11.95
264.787	-45.4
265.004	93.87
265.22	-4.44
265.436	-49.49
265.652	40.62
265.868	34.47
266.084	20.14
266.3	1.71
266.516	-65.88
266.732	77.48
266.948	-10.58
267.164	18.09
267.38	28.33
267.596	28.33
267.812	77.48
268.028	48.81
268.244	-2.39
268.46	5.8
268.676	-22.87
268.892	3.75
269.108	-6.49
269.324	-59.73
269.54	-33.11
269.756	73.39
269.972	-80.21
270.188	9.9
270.403	-0.34
270.619	77.48
270.835	24.23
271.051	77.48
271.267	63.15
271.483	36.52
271.698	16.04
271.914	87.72
272.13	-53.59
272.346	-2.39
272.562	9.9
272.777	130.73
272.993	-2.39
273.209	79.53
273.425	-41.3
273.64	-29.01
273.856	18.09
274.072	91.82
274.287	42.67
274.503	77.48
274.719	32.43
274.934	52.91
275.15	-55.64
275.366	52.91
275.581	40.62
275.797	18.09
276.012	22.19
276.228	-24.92
276.444	-6.49
276.659	16.04
276.875	18.09
277.09	18.09
277.306	57
277.521	42.67
277.737	32.43
277.952	-26.96
278.168	11.95
278.383	65.19
278.599	65.19
278.814	48.81
279.03	5.8
279.245	24.23
279.461	-26.96
279.676	57
279.892	-20.82
280.107	-69.97
280.322	-18.77
280.538	9.9
280.753	-45.4
280.969	-61.78
281.184	16.04
281.399	83.63
281.615	-76.12
281.83	42.67
282.045	18.09
282.26	44.71
282.476	-8.53
282.691	26.28
282.906	114.34
283.122	36.52
283.337	28.33
283.552	-22.87
283.767	42.67
283.983	67.24
284.198	13.99
284.413	22.19
284.628	16.04
284.843	-12.63
285.058	-35.16
285.274	-10.58
285.489	-10.58
285.704	65.19
285.919	9.9
286.134	5.8
286.349	13.99
286.564	22.19
286.779	75.43
286.995	-20.82
287.21	-67.92
287.425	-16.73
287.64	83.63
287.855	32.43
288.07	-14.68
288.285	34.47
288.5	75.43
288.715	63.15
288.93	13.99
289.145	-10.58
289.36	42.67
289.575	50.86
289.79	110.25
290.004	9.9
290.219	34.47
290.434	-41.3
290.649	71.34
290.864	28.33
291.079	48.81
291.294	-37.2
291.509	-18.77
291.724	106.15
291.938	71.34
292.153	104.11
292.368	-35.16
292.583	-26.96
292.798	-20.82
293.012	22.19
293.227	61.1
293.442	7.85
293.657	48.81
293.871	11.95
294.086	24.23
294.301	87.72
294.516	32.43
294.73	73.39
294.945	24.23
295.16	18.09
295.374	48.81
295.589	36.52
295.804	-12.63
296.018	7.85
296.233	9.9
296.447	40.62
296.662	11.95
296.877	65.19
297.091	54.95
297.306	34.47
297.52	5.8
297.735	50.86
297.949	-12.63
298.164	-12.63
298.378	-18.77
298.593	24.23
298.807	-43.35
299.022	50.86
299.236	26.28
299.451	26.28
299.665	24.23
299.88	-2.39
300.094	-49.49
300.309	-6.49
300.523	22.19
300.737	5.8
300.952	-16.73
301.166	5.8
301.381	-33.11
301.595	24.23
301.809	16.04
302.024	69.29
302.238	-59.73
302.452	38.57
302.667	48.81
302.881	138.92
303.095	9.9
303.309	-67.92
303.524	-20.82
303.738	-4.44
303.952	-31.06
304.166	-6.49
304.381	57
304.595	67.24
304.809	-4.44
305.023	26.28
305.237	-12.63
305.452	20.14
305.666	-4.44
305.88	57
306.094	44.71
306.308	46.76
306.522	48.81
306.736	13.99
306.95	61.1
307.164	-22.87
307.379	11.95
307.593	40.62
307.807	-24.92
308.021	-18.77
308.235	-4.44
308.449	-45.4
308.663	-33.11
308.877	151.21
309.091	-22.87
309.305	108.2
309.519	-53.59
309.733	100.01
309.947	-10.58
310.161	22.19
310.374	11.95
310.588	73.39
310.802	-45.4
311.016	11.95
311.23	-2.39
311.444	-72.02
311.658	20.14
311.872	48.81
312.085	42.67
312.299	44.71
312.513	67.24
312.727	54.95
312.941	-31.06
313.154	57
313.368	48.81
313.582	38.57
313.796	-45.4
314.009	-12.63
314.223	54.95
314.437	-0.34
314.651	73.39
314.864	-41.3
315.078	34.47
315.292	3.75
315.505	34.47
315.719	73.39
315.933	11.95
316.146	7.85
316.36	5.8
316.573	20.14
316.787	24.23
317.001	34.47
317.214	-14.68
317.428	24.23
317.641	75.43
317.855	28.33
318.068	-0.34
318.282	13.99
318.495	32.43
318.709	11.95
318.922	13.99
319.136	50.86
319.349	42.67
319.563	-10.58
319.776	-22.87
319.99	9.9
320.203	50.86
320.417	69.29
320.63	46.76
320.843	83.63
321.057	-69.97
321.27	-18.77
321.483	34.47
321.697	83.63
321.91	73.39
322.124	85.67
322.337	-18.77
322.55	-24.92
322.763	-12.63
322.977	81.58
323.19	57
323.403	-12.63
323.617	61.1
323.83	44.71
324.043	-41.3
324.256	-49.49
324.469	26.28
324.683	38.57
324.896	38.57
325.109	69.29
325.322	-18.77
325.535	22.19
325.748	67.24
325.962	-80.21
326.175	61.1
326.388	40.62
326.601	28.33
326.814	13.99
327.027	28.33
327.24	65.19
327.453	-2.39
327.666	5.8
327.879	100.01
328.092	11.95
328.305	44.71
328.518	5.8
328.731	-6.49
328.944	34.47
329.157	54.95
329.37	69.29
329.583	77.48
329.796	102.06
330.009	-82.26
330.222	61.1
330.435	30.38
330.648	-2.39
330.861	16.04
331.073	54.95
331.286	77.48
331.499	57
331.712	5.8
331.925	63.15
332.138	28.33
332.35	67.24
332.563	30.38
332.776	54.95
332.989	54.95
333.202	48.81
333.414	3.75
333.627	11.95
333.84	-49.49
334.053	3.75
334.265	85.67
334.478	11.95
334.691	38.57
334.903	13.99
335.116	16.04
335.329	48.81
335.541	11.95
335.754	65.19
335.966	-22.87
336.179	3.75
336.392	9.9
336.604	18.09
336.817	24.23
337.029	-12.63
337.242	18.09
337.454	-8.53
337.667	52.91
337.88	46.76
338.092	13.99
338.305	69.29
338.517	-0.34
338.729	69.29
338.942	46.76
339.154	-45.4
339.367	-43.35
339.579	11.95
339.792	-12.63
340.004	-26.96
340.217	-0.34
340.429	69.29
340.641	20.14
340.854	9.9
341.066	42.67
341.278	65.19
341.491	120.49
341.703	44.71
341.915	-47.44
342.128	52.91
342.34	91.82
342.552	36.52
342.764	59.05
342.977	-45.4
343.189	112.3
343.401	89.77
343.613	-59.73
343.826	-4.44
344.038	-65.88
344.25	-55.64
344.462	-47.44
344.674	-0.34
344.886	1.71
345.099	-57.68
345.311	69.29
345.523	9.9
345.735	-22.87
345.947	-8.53
346.159	16.04
346.371	71.34
346.583	18.09
346.795	132.78
347.007	5.8
347.219	36.52
347.431	30.38
347.643	40.62
347.855	40.62
348.067	89.77
348.279	5.8
348.491	97.96
348.703	-33.11
348.915	16.04
349.127	-4.44
349.339	59.05
349.551	-41.3
349.763	59.05
349.975	24.23
350.187	36.52
350.399	42.67
350.61	3.75
350.822	18.09
351.034	32.43
351.246	106.15
351.458	79.53
351.669	11.95
351.881	38.57
352.093	40.62
352.305	87.72
352.517	38.57
352.728	59.05
352.94	61.1
353.152	73.39
353.363	-10.58
353.575	24.23
353.787	50.86
353.999	95.91
354.21	89.77
354.422	-18.77
354.633	-14.68
354.845	32.43
355.057	97.96
355.268	26.28
355.48	87.72
355.692	-24.92
355.903	-35.16
356.115	52.91
356.326	22.19
356.538	93.87
356.749	24.23
356.961	75.43
357.172	85.67
357.384	18.09
357.595	73.39
357.807	11.95
358.018	22.19
358.23	40.62
358.441	20.14
358.653	116.39
358.864	-6.49
359.075	3.75
359.287	38.57
359.498	79.53
359.709	1.71
359.921	69.29
360.132	120.49
360.344	34.47
360.555	22.19
360.766	9.9
360.977	26.28
361.189	42.67
361.4	18.09
361.611	59.05
361.823	57
362.034	79.53
362.245	-20.82
362.456	42.67
362.667	54.95
362.879	-39.25
363.09	-8.53
363.301	3.75
363.512	-26.96
363.723	-26.96
363.935	-14.68
364.146	11.95
364.357	-33.11
364.568	83.63
364.779	20.14
364.99	85.67
365.201	-0.34
365.412	97.96
365.623	-35.16
365.834	83.63
366.045	38.57
366.256	18.09
366.467	102.06
366.678	77.48
366.889	42.67
367.1	-2.39
367.311	81.58
367.522	50.86
367.733	-16.73
367.944	77.48
368.155	30.38
368.366	65.19
368.577	59.05
368.788	69.29
368.999	-18.77
369.209	-12.63
369.42	71.34
369.631	116.39
369.842	57
370.053	26.28
370.264	36.52
370.474	26.28
370.685	75.43
370.896	7.85
371.107	1.71
371.317	124.58
371.528	28.33
371.739	83.63
371.95	-37.2
372.16	18.09
372.371	-10.58
372.582	-4.44
372.792	69.29
373.003	59.05
373.214	106.15
373.424	5.8
373.635	-63.83
373.846	81.58
374.056	40.62
374.267	30.38
374.477	50.86
374.688	18.09
374.898	-16.73
375.109	93.87
375.319	30.38
375.53	38.57
375.74	69.29
375.951	-8.53
376.161	91.82
376.372	93.87
376.582	18.09
376.793	-37.2
377.003	26.28
377.214	-110.93
377.424	42.67
377.635	18.09
377.845	-20.82
378.055	54.95
378.266	26.28
378.476	50.86
378.686	-31.06
378.897	50.86
379.107	93.87
379.317	-4.44
379.528	30.38
379.738	36.52
379.948	-10.58
380.158	20.14
380.369	26.28
380.579	175.78
380.789	7.85
380.999	71.34
381.21	42.67
381.42	50.86
381.63	40.62
381.84	5.8
382.05	7.85
382.261	57
382.471	81.58
382.681	38.57
382.891	38.57
383.101	34.47
383.311	-37.2
383.521	-8.53
383.731	89.77
383.941	100.01
384.151	83.63
384.361	18.09
384.571	59.05
384.781	36.52
384.991	93.87
385.201	147.11
385.411	71.34
385.621	93.87
385.831	36.52
386.041	69.29
386.251	54.95
386.461	106.15
386.671	67.24
386.881	16.04
387.091	83.63
387.301	48.81
387.511	-12.63
387.72	87.72
387.93	69.29
388.14	67.24
388.35	32.43
388.56	59.05
388.769	46.76
388.979	93.87
389.189	48.81
389.399	63.15
389.609	122.54
389.818	102.06
390.028	81.58
390.238	9.9
390.447	-37.2
390.657	28.33
390.867	3.75
391.076	9.9
391.286	22.19
391.496	20.14
391.705	-49.49
391.915	61.1
392.125	50.86
392.334	77.48
392.544	22.19
392.753	108.2
392.963	-2.39
393.172	28.33
393.382	57
393.591	112.3
393.801	-6.49
394.01	134.82
394.22	67.24
394.429	13.99
394.639	44.71
394.848	42.67
395.058	87.72
395.267	67.24
395.477	130.73
395.686	50.86
395.895	87.72
396.105	177.83
396.314	100.01
396.524	40.62
396.733	128.68
396.942	87.72
397.152	77.48
397.361	153.26
397.57	18.09
397.78	61.1
397.989	87.72
398.198	192.17
398.407	122.54
398.617	93.87
398.826	173.74
399.035	-4.44
399.244	102.06
399.453	83.63
399.663	38.57
399.872	93.87
400.081	97.96
400.29	159.4
400.499	81.58
400.708	104.11
400.917	95.91
401.127	9.9
401.336	11.95
401.545	73.39
401.754	130.73
401.963	48.81
402.172	79.53
402.381	46.76
402.59	91.82
402.799	20.14
403.008	57
403.217	108.2
403.426	122.54
403.635	97.96
403.844	114.34
404.053	120.49
404.262	175.78
404.471	169.64
404.68	102.06
404.888	59.05
405.097	114.34
405.306	32.43
405.515	114.34
405.724	116.39
405.933	200.36
406.142	167.59
406.35	155.3
406.559	130.73
406.768	177.83
406.977	206.5
407.185	145.06
407.394	136.87
407.603	75.43
407.812	128.68
408.02	208.55
408.229	167.59
408.438	67.24
408.646	134.82
408.855	173.74
409.064	130.73
409.272	143.02
409.481	243.37
409.69	161.45
409.898	151.21
410.107	231.08
410.315	214.7
410.524	257.7
410.733	175.78
410.941	259.75
411.15	214.7
411.358	212.65
411.567	300.71
411.775	220.84
411.984	269.99
412.192	327.33
412.401	310.95
412.609	358.05
412.818	345.77
413.026	341.67
413.234	353.96
413.443	396.96
413.651	370.34
413.86	423.59
414.068	392.87
414.276	460.45
414.485	415.4
414.693	507.55
414.901	511.65
415.11	384.68
415.318	489.12
415.526	511.65
415.734	538.27
415.943	607.91
416.151	546.47
416.359	544.42
416.567	585.38
416.776	632.48
416.984	681.63
417.192	734.88
417.4	630.43
417.608	673.44
417.817	784.03
418.025	691.87
418.233	802.46
418.441	759.46
418.649	868
418.857	857.76
419.065	958.11
419.273	937.63
419.481	917.15
419.689	1013.4
419.897	1080.99
420.105	1062.55
420.313	1056.41
420.521	1173.14
420.729	1150.62
420.937	1117.85
421.145	1095.32
421.353	1361.56
421.561	1312.41
421.769	1345.17
421.977	1404.57
422.185	1408.66
422.393	1580.69
422.601	1713.81
422.809	1537.68
423.017	1582.74
423.224	1732.24
423.432	1654.42
423.64	1754.77
423.848	1928.85
424.056	1889.93
424.263	2008.72
424.471	2051.72
424.679	2066.06
424.887	2277
425.094	2291.34
425.302	2158.22
425.51	2283.14
425.718	2270.86
425.925	2352.77
426.133	2436.74
426.341	2578.05
426.548	2764.42
426.756	2668.16
426.964	2823.81
427.171	2928.25
427.379	2958.97
427.586	3088
427.794	3122.81
428.001	3266.17
428.209	3387
428.417	3307.13
428.624	3661.43
428.832	3567.22
429.039	3702.39
429.247	3565.17
429.454	3925.61
429.662	4064.88
429.869	3870.32
430.076	4341.35
430.284	4138.6
430.491	4263.53
430.699	4580.96
430.906	4556.39
431.114	4613.73
431.321	4712.03
431.528	4796
431.736	5144.16
431.943	5557.85
432.15	5160.54
432.358	5156.44
432.565	5559.89
432.772	5480.02
432.979	5912.14
433.187	5914.19
433.394	5893.71
433.601	6481.48
433.808	6542.92
434.016	6534.73
434.223	6698.56
434.43	6962.75
434.637	6870.59
434.844	7435.83
435.052	7568.95
435.259	7435.83
435.466	7536.18
435.673	7575.1
435.88	8039.98
436.087	8416.81
436.294	8255.02
436.501	8097.33
436.708	8375.85
436.915	8707.62
437.122	8932.9
437.329	9027.1
437.537	9262.62
437.743	9453.08
437.95	9348.64
438.157	9868.82
438.364	10335.76
438.571	10180.11
438.778	10059.28
438.985	11206.14
439.192	10704.39
439.399	11238.91
439.606	10786.31
439.813	11517.43
440.02	12266.99
440.227	11787.77
440.433	11744.76
440.64	12230.13
440.847	12242.42
441.054	12430.83
441.261	13305.31
441.467	13202.91
441.674	13305.31
441.881	13850.07
442.088	13841.88
442.294	13698.52
442.501	14237.14
442.708	14384.59
442.914	14947.78
443.121	15459.77
443.328	15046.09
443.534	16235.95
443.741	15777.21
443.948	15732.15
444.154	16903.59
444.361	16766.38
444.568	16903.59
444.774	16977.32
444.981	16666.03
445.187	17679.77
445.394	18261.4
445.6	17958.3
445.807	19627.39
446.013	19062.15
446.22	19408.26
446.426	19971.45
446.633	20284.79
446.839	21126.5
447.046	20323.7
447.252	21210.47
447.459	21083.5
447.665	21110.12
447.871	22029.66
448.078	22975.82
448.284	21898.59
448.491	22584.66
448.697	23461.19
448.903	23844.16
449.11	23792.96
449.316	23305.54
449.522	24325.43
449.728	24587.57
449.935	25220.39
450.141	24737.07
450.347	25330.98
450.553	24968.49
450.76	25054.51
450.966	25818.4
451.172	25414.95
451.378	26160.41
451.584	25525.54
451.791	26180.89
451.997	26191.13
452.203	26512.66
452.409	26664.21
452.615	26254.62
452.821	25302.31
453.027	24952.11
453.233	26334.49
453.44	25281.83
453.646	25433.38
453.852	25924.9
454.058	26221.85
454.264	25285.93
454.47	25896.22
454.676	25242.92
454.882	26141.98
455.088	23606.59
455.294	23936.32
455.5	24653.11
455.705	25023.79
455.911	23797.06
456.117	23211.34
456.323	22832.46
456.529	21980.51
456.735	22668.62
456.941	21804.38
457.147	21874.01
457.352	21026.15
457.558	20960.62
457.764	20934
457.97	20471.15
458.176	19979.64
458.381	19805.56
458.587	19123.59
458.793	19187.08
458.999	17993.11
459.204	19182.98
459.41	18836.88
459.616	17380.77
459.821	17624.48
460.027	17464.74
460.233	17184.16
460.438	16178.61
460.644	16262.58
460.85	15803.83
461.055	15373.76
461.261	15568.32
461.466	14456.27
461.672	14040.53
461.878	14800.33
462.083	13663.71
462.289	13698.52
462.494	13469.15
462.7	12799.46
462.905	12467.69
463.111	12881.38
463.316	12824.04
463.522	12641.77
463.727	12819.94
463.932	12561.9
464.138	12510.7
464.343	12727.78
464.549	12266.99
464.754	12742.12
464.959	12586.47
465.165	12428.78
465.37	12111.35
465.575	11628.03
465.781	11955.7
465.986	12115.44
466.191	11646.46
466.397	11423.23
466.602	11011.59
466.807	11281.92
467.012	11351.55
467.218	11232.77
467.423	11056.64
467.628	11269.63
467.833	11632.12
468.038	10937.86
