Data from USB4F104151__74__12-24-21-346.txt Node

Date: Fri Mar 14 12:24:21 EDT 2025
User: louis
Spectrometer: USB4F10415
Trigger mode: 4
Integration Time (sec): 3.500000E-2
Scans to average: 1
Electric dark correction enabled: true
Nonlinearity correction enabled: false
Boxcar width: 0
XAxis mode: Wavelengths
Number of Pixels in Spectrum: 3648
>>>>>Begin Spectral Data<<<<<
178.204	-196.26
178.424	-196.26
178.644	-196.26
178.864	-196.26
179.084	-87.72
179.304	-40.62
179.524	-28.33
179.744	-20.14
179.964	29.01
180.184	29.01
180.404	20.82
180.624	2.39
180.844	33.11
181.064	0.34
181.283	69.97
181.503	-112.3
181.723	16.73
181.943	8.53
182.163	76.12
182.383	59.73
182.602	-11.95
182.822	37.2
183.042	53.59
183.262	-3.75
183.482	-3.75
183.701	51.54
183.921	-11.95
184.141	-36.52
184.361	61.78
184.58	2.39
184.8	31.06
185.02	12.63
185.239	49.49
185.459	8.53
185.679	104.79
185.898	-38.57
186.118	20.82
186.338	-61.1
186.557	55.64
186.777	-34.47
186.997	41.3
187.216	-7.85
187.436	41.3
187.655	-26.28
187.875	4.44
188.095	47.44
188.314	61.78
188.534	67.92
188.753	20.82
188.973	72.02
189.192	127.32
189.412	55.64
189.631	-20.14
189.851	-71.34
190.07	98.64
190.29	14.68
190.509	76.12
190.729	8.53
190.948	-11.95
191.168	102.74
191.387	80.21
191.607	67.92
191.826	82.26
192.045	-38.57
192.265	-32.43
192.484	20.82
192.704	16.73
192.923	-22.19
193.142	53.59
193.362	65.88
193.581	-32.43
193.8	106.84
194.02	22.87
194.239	4.44
194.458	117.08
194.678	29.01
194.897	26.96
195.116	31.06
195.335	14.68
195.555	-30.38
195.774	29.01
195.993	-26.28
196.212	37.2
196.432	-52.91
196.651	45.4
196.87	8.53
197.089	100.69
197.308	39.25
197.528	51.54
197.747	76.12
197.966	16.73
198.185	88.4
198.404	-67.24
198.623	-63.15
198.842	41.3
199.062	121.17
199.281	76.12
199.5	-46.76
199.719	-69.29
199.938	-32.43
200.157	22.87
200.376	0.34
200.595	10.58
200.814	26.96
201.033	-20.14
201.252	-16.04
201.471	47.44
201.69	86.36
201.909	24.92
202.128	2.39
202.347	110.93
202.566	-26.28
202.785	-63.15
203.004	-59.05
203.223	133.46
203.442	-9.9
203.661	-18.09
203.879	-1.71
204.098	121.17
204.317	-116.39
204.536	14.68
204.755	63.83
204.974	-13.99
205.193	-22.19
205.411	180.56
205.63	4.44
205.849	10.58
206.068	-44.71
206.287	37.2
206.505	39.25
206.724	31.06
206.943	-48.81
207.162	41.3
207.381	84.31
207.599	22.87
207.818	74.07
208.037	-42.67
208.255	10.58
208.474	45.4
208.693	10.58
208.911	-11.95
209.13	76.12
209.349	49.49
209.567	10.58
209.786	24.92
210.005	35.16
210.223	12.63
210.442	6.49
210.661	-7.85
210.879	-5.8
211.098	-11.95
211.316	26.96
211.535	49.49
211.753	47.44
211.972	20.82
212.191	-59.05
212.409	86.36
212.628	22.87
212.846	10.58
213.065	14.68
213.283	-5.8
213.502	26.96
213.72	80.21
213.938	49.49
214.157	61.78
214.375	-1.71
214.594	-71.34
214.812	-3.75
215.031	-28.33
215.249	-3.75
215.467	63.83
215.686	49.49
215.904	31.06
216.122	-20.14
216.341	78.16
216.559	10.58
216.778	65.88
216.996	92.5
217.214	78.16
217.432	-5.8
217.651	-28.33
217.869	-3.75
218.087	31.06
218.306	-34.47
218.524	33.11
218.742	4.44
218.96	49.49
219.179	-38.57
219.397	-34.47
219.615	47.44
219.833	-40.62
220.051	-24.23
220.27	98.64
220.488	61.78
220.706	-61.1
220.924	94.55
221.142	-7.85
221.36	18.77
221.578	8.53
221.796	41.3
222.015	-11.95
222.233	-11.95
222.451	63.83
222.669	-130.73
222.887	22.87
223.105	-18.09
223.323	-3.75
223.541	59.73
223.759	47.44
223.977	61.78
224.195	72.02
224.413	12.63
224.631	33.11
224.849	0.34
225.067	88.4
225.285	31.06
225.503	61.78
225.721	0.34
225.939	39.25
226.157	55.64
226.375	125.27
226.592	55.64
226.81	-26.28
227.028	59.73
227.246	76.12
227.464	-36.52
227.682	8.53
227.9	-28.33
228.117	65.88
228.335	67.92
228.553	-3.75
228.771	84.31
228.989	29.01
229.206	57.68
229.424	10.58
229.642	18.77
229.86	6.49
230.077	18.77
230.295	-26.28
230.513	86.36
230.731	-22.19
230.948	96.6
231.166	94.55
231.384	29.01
231.601	65.88
231.819	74.07
232.037	-38.57
232.254	-24.23
232.472	72.02
232.689	-32.43
232.907	-11.95
233.125	-24.23
233.342	22.87
233.56	49.49
233.777	18.77
233.995	6.49
234.213	86.36
234.43	-16.04
234.648	-7.85
234.865	39.25
235.083	98.64
235.3	39.25
235.518	45.4
235.735	96.6
235.953	51.54
236.17	69.97
236.388	104.79
236.605	69.97
236.822	96.6
237.04	76.12
237.257	104.79
237.475	-42.67
237.692	49.49
237.909	59.73
238.127	63.83
238.344	82.26
238.562	12.63
238.779	-54.95
238.996	16.73
239.214	-32.43
239.431	80.21
239.648	-18.09
239.865	61.78
240.083	6.49
240.3	-73.39
240.517	16.73
240.735	-28.33
240.952	39.25
241.169	57.68
241.386	-7.85
241.603	14.68
241.821	49.49
242.038	55.64
242.255	31.06
242.472	29.01
242.689	12.63
242.907	41.3
243.124	51.54
243.341	-57
243.558	53.59
243.775	-3.75
243.992	-59.05
244.209	20.82
244.426	94.55
244.643	108.88
244.86	29.01
245.078	82.26
245.295	0.34
245.512	14.68
245.729	4.44
245.946	96.6
246.163	-26.28
246.38	12.63
246.597	86.36
246.814	26.96
247.031	72.02
247.248	63.83
247.464	57.68
247.681	63.83
247.898	6.49
248.115	45.4
248.332	-28.33
248.549	94.55
248.766	123.22
248.983	92.5
249.2	37.2
249.417	57.68
249.633	-18.09
249.85	67.92
250.067	49.49
250.284	26.96
250.501	14.68
250.717	72.02
250.934	-1.71
251.151	104.79
251.368	26.96
251.585	29.01
251.801	47.44
252.018	6.49
252.235	35.16
252.451	-24.23
252.668	14.68
252.885	121.17
253.102	86.36
253.318	10.58
253.535	-3.75
253.752	-42.67
253.968	43.35
254.185	-93.87
254.401	-34.47
254.618	10.58
254.835	35.16
255.051	84.31
255.268	47.44
255.484	84.31
255.701	18.77
255.917	86.36
256.134	-5.8
256.351	12.63
256.567	-1.71
256.784	33.11
257	4.44
257.217	180.56
257.433	39.25
257.65	-9.9
257.866	67.92
258.082	8.53
258.299	26.96
258.515	4.44
258.732	-18.09
258.948	33.11
259.165	92.5
259.381	22.87
259.597	102.74
259.814	-5.8
260.03	-28.33
260.246	22.87
260.463	51.54
260.679	74.07
260.895	24.92
261.112	0.34
261.328	24.92
261.544	-50.86
261.761	49.49
261.977	4.44
262.193	-18.09
262.409	26.96
262.626	18.77
262.842	80.21
263.058	0.34
263.274	69.97
263.49	65.88
263.707	49.49
263.923	63.83
264.139	24.92
264.355	-5.8
264.571	84.31
264.787	8.53
265.004	37.2
265.22	18.77
265.436	49.49
265.652	43.35
265.868	110.93
266.084	-1.71
266.3	4.44
266.516	-9.9
266.732	4.44
266.948	35.16
267.164	53.59
267.38	108.88
267.596	65.88
267.812	39.25
268.028	14.68
268.244	-28.33
268.46	29.01
268.676	-50.86
268.892	45.4
269.108	4.44
269.324	14.68
269.54	-11.95
269.756	127.32
269.972	26.96
270.188	-54.95
270.403	-16.04
270.619	-9.9
270.835	59.73
271.051	-1.71
271.267	-3.75
271.483	6.49
271.698	100.69
271.914	63.83
272.13	72.02
272.346	-7.85
272.562	53.59
272.777	104.79
272.993	8.53
273.209	43.35
273.425	76.12
273.64	-52.91
273.856	31.06
274.072	6.49
274.287	31.06
274.503	37.2
274.719	14.68
274.934	-7.85
275.15	78.16
275.366	-5.8
275.581	2.39
275.797	-22.19
276.012	-24.23
276.228	39.25
276.444	61.78
276.659	133.46
276.875	-83.63
277.09	-22.19
277.306	22.87
277.521	10.58
277.737	-16.04
277.952	10.58
278.168	57.68
278.383	106.84
278.599	121.17
278.814	39.25
279.03	26.96
279.245	20.82
279.461	53.59
279.676	37.2
279.892	-69.29
280.107	-48.81
280.322	-67.24
280.538	69.97
280.753	-5.8
280.969	84.31
281.184	51.54
281.399	69.97
281.615	33.11
281.83	0.34
282.045	-9.9
282.26	-48.81
282.476	29.01
282.691	80.21
282.906	-26.28
283.122	39.25
283.337	53.59
283.552	121.17
283.767	4.44
283.983	90.45
284.198	35.16
284.413	72.02
284.628	-79.53
284.843	18.77
285.058	72.02
285.274	-9.9
285.489	90.45
285.704	74.07
285.919	39.25
286.134	-30.38
286.349	80.21
286.564	18.77
286.779	47.44
286.995	-36.52
287.21	-44.71
287.425	-34.47
287.64	-50.86
287.855	12.63
288.07	-50.86
288.285	90.45
288.5	45.4
288.715	24.92
288.93	-67.24
289.145	8.53
289.36	43.35
289.575	37.2
289.79	57.68
290.004	6.49
290.219	43.35
290.434	31.06
290.649	18.77
290.864	6.49
291.079	-32.43
291.294	4.44
291.509	102.74
291.724	-13.99
291.938	-132.78
292.153	-9.9
292.368	14.68
292.583	22.87
292.798	-13.99
293.012	63.83
293.227	35.16
293.442	33.11
293.657	69.97
293.871	133.46
294.086	-9.9
294.301	51.54
294.516	139.6
294.73	51.54
294.945	43.35
295.16	-52.91
295.374	29.01
295.589	26.96
295.804	-36.52
296.018	55.64
296.233	24.92
296.447	53.59
296.662	-38.57
296.877	96.6
297.091	6.49
297.306	47.44
297.52	-40.62
297.735	4.44
297.949	53.59
298.164	65.88
298.378	74.07
298.593	-38.57
298.807	-87.72
299.022	69.97
299.236	96.6
299.451	14.68
299.665	4.44
299.88	4.44
300.094	35.16
300.309	-13.99
300.523	57.68
300.737	69.97
300.952	6.49
301.166	-11.95
301.381	-30.38
301.595	24.92
301.809	14.68
302.024	-36.52
302.238	20.82
302.452	55.64
302.667	16.73
302.881	59.73
303.095	-7.85
303.309	41.3
303.524	102.74
303.738	-3.75
303.952	47.44
304.166	59.73
304.381	-32.43
304.595	106.84
304.809	10.58
305.023	57.68
305.237	-11.95
305.452	-50.86
305.666	31.06
305.88	22.87
306.094	59.73
306.308	100.69
306.522	57.68
306.736	0.34
306.95	45.4
307.164	-46.76
307.379	41.3
307.593	-9.9
307.807	94.55
308.021	61.78
308.235	67.92
308.449	37.2
308.663	24.92
308.877	129.36
309.091	86.36
309.305	-46.76
309.519	-38.57
309.733	74.07
309.947	-50.86
310.161	55.64
310.374	14.68
310.588	104.79
310.802	39.25
311.016	63.83
311.23	69.97
311.444	16.73
311.658	-24.23
311.872	-54.95
312.085	53.59
312.299	82.26
312.513	16.73
312.727	67.92
312.941	-13.99
313.154	-24.23
313.368	-20.14
313.582	39.25
313.796	76.12
314.009	76.12
314.223	33.11
314.437	78.16
314.651	26.96
314.864	57.68
315.078	82.26
315.292	41.3
315.505	29.01
315.719	55.64
315.933	74.07
316.146	33.11
316.36	49.49
316.573	-9.9
316.787	8.53
317.001	-69.29
317.214	41.3
317.428	45.4
317.641	2.39
317.855	22.87
318.068	-9.9
318.282	49.49
318.495	72.02
318.709	76.12
318.922	84.31
319.136	39.25
319.349	112.98
319.563	41.3
319.776	72.02
319.99	-57
320.203	37.2
320.417	33.11
320.63	33.11
320.843	94.55
321.057	8.53
321.27	49.49
321.483	57.68
321.697	115.03
321.91	76.12
322.124	57.68
322.337	-30.38
322.55	-3.75
322.763	80.21
322.977	14.68
323.19	53.59
323.403	37.2
323.617	57.68
323.83	69.97
324.043	-40.62
324.256	80.21
324.469	-1.71
324.683	94.55
324.896	-36.52
325.109	-5.8
325.322	-18.09
325.535	90.45
325.748	37.2
325.962	18.77
326.175	47.44
326.388	117.08
326.601	110.93
326.814	-54.95
327.027	63.83
327.24	90.45
327.453	-61.1
327.666	18.77
327.879	82.26
328.092	43.35
328.305	12.63
328.518	29.01
328.731	2.39
328.944	-38.57
329.157	51.54
329.37	63.83
329.583	51.54
329.796	55.64
330.009	-97.96
330.222	37.2
330.435	53.59
330.648	61.78
330.861	127.32
331.073	8.53
331.286	41.3
331.499	39.25
331.712	-7.85
331.925	55.64
332.138	24.92
332.35	12.63
332.563	-46.76
332.776	72.02
332.989	6.49
333.202	45.4
333.414	10.58
333.627	47.44
333.84	-9.9
334.053	14.68
334.265	92.5
334.478	29.01
334.691	59.73
334.903	67.92
335.116	26.96
335.329	16.73
335.541	16.73
335.754	135.51
335.966	39.25
336.179	-7.85
336.392	-57
336.604	57.68
336.817	43.35
337.029	51.54
337.242	39.25
337.454	115.03
337.667	2.39
337.88	59.73
338.092	104.79
338.305	61.78
338.517	37.2
338.729	88.4
338.942	39.25
339.154	22.87
339.367	2.39
339.579	24.92
339.792	14.68
340.004	20.82
340.217	74.07
340.429	53.59
340.641	29.01
340.854	-16.04
341.066	29.01
341.278	61.78
341.491	61.78
341.703	33.11
341.915	35.16
342.128	35.16
342.34	16.73
342.552	22.87
342.764	47.44
342.977	55.64
343.189	84.31
343.401	127.32
343.613	20.82
343.826	-13.99
344.038	51.54
344.25	82.26
344.462	47.44
344.674	6.49
344.886	-9.9
345.099	45.4
345.311	24.92
345.523	37.2
345.735	-67.24
345.947	69.97
346.159	-7.85
346.371	4.44
346.583	2.39
346.795	104.79
347.007	-40.62
347.219	72.02
347.431	39.25
347.643	57.68
347.855	-7.85
348.067	45.4
348.279	-16.04
348.491	102.74
348.703	92.5
348.915	47.44
349.127	-46.76
349.339	45.4
349.551	49.49
349.763	92.5
349.975	72.02
350.187	33.11
350.399	182.61
350.61	-34.47
350.822	-20.14
351.034	-22.19
351.246	104.79
351.458	63.83
351.669	33.11
351.881	31.06
352.093	6.49
352.305	22.87
352.517	47.44
352.728	59.73
352.94	26.96
353.152	47.44
353.363	26.96
353.575	96.6
353.787	94.55
353.999	67.92
354.21	84.31
354.422	41.3
354.633	47.44
354.845	41.3
355.057	-5.8
355.268	20.82
355.48	-5.8
355.692	-1.71
355.903	41.3
356.115	63.83
356.326	-24.23
356.538	82.26
356.749	61.78
356.961	-40.62
357.172	26.96
357.384	43.35
357.595	143.7
357.807	47.44
358.018	16.73
358.23	-1.71
358.441	92.5
358.653	-57
358.864	18.77
359.075	-69.29
359.287	14.68
359.498	137.56
359.709	14.68
359.921	39.25
360.132	-11.95
360.344	4.44
360.555	49.49
360.766	45.4
360.977	-1.71
361.189	45.4
361.4	12.63
361.611	129.36
361.823	47.44
362.034	6.49
362.245	16.73
362.456	0.34
362.667	33.11
362.879	-22.19
363.09	26.96
363.301	69.97
363.512	-3.75
363.723	37.2
363.935	29.01
364.146	55.64
364.357	47.44
364.568	14.68
364.779	22.87
364.99	61.78
365.201	63.83
365.412	49.49
365.623	14.68
365.834	49.49
366.045	35.16
366.256	57.68
366.467	84.31
366.678	12.63
366.889	63.83
367.1	20.82
367.311	59.73
367.522	47.44
367.733	92.5
367.944	22.87
368.155	-13.99
368.366	16.73
368.577	76.12
368.788	55.64
368.999	49.49
369.209	55.64
369.42	67.92
369.631	217.43
369.842	35.16
370.053	35.16
370.264	96.6
370.474	16.73
370.685	43.35
370.896	18.77
371.107	29.01
371.317	65.88
371.528	-30.38
371.739	43.35
371.95	43.35
372.16	29.01
372.371	12.63
372.582	39.25
372.792	16.73
373.003	-20.14
373.214	43.35
373.424	4.44
373.635	8.53
373.846	147.8
374.056	35.16
374.267	-9.9
374.477	102.74
374.688	76.12
374.898	139.6
375.109	4.44
375.319	108.88
375.53	106.84
375.74	76.12
375.951	31.06
376.161	-11.95
376.372	76.12
376.582	69.97
376.793	10.58
377.003	65.88
377.214	8.53
377.424	65.88
377.635	72.02
377.845	131.41
378.055	76.12
378.266	45.4
378.476	57.68
378.686	2.39
378.897	-11.95
379.107	119.12
379.317	72.02
379.528	-28.33
379.738	96.6
379.948	-20.14
380.158	92.5
380.369	-32.43
380.579	72.02
380.789	72.02
380.999	49.49
381.21	26.96
381.42	119.12
381.63	-1.71
381.84	16.73
382.05	80.21
382.261	90.45
382.471	108.88
382.681	33.11
382.891	78.16
383.101	90.45
383.311	53.59
383.521	35.16
383.731	20.82
383.941	-28.33
384.151	-69.29
384.361	35.16
384.571	104.79
384.781	59.73
384.991	104.79
385.201	92.5
385.411	86.36
385.621	-13.99
385.831	49.49
386.041	2.39
386.251	20.82
386.461	170.32
386.671	24.92
386.881	57.68
387.091	18.77
387.301	45.4
387.511	16.73
387.72	100.69
387.93	49.49
388.14	26.96
388.35	55.64
388.56	51.54
388.769	86.36
388.979	90.45
389.189	26.96
389.399	92.5
389.609	45.4
389.818	37.2
390.028	61.78
390.238	31.06
390.447	53.59
390.657	31.06
390.867	-3.75
391.076	76.12
391.286	115.03
391.496	18.77
391.705	26.96
391.915	43.35
392.125	143.7
392.334	96.6
392.544	2.39
392.753	88.4
392.963	65.88
393.172	69.97
393.382	49.49
393.591	131.41
393.801	57.68
394.01	43.35
394.22	18.77
394.429	74.07
394.639	125.27
394.848	88.4
395.058	-11.95
395.267	92.5
395.477	80.21
395.686	41.3
395.895	100.69
396.105	80.21
396.314	65.88
396.524	98.64
396.733	100.69
396.942	141.65
397.152	92.5
397.361	80.21
397.57	18.77
397.78	72.02
397.989	98.64
398.198	184.66
398.407	26.96
398.617	45.4
398.826	125.27
399.035	63.83
399.244	-16.04
399.453	63.83
399.663	135.51
399.872	78.16
400.081	104.79
400.29	74.07
400.499	8.53
400.708	155.99
400.917	2.39
401.127	137.56
401.336	63.83
401.545	121.17
401.754	102.74
401.963	65.88
402.172	117.08
402.381	143.7
402.59	133.46
402.799	45.4
403.008	151.89
403.217	174.42
403.426	137.56
403.635	86.36
403.844	198.99
404.053	59.73
404.262	121.17
404.471	207.19
404.68	69.97
404.888	166.23
405.097	102.74
405.306	172.37
405.515	82.26
405.724	139.6
405.933	192.85
406.142	143.7
406.35	207.19
406.559	123.22
406.768	143.7
406.977	182.61
407.185	149.84
407.394	211.28
407.603	172.37
407.812	110.93
408.02	223.57
408.229	188.75
408.438	133.46
408.646	135.51
408.855	260.43
409.064	207.19
409.272	149.84
409.481	295.25
409.69	203.09
409.898	182.61
410.107	153.94
410.315	272.72
410.524	239.95
410.733	276.82
410.941	219.47
411.15	276.82
411.358	291.15
411.567	303.44
411.775	295.25
411.984	323.92
412.192	344.4
412.401	297.3
412.609	454.99
412.818	364.88
413.026	399.7
413.234	364.88
413.443	432.46
413.651	418.13
413.86	409.94
414.068	498
414.276	514.38
414.485	522.57
414.693	481.61
414.901	594.25
415.11	506.19
415.318	495.95
415.526	618.83
415.734	655.69
415.943	622.92
416.151	700.75
416.359	690.51
416.567	696.65
416.776	737.61
416.984	823.62
417.192	751.95
417.4	829.77
417.608	874.82
417.817	868.68
418.025	932.17
418.233	934.22
418.441	885.06
418.649	964.93
418.857	1022.28
419.065	958.79
419.273	1003.85
419.481	1053
419.689	1059.14
419.897	1202.5
420.105	1227.07
420.313	1253.7
420.521	1354.05
420.729	1401.15
420.937	1435.97
421.145	1468.73
421.353	1489.21
421.561	1585.47
421.769	1644.86
421.977	1714.49
422.185	1493.31
422.393	1808.7
422.601	1765.69
422.809	1960.25
423.017	1851.71
423.224	1966.39
423.432	2076.98
423.64	2056.5
423.848	2257.2
424.056	2156.85
424.263	2343.22
424.471	2292.02
424.679	2363.7
424.887	2509.1
425.094	2617.65
425.302	2611.5
425.51	2744.62
425.718	2707.76
425.925	2838.83
426.133	2861.35
426.341	2982.18
426.548	3197.22
426.756	3264.8
426.964	3193.12
427.171	3385.63
427.379	3553.57
427.586	3434.78
427.794	3696.92
428.001	3811.61
428.209	4161.81
428.417	3944.73
428.624	4135.19
428.832	4325.65
429.039	4313.36
429.247	4311.32
429.454	4694.29
429.662	4890.89
429.869	4565.26
430.076	4972.81
430.284	4851.98
430.491	4940.04
430.699	5200.13
430.906	5382.4
431.114	5306.63
431.321	5605.63
431.528	5611.78
431.736	6217.97
431.943	6217.97
432.15	6224.12
432.358	6297.85
432.565	6353.14
432.772	6586.61
432.979	6942.96
433.187	7121.13
433.394	7035.11
433.601	7469.28
433.808	7588.07
434.016	7354.6
434.223	7932.12
434.43	8282.33
434.637	8190.17
434.844	8607.95
435.052	9042.12
435.259	8677.58
435.466	8904.91
435.673	8960.2
435.88	9265.35
436.087	9771.2
436.294	9713.86
436.501	9603.27
436.708	9822.4
436.915	10291.38
437.122	10473.65
437.329	10582.2
437.537	10830
437.743	10887.34
437.95	11030.7
438.157	11690.15
438.364	12122.27
438.571	11913.38
438.778	12095.64
438.985	13095.05
439.192	12619.92
439.399	12925.07
439.606	12669.08
439.813	13387.91
440.02	14229.63
440.227	13932.67
440.433	13944.96
440.64	14303.36
440.847	14270.59
441.054	14778.48
441.261	15431.79
441.467	15200.37
441.674	15673.45
441.881	16029.79
442.088	16330.84
442.294	16009.31
442.501	16519.26
442.708	16885.84
442.914	17461.32
443.121	18479.16
443.328	17838.15
443.534	18968.63
443.741	18692.15
443.948	18214.98
444.154	19599.4
444.361	19521.58
444.568	19415.09
444.774	19339.31
444.981	19951.65
445.187	20332.58
445.394	21135.38
445.6	20885.53
445.807	23105.52
446.013	21897.22
446.22	22390.78
446.426	23508.97
446.633	23789.55
446.839	24618.97
447.046	23580.65
447.252	24717.28
447.459	24174.56
447.665	24532.96
447.871	25741.26
448.078	26742.72
448.284	25524.18
448.491	26144.71
448.697	27221.94
448.903	27555.76
449.11	27522.99
449.316	27379.64
449.522	28057.51
449.728	28438.44
449.935	29011.87
450.141	28903.32
450.347	29509.52
450.553	28643.23
450.76	28688.29
450.966	29814.67
451.172	29327.25
451.378	30556.04
451.584	29523.86
451.791	30015.37
451.997	30209.93
452.203	30531.46
452.409	30453.64
452.615	30566.27
452.821	29427.6
453.027	29046.68
453.233	30703.49
453.44	29519.76
453.646	29804.43
453.852	29712.27
454.058	30728.06
454.264	29568.91
454.47	30052.23
454.676	29187.99
454.882	30488.45
455.088	27695.02
455.294	27850.67
455.5	28286.89
455.705	28585.89
455.911	27375.54
456.117	26593.22
456.323	26615.74
456.529	25321.43
456.735	26288.07
456.941	25487.31
457.147	25434.07
457.352	24184.8
457.558	24256.48
457.764	24422.37
457.97	23885.8
458.176	22851.58
458.381	23166.96
458.587	21968.9
458.793	22099.97
458.999	20746.26
459.204	22212.61
459.41	21993.48
459.616	20064.29
459.821	20459.55
460.027	20557.85
460.233	20052
460.438	18831.41
460.644	19021.88
460.85	18081.86
461.055	17930.31
461.261	17901.64
461.466	16500.83
461.672	16146.53
461.878	17154.13
462.083	16056.42
462.289	15726.69
462.494	15614.06
462.7	14710.9
462.905	14362.75
463.111	15192.17
463.316	14970.99
463.522	14637.17
463.727	14874.74
463.932	14534.78
464.138	14596.21
464.343	14579.83
464.549	14299.26
464.754	14680.18
464.959	14538.87
465.165	14540.92
465.37	13858.95
465.575	13367.43
465.781	14026.88
465.986	14172.29
466.191	13721.73
466.397	13244.56
466.602	12685.46
466.807	13248.65
467.012	13338.76
467.218	13248.65
467.423	12976.27
467.628	12955.79
