Data from USB4F104151__38__12-23-48-764.txt Node

Date: Fri Mar 14 12:23:48 EDT 2025
User: louis
Spectrometer: USB4F10415
Trigger mode: 4
Integration Time (sec): 3.500000E-2
Scans to average: 1
Electric dark correction enabled: true
Nonlinearity correction enabled: false
Boxcar width: 0
XAxis mode: Wavelengths
Number of Pixels in Spectrum: 3648
>>>>>Begin Spectral Data<<<<<
178.204	-100.35
178.424	-100.35
178.644	-100.35
178.864	-139.26
179.084	-96.25
179.304	26.62
179.524	-63.49
179.744	-96.25
179.964	45.06
180.184	30.72
180.404	-10.24
180.624	-20.48
180.844	-36.86
181.064	32.77
181.283	34.82
181.503	-4.1
181.723	61.44
181.943	-16.38
182.163	108.54
182.383	-22.53
182.602	63.49
182.822	75.77
183.042	61.44
183.262	-14.34
183.482	47.1
183.701	67.58
183.921	16.38
184.141	2.05
184.361	77.82
184.58	59.39
184.8	40.96
185.02	57.34
185.239	49.15
185.459	-36.86
185.679	38.91
185.898	-34.82
186.118	32.77
186.338	-40.96
186.557	-4.1
186.777	-61.44
186.997	67.58
187.216	6.14
187.436	122.88
187.655	2.05
187.875	155.65
188.095	79.87
188.314	22.53
188.534	-14.34
188.753	-67.58
188.973	75.77
189.192	18.43
189.412	69.63
189.631	-20.48
189.851	81.92
190.07	59.39
190.29	22.53
190.509	-2.05
190.729	6.14
190.948	90.11
191.168	114.69
191.387	71.68
191.607	24.58
191.826	32.77
192.045	75.77
192.265	63.49
192.484	40.96
192.704	83.97
192.923	-71.68
193.142	182.27
193.362	6.14
193.581	14.34
193.8	28.67
194.02	34.82
194.239	18.43
194.458	-34.82
194.678	59.39
194.897	86.01
195.116	-55.3
195.335	-57.34
195.555	32.77
195.774	14.34
195.993	114.69
196.212	-18.43
196.432	6.14
196.651	55.3
196.87	53.25
197.089	86.01
197.308	40.96
197.528	34.82
197.747	-4.1
197.966	81.92
198.185	79.87
198.404	-47.1
198.623	30.72
198.842	81.92
199.062	104.45
199.281	112.64
199.5	16.38
199.719	38.91
199.938	-8.19
200.157	45.06
200.376	53.25
200.595	67.58
200.814	32.77
201.033	36.86
201.252	79.87
201.471	75.77
201.69	139.26
201.909	86.01
202.128	24.58
202.347	75.77
202.566	12.29
202.785	30.72
203.004	-10.24
203.223	108.54
203.442	-20.48
203.661	53.25
203.879	61.44
204.098	94.21
204.317	36.86
204.536	57.34
204.755	-14.34
204.974	77.82
205.193	4.1
205.411	86.01
205.63	83.97
205.849	98.3
206.068	53.25
206.287	32.77
206.505	102.4
206.724	90.11
206.943	-34.82
207.162	79.87
207.381	14.34
207.599	-20.48
207.818	104.45
208.037	-30.72
208.255	96.25
208.474	92.16
208.693	34.82
208.911	6.14
209.13	90.11
209.349	90.11
209.567	49.15
209.786	55.3
210.005	65.53
210.223	40.96
210.442	-94.21
210.661	28.67
210.879	86.01
211.098	32.77
211.316	69.63
211.535	43.01
211.753	24.58
211.972	90.11
212.191	73.73
212.409	43.01
212.628	114.69
212.846	16.38
213.065	43.01
213.283	110.59
213.502	53.25
213.72	-2.05
213.938	67.58
214.157	14.34
214.375	-4.1
214.594	34.82
214.812	49.15
215.031	65.53
215.249	26.62
215.467	18.43
215.686	-14.34
215.904	94.21
216.122	59.39
216.341	-2.05
216.559	-45.06
216.778	79.87
216.996	67.58
217.214	-40.96
217.432	38.91
217.651	61.44
217.869	51.2
218.087	61.44
218.306	43.01
218.524	51.2
218.742	-10.24
218.96	75.77
219.179	79.87
219.397	26.62
219.615	133.12
219.833	86.01
220.051	14.34
220.27	16.38
220.488	6.14
220.706	14.34
220.924	53.25
221.142	10.24
221.36	40.96
221.578	4.1
221.796	18.43
222.015	20.48
222.233	28.67
222.451	102.4
222.669	2.05
222.887	81.92
223.105	-53.25
223.323	-18.43
223.541	14.34
223.759	40.96
223.977	4.1
224.195	79.87
224.413	47.1
224.631	30.72
224.849	14.34
225.067	51.2
225.285	14.34
225.503	28.67
225.721	-14.34
225.939	-67.58
226.157	38.91
226.375	92.16
226.592	77.82
226.81	-18.43
227.028	55.3
227.246	75.77
227.464	-14.34
227.682	53.25
227.9	-22.53
228.117	65.53
228.335	86.01
228.553	22.53
228.771	43.01
228.989	100.35
229.206	75.77
229.424	-14.34
229.642	14.34
229.86	40.96
230.077	73.73
230.295	8.19
230.513	36.86
230.731	92.16
230.948	63.49
231.166	98.3
231.384	8.19
231.601	-20.48
231.819	47.1
232.037	22.53
232.254	65.53
232.472	34.82
232.689	4.1
232.907	38.91
233.125	38.91
233.342	34.82
233.56	-34.82
233.777	-12.29
233.995	53.25
234.213	141.31
234.43	83.97
234.648	10.24
234.865	-40.96
235.083	45.06
235.3	-20.48
235.518	51.2
235.735	118.78
235.953	36.86
236.17	-14.34
236.388	-12.29
236.605	6.14
236.822	6.14
237.04	100.35
237.257	-26.62
237.475	-22.53
237.692	53.25
237.909	32.77
238.127	-18.43
238.344	51.2
238.562	24.58
238.779	26.62
238.996	6.14
239.214	-47.1
239.431	18.43
239.648	75.77
239.865	77.82
240.083	53.25
240.3	67.58
240.517	10.24
240.735	45.06
240.952	79.87
241.169	14.34
241.386	88.06
241.603	36.86
241.821	-4.1
242.038	26.62
242.255	81.92
242.472	24.58
242.689	30.72
242.907	-77.82
243.124	-2.05
243.341	8.19
243.558	61.44
243.775	20.48
243.992	-18.43
244.209	86.01
244.426	94.21
244.643	71.68
244.86	14.34
245.078	51.2
245.295	30.72
245.512	133.12
245.729	24.58
245.946	67.58
246.163	90.11
246.38	43.01
246.597	28.67
246.814	22.53
247.031	49.15
247.248	24.58
247.464	59.39
247.681	10.24
247.898	38.91
248.115	26.62
248.332	32.77
248.549	75.77
248.766	77.82
248.983	94.21
249.2	75.77
249.417	106.49
249.633	112.64
249.85	75.77
250.067	12.29
250.284	90.11
250.501	22.53
250.717	40.96
250.934	55.3
251.151	-14.34
251.368	-0
251.585	36.86
251.801	81.92
252.018	-24.58
252.235	102.4
252.451	-0
252.668	2.05
252.885	149.5
253.102	69.63
253.318	-26.62
253.535	59.39
253.752	-26.62
253.968	59.39
254.185	30.72
254.401	79.87
254.618	26.62
254.835	-24.58
255.051	51.2
255.268	-14.34
255.484	63.49
255.701	106.49
255.917	43.01
256.134	30.72
256.351	4.1
256.567	88.06
256.784	16.38
257	-57.34
257.217	-18.43
257.433	139.26
257.65	20.48
257.866	61.44
258.082	-4.1
258.299	34.82
258.515	88.06
258.732	2.05
258.948	16.38
259.165	71.68
259.381	-22.53
259.597	45.06
259.814	22.53
260.03	53.25
260.246	96.25
260.463	96.25
260.679	110.59
260.895	26.62
261.112	-4.1
261.328	18.43
261.544	100.35
261.761	69.63
261.977	12.29
262.193	16.38
262.409	71.68
262.626	6.14
262.842	26.62
263.058	2.05
263.274	-28.67
263.49	12.29
263.707	4.1
263.923	55.3
264.139	-16.38
264.355	12.29
264.571	30.72
264.787	94.21
265.004	90.11
265.22	61.44
265.436	86.01
265.652	28.67
265.868	69.63
266.084	32.77
266.3	22.53
266.516	65.53
266.732	38.91
266.948	26.62
267.164	40.96
267.38	26.62
267.596	69.63
267.812	114.69
268.028	110.59
268.244	32.77
268.46	34.82
268.676	71.68
268.892	143.36
269.108	-26.62
269.324	86.01
269.54	-4.1
269.756	153.6
269.972	-16.38
270.188	40.96
270.403	12.29
270.619	75.77
270.835	45.06
271.051	24.58
271.267	28.67
271.483	69.63
271.698	32.77
271.914	67.58
272.13	65.53
272.346	43.01
272.562	-16.38
272.777	-4.1
272.993	-0
273.209	34.82
273.425	133.12
273.64	12.29
273.856	30.72
274.072	61.44
274.287	2.05
274.503	49.15
274.719	40.96
274.934	26.62
275.15	-14.34
275.366	47.1
275.581	28.67
275.797	10.24
276.012	28.67
276.228	49.15
276.444	-16.38
276.659	12.29
276.875	63.49
277.09	43.01
277.306	26.62
277.521	92.16
277.737	14.34
277.952	77.82
278.168	16.38
278.383	55.3
278.599	88.06
278.814	143.36
279.03	79.87
279.245	137.21
279.461	43.01
279.676	124.93
279.892	2.05
280.107	47.1
280.322	45.06
280.538	-14.34
280.753	-0
280.969	94.21
281.184	28.67
281.399	100.35
281.615	81.92
281.83	22.53
282.045	6.14
282.26	20.48
282.476	73.73
282.691	69.63
282.906	22.53
283.122	102.4
283.337	8.19
283.552	-2.05
283.767	-10.24
283.983	61.44
284.198	28.67
284.413	75.77
284.628	4.1
284.843	34.82
285.058	-0
285.274	16.38
285.489	98.3
285.704	61.44
285.919	14.34
286.134	-30.72
286.349	12.29
286.564	16.38
286.779	71.68
286.995	-22.53
287.21	-18.43
287.425	-12.29
287.64	-30.72
287.855	24.58
288.07	45.06
288.285	69.63
288.5	88.06
288.715	36.86
288.93	55.3
289.145	-43.01
289.36	96.25
289.575	14.34
289.79	28.67
290.004	10.24
290.219	118.78
290.434	18.43
290.649	71.68
290.864	32.77
291.079	36.86
291.294	16.38
291.509	59.39
291.724	75.77
291.938	43.01
292.153	36.86
292.368	-4.1
292.583	83.97
292.798	40.96
293.012	22.53
293.227	30.72
293.442	34.82
293.657	47.1
293.871	77.82
294.086	71.68
294.301	92.16
294.516	124.93
294.73	86.01
294.945	-40.96
295.16	4.1
295.374	110.59
295.589	81.92
295.804	59.39
296.018	49.15
296.233	124.93
296.447	32.77
296.662	51.2
296.877	34.82
297.091	114.69
297.306	53.25
297.52	26.62
297.735	8.19
297.949	-18.43
298.164	-14.34
298.378	4.1
298.593	-12.29
298.807	12.29
299.022	106.49
299.236	73.73
299.451	-0
299.665	26.62
299.88	34.82
300.094	75.77
300.309	8.19
300.523	65.53
300.737	-55.3
300.952	43.01
301.166	-20.48
301.381	-10.24
301.595	-14.34
301.809	92.16
302.024	55.3
302.238	32.77
302.452	49.15
302.667	10.24
302.881	34.82
303.095	-0
303.309	90.11
303.524	-4.1
303.738	-6.14
303.952	-65.54
304.166	81.92
304.381	40.96
304.595	161.79
304.809	81.92
305.023	16.38
305.237	28.67
305.452	-22.53
305.666	36.86
305.88	100.35
306.094	20.48
306.308	36.86
306.522	34.82
306.736	59.39
306.95	55.3
307.164	-14.34
307.379	69.63
307.593	59.39
307.807	92.16
308.021	61.44
308.235	51.2
308.449	-2.05
308.663	73.73
308.877	120.83
309.091	36.86
309.305	6.14
309.519	-40.96
309.733	53.25
309.947	18.43
310.161	67.58
310.374	100.35
310.588	139.26
310.802	36.86
311.016	20.48
311.23	32.77
311.444	-4.1
311.658	59.39
311.872	92.16
312.085	75.77
312.299	18.43
312.513	161.79
312.727	40.96
312.941	-0
313.154	51.2
313.368	28.67
313.582	36.86
313.796	-38.91
314.009	75.77
314.223	49.15
314.437	14.34
314.651	86.01
314.864	20.48
315.078	2.05
315.292	20.48
315.505	45.06
315.719	14.34
315.933	43.01
316.146	-28.67
316.36	6.14
316.573	71.68
316.787	49.15
317.001	34.82
317.214	16.38
317.428	53.25
317.641	-16.38
317.855	-40.96
318.068	131.07
318.282	86.01
318.495	114.69
318.709	106.49
318.922	104.45
319.136	67.58
319.349	36.86
319.563	61.44
319.776	40.96
319.99	26.62
320.203	14.34
320.417	-4.1
320.63	24.58
320.843	4.1
321.057	-12.29
321.27	81.92
321.483	55.3
321.697	83.97
321.91	100.35
322.124	71.68
322.337	98.3
322.55	-36.86
322.763	63.49
322.977	92.16
323.19	71.68
323.403	45.06
323.617	71.68
323.83	36.86
324.043	10.24
324.256	2.05
324.469	-0
324.683	26.62
324.896	-10.24
325.109	20.48
325.322	10.24
325.535	30.72
325.748	90.11
325.962	-120.83
326.175	73.73
326.388	69.63
326.601	108.54
326.814	79.87
327.027	-0
327.24	40.96
327.453	-61.44
327.666	14.34
327.879	30.72
328.092	122.88
328.305	12.29
328.518	26.62
328.731	14.34
328.944	71.68
329.157	32.77
329.37	32.77
329.583	34.82
329.796	83.97
330.009	16.38
330.222	73.73
330.435	73.73
330.648	69.63
330.861	53.25
331.073	83.97
331.286	22.53
331.499	98.3
331.712	6.14
331.925	96.25
332.138	-10.24
332.35	55.3
332.563	-12.29
332.776	81.92
332.989	81.92
333.202	120.83
333.414	129.02
333.627	53.25
333.84	28.67
334.053	79.87
334.265	53.25
334.478	63.49
334.691	118.78
334.903	-2.05
335.116	40.96
335.329	28.67
335.541	61.44
335.754	75.77
335.966	38.91
336.179	32.77
336.392	8.19
336.604	28.67
336.817	34.82
337.029	106.49
337.242	32.77
337.454	24.58
337.667	51.2
337.88	22.53
338.092	-0
338.305	106.49
338.517	-8.19
338.729	4.1
338.942	126.97
339.154	98.3
339.367	18.43
339.579	24.58
339.792	2.05
340.004	92.16
340.217	40.96
340.429	36.86
340.641	-12.29
340.854	-8.19
341.066	77.82
341.278	135.17
341.491	139.26
341.703	22.53
341.915	-8.19
342.128	16.38
342.34	24.58
342.552	112.64
342.764	34.82
342.977	24.58
343.189	92.16
343.401	51.2
343.613	-22.53
343.826	126.97
344.038	14.34
344.25	34.82
344.462	-8.19
344.674	69.63
344.886	55.3
345.099	47.1
345.311	124.93
345.523	133.12
345.735	-18.43
345.947	43.01
346.159	-12.29
346.371	98.3
346.583	36.86
346.795	-4.1
347.007	26.62
347.219	20.48
347.431	16.38
347.643	26.62
347.855	79.87
348.067	133.12
348.279	47.1
348.491	14.34
348.703	71.68
348.915	-18.43
349.127	51.2
349.339	-24.58
349.551	43.01
349.763	43.01
349.975	73.73
350.187	45.06
350.399	51.2
350.61	20.48
350.822	12.29
351.034	32.77
351.246	71.68
351.458	36.86
351.669	2.05
351.881	67.58
352.093	43.01
352.305	83.97
352.517	86.01
352.728	73.73
352.94	4.1
353.152	122.88
353.363	4.1
353.575	61.44
353.787	30.72
353.999	12.29
354.21	69.63
354.422	8.19
354.633	102.4
354.845	22.53
355.057	51.2
355.268	40.96
355.48	59.39
355.692	69.63
355.903	-10.24
356.115	40.96
356.326	-6.14
356.538	135.17
356.749	83.97
356.961	96.25
357.172	94.21
357.384	53.25
357.595	131.07
357.807	104.45
358.018	59.39
358.23	55.3
358.441	126.97
358.653	102.4
358.864	92.16
359.075	30.72
359.287	55.3
359.498	94.21
359.709	73.73
359.921	47.1
360.132	96.25
360.344	-18.43
360.555	-0
360.766	18.43
360.977	40.96
361.189	75.77
361.4	2.05
361.611	79.87
361.823	51.2
362.034	49.15
362.245	-14.34
362.456	59.39
362.667	16.38
362.879	24.58
363.09	38.91
363.301	69.63
363.512	126.97
363.723	14.34
363.935	61.44
364.146	-49.15
364.357	77.82
364.568	124.93
364.779	-12.29
364.99	108.54
365.201	10.24
365.412	110.59
365.623	-4.1
365.834	96.25
366.045	67.58
366.256	79.87
366.467	73.73
366.678	61.44
366.889	24.58
367.1	61.44
367.311	47.1
367.522	71.68
367.733	30.72
367.944	57.34
368.155	51.2
368.366	106.49
368.577	77.82
368.788	94.21
368.999	16.38
369.209	104.45
369.42	110.59
369.631	122.88
369.842	81.92
370.053	47.1
370.264	135.17
370.474	47.1
370.685	43.01
370.896	47.1
371.107	145.41
371.317	53.25
371.528	-4.1
371.739	38.91
371.95	67.58
372.16	55.3
372.371	32.77
372.582	61.44
372.792	40.96
373.003	133.12
373.214	88.06
373.424	-8.19
373.635	14.34
373.846	63.49
374.056	40.96
374.267	49.15
374.477	40.96
374.688	26.62
374.898	53.25
375.109	71.68
375.319	43.01
375.53	63.49
375.74	96.25
375.951	30.72
376.161	53.25
376.372	129.02
376.582	71.68
376.793	28.67
377.003	12.29
377.214	61.44
377.424	75.77
377.635	124.93
377.845	-51.2
378.055	77.82
378.266	-14.34
378.476	40.96
378.686	-47.1
378.897	-8.19
379.107	71.68
379.317	73.73
379.528	53.25
379.738	71.68
379.948	-16.38
380.158	71.68
380.369	40.96
380.579	38.91
380.789	2.05
380.999	26.62
381.21	83.97
381.42	133.12
381.63	88.06
381.84	135.17
382.05	94.21
382.261	14.34
382.471	151.55
382.681	129.02
382.891	151.55
383.101	26.62
383.311	98.3
383.521	30.72
383.731	100.35
383.941	-2.05
384.151	59.39
384.361	98.3
384.571	26.62
384.781	94.21
384.991	71.68
385.201	86.01
385.411	18.43
385.621	55.3
385.831	106.49
386.041	36.86
386.251	51.2
386.461	59.39
386.671	14.34
386.881	174.08
387.091	12.29
387.301	122.88
387.511	59.39
387.72	124.93
387.93	118.78
388.14	-14.34
388.35	83.97
388.56	184.32
388.769	71.68
388.979	83.97
389.189	55.3
389.399	47.1
389.609	118.78
389.818	124.93
390.028	83.97
390.238	53.25
390.447	55.3
390.657	10.24
390.867	32.77
391.076	-28.67
391.286	139.26
391.496	149.5
391.705	32.77
391.915	18.43
392.125	59.39
392.334	59.39
392.544	79.87
392.753	53.25
392.963	90.11
393.172	55.3
393.382	32.77
393.591	110.59
393.801	108.54
394.01	190.46
394.22	106.49
394.429	73.73
394.639	120.83
394.848	147.45
395.058	4.1
395.267	77.82
395.477	79.87
395.686	104.45
395.895	204.8
396.105	112.64
396.314	90.11
396.524	63.49
396.733	26.62
396.942	145.41
397.152	90.11
397.361	178.17
397.57	108.54
397.78	100.35
397.989	83.97
398.198	147.45
398.407	114.69
398.617	98.3
398.826	155.65
399.035	102.4
399.244	182.27
399.453	47.1
399.663	176.13
399.872	157.69
400.081	94.21
400.29	161.79
400.499	57.34
400.708	163.84
400.917	126.97
401.127	73.73
401.336	73.73
401.545	147.45
401.754	153.6
401.963	215.04
402.172	69.63
402.381	133.12
402.59	100.35
402.799	139.26
403.008	145.41
403.217	104.45
403.426	75.77
403.635	69.63
403.844	45.06
404.053	176.13
404.262	104.45
404.471	249.85
404.68	96.25
404.888	126.97
405.097	151.55
405.306	133.12
405.515	122.88
405.724	147.45
405.933	167.93
406.142	126.97
406.35	139.26
406.559	133.12
406.768	149.5
406.977	278.52
407.185	210.94
407.394	153.6
407.603	90.11
407.812	198.65
408.02	212.99
408.229	225.28
408.438	192.51
408.646	198.65
408.855	247.8
409.064	305.15
409.272	270.33
409.481	223.23
409.69	196.6
409.898	249.85
410.107	253.95
410.315	327.67
410.524	264.19
410.733	352.25
410.941	282.62
411.15	354.3
411.358	344.06
411.567	364.54
411.775	411.64
411.984	323.58
412.192	397.31
412.401	348.15
412.609	456.7
412.818	387.07
413.026	452.6
413.234	423.93
413.443	534.52
413.651	438.27
413.86	493.56
414.068	516.09
414.276	614.39
414.485	499.7
414.693	591.86
414.901	657.4
415.11	544.76
415.318	610.29
415.526	622.58
415.734	684.02
415.943	679.93
416.151	815.09
416.359	727.03
416.567	741.36
416.776	727.03
416.984	901.11
417.192	929.78
417.4	845.81
417.608	901.11
417.817	843.76
418.025	950.26
418.233	1040.37
418.441	983.02
418.649	1060.85
418.857	1196.01
419.065	1191.92
419.273	1103.86
419.481	1204.21
419.689	1210.35
419.897	1247.21
420.105	1312.75
420.313	1443.82
420.521	1497.07
420.729	1376.23
420.937	1449.96
421.145	1515.5
421.353	1662.95
421.561	1714.15
421.769	1734.63
421.977	1873.89
422.185	1796.07
422.393	1884.13
422.601	2105.31
422.809	2031.58
423.017	2009.06
423.224	2052.06
423.432	2115.55
423.64	2254.81
423.848	2455.51
424.056	2377.69
424.263	2562.01
424.471	2469.85
424.679	2625.5
424.887	2717.65
425.094	2871.25
425.302	2768.85
425.51	2809.81
425.718	2983.89
425.925	2879.44
426.133	3223.5
426.341	3243.98
426.548	3373
426.756	3413.96
426.964	3545.03
427.171	3715.02
427.379	3702.73
427.586	3858.37
427.794	3977.16
428.001	4196.29
428.209	4325.31
428.417	4302.78
428.624	4462.52
428.832	4513.72
429.039	4575.16
429.247	4544.44
429.454	5121.97
429.662	5289.9
429.869	5042.1
430.076	5429.17
430.284	5042.1
430.491	5474.22
430.699	5744.55
430.906	5586.86
431.114	5826.47
431.321	6037.41
431.528	5961.64
431.736	6465.44
431.943	6832.02
432.15	6668.19
432.358	6576.03
432.565	7071.64
432.772	7034.77
432.979	7520.14
433.187	7395.22
433.394	7407.5
433.601	7976.84
433.808	7999.37
434.016	8023.94
434.223	8288.13
434.43	8980.34
434.637	8791.93
434.844	9199.48
435.052	9260.91
435.259	9258.87
435.466	9559.92
435.673	9549.68
435.88	10063.72
436.087	10514.27
436.294	10684.25
436.501	10223.46
436.708	10473.31
436.915	11036.5
437.122	11480.91
437.329	11284.31
437.537	11566.93
437.743	11728.72
437.95	11761.48
438.157	12490.56
438.364	12728.13
438.571	12785.47
438.778	13035.32
438.985	14288.68
439.192	13442.87
439.399	13961
439.606	13741.87
439.813	14513.95
440.02	15310.61
440.227	15177.5
440.433	15025.95
440.64	15367.96
440.847	15240.98
441.054	15650.58
441.261	16539.4
441.467	16322.31
441.674	16875.26
441.881	17381.11
442.088	17635.06
442.294	17012.48
442.501	17620.72
442.708	18278.12
442.914	18679.52
443.121	19705.56
443.328	18876.13
443.534	20506.31
443.741	20086.48
443.948	19287.77
444.154	21151.42
444.361	21079.74
444.568	21149.37
444.774	21182.14
444.981	21524.15
445.187	21888.69
445.394	22826.66
445.6	22636.2
445.807	24716.93
446.013	23428.76
446.22	24389.26
446.426	25151.1
446.633	25495.16
446.839	26209.9
447.046	25185.92
447.252	26576.49
447.459	26762.86
447.665	26445.42
447.871	27248.22
448.078	28874.31
448.284	27641.43
448.491	28026.45
448.697	29300.29
448.903	29462.08
449.11	29935.16
449.316	29158.98
449.522	29914.68
449.728	30735.91
449.935	30928.42
450.141	30854.7
450.347	31372.83
450.553	30379.57
450.76	30946.86
450.966	32290.32
451.172	31544.86
451.378	32859.66
451.584	31966.74
451.791	32568.85
451.997	32378.39
452.203	33465.86
452.409	33508.86
452.615	32853.51
452.821	31565.34
453.027	31241.76
453.233	32917
453.44	31995.42
453.646	32044.57
453.852	31815.19
454.058	32714.25
454.264	31624.73
454.47	32286.23
454.676	31712.8
454.882	32548.37
455.088	29834.81
455.294	30125.62
455.5	30774.83
455.705	30873.13
455.911	29916.73
456.117	29120.07
456.323	28663.37
456.529	26932.84
456.735	28259.92
456.941	27612.76
457.147	27115.11
457.352	26170.99
457.558	26109.55
457.764	26175.09
457.97	25849.46
458.176	24985.22
458.381	25052.8
458.587	23807.64
458.793	23690.9
458.999	22527.66
459.204	24379.02
459.41	23346.84
459.616	22046.38
459.821	21683.89
460.027	21923.51
460.233	21499.58
460.438	20184.78
460.644	20414.15
460.85	19531.48
461.055	19465.94
461.261	19404.5
461.466	17690.35
461.672	17446.65
461.878	18470.63
462.083	17288.95
462.289	16908.03
462.494	16824.06
462.7	16039.69
462.905	15689.49
463.111	16367.37
463.316	16420.61
463.522	15922.96
463.727	16029.45
463.932	15755.02
464.138	15701.78
464.343	15730.45
464.549	15390.49
464.754	15902.48
464.959	15822.61
465.165	15572.75
465.37	14952.22
465.575	14460.71
465.781	15189.78
465.986	15144.73
466.191	14569.25
466.397	14176.04
466.602	13465.39
466.807	14083.88
467.012	14479.14
467.218	14049.07
467.423	13848.36
467.628	14083.88
