Data from USB4F104151__66__12-24-13-576.txt Node

Date: Fri Mar 14 12:24:13 EDT 2025
User: louis
Spectrometer: USB4F10415
Trigger mode: 4
Integration Time (sec): 3.500000E-2
Scans to average: 1
Electric dark correction enabled: true
Nonlinearity correction enabled: false
Boxcar width: 0
XAxis mode: Wavelengths
Number of Pixels in Spectrum: 3648
>>>>>Begin Spectral Data<<<<<
178.204	-120.66
178.424	-120.66
178.644	-120.66
178.864	-32.6
179.084	-200.53
179.304	-12.12
179.524	6.31
179.744	-44.88
179.964	-20.31
180.184	-20.31
180.404	39.08
180.624	18.6
180.844	-16.21
181.064	0.17
181.283	86.19
181.503	-46.93
181.723	10.41
181.943	18.6
182.163	131.24
182.383	34.99
182.602	100.52
182.822	106.67
183.042	67.75
183.262	-14.17
183.482	67.75
183.701	71.85
183.921	121
184.141	22.7
184.361	16.55
184.58	16.55
184.8	61.61
185.02	34.99
185.239	47.27
185.459	55.47
185.679	102.57
185.898	59.56
186.118	80.04
186.338	135.34
186.557	84.14
186.777	57.51
186.997	67.75
187.216	-32.6
187.436	84.14
187.655	114.86
187.875	-14.17
188.095	71.85
188.314	100.52
188.534	39.08
188.753	4.27
188.973	80.04
189.192	65.71
189.412	84.14
189.631	26.79
189.851	43.18
190.07	131.24
190.29	-3.93
190.509	108.71
190.729	-5.97
190.948	55.47
191.168	166.06
191.387	39.08
191.607	73.9
191.826	39.08
192.045	92.33
192.265	80.04
192.484	86.19
192.704	43.18
192.923	-44.88
193.142	145.58
193.362	135.34
193.581	61.61
193.8	57.51
194.02	65.71
194.239	73.9
194.458	14.51
194.678	47.27
194.897	41.13
195.116	139.43
195.335	6.31
195.555	75.95
195.774	26.79
195.993	86.19
196.212	6.31
196.432	51.37
196.651	-1.88
196.87	69.8
197.089	88.23
197.308	49.32
197.528	86.19
197.747	-14.17
197.966	114.86
198.185	108.71
198.404	10.41
198.623	41.13
198.842	6.31
199.062	131.24
199.281	116.9
199.5	8.36
199.719	53.42
199.938	59.56
200.157	131.24
200.376	41.13
200.595	57.51
200.814	69.8
201.033	41.13
201.252	135.34
201.471	100.52
201.69	108.71
201.909	55.47
202.128	24.75
202.347	47.27
202.566	53.42
202.785	6.31
203.004	-5.97
203.223	149.67
203.442	45.23
203.661	20.65
203.879	102.57
204.098	77.99
204.317	18.6
204.536	86.19
204.755	53.42
204.974	102.57
205.193	63.66
205.411	143.53
205.63	110.76
205.849	73.9
206.068	106.67
206.287	67.75
206.505	155.82
206.724	41.13
206.943	-24.4
207.162	71.85
207.381	-10.07
207.599	51.37
207.818	18.6
208.037	22.7
208.255	-14.17
208.474	92.33
208.693	100.52
208.911	32.94
209.13	0.17
209.349	98.47
209.567	104.62
209.786	73.9
210.005	94.38
210.223	32.94
210.442	8.36
210.661	16.55
210.879	20.65
211.098	-28.5
211.316	37.03
211.535	90.28
211.753	84.14
211.972	61.61
212.191	12.46
212.409	28.84
212.628	59.56
212.846	94.38
213.065	77.99
213.283	20.65
213.502	53.42
213.72	53.42
213.938	43.18
214.157	39.08
214.375	116.9
214.594	47.27
214.812	147.62
215.031	69.8
215.249	53.42
215.467	39.08
215.686	6.31
215.904	86.19
216.122	22.7
216.341	20.65
216.559	49.32
216.778	86.19
216.996	108.71
217.214	37.03
217.432	43.18
217.651	63.66
217.869	65.71
218.087	20.65
218.306	49.32
218.524	75.95
218.742	22.7
218.96	45.23
219.179	84.14
219.397	16.55
219.615	110.76
219.833	24.75
220.051	37.03
220.27	94.38
220.488	28.84
220.706	43.18
220.924	59.56
221.142	20.65
221.36	51.37
221.578	73.9
221.796	75.95
222.015	65.71
222.233	55.47
222.451	155.82
222.669	30.89
222.887	82.09
223.105	14.51
223.323	30.89
223.541	24.75
223.759	-3.93
223.977	86.19
224.195	84.14
224.413	114.86
224.631	129.19
224.849	-8.02
225.067	55.47
225.285	55.47
225.503	37.03
225.721	6.31
225.939	57.51
226.157	49.32
226.375	43.18
226.592	45.23
226.81	34.99
227.028	77.99
227.246	129.19
227.464	82.09
227.682	88.23
227.9	30.89
228.117	104.62
228.335	71.85
228.553	2.22
228.771	30.89
228.989	61.61
229.206	118.95
229.424	2.22
229.642	-18.26
229.86	-26.45
230.077	114.86
230.295	57.51
230.513	32.94
230.731	90.28
230.948	155.82
231.166	143.53
231.384	41.13
231.601	32.94
231.819	45.23
232.037	86.19
232.254	14.51
232.472	123.05
232.689	32.94
232.907	100.52
233.125	43.18
233.342	39.08
233.56	88.23
233.777	49.32
233.995	53.42
234.213	127.14
234.43	106.67
234.648	59.56
234.865	10.41
235.083	80.04
235.3	16.55
235.518	63.66
235.735	84.14
235.953	69.8
236.17	47.27
236.388	73.9
236.605	67.75
236.822	137.38
237.04	80.04
237.257	45.23
237.475	53.42
237.692	86.19
237.909	123.05
238.127	10.41
238.344	129.19
238.562	108.71
238.779	59.56
238.996	18.6
239.214	-18.26
239.431	133.29
239.648	73.9
239.865	86.19
240.083	96.43
240.3	10.41
240.517	22.7
240.735	61.61
240.952	96.43
241.169	53.42
241.386	71.85
241.603	45.23
241.821	30.89
242.038	98.47
242.255	110.76
242.472	49.32
242.689	116.9
242.907	24.75
243.124	26.79
243.341	84.14
243.558	32.94
243.775	2.22
243.992	2.22
244.209	71.85
244.426	108.71
244.643	114.86
244.86	22.7
245.078	8.36
245.295	49.32
245.512	4.27
245.729	2.22
245.946	63.66
246.163	180.39
246.38	63.66
246.597	108.71
246.814	51.37
247.031	73.9
247.248	10.41
247.464	49.32
247.681	65.71
247.898	100.52
248.115	45.23
248.332	39.08
248.549	94.38
248.766	110.76
248.983	61.61
249.2	77.99
249.417	123.05
249.633	26.79
249.85	32.94
250.067	-8.02
250.284	86.19
250.501	94.38
250.717	82.09
250.934	59.56
251.151	63.66
251.368	34.99
251.585	0.17
251.801	61.61
252.018	51.37
252.235	106.67
252.451	-24.4
252.668	143.53
252.885	106.67
253.102	-1.88
253.318	22.7
253.535	73.9
253.752	55.47
253.968	53.42
254.185	49.32
254.401	22.7
254.618	16.55
254.835	22.7
255.051	157.86
255.268	75.95
255.484	-10.07
255.701	61.61
255.917	53.42
256.134	-10.07
256.351	28.84
256.567	-22.36
256.784	49.32
257	-14.17
257.217	100.52
257.433	32.94
257.65	75.95
257.866	77.99
258.082	2.22
258.299	8.36
258.515	104.62
258.732	84.14
258.948	59.56
259.165	63.66
259.381	30.89
259.597	0.17
259.814	-22.36
260.03	69.8
260.246	69.8
260.463	75.95
260.679	110.76
260.895	67.75
261.112	65.71
261.328	63.66
261.544	67.75
261.761	153.77
261.977	28.84
262.193	71.85
262.409	73.9
262.626	-10.07
262.842	24.75
263.058	4.27
263.274	67.75
263.49	125.1
263.707	110.76
263.923	28.84
264.139	20.65
264.355	63.66
264.571	96.43
264.787	59.56
265.004	88.23
265.22	41.13
265.436	57.51
265.652	16.55
265.868	24.75
266.084	30.89
266.3	135.34
266.516	96.43
266.732	49.32
266.948	112.81
267.164	30.89
267.38	28.84
267.596	26.79
267.812	149.67
268.028	4.27
268.244	45.23
268.46	14.51
268.676	-5.97
268.892	96.43
269.108	16.55
269.324	53.42
269.54	112.81
269.756	149.67
269.972	108.71
270.188	26.79
270.403	67.75
270.619	49.32
270.835	123.05
271.051	73.9
271.267	37.03
271.483	61.61
271.698	39.08
271.914	43.18
272.13	112.81
272.346	20.65
272.562	114.86
272.777	104.62
272.993	88.23
273.209	16.55
273.425	63.66
273.64	18.6
273.856	80.04
274.072	102.57
274.287	-3.93
274.503	53.42
274.719	55.47
274.934	45.23
275.15	8.36
275.366	16.55
275.581	-40.79
275.797	73.9
276.012	104.62
276.228	6.31
276.444	12.46
276.659	88.23
276.875	2.22
277.09	63.66
277.306	24.75
277.521	59.56
277.737	26.79
277.952	108.71
278.168	-10.07
278.383	106.67
278.599	14.51
278.814	69.8
279.03	112.81
279.245	157.86
279.461	45.23
279.676	75.95
279.892	45.23
280.107	-53.08
280.322	92.33
280.538	47.27
280.753	129.19
280.969	98.47
281.184	20.65
281.399	108.71
281.615	73.9
281.83	39.08
282.045	-14.17
282.26	57.51
282.476	6.31
282.691	114.86
282.906	47.27
283.122	22.7
283.337	57.51
283.552	26.79
283.767	45.23
283.983	22.7
284.198	30.89
284.413	77.99
284.628	61.61
284.843	-20.31
285.058	108.71
285.274	28.84
285.489	-48.98
285.704	98.47
285.919	0.17
286.134	88.23
286.349	63.66
286.564	47.27
286.779	139.43
286.995	16.55
287.21	32.94
287.425	-1.88
287.64	37.03
287.855	121
288.07	10.41
288.285	135.34
288.5	139.43
288.715	63.66
288.93	-16.21
289.145	55.47
289.36	147.62
289.575	61.61
289.79	24.75
290.004	104.62
290.219	172.2
290.434	55.47
290.649	65.71
290.864	39.08
291.079	-5.97
291.294	82.09
291.509	118.95
291.724	110.76
291.938	57.51
292.153	106.67
292.368	47.27
292.583	75.95
292.798	12.46
293.012	80.04
293.227	137.38
293.442	-8.02
293.657	61.61
293.871	108.71
294.086	143.53
294.301	139.43
294.516	112.81
294.73	69.8
294.945	16.55
295.16	121
295.374	86.19
295.589	59.56
295.804	55.47
296.018	108.71
296.233	37.03
296.447	69.8
296.662	84.14
296.877	86.19
297.091	16.55
297.306	24.75
297.52	61.61
297.735	88.23
297.949	43.18
298.164	8.36
298.378	51.37
298.593	45.23
298.807	125.1
299.022	22.7
299.236	94.38
299.451	77.99
299.665	14.51
299.88	-1.88
300.094	82.09
300.309	4.27
300.523	-22.36
300.737	41.13
300.952	98.47
301.166	84.14
301.381	102.57
301.595	100.52
301.809	123.05
302.024	34.99
302.238	112.81
302.452	100.52
302.667	92.33
302.881	61.61
303.095	125.1
303.309	73.9
303.524	20.65
303.738	108.71
303.952	30.89
304.166	116.9
304.381	-1.88
304.595	86.19
304.809	51.37
305.023	77.99
305.237	47.27
305.452	18.6
305.666	129.19
305.88	129.19
306.094	61.61
306.308	108.71
306.522	10.41
306.736	86.19
306.95	53.42
307.164	0.17
307.379	69.8
307.593	69.8
307.807	65.71
308.021	69.8
308.235	69.8
308.449	12.46
308.663	47.27
308.877	69.8
309.091	32.94
309.305	98.47
309.519	12.46
309.733	61.61
309.947	12.46
310.161	108.71
310.374	37.03
310.588	67.75
310.802	26.79
311.016	53.42
311.23	59.56
311.444	32.94
311.658	43.18
311.872	84.14
312.085	90.28
312.299	121
312.513	141.48
312.727	80.04
312.941	67.75
313.154	71.85
313.368	-10.07
313.582	69.8
313.796	18.6
314.009	75.95
314.223	22.7
314.437	71.85
314.651	131.24
314.864	20.65
315.078	67.75
315.292	67.75
315.505	18.6
315.719	24.75
315.933	8.36
316.146	-34.64
316.36	65.71
316.573	80.04
316.787	10.41
317.001	77.99
317.214	47.27
317.428	71.85
317.641	-1.88
317.855	41.13
318.068	90.28
318.282	57.51
318.495	131.24
318.709	129.19
318.922	26.79
319.136	127.14
319.349	106.67
319.563	61.61
319.776	61.61
319.99	2.22
320.203	80.04
320.417	80.04
320.63	61.61
320.843	131.24
321.057	45.23
321.27	123.05
321.483	34.99
321.697	43.18
321.91	69.8
322.124	75.95
322.337	88.23
322.55	30.89
322.763	41.13
322.977	-14.17
323.19	18.6
323.403	49.32
323.617	24.75
323.83	108.71
324.043	61.61
324.256	24.75
324.469	65.71
324.683	100.52
324.896	45.23
325.109	75.95
325.322	20.65
325.535	82.09
325.748	24.75
325.962	-26.45
326.175	86.19
326.388	59.56
326.601	96.43
326.814	28.84
327.027	104.62
327.24	129.19
327.453	20.65
327.666	106.67
327.879	100.52
328.092	94.38
328.305	77.99
328.518	24.75
328.731	55.47
328.944	149.67
329.157	71.85
329.37	-42.84
329.583	71.85
329.796	112.81
330.009	45.23
330.222	92.33
330.435	96.43
330.648	147.62
330.861	28.84
331.073	80.04
331.286	49.32
331.499	90.28
331.712	12.46
331.925	86.19
332.138	96.43
332.35	67.75
332.563	43.18
332.776	104.62
332.989	10.41
333.202	61.61
333.414	102.57
333.627	61.61
333.84	108.71
334.053	104.62
334.265	30.89
334.478	123.05
334.691	84.14
334.903	59.56
335.116	57.51
335.329	61.61
335.541	57.51
335.754	135.34
335.966	73.9
336.179	8.36
336.392	104.62
336.604	49.32
336.817	121
337.029	90.28
337.242	96.43
337.454	77.99
337.667	106.67
337.88	84.14
338.092	32.94
338.305	127.14
338.517	-22.36
338.729	49.32
338.942	37.03
339.154	-30.55
339.367	61.61
339.579	123.05
339.792	2.22
340.004	147.62
340.217	20.65
340.429	22.7
340.641	53.42
340.854	47.27
341.066	28.84
341.278	45.23
341.491	88.23
341.703	-10.07
341.915	39.08
342.128	71.85
342.34	57.51
342.552	86.19
342.764	114.86
342.977	82.09
343.189	112.81
343.401	55.47
343.613	-5.97
343.826	26.79
344.038	-14.17
344.25	49.32
344.462	28.84
344.674	77.99
344.886	18.6
345.099	104.62
345.311	51.37
345.523	75.95
345.735	47.27
345.947	59.56
346.159	59.56
346.371	137.38
346.583	55.47
346.795	94.38
347.007	32.94
347.219	114.86
347.431	45.23
347.643	133.29
347.855	75.95
348.067	73.9
348.279	2.22
348.491	77.99
348.703	75.95
348.915	116.9
349.127	49.32
349.339	37.03
349.551	-14.17
349.763	65.71
349.975	100.52
350.187	102.57
350.399	84.14
350.61	116.9
350.822	75.95
351.034	121
351.246	43.18
351.458	90.28
351.669	26.79
351.881	176.3
352.093	69.8
352.305	170.15
352.517	143.53
352.728	49.32
352.94	84.14
353.152	94.38
353.363	71.85
353.575	37.03
353.787	168.1
353.999	80.04
354.21	118.95
354.422	45.23
354.633	49.32
354.845	41.13
355.057	47.27
355.268	34.99
355.48	133.29
355.692	45.23
355.903	75.95
356.115	55.47
356.326	84.14
356.538	170.15
356.749	43.18
356.961	123.05
357.172	102.57
357.384	28.84
357.595	22.7
357.807	2.22
358.018	37.03
358.23	28.84
358.441	110.76
358.653	145.58
358.864	39.08
359.075	59.56
359.287	45.23
359.498	88.23
359.709	106.67
359.921	110.76
360.132	129.19
360.344	41.13
360.555	65.71
360.766	71.85
360.977	18.6
361.189	69.8
361.4	37.03
361.611	151.72
361.823	39.08
362.034	84.14
362.245	104.62
362.456	59.56
362.667	73.9
362.879	14.51
363.09	61.61
363.301	116.9
363.512	92.33
363.723	28.84
363.935	82.09
364.146	151.72
364.357	22.7
364.568	121
364.779	96.43
364.99	20.65
365.201	137.38
365.412	112.81
365.623	10.41
365.834	98.47
366.045	63.66
366.256	100.52
366.467	12.46
366.678	39.08
366.889	110.76
367.1	77.99
367.311	127.14
367.522	-8.02
367.733	61.61
367.944	102.57
368.155	37.03
368.366	28.84
368.577	37.03
368.788	133.29
368.999	2.22
369.209	55.47
369.42	137.38
369.631	180.39
369.842	129.19
370.053	39.08
370.264	153.77
370.474	69.8
370.685	49.32
370.896	73.9
371.107	137.38
371.317	-42.84
371.528	82.09
371.739	118.95
371.95	86.19
372.16	121
372.371	67.75
372.582	104.62
372.792	121
373.003	34.99
373.214	92.33
373.424	92.33
373.635	73.9
373.846	98.47
374.056	137.38
374.267	28.84
374.477	22.7
374.688	16.55
374.898	47.27
375.109	59.56
375.319	75.95
375.53	84.14
375.74	77.99
375.951	90.28
376.161	137.38
376.372	102.57
376.582	110.76
376.793	10.41
377.003	102.57
377.214	24.75
377.424	98.47
377.635	104.62
377.845	39.08
378.055	69.8
378.266	2.22
378.476	53.42
378.686	47.27
378.897	106.67
379.107	102.57
379.317	114.86
379.528	129.19
379.738	137.38
379.948	77.99
380.158	157.86
380.369	59.56
380.579	73.9
380.789	88.23
380.999	45.23
381.21	114.86
381.42	116.9
381.63	43.18
381.84	86.19
382.05	77.99
382.261	73.9
382.471	98.47
382.681	37.03
382.891	153.77
383.101	186.54
383.311	-5.97
383.521	32.94
383.731	121
383.941	45.23
384.151	98.47
384.361	43.18
384.571	106.67
384.781	121
384.991	114.86
385.201	45.23
385.411	69.8
385.621	92.33
385.831	143.53
386.041	53.42
386.251	61.61
386.461	102.57
386.671	61.61
386.881	71.85
387.091	80.04
387.301	94.38
387.511	127.14
387.72	69.8
387.93	43.18
388.14	0.17
388.35	37.03
388.56	118.95
388.769	121
388.979	80.04
389.189	67.75
389.399	98.47
389.609	100.52
389.818	67.75
390.028	149.67
390.238	106.67
390.447	104.62
390.657	47.27
390.867	61.61
391.076	26.79
391.286	65.71
391.496	30.89
391.705	92.33
391.915	108.71
392.125	55.47
392.334	80.04
392.544	49.32
392.753	110.76
392.963	63.66
393.172	18.6
393.382	69.8
393.591	94.38
393.801	80.04
394.01	157.86
394.22	73.9
394.429	37.03
394.639	112.81
394.848	127.14
395.058	94.38
395.267	57.51
395.477	106.67
395.686	75.95
395.895	125.1
396.105	194.73
396.314	45.23
396.524	96.43
396.733	102.57
396.942	121
397.152	110.76
397.361	145.58
397.57	151.72
397.78	164.01
397.989	98.47
398.198	180.39
398.407	73.9
398.617	96.43
398.826	39.08
399.035	69.8
399.244	135.34
399.453	125.1
399.663	82.09
399.872	135.34
400.081	151.72
400.29	159.91
400.499	137.38
400.708	182.44
400.917	164.01
401.127	100.52
401.336	110.76
401.545	88.23
401.754	133.29
401.963	172.2
402.172	110.76
402.381	67.75
402.59	112.81
402.799	88.23
403.008	145.58
403.217	104.62
403.426	174.25
403.635	204.97
403.844	104.62
404.053	149.67
404.262	114.86
404.471	217.26
404.68	161.96
404.888	133.29
405.097	61.61
405.306	180.39
405.515	209.06
405.724	159.91
405.933	104.62
406.142	174.25
406.35	213.16
406.559	209.06
406.768	190.63
406.977	241.83
407.185	211.11
407.394	245.93
407.603	247.97
407.812	227.5
408.02	254.12
408.229	258.21
408.438	213.16
408.646	223.4
408.855	288.93
409.064	241.83
409.272	239.78
409.481	241.83
409.69	241.83
409.898	319.65
410.107	301.22
410.315	293.03
410.524	362.66
410.733	354.47
410.941	297.13
411.15	305.32
411.358	282.79
411.567	350.37
411.775	354.47
411.984	422.05
412.192	409.76
412.401	368.81
412.609	508.07
412.818	458.92
413.026	465.06
413.234	463.01
413.443	522.4
413.651	409.76
413.86	475.3
414.068	536.74
414.276	481.44
414.485	641.18
414.693	637.09
414.901	622.75
415.11	673.95
415.318	632.99
415.526	665.76
415.734	669.86
415.943	708.77
416.151	796.83
416.359	786.59
416.567	772.25
416.776	858.27
416.984	940.19
417.192	944.28
417.4	874.65
417.608	878.75
417.817	903.32
418.025	907.42
418.233	1032.35
418.441	1071.26
418.649	1151.13
418.857	1185.94
419.065	1212.57
419.273	1104.03
419.481	1175.7
419.689	1171.61
419.897	1247.38
420.105	1325.21
420.313	1480.85
420.521	1530
420.729	1562.77
420.937	1499.28
421.145	1648.79
421.353	1691.79
421.561	1677.46
421.769	1757.33
421.977	1863.82
422.185	1863.82
422.393	1822.86
422.601	1986.7
422.809	2048.14
423.017	2042
423.224	2111.63
423.432	2207.88
423.64	2302.09
423.848	2404.49
424.056	2361.48
424.263	2490.5
424.471	2521.22
424.679	2621.57
424.887	2664.58
425.094	2734.21
425.302	2773.12
425.51	3004.54
425.718	3063.93
425.925	3049.6
426.133	3027.07
426.341	3352.7
426.548	3444.85
426.756	3457.14
426.964	3532.92
427.171	3821.68
427.379	3997.81
427.586	3924.08
427.794	3944.56
428.001	4157.55
428.209	4278.38
428.417	4274.28
428.624	4565.09
428.832	4655.2
429.039	4616.29
429.247	4606.05
429.454	4917.34
429.662	5347.42
429.869	4991.07
430.076	5191.77
430.284	5349.47
430.491	5341.27
430.699	5736.53
430.906	5634.13
431.114	5750.87
431.321	6049.87
431.528	6099.02
431.736	6461.51
431.943	6854.72
432.15	6645.83
432.358	6742.08
432.565	6950.98
432.772	7034.94
432.979	7456.82
433.187	7485.5
433.394	7663.67
433.601	8138.8
433.808	8353.84
434.016	8149.04
434.223	8370.22
434.43	8974.37
434.637	8652.84
434.844	9433.11
435.052	9353.24
435.259	9316.38
435.466	9592.86
435.673	9676.82
435.88	10119.18
436.087	10764.29
436.294	10700.81
436.501	10309.65
436.708	10356.75
436.915	10979.33
437.122	11489.28
437.329	11268.09
437.537	11622.39
437.743	11726.84
437.95	11927.54
438.157	12449.77
438.364	12959.72
438.571	12756.97
438.778	12926.95
438.985	14245.84
439.192	13496.28
439.399	14006.23
439.606	13664.22
439.813	14542.8
440.02	15179.72
440.227	14991.3
440.433	14956.49
440.64	15593.4
440.847	15376.32
441.054	15796.15
441.261	16752.56
441.467	16500.65
441.674	16955.3
441.881	17616.8
442.088	17250.21
442.294	17393.57
442.501	17649.57
442.708	18120.6
442.914	18868.11
443.121	19726.21
443.328	19136.39
443.534	20471.67
443.741	20014.97
443.948	19584.9
444.154	21178.22
444.361	21086.06
444.568	21208.94
444.774	21245.8
444.981	21483.36
445.187	22120.28
445.394	22865.74
445.6	22964.04
445.807	24987.44
446.013	23674.69
446.22	24211.26
446.426	25030.44
446.633	25507.62
446.839	26304.28
447.046	25308.97
447.252	26406.68
447.459	26658.58
447.665	26527.51
447.871	27772.67
448.078	28870.39
448.284	27561.73
448.491	28425.98
448.697	29226.73
448.903	29802.21
449.11	29650.66
449.316	29222.64
449.522	29923.04
449.728	30912.21
449.935	30932.69
450.141	30867.16
450.347	31813.32
450.553	30596.82
450.76	31389.39
450.966	32341.69
451.172	32267.97
451.378	32714.42
451.584	31723.21
451.791	32855.73
451.997	32474.81
452.203	32974.52
452.409	33058.48
452.615	33005.24
452.821	31788.74
453.027	31536.84
453.233	33146.54
453.44	32007.87
453.646	32118.46
453.852	32319.17
454.058	32784.05
454.264	31669.96
454.47	32505.53
454.676	31776.45
454.882	32751.29
455.088	29773.54
455.294	30443.23
455.5	31026.9
455.705	30983.89
455.911	29863.65
456.117	29122.29
456.323	28743.41
456.529	27543.3
456.735	28507.9
456.941	27754.24
457.147	27342.6
457.352	26525.46
457.558	26560.28
457.764	26226.46
457.97	25579.3
458.176	25337.64
458.381	25327.4
458.587	23875.39
458.793	23963.45
458.999	22785.87
459.204	24121.15
459.41	23498.56
459.616	22064.99
459.821	22124.38
460.027	22171.48
460.233	21325.67
460.438	20395.89
460.644	20373.36
460.85	19529.6
461.055	19556.22
461.261	19285.89
461.466	18091.93
461.672	17323.94
461.878	18784.14
462.083	17575.84
462.289	17022.89
462.494	16979.88
462.7	16381.87
462.905	15751.1
463.111	16299.95
463.316	16168.88
463.522	16105.4
463.727	16072.63
463.932	15826.87
464.138	15808.44
464.343	15849.4
464.549	15226.82
464.754	16103.35
464.959	15771.58
465.165	15507.39
465.37	15118.28
465.575	14565.32
465.781	15132.61
465.986	15468.48
466.191	14618.57
466.397	14424.01
466.602	13844.44
466.807	14338
