Data from USB4F104151__72__12-24-18-161.txt Node

Date: Fri Mar 14 12:24:18 EDT 2025
User: louis
Spectrometer: USB4F10415
Trigger mode: 4
Integration Time (sec): 3.500000E-2
Scans to average: 1
Electric dark correction enabled: true
Nonlinearity correction enabled: false
Boxcar width: 0
XAxis mode: Wavelengths
Number of Pixels in Spectrum: 3648
>>>>>Begin Spectral Data<<<<<
178.204	-149.67
178.424	-149.67
178.644	-149.67
178.864	-149.67
179.084	-153.77
179.304	61.27
179.524	42.84
179.744	-28.84
179.964	-4.27
180.184	83.8
180.404	-16.55
180.624	10.07
180.844	-45.23
181.064	-6.31
181.283	-22.7
181.503	-45.23
181.723	-28.84
181.943	-24.75
182.163	79.7
182.383	24.4
182.602	79.7
182.822	87.89
183.042	18.26
183.262	85.84
183.482	24.4
183.701	-41.13
183.921	-4.27
184.141	-43.18
184.361	51.03
184.58	1.88
184.8	-39.08
185.02	-0.17
185.239	-4.27
185.459	-34.99
185.679	126.8
185.898	28.5
186.118	26.45
186.338	-18.6
186.557	102.23
186.777	16.21
186.997	-8.36
187.216	34.64
187.436	106.32
187.655	79.7
187.875	53.08
188.095	30.55
188.314	63.32
188.534	40.79
188.753	-84.14
188.973	26.45
189.192	57.17
189.412	24.4
189.631	34.64
189.851	46.93
190.07	114.52
190.29	-43.18
190.509	-55.47
190.729	-14.51
190.948	22.36
191.168	122.71
191.387	79.7
191.607	59.22
191.826	69.46
192.045	53.08
192.265	48.98
192.484	79.7
192.704	8.02
192.923	14.17
193.142	63.32
193.362	-6.31
193.581	46.93
193.8	77.65
194.02	-10.41
194.239	16.21
194.458	61.27
194.678	96.08
194.897	16.21
195.116	104.28
195.335	57.17
195.555	73.56
195.774	8.02
195.993	69.46
196.212	24.4
196.432	46.93
196.651	1.88
196.87	-59.56
197.089	132.95
197.308	83.8
197.528	59.22
197.747	8.02
197.966	51.03
198.185	20.31
198.404	53.08
198.623	106.32
198.842	10.07
199.062	59.22
199.281	-20.65
199.5	83.8
199.719	53.08
199.938	18.26
200.157	59.22
200.376	-47.27
200.595	42.84
200.814	71.51
201.033	38.74
201.252	53.08
201.471	59.22
201.69	8.02
201.909	14.17
202.128	-20.65
202.347	5.97
202.566	18.26
202.785	10.07
203.004	-20.65
203.223	122.71
203.442	18.26
203.661	-8.36
203.879	40.79
204.098	77.65
204.317	18.26
204.536	75.6
204.755	57.17
204.974	77.65
205.193	53.08
205.411	3.93
205.63	53.08
205.849	-26.79
206.068	5.97
206.287	-4.27
206.505	-18.6
206.724	87.89
206.943	28.5
207.162	63.32
207.381	32.6
207.599	40.79
207.818	18.26
208.037	-34.99
208.255	57.17
208.474	38.74
208.693	10.07
208.911	-37.03
209.13	16.21
209.349	51.03
209.567	-6.31
209.786	30.55
210.005	12.12
210.223	61.27
210.442	-30.89
210.661	12.12
210.879	28.5
211.098	116.56
211.316	-32.94
211.535	40.79
211.753	51.03
211.972	18.26
212.191	36.69
212.409	44.88
212.628	36.69
212.846	12.12
213.065	89.94
213.283	-2.22
213.502	12.12
213.72	10.07
213.938	75.6
214.157	-0.17
214.375	59.22
214.594	-24.75
214.812	34.64
215.031	44.88
215.249	-41.13
215.467	1.88
215.686	1.88
215.904	53.08
216.122	20.31
216.341	85.84
216.559	106.32
216.778	59.22
216.996	22.36
217.214	57.17
217.432	-18.6
217.651	24.4
217.869	34.64
218.087	-75.95
218.306	69.46
218.524	34.64
218.742	57.17
218.96	-18.6
219.179	3.93
219.397	34.64
219.615	188.24
219.833	42.84
220.051	38.74
220.27	-0.17
220.488	26.45
220.706	59.22
220.924	10.07
221.142	63.32
221.36	42.84
221.578	32.6
221.796	-43.18
222.015	85.84
222.233	40.79
222.451	-39.08
222.669	-4.27
222.887	-32.94
223.105	-8.36
223.323	-53.42
223.541	-30.89
223.759	75.6
223.977	-4.27
224.195	32.6
224.413	20.31
224.631	16.21
224.849	18.26
225.067	108.37
225.285	-59.56
225.503	69.46
225.721	-71.85
225.939	-2.22
226.157	18.26
226.375	87.89
226.592	-4.27
226.81	20.31
227.028	-12.46
227.246	85.84
227.464	5.97
227.682	34.64
227.9	-6.31
228.117	44.88
228.335	42.84
228.553	36.69
228.771	-16.55
228.989	96.08
229.206	38.74
229.424	24.4
229.642	10.07
229.86	12.12
230.077	106.32
230.295	28.5
230.513	81.75
230.731	10.07
230.948	48.98
231.166	48.98
231.384	100.18
231.601	-43.18
231.819	42.84
232.037	61.27
232.254	16.21
232.472	10.07
232.689	32.6
232.907	94.04
233.125	-2.22
233.342	8.02
233.56	-39.08
233.777	32.6
233.995	69.46
234.213	44.88
234.43	20.31
234.648	-32.94
234.865	30.55
235.083	32.6
235.3	20.31
235.518	12.12
235.735	40.79
235.953	71.51
236.17	26.45
236.388	22.36
236.605	-4.27
236.822	-0.17
237.04	-28.84
237.257	18.26
237.475	-14.51
237.692	22.36
237.909	55.12
238.127	-41.13
238.344	104.28
238.562	67.41
238.779	-90.28
238.996	-14.51
239.214	65.36
239.431	-0.17
239.648	73.56
239.865	77.65
240.083	-77.99
240.3	-14.51
240.517	22.36
240.735	16.21
240.952	91.99
241.169	91.99
241.386	-4.27
241.603	3.93
241.821	-4.27
242.038	65.36
242.255	100.18
242.472	12.12
242.689	85.84
242.907	46.93
243.124	38.74
243.341	1.88
243.558	-24.75
243.775	12.12
243.992	-49.32
244.209	139.09
244.426	137.04
244.643	34.64
244.86	14.17
245.078	-0.17
245.295	38.74
245.512	-14.51
245.729	-2.22
245.946	-0.17
246.163	26.45
246.38	-59.56
246.597	8.02
246.814	-8.36
247.031	-8.36
247.248	61.27
247.464	48.98
247.681	71.51
247.898	-14.51
248.115	98.13
248.332	16.21
248.549	14.17
248.766	79.7
248.983	-26.79
249.2	42.84
249.417	100.18
249.633	-2.22
249.85	-4.27
250.067	51.03
250.284	79.7
250.501	-6.31
250.717	-65.71
250.934	-16.55
251.151	10.07
251.368	-0.17
251.585	32.6
251.801	18.26
252.018	28.5
252.235	36.69
252.451	-6.31
252.668	26.45
252.885	40.79
253.102	100.18
253.318	3.93
253.535	-6.31
253.752	-12.46
253.968	48.98
254.185	-82.09
254.401	12.12
254.618	59.22
254.835	20.31
255.051	-18.6
255.268	12.12
255.484	-26.79
255.701	30.55
255.917	55.12
256.134	75.6
256.351	16.21
256.567	1.88
256.784	12.12
257	38.74
257.217	24.4
257.433	-14.51
257.65	16.21
257.866	73.56
258.082	16.21
258.299	98.13
258.515	46.93
258.732	-6.31
258.948	24.4
259.165	30.55
259.381	-6.31
259.597	108.37
259.814	-2.22
260.03	40.79
260.246	18.26
260.463	79.7
260.679	87.89
260.895	61.27
261.112	10.07
261.328	-73.9
261.544	8.02
261.761	3.93
261.977	-6.31
262.193	-67.75
262.409	-2.22
262.626	-4.27
262.842	-20.65
263.058	42.84
263.274	24.4
263.49	-8.36
263.707	63.32
263.923	55.12
264.139	73.56
264.355	20.31
264.571	61.27
264.787	22.36
265.004	89.94
265.22	10.07
265.436	8.02
265.652	-10.41
265.868	55.12
266.084	8.02
266.3	28.5
266.516	1.88
266.732	38.74
266.948	20.31
267.164	22.36
267.38	5.97
267.596	79.7
267.812	42.84
268.028	128.85
268.244	36.69
268.46	24.4
268.676	-28.84
268.892	24.4
269.108	18.26
269.324	-65.71
269.54	20.31
269.756	57.17
269.972	38.74
270.188	-32.94
270.403	-32.94
270.619	14.17
270.835	1.88
271.051	-59.56
271.267	53.08
271.483	32.6
271.698	106.32
271.914	-22.7
272.13	73.56
272.346	3.93
272.562	48.98
272.777	77.65
272.993	-16.55
273.209	-2.22
273.425	55.12
273.64	44.88
273.856	32.6
274.072	42.84
274.287	-49.32
274.503	69.46
274.719	65.36
274.934	55.12
275.15	-22.7
275.366	77.65
275.581	28.5
275.797	79.7
276.012	63.32
276.228	85.84
276.444	-32.94
276.659	10.07
276.875	-2.22
277.09	98.13
277.306	-30.89
277.521	42.84
277.737	26.45
277.952	126.8
278.168	24.4
278.383	51.03
278.599	34.64
278.814	75.6
279.03	24.4
279.245	67.41
279.461	-4.27
279.676	40.79
279.892	-22.7
280.107	14.17
280.322	-67.75
280.538	73.56
280.753	24.4
280.969	122.71
281.184	26.45
281.399	24.4
281.615	5.97
281.83	32.6
282.045	38.74
282.26	-30.89
282.476	-45.23
282.691	114.52
282.906	65.36
283.122	57.17
283.337	-28.84
283.552	24.4
283.767	-18.6
283.983	63.32
284.198	-6.31
284.413	24.4
284.628	10.07
284.843	-14.51
285.058	69.46
285.274	46.93
285.489	79.7
285.704	26.45
285.919	-18.6
286.134	79.7
286.349	55.12
286.564	-34.99
286.779	112.47
286.995	26.45
287.21	-47.27
287.425	128.85
287.64	22.36
287.855	30.55
288.07	12.12
288.285	91.99
288.5	61.27
288.715	161.62
288.93	-20.65
289.145	24.4
289.36	87.89
289.575	10.07
289.79	81.75
290.004	12.12
290.219	32.6
290.434	55.12
290.649	-12.46
290.864	75.6
291.079	-2.22
291.294	-8.36
291.509	28.5
291.724	28.5
291.938	10.07
292.153	36.69
292.368	-4.27
292.583	32.6
292.798	42.84
293.012	-43.18
293.227	126.8
293.442	16.21
293.657	87.89
293.871	63.32
294.086	24.4
294.301	89.94
294.516	122.71
294.73	24.4
294.945	-39.08
295.16	36.69
295.374	34.64
295.589	34.64
295.804	36.69
296.018	77.65
296.233	-26.79
296.447	1.88
296.662	30.55
296.877	165.71
297.091	16.21
297.306	67.41
297.52	-22.7
297.735	-39.08
297.949	34.64
298.164	36.69
298.378	67.41
298.593	44.88
298.807	-88.23
299.022	5.97
299.236	3.93
299.451	30.55
299.665	22.36
299.88	-4.27
300.094	81.75
300.309	24.4
300.523	85.84
300.737	-26.79
300.952	57.17
301.166	-2.22
301.381	-4.27
301.595	22.36
301.809	20.31
302.024	44.88
302.238	-45.23
302.452	38.74
302.667	77.65
302.881	-10.41
303.095	8.02
303.309	18.26
303.524	-37.03
303.738	-2.22
303.952	-30.89
304.166	79.7
304.381	-18.6
304.595	63.32
304.809	61.27
305.023	53.08
305.237	36.69
305.452	34.64
305.666	79.7
305.88	71.51
306.094	38.74
306.308	24.4
306.522	14.17
306.736	102.23
306.95	71.51
307.164	22.36
307.379	69.46
307.593	69.46
307.807	28.5
308.021	94.04
308.235	-14.51
308.449	30.55
308.663	-24.75
308.877	147.28
309.091	48.98
309.305	1.88
309.519	-26.79
309.733	10.07
309.947	30.55
310.161	110.42
310.374	153.43
310.588	16.21
310.802	46.93
311.016	42.84
311.23	63.32
311.444	16.21
311.658	22.36
311.872	87.89
312.085	16.21
312.299	120.66
312.513	83.8
312.727	40.79
312.941	30.55
313.154	-49.32
313.368	98.13
313.582	38.74
313.796	-6.31
314.009	38.74
314.223	98.13
314.437	53.08
314.651	12.12
314.864	30.55
315.078	-16.55
315.292	3.93
315.505	8.02
315.719	22.36
315.933	100.18
316.146	53.08
316.36	-10.41
316.573	59.22
316.787	14.17
317.001	67.41
317.214	-108.71
317.428	16.21
317.641	12.12
317.855	18.26
318.068	24.4
318.282	34.64
318.495	55.12
318.709	73.56
318.922	-2.22
319.136	71.51
319.349	32.6
319.563	40.79
319.776	81.75
319.99	-20.65
320.203	-12.46
320.417	-4.27
320.63	57.17
320.843	46.93
321.057	55.12
321.27	5.97
321.483	24.4
321.697	122.71
321.91	77.65
322.124	110.42
322.337	46.93
322.55	-2.22
322.763	16.21
322.977	32.6
323.19	-43.18
323.403	26.45
323.617	100.18
323.83	5.97
324.043	51.03
324.256	28.5
324.469	46.93
324.683	48.98
324.896	-10.41
325.109	110.42
325.322	16.21
325.535	83.8
325.748	51.03
325.962	22.36
326.175	102.23
326.388	87.89
326.601	-4.27
326.814	38.74
327.027	96.08
327.24	59.22
327.453	-28.84
327.666	51.03
327.879	26.45
328.092	10.07
328.305	40.79
328.518	-30.89
328.731	-80.04
328.944	128.85
329.157	28.5
329.37	67.41
329.583	77.65
329.796	63.32
330.009	-37.03
330.222	57.17
330.435	44.88
330.648	77.65
330.861	-16.55
331.073	55.12
331.286	83.8
331.499	81.75
331.712	18.26
331.925	-65.71
332.138	73.56
332.35	48.98
332.563	3.93
332.776	8.02
332.989	96.08
333.202	-24.75
333.414	51.03
333.627	-8.36
333.84	91.99
334.053	5.97
334.265	22.36
334.478	36.69
334.691	100.18
334.903	53.08
335.116	71.51
335.329	57.17
335.541	44.88
335.754	40.79
335.966	79.7
336.179	-30.89
336.392	46.93
336.604	26.45
336.817	3.93
337.029	26.45
337.242	51.03
337.454	16.21
337.667	-39.08
337.88	65.36
338.092	-26.79
338.305	22.36
338.517	55.12
338.729	16.21
338.942	100.18
339.154	-8.36
339.367	-57.51
339.579	44.88
339.792	20.31
340.004	-32.94
340.217	-0.17
340.429	81.75
340.641	-12.46
340.854	-8.36
341.066	-14.51
341.278	16.21
341.491	44.88
341.703	26.45
341.915	22.36
342.128	24.4
342.34	85.84
342.552	8.02
342.764	46.93
342.977	42.84
343.189	155.47
343.401	91.99
343.613	34.64
343.826	10.07
344.038	-6.31
344.25	85.84
344.462	59.22
344.674	14.17
344.886	40.79
345.099	85.84
345.311	40.79
345.523	-12.46
345.735	-14.51
345.947	73.56
346.159	75.6
346.371	-22.7
346.583	85.84
346.795	71.51
347.007	-32.94
347.219	94.04
347.431	-8.36
347.643	30.55
347.855	24.4
348.067	81.75
348.279	-65.71
348.491	81.75
348.703	-4.27
348.915	79.7
349.127	32.6
349.339	55.12
349.551	44.88
349.763	14.17
349.975	-2.22
350.187	94.04
350.399	44.88
350.61	46.93
350.822	85.84
351.034	55.12
351.246	46.93
351.458	14.17
351.669	77.65
351.881	28.5
352.093	57.17
352.305	46.93
352.517	-2.22
352.728	8.02
352.94	51.03
353.152	18.26
353.363	28.5
353.575	-4.27
353.787	91.99
353.999	16.21
354.21	40.79
354.422	18.26
354.633	83.8
354.845	-24.75
355.057	-4.27
355.268	51.03
355.48	44.88
355.692	-26.79
355.903	-16.55
356.115	42.84
356.326	5.97
356.538	67.41
356.749	55.12
356.961	67.41
357.172	87.89
357.384	-57.51
357.595	59.22
357.807	30.55
358.018	59.22
358.23	-22.7
358.441	89.94
358.653	51.03
358.864	-2.22
359.075	-16.55
359.287	51.03
359.498	20.31
359.709	79.7
359.921	32.6
360.132	18.26
360.344	-4.27
360.555	-12.46
360.766	30.55
360.977	110.42
361.189	-24.75
361.4	102.23
361.611	38.74
361.823	96.08
362.034	59.22
362.245	-4.27
362.456	36.69
362.667	67.41
362.879	14.17
363.09	96.08
363.301	98.13
363.512	-10.41
363.723	57.17
363.935	59.22
364.146	-18.6
364.357	8.02
364.568	32.6
364.779	53.08
364.99	12.12
365.201	48.98
365.412	77.65
365.623	-32.94
365.834	83.8
366.045	3.93
366.256	57.17
366.467	69.46
366.678	16.21
366.889	34.64
367.1	-28.84
367.311	108.37
367.522	40.79
367.733	30.55
367.944	96.08
368.155	44.88
368.366	83.8
368.577	71.51
368.788	10.07
368.999	28.5
369.209	-16.55
369.42	79.7
369.631	128.85
369.842	77.65
370.053	71.51
370.264	104.28
370.474	36.69
370.685	102.23
370.896	10.07
371.107	100.18
371.317	55.12
371.528	-14.51
371.739	69.46
371.95	63.32
372.16	40.79
372.371	-63.66
372.582	22.36
372.792	44.88
373.003	-16.55
373.214	55.12
373.424	44.88
373.635	48.98
373.846	81.75
374.056	106.32
374.267	10.07
374.477	34.64
374.688	28.5
374.898	16.21
375.109	28.5
375.319	-43.18
375.53	85.84
375.74	59.22
375.951	61.27
376.161	3.93
376.372	104.28
376.582	67.41
376.793	20.31
377.003	24.4
377.214	79.7
377.424	30.55
377.635	40.79
377.845	-24.75
378.055	71.51
378.266	44.88
378.476	3.93
378.686	85.84
378.897	124.76
379.107	61.27
379.317	153.43
379.528	67.41
379.738	12.12
379.948	-37.03
380.158	155.47
380.369	38.74
380.579	30.55
380.789	28.5
380.999	81.75
381.21	-4.27
381.42	91.99
381.63	-20.65
381.84	83.8
382.05	91.99
382.261	26.45
382.471	120.66
382.681	24.4
382.891	38.74
383.101	67.41
383.311	48.98
383.521	12.12
383.731	94.04
383.941	24.4
384.151	67.41
384.361	42.84
384.571	38.74
384.781	20.31
384.991	61.27
385.201	59.22
385.411	77.65
385.621	22.36
385.831	40.79
386.041	65.36
386.251	-18.6
386.461	69.46
386.671	-6.31
386.881	83.8
387.091	36.69
387.301	71.51
387.511	1.88
387.72	24.4
387.93	16.21
388.14	-14.51
388.35	69.46
388.56	126.8
388.769	-4.27
388.979	59.22
389.189	38.74
389.399	61.27
389.609	5.97
389.818	91.99
390.028	55.12
390.238	108.37
390.447	63.32
390.657	16.21
390.867	12.12
391.076	-0.17
391.286	71.51
391.496	87.89
391.705	42.84
391.915	87.89
392.125	22.36
392.334	53.08
392.544	73.56
392.753	3.93
392.963	-49.32
393.172	51.03
393.382	-6.31
393.591	110.42
393.801	44.88
394.01	22.36
394.22	94.04
394.429	-10.41
394.639	55.12
394.848	16.21
395.058	5.97
395.267	36.69
395.477	122.71
395.686	89.94
395.895	157.52
396.105	155.47
396.314	42.84
396.524	-18.6
396.733	57.17
396.942	96.08
397.152	77.65
397.361	24.4
397.57	8.02
397.78	96.08
397.989	124.76
398.198	108.37
398.407	94.04
398.617	38.74
398.826	55.12
399.035	77.65
399.244	71.51
399.453	69.46
399.663	24.4
399.872	65.36
400.081	53.08
400.29	75.6
400.499	8.02
400.708	94.04
400.917	18.26
401.127	77.65
401.336	65.36
401.545	48.98
401.754	106.32
401.963	18.26
402.172	96.08
402.381	110.42
402.59	59.22
402.799	75.6
403.008	71.51
403.217	16.21
403.426	126.8
403.635	24.4
403.844	87.89
404.053	94.04
404.262	100.18
404.471	161.62
404.68	104.28
404.888	32.6
405.097	98.13
405.306	96.08
405.515	94.04
405.724	38.74
405.933	126.8
406.142	122.71
406.35	118.61
406.559	128.85
406.768	85.84
406.977	130.9
407.185	157.52
407.394	53.08
407.603	96.08
407.812	153.43
408.02	118.61
408.229	96.08
408.438	108.37
408.646	96.08
408.855	114.52
409.064	151.38
409.272	91.99
409.481	231.25
409.69	51.03
409.898	91.99
410.107	178
410.315	196.43
410.524	118.61
410.733	198.48
410.941	249.68
411.15	264.02
411.358	188.24
411.567	345.94
411.775	171.86
411.984	171.86
412.192	315.22
412.401	257.87
412.609	335.7
412.818	270.16
413.026	259.92
413.234	341.84
413.443	317.26
413.651	284.5
413.86	302.93
414.068	401.23
414.276	399.18
414.485	313.17
414.693	364.37
414.901	386.9
415.11	395.09
415.318	403.28
415.526	444.24
415.734	429.9
415.943	458.57
416.151	550.73
416.359	509.77
416.567	470.86
416.776	560.97
416.984	532.3
417.192	583.5
417.4	616.27
417.608	554.83
417.817	499.53
418.025	636.75
418.233	792.39
418.441	679.75
418.649	669.52
418.857	761.67
419.065	851.78
419.273	773.96
419.481	776.01
419.689	806.73
419.897	884.55
420.105	917.32
420.313	970.57
420.521	1007.43
420.729	927.56
420.937	894.79
421.145	1027.91
421.353	972.61
421.561	1191.75
421.769	1128.26
421.977	1191.75
422.185	1288
422.393	1236.8
422.601	1216.32
422.809	1378.11
423.017	1273.67
423.224	1408.83
423.432	1566.53
423.64	1398.59
423.848	1601.34
424.056	1472.32
424.263	1666.88
424.471	1695.55
424.679	1642.3
424.887	1756.99
425.094	1804.09
425.302	1902.39
425.51	1890.1
425.718	1924.92
425.925	2070.33
426.133	2025.27
426.341	2228.02
426.548	2096.95
426.756	2139.96
426.964	2197.3
427.171	2373.43
427.379	2512.69
427.586	2563.89
427.794	2635.57
428.001	2664.24
428.209	2856.75
428.417	2832.17
428.624	3041.06
428.832	2979.62
429.039	3053.35
429.247	3002.15
429.454	3272.48
429.662	3473.18
429.869	3217.19
430.076	3567.39
430.284	3544.86
430.491	3677.98
430.699	3741.47
430.906	3669.79
431.114	3858.2
431.321	3929.88
431.528	4003.61
431.736	4140.82
431.943	4542.22
432.15	4310.8
432.358	4425.49
432.565	4650.77
432.772	4570.9
432.979	4835.08
433.187	4853.52
433.394	4984.59
433.601	5273.35
433.808	5281.54
434.016	5336.84
434.223	5529.34
434.43	5801.72
434.637	5658.37
434.844	6143.74
435.052	6242.04
435.259	6307.57
435.466	6188.79
435.673	6141.69
435.88	6430.45
436.087	6930.16
436.294	6868.72
436.501	6809.33
436.708	6940.4
436.915	7200.49
437.122	7489.25
437.329	7438.05
437.537	7579.36
437.743	7849.69
437.95	7882.46
438.157	8206.04
438.364	8453.84
438.571	8318.68
438.778	8363.73
438.985	9176.78
439.192	9072.33
439.399	9006.8
439.606	8926.93
439.813	9549.51
440.02	9977.53
440.227	9918.14
440.433	9756.35
440.64	10079.93
440.847	10135.23
441.054	10301.11
441.261	10938.03
441.467	10766
441.674	11017.9
441.881	11581.09
442.088	11429.54
442.294	11429.54
442.501	11654.82
442.708	11849.38
442.914	12324.51
443.121	12953.23
443.328	12512.92
443.534	13371.02
443.741	13125.26
443.948	12922.51
444.154	13807.23
444.361	13637.25
444.568	13848.19
444.774	13788.8
444.981	14216.83
445.187	14165.63
445.394	15261.29
445.6	14898.8
445.807	16316
446.013	15492.71
446.22	16049.76
446.426	16533.08
446.633	16537.18
446.839	16973.39
447.046	16528.99
447.252	17491.53
447.459	17299.02
447.665	17495.63
447.871	18245.18
448.078	19004.98
448.284	18048.58
448.491	18460.22
448.697	19340.85
448.903	19519.02
449.11	19645.99
449.316	19072.56
449.522	19508.78
449.728	20448.8
449.935	20430.37
450.141	20473.37
450.347	21059.09
450.553	20090.4
450.76	20364.83
450.966	20995.6
451.172	20852.25
451.378	21405.2
451.584	21310.99
451.791	21702.15
451.997	21601.8
452.203	21919.24
452.409	21872.14
452.615	21958.15
452.821	20866.58
453.027	21055
453.233	21653
453.44	21200.4
453.646	21087.76
453.852	21136.91
454.058	21829.13
454.264	20981.27
454.47	21519.88
454.676	21059.09
454.882	21759.5
455.088	19740.2
455.294	20141.6
455.5	20139.55
455.705	20475.42
455.911	19813.93
456.117	19416.62
456.323	19131.95
456.529	18046.53
456.735	18976.31
456.941	18132.54
457.147	18130.5
457.352	17421.9
457.558	17348.17
457.764	17460.81
457.97	17045.07
458.176	16717.4
458.381	16596.57
458.587	15881.83
458.793	15597.16
458.999	14937.71
459.204	16248.41
459.41	15502.95
459.616	14481.02
459.821	14618.23
460.027	14190.2
460.233	14333.56
460.438	13471.37
460.644	13538.95
460.85	13080.21
461.055	12840.59
461.261	12719.76
461.466	12093.08
461.672	11454.12
461.878	12488.34
462.083	11370.15
462.289	11382.44
462.494	11239.08
462.7	10727.09
462.905	10426.04
463.111	10737.33
463.316	10907.31
463.522	10512.05
463.727	10477.24
463.932	10585.78
464.138	10383.03
464.343	10397.37
464.549	10243.77
464.754	10354.36
464.959	10489.53
465.165	10430.13
465.37	10022.59
465.575	9817.79
465.781	9959.1
465.986	10071.74
466.191	9768.64
466.397	9621.19
466.602	9221.83
466.807	9543.36
467.012	9572.04
467.218	9328.33
467.423	9279.18
467.628	9180.87
467.833	9660.1
468.038	9610.95
468.244	8879.82
468.449	9318.09
468.654	9035.47
