Data from USB4F104151__10__12-23-22-833.txt Node

Date: Fri Mar 14 12:23:22 EDT 2025
User: louis
Spectrometer: USB4F10415
Trigger mode: 4
Integration Time (sec): 3.500000E-2
Scans to average: 1
Electric dark correction enabled: true
Nonlinearity correction enabled: false
Boxcar width: 0
XAxis mode: Wavelengths
Number of Pixels in Spectrum: 3648
>>>>>Begin Spectral Data<<<<<
178.204	-99.67
178.424	-99.67
178.644	-99.67
178.864	-124.24
179.084	-159.06
179.304	-3.41
179.524	2.73
179.744	-7.51
179.964	8.87
180.184	-15.7
180.404	55.98
180.624	-44.37
180.844	37.55
181.064	-83.28
181.283	72.36
181.503	-34.13
181.723	10.92
181.943	10.92
182.163	141.99
182.383	15.02
182.602	129.7
182.822	70.31
183.042	51.88
183.262	23.21
183.482	45.74
183.701	6.83
183.921	10.92
184.141	-77.14
184.361	72.36
184.58	2.73
184.8	98.99
185.02	72.36
185.239	101.03
185.459	41.64
185.679	107.18
185.898	21.16
186.118	105.13
186.338	78.51
186.557	66.22
186.777	45.74
186.997	68.27
187.216	113.32
187.436	96.94
187.655	66.22
187.875	58.03
188.095	72.36
188.314	6.83
188.534	64.17
188.753	55.98
188.973	-9.56
189.192	19.11
189.412	139.94
189.631	23.21
189.851	55.98
190.07	121.51
190.29	17.07
190.509	43.69
190.729	62.12
190.948	58.03
191.168	213.67
191.387	74.41
191.607	-44.37
191.826	41.64
192.045	47.79
192.265	47.79
192.484	-32.08
192.704	51.88
192.923	-5.46
193.142	117.42
193.362	29.35
193.581	49.83
193.8	39.59
194.02	51.88
194.239	4.78
194.458	39.59
194.678	12.97
194.897	88.75
195.116	62.12
195.335	70.31
195.555	115.37
195.774	68.27
195.993	4.78
196.212	76.46
196.432	-46.42
196.651	111.27
196.87	86.7
197.089	141.99
197.308	68.27
197.528	101.03
197.747	-21.85
197.966	88.75
198.185	127.66
198.404	33.45
198.623	66.22
198.842	62.12
199.062	41.64
199.281	88.75
199.5	82.6
199.719	23.21
199.938	58.03
200.157	127.66
200.376	66.22
200.595	92.84
200.814	121.51
201.033	-11.61
201.252	60.07
201.471	-19.8
201.69	49.83
201.909	90.79
202.128	55.98
202.347	27.31
202.566	-11.61
202.785	-32.08
203.004	12.97
203.223	123.56
203.442	33.45
203.661	66.22
203.879	70.31
204.098	53.93
204.317	86.7
204.536	80.55
204.755	78.51
204.974	-21.85
205.193	60.07
205.411	117.42
205.63	96.94
205.849	-25.94
206.068	27.31
206.287	84.65
206.505	74.41
206.724	17.07
206.943	35.5
207.162	53.93
207.381	35.5
207.599	43.69
207.818	51.88
208.037	-5.46
208.255	39.59
208.474	74.41
208.693	41.64
208.911	88.75
209.13	51.88
209.349	98.99
209.567	113.32
209.786	55.98
210.005	45.74
210.223	88.75
210.442	-62.8
210.661	51.88
210.879	-13.65
211.098	88.75
211.316	-23.89
211.535	29.35
211.753	109.23
211.972	66.22
212.191	23.21
212.409	29.35
212.628	82.6
212.846	15.02
213.065	146.09
213.283	82.6
213.502	39.59
213.72	37.55
213.938	15.02
214.157	0.68
214.375	-11.61
214.594	19.11
214.812	49.83
215.031	29.35
215.249	-32.08
215.467	43.69
215.686	58.03
215.904	103.08
216.122	76.46
216.341	88.75
216.559	47.79
216.778	117.42
216.996	19.11
217.214	-60.76
217.432	39.59
217.651	-19.8
217.869	64.17
218.087	92.84
218.306	35.5
218.524	27.31
218.742	64.17
218.96	90.79
219.179	43.69
219.397	-19.8
219.615	86.7
219.833	80.55
220.051	12.97
220.27	39.59
220.488	74.41
220.706	115.37
220.924	10.92
221.142	121.51
221.36	92.84
221.578	76.46
221.796	76.46
222.015	103.08
222.233	90.79
222.451	62.12
222.669	21.16
222.887	10.92
223.105	49.83
223.323	51.88
223.541	2.73
223.759	60.07
223.977	-19.8
224.195	80.55
224.413	41.64
224.631	62.12
224.849	121.51
225.067	123.56
225.285	90.79
225.503	-34.13
225.721	27.31
225.939	17.07
226.157	41.64
226.375	72.36
226.592	60.07
226.81	-32.08
227.028	45.74
227.246	86.7
227.464	23.21
227.682	58.03
227.9	41.64
228.117	101.03
228.335	84.65
228.553	60.07
228.771	43.69
228.989	80.55
229.206	-34.13
229.424	19.11
229.642	45.74
229.86	25.26
230.077	76.46
230.295	60.07
230.513	19.11
230.731	47.79
230.948	127.66
231.166	96.94
231.384	31.4
231.601	51.88
231.819	105.13
232.037	-25.94
232.254	125.61
232.472	23.21
232.689	15.02
232.907	35.5
233.125	27.31
233.342	-15.7
233.56	45.74
233.777	53.93
233.995	84.65
234.213	17.07
234.43	107.18
234.648	35.5
234.865	-1.37
235.083	41.64
235.3	17.07
235.518	76.46
235.735	111.27
235.953	45.74
236.17	53.93
236.388	-23.89
236.605	47.79
236.822	105.13
237.04	51.88
237.257	19.11
237.475	-23.89
237.692	117.42
237.909	111.27
238.127	-34.13
238.344	84.65
238.562	39.59
238.779	15.02
238.996	29.35
239.214	94.89
239.431	121.51
239.648	12.97
239.865	17.07
240.083	-3.41
240.3	31.4
240.517	23.21
240.735	39.59
240.952	43.69
241.169	12.97
241.386	39.59
241.603	64.17
241.821	8.87
242.038	-25.94
242.255	27.31
242.472	-11.61
242.689	41.64
242.907	101.03
243.124	109.23
243.341	27.31
243.558	19.11
243.775	31.4
243.992	-15.7
244.209	8.87
244.426	82.6
244.643	74.41
244.86	-19.8
245.078	19.11
245.295	70.31
245.512	90.79
245.729	6.83
245.946	12.97
246.163	103.08
246.38	80.55
246.597	109.23
246.814	68.27
247.031	10.92
247.248	51.88
247.464	72.36
247.681	41.64
247.898	70.31
248.115	60.07
248.332	21.16
248.549	84.65
248.766	154.28
248.983	-3.41
249.2	90.79
249.417	58.03
249.633	37.55
249.85	31.4
250.067	0.68
250.284	88.75
250.501	111.27
250.717	80.55
250.934	-36.18
251.151	53.93
251.368	17.07
251.585	121.51
251.801	80.55
252.018	39.59
252.235	41.64
252.451	17.07
252.668	21.16
252.885	25.26
253.102	60.07
253.318	31.4
253.535	43.69
253.752	78.51
253.968	60.07
254.185	92.84
254.401	-9.56
254.618	29.35
254.835	68.27
255.051	101.03
255.268	49.83
255.484	94.89
255.701	76.46
255.917	47.79
256.134	53.93
256.351	25.26
256.567	60.07
256.784	8.87
257	60.07
257.217	45.74
257.433	94.89
257.65	-32.08
257.866	111.27
258.082	4.78
258.299	12.97
258.515	-36.18
258.732	37.55
258.948	49.83
259.165	96.94
259.381	10.92
259.597	-34.13
259.814	25.26
260.03	10.92
260.246	45.74
260.463	29.35
260.679	109.23
260.895	29.35
261.112	94.89
261.328	25.26
261.544	25.26
261.761	92.84
261.977	0.68
262.193	21.16
262.409	35.5
262.626	111.27
262.842	31.4
263.058	64.17
263.274	90.79
263.49	35.5
263.707	74.41
263.923	-15.7
264.139	-11.61
264.355	39.59
264.571	8.87
264.787	88.75
265.004	92.84
265.22	111.27
265.436	51.88
265.652	90.79
265.868	2.73
266.084	-19.8
266.3	4.78
266.516	29.35
266.732	76.46
266.948	12.97
267.164	137.9
267.38	33.45
267.596	8.87
267.812	10.92
268.028	84.65
268.244	35.5
268.46	27.31
268.676	49.83
268.892	82.6
269.108	37.55
269.324	-15.7
269.54	-27.99
269.756	135.85
269.972	33.45
270.188	68.27
270.403	4.78
270.619	47.79
270.835	60.07
271.051	29.35
271.267	51.88
271.483	31.4
271.698	43.69
271.914	43.69
272.13	55.98
272.346	60.07
272.562	-11.61
272.777	35.5
272.993	101.03
273.209	27.31
273.425	55.98
273.64	37.55
273.856	39.59
274.072	88.75
274.287	8.87
274.503	131.75
274.719	123.56
274.934	19.11
275.15	-42.32
275.366	53.93
275.581	-15.7
275.797	35.5
276.012	72.36
276.228	21.16
276.444	92.84
276.659	115.37
276.875	55.98
277.09	37.55
277.306	84.65
277.521	66.22
277.737	82.6
277.952	33.45
278.168	41.64
278.383	21.16
278.599	80.55
278.814	92.84
279.03	84.65
279.245	154.28
279.461	66.22
279.676	66.22
279.892	58.03
280.107	51.88
280.322	45.74
280.538	90.79
280.753	12.97
280.969	109.23
281.184	58.03
281.399	84.65
281.615	60.07
281.83	80.55
282.045	27.31
282.26	-9.56
282.476	70.31
282.691	58.03
282.906	76.46
283.122	101.03
283.337	49.83
283.552	51.88
283.767	17.07
283.983	41.64
284.198	58.03
284.413	72.36
284.628	64.17
284.843	6.83
285.058	80.55
285.274	64.17
285.489	10.92
285.704	129.7
285.919	80.55
286.134	0.68
286.349	146.09
286.564	66.22
286.779	74.41
286.995	58.03
287.21	45.74
287.425	76.46
287.64	39.59
287.855	62.12
288.07	27.31
288.285	64.17
288.5	27.31
288.715	168.62
288.93	101.03
289.145	-1.37
289.36	101.03
289.575	74.41
289.79	62.12
290.004	21.16
290.219	107.18
290.434	39.59
290.649	-5.46
290.864	45.74
291.079	68.27
291.294	33.45
291.509	66.22
291.724	37.55
291.938	2.73
292.153	135.85
292.368	47.79
292.583	80.55
292.798	103.08
293.012	127.66
293.227	90.79
293.442	8.87
293.657	2.73
293.871	62.12
294.086	84.65
294.301	72.36
294.516	62.12
294.73	15.02
294.945	23.21
295.16	141.99
295.374	82.6
295.589	88.75
295.804	23.21
296.018	68.27
296.233	101.03
296.447	131.75
296.662	53.93
296.877	4.78
297.091	117.42
297.306	78.51
297.52	51.88
297.735	45.74
297.949	53.93
298.164	58.03
298.378	74.41
298.593	-56.66
298.807	66.22
299.022	21.16
299.236	29.35
299.451	12.97
299.665	17.07
299.88	74.41
300.094	-52.56
300.309	103.08
300.523	101.03
300.737	31.4
300.952	49.83
301.166	25.26
301.381	6.83
301.595	51.88
301.809	53.93
302.024	78.51
302.238	-36.18
302.452	49.83
302.667	62.12
302.881	170.66
303.095	90.79
303.309	135.85
303.524	27.31
303.738	60.07
303.952	45.74
304.166	107.18
304.381	60.07
304.595	133.8
304.809	-7.51
305.023	105.13
305.237	58.03
305.452	66.22
305.666	60.07
305.88	129.7
306.094	55.98
306.308	64.17
306.522	131.75
306.736	109.23
306.95	98.99
307.164	47.79
307.379	2.73
307.593	115.37
307.807	17.07
308.021	25.26
308.235	51.88
308.449	15.02
308.663	17.07
308.877	111.27
309.091	45.74
309.305	90.79
309.519	-30.04
309.733	111.27
309.947	-1.37
310.161	94.89
310.374	66.22
310.588	90.79
310.802	80.55
311.016	27.31
311.23	76.46
311.444	25.26
311.658	101.03
311.872	64.17
312.085	88.75
312.299	90.79
312.513	74.41
312.727	21.16
312.941	51.88
313.154	82.6
313.368	58.03
313.582	80.55
313.796	-3.41
314.009	62.12
314.223	123.56
314.437	58.03
314.651	78.51
314.864	76.46
315.078	15.02
315.292	17.07
315.505	29.35
315.719	154.28
315.933	76.46
316.146	84.65
316.36	45.74
316.573	86.7
316.787	90.79
317.001	68.27
317.214	-3.41
317.428	92.84
317.641	-13.65
317.855	4.78
318.068	80.55
318.282	31.4
318.495	66.22
318.709	19.11
318.922	39.59
319.136	123.56
319.349	70.31
319.563	43.69
319.776	66.22
319.99	66.22
320.203	49.83
320.417	29.35
320.63	58.03
320.843	172.71
321.057	103.08
321.27	115.37
321.483	12.97
321.697	152.23
321.91	76.46
322.124	74.41
322.337	72.36
322.55	-19.8
322.763	119.46
322.977	49.83
323.19	-3.41
323.403	58.03
323.617	58.03
323.83	127.66
324.043	60.07
324.256	82.6
324.469	41.64
324.683	74.41
324.896	2.73
325.109	88.75
325.322	10.92
325.535	88.75
325.748	68.27
325.962	64.17
326.175	160.42
326.388	70.31
326.601	55.98
326.814	82.6
327.027	70.31
327.24	88.75
327.453	64.17
327.666	53.93
327.879	133.8
328.092	94.89
328.305	64.17
328.518	37.55
328.731	33.45
328.944	141.99
329.157	111.27
329.37	31.4
329.583	62.12
329.796	107.18
330.009	-36.18
330.222	101.03
330.435	37.55
330.648	35.5
330.861	23.21
331.073	111.27
331.286	41.64
331.499	25.26
331.712	10.92
331.925	141.99
332.138	72.36
332.35	82.6
332.563	35.5
332.776	125.61
332.989	51.88
333.202	66.22
333.414	29.35
333.627	10.92
333.84	10.92
334.053	70.31
334.265	66.22
334.478	12.97
334.691	111.27
334.903	66.22
335.116	25.26
335.329	19.11
335.541	86.7
335.754	45.74
335.966	51.88
336.179	64.17
336.392	-3.41
336.604	45.74
336.817	2.73
337.029	53.93
337.242	105.13
337.454	68.27
337.667	72.36
337.88	103.08
338.092	12.97
338.305	113.32
338.517	19.11
338.729	55.98
338.942	80.55
339.154	49.83
339.367	76.46
339.579	33.45
339.792	96.94
340.004	90.79
340.217	51.88
340.429	96.94
340.641	27.31
340.854	66.22
341.066	31.4
341.278	29.35
341.491	103.08
341.703	72.36
341.915	23.21
342.128	47.79
342.34	-7.51
342.552	49.83
342.764	62.12
342.977	43.69
343.189	60.07
343.401	96.94
343.613	19.11
343.826	86.7
344.038	43.69
344.25	131.75
344.462	-34.13
344.674	74.41
344.886	-1.37
345.099	49.83
345.311	103.08
345.523	27.31
345.735	47.79
345.947	78.51
346.159	62.12
346.371	47.79
346.583	39.59
346.795	195.24
347.007	86.7
347.219	4.78
347.431	8.87
347.643	189.1
347.855	-50.52
348.067	27.31
348.279	0.68
348.491	84.65
348.703	55.98
348.915	58.03
349.127	10.92
349.339	103.08
349.551	78.51
349.763	82.6
349.975	-5.46
350.187	105.13
350.399	144.04
350.61	53.93
350.822	43.69
351.034	41.64
351.246	6.83
351.458	94.89
351.669	47.79
351.881	125.61
352.093	68.27
352.305	82.6
352.517	70.31
352.728	74.41
352.94	6.83
353.152	43.69
353.363	35.5
353.575	64.17
353.787	96.94
353.999	66.22
354.21	98.99
354.422	84.65
354.633	53.93
354.845	35.5
355.057	6.83
355.268	33.45
355.48	60.07
355.692	0.68
355.903	-11.61
356.115	47.79
356.326	10.92
356.538	74.41
356.749	58.03
356.961	103.08
357.172	15.02
357.384	17.07
357.595	135.85
357.807	64.17
358.018	17.07
358.23	58.03
358.441	86.7
358.653	45.74
358.864	98.99
359.075	21.16
359.287	66.22
359.498	35.5
359.709	49.83
359.921	17.07
360.132	94.89
360.344	82.6
360.555	-36.18
360.766	55.98
360.977	19.11
361.189	123.56
361.4	64.17
361.611	41.64
361.823	88.75
362.034	117.42
362.245	45.74
362.456	103.08
362.667	49.83
362.879	2.73
363.09	84.65
363.301	80.55
363.512	17.07
363.723	98.99
363.935	23.21
364.146	94.89
364.357	12.97
364.568	82.6
364.779	-36.18
364.99	47.79
365.201	35.5
365.412	117.42
365.623	80.55
365.834	31.4
366.045	33.45
366.256	98.99
366.467	35.5
366.678	-13.65
366.889	41.64
367.1	60.07
367.311	21.16
367.522	41.64
367.733	74.41
367.944	41.64
368.155	94.89
368.366	62.12
368.577	23.21
368.788	111.27
368.999	88.75
369.209	78.51
369.42	158.38
369.631	156.33
369.842	43.69
370.053	37.55
370.264	109.23
370.474	60.07
370.685	21.16
370.896	31.4
371.107	62.12
371.317	86.7
371.528	88.75
371.739	43.69
371.95	144.04
372.16	45.74
372.371	88.75
372.582	49.83
372.792	66.22
373.003	51.88
373.214	82.6
373.424	133.8
373.635	70.31
373.846	25.26
374.056	51.88
374.267	35.5
374.477	43.69
374.688	55.98
374.898	27.31
375.109	107.18
375.319	64.17
375.53	84.65
375.74	113.32
375.951	33.45
376.161	45.74
376.372	80.55
376.582	31.4
376.793	58.03
377.003	41.64
377.214	74.41
377.424	23.21
377.635	133.8
377.845	4.78
378.055	86.7
378.266	0.68
378.476	117.42
378.686	15.02
378.897	58.03
379.107	133.8
379.317	78.51
379.528	55.98
379.738	133.8
379.948	4.78
380.158	25.26
380.369	117.42
380.579	98.99
380.789	86.7
380.999	31.4
381.21	76.46
381.42	98.99
381.63	84.65
381.84	137.9
382.05	78.51
382.261	105.13
382.471	96.94
382.681	72.36
382.891	195.24
383.101	33.45
383.311	53.93
383.521	2.73
383.731	111.27
383.941	23.21
384.151	41.64
384.361	33.45
384.571	23.21
384.781	101.03
384.991	154.28
385.201	131.75
385.411	133.8
385.621	127.66
385.831	33.45
386.041	70.31
386.251	39.59
386.461	148.14
386.671	111.27
386.881	88.75
387.091	66.22
387.301	152.23
387.511	74.41
387.72	53.93
387.93	129.7
388.14	-3.41
388.35	64.17
388.56	94.89
388.769	129.7
388.979	148.14
389.189	43.69
389.399	139.94
389.609	33.45
389.818	107.18
390.028	41.64
390.238	111.27
390.447	43.69
390.657	-5.46
390.867	94.89
391.076	27.31
391.286	88.75
391.496	55.98
391.705	86.7
391.915	156.33
392.125	53.93
392.334	70.31
392.544	160.42
392.753	86.7
392.963	31.4
393.172	25.26
393.382	31.4
393.591	176.81
393.801	49.83
394.01	127.66
394.22	94.89
394.429	49.83
394.639	55.98
394.848	94.89
395.058	53.93
395.267	94.89
395.477	55.98
395.686	82.6
395.895	166.57
396.105	127.66
396.314	86.7
396.524	131.75
396.733	68.27
396.942	101.03
397.152	84.65
397.361	137.9
397.57	98.99
397.78	127.66
397.989	162.47
398.198	185
398.407	98.99
398.617	47.79
398.826	103.08
399.035	86.7
399.244	150.18
399.453	86.7
399.663	90.79
399.872	109.23
400.081	51.88
400.29	207.53
400.499	70.31
400.708	156.33
400.917	96.94
401.127	72.36
401.336	-3.41
401.545	180.9
401.754	158.38
401.963	82.6
402.172	137.9
402.381	17.07
402.59	68.27
402.799	131.75
403.008	80.55
403.217	152.23
403.426	109.23
403.635	49.83
403.844	131.75
404.053	158.38
404.262	150.18
404.471	170.66
404.68	137.9
404.888	148.14
405.097	150.18
405.306	187.05
405.515	101.03
405.724	76.46
405.933	219.82
406.142	133.8
406.35	213.67
406.559	150.18
406.768	164.52
406.977	273.06
407.185	254.63
407.394	189.1
407.603	109.23
407.812	215.72
408.02	213.67
408.229	309.93
408.438	195.24
408.646	162.47
408.855	230.06
409.064	168.62
409.272	195.24
409.481	230.06
409.69	213.67
409.898	240.3
410.107	328.36
410.315	328.36
410.524	289.45
410.733	279.21
410.941	318.12
411.15	291.49
411.358	314.02
411.567	318.12
411.775	371.37
411.984	291.49
412.192	371.37
412.401	295.59
412.609	426.66
412.818	381.6
413.026	422.56
413.234	463.52
413.443	357.03
413.651	412.32
413.86	449.19
414.068	494.24
414.276	553.63
414.485	457.38
414.693	496.29
414.901	576.16
415.11	582.31
415.318	465.57
415.526	545.44
415.734	617.12
415.943	686.75
416.151	768.67
416.359	715.42
416.567	694.94
416.776	719.52
416.984	715.42
417.192	832.16
417.4	696.99
417.608	821.92
417.817	912.03
418.025	879.26
418.233	1008.28
418.441	926.36
418.649	934.56
418.857	1118.87
419.065	1059.48
419.273	1030.81
419.481	1036.95
419.689	1276.57
419.897	1270.42
420.105	1217.18
420.313	1295
420.521	1325.72
420.729	1348.25
420.937	1319.57
421.145	1311.38
421.353	1397.4
421.561	1503.89
421.769	1542.8
421.977	1579.67
422.185	1639.06
422.393	1796.75
422.601	1813.13
422.809	1774.22
423.017	1886.86
423.224	1964.68
423.432	1987.21
423.64	2122.38
423.848	2130.57
424.056	2097.8
424.263	2275.98
424.471	2226.82
424.679	2376.33
424.887	2480.77
425.094	2644.61
425.302	2480.77
425.51	2771.58
425.718	2708.1
425.925	2814.59
426.133	2898.56
426.341	3027.58
426.548	3193.47
426.756	3144.31
426.964	3140.22
427.171	3287.67
427.379	3465.85
427.586	3590.77
427.794	3742.32
428.001	3660.4
428.209	3953.26
428.417	3947.12
428.624	4215.4
428.832	4065.9
429.039	4110.96
429.247	4104.81
429.454	4514.41
429.662	4887.14
429.869	4586.08
430.076	4680.29
430.284	4659.81
430.491	4874.85
430.699	5235.29
430.906	5263.96
431.114	5288.54
431.321	5536.34
431.528	5696.08
431.736	5978.7
431.943	6105.68
432.15	5982.8
432.358	6013.52
432.565	6433.35
432.772	6371.91
432.979	6851.14
433.187	6969.92
433.394	6871.62
433.601	7246.4
433.808	7387.71
434.016	7244.35
434.223	7682.61
434.43	7969.33
434.637	7922.23
434.844	8409.64
435.052	8485.42
435.259	8528.42
435.466	8618.54
435.673	8538.66
435.88	9032.22
436.087	9531.93
436.294	9523.74
436.501	9466.39
436.708	9673.24
436.915	10009.11
437.122	10398.22
437.329	10254.86
437.537	10746.37
437.743	10906.12
437.95	10770.95
438.157	11399.68
438.364	11825.65
438.571	11743.74
438.778	11596.28
438.985	12847.59
439.192	12294.64
439.399	12841.45
439.606	12376.56
439.813	13169.12
440.02	13738.46
440.227	13715.93
440.433	13464.03
440.64	14117.33
440.847	13928.92
441.054	14107.09
441.261	15315.39
441.467	14983.62
441.674	15247.81
441.881	15858.1
442.088	15958.46
442.294	15790.52
442.501	16067
442.708	16607.66
442.914	17240.48
443.121	17756.57
443.328	17164.71
443.534	18352.53
443.741	18155.93
443.948	18069.91
444.154	19437.95
444.361	19024.26
444.568	19128.71
444.774	19405.19
444.981	19396.99
445.187	20169.08
445.394	20707.69
445.6	20619.63
445.807	22483.28
446.013	21608.8
446.22	22124.89
446.426	22663.5
446.633	23021.9
446.839	23703.87
447.046	22886.73
447.252	24162.62
447.459	24138.04
447.665	24295.74
447.871	25303.34
448.078	26239.26
448.284	24811.82
448.491	25975.07
448.697	26718.48
448.903	27195.66
449.11	27494.66
449.316	26736.91
449.522	27388.17
449.728	27928.83
449.935	28104.96
450.141	28444.92
450.347	28721.4
450.553	28080.38
450.76	28352.76
450.966	29286.64
451.172	29034.74
451.378	29571.3
451.584	29030.64
451.791	29673.7
451.997	29915.36
452.203	30154.97
452.409	30384.35
452.615	30157.02
452.821	28932.34
453.027	28567.8
453.233	30152.93
453.44	29167.85
453.646	29397.23
453.852	29438.19
454.058	30189.79
454.264	28856.56
454.47	29393.13
454.676	28866.8
454.882	29821.16
455.088	27060.49
455.294	27281.67
455.5	27877.63
455.705	28231.93
455.911	27126.03
456.117	26409.24
456.323	26069.28
456.529	25037.1
456.735	25821.47
456.941	25538.85
457.147	24832.3
457.352	24166.71
457.558	23591.23
457.764	23599.43
457.97	23417.16
458.176	22870.35
458.381	23056.71
458.587	21774.69
458.793	21592.42
458.999	20558.19
459.204	22040.92
459.41	21645.66
459.616	20095.35
459.821	19863.93
460.027	19759.49
460.233	19272.07
460.438	18727.31
460.644	18547.09
460.85	18133.4
461.055	17674.65
461.261	17721.76
461.466	16306.61
461.672	15608.25
461.878	16785.83
462.083	15952.31
462.289	15372.74
462.494	15317.44
462.7	14512.59
462.905	14455.25
463.111	14647.76
463.316	14641.61
463.522	14320.08
463.727	14692.81
463.932	14442.96
464.138	14201.3
464.343	14203.35
464.549	13988.31
464.754	14602.7
464.959	14158.29
465.165	14178.77
465.37	13431.26
465.575	12933.61
465.781	13607.39
465.986	13953.49
466.191	13187.55
466.397	13326.82
466.602	12481
466.807	12974.56
467.012	13167.07
467.218	12700.14
