Data from USB4F104151__81__12-24-26-560.txt Node

Date: Fri Mar 14 12:24:26 EDT 2025
User: louis
Spectrometer: USB4F10415
Trigger mode: 4
Integration Time (sec): 3.500000E-2
Scans to average: 1
Electric dark correction enabled: true
Nonlinearity correction enabled: false
Boxcar width: 0
XAxis mode: Wavelengths
Number of Pixels in Spectrum: 3648
>>>>>Begin Spectral Data<<<<<
178.204	-76.8
178.424	-76.8
178.644	-76.8
178.864	-171.01
179.084	-177.15
179.304	-84.99
179.524	9.22
179.744	25.6
179.964	41.98
180.184	31.74
180.404	19.46
180.624	-25.6
180.844	-11.26
181.064	-11.26
181.283	-13.31
181.503	-56.32
181.723	74.75
181.943	-148.48
182.163	142.33
182.383	-37.89
182.602	44.03
182.822	99.33
183.042	-11.26
183.262	-27.65
183.482	76.8
183.701	17.41
183.921	-35.84
184.141	17.41
184.361	46.08
184.58	-33.79
184.8	19.46
185.02	-66.56
185.239	-19.46
185.459	21.5
185.679	109.57
185.898	-13.31
186.118	91.13
186.338	7.17
186.557	101.37
186.777	3.07
186.997	-66.56
187.216	50.18
187.436	64.51
187.655	84.99
187.875	107.52
188.095	-17.41
188.314	62.46
188.534	82.94
188.753	56.32
188.973	29.7
189.192	119.81
189.412	64.51
189.631	64.51
189.851	-41.98
190.07	84.99
190.29	-19.46
190.509	35.84
190.729	-23.55
190.948	-9.22
191.168	144.38
191.387	62.46
191.607	9.22
191.826	-13.31
192.045	1.02
192.265	-13.31
192.484	78.85
192.704	37.89
192.923	99.33
193.142	91.13
193.362	15.36
193.581	58.37
193.8	-58.37
194.02	44.03
194.239	97.28
194.458	5.12
194.678	37.89
194.897	56.32
195.116	48.13
195.335	99.33
195.555	56.32
195.774	27.65
195.993	41.98
196.212	64.51
196.432	23.55
196.651	23.55
196.87	82.94
197.089	89.09
197.308	72.7
197.528	72.7
197.747	-11.26
197.966	5.12
198.185	101.37
198.404	23.55
198.623	27.65
198.842	64.51
199.062	78.85
199.281	50.18
199.5	11.26
199.719	23.55
199.938	25.6
200.157	87.04
200.376	46.08
200.595	60.42
200.814	54.27
201.033	1.02
201.252	15.36
201.471	56.32
201.69	21.5
201.909	-11.26
202.128	54.27
202.347	-7.17
202.566	95.23
202.785	91.13
203.004	3.07
203.223	123.9
203.442	9.22
203.661	-35.84
203.879	58.37
204.098	89.09
204.317	-13.31
204.536	17.41
204.755	15.36
204.974	66.56
205.193	23.55
205.411	76.8
205.63	-9.22
205.849	27.65
206.068	-11.26
206.287	-23.55
206.505	13.31
206.724	-29.7
206.943	-39.94
207.162	87.04
207.381	78.85
207.599	9.22
207.818	21.5
208.037	60.42
208.255	11.26
208.474	80.89
208.693	109.57
208.911	21.5
209.13	78.85
209.349	80.89
209.567	17.41
209.786	27.65
210.005	3.07
210.223	25.6
210.442	41.98
210.661	62.46
210.879	31.74
211.098	19.46
211.316	62.46
211.535	99.33
211.753	41.98
211.972	103.42
212.191	23.55
212.409	33.79
212.628	39.94
212.846	-11.26
213.065	113.66
213.283	58.37
213.502	52.22
213.72	-13.31
213.938	68.61
214.157	31.74
214.375	89.09
214.594	-31.74
214.812	11.26
215.031	37.89
215.249	3.07
215.467	56.32
215.686	3.07
215.904	52.22
216.122	37.89
216.341	17.41
216.559	103.42
216.778	101.37
216.996	97.28
217.214	-9.22
217.432	19.46
217.651	-60.42
217.869	-91.13
218.087	1.02
218.306	46.08
218.524	68.61
218.742	7.17
218.96	56.32
219.179	-21.5
219.397	1.02
219.615	89.09
219.833	87.04
220.051	1.02
220.27	97.28
220.488	27.65
220.706	-19.46
220.924	46.08
221.142	7.17
221.36	-3.07
221.578	-21.5
221.796	-19.46
222.015	97.28
222.233	62.46
222.451	97.28
222.669	21.5
222.887	76.8
223.105	54.27
223.323	41.98
223.541	-52.22
223.759	72.7
223.977	-11.26
224.195	99.33
224.413	35.84
224.631	58.37
224.849	76.8
225.067	84.99
225.285	-21.5
225.503	48.13
225.721	-103.42
225.939	27.65
226.157	-5.12
226.375	142.33
226.592	-27.65
226.81	-11.26
227.028	13.31
227.246	152.57
227.464	-15.36
227.682	31.74
227.9	54.27
228.117	56.32
228.335	-7.17
228.553	44.03
228.771	-54.27
228.989	56.32
229.206	-9.22
229.424	60.42
229.642	17.41
229.86	27.65
230.077	27.65
230.295	-7.17
230.513	3.07
230.731	-23.55
230.948	-58.37
231.166	162.81
231.384	46.08
231.601	3.07
231.819	91.13
232.037	44.03
232.254	58.37
232.472	-19.46
232.689	-50.18
232.907	103.42
233.125	9.22
233.342	-68.61
233.56	-21.5
233.777	3.07
233.995	46.08
234.213	76.8
234.43	-17.41
234.648	35.84
234.865	13.31
235.083	70.65
235.3	-35.84
235.518	27.65
235.735	115.71
235.953	68.61
236.17	-11.26
236.388	15.36
236.605	7.17
236.822	134.14
237.04	37.89
237.257	-33.79
237.475	48.13
237.692	101.37
237.909	44.03
238.127	70.65
238.344	-15.36
238.562	44.03
238.779	19.46
238.996	-1.02
239.214	29.7
239.431	25.6
239.648	23.55
239.865	29.7
240.083	80.89
240.3	33.79
240.517	33.79
240.735	35.84
240.952	9.22
241.169	76.8
241.386	11.26
241.603	1.02
241.821	27.65
242.038	58.37
242.255	54.27
242.472	-33.79
242.689	76.8
242.907	68.61
243.124	-15.36
243.341	-17.41
243.558	-78.85
243.775	-62.46
243.992	1.02
244.209	54.27
244.426	35.84
244.643	78.85
244.86	-21.5
245.078	13.31
245.295	41.98
245.512	9.22
245.729	-19.46
245.946	52.22
246.163	23.55
246.38	60.42
246.597	25.6
246.814	13.31
247.031	39.94
247.248	23.55
247.464	7.17
247.681	7.17
247.898	115.71
248.115	72.7
248.332	7.17
248.549	48.13
248.766	97.28
248.983	15.36
249.2	29.7
249.417	121.85
249.633	7.17
249.85	21.5
250.067	11.26
250.284	50.18
250.501	72.7
250.717	39.94
250.934	-46.08
251.151	-25.6
251.368	5.12
251.585	84.99
251.801	23.55
252.018	1.02
252.235	-1.02
252.451	1.02
252.668	60.42
252.885	58.37
253.102	9.22
253.318	29.7
253.535	23.55
253.752	5.12
253.968	-62.46
254.185	-84.99
254.401	99.33
254.618	68.61
254.835	11.26
255.051	52.22
255.268	19.46
255.484	17.41
255.701	44.03
255.917	115.71
256.134	1.02
256.351	1.02
256.567	37.89
256.784	-27.65
257	9.22
257.217	76.8
257.433	-3.07
257.65	27.65
257.866	21.5
258.082	-11.26
258.299	7.17
258.515	33.79
258.732	-17.41
258.948	11.26
259.165	97.28
259.381	9.22
259.597	66.56
259.814	-19.46
260.03	-11.26
260.246	33.79
260.463	44.03
260.679	78.85
260.895	58.37
261.112	84.99
261.328	44.03
261.544	1.02
261.761	138.24
261.977	-17.41
262.193	33.79
262.409	35.84
262.626	35.84
262.842	11.26
263.058	17.41
263.274	87.04
263.49	31.74
263.707	56.32
263.923	9.22
264.139	-37.89
264.355	27.65
264.571	62.46
264.787	9.22
265.004	-11.26
265.22	72.7
265.436	-13.31
265.652	1.02
265.868	41.98
266.084	-5.12
266.3	41.98
266.516	-3.07
266.732	39.94
266.948	21.5
267.164	60.42
267.38	93.18
267.596	27.65
267.812	115.71
268.028	91.13
268.244	101.37
268.46	33.79
268.676	-41.98
268.892	52.22
269.108	-25.6
269.324	25.6
269.54	11.26
269.756	95.23
269.972	-48.13
270.188	50.18
270.403	-31.74
270.619	9.22
270.835	9.22
271.051	19.46
271.267	35.84
271.483	-35.84
271.698	78.85
271.914	-5.12
272.13	-11.26
272.346	64.51
272.562	54.27
272.777	-13.31
272.993	82.94
273.209	-44.03
273.425	52.22
273.64	-17.41
273.856	82.94
274.072	11.26
274.287	-44.03
274.503	13.31
274.719	46.08
274.934	37.89
275.15	-35.84
275.366	25.6
275.581	46.08
275.797	-7.17
276.012	46.08
276.228	33.79
276.444	1.02
276.659	78.85
276.875	60.42
277.09	17.41
277.306	70.65
277.521	21.5
277.737	56.32
277.952	7.17
278.168	78.85
278.383	33.79
278.599	29.7
278.814	46.08
279.03	80.89
279.245	15.36
279.461	-41.98
279.676	93.18
279.892	44.03
280.107	-3.07
280.322	5.12
280.538	25.6
280.753	62.46
280.969	82.94
281.184	-1.02
281.399	66.56
281.615	52.22
281.83	46.08
282.045	11.26
282.26	60.42
282.476	-15.36
282.691	130.05
282.906	23.55
283.122	56.32
283.337	3.07
283.552	111.61
283.767	31.74
283.983	89.09
284.198	37.89
284.413	52.22
284.628	46.08
284.843	72.7
285.058	54.27
285.274	5.12
285.489	-5.12
285.704	19.46
285.919	95.23
286.134	3.07
286.349	56.32
286.564	7.17
286.779	-25.6
286.995	7.17
287.21	3.07
287.425	31.74
287.64	5.12
287.855	48.13
288.07	23.55
288.285	41.98
288.5	119.81
288.715	54.27
288.93	11.26
289.145	15.36
289.36	50.18
289.575	44.03
289.79	9.22
290.004	21.5
290.219	15.36
290.434	25.6
290.649	-50.18
290.864	35.84
291.079	41.98
291.294	72.7
291.509	3.07
291.724	31.74
291.938	21.5
292.153	19.46
292.368	-41.98
292.583	50.18
292.798	21.5
293.012	11.26
293.227	54.27
293.442	15.36
293.657	21.5
293.871	84.99
294.086	58.37
294.301	46.08
294.516	87.04
294.73	56.32
294.945	-37.89
295.16	5.12
295.374	78.85
295.589	54.27
295.804	-3.07
296.018	56.32
296.233	123.9
296.447	41.98
296.662	39.94
296.877	103.42
297.091	41.98
297.306	66.56
297.52	15.36
297.735	-13.31
297.949	54.27
298.164	-7.17
298.378	29.7
298.593	62.46
298.807	-46.08
299.022	35.84
299.236	72.7
299.451	29.7
299.665	33.79
299.88	-46.08
300.094	66.56
300.309	-1.02
300.523	-15.36
300.737	39.94
300.952	74.75
301.166	52.22
301.381	-58.37
301.595	5.12
301.809	52.22
302.024	21.5
302.238	-7.17
302.452	89.09
302.667	-54.27
302.881	48.13
303.095	25.6
303.309	27.65
303.524	60.42
303.738	-80.89
303.952	3.07
304.166	33.79
304.381	17.41
304.595	62.46
304.809	-5.12
305.023	72.7
305.237	-50.18
305.452	5.12
305.666	19.46
305.88	91.13
306.094	91.13
306.308	-21.5
306.522	41.98
306.736	82.94
306.95	105.47
307.164	107.52
307.379	35.84
307.593	37.89
307.807	64.51
308.021	103.42
308.235	-1.02
308.449	128
308.663	-17.41
308.877	123.9
309.091	-13.31
309.305	-31.74
309.519	-31.74
309.733	21.5
309.947	-3.07
310.161	117.76
310.374	23.55
310.588	64.51
310.802	33.79
311.016	23.55
311.23	70.65
311.444	41.98
311.658	23.55
311.872	37.89
312.085	87.04
312.299	82.94
312.513	64.51
312.727	31.74
312.941	31.74
313.154	27.65
313.368	58.37
313.582	-19.46
313.796	-7.17
314.009	29.7
314.223	46.08
314.437	-9.22
314.651	64.51
314.864	74.75
315.078	33.79
315.292	-21.5
315.505	3.07
315.719	-31.74
315.933	15.36
316.146	93.18
316.36	-54.27
316.573	111.61
316.787	78.85
317.001	31.74
317.214	52.22
317.428	-11.26
317.641	-54.27
317.855	50.18
318.068	25.6
318.282	70.65
318.495	46.08
318.709	-13.31
318.922	64.51
319.136	7.17
319.349	50.18
319.563	-5.12
319.776	107.52
319.99	-19.46
320.203	35.84
320.417	70.65
320.63	66.56
320.843	87.04
321.057	48.13
321.27	68.61
321.483	80.89
321.697	21.5
321.91	11.26
322.124	41.98
322.337	29.7
322.55	-11.26
322.763	46.08
322.977	11.26
323.19	-29.7
323.403	-13.31
323.617	31.74
323.83	41.98
324.043	56.32
324.256	-25.6
324.469	56.32
324.683	41.98
324.896	19.46
325.109	41.98
325.322	27.65
325.535	52.22
325.748	27.65
325.962	80.89
326.175	35.84
326.388	70.65
326.601	11.26
326.814	-3.07
327.027	84.99
327.24	56.32
327.453	-46.08
327.666	60.42
327.879	107.52
328.092	119.81
328.305	44.03
328.518	-5.12
328.731	1.02
328.944	-11.26
329.157	-23.55
329.37	50.18
329.583	117.76
329.796	56.32
330.009	-11.26
330.222	60.42
330.435	109.57
330.648	48.13
330.861	35.84
331.073	80.89
331.286	87.04
331.499	39.94
331.712	-78.85
331.925	52.22
332.138	-17.41
332.35	25.6
332.563	9.22
332.776	19.46
332.989	25.6
333.202	-3.07
333.414	103.42
333.627	-5.12
333.84	76.8
334.053	19.46
334.265	-54.27
334.478	56.32
334.691	25.6
334.903	54.27
335.116	35.84
335.329	-7.17
335.541	9.22
335.754	9.22
335.966	70.65
336.179	-23.55
336.392	37.89
336.604	31.74
336.817	19.46
337.029	66.56
337.242	60.42
337.454	97.28
337.667	15.36
337.88	150.53
338.092	1.02
338.305	37.89
338.517	-33.79
338.729	121.85
338.942	33.79
339.154	13.31
339.367	-31.74
339.579	37.89
339.792	27.65
340.004	84.99
340.217	29.7
340.429	76.8
340.641	3.07
340.854	72.7
341.066	31.74
341.278	44.03
341.491	58.37
341.703	29.7
341.915	-9.22
342.128	66.56
342.34	56.32
342.552	-5.12
342.764	-37.89
342.977	44.03
343.189	50.18
343.401	1.02
343.613	46.08
343.826	25.6
344.038	50.18
344.25	105.47
344.462	-11.26
344.674	-7.17
344.886	101.37
345.099	35.84
345.311	-1.02
345.523	87.04
345.735	1.02
345.947	54.27
346.159	76.8
346.371	17.41
346.583	11.26
346.795	76.8
347.007	23.55
347.219	87.04
347.431	-39.94
347.643	15.36
347.855	72.7
348.067	41.98
348.279	-48.13
348.491	21.5
348.703	15.36
348.915	23.55
349.127	-1.02
349.339	35.84
349.551	-1.02
349.763	76.8
349.975	128
350.187	82.94
350.399	35.84
350.61	27.65
350.822	93.18
351.034	50.18
351.246	64.51
351.458	-5.12
351.669	101.37
351.881	62.46
352.093	35.84
352.305	15.36
352.517	89.09
352.728	15.36
352.94	62.46
353.152	66.56
353.363	64.51
353.575	52.22
353.787	25.6
353.999	25.6
354.21	41.98
354.422	31.74
354.633	-1.02
354.845	-27.65
355.057	-13.31
355.268	17.41
355.48	130.05
355.692	39.94
355.903	76.8
356.115	-9.22
356.326	-60.42
356.538	39.94
356.749	103.42
356.961	91.13
357.172	35.84
357.384	5.12
357.595	158.72
357.807	44.03
358.018	68.61
358.23	23.55
358.441	117.76
358.653	15.36
358.864	25.6
359.075	-37.89
359.287	62.46
359.498	37.89
359.709	29.7
359.921	41.98
360.132	-11.26
360.344	54.27
360.555	56.32
360.766	62.46
360.977	29.7
361.189	52.22
361.4	15.36
361.611	89.09
361.823	-7.17
362.034	97.28
362.245	-1.02
362.456	48.13
362.667	93.18
362.879	25.6
363.09	37.89
363.301	109.57
363.512	91.13
363.723	-17.41
363.935	15.36
364.146	19.46
364.357	62.46
364.568	44.03
364.779	9.22
364.99	68.61
365.201	19.46
365.412	64.51
365.623	-27.65
365.834	33.79
366.045	-7.17
366.256	35.84
366.467	-17.41
366.678	-27.65
366.889	46.08
367.1	82.94
367.311	37.89
367.522	-39.94
367.733	52.22
367.944	87.04
368.155	84.99
368.366	80.89
368.577	89.09
368.788	37.89
368.999	58.37
369.209	-27.65
369.42	50.18
369.631	33.79
369.842	68.61
370.053	107.52
370.264	121.85
370.474	19.46
370.685	39.94
370.896	54.27
371.107	-7.17
371.317	41.98
371.528	31.74
371.739	80.89
371.95	64.51
372.16	25.6
372.371	-3.07
372.582	84.99
372.792	99.33
373.003	37.89
373.214	29.7
373.424	93.18
373.635	48.13
373.846	74.75
374.056	-23.55
374.267	17.41
374.477	123.9
374.688	7.17
374.898	11.26
375.109	111.61
375.319	37.89
375.53	97.28
375.74	33.79
375.951	25.6
376.161	27.65
376.372	46.08
376.582	44.03
376.793	56.32
377.003	66.56
377.214	41.98
377.424	1.02
377.635	-3.07
377.845	37.89
378.055	93.18
378.266	-17.41
378.476	9.22
378.686	82.94
378.897	33.79
379.107	58.37
379.317	-1.02
379.528	60.42
379.738	46.08
379.948	9.22
380.158	105.47
380.369	62.46
380.579	119.81
380.789	7.17
380.999	23.55
381.21	101.37
381.42	97.28
381.63	54.27
381.84	68.61
382.05	121.85
382.261	58.37
382.471	35.84
382.681	-11.26
382.891	164.86
383.101	44.03
383.311	50.18
383.521	-25.6
383.731	27.65
383.941	76.8
384.151	3.07
384.361	74.75
384.571	101.37
384.781	70.65
384.991	125.95
385.201	58.37
385.411	39.94
385.621	82.94
385.831	68.61
386.041	119.81
386.251	76.8
386.461	76.8
386.671	93.18
386.881	91.13
387.091	62.46
387.301	66.56
387.511	41.98
387.72	103.42
387.93	101.37
388.14	58.37
388.35	33.79
388.56	56.32
388.769	76.8
388.979	72.7
389.189	31.74
389.399	27.65
389.609	19.46
389.818	185.34
390.028	11.26
390.238	5.12
390.447	-15.36
390.657	74.75
390.867	-25.6
391.076	3.07
391.286	171.01
391.496	-23.55
391.705	99.33
391.915	103.42
392.125	84.99
392.334	9.22
392.544	132.09
392.753	72.7
392.963	68.61
393.172	87.04
393.382	89.09
393.591	125.95
393.801	66.56
394.01	107.52
394.22	105.47
394.429	33.79
394.639	27.65
394.848	144.38
395.058	117.76
395.267	109.57
395.477	27.65
395.686	39.94
395.895	125.95
396.105	183.29
396.314	50.18
396.524	80.89
396.733	13.31
396.942	99.33
397.152	84.99
397.361	15.36
397.57	140.29
397.78	74.75
397.989	136.19
398.198	146.43
398.407	52.22
398.617	56.32
398.826	164.86
399.035	62.46
399.244	56.32
399.453	23.55
399.663	134.14
399.872	154.62
400.081	111.61
400.29	93.18
400.499	62.46
400.708	154.62
400.917	84.99
401.127	64.51
401.336	33.79
401.545	105.47
401.754	125.95
401.963	103.42
402.172	68.61
402.381	80.89
402.59	35.84
402.799	99.33
403.008	64.51
403.217	101.37
403.426	171.01
403.635	62.46
403.844	146.43
404.053	136.19
404.262	101.37
404.471	238.59
404.68	95.23
404.888	185.34
405.097	105.47
405.306	171.01
405.515	224.25
405.724	150.53
405.933	142.33
406.142	160.77
406.35	115.71
406.559	263.16
406.768	109.57
406.977	226.3
407.185	197.63
407.394	146.43
407.603	171.01
407.812	218.11
408.02	250.88
408.229	240.64
408.438	238.59
408.646	224.25
408.855	130.05
409.064	250.88
409.272	201.72
409.481	226.3
409.69	211.96
409.898	240.64
410.107	236.54
410.315	375.8
410.524	252.92
410.733	328.7
410.941	281.6
411.15	250.88
411.358	371.71
411.567	377.85
411.775	394.23
411.984	302.08
412.192	406.52
412.401	285.69
412.609	392.19
412.818	482.3
413.026	359.42
413.234	478.2
413.443	451.58
413.651	533.5
413.86	400.38
414.068	437.24
414.276	467.96
414.485	529.4
414.693	582.65
414.901	525.3
415.11	592.89
415.318	529.4
415.526	639.99
415.734	590.84
415.943	652.28
416.151	680.95
416.359	619.51
416.567	680.95
416.776	844.79
416.984	715.77
417.192	873.46
417.4	754.68
417.608	799.73
417.817	807.92
418.025	844.79
418.233	979.95
418.441	914.42
418.649	926.71
418.857	988.14
419.065	1078.26
419.273	1092.59
419.481	1168.37
419.689	1162.22
419.897	1192.94
420.105	1143.79
420.313	1250.28
420.521	1483.75
420.729	1295.34
420.937	1500.14
421.145	1463.27
421.353	1606.63
421.561	1631.21
421.769	1618.92
421.977	1692.65
422.185	1735.65
422.393	1620.97
422.601	1823.72
422.809	1926.11
423.017	1854.44
423.224	1981.41
423.432	1973.22
423.64	2003.94
423.848	2171.87
424.056	2270.17
424.263	2401.24
424.471	2214.88
424.679	2335.71
424.887	2538.46
425.094	2640.86
425.302	2647
425.51	2870.23
425.718	2909.14
425.925	2825.17
426.133	2982.87
426.341	3058.64
426.548	3085.26
426.756	3259.34
426.964	3218.38
427.171	3507.15
427.379	3509.19
427.586	3646.41
427.794	3752.9
428.001	3929.03
428.209	4107.2
428.417	3961.8
428.624	4389.82
428.832	4228.03
429.039	4297.66
429.247	4189.12
429.454	4783.03
429.662	4998.07
429.869	4611
430.076	5129.14
430.284	4871.09
430.491	5209.01
430.699	5446.57
430.906	5315.5
431.114	5284.78
431.321	5596.07
431.528	5737.38
431.736	6196.13
431.943	6304.67
432.15	6341.54
432.358	6435.74
432.565	6710.17
432.772	6607.77
432.979	6927.25
433.187	7304.08
433.394	7127.96
433.601	7603.08
433.808	7717.77
434.016	7506.83
434.223	7891.85
434.43	8389.5
434.637	8070.02
434.844	8717.18
435.052	8981.37
435.259	8733.56
435.466	9053.05
435.673	8768.38
435.88	9479.02
436.087	9882.47
436.294	9855.85
436.501	9728.88
436.708	9747.31
436.915	10136.42
437.122	10853.21
437.329	10650.46
437.537	10998.62
437.743	11389.78
437.95	11135.83
438.157	11664.21
438.364	12202.82
438.571	12084.04
438.778	11957.07
438.985	13316.92
439.192	12852.03
439.399	13191.99
439.606	12731.2
439.813	13325.11
440.02	14467.88
440.227	14277.41
440.433	14025.51
440.64	14629.66
440.847	14525.22
441.054	14846.75
441.261	15641.36
441.467	15483.67
441.674	15913.74
441.881	16376.58
442.088	16354.05
442.294	16251.66
442.501	16765.7
442.708	17300.22
442.914	17810.16
443.121	18547.43
443.328	17941.23
443.534	19223.26
443.741	18766.56
443.948	18469.61
444.154	19849.94
444.361	19550.93
444.568	19675.86
444.774	19905.23
444.981	20187.85
445.187	20583.11
445.394	21498.55
445.6	21400.25
445.807	23378.59
446.013	22338.22
446.22	22710.95
446.426	23827.09
446.633	23882.39
446.839	24593.03
447.046	23612.06
447.252	24763.01
447.459	25070.21
447.665	24687.24
447.871	26018.42
448.078	27206.24
448.284	25762.42
448.491	26667.63
448.697	27576.92
448.903	27849.3
449.11	28484.17
449.316	27669.08
449.522	28189.27
449.728	29026.89
449.935	29274.69
450.141	29387.33
450.347	30167.6
450.553	29049.41
450.76	29266.5
450.966	30132.79
451.172	30024.25
451.378	30745.13
451.584	30323.25
451.791	30657.07
451.997	30874.15
452.203	31277.6
452.409	31162.92
452.615	31066.66
452.821	29917.75
453.027	29934.14
453.233	30904.87
453.44	29962.81
453.646	30259.76
453.852	30173.75
454.058	31027.75
454.264	30085.68
454.47	30505.52
454.676	30011.96
454.882	30966.31
455.088	28219.99
455.294	28420.69
455.5	28934.73
455.705	29555.26
455.911	28363.34
456.117	27861.59
456.323	27433.57
456.529	25612.92
456.735	26630.76
456.941	26010.23
457.147	25672.31
457.352	24978.05
457.558	24697.48
457.764	24855.17
457.97	24486.54
458.176	23906.96
458.381	24124.05
458.587	22610.6
458.793	22753.96
458.999	21473.98
459.204	23005.86
459.41	22303.4
459.616	20908.74
459.821	21072.57
460.027	20574.92
460.233	20177.61
460.438	19348.18
460.644	19495.64
460.85	18842.34
461.055	18537.19
461.261	18342.63
461.466	16853.76
461.672	16366.34
461.878	17287.93
462.083	16517.89
462.289	16257.8
462.494	16050.96
462.7	15254.3
462.905	14838.56
463.111	15377.17
463.316	15491.86
463.522	15135.51
463.727	15151.9
463.932	15293.21
464.138	14918.43
464.343	15117.08
464.549	14635.81
464.754	15188.76
464.959	15002.4
465.165	14605.09
465.37	14244.65
465.575	13730.61
465.781	14478.12
465.986	14529.31
466.191	13835.05
466.397	13671.22
466.602	12909.37
466.807	13480.75
467.012	13542.19
467.218	13478.71
467.423	13271.86
467.628	13198.13
