Data from USB4F104151__70__12-24-17-321.txt Node

Date: Fri Mar 14 12:24:17 EDT 2025
User: louis
Spectrometer: USB4F10415
Trigger mode: 4
Integration Time (sec): 3.500000E-2
Scans to average: 1
Electric dark correction enabled: true
Nonlinearity correction enabled: false
Boxcar width: 0
XAxis mode: Wavelengths
Number of Pixels in Spectrum: 3648
>>>>>Begin Spectral Data<<<<<
178.204	-115.88
178.424	-115.88
178.644	-115.88
178.864	-138.41
179.084	-122.02
179.304	-89.26
179.524	-27.82
179.744	-21.67
179.964	62.29
180.184	21.33
180.404	-1.19
180.624	-19.63
180.844	37.72
181.064	-27.82
181.283	15.19
181.503	2.9
181.723	47.96
181.943	-42.15
182.163	-7.34
182.383	-46.25
182.602	47.96
182.822	70.48
183.042	17.24
183.262	-29.87
183.482	25.43
183.701	-27.82
183.921	35.67
184.141	76.63
184.361	62.29
184.58	76.63
184.8	13.14
185.02	15.19
185.239	29.52
185.459	7
185.679	82.77
185.898	-48.3
186.118	25.43
186.338	37.72
186.557	-40.11
186.777	15.19
186.997	47.96
187.216	31.57
187.436	82.77
187.655	56.15
187.875	78.68
188.095	82.77
188.314	11.09
188.534	45.91
188.753	-72.87
188.973	52.05
189.192	7
189.412	-42.15
189.631	54.1
189.851	90.96
190.07	109.4
190.29	27.48
190.509	54.1
190.729	-13.48
190.948	93.01
191.168	150.36
191.387	43.86
191.607	-58.54
191.826	7
192.045	-25.77
192.265	0.85
192.484	80.72
192.704	68.44
192.923	-36.01
193.142	127.83
193.362	-58.54
193.581	-5.29
193.8	17.24
194.02	54.1
194.239	17.24
194.458	50
194.678	62.29
194.897	19.29
195.116	-25.77
195.335	-3.24
195.555	35.67
195.774	7
195.993	123.73
196.212	-7.34
196.432	-27.82
196.651	-40.11
196.87	-23.72
197.089	90.96
197.308	82.77
197.528	78.68
197.747	25.43
197.966	9.05
198.185	74.58
198.404	74.58
198.623	17.24
198.842	82.77
199.062	56.15
199.281	76.63
199.5	-7.34
199.719	7
199.938	33.62
200.157	129.88
200.376	35.67
200.595	117.59
200.814	-23.72
201.033	-9.39
201.252	11.09
201.471	41.81
201.69	13.14
201.909	17.24
202.128	21.33
202.347	29.52
202.566	35.67
202.785	-13.48
203.004	-31.91
203.223	113.49
203.442	47.96
203.661	-1.19
203.879	-15.53
204.098	101.2
204.317	7
204.536	45.91
204.755	64.34
204.974	19.29
205.193	-11.43
205.411	97.11
205.63	103.25
205.849	50
206.068	43.86
206.287	103.25
206.505	47.96
206.724	-3.24
206.943	37.72
207.162	-5.29
207.381	66.39
207.599	52.05
207.818	23.38
208.037	88.92
208.255	-36.01
208.474	-40.11
208.693	-19.63
208.911	39.76
209.13	2.9
209.349	58.2
209.567	35.67
209.786	74.58
210.005	11.09
210.223	9.05
210.442	-40.11
210.661	52.05
210.879	-3.24
211.098	-19.63
211.316	21.33
211.535	148.31
211.753	25.43
211.972	-3.24
212.191	25.43
212.409	-23.72
212.628	45.91
212.846	25.43
213.065	-33.96
213.283	68.44
213.502	15.19
213.72	-1.19
213.938	70.48
214.157	52.05
214.375	21.33
214.594	21.33
214.812	-13.48
215.031	70.48
215.249	47.96
215.467	19.29
215.686	7
215.904	47.96
216.122	-3.24
216.341	64.34
216.559	31.57
216.778	60.24
216.996	15.19
217.214	15.19
217.432	13.14
217.651	43.86
217.869	25.43
218.087	23.38
218.306	66.39
218.524	2.9
218.742	-27.82
218.96	33.62
219.179	31.57
219.397	-40.11
219.615	78.68
219.833	123.73
220.051	11.09
220.27	39.76
220.488	39.76
220.706	78.68
220.924	21.33
221.142	11.09
221.36	37.72
221.578	33.62
221.796	15.19
222.015	62.29
222.233	-40.11
222.451	47.96
222.669	35.67
222.887	-7.34
223.105	0.85
223.323	50
223.541	-33.96
223.759	7
223.977	-64.68
224.195	64.34
224.413	54.1
224.631	4.95
224.849	52.05
225.067	117.59
225.285	-21.67
225.503	52.05
225.721	-7.34
225.939	11.09
226.157	88.92
226.375	131.92
226.592	15.19
226.81	0.85
227.028	90.96
227.246	37.72
227.464	7
227.682	45.91
227.9	-13.48
228.117	21.33
228.335	50
228.553	-48.3
228.771	-56.49
228.989	54.1
229.206	37.72
229.424	78.68
229.642	68.44
229.86	7
230.077	103.25
230.295	39.76
230.513	97.11
230.731	31.57
230.948	4.95
231.166	39.76
231.384	29.52
231.601	-1.19
231.819	76.63
232.037	31.57
232.254	2.9
232.472	45.91
232.689	-52.39
232.907	-40.11
233.125	37.72
233.342	45.91
233.56	25.43
233.777	9.05
233.995	41.81
234.213	78.68
234.43	84.82
234.648	-9.39
234.865	41.81
235.083	43.86
235.3	-25.77
235.518	31.57
235.735	123.73
235.953	70.48
236.17	-50.35
236.388	-29.87
236.605	-11.43
236.822	107.35
237.04	39.76
237.257	19.29
237.475	-60.59
237.692	27.48
237.909	39.76
238.127	-58.54
238.344	82.77
238.562	29.52
238.779	-13.48
238.996	-21.67
239.214	37.72
239.431	37.72
239.648	-5.29
239.865	33.62
240.083	66.39
240.3	45.91
240.517	-1.19
240.735	-13.48
240.952	35.67
241.169	13.14
241.386	88.92
241.603	19.29
241.821	2.9
242.038	25.43
242.255	60.24
242.472	-52.39
242.689	31.57
242.907	78.68
243.124	27.48
243.341	47.96
243.558	21.33
243.775	-29.87
243.992	31.57
244.209	-19.63
244.426	133.97
244.643	84.82
244.86	-38.06
245.078	13.14
245.295	62.29
245.512	29.52
245.729	2.9
245.946	47.96
246.163	2.9
246.38	62.29
246.597	47.96
246.814	19.29
247.031	45.91
247.248	60.24
247.464	88.92
247.681	39.76
247.898	21.33
248.115	7
248.332	50
248.549	50
248.766	105.3
248.983	62.29
249.2	43.86
249.417	109.4
249.633	-33.96
249.85	-42.15
250.067	-38.06
250.284	-5.29
250.501	37.72
250.717	17.24
250.934	23.38
251.151	11.09
251.368	-9.39
251.585	4.95
251.801	9.05
252.018	31.57
252.235	97.11
252.451	-27.82
252.668	23.38
252.885	90.96
253.102	-7.34
253.318	39.76
253.535	23.38
253.752	19.29
253.968	41.81
254.185	-13.48
254.401	58.2
254.618	90.96
254.835	-1.19
255.051	95.06
255.268	70.48
255.484	37.72
255.701	-5.29
255.917	70.48
256.134	35.67
256.351	27.48
256.567	23.38
256.784	35.67
257	-58.54
257.217	54.1
257.433	103.25
257.65	62.29
257.866	70.48
258.082	-29.87
258.299	78.68
258.515	-33.96
258.732	43.86
258.948	-19.63
259.165	25.43
259.381	19.29
259.597	-29.87
259.814	50
260.03	7
260.246	15.19
260.463	68.44
260.679	-27.82
260.895	64.34
261.112	54.1
261.328	-33.96
261.544	39.76
261.761	127.83
261.977	66.39
262.193	-17.58
262.409	90.96
262.626	-5.29
262.842	37.72
263.058	-42.15
263.274	68.44
263.49	0.85
263.707	62.29
263.923	72.53
264.139	-19.63
264.355	19.29
264.571	64.34
264.787	66.39
265.004	64.34
265.22	-1.19
265.436	33.62
265.652	29.52
265.868	31.57
266.084	-17.58
266.3	-3.24
266.516	4.95
266.732	-9.39
266.948	50
267.164	25.43
267.38	13.14
267.596	31.57
267.812	76.63
268.028	13.14
268.244	43.86
268.46	80.72
268.676	39.76
268.892	-5.29
269.108	74.58
269.324	-19.63
269.54	93.01
269.756	43.86
269.972	-27.82
270.188	-9.39
270.403	11.09
270.619	78.68
270.835	99.16
271.051	21.33
271.267	33.62
271.483	50
271.698	72.53
271.914	119.64
272.13	23.38
272.346	74.58
272.562	-58.54
272.777	52.05
272.993	37.72
273.209	47.96
273.425	11.09
273.64	15.19
273.856	-36.01
274.072	-33.96
274.287	-74.92
274.503	76.63
274.719	58.2
274.934	-27.82
275.15	0.85
275.366	-52.39
275.581	33.62
275.797	29.52
276.012	-31.91
276.228	11.09
276.444	11.09
276.659	74.58
276.875	-11.43
277.09	37.72
277.306	88.92
277.521	58.2
277.737	43.86
277.952	23.38
278.168	70.48
278.383	37.72
278.599	23.38
278.814	27.48
279.03	15.19
279.245	111.44
279.461	-7.34
279.676	97.11
279.892	-1.19
280.107	15.19
280.322	23.38
280.538	2.9
280.753	64.34
280.969	-66.73
281.184	31.57
281.399	88.92
281.615	-15.53
281.83	7
282.045	-15.53
282.26	-38.06
282.476	50
282.691	41.81
282.906	17.24
283.122	35.67
283.337	-19.63
283.552	86.87
283.767	-56.49
283.983	86.87
284.198	-40.11
284.413	13.14
284.628	21.33
284.843	76.63
285.058	19.29
285.274	35.67
285.489	39.76
285.704	31.57
285.919	29.52
286.134	37.72
286.349	2.9
286.564	56.15
286.779	80.72
286.995	84.82
287.21	-9.39
287.425	62.29
287.64	-44.2
287.855	13.14
288.07	-58.54
288.285	54.1
288.5	15.19
288.715	41.81
288.93	-3.24
289.145	-11.43
289.36	84.82
289.575	-52.39
289.79	64.34
290.004	2.9
290.219	27.48
290.434	23.38
290.649	-3.24
290.864	25.43
291.079	-7.34
291.294	25.43
291.509	-13.48
291.724	41.81
291.938	2.9
292.153	27.48
292.368	-21.67
292.583	-15.53
292.798	103.25
293.012	-13.48
293.227	37.72
293.442	-36.01
293.657	56.15
293.871	52.05
294.086	80.72
294.301	90.96
294.516	-3.24
294.73	15.19
294.945	-1.19
295.16	-27.82
295.374	31.57
295.589	90.96
295.804	0.85
296.018	17.24
296.233	97.11
296.447	9.05
296.662	-9.39
296.877	80.72
297.091	58.2
297.306	35.67
297.52	47.96
297.735	27.48
297.949	13.14
298.164	52.05
298.378	27.48
298.593	15.19
298.807	-33.96
299.022	15.19
299.236	111.44
299.451	19.29
299.665	90.96
299.88	31.57
300.094	35.67
300.309	125.78
300.523	58.2
300.737	-27.82
300.952	19.29
301.166	-21.67
301.381	9.05
301.595	2.9
301.809	37.72
302.024	23.38
302.238	-13.48
302.452	88.92
302.667	15.19
302.881	93.01
303.095	15.19
303.309	-38.06
303.524	27.48
303.738	29.52
303.952	43.86
304.166	78.68
304.381	-1.19
304.595	78.68
304.809	15.19
305.023	13.14
305.237	-42.15
305.452	70.48
305.666	7
305.88	7
306.094	80.72
306.308	13.14
306.522	56.15
306.736	113.49
306.95	31.57
307.164	45.91
307.379	29.52
307.593	25.43
307.807	74.58
308.021	64.34
308.235	-5.29
308.449	41.81
308.663	27.48
308.877	99.16
309.091	7
309.305	43.86
309.519	54.1
309.733	47.96
309.947	-33.96
310.161	21.33
310.374	140.12
310.588	50
310.802	-15.53
311.016	-68.78
311.23	60.24
311.444	56.15
311.658	113.49
311.872	80.72
312.085	19.29
312.299	-33.96
312.513	50
312.727	39.76
312.941	15.19
313.154	60.24
313.368	-13.48
313.582	35.67
313.796	2.9
314.009	-9.39
314.223	25.43
314.437	105.3
314.651	58.2
314.864	72.53
315.078	-11.43
315.292	25.43
315.505	74.58
315.719	54.1
315.933	13.14
316.146	-25.77
316.36	9.05
316.573	43.86
316.787	62.29
317.001	64.34
317.214	-19.63
317.428	99.16
317.641	21.33
317.855	2.9
318.068	19.29
318.282	4.95
318.495	170.83
318.709	66.39
318.922	60.24
319.136	119.64
319.349	52.05
319.563	-13.48
319.776	76.63
319.99	-42.15
320.203	109.4
320.417	17.24
320.63	62.29
320.843	19.29
321.057	47.96
321.27	45.91
321.483	-5.29
321.697	74.58
321.91	52.05
322.124	47.96
322.337	68.44
322.55	-5.29
322.763	68.44
322.977	-17.58
323.19	27.48
323.403	-21.67
323.617	45.91
323.83	41.81
324.043	35.67
324.256	43.86
324.469	43.86
324.683	62.29
324.896	54.1
325.109	78.68
325.322	-64.68
325.535	58.2
325.748	50
325.962	35.67
326.175	25.43
326.388	45.91
326.601	47.96
326.814	-38.06
327.027	-3.24
327.24	64.34
327.453	-23.72
327.666	50
327.879	74.58
328.092	82.77
328.305	76.63
328.518	-23.72
328.731	54.1
328.944	19.29
329.157	17.24
329.37	45.91
329.583	88.92
329.796	119.64
330.009	-31.91
330.222	93.01
330.435	27.48
330.648	84.82
330.861	-70.83
331.073	41.81
331.286	80.72
331.499	82.77
331.712	-29.87
331.925	62.29
332.138	4.95
332.35	41.81
332.563	19.29
332.776	58.2
332.989	97.11
333.202	15.19
333.414	-11.43
333.627	72.53
333.84	29.52
334.053	43.86
334.265	50
334.478	-11.43
334.691	70.48
334.903	64.34
335.116	-1.19
335.329	21.33
335.541	-7.34
335.754	80.72
335.966	-21.67
336.179	-15.53
336.392	-17.58
336.604	27.48
336.817	27.48
337.029	56.15
337.242	7
337.454	13.14
337.667	45.91
337.88	19.29
338.092	84.82
338.305	31.57
338.517	-5.29
338.729	68.44
338.942	74.58
339.154	-38.06
339.367	-17.58
339.579	47.96
339.792	37.72
340.004	35.67
340.217	4.95
340.429	7
340.641	25.43
340.854	45.91
341.066	-52.39
341.278	70.48
341.491	101.2
341.703	11.09
341.915	0.85
342.128	58.2
342.34	45.91
342.552	-9.39
342.764	-1.19
342.977	21.33
343.189	13.14
343.401	29.52
343.613	33.62
343.826	-60.59
344.038	4.95
344.25	68.44
344.462	-13.48
344.674	31.57
344.886	-11.43
345.099	78.68
345.311	-1.19
345.523	0.85
345.735	-17.58
345.947	-5.29
346.159	31.57
346.371	45.91
346.583	-13.48
346.795	97.11
347.007	-29.87
347.219	25.43
347.431	74.58
347.643	23.38
347.855	-42.15
348.067	58.2
348.279	-40.11
348.491	74.58
348.703	31.57
348.915	99.16
349.127	-19.63
349.339	-3.24
349.551	43.86
349.763	9.05
349.975	113.49
350.187	70.48
350.399	35.67
350.61	74.58
350.822	66.39
351.034	-1.19
351.246	23.38
351.458	23.38
351.669	17.24
351.881	11.09
352.093	107.35
352.305	4.95
352.517	25.43
352.728	64.34
352.94	35.67
353.152	88.92
353.363	-52.39
353.575	-42.15
353.787	15.19
353.999	21.33
354.21	50
354.422	62.29
354.633	54.1
354.845	0.85
355.057	76.63
355.268	-5.29
355.48	27.48
355.692	7
355.903	74.58
356.115	-27.82
356.326	15.19
356.538	95.06
356.749	29.52
356.961	60.24
357.172	27.48
357.384	-27.82
357.595	88.92
357.807	-74.92
358.018	-46.25
358.23	45.91
358.441	123.73
358.653	47.96
358.864	35.67
359.075	37.72
359.287	54.1
359.498	19.29
359.709	43.86
359.921	21.33
360.132	-40.11
360.344	45.91
360.555	58.2
360.766	23.38
360.977	23.38
361.189	50
361.4	4.95
361.611	93.01
361.823	117.59
362.034	39.76
362.245	-25.77
362.456	70.48
362.667	50
362.879	-33.96
363.09	4.95
363.301	-7.34
363.512	33.62
363.723	-27.82
363.935	70.48
364.146	50
364.357	15.19
364.568	70.48
364.779	-9.39
364.99	111.44
365.201	-27.82
365.412	93.01
365.623	45.91
365.834	-7.34
366.045	68.44
366.256	17.24
366.467	70.48
366.678	37.72
366.889	41.81
367.1	13.14
367.311	31.57
367.522	31.57
367.733	58.2
367.944	129.88
368.155	58.2
368.366	60.24
368.577	72.53
368.788	35.67
368.999	7
369.209	23.38
369.42	172.88
369.631	133.97
369.842	70.48
370.053	17.24
370.264	82.77
370.474	74.58
370.685	35.67
370.896	37.72
371.107	27.48
371.317	78.68
371.528	39.76
371.739	13.14
371.95	64.34
372.16	144.21
372.371	-25.77
372.582	-52.39
372.792	41.81
373.003	103.25
373.214	-1.19
373.424	33.62
373.635	-15.53
373.846	7
374.056	29.52
374.267	41.81
374.477	7
374.688	7
374.898	54.1
375.109	29.52
375.319	-27.82
375.53	62.29
375.74	121.68
375.951	60.24
376.161	58.2
376.372	2.9
376.582	41.81
376.793	21.33
377.003	31.57
377.214	45.91
377.424	35.67
377.635	56.15
377.845	35.67
378.055	107.35
378.266	-11.43
378.476	2.9
378.686	-17.58
378.897	109.4
379.107	82.77
379.317	47.96
379.528	17.24
379.738	-1.19
379.948	74.58
380.158	109.4
380.369	-36.01
380.579	68.44
380.789	29.52
380.999	37.72
381.21	33.62
381.42	78.68
381.63	66.39
381.84	31.57
382.05	17.24
382.261	70.48
382.471	60.24
382.681	-13.48
382.891	39.76
383.101	15.19
383.311	62.29
383.521	31.57
383.731	131.92
383.941	64.34
384.151	60.24
384.361	-17.58
384.571	35.67
384.781	27.48
384.991	99.16
385.201	78.68
385.411	33.62
385.621	47.96
385.831	54.1
386.041	-19.63
386.251	-9.39
386.461	13.14
386.671	-85.16
386.881	93.01
387.091	41.81
387.301	60.24
387.511	101.2
387.72	97.11
387.93	-48.3
388.14	25.43
388.35	56.15
388.56	82.77
388.769	27.48
388.979	31.57
389.189	-7.34
389.399	56.15
389.609	54.1
389.818	99.16
390.028	56.15
390.238	62.29
390.447	33.62
390.657	84.82
390.867	47.96
391.076	74.58
391.286	64.34
391.496	78.68
391.705	56.15
391.915	97.11
392.125	19.29
392.334	-31.91
392.544	162.64
392.753	70.48
392.963	43.86
393.172	138.07
393.382	58.2
393.591	64.34
393.801	37.72
394.01	86.87
394.22	62.29
394.429	-15.53
394.639	95.06
394.848	37.72
395.058	86.87
395.267	17.24
395.477	52.05
395.686	74.58
395.895	68.44
396.105	148.31
396.314	62.29
396.524	121.68
396.733	0.85
396.942	39.76
397.152	29.52
397.361	4.95
397.57	66.39
397.78	47.96
397.989	160.59
398.198	123.73
398.407	37.72
398.617	103.25
398.826	60.24
399.035	43.86
399.244	170.83
399.453	80.72
399.663	80.72
399.872	47.96
400.081	33.62
400.29	7
400.499	45.91
400.708	80.72
400.917	31.57
401.127	21.33
401.336	47.96
401.545	131.92
401.754	90.96
401.963	39.76
402.172	21.33
402.381	125.78
402.59	50
402.799	74.58
403.008	88.92
403.217	56.15
403.426	101.2
403.635	74.58
403.844	21.33
404.053	111.44
404.262	82.77
404.471	82.77
404.68	121.68
404.888	78.68
405.097	43.86
405.306	99.16
405.515	107.35
405.724	103.25
405.933	152.4
406.142	111.44
406.35	133.97
406.559	113.49
406.768	93.01
406.977	179.03
407.185	150.36
407.394	136.02
407.603	60.24
407.812	150.36
408.02	189.27
408.229	209.75
408.438	140.12
408.646	168.79
408.855	152.4
409.064	136.02
409.272	109.4
409.481	215.89
409.69	209.75
409.898	203.6
410.107	156.5
410.315	176.98
410.524	181.07
410.733	236.37
410.941	90.96
411.15	236.37
411.358	242.51
411.567	240.47
411.775	256.85
411.984	246.61
412.192	279.38
412.401	287.57
412.609	336.72
412.818	320.34
413.026	289.62
413.234	381.78
413.443	379.73
413.651	318.29
413.86	359.25
414.068	299.86
414.276	396.11
414.485	299.86
414.693	361.3
414.901	449.36
415.11	369.49
415.318	377.68
415.526	424.78
415.734	473.93
415.943	471.89
416.151	529.23
416.359	435.02
416.567	451.41
416.776	492.37
416.984	623.44
417.192	660.3
417.4	535.37
417.608	529.23
417.817	584.52
418.025	572.24
418.233	742.22
418.441	611.15
418.649	709.45
418.857	822.09
419.065	787.27
419.273	699.21
419.481	842.57
419.689	809.8
419.897	791.37
420.105	840.52
420.313	854.86
420.521	957.25
420.729	895.82
420.937	996.17
421.145	1057.61
421.353	1092.42
421.561	1112.9
421.769	1039.17
421.977	1219.39
422.185	1139.52
422.393	1248.07
422.601	1418.05
422.809	1286.98
423.017	1223.49
423.224	1397.57
423.432	1432.38
423.64	1450.82
423.848	1639.23
424.056	1454.91
424.263	1655.61
424.471	1588.03
424.679	1776.44
424.887	1745.72
425.094	1715
425.302	1878.84
425.51	1997.62
425.718	2011.96
425.925	2030.39
426.133	2007.86
426.341	2157.36
426.548	2083.64
426.756	2210.61
426.964	2390.83
427.171	2278.19
427.379	2564.91
427.586	2480.94
427.794	2536.24
428.001	2779.95
428.209	2890.54
428.417	2796.33
428.624	2994.98
428.832	2913.06
429.039	2902.83
429.247	2999.08
429.454	3253.03
429.662	3470.11
429.869	3263.27
430.076	3439.39
430.284	3588.89
430.491	3570.46
430.699	3824.41
430.906	3795.74
431.114	3773.21
431.321	3859.23
431.528	3961.62
431.736	4311.83
431.943	4406.03
432.15	4289.3
432.358	4365.07
432.565	4619.02
432.772	4449.04
432.979	4942.6
433.187	4799.24
433.394	4870.92
433.601	5344
433.808	5493.51
434.016	5331.72
434.223	5563.14
434.43	6021.88
434.637	5868.28
434.844	5997.31
435.052	6245.11
435.259	6030.07
435.466	6183.67
435.673	6169.34
435.88	6535.92
436.087	6959.85
436.294	7013.1
436.501	6697.71
436.708	6830.83
436.915	6994.67
437.122	7453.41
437.329	7201.51
437.537	7643.87
437.743	7865.05
437.95	7721.7
438.157	8098.52
438.364	8250.07
438.571	8422.1
438.778	8489.68
438.985	9175.75
439.192	8872.65
439.399	9212.62
439.606	8979.15
439.813	9568.96
440.02	10009.28
440.227	9759.42
440.433	9530.05
440.64	10107.58
440.847	10013.37
441.054	10314.42
441.261	10977.97
441.467	10822.32
441.674	11315.88
441.881	11410.09
442.088	11414.18
442.294	11324.07
442.501	11813.54
442.708	11850.4
442.914	12329.63
443.121	12866.19
443.328	12403.35
443.534	13251.21
443.741	13005.45
443.948	12618.39
444.154	13775.49
444.361	13838.98
444.568	14123.65
444.774	13843.07
444.981	14027.39
445.187	14377.59
445.394	15213.17
445.6	14756.47
445.807	16163.42
446.013	15667.81
446.22	15888.99
446.426	16431.71
446.633	16908.88
446.839	17228.37
447.046	16333.4
447.252	17476.17
447.459	17558.09
447.665	17793.61
447.871	18342.46
448.078	18788.92
448.284	18055.75
448.491	18405.95
448.697	19257.9
448.903	19634.73
449.11	19604.01
449.316	19200.56
449.522	19673.64
449.728	19933.73
449.935	20458.01
450.141	20619.8
450.347	20740.63
450.553	20308.51
450.76	20625.95
450.966	21021.2
451.172	21084.69
451.378	21518.86
451.584	21019.16
451.791	21752.33
451.997	21236.24
452.203	21867.02
452.409	21828.1
452.615	21891.59
452.821	21070.36
453.027	20742.68
453.233	21750.28
453.44	21115.41
453.646	21166.61
453.852	21234.19
454.058	21797.38
454.264	20871.7
454.47	21236.24
454.676	20687.39
454.882	21422.61
455.088	19757.61
455.294	19984.93
455.5	20269.6
455.705	20689.43
455.911	19720.74
456.117	19184.18
456.323	18928.18
456.529	17846.85
456.735	18768.44
456.941	18342.46
457.147	17873.48
457.352	17519.18
457.558	17171.02
457.764	17338.96
457.97	16986.71
458.176	16693.85
458.381	16392.8
458.587	15954.53
458.793	15637.09
458.999	14930.55
459.204	15975.01
459.41	15692.39
459.616	14590.58
459.821	14619.25
460.027	14310.01
460.233	14180.99
460.438	13431.43
460.644	13712
460.85	13019.79
461.055	12855.95
461.261	12810.9
461.466	11793.06
461.672	11514.53
461.878	12573.33
462.083	11655.84
462.289	11221.67
462.494	11326.12
462.7	10582.71
462.905	10566.32
463.111	10814.13
463.316	10635.96
463.522	10617.52
463.727	10633.91
463.932	10576.56
464.138	10396.34
464.343	10566.32
464.549	10255.03
464.754	10408.63
464.959	10568.37
465.165	10207.93
465.37	9968.32
465.575	9757.38
465.781	9939.65
465.986	10035.9
466.191	9667.27
466.397	9431.75
466.602	8958.67
466.807	9577.16
467.012	9609.92
467.218	9353.93
467.423	9323.21
467.628	9298.63
467.833	9697.99
468.038	9390.79
468.244	9114.31
468.449	9304.78
468.654	9073.35
468.859	9159.37
469.064	8848.08
469.269	8778.45
