Data from USB4F104151__97__12-24-58-372.txt Node

Date: Fri Mar 14 12:24:58 EDT 2025
User: louis
Spectrometer: USB4F10415
Trigger mode: 4
Integration Time (sec): 3.500000E-2
Scans to average: 1
Electric dark correction enabled: true
Nonlinearity correction enabled: false
Boxcar width: 0
XAxis mode: Wavelengths
Number of Pixels in Spectrum: 3648
>>>>>Begin Spectral Data<<<<<
178.204	-166.23
178.424	-166.23
178.644	-166.23
178.864	-184.66
179.084	-155.99
179.304	28.33
179.524	-29.01
179.744	61.1
179.964	48.81
180.184	30.38
180.404	-18.77
180.624	-65.88
180.844	-41.3
181.064	-72.02
181.283	61.1
181.503	-45.4
181.723	42.67
181.943	-20.82
182.163	91.82
182.383	-61.78
182.602	24.23
182.822	-6.49
183.042	-33.11
183.262	-51.54
183.482	57
183.701	-2.39
183.921	32.43
184.141	-10.58
184.361	18.09
184.58	1.71
184.8	-4.44
185.02	34.47
185.239	50.86
185.459	20.14
185.679	79.53
185.898	46.76
186.118	50.86
186.338	-51.54
186.557	102.06
186.777	-45.4
186.997	-37.2
187.216	-47.44
187.436	100.01
187.655	11.95
187.875	-8.53
188.095	24.23
188.314	89.77
188.534	91.82
188.753	-18.77
188.973	36.52
189.192	65.19
189.412	79.53
189.631	24.23
189.851	13.99
190.07	61.1
190.29	5.8
190.509	57
190.729	-59.73
190.948	50.86
191.168	112.3
191.387	44.71
191.607	-2.39
191.826	83.63
192.045	-20.82
192.265	34.47
192.484	71.34
192.704	13.99
192.923	7.85
193.142	52.91
193.362	54.95
193.581	20.14
193.8	52.91
194.02	22.19
194.239	26.28
194.458	54.95
194.678	18.09
194.897	-16.73
195.116	38.57
195.335	61.1
195.555	18.09
195.774	18.09
195.993	85.67
196.212	16.04
196.432	-20.82
196.651	61.1
196.87	-29.01
197.089	54.95
197.308	36.52
197.528	28.33
197.747	-20.82
197.966	22.19
198.185	75.43
198.404	-63.83
198.623	36.52
198.842	22.19
199.062	-6.49
199.281	7.85
199.5	63.15
199.719	40.62
199.938	38.57
200.157	50.86
200.376	-14.68
200.595	91.82
200.814	36.52
201.033	-33.11
201.252	108.2
201.471	18.09
201.69	44.71
201.909	54.95
202.128	75.43
202.347	89.77
202.566	-6.49
202.785	28.33
203.004	-18.77
203.223	91.82
203.442	13.99
203.661	50.86
203.879	85.67
204.098	120.49
204.317	-16.73
204.536	-16.73
204.755	7.85
204.974	30.38
205.193	-39.25
205.411	134.82
205.63	69.29
205.849	30.38
206.068	52.91
206.287	69.29
206.505	22.19
206.724	32.43
206.943	7.85
207.162	-69.97
207.381	110.25
207.599	22.19
207.818	13.99
208.037	-10.58
208.255	13.99
208.474	71.34
208.693	9.9
208.911	67.24
209.13	63.15
209.349	-0.34
209.567	24.23
209.786	18.09
210.005	46.76
210.223	-14.68
210.442	-100.69
210.661	11.95
210.879	24.23
211.098	57
211.316	-24.92
211.535	100.01
211.753	3.75
211.972	1.71
212.191	44.71
212.409	73.39
212.628	-26.96
212.846	5.8
213.065	9.9
213.283	7.85
213.502	-88.4
213.72	52.91
213.938	-16.73
214.157	69.29
214.375	38.57
214.594	20.14
214.812	95.91
215.031	-0.34
215.249	16.04
215.467	48.81
215.686	73.39
215.904	36.52
216.122	-53.59
216.341	126.63
216.559	34.47
216.778	67.24
216.996	91.82
217.214	22.19
217.432	13.99
217.651	28.33
217.869	75.43
218.087	20.14
218.306	89.77
218.524	122.54
218.742	-8.53
218.96	40.62
219.179	-2.39
219.397	-16.73
219.615	165.54
219.833	71.34
220.051	13.99
220.27	77.48
220.488	38.57
220.706	34.47
220.924	46.76
221.142	104.11
221.36	26.28
221.578	54.95
221.796	-29.01
222.015	100.01
222.233	-49.49
222.451	100.01
222.669	1.71
222.887	1.71
223.105	24.23
223.323	28.33
223.541	-18.77
223.759	20.14
223.977	81.58
224.195	67.24
224.413	52.91
224.631	93.87
224.849	63.15
225.067	104.11
225.285	28.33
225.503	32.43
225.721	24.23
225.939	40.62
226.157	26.28
226.375	77.48
226.592	-31.06
226.81	26.28
227.028	-4.44
227.246	28.33
227.464	112.3
227.682	46.76
227.9	67.24
228.117	126.63
228.335	-20.82
228.553	44.71
228.771	81.58
228.989	54.95
229.206	-26.96
229.424	3.75
229.642	-4.44
229.86	-0.34
230.077	106.15
230.295	89.77
230.513	61.1
230.731	18.09
230.948	67.24
231.166	128.68
231.384	11.95
231.601	30.38
231.819	38.57
232.037	22.19
232.254	-41.3
232.472	5.8
232.689	18.09
232.907	52.91
233.125	18.09
233.342	63.15
233.56	-2.39
233.777	-57.68
233.995	18.09
234.213	63.15
234.43	40.62
234.648	77.48
234.865	48.81
235.083	20.14
235.3	79.53
235.518	77.48
235.735	108.2
235.953	38.57
236.17	-8.53
236.388	16.04
236.605	42.67
236.822	11.95
237.04	16.04
237.257	63.15
237.475	26.28
237.692	48.81
237.909	22.19
238.127	71.34
238.344	18.09
238.562	59.05
238.779	-26.96
238.996	-6.49
239.214	-4.44
239.431	75.43
239.648	1.71
239.865	81.58
240.083	63.15
240.3	40.62
240.517	24.23
240.735	46.76
240.952	9.9
241.169	91.82
241.386	28.33
241.603	-18.77
241.821	-22.87
242.038	116.39
242.255	40.62
242.472	69.29
242.689	22.19
242.907	20.14
243.124	-18.77
243.341	-2.39
243.558	-37.2
243.775	26.28
243.992	-20.82
244.209	69.29
244.426	75.43
244.643	102.06
244.86	11.95
245.078	71.34
245.295	95.91
245.512	-24.92
245.729	-8.53
245.946	67.24
246.163	59.05
246.38	20.14
246.597	-26.96
246.814	26.28
247.031	48.81
247.248	-8.53
247.464	-47.44
247.681	59.05
247.898	81.58
248.115	32.43
248.332	-2.39
248.549	32.43
248.766	93.87
248.983	44.71
249.2	40.62
249.417	38.57
249.633	24.23
249.85	24.23
250.067	30.38
250.284	34.47
250.501	-10.58
250.717	48.81
250.934	3.75
251.151	93.87
251.368	48.81
251.585	81.58
251.801	-2.39
252.018	20.14
252.235	136.87
252.451	-90.45
252.668	-22.87
252.885	120.49
253.102	-6.49
253.318	28.33
253.535	48.81
253.752	38.57
253.968	-0.34
254.185	-12.63
254.401	3.75
254.618	7.85
254.835	-4.44
255.051	24.23
255.268	32.43
255.484	3.75
255.701	9.9
255.917	59.05
256.134	13.99
256.351	1.71
256.567	26.28
256.784	36.52
257	-18.77
257.217	20.14
257.433	59.05
257.65	81.58
257.866	46.76
258.082	13.99
258.299	13.99
258.515	73.39
258.732	36.52
258.948	46.76
259.165	42.67
259.381	16.04
259.597	-2.39
259.814	9.9
260.03	75.43
260.246	40.62
260.463	61.1
260.679	36.52
260.895	36.52
261.112	110.25
261.328	1.71
261.544	24.23
261.761	63.15
261.977	7.85
262.193	-33.11
262.409	106.15
262.626	9.9
262.842	24.23
263.058	-31.06
263.274	61.1
263.49	-14.68
263.707	118.44
263.923	77.48
264.139	-8.53
264.355	116.39
264.571	112.3
264.787	11.95
265.004	20.14
265.22	13.99
265.436	52.91
265.652	34.47
265.868	5.8
266.084	5.8
266.3	11.95
266.516	13.99
266.732	11.95
266.948	9.9
267.164	-8.53
267.38	18.09
267.596	11.95
267.812	65.19
268.028	48.81
268.244	-18.77
268.46	54.95
268.676	11.95
268.892	81.58
269.108	-35.16
269.324	9.9
269.54	-33.11
269.756	20.14
269.972	1.71
270.188	30.38
270.403	-67.92
270.619	5.8
270.835	38.57
271.051	-12.63
271.267	34.47
271.483	-0.34
271.698	7.85
271.914	65.19
272.13	24.23
272.346	13.99
272.562	-41.3
272.777	32.43
272.993	13.99
273.209	5.8
273.425	18.09
273.64	-4.44
273.856	81.58
274.072	48.81
274.287	46.76
274.503	46.76
274.719	63.15
274.934	63.15
275.15	-51.54
275.366	50.86
275.581	20.14
275.797	26.28
276.012	13.99
276.228	36.52
276.444	26.28
276.659	22.19
276.875	-49.49
277.09	108.2
277.306	13.99
277.521	38.57
277.737	28.33
277.952	32.43
278.168	44.71
278.383	52.91
278.599	-20.82
278.814	61.1
279.03	-24.92
279.245	61.1
279.461	24.23
279.676	79.53
279.892	26.28
280.107	-29.01
280.322	-8.53
280.538	22.19
280.753	3.75
280.969	38.57
281.184	18.09
281.399	122.54
281.615	9.9
281.83	9.9
282.045	-22.87
282.26	-22.87
282.476	75.43
282.691	124.58
282.906	118.44
283.122	1.71
283.337	44.71
283.552	50.86
283.767	-39.25
283.983	75.43
284.198	-12.63
284.413	3.75
284.628	-92.5
284.843	16.04
285.058	69.29
285.274	81.58
285.489	-18.77
285.704	93.87
285.919	-22.87
286.134	32.43
286.349	18.09
286.564	7.85
286.779	112.3
286.995	11.95
287.21	-6.49
287.425	-10.58
287.64	42.67
287.855	93.87
288.07	-29.01
288.285	44.71
288.5	65.19
288.715	153.26
288.93	108.2
289.145	1.71
289.36	67.24
289.575	22.19
289.79	91.82
290.004	-4.44
290.219	81.58
290.434	7.85
290.649	1.71
290.864	34.47
291.079	18.09
291.294	20.14
291.509	40.62
291.724	-29.01
291.938	38.57
292.153	44.71
292.368	5.8
292.583	42.67
292.798	97.96
293.012	81.58
293.227	28.33
293.442	75.43
293.657	48.81
293.871	24.23
294.086	18.09
294.301	48.81
294.516	13.99
294.73	44.71
294.945	46.76
295.16	67.24
295.374	32.43
295.589	52.91
295.804	16.04
296.018	65.19
296.233	50.86
296.447	71.34
296.662	34.47
296.877	57
297.091	-29.01
297.306	9.9
297.52	30.38
297.735	71.34
297.949	50.86
298.164	-18.77
298.378	50.86
298.593	-35.16
298.807	-14.68
299.022	30.38
299.236	30.38
299.451	22.19
299.665	-6.49
299.88	-67.92
300.094	24.23
300.309	3.75
300.523	13.99
300.737	7.85
300.952	52.91
301.166	71.34
301.381	32.43
301.595	85.67
301.809	59.05
302.024	7.85
302.238	71.34
302.452	87.72
302.667	20.14
302.881	81.58
303.095	34.47
303.309	16.04
303.524	24.23
303.738	13.99
303.952	3.75
304.166	102.06
304.381	-29.01
304.595	118.44
304.809	-4.44
305.023	34.47
305.237	-61.78
305.452	-12.63
305.666	-26.96
305.88	79.53
306.094	42.67
306.308	26.28
306.522	34.47
306.736	-4.44
306.95	42.67
307.164	1.71
307.379	20.14
307.593	40.62
307.807	93.87
308.021	118.44
308.235	48.81
308.449	-24.92
308.663	-43.35
308.877	147.11
309.091	77.48
309.305	69.29
309.519	3.75
309.733	46.76
309.947	-8.53
310.161	7.85
310.374	59.05
310.588	13.99
310.802	-20.82
311.016	5.8
311.23	63.15
311.444	97.96
311.658	40.62
311.872	20.14
312.085	145.06
312.299	24.23
312.513	100.01
312.727	85.67
312.941	36.52
313.154	-35.16
313.368	50.86
313.582	79.53
313.796	-8.53
314.009	-12.63
314.223	159.4
314.437	24.23
314.651	-22.87
314.864	-43.35
315.078	18.09
315.292	-10.58
315.505	71.34
315.719	73.39
315.933	122.54
316.146	11.95
316.36	22.19
316.573	63.15
316.787	71.34
317.001	5.8
317.214	28.33
317.428	36.52
317.641	44.71
317.855	11.95
318.068	61.1
318.282	34.47
318.495	165.54
318.709	128.68
318.922	-35.16
319.136	59.05
319.349	95.91
319.563	-20.82
319.776	108.2
319.99	-29.01
320.203	20.14
320.417	85.67
320.63	-10.58
320.843	28.33
321.057	36.52
321.27	81.58
321.483	81.58
321.697	-0.34
321.91	71.34
322.124	20.14
322.337	30.38
322.55	-47.44
322.763	120.49
322.977	67.24
323.19	9.9
323.403	34.47
323.617	28.33
323.83	22.19
324.043	38.57
324.256	65.19
324.469	-12.63
324.683	36.52
324.896	83.63
325.109	85.67
325.322	1.71
325.535	116.39
325.748	38.57
325.962	69.29
326.175	104.11
326.388	32.43
326.601	-31.06
326.814	95.91
327.027	34.47
327.24	50.86
327.453	-10.58
327.666	85.67
327.879	46.76
328.092	69.29
328.305	61.1
328.518	-12.63
328.731	18.09
328.944	32.43
329.157	79.53
329.37	26.28
329.583	54.95
329.796	73.39
330.009	3.75
330.222	46.76
330.435	69.29
330.648	38.57
330.861	18.09
331.073	26.28
331.286	89.77
331.499	13.99
331.712	54.95
331.925	20.14
332.138	7.85
332.35	40.62
332.563	7.85
332.776	75.43
332.989	-16.73
333.202	83.63
333.414	11.95
333.627	69.29
333.84	-31.06
334.053	67.24
334.265	67.24
334.478	57
334.691	42.67
334.903	48.81
335.116	13.99
335.329	63.15
335.541	-8.53
335.754	114.34
335.966	34.47
336.179	34.47
336.392	1.71
336.604	79.53
336.817	-20.82
337.029	22.19
337.242	-41.3
337.454	-37.2
337.667	50.86
337.88	59.05
338.092	89.77
338.305	69.29
338.517	11.95
338.729	36.52
338.942	38.57
339.154	65.19
339.367	-29.01
339.579	102.06
339.792	40.62
340.004	81.58
340.217	44.71
340.429	46.76
340.641	-8.53
340.854	-31.06
341.066	69.29
341.278	124.58
341.491	110.25
341.703	61.1
341.915	20.14
342.128	83.63
342.34	7.85
342.552	11.95
342.764	38.57
342.977	63.15
343.189	30.38
343.401	69.29
343.613	38.57
343.826	30.38
344.038	11.95
344.25	3.75
344.462	-20.82
344.674	59.05
344.886	100.01
345.099	71.34
345.311	-18.77
345.523	38.57
345.735	77.48
345.947	81.58
346.159	73.39
346.371	71.34
346.583	-18.77
346.795	167.59
347.007	-74.07
347.219	26.28
347.431	34.47
347.643	57
347.855	-29.01
348.067	30.38
348.279	-37.2
348.491	108.2
348.703	63.15
348.915	61.1
349.127	69.29
349.339	116.39
349.551	-12.63
349.763	44.71
349.975	-63.83
350.187	73.39
350.399	75.43
350.61	40.62
350.822	18.09
351.034	26.28
351.246	28.33
351.458	46.76
351.669	59.05
351.881	38.57
352.093	61.1
352.305	106.15
352.517	34.47
352.728	59.05
352.94	171.69
353.152	87.72
353.363	11.95
353.575	3.75
353.787	7.85
353.999	59.05
354.21	73.39
354.422	24.23
354.633	38.57
354.845	44.71
355.057	30.38
355.268	93.87
355.48	40.62
355.692	13.99
355.903	-29.01
356.115	44.71
356.326	-0.34
356.538	122.54
356.749	22.19
356.961	95.91
357.172	13.99
357.384	-16.73
357.595	75.43
357.807	122.54
358.018	18.09
358.23	20.14
358.441	59.05
358.653	3.75
358.864	48.81
359.075	-59.73
359.287	7.85
359.498	179.88
359.709	59.05
359.921	-10.58
360.132	52.91
360.344	79.53
360.555	61.1
360.766	44.71
360.977	9.9
361.189	28.33
361.4	46.76
361.611	104.11
361.823	77.48
362.034	7.85
362.245	67.24
362.456	48.81
362.667	16.04
362.879	9.9
363.09	122.54
363.301	40.62
363.512	9.9
363.723	34.47
363.935	83.63
364.146	102.06
364.357	44.71
364.568	59.05
364.779	63.15
364.99	38.57
365.201	28.33
365.412	102.06
365.623	34.47
365.834	36.52
366.045	61.1
366.256	83.63
366.467	102.06
366.678	-10.58
366.889	61.1
367.1	48.81
367.311	44.71
367.522	71.34
367.733	32.43
367.944	22.19
368.155	59.05
368.366	52.91
368.577	93.87
368.788	11.95
368.999	91.82
369.209	106.15
369.42	87.72
369.631	118.44
369.842	61.1
370.053	16.04
370.264	63.15
370.474	3.75
370.685	-53.59
370.896	50.86
371.107	63.15
371.317	100.01
371.528	-2.39
371.739	46.76
371.95	22.19
372.16	69.29
372.371	22.19
372.582	124.58
372.792	3.75
373.003	63.15
373.214	44.71
373.424	54.95
373.635	-8.53
373.846	102.06
374.056	48.81
374.267	61.1
374.477	36.52
374.688	67.24
374.898	9.9
375.109	44.71
375.319	52.91
375.53	28.33
375.74	83.63
375.951	69.29
376.161	75.43
376.372	93.87
376.582	18.09
376.793	114.34
377.003	81.58
377.214	5.8
377.424	30.38
377.635	-8.53
377.845	-4.44
378.055	61.1
378.266	-20.82
378.476	67.24
378.686	44.71
378.897	75.43
379.107	128.68
379.317	95.91
379.528	30.38
379.738	50.86
379.948	59.05
380.158	81.58
380.369	108.2
380.579	63.15
380.789	-51.54
380.999	67.24
381.21	126.63
381.42	95.91
381.63	28.33
381.84	116.39
382.05	18.09
382.261	112.3
382.471	85.67
382.681	63.15
382.891	54.95
383.101	26.28
383.311	77.48
383.521	13.99
383.731	24.23
383.941	-2.39
384.151	16.04
384.361	32.43
384.571	46.76
384.781	179.88
384.991	48.81
385.201	75.43
385.411	85.67
385.621	40.62
385.831	32.43
386.041	18.09
386.251	102.06
386.461	32.43
386.671	61.1
386.881	57
387.091	3.75
387.301	57
387.511	-24.92
387.72	85.67
387.93	65.19
388.14	5.8
388.35	85.67
388.56	-4.44
388.769	63.15
388.979	16.04
389.189	-12.63
389.399	116.39
389.609	24.23
389.818	46.76
390.028	48.81
390.238	75.43
390.447	54.95
390.657	93.87
390.867	67.24
391.076	-67.92
391.286	108.2
391.496	91.82
391.705	30.38
391.915	212.65
392.125	44.71
392.334	34.47
392.544	65.19
392.753	122.54
392.963	28.33
393.172	85.67
393.382	65.19
393.591	108.2
393.801	114.34
394.01	83.63
394.22	59.05
394.429	79.53
394.639	32.43
394.848	89.77
395.058	73.39
395.267	54.95
395.477	95.91
395.686	79.53
395.895	183.98
396.105	198.31
396.314	57
396.524	28.33
396.733	11.95
396.942	140.97
397.152	157.35
397.361	102.06
397.57	91.82
397.78	-10.58
397.989	3.75
398.198	175.78
398.407	116.39
398.617	149.16
398.826	102.06
399.035	97.96
399.244	126.63
399.453	73.39
399.663	89.77
399.872	136.87
400.081	81.58
400.29	124.58
400.499	97.96
400.708	118.44
400.917	59.05
401.127	114.34
401.336	67.24
401.545	122.54
401.754	46.76
401.963	112.3
402.172	65.19
402.381	48.81
402.59	75.43
402.799	91.82
403.008	114.34
403.217	171.69
403.426	91.82
403.635	48.81
403.844	124.58
404.053	143.02
404.262	87.72
404.471	155.3
404.68	140.97
404.888	77.48
405.097	130.73
405.306	67.24
405.515	179.88
405.724	124.58
405.933	145.06
406.142	175.78
406.35	216.74
406.559	155.3
406.768	112.3
406.977	206.5
407.185	143.02
407.394	157.35
407.603	208.55
407.812	145.06
408.02	239.27
408.229	181.93
408.438	163.5
408.646	128.68
408.855	263.85
409.064	241.32
409.272	265.89
409.481	220.84
409.69	233.13
409.898	183.98
410.107	288.42
410.315	321.19
410.524	269.99
410.733	259.75
410.941	282.28
411.15	351.91
411.358	372.39
411.567	421.54
411.775	347.81
411.984	282.28
412.192	419.49
412.401	347.81
412.609	360.1
412.818	456.36
413.026	386.72
413.234	478.88
413.443	458.4
413.651	491.17
413.86	458.4
414.068	556.71
414.276	532.13
414.485	489.12
414.693	585.38
414.901	618.15
415.11	552.61
415.318	665.25
415.526	595.62
415.734	655.01
415.943	591.52
416.151	738.98
416.359	665.25
416.567	734.88
416.776	796.32
416.984	827.04
417.192	786.08
417.4	831.13
417.608	888.48
417.817	911
418.025	917.15
418.233	1015.45
418.441	884.38
418.649	954.01
418.857	1076.89
419.065	1097.37
419.273	1072.79
419.481	1132.19
419.689	1183.38
419.897	1230.49
420.105	1234.58
420.313	1363.61
420.521	1476.24
420.729	1371.8
420.937	1439.38
421.145	1537.68
421.353	1513.11
421.561	1597.07
421.769	1660.56
421.977	1758.86
422.185	1734.29
422.393	1818.25
422.601	1904.27
422.809	1951.37
423.017	1904.27
423.224	2012.81
423.432	2121.35
423.64	2096.78
423.848	2303.62
424.056	2270.86
424.263	2387.59
424.471	2303.62
424.679	2524.8
424.887	2453.13
425.094	2623.11
425.302	2586.24
425.51	2668.16
425.718	2842.24
425.925	2973.31
426.133	3026.56
426.341	3217.02
426.548	3366.52
426.756	3251.83
426.964	3262.07
427.171	3604.08
427.379	3593.84
427.586	3651.19
427.794	3950.19
428.001	4032.11
428.209	4302.44
428.417	4044.4
428.624	4501.09
428.832	4234.86
429.039	4361.83
429.247	4550.25
429.454	4773.47
429.662	5135.96
429.869	4808.29
430.076	5027.42
430.284	5086.81
430.491	5193.31
430.699	5508.69
430.906	5502.55
431.114	5379.67
431.321	5686.87
431.528	5795.41
431.736	6284.87
431.943	6637.13
432.15	6381.13
432.358	6417.99
432.565	6919.75
432.772	6760
432.979	7069.25
433.187	7218.75
433.394	7210.56
433.601	7765.56
433.808	7679.54
434.016	7532.09
434.223	8046.13
434.43	8425
434.637	8572.46
434.844	8996.39
435.052	9184.8
435.259	9168.41
435.466	9145.89
435.673	8969.76
435.88	9702.93
436.087	10026.51
436.294	10139.15
436.501	9899.54
436.708	10219.02
436.915	10532.36
437.122	10819.08
437.329	10970.63
437.537	11298.3
437.743	11333.12
437.95	11318.78
438.157	11859.45
438.364	12367.34
438.571	12463.6
438.778	12410.35
438.985	13610.46
439.192	12975.59
439.399	13299.17
439.606	13055.46
439.813	13962.71
440.02	14648.78
440.227	14355.92
440.433	14222.8
440.64	14681.55
440.847	14704.07
441.054	15068.61
441.261	16010.68
441.467	15771.07
441.674	16289.2
441.881	16569.77
442.088	16356.79
442.294	16580.01
442.501	16709.04
442.708	17288.61
442.914	18009.5
443.121	18781.58
443.328	18165.14
443.534	19545.47
443.741	19123.59
443.948	18546.06
444.154	20274.55
444.361	19912.06
444.568	20442.48
444.774	20166.01
444.981	20434.29
445.187	21001.58
445.394	21906.78
445.6	21685.6
445.807	23780.67
446.013	22543.7
446.22	22969.68
446.426	24259.9
446.633	24569.14
446.839	25103.66
447.046	24182.07
447.252	25486.63
447.459	25330.98
447.665	25298.22
447.871	26305.82
448.078	27786.5
448.284	26383.64
448.491	26905.87
448.697	28105.98
448.903	28724.47
449.11	28581.11
449.316	28259.58
449.522	28781.81
449.728	29572.33
449.935	29529.32
450.141	29654.25
450.347	30356.7
450.553	29504.74
450.76	29818.08
450.966	31050.96
451.172	30864.6
451.378	31200.46
451.584	30819.54
451.791	31192.27
451.997	31218.89
452.203	31919.3
452.409	31810.76
452.615	31814.85
452.821	30254.3
453.027	29986.02
453.233	31798.47
453.44	30506.2
453.646	30739.67
453.852	30829.78
454.058	31591.62
454.264	30168.29
454.47	31089.87
454.676	30258.4
454.882	31349.96
455.088	28679.41
455.294	29228.27
455.5	29601
455.705	29943.01
455.911	28716.28
456.117	27974.91
456.323	28038.4
456.529	26291.48
456.735	27217.16
456.941	26613.01
457.147	26080.54
457.352	25378.09
457.558	25165.1
457.764	25115.95
457.97	24925.49
458.176	24302.9
458.381	24282.42
458.587	23010.64
458.793	22943.05
458.999	21454.18
459.204	23639.36
459.41	22850.89
459.616	21224.81
459.821	21206.38
460.027	20991.34
460.233	20567.41
460.438	19551.62
460.644	19799.42
460.85	18908.55
461.055	18718.09
461.261	18900.36
461.466	17317.28
461.672	16504.24
461.878	17782.17
462.083	16672.17
462.289	16291.25
462.494	16233.91
462.7	15670.72
462.905	15289.79
463.111	15762.87
463.316	15990.2
463.522	15240.64
463.727	15300.03
463.932	15259.07
464.138	15138.24
464.343	15447.49
464.549	14785.99
464.754	15431.1
464.959	15162.82
465.165	15076.8
465.37	14472.65
465.575	14022.1
465.781	14570.96
465.986	14853.58
466.191	14161.36
466.397	13979.09
466.602	13043.17
466.807	13725.15
467.012	13680.09
467.218	13499.87
467.423	13508.06
467.628	13544.92
