Data from USB4F104151__76__12-24-22-081.txt Node

Date: Fri Mar 14 12:24:22 EDT 2025
User: louis
Spectrometer: USB4F10415
Trigger mode: 4
Integration Time (sec): 3.500000E-2
Scans to average: 1
Electric dark correction enabled: true
Nonlinearity correction enabled: false
Boxcar width: 0
XAxis mode: Wavelengths
Number of Pixels in Spectrum: 3648
>>>>>Begin Spectral Data<<<<<
178.204	-61.78
178.424	-61.78
178.644	-61.78
178.864	-178.51
179.084	-149.84
179.304	-33.11
179.524	-35.16
179.744	-8.53
179.964	24.23
180.184	-41.3
180.404	-2.39
180.624	22.19
180.844	52.91
181.064	-43.35
181.283	48.81
181.503	-6.49
181.723	22.19
181.943	-90.45
182.163	30.38
182.383	13.99
182.602	28.33
182.822	89.77
183.042	63.15
183.262	-0.34
183.482	-8.53
183.701	13.99
183.921	26.28
184.141	-14.68
184.361	-12.63
184.58	57
184.8	36.52
185.02	3.75
185.239	73.39
185.459	18.09
185.679	20.14
185.898	-8.53
186.118	89.77
186.338	34.47
186.557	91.82
186.777	-57.68
186.997	22.19
187.216	-16.73
187.436	75.43
187.655	61.1
187.875	5.8
188.095	-2.39
188.314	50.86
188.534	89.77
188.753	-53.59
188.973	79.53
189.192	54.95
189.412	59.05
189.631	1.71
189.851	42.67
190.07	71.34
190.29	22.19
190.509	-24.92
190.729	134.82
190.948	24.23
191.168	175.78
191.387	122.54
191.607	61.1
191.826	52.91
192.045	95.91
192.265	-4.44
192.484	7.85
192.704	126.63
192.923	18.09
193.142	104.11
193.362	32.43
193.581	108.2
193.8	-6.49
194.02	122.54
194.239	5.8
194.458	11.95
194.678	-14.68
194.897	-20.82
195.116	-16.73
195.335	26.28
195.555	69.29
195.774	28.33
195.993	44.71
196.212	-10.58
196.432	20.14
196.651	-2.39
196.87	57
197.089	91.82
197.308	77.48
197.528	-6.49
197.747	3.75
197.966	61.1
198.185	122.54
198.404	-33.11
198.623	-41.3
198.842	128.68
199.062	52.91
199.281	-0.34
199.5	40.62
199.719	32.43
199.938	52.91
200.157	36.52
200.376	-20.82
200.595	75.43
200.814	30.38
201.033	38.57
201.252	106.15
201.471	36.52
201.69	54.95
201.909	13.99
202.128	46.76
202.347	93.87
202.566	54.95
202.785	-16.73
203.004	87.72
203.223	26.28
203.442	54.95
203.661	-37.2
203.879	85.67
204.098	34.47
204.317	-26.96
204.536	34.47
204.755	59.05
204.974	69.29
205.193	85.67
205.411	46.76
205.63	13.99
205.849	69.29
206.068	77.48
206.287	59.05
206.505	11.95
206.724	-10.58
206.943	67.24
207.162	1.71
207.381	40.62
207.599	30.38
207.818	83.63
208.037	-8.53
208.255	-0.34
208.474	18.09
208.693	28.33
208.911	40.62
209.13	24.23
209.349	40.62
209.567	32.43
209.786	-33.11
210.005	18.09
210.223	20.14
210.442	-10.58
210.661	75.43
210.879	18.09
211.098	69.29
211.316	-6.49
211.535	118.44
211.753	85.67
211.972	46.76
212.191	89.77
212.409	30.38
212.628	65.19
212.846	7.85
213.065	42.67
213.283	46.76
213.502	24.23
213.72	-10.58
213.938	7.85
214.157	-2.39
214.375	26.28
214.594	3.75
214.812	13.99
215.031	13.99
215.249	59.05
215.467	50.86
215.686	59.05
215.904	89.77
216.122	-29.01
216.341	112.3
216.559	71.34
216.778	83.63
216.996	91.82
217.214	-45.4
217.432	3.75
217.651	-18.77
217.869	1.71
218.087	3.75
218.306	104.11
218.524	34.47
218.742	16.04
218.96	24.23
219.179	91.82
219.397	1.71
219.615	40.62
219.833	16.04
220.051	40.62
220.27	81.58
220.488	-0.34
220.706	48.81
220.924	-10.58
221.142	9.9
221.36	-22.87
221.578	3.75
221.796	3.75
222.015	44.71
222.233	46.76
222.451	97.96
222.669	18.09
222.887	34.47
223.105	9.9
223.323	-22.87
223.541	34.47
223.759	110.25
223.977	-37.2
224.195	81.58
224.413	163.5
224.631	7.85
224.849	46.76
225.067	57
225.285	-16.73
225.503	1.71
225.721	-37.2
225.939	46.76
226.157	-22.87
226.375	110.25
226.592	-0.34
226.81	50.86
227.028	114.34
227.246	67.24
227.464	40.62
227.682	42.67
227.9	40.62
228.117	63.15
228.335	13.99
228.553	11.95
228.771	38.57
228.989	-16.73
229.206	100.01
229.424	48.81
229.642	-26.96
229.86	-24.92
230.077	69.29
230.295	59.05
230.513	75.43
230.731	54.95
230.948	20.14
231.166	87.72
231.384	-33.11
231.601	20.14
231.819	108.2
232.037	20.14
232.254	-18.77
232.472	-4.44
232.689	26.28
232.907	11.95
233.125	-51.54
233.342	34.47
233.56	57
233.777	11.95
233.995	-4.44
234.213	102.06
234.43	57
234.648	-16.73
234.865	-53.59
235.083	-2.39
235.3	81.58
235.518	77.48
235.735	128.68
235.953	83.63
236.17	54.95
236.388	9.9
236.605	65.19
236.822	48.81
237.04	93.87
237.257	89.77
237.475	44.71
237.692	65.19
237.909	13.99
238.127	-0.34
238.344	36.52
238.562	75.43
238.779	-43.35
238.996	32.43
239.214	-26.96
239.431	69.29
239.648	-14.68
239.865	79.53
240.083	54.95
240.3	22.19
240.517	-47.44
240.735	-6.49
240.952	65.19
241.169	-2.39
241.386	46.76
241.603	-41.3
241.821	75.43
242.038	36.52
242.255	65.19
242.472	44.71
242.689	52.91
242.907	83.63
243.124	-6.49
243.341	48.81
243.558	7.85
243.775	-26.96
243.992	24.23
244.209	52.91
244.426	114.34
244.643	73.39
244.86	-29.01
245.078	38.57
245.295	28.33
245.512	83.63
245.729	20.14
245.946	85.67
246.163	-67.92
246.38	13.99
246.597	-10.58
246.814	-20.82
247.031	-2.39
247.248	13.99
247.464	-33.11
247.681	-29.01
247.898	85.67
248.115	26.28
248.332	63.15
248.549	102.06
248.766	63.15
248.983	79.53
249.2	36.52
249.417	36.52
249.633	-69.97
249.85	59.05
250.067	5.8
250.284	-22.87
250.501	77.48
250.717	38.57
250.934	-49.49
251.151	16.04
251.368	75.43
251.585	40.62
251.801	-12.63
252.018	-12.63
252.235	48.81
252.451	-22.87
252.668	-33.11
252.885	50.86
253.102	52.91
253.318	26.28
253.535	-41.3
253.752	-2.39
253.968	44.71
254.185	-16.73
254.401	52.91
254.618	16.04
254.835	-98.64
255.051	61.1
255.268	42.67
255.484	3.75
255.701	81.58
255.917	7.85
256.134	-8.53
256.351	-41.3
256.567	-22.87
256.784	-41.3
257	-74.07
257.217	-31.06
257.433	108.2
257.65	28.33
257.866	36.52
258.082	32.43
258.299	-49.49
258.515	9.9
258.732	42.67
258.948	-29.01
259.165	46.76
259.381	-4.44
259.597	36.52
259.814	1.71
260.03	-18.77
260.246	61.1
260.463	16.04
260.679	97.96
260.895	-35.16
261.112	24.23
261.328	-4.44
261.544	100.01
261.761	102.06
261.977	-22.87
262.193	-0.34
262.409	106.15
262.626	67.24
262.842	65.19
263.058	5.8
263.274	42.67
263.49	40.62
263.707	67.24
263.923	32.43
264.139	-6.49
264.355	-0.34
264.571	57
264.787	-31.06
265.004	26.28
265.22	28.33
265.436	-14.68
265.652	-24.92
265.868	-12.63
266.084	-39.25
266.3	97.96
266.516	-10.58
266.732	40.62
266.948	81.58
267.164	75.43
267.38	65.19
267.596	11.95
267.812	46.76
268.028	48.81
268.244	30.38
268.46	44.71
268.676	9.9
268.892	32.43
269.108	46.76
269.324	7.85
269.54	63.15
269.756	-76.12
269.972	9.9
270.188	18.09
270.403	-20.82
270.619	-51.54
270.835	95.91
271.051	42.67
271.267	-31.06
271.483	9.9
271.698	100.01
271.914	79.53
272.13	59.05
272.346	-10.58
272.562	42.67
272.777	40.62
272.993	-18.77
273.209	-53.59
273.425	46.76
273.64	32.43
273.856	32.43
274.072	-2.39
274.287	20.14
274.503	9.9
274.719	57
274.934	-12.63
275.15	-35.16
275.366	-63.83
275.581	46.76
275.797	-39.25
276.012	-53.59
276.228	11.95
276.444	48.81
276.659	100.01
276.875	13.99
277.09	3.75
277.306	-16.73
277.521	30.38
277.737	-20.82
277.952	-0.34
278.168	28.33
278.383	79.53
278.599	24.23
278.814	71.34
279.03	46.76
279.245	48.81
279.461	42.67
279.676	61.1
279.892	-12.63
280.107	3.75
280.322	16.04
280.538	32.43
280.753	34.47
280.969	59.05
281.184	40.62
281.399	67.24
281.615	11.95
281.83	30.38
282.045	-39.25
282.26	40.62
282.476	-29.01
282.691	11.95
282.906	83.63
283.122	11.95
283.337	32.43
283.552	5.8
283.767	44.71
283.983	36.52
284.198	11.95
284.413	93.87
284.628	-16.73
284.843	50.86
285.058	-51.54
285.274	1.71
285.489	16.04
285.704	65.19
285.919	18.09
286.134	-12.63
286.349	20.14
286.564	28.33
286.779	54.95
286.995	-20.82
287.21	-80.21
287.425	9.9
287.64	32.43
287.855	24.23
288.07	50.86
288.285	54.95
288.5	1.71
288.715	120.49
288.93	48.81
289.145	11.95
289.36	50.86
289.575	46.76
289.79	85.67
290.004	73.39
290.219	-37.2
290.434	40.62
290.649	-6.49
290.864	-18.77
291.079	-51.54
291.294	61.1
291.509	13.99
291.724	34.47
291.938	18.09
292.153	7.85
292.368	5.8
292.583	48.81
292.798	77.48
293.012	59.05
293.227	-53.59
293.442	13.99
293.657	108.2
293.871	26.28
294.086	65.19
294.301	42.67
294.516	48.81
294.73	-45.4
294.945	50.86
295.16	-8.53
295.374	67.24
295.589	32.43
295.804	26.28
296.018	46.76
296.233	26.28
296.447	11.95
296.662	-94.55
296.877	26.28
297.091	42.67
297.306	95.91
297.52	50.86
297.735	9.9
297.949	67.24
298.164	79.53
298.378	5.8
298.593	-8.53
298.807	50.86
299.022	28.33
299.236	77.48
299.451	-18.77
299.665	24.23
299.88	-8.53
300.094	40.62
300.309	44.71
300.523	89.77
300.737	48.81
300.952	61.1
301.166	63.15
301.381	-12.63
301.595	-0.34
301.809	38.57
302.024	-26.96
302.238	-26.96
302.452	97.96
302.667	46.76
302.881	-24.92
303.095	83.63
303.309	128.68
303.524	7.85
303.738	-22.87
303.952	22.19
304.166	26.28
304.381	-102.74
304.595	22.19
304.809	67.24
305.023	85.67
305.237	42.67
305.452	9.9
305.666	46.76
305.88	73.39
306.094	61.1
306.308	69.29
306.522	28.33
306.736	36.52
306.95	46.76
307.164	28.33
307.379	7.85
307.593	106.15
307.807	100.01
308.021	67.24
308.235	7.85
308.449	-53.59
308.663	1.71
308.877	108.2
309.091	36.52
309.305	-22.87
309.519	-10.58
309.733	38.57
309.947	22.19
310.161	5.8
310.374	73.39
310.588	-12.63
310.802	-26.96
311.016	40.62
311.23	30.38
311.444	71.34
311.658	77.48
311.872	34.47
312.085	-8.53
312.299	100.01
312.513	89.77
312.727	1.71
312.941	13.99
313.154	32.43
313.368	54.95
313.582	102.06
313.796	18.09
314.009	3.75
314.223	77.48
314.437	38.57
314.651	26.28
314.864	-6.49
315.078	18.09
315.292	24.23
315.505	89.77
315.719	50.86
315.933	116.39
316.146	24.23
316.36	24.23
316.573	32.43
316.787	104.11
317.001	38.57
317.214	-37.2
317.428	59.05
317.641	-18.77
317.855	54.95
318.068	-18.77
318.282	91.82
318.495	79.53
318.709	52.91
318.922	5.8
319.136	77.48
319.349	89.77
319.563	38.57
319.776	65.19
319.99	-6.49
320.203	32.43
320.417	69.29
320.63	48.81
320.843	81.58
321.057	73.39
321.27	32.43
321.483	-14.68
321.697	112.3
321.91	-2.39
322.124	77.48
322.337	50.86
322.55	-2.39
322.763	3.75
322.977	77.48
323.19	44.71
323.403	-4.44
323.617	24.23
323.83	112.3
324.043	7.85
324.256	65.19
324.469	-10.58
324.683	38.57
324.896	16.04
325.109	63.15
325.322	9.9
325.535	24.23
325.748	91.82
325.962	44.71
326.175	26.28
326.388	71.34
326.601	5.8
326.814	24.23
327.027	48.81
327.24	110.25
327.453	-18.77
327.666	-8.53
327.879	63.15
328.092	16.04
328.305	67.24
328.518	-8.53
328.731	-10.58
328.944	69.29
329.157	38.57
329.37	3.75
329.583	40.62
329.796	38.57
330.009	9.9
330.222	18.09
330.435	50.86
330.648	9.9
330.861	32.43
331.073	73.39
331.286	71.34
331.499	-26.96
331.712	42.67
331.925	11.95
332.138	57
332.35	-4.44
332.563	-2.39
332.776	36.52
332.989	38.57
333.202	-24.92
333.414	57
333.627	-20.82
333.84	132.78
334.053	-20.82
334.265	32.43
334.478	13.99
334.691	30.38
334.903	104.11
335.116	-16.73
335.329	32.43
335.541	3.75
335.754	57
335.966	-39.25
336.179	5.8
336.392	57
336.604	-24.92
336.817	61.1
337.029	69.29
337.242	11.95
337.454	54.95
337.667	81.58
337.88	69.29
338.092	57
338.305	24.23
338.517	48.81
338.729	85.67
338.942	73.39
339.154	87.72
339.367	26.28
339.579	-14.68
339.792	69.29
340.004	38.57
340.217	3.75
340.429	34.47
340.641	1.71
340.854	-26.96
341.066	-74.07
341.278	52.91
341.491	136.87
341.703	67.24
341.915	-45.4
342.128	85.67
342.34	34.47
342.552	-2.39
342.764	24.23
342.977	30.38
343.189	91.82
343.401	-8.53
343.613	95.91
343.826	-6.49
344.038	3.75
344.25	65.19
344.462	67.24
344.674	124.58
344.886	34.47
345.099	59.05
345.311	-2.39
345.523	-67.92
345.735	44.71
345.947	36.52
346.159	-6.49
346.371	13.99
346.583	-8.53
346.795	155.3
347.007	46.76
347.219	57
347.431	63.15
347.643	104.11
347.855	40.62
348.067	46.76
348.279	-4.44
348.491	-24.92
348.703	118.44
348.915	-14.68
349.127	-22.87
349.339	75.43
349.551	16.04
349.763	95.91
349.975	28.33
350.187	-37.2
350.399	59.05
350.61	18.09
350.822	3.75
351.034	77.48
351.246	71.34
351.458	48.81
351.669	-4.44
351.881	9.9
352.093	46.76
352.305	75.43
352.517	18.09
352.728	38.57
352.94	-12.63
353.152	54.95
353.363	46.76
353.575	11.95
353.787	116.39
353.999	9.9
354.21	108.2
354.422	75.43
354.633	24.23
354.845	26.28
355.057	28.33
355.268	63.15
355.48	26.28
355.692	46.76
355.903	3.75
356.115	-6.49
356.326	-20.82
356.538	100.01
356.749	7.85
356.961	79.53
357.172	46.76
357.384	3.75
357.595	175.78
357.807	26.28
358.018	102.06
358.23	40.62
358.441	24.23
358.653	57
358.864	71.34
359.075	18.09
359.287	-6.49
359.498	67.24
359.709	5.8
359.921	61.1
360.132	50.86
360.344	18.09
360.555	-4.44
360.766	102.06
360.977	-26.96
361.189	50.86
361.4	9.9
361.611	132.78
361.823	102.06
362.034	-0.34
362.245	-24.92
362.456	3.75
362.667	18.09
362.879	93.87
363.09	73.39
363.301	40.62
363.512	-12.63
363.723	48.81
363.935	34.47
364.146	59.05
364.357	-0.34
364.568	59.05
364.779	-2.39
364.99	67.24
365.201	44.71
365.412	42.67
365.623	16.04
365.834	34.47
366.045	-57.68
366.256	112.3
366.467	3.75
366.678	26.28
366.889	73.39
367.1	32.43
367.311	34.47
367.522	-37.2
367.733	97.96
367.944	50.86
368.155	26.28
368.366	20.14
368.577	93.87
368.788	87.72
368.999	-4.44
369.209	36.52
369.42	118.44
369.631	147.11
369.842	44.71
370.053	59.05
370.264	38.57
370.474	24.23
370.685	112.3
370.896	120.49
371.107	83.63
371.317	-22.87
371.528	-8.53
371.739	106.15
371.95	20.14
372.16	104.11
372.371	-18.77
372.582	38.57
372.792	87.72
373.003	100.01
373.214	-29.01
373.424	102.06
373.635	16.04
373.846	136.87
374.056	26.28
374.267	46.76
374.477	32.43
374.688	20.14
374.898	79.53
375.109	44.71
375.319	24.23
375.53	87.72
375.74	79.53
375.951	52.91
376.161	67.24
376.372	40.62
376.582	87.72
376.793	26.28
377.003	57
377.214	52.91
377.424	57
377.635	118.44
377.845	16.04
378.055	-4.44
378.266	-16.73
378.476	50.86
378.686	46.76
378.897	79.53
379.107	97.96
379.317	32.43
379.528	48.81
379.738	91.82
379.948	22.19
380.158	157.35
380.369	-4.44
380.579	34.47
380.789	57
380.999	67.24
381.21	30.38
381.42	73.39
381.63	34.47
381.84	85.67
382.05	42.67
382.261	34.47
382.471	75.43
382.681	-2.39
382.891	97.96
383.101	63.15
383.311	30.38
383.521	42.67
383.731	81.58
383.941	89.77
384.151	124.58
384.361	-41.3
384.571	61.1
384.781	57
384.991	118.44
385.201	102.06
385.411	30.38
385.621	97.96
385.831	36.52
386.041	71.34
386.251	48.81
386.461	126.63
386.671	79.53
386.881	71.34
387.091	24.23
387.301	85.67
387.511	83.63
387.72	57
387.93	-4.44
388.14	16.04
388.35	26.28
388.56	177.83
388.769	61.1
388.979	61.1
389.189	28.33
389.399	26.28
389.609	28.33
389.818	112.3
390.028	106.15
390.238	73.39
390.447	63.15
390.657	36.52
390.867	67.24
391.076	13.99
391.286	61.1
391.496	85.67
391.705	63.15
391.915	46.76
392.125	91.82
392.334	28.33
392.544	81.58
392.753	102.06
392.963	18.09
393.172	28.33
393.382	-4.44
393.591	134.82
393.801	91.82
394.01	106.15
394.22	61.1
394.429	130.73
394.639	85.67
394.848	67.24
395.058	73.39
395.267	81.58
395.477	91.82
395.686	81.58
395.895	69.29
396.105	38.57
396.314	112.3
396.524	65.19
396.733	114.34
396.942	77.48
397.152	38.57
397.361	83.63
397.57	118.44
397.78	112.3
397.989	132.78
398.198	210.6
398.407	20.14
398.617	44.71
398.826	126.63
399.035	16.04
399.244	145.06
399.453	61.1
399.663	97.96
399.872	40.62
400.081	87.72
400.29	110.25
400.499	46.76
400.708	63.15
400.917	63.15
401.127	136.87
401.336	116.39
401.545	132.78
401.754	116.39
401.963	114.34
402.172	22.19
402.381	77.48
402.59	89.77
402.799	71.34
403.008	95.91
403.217	130.73
403.426	112.3
403.635	87.72
403.844	118.44
404.053	100.01
404.262	114.34
404.471	112.3
404.68	95.91
404.888	136.87
405.097	116.39
405.306	194.22
405.515	122.54
405.724	122.54
405.933	108.2
406.142	226.98
406.35	136.87
406.559	216.74
406.768	120.49
406.977	253.61
407.185	173.74
407.394	206.5
407.603	159.4
407.812	179.88
408.02	169.64
408.229	130.73
408.438	200.36
408.646	130.73
408.855	214.7
409.064	212.65
409.272	206.5
409.481	226.98
409.69	224.94
409.898	136.87
410.107	247.46
410.315	372.39
410.524	302.76
410.733	300.71
410.941	249.51
411.15	233.13
411.358	284.33
411.567	413.35
411.775	335.53
411.984	376.48
412.192	343.72
412.401	294.57
412.609	433.83
412.818	437.92
413.026	439.97
413.234	415.4
413.443	478.88
413.651	411.3
413.86	466.6
414.068	515.75
414.276	472.74
414.485	493.22
414.693	525.99
414.901	587.43
415.11	636.58
415.318	556.71
415.526	718.5
415.734	650.91
415.943	720.54
416.151	614.05
416.359	710.3
416.567	698.02
416.776	767.65
416.984	743.07
417.192	814.75
417.4	763.55
417.608	827.04
417.817	812.7
418.025	890.53
418.233	960.16
418.441	908.96
418.649	966.3
418.857	1011.36
419.065	1093.27
419.273	1060.51
419.481	1095.32
419.689	1242.78
419.897	1355.41
420.105	1169.05
420.313	1310.36
420.521	1386.13
420.729	1291.93
420.937	1418.9
421.145	1390.23
421.353	1556.11
421.561	1722
421.769	1609.36
421.977	1609.36
422.185	1670.8
422.393	1756.82
422.601	1932.94
422.809	1963.66
423.017	1883.79
423.224	1984.14
423.432	1978
423.64	2086.54
423.848	2215.56
424.056	2133.64
424.263	2383.49
424.471	2342.53
424.679	2436.74
424.887	2485.89
425.094	2653.83
425.302	2619.01
425.51	2733.7
425.718	2635.39
425.925	2745.98
426.133	2858.62
426.341	3090.04
426.548	3094.14
426.756	3194.49
426.964	3325.56
427.171	3468.92
427.379	3522.16
427.586	3518.07
427.794	3632.76
428.001	3896.94
428.209	3999.34
428.417	3991.15
428.624	4165.23
428.832	4322.92
429.039	4038.25
429.247	4126.32
429.454	4540.01
429.662	4896.35
429.869	4703.84
430.076	4912.74
430.284	4820.58
430.491	5052
430.699	5250.65
430.906	5324.38
431.114	5408.34
431.321	5615.19
431.528	5666.39
431.736	6041.17
431.943	6436.42
432.15	6276.68
432.358	6321.74
432.565	6594.12
432.772	6551.11
432.979	6954.56
433.187	6901.31
433.394	7046.72
433.601	7509.56
433.808	7648.82
434.016	7556.66
434.223	7765.56
434.43	8324.65
434.637	8177.2
434.844	8664.61
435.052	8687.14
435.259	8885.8
435.466	8957.47
435.673	8711.72
435.88	9504.28
436.087	9874.96
436.294	9915.92
436.501	9741.85
436.708	9850.39
436.915	10133.01
437.122	10739.21
437.329	10561.03
437.537	11087.36
437.743	11066.88
437.95	11023.87
438.157	11580.92
438.364	12023.28
438.571	11935.22
438.778	12004.85
438.985	13182.43
439.192	12701.16
439.399	13151.71
439.606	12762.6
439.813	13473.25
440.02	14198.23
440.227	14030.29
440.433	13872.6
440.64	14480.85
440.847	14282.19
441.054	14718.41
441.261	15818.17
441.467	15603.13
441.674	15785.4
441.881	16276.91
442.088	16256.43
442.294	16205.24
442.501	16721.32
442.708	16844.2
442.914	17429.92
443.121	18226.58
443.328	17720.73
443.534	19201.41
443.741	18568.59
443.948	18232.72
444.154	19760.51
444.361	19445.12
444.568	19776.89
444.774	19578.24
444.981	19965.31
445.187	20241.78
445.394	21618.02
445.6	21269.86
445.807	23149.9
446.013	22193.5
446.22	22445.4
446.426	23412.04
446.633	23747.9
446.839	24460.6
447.046	23549.25
447.252	24808.75
447.459	24786.22
447.665	24790.32
447.871	25941.28
448.078	26934.54
448.284	25718.05
448.491	26275.1
448.697	27176.2
448.903	27856.13
449.11	27723.01
449.316	27616.52
449.522	28011.78
449.728	28880.11
449.935	29152.49
450.141	28714.23
450.347	29168.88
450.553	28826.87
450.76	28853.49
450.966	29893.86
451.172	29791.46
451.378	30500.06
451.584	29826.28
451.791	30485.72
451.997	30385.37
452.203	30805.2
452.409	31038.67
452.615	30756.05
452.821	29537.51
453.027	29334.76
453.233	30633.18
453.44	29265.13
453.646	29875.43
453.852	29977.83
454.058	30567.64
454.264	29492.46
454.47	30156
454.676	29775.08
454.882	30555.35
455.088	27800.83
455.294	28214.52
455.5	28566.77
455.705	28884.21
455.911	27901.18
456.117	27100.43
456.323	26686.74
456.529	25394.47
456.735	26756.37
456.941	26023.2
457.147	25441.57
457.352	24657.2
457.558	24284.47
457.764	24436.02
457.97	23842.11
458.176	23301.45
458.381	23768.38
458.587	22164.82
458.793	22353.24
458.999	21007.72
459.204	22627.67
459.41	21863.77
459.616	20233.59
459.821	20264.31
460.027	20354.42
460.233	19922.3
460.438	19099.02
460.644	19146.12
460.85	18292.12
461.055	18193.81
461.261	17929.63
461.466	16590.25
461.672	15955.38
461.878	17393.06
462.083	16037.3
462.289	15721.91
462.494	15816.12
462.7	15023.56
462.905	14261.71
463.111	14970.31
463.316	15031.75
463.522	14933.45
463.727	14886.34
463.932	14765.51
464.138	14734.79
464.343	14724.55
464.549	14355.92
464.754	14820.81
464.959	14689.74
465.165	14665.16
465.37	13995.48
465.575	13524.44
465.781	14108.12
465.986	14194.13
466.191	13843.93
466.397	13186.53
466.602	12936.68
466.807	13313.5
467.012	13290.98
467.218	13256.16
467.423	12912.1
467.628	13215.2
467.833	13594.08
468.038	13325.79
