Data from USB4F104151__21__12-15-18-246.txt Node

Date: Wed Feb 19 12:15:18 EST 2025
User: louis
Spectrometer: USB4F10415
Trigger mode: 4
Integration Time (sec): 2.250200E-1
Scans to average: 1
Electric dark correction enabled: true
Nonlinearity correction enabled: false
Boxcar width: 0
XAxis mode: Wavelengths
Number of Pixels in Spectrum: 3648
>>>>>Begin Spectral Data<<<<<
178.204	-839.5
178.424	-839.5
178.644	-839.5
178.864	-831.3
179.084	-835.4
179.304	180.39
179.524	155.82
179.744	-20.31
179.964	-280.4
180.184	180.39
180.404	239.78
180.624	-274.26
180.844	-71.51
181.064	61.61
181.283	151.72
181.503	-196.43
181.723	-126.8
181.943	-114.52
182.163	499.88
182.383	-286.54
182.602	-208.72
182.822	362.66
183.042	258.21
183.262	-233.3
183.482	-132.95
183.701	194.73
183.921	258.21
184.141	-137.04
184.361	-206.67
184.58	282.79
184.8	180.39
185.02	-175.95
185.239	-110.42
185.459	295.08
185.679	473.25
185.898	-274.26
186.118	-200.53
186.338	305.32
186.557	254.12
186.777	-208.72
186.997	-190.29
187.216	161.96
187.436	538.79
187.655	-184.15
187.875	-61.27
188.095	149.67
188.314	413.86
188.534	-59.22
188.753	-266.07
188.973	436.39
189.192	364.71
189.412	-266.07
189.631	-188.24
189.851	241.83
190.07	495.78
190.29	-175.95
190.509	-196.43
190.729	125.1
190.948	481.44
191.168	-67.41
191.387	-210.77
191.607	161.96
191.826	274.6
192.045	-114.52
192.265	-190.29
192.484	342.18
192.704	237.74
192.923	-237.39
193.142	45.23
193.362	327.85
193.581	342.18
193.8	-116.56
194.02	-73.56
194.239	245.93
194.458	409.76
194.678	-118.61
194.897	-302.93
195.116	223.4
195.335	256.17
195.555	-167.76
195.774	-245.59
195.993	391.33
196.212	127.14
196.432	-75.6
196.651	-225.11
196.87	219.3
197.089	602.27
197.308	-216.91
197.528	-126.8
197.747	63.66
197.966	223.4
198.185	-22.36
198.404	-274.26
198.623	315.56
198.842	389.28
199.062	-94.04
199.281	-132.95
199.5	178.34
199.719	305.32
199.938	-159.57
200.157	-122.71
200.376	389.28
200.595	456.87
200.814	-132.95
201.033	-94.04
201.252	405.67
201.471	301.22
201.69	-159.57
201.909	-192.34
202.128	358.57
202.347	274.6
202.566	-102.23
202.785	-309.07
203.004	243.88
203.223	585.89
203.442	-163.67
203.661	-270.16
203.879	299.17
204.098	356.52
204.317	-198.48
204.536	30.89
204.755	372.9
204.974	270.5
205.193	-343.89
205.411	-67.41
205.63	366.76
205.849	262.31
206.068	-173.91
206.287	-278.35
206.505	413.86
206.724	172.2
206.943	-251.73
207.162	-186.19
207.381	217.26
207.599	170.15
207.818	-114.52
208.037	-198.48
208.255	176.3
208.474	252.07
208.693	-151.38
208.911	-165.71
209.13	331.94
209.349	297.13
209.567	-5.97
209.786	-106.32
210.005	315.56
210.223	215.21
210.442	-390.99
210.661	-272.21
210.879	299.17
211.098	172.2
211.316	-124.76
211.535	-178
211.753	268.45
211.972	280.74
212.191	-130.9
212.409	-116.56
212.628	311.46
212.846	209.06
213.065	-247.63
213.283	-126.8
213.502	198.82
213.72	204.97
213.938	-186.19
214.157	-114.52
214.375	336.04
214.594	188.58
214.812	-81.75
215.031	-247.63
215.249	211.11
215.467	233.64
215.686	-69.46
215.904	-132.95
216.122	219.3
216.341	446.63
216.559	-18.26
216.778	-71.51
216.996	475.3
217.214	266.41
217.432	-126.8
217.651	-200.53
217.869	233.64
218.087	209.06
218.306	-214.87
218.524	-153.43
218.742	194.73
218.96	413.86
219.179	-153.43
219.397	-225.11
219.615	520.35
219.833	262.31
220.051	-218.96
220.27	-85.84
220.488	327.85
220.706	290.98
220.924	-188.24
221.142	-169.81
221.36	295.08
221.578	297.13
221.796	-149.33
222.015	8.36
222.233	274.6
222.451	422.05
222.669	-81.75
222.887	-96.08
223.105	112.81
223.323	149.67
223.541	-188.24
223.759	-77.65
223.977	241.83
224.195	407.72
224.413	-155.47
224.631	-214.87
224.849	182.44
225.067	538.79
225.285	-147.28
225.503	-188.24
225.721	2.22
225.939	266.41
226.157	-69.46
226.375	-10.07
226.592	241.83
226.81	166.06
227.028	-26.45
227.246	-106.32
227.464	250.02
227.682	348.33
227.9	-118.61
228.117	-149.33
228.335	209.06
228.553	194.73
228.771	-245.59
228.989	-126.8
229.206	346.28
229.424	139.43
229.642	-149.33
229.86	-139.09
230.077	415.91
230.295	237.74
230.513	-32.6
230.731	-153.43
230.948	387.24
231.166	428.2
231.384	-141.14
231.601	-151.38
231.819	411.81
232.037	147.62
232.254	-55.12
232.472	-208.72
232.689	194.73
232.907	325.8
233.125	-259.92
233.342	-147.28
233.56	157.86
233.777	100.52
233.995	-137.04
234.213	-94.04
234.43	280.74
234.648	186.54
234.865	-173.91
235.083	-42.84
235.3	153.77
235.518	272.55
235.735	-55.12
235.953	-94.04
236.17	262.31
236.388	315.56
236.605	20.65
236.822	-67.41
237.04	315.56
237.257	200.87
237.475	-182.1
237.692	-106.32
237.909	311.46
238.127	121
238.344	-46.93
238.562	-108.37
238.779	59.56
238.996	-10.07
239.214	-48.98
239.431	22.7
239.648	180.39
239.865	245.93
240.083	-96.08
240.3	-231.25
240.517	149.67
240.735	157.86
240.952	26.79
241.169	-175.95
241.386	321.7
241.603	168.1
241.821	-180.05
242.038	-128.85
242.255	415.91
242.472	71.85
242.689	-85.84
242.907	-145.24
243.124	254.12
243.341	225.45
243.558	-143.19
243.775	-200.53
243.992	63.66
244.209	293.03
244.426	-73.56
244.643	-44.88
244.86	121
245.078	260.26
245.295	-55.12
245.512	-147.28
245.729	65.71
245.946	237.74
246.163	-94.04
246.38	-175.95
246.597	176.3
246.814	166.06
247.031	-96.08
247.248	-233.3
247.464	323.75
247.681	141.48
247.898	-112.47
248.115	-114.52
248.332	-12.12
248.549	325.8
248.766	-75.6
248.983	-100.18
249.2	350.37
249.417	317.61
249.633	-126.8
249.85	-44.88
250.067	190.63
250.284	209.06
250.501	-171.86
250.717	-81.75
250.934	34.99
251.151	168.1
251.368	-118.61
251.585	-159.57
251.801	170.15
252.018	57.51
252.235	8.36
252.451	-186.19
252.668	110.76
252.885	356.52
253.102	-102.23
253.318	-100.18
253.535	157.86
253.752	182.44
253.968	-65.36
254.185	-243.54
254.401	258.21
254.618	295.08
254.835	-108.37
255.051	-167.76
255.268	340.13
255.484	194.73
255.701	-167.76
255.917	-149.33
256.134	139.43
256.351	172.2
256.567	-175.95
256.784	-57.17
257	-67.41
257.217	393.38
257.433	86.19
257.65	-48.98
257.866	360.61
258.082	4.27
258.299	-130.9
258.515	-102.23
258.732	180.39
258.948	28.84
259.165	-51.03
259.381	-198.48
259.597	297.13
259.814	188.58
260.03	-173.91
260.246	-22.36
260.463	305.32
260.679	286.89
260.895	-79.7
261.112	-61.27
261.328	151.72
261.544	45.23
261.761	-184.15
261.977	-118.61
262.193	151.72
262.409	329.89
262.626	2.22
262.842	-137.04
263.058	161.96
263.274	258.21
263.49	80.04
263.707	-87.89
263.923	235.69
264.139	20.65
264.355	0.17
264.571	-96.08
264.787	184.49
265.004	299.17
265.22	-3.93
265.436	-108.37
265.652	184.49
265.868	278.69
266.084	-151.38
266.3	-85.84
266.516	94.38
266.732	299.17
266.948	-26.45
267.164	-143.19
267.38	293.03
267.596	301.22
267.812	-10.07
268.028	-96.08
268.244	125.1
268.46	190.63
268.676	-102.23
268.892	-42.84
269.108	41.13
269.324	59.56
269.54	-73.56
269.756	-57.17
269.972	43.18
270.188	217.26
270.403	-106.32
270.619	-143.19
270.835	272.55
271.051	262.31
271.267	-143.19
271.483	-180.05
271.698	319.65
271.914	309.41
272.13	-100.18
272.346	-98.13
272.562	176.3
272.777	405.67
272.993	-106.32
273.209	-145.24
273.425	241.83
273.64	12.46
273.856	-151.38
274.072	-216.91
274.287	51.37
274.503	323.75
274.719	8.36
274.934	-196.43
275.15	-75.6
275.366	198.82
275.581	-63.32
275.797	-98.13
276.012	217.26
276.228	127.14
276.444	8.36
276.659	77.99
276.875	41.13
277.09	186.54
277.306	8.36
277.521	2.22
277.737	164.01
277.952	250.02
278.168	-94.04
278.383	-44.88
278.599	182.44
278.814	221.35
279.03	-153.43
279.245	53.42
279.461	161.96
279.676	176.3
279.892	-122.71
280.107	-89.94
280.322	34.99
280.538	303.27
280.753	-139.09
280.969	-36.69
281.184	221.35
281.399	299.17
281.615	-44.88
281.83	51.37
282.045	-38.74
282.26	32.94
282.476	-94.04
282.691	-5.97
282.906	204.97
283.122	121
283.337	-53.08
283.552	77.99
283.767	39.08
283.983	250.02
284.198	12.46
284.413	-122.71
284.628	73.9
284.843	151.72
285.058	-44.88
285.274	-81.75
285.489	63.66
285.704	176.3
285.919	-110.42
286.134	-46.93
286.349	121
286.564	57.51
286.779	-3.93
286.995	-38.74
287.21	22.7
287.425	250.02
287.64	-102.23
287.855	129.19
288.07	-38.74
288.285	301.22
288.5	4.27
288.715	18.6
288.93	159.91
289.145	4.27
289.36	-46.93
289.575	37.03
289.79	260.26
290.004	125.1
290.219	47.27
290.434	-79.7
290.649	147.62
290.864	178.34
291.079	6.31
291.294	-14.17
291.509	250.02
291.724	104.62
291.938	-57.17
292.153	-22.36
292.368	192.68
292.583	350.37
292.798	-38.74
293.012	24.75
293.227	213.16
293.442	129.19
293.657	80.04
293.871	-40.79
294.086	262.31
294.301	303.27
294.516	69.8
294.73	55.47
294.945	123.05
295.16	127.14
295.374	37.03
295.589	71.85
295.804	133.29
296.018	145.58
296.233	-38.74
296.447	90.28
296.662	127.14
296.877	346.28
297.091	-8.02
297.306	-14.17
297.52	80.04
297.735	161.96
297.949	22.7
298.164	-61.27
298.378	139.43
298.593	-10.07
298.807	-1.88
299.022	55.47
299.236	325.8
299.451	-8.02
299.665	6.31
299.88	-10.07
300.094	209.06
300.309	139.43
300.523	26.79
300.737	-59.22
300.952	241.83
301.166	178.34
301.381	-77.65
301.595	-126.8
301.809	155.82
302.024	188.58
302.238	-57.17
302.452	145.58
302.667	166.06
302.881	274.6
303.095	43.18
303.309	45.23
303.524	98.47
303.738	139.43
303.952	4.27
304.166	-10.07
304.381	-147.28
304.595	207.02
304.809	34.99
305.023	-34.64
305.237	77.99
305.452	135.34
305.666	16.55
305.88	53.42
306.094	305.32
306.308	202.92
306.522	-34.64
306.736	61.61
306.95	293.03
307.164	86.19
307.379	47.27
307.593	88.23
307.807	288.93
308.021	207.02
308.235	155.82
308.449	-34.64
308.663	166.06
308.877	479.4
309.091	-22.36
309.305	55.47
309.519	-71.51
309.733	237.74
309.947	-73.56
310.161	-63.32
310.374	174.25
310.588	327.85
310.802	-51.03
311.016	37.03
311.23	172.2
311.444	59.56
311.658	8.36
311.872	155.82
312.085	295.08
312.299	358.57
312.513	159.91
312.727	6.31
312.941	-36.69
313.154	219.3
313.368	45.23
313.582	-94.04
313.796	241.83
314.009	168.1
314.223	168.1
314.437	69.8
314.651	194.73
314.864	121
315.078	-73.56
315.292	-40.79
315.505	190.63
315.719	168.1
315.933	121
316.146	-132.95
316.36	49.32
316.573	186.54
316.787	198.82
317.001	102.57
317.214	57.51
317.428	227.5
317.641	-75.6
317.855	-22.36
318.068	123.05
318.282	121
318.495	102.57
318.709	4.27
318.922	176.3
319.136	258.21
319.349	51.37
319.563	-28.5
319.776	276.65
319.99	-83.8
320.203	43.18
320.417	37.03
320.63	180.39
320.843	297.13
321.057	149.67
321.27	32.94
321.483	219.3
321.697	164.01
321.91	-38.74
322.124	65.71
322.337	209.06
322.55	65.71
322.763	-59.22
322.977	-8.02
323.19	80.04
323.403	121
323.617	55.47
323.83	243.88
324.043	161.96
324.256	161.96
324.469	-204.63
324.683	145.58
324.896	108.71
325.109	118.95
325.322	-169.81
325.535	77.99
325.748	309.41
325.962	73.9
326.175	0.17
326.388	-3.93
326.601	192.68
326.814	110.76
327.027	20.65
327.24	61.61
327.453	-24.4
327.666	250.02
327.879	188.58
328.092	20.65
328.305	227.5
328.518	53.42
328.731	-12.12
328.944	-73.56
329.157	145.58
329.37	4.27
329.583	186.54
329.796	127.14
330.009	6.31
330.222	299.17
330.435	28.84
330.648	55.47
330.861	266.41
331.073	170.15
331.286	73.9
331.499	-53.08
331.712	94.38
331.925	116.9
332.138	77.99
332.35	-55.12
332.563	114.86
332.776	297.13
332.989	-36.69
333.202	-69.46
333.414	161.96
333.627	217.26
333.84	-18.26
334.053	67.75
334.265	-8.02
334.478	28.84
334.691	-20.31
334.903	149.67
335.116	47.27
335.329	204.97
335.541	34.99
335.754	155.82
335.966	110.76
336.179	102.57
336.392	39.08
336.604	69.8
336.817	233.64
337.029	198.82
337.242	-63.32
337.454	112.81
337.667	164.01
337.88	256.17
338.092	-3.93
338.305	75.95
338.517	170.15
338.729	235.69
338.942	-12.12
339.154	-116.56
339.367	37.03
339.579	235.69
339.792	-161.62
340.004	59.56
340.217	190.63
340.429	286.89
340.641	-40.79
340.854	-110.42
341.066	227.5
341.278	219.3
341.491	121
341.703	-1.88
341.915	30.89
342.128	252.07
342.34	96.43
342.552	-77.65
342.764	65.71
342.977	133.29
343.189	-53.08
343.401	16.55
343.613	-51.03
343.826	125.1
344.038	-124.76
344.25	80.04
344.462	8.36
344.674	184.49
344.886	-67.41
345.099	22.7
345.311	188.58
345.523	51.37
345.735	-87.89
345.947	14.51
346.159	202.92
346.371	168.1
346.583	55.47
346.795	147.62
347.007	104.62
347.219	200.87
347.431	32.94
347.643	168.1
347.855	112.81
348.067	323.75
348.279	-59.22
348.491	-77.65
348.703	315.56
348.915	190.63
349.127	-51.03
349.339	47.27
349.551	135.34
349.763	241.83
349.975	-53.08
350.187	-36.69
350.399	321.7
350.61	196.78
350.822	37.03
351.034	75.95
351.246	215.21
351.458	243.88
351.669	24.75
351.881	41.13
352.093	356.52
352.305	272.55
352.517	-69.46
352.728	63.66
352.94	159.91
353.152	274.6
353.363	-77.65
353.575	57.51
353.787	381.09
353.999	164.01
354.21	176.3
354.422	-165.71
354.633	190.63
354.845	215.21
355.057	73.9
355.268	80.04
355.48	303.27
355.692	57.51
355.903	57.51
356.115	-44.88
356.326	-40.79
356.538	288.93
356.749	51.37
356.961	200.87
357.172	39.08
357.384	-14.17
357.595	168.1
357.807	-16.21
358.018	137.38
358.23	139.43
358.441	-61.27
358.653	14.51
358.864	145.58
359.075	71.85
359.287	16.55
359.498	104.62
359.709	270.5
359.921	131.24
360.132	82.09
360.344	-94.04
360.555	73.9
360.766	184.49
360.977	-63.32
361.189	71.85
361.4	159.91
361.611	311.46
361.823	102.57
362.034	-75.6
362.245	28.84
362.456	184.49
362.667	153.77
362.879	-204.63
363.09	176.3
363.301	143.53
363.512	2.22
363.723	-77.65
363.935	77.99
364.146	305.32
364.357	-18.26
364.568	41.13
364.779	-61.27
364.99	356.52
365.201	-36.69
365.412	92.33
365.623	-22.36
365.834	186.54
366.045	69.8
366.256	55.47
366.467	221.35
366.678	116.9
366.889	57.51
367.1	26.79
367.311	290.98
367.522	192.68
367.733	65.71
367.944	55.47
368.155	86.19
368.366	241.83
368.577	123.05
368.788	155.82
368.999	118.95
369.209	147.62
369.42	182.44
369.631	319.65
369.842	231.59
370.053	96.43
370.264	28.84
370.474	-89.94
370.685	286.89
370.896	196.78
371.107	53.42
371.317	-22.36
371.528	196.78
371.739	383.14
371.95	43.18
372.16	-8.02
372.371	39.08
372.582	18.6
372.792	20.65
373.003	92.33
373.214	270.5
373.424	223.4
373.635	24.75
373.846	159.91
374.056	252.07
374.267	92.33
374.477	112.81
374.688	12.46
374.898	202.92
375.109	186.54
375.319	131.24
375.53	106.67
375.74	207.02
375.951	65.71
376.161	157.86
376.372	84.14
376.582	133.29
376.793	260.26
377.003	-48.98
377.214	-67.41
377.424	278.69
377.635	164.01
377.845	-3.93
378.055	108.71
378.266	57.51
378.476	225.45
378.686	61.61
378.897	55.47
379.107	286.89
379.317	274.6
379.528	-61.27
379.738	57.51
379.948	69.8
380.158	252.07
380.369	57.51
380.579	100.52
380.789	159.91
380.999	237.74
381.21	217.26
381.42	233.64
381.63	172.2
381.84	245.93
382.05	151.72
382.261	127.14
382.471	356.52
382.681	94.38
382.891	96.43
383.101	94.38
383.311	92.33
383.521	45.23
383.731	39.08
383.941	174.25
384.151	143.53
384.361	39.08
384.571	2.22
384.781	86.19
384.991	333.99
385.201	411.81
385.411	125.1
385.621	4.27
385.831	252.07
386.041	125.1
386.251	73.9
386.461	116.9
386.671	143.53
386.881	219.3
387.091	-38.74
387.301	178.34
387.511	30.89
387.72	143.53
387.93	77.99
388.14	-18.26
388.35	170.15
388.56	350.37
388.769	18.6
388.979	8.36
389.189	57.51
389.399	223.4
389.609	-14.17
389.818	10.41
390.028	221.35
390.238	137.38
390.447	32.94
390.657	61.61
390.867	143.53
391.076	-42.84
391.286	-1.88
391.496	-24.4
391.705	45.23
391.915	489.64
392.125	-12.12
392.334	45.23
392.544	288.93
392.753	102.57
392.963	53.42
393.172	41.13
393.382	102.57
393.591	387.24
393.801	39.08
394.01	39.08
394.22	231.59
394.429	80.04
394.639	94.38
394.848	53.42
395.058	178.34
395.267	139.43
395.477	118.95
395.686	37.03
395.895	489.64
396.105	348.33
396.314	-32.6
396.524	57.51
396.733	225.45
396.942	315.56
397.152	12.46
397.361	96.43
397.57	219.3
397.78	121
397.989	108.71
398.198	258.21
398.407	157.86
398.617	192.68
398.826	14.51
399.035	-5.97
399.244	274.6
399.453	233.64
399.663	-20.31
399.872	-28.5
400.081	118.95
400.29	286.89
400.499	-8.02
400.708	161.96
400.917	137.38
401.127	225.45
401.336	24.75
401.545	303.27
401.754	331.94
401.963	164.01
402.172	49.32
402.381	8.36
402.59	178.34
402.799	254.12
403.008	245.93
403.217	112.81
403.426	170.15
403.635	37.03
403.844	-71.51
404.053	-34.64
404.262	137.38
404.471	331.94
404.68	-10.07
404.888	-3.93
405.097	22.7
405.306	184.49
405.515	90.28
405.724	14.51
405.933	319.65
406.142	213.16
406.35	59.56
406.559	139.43
406.768	131.24
406.977	422.05
407.185	16.55
407.394	145.58
407.603	-24.4
407.812	188.58
408.02	184.49
408.229	43.18
408.438	276.65
408.646	8.36
408.855	-42.84
409.064	45.23
409.272	84.14
409.481	260.26
409.69	71.85
409.898	-5.97
410.107	219.3
410.315	368.81
410.524	108.71
410.733	-40.79
410.941	217.26
411.15	321.7
411.358	200.87
411.567	233.64
411.775	303.27
411.984	190.63
412.192	110.76
412.401	28.84
412.609	475.3
412.818	323.75
413.026	90.28
413.234	65.71
413.443	143.53
413.651	155.82
413.86	-151.38
414.068	200.87
414.276	458.92
414.485	82.09
414.693	137.38
414.901	198.82
415.11	252.07
415.318	204.97
415.526	153.77
415.734	229.54
415.943	196.78
416.151	366.76
416.359	0.17
416.567	184.49
416.776	254.12
416.984	252.07
417.192	211.11
417.4	49.32
417.608	118.95
417.817	47.27
418.025	168.1
418.233	110.76
418.441	92.33
418.649	129.19
418.857	80.04
419.065	104.62
419.273	45.23
419.481	219.3
419.689	123.05
419.897	49.32
420.105	94.38
420.313	237.74
420.521	141.48
420.729	166.06
420.937	116.9
421.145	159.91
421.353	127.14
421.561	141.48
421.769	288.93
421.977	131.24
422.185	178.34
422.393	80.04
422.601	342.18
422.809	231.59
423.017	131.24
423.224	114.86
423.432	403.62
423.64	221.35
423.848	43.18
424.056	51.37
424.263	420
424.471	252.07
424.679	229.54
424.887	12.46
425.094	469.16
425.302	243.88
425.51	-3.93
425.718	176.3
425.925	297.13
426.133	104.62
426.341	266.41
426.548	114.86
426.756	196.78
426.964	311.46
427.171	166.06
427.379	180.39
427.586	211.11
427.794	407.72
428.001	211.11
428.209	80.04
428.417	440.48
428.624	426.15
428.832	166.06
429.039	270.5
429.247	295.08
429.454	333.99
429.662	233.64
429.869	116.9
430.076	385.19
430.284	327.85
430.491	147.62
430.699	233.64
430.906	510.11
431.114	430.24
431.321	245.93
431.528	217.26
431.736	358.57
431.943	342.18
432.15	225.45
432.358	247.97
432.565	569.51
432.772	118.95
432.979	336.04
433.187	223.4
433.394	579.75
433.601	260.26
433.808	333.99
434.016	372.9
434.223	430.24
434.43	401.57
434.637	270.5
434.844	448.68
435.052	571.55
435.259	444.58
435.466	338.09
435.673	317.61
435.88	610.47
436.087	661.66
436.294	594.08
436.501	491.68
436.708	571.55
436.915	497.83
437.122	553.12
437.329	319.65
437.537	526.5
437.743	641.18
437.95	526.5
438.157	407.72
438.364	649.38
438.571	555.17
438.778	456.87
438.985	600.23
439.192	716.96
439.399	600.23
439.606	561.31
439.813	608.42
440.02	925.85
440.227	1038.49
440.433	585.89
440.64	663.71
440.847	594.08
441.054	694.43
441.261	700.58
441.467	618.66
441.674	700.58
441.881	866.46
442.088	708.77
442.294	716.96
442.501	977.05
442.708	946.33
442.914	694.43
443.121	854.17
443.328	1032.35
443.534	1044.63
443.741	839.84
443.948	782.49
444.154	1101.98
444.361	1261.72
444.568	921.76
444.774	966.81
444.981	893.09
445.187	1259.67
445.394	1087.64
445.6	1040.54
445.807	1271.96
446.013	1249.43
446.22	919.71
446.426	1257.62
446.633	1446.04
446.839	1583.25
447.046	1081.5
447.252	1480.85
447.459	1425.56
447.665	1450.13
447.871	1390.74
448.078	1808.53
448.284	1677.46
448.491	1812.62
448.697	1724.56
448.903	1800.34
449.11	1931.41
449.316	1833.1
449.522	1814.67
449.728	1937.55
449.935	2062.48
450.141	2121.87
450.347	2091.15
450.553	1976.46
450.76	2336.9
450.966	2465.93
451.172	2424.97
451.378	2238.6
451.584	2607.23
451.791	2805.89
451.997	2572.42
452.203	2640
452.409	2971.77
452.615	2875.52
452.821	2719.87
453.027	2605.19
453.233	3139.71
453.44	3092.6
453.646	2939.01
453.852	3162.23
454.058	3154.04
454.264	3410.04
454.47	3455.09
454.676	3260.54
454.882	3659.89
455.088	3575.92
455.294	3416.18
455.5	3584.12
455.705	3836.02
455.911	3594.36
456.117	3547.25
456.323	3647.6
456.529	3704.95
456.735	4010.09
456.941	3713.14
457.147	3772.53
457.352	3979.37
457.558	3698.8
457.764	3840.11
457.97	3739.76
458.176	4098.16
458.381	4069.48
458.587	3885.17
458.793	3903.6
458.999	3758.19
459.204	4096.11
459.41	3797.1
459.616	3928.17
459.821	4022.38
460.027	3823.73
460.233	3879.02
460.438	3836.02
460.644	3965.04
460.85	3696.75
461.055	3633.27
461.261	3637.36
461.466	3371.13
461.672	3367.03
461.878	3342.46
