Data from USB4F104151__19__12-14-57-321.txt Node

Date: Wed Feb 19 12:14:57 EST 2025
User: louis
Spectrometer: USB4F10415
Trigger mode: 4
Integration Time (sec): 2.250200E-1
Scans to average: 1
Electric dark correction enabled: true
Nonlinearity correction enabled: false
Boxcar width: 0
XAxis mode: Wavelengths
Number of Pixels in Spectrum: 3648
>>>>>Begin Spectral Data<<<<<
178.204	-816.46
178.424	-816.46
178.644	-816.46
178.864	-826.7
179.084	-767.31
179.304	166.57
179.524	111.27
179.744	21.16
179.964	-169.3
180.184	139.94
180.404	119.46
180.624	-324.94
180.844	-89.43
181.064	96.94
181.283	230.06
181.503	-202.07
181.723	-99.67
181.943	-34.13
182.163	371.36
182.383	-152.92
182.602	-202.07
182.822	436.9
183.042	211.62
183.262	-116.05
183.482	-169.3
183.701	238.25
183.921	260.77
184.141	-175.44
184.361	-146.77
184.58	275.11
184.8	185
185.02	-236.88
185.239	37.55
185.459	252.58
185.679	414.37
185.898	-197.97
186.118	-200.02
186.338	260.77
186.557	432.8
186.777	-255.31
186.997	-204.11
187.216	295.59
187.436	430.76
187.655	-54.61
187.875	8.87
188.095	197.29
188.314	420.52
188.534	-71
188.753	-210.26
188.973	465.57
189.192	545.44
189.412	-228.69
189.631	-111.96
189.851	371.36
190.07	451.24
190.29	-222.55
190.509	-48.47
190.729	154.28
190.948	438.95
191.168	-21.85
191.387	-99.67
191.607	191.14
191.826	262.82
192.045	-85.33
192.265	-183.63
192.484	377.51
192.704	328.36
192.923	-77.14
193.142	23.21
193.362	350.89
193.581	430.76
193.8	-75.09
194.02	-87.38
194.239	287.4
194.458	268.97
194.678	-83.28
194.897	-150.87
195.116	283.3
195.335	277.16
195.555	-132.44
195.774	-222.55
195.993	432.8
196.212	256.68
196.432	-93.52
196.651	-144.72
196.87	223.91
197.089	547.49
197.308	-136.53
197.528	-81.24
197.747	176.81
197.966	248.49
198.185	-75.09
198.404	-154.96
198.623	373.41
198.842	373.41
199.062	-150.87
199.281	-17.75
199.5	215.72
199.719	338.6
199.938	-120.15
200.157	-191.83
200.376	504.48
200.595	494.24
200.814	-116.05
201.033	-132.44
201.252	479.91
201.471	314.02
201.69	-181.59
201.909	-150.87
202.128	314.02
202.347	330.41
202.566	-103.76
202.785	-267.6
203.004	205.48
203.223	584.35
203.442	-212.31
203.661	-255.31
203.879	328.36
204.098	426.66
204.317	-197.97
204.536	-46.42
204.755	264.87
204.974	379.56
205.193	-306.51
205.411	-126.29
205.63	316.07
205.849	412.32
206.068	-234.83
206.287	-234.83
206.505	420.52
206.724	195.24
206.943	-267.6
207.162	-157.01
207.381	242.34
207.599	182.95
207.818	-144.72
208.037	-230.74
208.255	209.58
208.474	305.83
208.693	-202.07
208.911	-118.1
209.13	369.32
209.349	342.69
209.567	51.88
209.786	-173.39
210.005	377.51
210.223	305.83
210.442	-324.94
210.661	-243.03
210.879	379.56
211.098	203.43
211.316	-95.57
211.535	-136.53
211.753	264.87
211.972	277.16
212.191	-77.14
212.409	-101.72
212.628	348.84
212.846	152.23
213.065	-134.48
213.283	-54.61
213.502	223.91
213.72	201.38
213.938	-128.34
214.157	-163.15
214.375	299.69
214.594	217.77
214.812	-148.82
215.031	-197.97
215.249	232.1
215.467	309.93
215.686	-126.29
215.904	-152.92
216.122	320.17
216.341	365.22
216.559	-21.85
216.778	-27.99
216.996	434.85
217.214	197.29
217.432	-169.3
217.651	-144.72
217.869	332.45
218.087	285.35
218.306	-195.92
218.524	-189.78
218.742	275.11
218.96	357.03
219.179	-111.96
219.397	-193.87
219.615	459.43
219.833	283.3
220.051	-193.87
220.27	-109.91
220.488	299.69
220.706	424.61
220.924	-181.59
221.142	-138.58
221.36	271.01
221.578	258.73
221.796	-101.72
222.015	-107.86
222.233	303.78
222.451	438.95
222.669	-107.86
222.887	15.02
223.105	156.33
223.323	156.33
223.541	-148.82
223.759	-56.66
223.977	244.39
224.195	461.48
224.413	-97.62
224.631	-142.68
224.849	191.14
225.067	510.63
225.285	-118.1
225.503	-109.91
225.721	78.51
225.939	250.53
226.157	-36.18
226.375	64.17
226.592	154.28
226.81	256.68
227.028	0.68
227.246	-148.82
227.464	291.49
227.682	377.51
227.9	-109.91
228.117	-3.41
228.335	250.53
228.553	225.96
228.771	-216.4
228.989	-193.87
229.206	303.78
229.424	211.62
229.642	-140.63
229.86	-114
230.077	436.9
230.295	252.58
230.513	12.97
230.731	-27.99
230.948	389.8
231.166	447.14
231.384	-68.95
231.601	-103.76
231.819	490.15
232.037	164.52
232.254	-44.37
232.472	-136.53
232.689	125.61
232.907	299.69
233.125	-234.83
233.342	-240.98
233.56	88.75
233.777	123.56
233.995	-128.34
234.213	-97.62
234.43	287.4
234.648	170.66
234.865	-146.77
235.083	-68.95
235.3	234.15
235.518	326.31
235.735	-56.66
235.953	-93.52
236.17	297.64
236.388	191.14
236.605	27.31
236.822	-75.09
237.04	430.76
237.257	314.02
237.475	-140.63
237.692	-148.82
237.909	422.56
238.127	164.52
238.344	41.64
238.562	-114
238.779	101.03
238.996	4.78
239.214	-50.52
239.431	-64.85
239.648	144.04
239.865	281.25
240.083	-136.53
240.3	-142.68
240.517	158.38
240.735	191.14
240.952	64.17
241.169	-226.64
241.386	318.12
241.603	170.66
241.821	-134.48
242.038	-62.8
242.255	336.55
242.472	103.08
242.689	-46.42
242.907	-77.14
243.124	258.73
243.341	197.29
243.558	-38.23
243.775	-136.53
243.992	121.51
244.209	311.97
244.426	6.83
244.643	-71
244.86	158.38
245.078	279.21
245.295	8.87
245.512	-136.53
245.729	141.99
245.946	305.83
246.163	-116.05
246.38	-140.63
246.597	256.68
246.814	185
247.031	2.73
247.248	-195.92
247.464	295.59
247.681	185
247.898	-79.19
248.115	6.83
248.332	103.08
248.549	441
248.766	-27.99
248.983	-36.18
249.2	330.41
249.417	375.46
249.633	-150.87
249.85	-1.37
250.067	191.14
250.284	273.06
250.501	-118.1
250.717	-91.48
250.934	115.37
251.151	248.49
251.368	-62.8
251.585	-118.1
251.801	228.01
252.018	86.7
252.235	4.78
252.451	-128.34
252.668	209.58
252.885	369.32
253.102	-60.76
253.318	-95.57
253.535	133.8
253.752	92.84
253.968	-77.14
254.185	-195.92
254.401	303.78
254.618	299.69
254.835	-64.85
255.051	-68.95
255.268	293.54
255.484	195.24
255.701	-99.67
255.917	-79.19
256.134	125.61
256.351	260.77
256.567	-179.54
256.784	68.27
257	-9.56
257.217	397.99
257.433	31.4
257.65	-101.72
257.866	357.03
258.082	27.31
258.299	-50.52
258.515	-71
258.732	232.1
258.948	133.8
259.165	19.11
259.381	-103.76
259.597	408.23
259.814	123.56
260.03	-114
260.246	-107.86
260.463	430.76
260.679	422.56
260.895	-64.85
261.112	-46.42
261.328	201.38
261.544	64.17
261.761	-68.95
261.977	-66.9
262.193	70.31
262.409	285.35
262.626	68.27
262.842	-99.67
263.058	154.28
263.274	367.27
263.49	-62.8
263.707	-114
263.923	391.84
264.139	84.65
264.355	-13.65
264.571	-13.65
264.787	277.16
265.004	397.99
265.22	6.83
265.436	-64.85
265.652	256.68
265.868	215.72
266.084	-75.09
266.3	-60.76
266.516	113.32
266.732	221.86
266.948	2.73
267.164	-79.19
267.38	381.6
267.596	334.5
267.812	41.64
268.028	-27.99
268.244	148.14
268.46	217.77
268.676	-75.09
268.892	53.93
269.108	146.09
269.324	141.99
269.54	-75.09
269.756	43.69
269.972	150.18
270.188	215.72
270.403	-66.9
270.619	-107.86
270.835	219.82
271.051	266.92
271.267	-46.42
271.483	-161.11
271.698	336.55
271.914	334.5
272.13	-32.08
272.346	-21.85
272.562	197.29
272.777	463.52
272.993	76.46
273.209	-120.15
273.425	324.26
273.64	129.7
273.856	-60.76
274.072	-191.83
274.287	137.9
274.503	393.89
274.719	55.98
274.934	-128.34
275.15	17.07
275.366	180.9
275.581	-109.91
275.797	-15.7
276.012	303.78
276.228	109.22
276.444	19.11
276.659	135.85
276.875	86.7
277.09	146.09
277.306	62.12
277.521	-52.56
277.737	238.25
277.952	275.11
278.168	-66.9
278.383	-34.13
278.599	139.94
278.814	213.67
279.03	-87.38
279.245	17.07
279.461	207.53
279.676	248.49
279.892	-68.95
280.107	-81.24
280.322	86.7
280.538	359.08
280.753	-30.04
280.969	-34.13
281.184	193.19
281.399	316.07
281.615	70.31
281.83	78.51
282.045	-15.7
282.26	117.42
282.476	10.92
282.691	137.9
282.906	223.91
283.122	178.86
283.337	80.55
283.552	74.41
283.767	84.65
283.983	289.45
284.198	-116.05
284.413	-107.86
284.628	70.31
284.843	185
285.058	-9.56
285.274	-42.32
285.489	66.22
285.704	230.06
285.919	-34.13
286.134	6.83
286.349	158.38
286.564	78.51
286.779	94.89
286.995	-62.8
287.21	-9.56
287.425	289.45
287.64	-62.8
287.855	103.08
288.07	78.51
288.285	291.49
288.5	64.17
288.715	-17.75
288.93	238.25
289.145	150.18
289.36	-30.04
289.575	-5.46
289.79	301.73
290.004	129.7
290.219	68.27
290.434	-1.37
290.649	107.18
290.864	86.7
291.079	37.55
291.294	10.92
291.509	275.11
291.724	203.43
291.938	53.93
292.153	-62.8
292.368	207.53
292.583	217.77
292.798	68.27
293.012	68.27
293.227	277.16
293.442	109.22
293.657	41.64
293.871	-52.56
294.086	309.93
294.301	373.41
294.516	78.51
294.73	86.7
294.945	23.21
295.16	162.47
295.374	45.74
295.589	90.79
295.804	178.86
296.018	193.19
296.233	-13.65
296.447	47.79
296.662	109.22
296.877	314.02
297.091	68.27
297.306	-36.18
297.52	185
297.735	303.78
297.949	60.07
298.164	-77.14
298.378	246.44
298.593	31.4
298.807	-89.43
299.022	-7.51
299.236	381.6
299.451	119.46
299.665	60.07
299.88	6.83
300.094	295.59
300.309	182.95
300.523	39.59
300.737	-27.99
300.952	240.29
301.166	182.95
301.381	-87.38
301.595	-73.04
301.809	248.49
302.024	166.57
302.238	27.31
302.452	103.08
302.667	191.14
302.881	373.41
303.095	62.12
303.309	107.18
303.524	88.75
303.738	172.71
303.952	-30.04
304.166	76.46
304.381	-9.56
304.595	336.55
304.809	127.66
305.023	-48.47
305.237	98.99
305.452	137.9
305.666	-5.46
305.88	94.89
306.094	357.03
306.308	195.24
306.522	-19.8
306.736	135.85
306.95	311.97
307.164	94.89
307.379	62.12
307.593	82.6
307.807	332.45
308.021	217.77
308.235	203.43
308.449	-85.33
308.663	152.23
308.877	531.11
309.091	70.31
309.305	68.27
309.519	4.78
309.733	291.49
309.947	-111.96
310.161	-36.18
310.374	225.96
310.588	260.77
310.802	-73.04
311.016	-38.23
311.23	170.66
311.444	139.94
311.658	92.84
311.872	185
312.085	211.62
312.299	314.02
312.513	158.38
312.727	-68.95
312.941	129.7
313.154	260.77
313.368	10.92
313.582	78.51
313.796	199.34
314.009	248.49
314.223	166.57
314.437	27.31
314.651	314.02
314.864	164.52
315.078	12.97
315.292	-75.09
315.505	158.38
315.719	199.34
315.933	80.55
316.146	-21.85
316.36	82.6
316.573	211.62
316.787	191.14
317.001	121.51
317.214	76.46
317.428	78.51
317.641	-97.62
317.855	51.88
318.068	176.81
318.282	215.72
318.495	131.75
318.709	29.35
318.922	199.34
319.136	385.7
319.349	74.41
319.563	-95.57
319.776	299.69
319.99	-13.65
320.203	62.12
320.417	62.12
320.63	152.23
320.843	314.02
321.057	154.28
321.27	72.36
321.483	266.92
321.697	344.74
321.91	17.07
322.124	10.92
322.337	262.82
322.55	23.21
322.763	66.22
322.977	-27.99
323.19	92.84
323.403	240.29
323.617	76.46
323.83	182.95
324.043	150.18
324.256	162.47
324.469	-212.31
324.683	141.99
324.896	193.19
325.109	53.93
325.322	-46.42
325.535	162.47
325.748	324.26
325.962	152.23
326.175	39.59
326.388	-1.37
326.601	311.97
326.814	164.52
327.027	76.46
327.24	105.13
327.453	25.26
327.666	287.4
327.879	209.58
328.092	41.64
328.305	228.01
328.518	121.51
328.731	-54.61
328.944	-111.96
329.157	135.85
329.37	60.07
329.583	146.09
329.796	70.31
330.009	-64.85
330.222	301.73
330.435	129.7
330.648	78.51
330.861	215.72
331.073	162.47
331.286	66.22
331.499	21.16
331.712	107.18
331.925	211.62
332.138	25.26
332.35	19.11
332.563	141.99
332.776	279.21
332.989	-19.8
333.202	-48.47
333.414	221.86
333.627	141.99
333.84	33.45
334.053	17.07
334.265	109.22
334.478	64.17
334.691	8.87
334.903	96.94
335.116	88.75
335.329	129.7
335.541	-5.46
335.754	207.53
335.966	129.7
336.179	211.62
336.392	-38.23
336.604	78.51
336.817	273.06
337.029	230.06
337.242	-40.28
337.454	45.74
337.667	197.29
337.88	309.93
338.092	162.47
338.305	117.42
338.517	64.17
338.729	232.1
338.942	4.78
339.154	-103.76
339.367	92.84
339.579	250.53
339.792	4.78
340.004	94.89
340.217	154.28
340.429	223.91
340.641	-5.46
340.854	-60.76
341.066	207.53
341.278	283.3
341.491	197.29
341.703	6.83
341.915	70.31
342.128	248.49
342.34	39.59
342.552	-81.24
342.764	195.24
342.977	213.67
343.189	66.22
343.401	150.18
343.613	31.4
343.826	201.38
344.038	-58.71
344.25	17.07
344.462	119.46
344.674	189.1
344.886	-101.72
345.099	0.68
345.311	215.72
345.523	96.94
345.735	-85.33
345.947	-5.46
346.159	207.53
346.371	191.14
346.583	-3.41
346.795	84.65
347.007	191.14
347.219	275.11
347.431	49.83
347.643	168.62
347.855	193.19
348.067	303.78
348.279	-44.37
348.491	-1.37
348.703	381.6
348.915	125.61
349.127	-13.65
349.339	8.87
349.551	113.32
349.763	314.02
349.975	37.55
350.187	86.7
350.399	438.95
350.61	180.9
350.822	31.4
351.034	86.7
351.246	283.3
351.458	189.1
351.669	101.03
351.881	15.02
352.093	285.35
352.305	223.91
352.517	15.02
352.728	170.66
352.94	217.77
353.152	258.73
353.363	-5.46
353.575	86.7
353.787	330.41
353.999	230.06
354.21	168.62
354.422	-11.61
354.633	166.57
354.845	223.91
355.057	60.07
355.268	84.65
355.48	328.36
355.692	125.61
355.903	86.7
356.115	-1.37
356.326	4.78
356.538	344.74
356.749	84.65
356.961	168.62
357.172	150.18
357.384	2.73
357.595	309.93
357.807	72.36
358.018	168.62
358.23	160.42
358.441	-32.08
358.653	29.35
358.864	148.14
359.075	84.65
359.287	86.7
359.498	76.46
359.709	348.84
359.921	230.06
360.132	92.84
360.344	-46.42
360.555	141.99
360.766	316.07
360.977	33.45
361.189	78.51
361.4	176.81
361.611	248.49
361.823	117.42
362.034	35.5
362.245	-19.8
362.456	174.76
362.667	174.76
362.879	-120.15
363.09	252.58
363.301	240.29
363.512	43.69
363.723	23.21
363.935	174.76
364.146	359.08
364.357	19.11
364.568	94.89
364.779	39.59
364.99	322.21
365.201	80.55
365.412	152.23
365.623	74.41
365.834	230.06
366.045	80.55
366.256	35.5
366.467	295.59
366.678	141.99
366.889	82.6
367.1	4.78
367.311	314.02
367.522	166.57
367.733	164.52
367.944	53.93
368.155	148.14
368.366	256.68
368.577	119.46
368.788	131.75
368.999	70.31
369.209	98.99
369.42	223.91
369.631	326.31
369.842	305.83
370.053	256.68
370.264	-9.56
370.474	-58.71
370.685	389.8
370.896	211.62
371.107	209.58
371.317	43.69
371.528	232.1
371.739	342.69
371.95	88.75
372.16	107.18
372.371	31.4
372.582	113.32
372.792	-27.99
373.003	109.22
373.214	277.16
373.424	234.15
373.635	-13.65
373.846	240.29
374.056	275.11
374.267	131.75
374.477	105.13
374.688	-34.13
374.898	266.92
375.109	232.1
375.319	84.65
375.53	51.88
375.74	287.4
375.951	152.23
376.161	174.76
376.372	80.55
376.582	144.04
376.793	289.45
377.003	101.03
377.214	-38.23
377.424	299.69
377.635	271.01
377.845	94.89
378.055	162.47
378.266	131.75
378.476	264.87
378.686	64.17
378.897	35.5
379.107	305.83
379.317	307.88
379.528	-54.61
379.738	141.99
379.948	37.55
380.158	350.89
380.369	88.75
380.579	135.85
380.789	238.25
380.999	230.06
381.21	172.71
381.42	219.82
381.63	193.19
381.84	359.08
382.05	148.14
382.261	213.67
382.471	260.77
382.681	141.99
382.891	141.99
383.101	70.31
383.311	156.33
383.521	117.42
383.731	76.46
383.941	228.01
384.151	178.86
384.361	150.18
384.571	21.16
384.781	70.31
384.991	301.73
385.201	420.52
385.411	193.19
385.621	68.27
385.831	316.07
386.041	207.53
386.251	152.23
386.461	119.46
386.671	373.41
386.881	217.77
387.091	51.88
387.301	182.95
387.511	207.53
387.72	262.82
387.93	185
388.14	15.02
388.35	299.69
388.56	414.37
388.769	109.22
388.979	45.74
389.189	113.32
389.399	238.25
389.609	139.94
389.818	180.9
390.028	322.21
390.238	260.77
390.447	84.65
390.657	88.75
390.867	199.34
391.076	103.08
391.286	43.69
391.496	-9.56
391.705	283.3
391.915	391.84
392.125	62.12
392.334	80.55
392.544	473.76
392.753	191.14
392.963	92.84
393.172	-1.37
393.382	268.97
393.591	432.8
393.801	119.46
394.01	185
394.22	348.84
394.429	162.47
394.639	158.38
394.848	76.46
395.058	357.03
395.267	232.1
395.477	246.44
395.686	125.61
395.895	563.87
396.105	406.18
396.314	213.67
396.524	168.62
396.733	111.27
396.942	453.28
397.152	37.55
397.361	297.64
397.57	203.43
397.78	264.87
397.989	223.91
398.198	371.36
398.407	213.67
398.617	156.33
398.826	37.55
399.035	141.99
399.244	301.73
399.453	240.29
399.663	117.42
399.872	29.35
400.081	207.53
400.29	348.84
400.499	15.02
400.708	262.82
400.917	293.54
401.127	246.44
401.336	109.22
401.545	406.18
401.754	420.52
401.963	471.72
402.172	156.33
402.381	146.09
402.59	357.03
402.799	248.49
403.008	309.93
403.217	111.27
403.426	344.74
403.635	43.69
403.844	23.21
404.053	55.98
404.262	250.53
404.471	461.48
404.68	117.42
404.888	238.25
405.097	236.2
405.306	311.97
405.515	172.71
405.724	164.52
405.933	359.08
406.142	293.54
406.35	115.37
406.559	144.04
406.768	305.83
406.977	520.87
407.185	125.61
407.394	207.53
407.603	217.77
407.812	223.91
408.02	240.29
408.229	66.22
408.438	326.31
408.646	58.03
408.855	62.12
409.064	43.69
409.272	273.06
409.481	348.84
409.69	121.51
409.898	51.88
410.107	215.72
410.315	406.18
410.524	168.62
410.733	148.14
410.941	303.78
411.15	397.99
411.358	139.94
411.567	332.45
411.775	371.36
411.984	314.02
412.192	232.1
412.401	92.84
412.609	522.91
412.818	377.51
413.026	211.62
413.234	178.86
413.443	311.97
413.651	279.21
413.86	21.16
414.068	318.12
414.276	488.1
414.485	258.73
414.693	211.62
414.901	336.55
415.11	340.65
415.318	236.2
415.526	131.75
415.734	217.77
415.943	289.45
416.151	498.34
416.359	176.81
416.567	234.15
416.776	420.52
416.984	346.79
417.192	254.63
417.4	158.38
417.608	232.1
417.817	139.94
418.025	336.55
418.233	248.49
418.441	217.77
418.649	139.94
418.857	162.47
419.065	256.68
419.273	228.01
419.481	230.06
419.689	219.82
419.897	117.42
420.105	197.29
420.313	404.13
420.521	318.12
420.729	248.49
420.937	187.05
421.145	187.05
421.353	230.06
421.561	266.92
421.769	350.89
421.977	223.91
422.185	217.77
422.393	221.86
422.601	322.21
422.809	352.93
423.017	264.87
423.224	168.62
423.432	447.14
423.64	373.41
423.848	176.81
424.056	92.84
424.263	391.84
424.471	277.16
424.679	326.31
424.887	135.85
425.094	455.33
425.302	369.32
425.51	-9.56
425.718	230.06
425.925	379.56
426.133	160.42
426.341	281.25
426.548	119.46
426.756	283.3
426.964	344.74
427.171	98.99
427.379	209.58
427.586	330.41
427.794	438.95
428.001	273.06
428.209	217.77
428.417	475.81
428.624	428.71
428.832	275.11
429.039	275.11
429.247	332.45
429.454	414.37
429.662	334.5
429.869	191.14
430.076	418.47
430.284	311.97
430.491	221.86
430.699	207.53
430.906	553.63
431.114	453.28
431.321	320.17
431.528	258.73
431.736	400.04
431.943	369.32
432.15	217.77
432.358	244.39
432.565	604.83
432.772	107.18
432.979	385.7
433.187	189.1
433.394	621.22
433.601	307.88
433.808	389.8
434.016	424.61
434.223	529.06
434.43	459.43
434.637	248.49
434.844	535.2
435.052	535.2
435.259	524.96
435.466	422.56
435.673	397.99
435.88	635.55
436.087	615.07
436.294	600.74
436.501	443.04
436.708	506.53
436.915	559.78
437.122	516.77
437.329	332.45
437.537	541.35
437.743	645.79
437.95	588.45
438.157	504.48
438.364	608.93
438.571	559.78
438.778	445.09
438.985	520.87
439.192	711.33
439.399	602.79
439.606	438.95
439.813	557.73
440.02	961.18
440.227	891.55
440.433	668.32
440.64	572.07
440.847	553.63
441.054	680.61
441.261	754.34
441.467	672.42
441.674	727.71
441.881	918.17
442.088	621.22
442.294	662.18
442.501	912.03
442.708	1032.86
442.914	711.33
443.121	789.15
443.328	926.36
443.534	1034.91
443.741	774.81
443.948	690.85
444.154	1049.24
444.361	1198.74
444.568	905.88
444.774	838.3
444.981	875.17
445.187	1192.6
445.394	971.42
445.6	955.04
445.807	1133.21
446.013	1129.11
446.22	862.88
446.426	1272.47
446.633	1307.29
446.839	1555.09
447.046	1102.49
447.252	1307.29
447.459	1397.4
447.665	1426.07
447.871	1282.71
448.078	1759.89
448.284	1567.38
448.491	1745.55
448.697	1579.67
448.903	1630.87
449.11	1864.33
449.316	1659.54
449.522	1772.18
449.728	1888.91
449.935	2052.75
450.141	1858.19
450.347	2034.32
450.553	2038.41
450.76	2228.87
450.966	2364.04
451.172	2120.33
451.378	2222.73
451.584	2513.54
451.791	2708.1
451.997	2488.96
452.203	2599.55
452.409	2863.74
452.615	2814.59
452.821	2710.15
453.027	2656.9
453.233	3148.41
453.44	2851.46
453.646	2765.44
453.852	2945.66
454.058	3007.1
454.264	3148.41
454.47	3304.06
454.676	3228.28
454.882	3500.66
455.088	3273.34
455.294	3209.85
455.5	3627.64
455.705	3558
455.911	3609.2
456.117	3394.17
456.323	3555.96
456.529	3488.37
456.735	3773.04
456.941	3465.85
457.147	3586.68
457.352	3863.15
457.558	3533.43
457.764	3705.46
457.97	3545.72
458.176	3848.82
458.381	3969.65
458.587	3832.43
458.793	3633.78
458.999	3529.33
459.204	3900.02
459.41	3844.72
459.616	3746.42
459.821	3887.73
460.027	3623.54
460.233	3637.88
460.438	3574.39
460.644	3676.79
460.85	3648.11
461.055	3627.64
461.261	3525.24
461.466	3345.02
461.672	3449.46
461.878	3238.52
