Data from USB4F104151__10__11-50-47-448.txt Node

Date: Wed Feb 19 11:50:47 EST 2025
User: louis
Spectrometer: USB4F10415
Trigger mode: 4
Integration Time (sec): 2.250200E-1
Scans to average: 1
Electric dark correction enabled: true
Nonlinearity correction enabled: false
Boxcar width: 0
XAxis mode: Wavelengths
Number of Pixels in Spectrum: 3648
>>>>>Begin Spectral Data<<<<<
178.204	-806.39
178.424	-806.39
178.644	-806.39
178.864	-779.76
179.084	-853.49
179.304	180.73
179.524	129.53
179.744	14.85
179.964	-151.04
180.184	160.25
180.404	109.05
180.624	-280.06
180.844	-95.74
181.064	-42.5
181.283	233.98
181.503	-173.57
181.723	-85.5
181.943	-42.5
182.163	449.02
182.383	-308.73
182.602	-208.38
182.822	422.39
183.042	231.93
183.262	-202.24
183.482	-206.33
183.701	223.74
183.921	276.99
184.141	-167.42
184.361	-122.37
184.58	315.9
184.8	188.93
185.02	-214.52
185.239	-48.64
185.459	225.79
185.679	426.49
185.898	-284.16
186.118	-253.44
186.338	258.56
186.557	279.04
186.777	-275.96
186.997	-200.19
187.216	176.64
187.436	498.17
187.655	-101.89
187.875	-81.41
188.095	160.25
188.314	377.34
188.534	16.9
188.753	-259.58
188.973	385.53
189.192	408.06
189.412	-255.48
189.631	-204.28
189.851	287.23
190.07	498.17
190.29	-118.27
190.509	-157.18
190.729	162.3
190.948	422.39
191.168	-62.98
191.387	-204.28
191.607	223.74
191.826	205.31
192.045	-134.65
192.265	-146.94
192.484	287.23
192.704	240.12
192.923	-146.94
193.142	-19.97
193.362	252.41
193.581	363
193.8	-136.7
194.02	-114.17
194.239	188.93
194.458	281.08
194.678	-15.87
194.897	-290.3
195.116	324.09
195.335	256.51
195.555	-148.99
195.774	-280.06
195.993	358.91
196.212	174.59
196.432	-169.47
196.651	-214.52
196.87	160.25
197.089	424.44
197.308	-130.56
197.528	-118.27
197.747	96.77
197.966	117.25
198.185	-30.21
198.404	-212.48
198.623	311.8
198.842	295.42
199.062	-118.27
199.281	-89.6
199.5	205.31
199.719	281.08
199.938	-120.32
200.157	-167.42
200.376	367.1
200.595	428.54
200.814	-95.74
201.033	-220.67
201.252	489.98
201.471	338.43
201.69	-155.13
201.909	-187.9
202.128	289.28
202.347	248.32
202.566	-163.33
202.785	-302.59
203.004	66.05
203.223	526.84
203.442	-222.72
203.661	-273.92
203.879	315.9
204.098	340.47
204.317	-239.1
204.536	33.28
204.755	457.21
204.974	260.6
205.193	-308.73
205.411	-9.73
205.63	389.63
205.849	225.79
206.068	-198.14
206.287	-230.91
206.505	334.33
206.724	158.21
206.943	-247.29
207.162	-230.91
207.381	217.6
207.599	129.53
207.818	-134.65
208.037	-222.72
208.255	166.4
208.474	229.88
208.693	-153.09
208.911	-222.72
209.13	324.09
209.349	246.27
209.567	-71.17
209.786	-245.24
210.005	369.15
210.223	205.31
210.442	-347.64
210.661	-214.52
210.879	334.33
211.098	180.73
211.316	-157.18
211.535	-105.98
211.753	254.46
211.972	248.32
212.191	-97.79
212.409	-192
212.628	311.8
212.846	131.58
213.065	-284.16
213.283	-62.98
213.502	211.45
213.72	147.97
213.938	-237.05
214.157	-198.14
214.375	295.42
214.594	129.53
214.812	-122.37
215.031	-212.48
215.249	242.17
215.467	213.5
215.686	-159.23
215.904	-202.24
216.122	182.78
216.341	385.53
216.559	-19.97
216.778	8.7
216.996	416.25
217.214	176.64
217.432	-146.94
217.651	-220.67
217.869	213.5
218.087	172.54
218.306	-210.43
218.524	-179.71
218.742	182.78
218.96	340.47
219.179	-187.9
219.397	-175.61
219.615	625.14
219.833	285.18
220.051	-204.28
220.27	-105.98
220.488	387.58
220.706	252.41
220.924	-181.76
221.142	-245.24
221.36	197.12
221.578	182.78
221.796	-179.71
222.015	-105.98
222.233	283.13
222.451	426.49
222.669	-73.21
222.887	-62.98
223.105	66.05
223.323	162.3
223.541	-185.85
223.759	-83.45
223.977	139.77
224.195	373.24
224.413	-67.07
224.631	-153.09
224.849	258.56
225.067	535.03
225.285	-38.4
225.503	-216.57
225.721	-81.41
225.939	195.07
226.157	-136.7
226.375	39.42
226.592	147.97
226.81	86.53
227.028	27.14
227.246	-140.8
227.464	199.16
227.682	276.99
227.9	-108.03
228.117	-130.56
228.335	240.12
228.553	195.07
228.771	-187.9
228.989	-155.13
229.206	238.08
229.424	184.83
229.642	-255.48
229.86	-118.27
230.077	379.39
230.295	205.31
230.513	-73.21
230.731	-157.18
230.948	473.59
231.166	430.59
231.384	-130.56
231.601	-177.66
231.819	430.59
232.037	39.42
232.254	-99.84
232.472	-159.23
232.689	180.73
232.907	338.43
233.125	-200.19
233.342	-247.29
233.56	51.71
233.777	74.24
233.995	-105.98
234.213	-40.45
234.43	252.41
234.648	121.34
234.865	-142.85
235.083	-89.6
235.3	223.74
235.518	342.52
235.735	-97.79
235.953	-136.7
236.17	211.45
236.388	156.16
236.605	78.33
236.822	-56.83
237.04	365.05
237.257	188.93
237.475	-169.47
237.692	-140.8
237.909	422.39
238.127	49.66
238.344	25.09
238.562	-50.69
238.779	123.39
238.996	-19.97
239.214	-65.02
239.431	-77.31
239.648	115.2
239.865	190.97
240.083	-151.04
240.3	-179.71
240.517	168.45
240.735	215.55
240.952	-28.16
241.169	-200.19
241.386	231.93
241.603	113.15
241.821	-112.13
242.038	-194.05
242.255	354.81
242.472	41.47
242.689	-128.51
242.907	-171.52
243.124	242.17
243.341	215.55
243.558	-83.45
243.775	-167.42
243.992	57.86
244.209	260.6
244.426	-38.4
244.643	-105.98
244.86	61.95
245.078	330.23
245.295	-105.98
245.512	-114.17
245.729	-3.58
245.946	209.4
246.163	-118.27
246.38	-136.7
246.597	201.21
246.814	221.69
247.031	-122.37
247.248	-173.57
247.464	287.23
247.681	260.6
247.898	-142.85
248.115	37.38
248.332	70.14
248.549	424.44
248.766	8.7
248.983	-142.85
249.2	309.76
249.417	412.15
249.633	-71.17
249.85	23.04
250.067	193.02
250.284	209.4
250.501	-130.56
250.717	-177.66
250.934	111.1
251.151	276.99
251.368	-58.88
251.585	-124.41
251.801	268.8
252.018	-17.92
252.235	6.66
252.451	-185.85
252.668	66.05
252.885	279.04
253.102	-130.56
253.318	-196.09
253.535	143.87
253.752	80.38
253.968	-95.74
254.185	-208.38
254.401	317.95
254.618	317.95
254.835	-60.93
255.051	-42.5
255.268	330.23
255.484	276.99
255.701	-93.69
255.917	-83.45
256.134	129.53
256.351	201.21
256.567	-204.28
256.784	-7.68
257	-19.97
257.217	336.38
257.433	20.99
257.65	-95.74
257.866	350.71
258.082	18.94
258.299	-187.9
258.515	-93.69
258.732	174.59
258.948	107.01
259.165	-128.51
259.381	-169.47
259.597	317.95
259.814	195.07
260.03	-179.71
260.246	-140.8
260.463	369.15
260.679	244.22
260.895	-69.12
261.112	-83.45
261.328	190.97
261.544	49.66
261.761	-103.93
261.977	-130.56
262.193	49.66
262.409	301.56
262.626	-9.73
262.842	-99.84
263.058	109.05
263.274	272.89
263.49	-9.73
263.707	-204.28
263.923	297.47
264.139	-40.45
264.355	-101.89
264.571	25.09
264.787	264.7
265.004	334.33
265.22	-83.45
265.436	-116.22
265.652	182.78
265.868	274.94
266.084	-146.94
266.3	-103.93
266.516	41.47
266.732	174.59
266.948	-73.21
267.164	-243.2
267.38	313.85
267.596	272.89
267.812	-15.87
268.028	-77.31
268.244	152.06
268.46	223.74
268.676	-138.75
268.892	29.18
269.108	80.38
269.324	35.33
269.54	-52.74
269.756	-44.54
269.972	27.14
270.188	127.49
270.403	-169.47
270.619	-97.79
270.835	262.65
271.051	100.86
271.267	-108.03
271.483	-243.2
271.698	199.16
271.914	272.89
272.13	-42.5
272.346	-69.12
272.562	195.07
272.777	348.67
272.993	-69.12
273.209	-89.6
273.425	219.64
273.64	31.23
273.856	-124.41
274.072	-232.96
274.287	137.73
274.503	254.46
274.719	-11.78
274.934	-155.13
275.15	-38.4
275.366	72.19
275.581	-153.09
275.797	-54.78
276.012	160.25
276.228	31.23
276.444	-71.17
276.659	143.87
276.875	96.77
277.09	55.81
277.306	-36.35
277.521	-1.54
277.737	207.36
277.952	201.21
278.168	-69.12
278.383	-54.78
278.599	141.82
278.814	193.02
279.03	-128.51
279.245	59.9
279.461	125.44
279.676	274.94
279.892	-75.26
280.107	-138.75
280.322	80.38
280.538	285.18
280.753	-89.6
280.969	-34.3
281.184	203.26
281.399	295.42
281.615	0.51
281.83	104.96
282.045	-52.74
282.26	78.33
282.476	-54.78
282.691	57.86
282.906	197.12
283.122	78.33
283.337	-65.02
283.552	41.47
283.767	123.39
283.983	188.93
284.198	-95.74
284.413	-79.36
284.628	-67.07
284.843	127.49
285.058	-65.02
285.274	-38.4
285.489	156.16
285.704	182.78
285.919	-77.31
286.134	-50.69
286.349	104.96
286.564	96.77
286.779	-32.26
286.995	-17.92
287.21	-83.45
287.425	195.07
287.64	-38.4
287.855	88.57
288.07	113.15
288.285	213.5
288.5	49.66
288.715	-7.68
288.93	88.57
289.145	25.09
289.36	-54.78
289.575	-73.21
289.79	350.71
290.004	188.93
290.219	53.76
290.434	-38.4
290.649	135.68
290.864	180.73
291.079	-79.36
291.294	8.7
291.509	211.45
291.724	23.04
291.938	-42.5
292.153	-75.26
292.368	152.06
292.583	178.69
292.798	27.14
293.012	27.14
293.227	258.56
293.442	129.53
293.657	55.81
293.871	-36.35
294.086	203.26
294.301	340.47
294.516	29.18
294.73	100.86
294.945	80.38
295.16	170.49
295.374	-30.21
295.589	-5.63
295.804	33.28
296.018	127.49
296.233	6.66
296.447	-11.78
296.662	64
296.877	305.66
297.091	55.81
297.306	-40.45
297.52	84.48
297.735	260.6
297.949	25.09
298.164	-155.13
298.378	164.35
298.593	31.23
298.807	-24.06
299.022	-15.87
299.236	313.85
299.451	139.77
299.665	-48.64
299.88	27.14
300.094	225.79
300.309	129.53
300.523	-9.73
300.737	-85.5
300.952	258.56
301.166	141.82
301.381	-60.93
301.595	-194.05
301.809	182.78
302.024	57.86
302.238	-67.07
302.452	125.44
302.667	268.8
302.881	322.04
303.095	55.81
303.309	45.57
303.524	27.14
303.738	92.67
303.952	-36.35
304.166	39.42
304.381	-108.03
304.595	250.36
304.809	-19.97
305.023	-118.27
305.237	90.62
305.452	47.62
305.666	-34.3
305.88	25.09
306.094	195.07
306.308	98.81
306.522	-79.36
306.736	14.85
306.95	281.08
307.164	119.29
307.379	66.05
307.593	127.49
307.807	213.5
308.021	279.04
308.235	119.29
308.449	-159.23
308.663	199.16
308.877	504.31
309.091	86.53
309.305	64
309.519	-7.68
309.733	242.17
309.947	-110.08
310.161	-62.98
310.374	190.97
310.588	238.08
310.802	-54.78
311.016	-42.5
311.23	236.03
311.444	92.67
311.658	25.09
311.872	164.35
312.085	211.45
312.299	276.99
312.513	111.1
312.727	-15.87
312.941	23.04
313.154	117.25
313.368	-46.59
313.582	-5.63
313.796	147.97
314.009	125.44
314.223	141.82
314.437	137.73
314.651	260.6
314.864	33.28
315.078	-34.3
315.292	-93.69
315.505	129.53
315.719	178.69
315.933	35.33
316.146	-19.97
316.36	43.52
316.573	244.22
316.787	221.69
317.001	53.76
317.214	6.66
317.428	64
317.641	-17.92
317.855	-17.92
318.068	141.82
318.282	143.87
318.495	98.81
318.709	-77.31
318.922	139.77
319.136	358.91
319.349	90.62
319.563	-36.35
319.776	264.7
319.99	-52.74
320.203	16.9
320.417	78.33
320.63	168.45
320.843	322.04
321.057	20.99
321.27	6.66
321.483	315.9
321.697	129.53
321.91	-65.02
322.124	-5.63
322.337	197.12
322.55	-46.59
322.763	41.47
322.977	-91.65
323.19	113.15
323.403	174.59
323.617	14.85
323.83	129.53
324.043	92.67
324.256	107.01
324.469	-290.3
324.683	113.15
324.896	74.24
325.109	131.58
325.322	-161.28
325.535	39.42
325.748	342.52
325.962	51.71
326.175	43.52
326.388	-46.59
326.601	172.54
326.814	113.15
327.027	10.75
327.24	133.63
327.453	-75.26
327.666	184.83
327.879	170.49
328.092	57.86
328.305	285.18
328.518	92.67
328.731	25.09
328.944	-165.37
329.157	207.36
329.37	100.86
329.583	76.29
329.796	57.86
330.009	20.99
330.222	289.28
330.435	92.67
330.648	-22.02
330.861	217.6
331.073	203.26
331.286	33.28
331.499	-34.3
331.712	35.33
331.925	131.58
332.138	57.86
332.35	-93.69
332.563	47.62
332.776	365.05
332.989	-65.02
333.202	-48.64
333.414	154.11
333.627	117.25
333.84	-95.74
334.053	53.76
334.265	23.04
334.478	31.23
334.691	-87.55
334.903	125.44
335.116	127.49
335.329	37.38
335.541	29.18
335.754	264.7
335.966	111.1
336.179	162.3
336.392	-1.54
336.604	49.66
336.817	174.59
337.029	154.11
337.242	8.7
337.454	43.52
337.667	170.49
337.88	256.51
338.092	113.15
338.305	78.33
338.517	70.14
338.729	160.25
338.942	35.33
339.154	-112.13
339.367	27.14
339.579	209.4
339.792	-42.5
340.004	-24.06
340.217	127.49
340.429	154.11
340.641	-1.54
340.854	-83.45
341.066	186.88
341.278	293.37
341.491	152.06
341.703	-85.5
341.915	10.75
342.128	203.26
342.34	61.95
342.552	-91.65
342.764	203.26
342.977	96.77
343.189	92.67
343.401	109.05
343.613	29.18
343.826	176.64
344.038	-54.78
344.25	27.14
344.462	14.85
344.674	219.64
344.886	-3.58
345.099	78.33
345.311	168.45
345.523	68.09
345.735	-167.42
345.947	41.47
346.159	303.61
346.371	244.22
346.583	45.57
346.795	-9.73
347.007	125.44
347.219	211.45
347.431	61.95
347.643	217.6
347.855	111.1
348.067	330.23
348.279	-1.54
348.491	-65.02
348.703	322.04
348.915	190.97
349.127	-75.26
349.339	68.09
349.551	6.66
349.763	276.99
349.975	33.28
350.187	84.48
350.399	336.38
350.61	147.97
350.822	-48.64
351.034	33.28
351.246	270.84
351.458	158.21
351.669	12.8
351.881	4.61
352.093	381.43
352.305	233.98
352.517	-11.78
352.728	104.96
352.94	68.09
353.152	199.16
353.363	-146.94
353.575	16.9
353.787	430.59
353.999	246.27
354.21	143.87
354.422	-34.3
354.633	203.26
354.845	131.58
355.057	51.71
355.268	41.47
355.48	236.03
355.692	-40.45
355.903	10.75
356.115	-142.85
356.326	-79.36
356.538	354.81
356.749	47.62
356.961	176.64
357.172	158.21
357.384	45.57
357.595	213.5
357.807	8.7
358.018	111.1
358.23	102.91
358.441	-69.12
358.653	-34.3
358.864	141.82
359.075	-11.78
359.287	-46.59
359.498	37.38
359.709	281.08
359.921	215.55
360.132	59.9
360.344	-116.22
360.555	115.2
360.766	281.08
360.977	-146.94
361.189	88.57
361.4	176.64
361.611	238.08
361.823	76.29
362.034	29.18
362.245	-89.6
362.456	107.01
362.667	113.15
362.879	-140.8
363.09	301.56
363.301	207.36
363.512	-71.17
363.723	-87.55
363.935	117.25
364.146	258.56
364.357	-13.82
364.568	6.66
364.779	29.18
364.99	305.66
365.201	37.38
365.412	219.64
365.623	-38.4
365.834	180.73
366.045	115.2
366.256	53.76
366.467	229.88
366.678	166.4
366.889	-17.92
367.1	-15.87
367.311	272.89
367.522	131.58
367.733	72.19
367.944	33.28
368.155	195.07
368.366	246.27
368.577	143.87
368.788	158.21
368.999	37.38
369.209	113.15
369.42	92.67
369.631	346.62
369.842	289.28
370.053	113.15
370.264	41.47
370.474	-9.73
370.685	283.13
370.896	197.12
371.107	45.57
371.317	8.7
371.528	221.69
371.739	285.18
371.95	41.47
372.16	55.81
372.371	35.33
372.582	96.77
372.792	-52.74
373.003	131.58
373.214	252.41
373.424	238.08
373.635	47.62
373.846	145.92
374.056	174.59
374.267	123.39
374.477	76.29
374.688	-15.87
374.898	231.93
375.109	184.83
375.319	66.05
375.53	53.76
375.74	203.26
375.951	82.43
376.161	102.91
376.372	90.62
376.582	111.1
376.793	231.93
377.003	-34.3
377.214	-56.83
377.424	272.89
377.635	147.97
377.845	-28.16
378.055	145.92
378.266	-9.73
378.476	168.45
378.686	80.38
378.897	168.45
379.107	350.71
379.317	291.32
379.528	-105.98
379.738	39.42
379.948	14.85
380.158	260.6
380.369	-38.4
380.579	59.9
380.789	190.97
380.999	209.4
381.21	129.53
381.42	184.83
381.63	139.77
381.84	244.22
382.05	35.33
382.261	86.53
382.471	268.8
382.681	117.25
382.891	143.87
383.101	55.81
383.311	119.29
383.521	104.96
383.731	72.19
383.941	207.36
384.151	180.73
384.361	35.33
384.571	33.28
384.781	51.71
384.991	309.76
385.201	391.67
385.411	98.81
385.621	88.57
385.831	223.74
386.041	207.36
386.251	76.29
386.461	51.71
386.671	104.96
386.881	156.16
387.091	12.8
387.301	182.78
387.511	125.44
387.72	109.05
387.93	78.33
388.14	-73.21
388.35	246.27
388.56	250.36
388.769	23.04
388.979	25.09
389.189	70.14
389.399	289.28
389.609	-9.73
389.818	51.71
390.028	176.64
390.238	211.45
390.447	-42.5
390.657	113.15
390.867	182.78
391.076	-50.69
391.286	-5.63
391.496	-58.88
391.705	211.45
391.915	387.58
392.125	-71.17
392.334	156.16
392.544	313.85
392.753	88.57
392.963	57.86
393.172	-34.3
393.382	113.15
393.591	379.39
393.801	14.85
394.01	139.77
394.22	160.25
394.429	131.58
394.639	127.49
394.848	35.33
395.058	225.79
395.267	164.35
395.477	68.09
395.686	113.15
395.895	467.45
396.105	379.39
396.314	-17.92
396.524	2.56
396.733	131.58
396.942	274.94
397.152	16.9
397.361	152.06
397.57	180.73
397.78	76.29
397.989	100.86
398.198	240.12
398.407	164.35
398.617	102.91
398.826	51.71
399.035	29.18
399.244	217.6
399.453	236.03
399.663	-26.11
399.872	-65.02
400.081	84.48
400.29	248.32
400.499	-40.45
400.708	104.96
400.917	164.35
401.127	125.44
401.336	-32.26
401.545	246.27
401.754	338.43
401.963	309.76
402.172	72.19
402.381	33.28
402.59	205.31
402.799	119.29
403.008	190.97
403.217	86.53
403.426	266.75
403.635	-26.11
403.844	-34.3
404.053	-7.68
404.262	211.45
404.471	324.09
404.68	104.96
404.888	59.9
405.097	188.93
405.306	139.77
405.515	35.33
405.724	6.66
405.933	338.43
406.142	199.16
406.35	2.56
406.559	64
406.768	164.35
406.977	401.91
407.185	100.86
407.394	166.4
407.603	39.42
407.812	225.79
408.02	158.21
408.229	117.25
408.438	199.16
408.646	-38.4
408.855	37.38
409.064	45.57
409.272	158.21
409.481	170.49
409.69	2.56
409.898	0.51
410.107	156.16
410.315	305.66
410.524	6.66
410.733	14.85
410.941	188.93
411.15	334.33
411.358	92.67
411.567	176.64
411.775	233.98
411.984	246.27
412.192	168.45
412.401	37.38
412.609	358.91
412.818	340.47
413.026	74.24
413.234	8.7
413.443	225.79
413.651	102.91
413.86	-89.6
414.068	287.23
414.276	432.63
414.485	115.2
414.693	137.73
414.901	209.4
415.11	272.89
415.318	145.92
415.526	20.99
415.734	150.01
415.943	295.42
416.151	295.42
416.359	-11.78
416.567	150.01
416.776	276.99
416.984	252.41
417.192	264.7
417.4	57.86
417.608	111.1
417.817	25.09
418.025	156.16
418.233	113.15
418.441	143.87
418.649	29.18
418.857	104.96
419.065	172.54
419.273	150.01
419.481	246.27
419.689	109.05
419.897	31.23
420.105	96.77
420.313	375.29
420.521	102.91
420.729	96.77
420.937	203.26
421.145	98.81
421.353	70.14
421.561	213.5
421.769	340.47
421.977	131.58
422.185	102.91
422.393	59.9
422.601	299.52
422.809	209.4
423.017	119.29
423.224	31.23
423.432	322.04
423.64	154.11
423.848	109.05
424.056	16.9
424.263	358.91
424.471	186.88
424.679	238.08
424.887	20.99
425.094	463.35
425.302	303.61
425.51	-52.74
425.718	207.36
425.925	246.27
426.133	84.48
426.341	188.93
426.548	88.57
426.756	170.49
426.964	311.8
427.171	107.01
427.379	117.25
427.586	299.52
427.794	303.61
428.001	262.65
428.209	131.58
428.417	432.63
428.624	309.76
428.832	211.45
429.039	266.75
429.247	219.64
429.454	326.14
429.662	211.45
429.869	150.01
430.076	346.62
430.284	320
430.491	274.94
430.699	299.52
430.906	535.03
431.114	442.87
431.321	201.21
431.528	324.09
431.736	297.47
431.943	424.44
432.15	221.69
432.358	166.4
432.565	633.33
432.772	119.29
432.979	363
433.187	225.79
433.394	623.09
433.601	381.43
433.808	313.85
434.016	309.76
434.223	465.4
434.43	436.73
434.637	289.28
434.844	459.26
435.052	532.98
435.259	530.94
435.466	449.02
435.673	326.14
435.88	625.14
436.087	616.95
436.294	616.95
436.501	414.2
436.708	625.14
436.915	633.33
437.122	586.23
437.329	369.15
437.537	539.13
437.743	602.61
437.95	555.51
438.157	483.83
438.364	612.85
438.571	551.42
438.778	514.55
438.985	672.25
439.192	715.25
439.399	678.39
439.606	487.93
439.813	653.81
440.02	1038.83
440.227	1020.4
440.433	696.82
440.64	598.52
440.847	680.44
441.054	702.97
441.261	762.36
441.467	662.01
441.674	834.04
441.881	961.01
442.088	737.78
442.294	774.64
442.501	989.68
442.708	991.73
442.914	842.23
443.121	881.14
443.328	1069.55
443.534	1180.14
443.741	909.81
443.948	780.79
444.154	1126.89
444.361	1194.48
444.568	969.2
444.774	1069.55
444.981	1016.3
445.187	1243.63
445.394	1001.97
445.6	999.92
445.807	1300.97
446.013	1141.23
446.22	958.96
446.426	1249.77
446.633	1374.7
446.839	1589.74
447.046	1112.56
447.252	1343.98
447.459	1475.05
447.665	1321.45
447.871	1260.01
448.078	1571.3
448.284	1632.74
448.491	1704.42
448.697	1585.64
448.903	1591.78
449.11	1788.39
449.316	1636.84
449.522	1638.89
449.728	1735.14
449.935	1819.11
450.141	1925.6
450.347	1941.99
450.553	1800.68
450.76	1917.41
450.966	2124.26
451.172	2017.76
451.378	2093.54
451.584	2183.65
451.791	2453.98
451.997	2218.46
452.203	2146.78
452.409	2587.1
452.615	2482.65
452.821	2361.82
453.027	2267.61
453.233	2804.18
453.44	2413.02
453.646	2425.31
453.852	2574.81
454.058	2529.75
454.264	2671.06
454.47	2914.77
454.676	2632.15
454.882	3004.88
455.088	2834.9
455.294	2988.5
455.5	2947.54
455.705	3178.96
455.911	3000.79
456.117	2812.37
456.323	3072.47
456.529	2933.2
456.735	3006.93
456.941	3025.36
457.147	2996.69
457.352	3174.86
457.558	2990.55
457.764	3006.93
457.97	3066.32
458.176	3154.38
458.381	3162.58
458.587	3185.1
458.793	3117.52
458.999	3000.79
459.204	3162.58
459.41	3068.37
459.616	3082.7
459.821	3226.06
460.027	2789.85
460.233	3189.2
460.438	2947.54
460.644	2992.59
460.85	2982.35
461.055	3064.27
461.261	2896.34
461.466	2898.39
461.672	2783.7
