Data from USB4F104151__34__12-21-20-264.txt Node

Date: Wed Feb 19 12:21:20 EST 2025
User: louis
Spectrometer: USB4F10415
Trigger mode: 4
Integration Time (sec): 2.250200E-1
Scans to average: 1
Electric dark correction enabled: true
Nonlinearity correction enabled: false
Boxcar width: 0
XAxis mode: Wavelengths
Number of Pixels in Spectrum: 3648
>>>>>Begin Spectral Data<<<<<
178.204	-787.61
178.424	-787.61
178.644	-787.61
178.864	-867.49
179.084	-816.29
179.304	176.98
179.524	117.59
179.744	-83.11
179.964	-154.79
180.184	209.75
180.404	138.07
180.624	-218.28
180.844	-60.59
181.064	-70.83
181.283	142.16
181.503	-134.31
181.723	-62.63
181.943	-83.11
182.163	412.5
182.383	-218.28
182.602	-210.09
182.822	502.61
183.042	215.89
183.262	-228.52
183.482	-244.9
183.701	162.64
183.921	189.27
184.141	-179.37
184.361	-156.84
184.58	256.85
184.8	281.43
185.02	-214.18
185.239	-40.11
185.459	269.14
185.679	351.06
185.898	-279.72
186.118	-208.04
186.338	242.51
186.557	392.02
186.777	-246.95
186.997	-203.94
187.216	199.51
187.436	500.56
187.655	-165.03
187.875	19.29
188.095	123.73
188.314	324.43
188.534	-44.2
188.753	-320.68
188.973	389.97
189.192	426.83
189.412	-203.94
189.631	-203.94
189.851	267.09
190.07	471.89
190.29	-181.42
190.509	-253.09
190.729	166.74
190.948	297.81
191.168	-50.35
191.387	-109.74
191.607	199.51
191.826	183.12
192.045	-130.22
192.265	-146.6
192.484	271.19
192.704	207.7
192.923	-160.94
193.142	-79.02
193.362	322.38
193.581	367.44
193.8	-165.03
194.02	-160.94
194.239	238.42
194.458	293.71
194.678	-205.99
194.897	-230.57
195.116	308.05
195.335	267.09
195.555	-142.5
195.774	-339.11
195.993	363.34
196.212	226.13
196.432	-154.79
196.651	-169.13
196.87	176.98
197.089	570.19
197.308	-126.12
197.528	-134.31
197.747	-3.24
197.966	246.61
198.185	21.33
198.404	-220.33
198.623	297.81
198.842	426.83
199.062	-150.7
199.281	-93.35
199.5	295.76
199.719	254.8
199.938	-255.14
200.157	-212.14
200.376	279.38
200.595	398.16
200.814	-119.98
201.033	-185.51
201.252	424.78
201.471	236.37
201.69	-212.14
201.909	-107.69
202.128	328.53
202.347	324.43
202.566	-167.08
202.785	-328.87
203.004	154.45
203.223	518.99
203.442	-146.6
203.661	-314.53
203.879	181.07
204.098	404.3
204.317	-249
204.536	-56.49
204.755	293.71
204.974	242.51
205.193	-308.39
205.411	-83.11
205.63	406.35
205.849	355.15
206.068	-208.04
206.287	-224.42
206.505	371.54
206.724	219.99
206.943	-201.9
207.162	-216.23
207.381	285.52
207.599	191.31
207.818	-134.31
208.037	-242.85
208.255	224.08
208.474	224.08
208.693	-173.22
208.911	-140.46
209.13	306
209.349	316.24
209.567	-23.72
209.786	-169.13
210.005	373.58
210.223	240.47
210.442	-396.45
210.661	-277.67
210.879	310.1
211.098	240.47
211.316	-189.61
211.535	-115.88
211.753	269.14
211.972	234.32
212.191	-189.61
212.409	-132.26
212.628	269.14
212.846	162.64
213.065	-253.09
213.283	-68.78
213.502	252.75
213.72	207.7
213.938	-222.38
214.157	-152.74
214.375	330.58
214.594	222.03
214.812	-146.6
215.031	-150.7
215.249	256.85
215.467	254.8
215.686	-36.01
215.904	-216.23
216.122	195.41
216.341	371.54
216.559	-9.39
216.778	-27.82
216.996	404.3
217.214	195.41
217.432	-130.22
217.651	-249
217.869	289.62
218.087	158.55
218.306	-285.86
218.524	-167.08
218.742	101.2
218.96	349.01
219.179	-203.94
219.397	-214.18
219.615	488.27
219.833	281.43
220.051	-187.56
220.27	-113.83
220.488	273.23
220.706	267.09
220.924	-249
221.142	-185.51
221.36	238.42
221.578	248.66
221.796	-214.18
222.015	-134.31
222.233	222.03
222.451	412.5
222.669	-134.31
222.887	-76.97
223.105	68.44
223.323	150.36
223.541	-109.74
223.759	-144.55
223.977	232.27
224.195	398.16
224.413	-58.54
224.631	-216.23
224.849	267.09
225.067	451.41
225.285	-181.42
225.503	-205.99
225.721	-93.35
225.939	127.83
226.157	-93.35
226.375	39.76
226.592	103.25
226.81	217.94
227.028	-17.58
227.246	-191.66
227.464	183.12
227.682	269.14
227.9	-175.27
228.117	-93.35
228.335	176.98
228.553	138.07
228.771	-253.09
228.989	-124.07
229.206	287.57
229.424	111.44
229.642	-171.18
229.86	-226.47
230.077	437.07
230.295	133.97
230.513	-138.41
230.731	-220.33
230.948	439.12
231.166	437.07
231.384	-54.44
231.601	-208.04
231.819	469.84
232.037	129.88
232.254	-171.18
232.472	-162.98
232.689	193.36
232.907	338.77
233.125	-208.04
233.342	-212.14
233.56	148.31
233.777	111.44
233.995	-169.13
234.213	-85.16
234.43	197.46
234.648	150.36
234.865	-216.23
235.083	-156.84
235.3	201.55
235.518	295.76
235.735	-54.44
235.953	-21.67
236.17	262.99
236.388	144.21
236.605	29.52
236.822	-126.12
237.04	310.1
237.257	215.89
237.475	-91.31
237.692	-134.31
237.909	330.58
238.127	166.74
238.344	-85.16
238.562	-165.03
238.779	25.43
238.996	35.67
239.214	-72.87
239.431	-107.69
239.648	37.72
239.865	328.53
240.083	-140.46
240.3	-210.09
240.517	119.64
240.735	244.56
240.952	27.48
241.169	-189.61
241.386	242.51
241.603	125.78
241.821	-95.4
242.038	-50.35
242.255	275.28
242.472	95.06
242.689	-115.88
242.907	-152.74
243.124	242.51
243.341	222.03
243.558	-38.06
243.775	-240.81
243.992	19.29
244.209	164.69
244.426	35.67
244.643	-119.98
244.86	199.51
245.078	256.85
245.295	-38.06
245.512	-179.37
245.729	115.54
245.946	277.33
246.163	-144.55
246.38	-119.98
246.597	209.75
246.814	166.74
247.031	-74.92
247.248	-236.71
247.464	318.29
247.681	160.59
247.898	-156.84
248.115	-27.82
248.332	88.92
248.549	371.54
248.766	31.57
248.983	-130.22
249.2	324.43
249.417	379.73
249.633	-95.4
249.85	-36.01
250.067	222.03
250.284	195.41
250.501	-201.9
250.717	-81.07
250.934	84.82
251.151	164.69
251.368	-111.78
251.585	-132.26
251.801	283.47
252.018	80.72
252.235	-33.96
252.451	-95.4
252.668	193.36
252.885	262.99
253.102	-56.49
253.318	-124.07
253.535	138.07
253.752	205.65
253.968	-203.94
254.185	-212.14
254.401	189.27
254.618	181.07
254.835	-101.55
255.051	-130.22
255.268	336.72
255.484	256.85
255.701	-124.07
255.917	-107.69
256.134	-27.82
256.351	238.42
256.567	-234.66
256.784	-15.53
257	-42.15
257.217	291.66
257.433	-17.58
257.65	-83.11
257.866	375.63
258.082	-36.01
258.299	-97.45
258.515	-33.96
258.732	150.36
258.948	103.25
259.165	-19.63
259.381	-158.89
259.597	310.1
259.814	166.74
260.03	-226.47
260.246	-52.39
260.463	287.57
260.679	332.62
260.895	-89.26
261.112	-83.11
261.328	174.93
261.544	103.25
261.761	-138.41
261.977	-119.98
262.193	-44.2
262.409	365.39
262.626	2.9
262.842	-81.07
263.058	72.53
263.274	283.47
263.49	-79.02
263.707	-214.18
263.923	349.01
264.139	2.9
264.355	-50.35
264.571	-93.35
264.787	306
265.004	271.19
265.22	-52.39
265.436	-167.08
265.652	176.98
265.868	213.84
266.084	-158.89
266.3	-144.55
266.516	25.43
266.732	211.79
266.948	-70.83
267.164	-275.62
267.38	312.14
267.596	199.51
267.812	27.48
268.028	-111.78
268.244	148.31
268.46	179.03
268.676	-113.83
268.892	43.86
269.108	113.49
269.324	66.39
269.54	-138.41
269.756	-76.97
269.972	93.01
270.188	138.07
270.403	-244.9
270.619	-128.17
270.835	179.03
271.051	201.55
271.267	-122.02
271.483	-146.6
271.698	295.76
271.914	193.36
272.13	-76.97
272.346	-93.35
272.562	168.79
272.777	465.74
272.993	-87.21
273.209	-130.22
273.425	301.9
273.64	29.52
273.856	-81.07
274.072	-332.97
274.287	101.2
274.503	273.23
274.719	62.29
274.934	-199.85
275.15	-1.19
275.366	187.22
275.581	-144.55
275.797	-89.26
276.012	246.61
276.228	11.09
276.444	-109.74
276.659	78.68
276.875	15.19
277.09	82.77
277.306	-44.2
277.521	-29.87
277.737	187.22
277.952	234.32
278.168	-89.26
278.383	-62.63
278.599	162.64
278.814	299.86
279.03	-181.42
279.245	80.72
279.461	156.5
279.676	283.47
279.892	-83.11
280.107	-138.41
280.322	35.67
280.538	203.6
280.753	-142.5
280.969	-29.87
281.184	207.7
281.399	310.1
281.615	-50.35
281.83	90.96
282.045	0.85
282.26	68.44
282.476	-46.25
282.691	105.3
282.906	160.59
283.122	148.31
283.337	-126.12
283.552	37.72
283.767	31.57
283.983	267.09
284.198	-119.98
284.413	-97.45
284.628	-27.82
284.843	193.36
285.058	-48.3
285.274	2.9
285.489	142.16
285.704	260.95
285.919	-38.06
286.134	-13.48
286.349	170.83
286.564	90.96
286.779	41.81
286.995	-38.06
287.21	-23.72
287.425	187.22
287.64	0.85
287.855	29.52
288.07	19.29
288.285	215.89
288.5	25.43
288.715	-48.3
288.93	144.21
289.145	47.96
289.36	-50.35
289.575	-36.01
289.79	258.9
290.004	37.72
290.219	80.72
290.434	-27.82
290.649	82.77
290.864	80.72
291.079	-29.87
291.294	-52.39
291.509	281.43
291.724	150.36
291.938	-52.39
292.153	-70.83
292.368	181.07
292.583	226.13
292.798	21.33
293.012	60.24
293.227	168.79
293.442	138.07
293.657	4.95
293.871	-29.87
294.086	170.83
294.301	297.81
294.516	60.24
294.73	52.05
294.945	117.59
295.16	144.21
295.374	-9.39
295.589	-3.24
295.804	84.82
296.018	183.12
296.233	-7.34
296.447	0.85
296.662	170.83
296.877	322.38
297.091	-3.24
297.306	21.33
297.52	88.92
297.735	244.56
297.949	84.82
298.164	-191.66
298.378	234.32
298.593	23.38
298.807	29.52
299.022	-68.78
299.236	318.29
299.451	39.76
299.665	35.67
299.88	-11.43
300.094	299.86
300.309	56.15
300.523	-52.39
300.737	-103.59
300.952	293.71
301.166	240.47
301.381	-64.68
301.595	-142.5
301.809	179.03
302.024	136.02
302.238	-54.44
302.452	84.82
302.667	144.21
302.881	301.9
303.095	33.62
303.309	23.38
303.524	45.91
303.738	152.4
303.952	31.57
304.166	62.29
304.381	-138.41
304.595	260.95
304.809	-1.19
305.023	-64.68
305.237	9.05
305.452	47.96
305.666	-50.35
305.88	52.05
306.094	281.43
306.308	174.93
306.522	-23.72
306.736	39.76
306.95	355.15
307.164	109.4
307.379	66.39
307.593	54.1
307.807	275.28
308.021	207.7
308.235	156.5
308.449	-115.88
308.663	195.41
308.877	449.36
309.091	80.72
309.305	43.86
309.519	-68.78
309.733	252.75
309.947	-64.68
310.161	-72.87
310.374	252.75
310.588	250.71
310.802	-111.78
311.016	-19.63
311.23	176.98
311.444	68.44
311.658	-17.58
311.872	191.31
312.085	279.38
312.299	312.14
312.513	199.51
312.727	-81.07
312.941	33.62
313.154	174.93
313.368	-3.24
313.582	-9.39
313.796	203.6
314.009	181.07
314.223	95.06
314.437	72.53
314.651	240.47
314.864	103.25
315.078	-23.72
315.292	-107.69
315.505	127.83
315.719	158.55
315.933	52.05
316.146	-103.59
316.36	19.29
316.573	209.75
316.787	127.83
317.001	-21.67
317.214	4.95
317.428	101.2
317.641	-48.3
317.855	19.29
318.068	191.31
318.282	232.27
318.495	84.82
318.709	-95.4
318.922	123.73
319.136	316.24
319.349	95.06
319.563	-109.74
319.776	164.69
319.99	-25.77
320.203	74.58
320.417	45.91
320.63	97.11
320.843	269.14
321.057	60.24
321.27	-54.44
321.483	230.23
321.697	219.99
321.91	-40.11
322.124	-9.39
322.337	246.61
322.55	-3.24
322.763	7
322.977	7
323.19	43.86
323.403	133.97
323.617	-19.63
323.83	160.59
324.043	113.49
324.256	199.51
324.469	-222.38
324.683	121.68
324.896	113.49
325.109	136.02
325.322	-140.46
325.535	80.72
325.748	267.09
325.962	117.59
326.175	54.1
326.388	54.1
326.601	226.13
326.814	84.82
327.027	-40.11
327.24	136.02
327.453	-42.15
327.666	213.84
327.879	150.36
328.092	-21.67
328.305	267.09
328.518	127.83
328.731	-54.44
328.944	21.33
329.157	207.7
329.37	-3.24
329.583	111.44
329.796	41.81
330.009	-19.63
330.222	240.47
330.435	111.44
330.648	43.86
330.861	258.9
331.073	189.27
331.286	72.53
331.499	-68.78
331.712	80.72
331.925	160.59
332.138	-50.35
332.35	-52.39
332.563	43.86
332.776	275.28
332.989	-36.01
333.202	-124.07
333.414	187.22
333.627	144.21
333.84	-60.59
334.053	78.68
334.265	43.86
334.478	31.57
334.691	-31.91
334.903	148.31
335.116	86.87
335.329	54.1
335.541	52.05
335.754	162.64
335.966	25.43
336.179	258.9
336.392	-21.67
336.604	54.1
336.817	148.31
337.029	154.45
337.242	-42.15
337.454	9.05
337.667	191.31
337.88	287.57
338.092	115.54
338.305	70.48
338.517	-1.19
338.729	215.89
338.942	72.53
339.154	-36.01
339.367	56.15
339.579	267.09
339.792	-91.31
340.004	-46.25
340.217	164.69
340.429	256.85
340.641	-91.31
340.854	-93.35
341.066	219.99
341.278	265.04
341.491	97.11
341.703	35.67
341.915	58.2
342.128	291.66
342.34	15.19
342.552	-23.72
342.764	95.06
342.977	176.98
343.189	35.67
343.401	144.21
343.613	43.86
343.826	158.55
344.038	4.95
344.25	37.72
344.462	111.44
344.674	201.55
344.886	-76.97
345.099	60.24
345.311	211.79
345.523	117.59
345.735	-76.97
345.947	-1.19
346.159	226.13
346.371	80.72
346.583	-5.29
346.795	60.24
347.007	138.07
347.219	156.5
347.431	43.86
347.643	125.78
347.855	68.44
348.067	271.19
348.279	-87.21
348.491	2.9
348.703	330.58
348.915	58.2
349.127	-119.98
349.339	43.86
349.551	148.31
349.763	234.32
349.975	-46.25
350.187	60.24
350.399	275.28
350.61	193.36
350.822	-70.83
351.034	11.09
351.246	205.65
351.458	174.93
351.669	80.72
351.881	-50.35
352.093	230.23
352.305	183.12
352.517	-74.92
352.728	68.44
352.94	88.92
353.152	297.81
353.363	-95.4
353.575	47.96
353.787	361.3
353.999	301.9
354.21	35.67
354.422	-119.98
354.633	109.4
354.845	150.36
355.057	62.29
355.268	52.05
355.48	363.34
355.692	31.57
355.903	88.92
356.115	-52.39
356.326	-62.63
356.538	271.19
356.749	52.05
356.961	95.06
357.172	187.22
357.384	47.96
357.595	181.07
357.807	-3.24
358.018	133.97
358.23	66.39
358.441	-83.11
358.653	-70.83
358.864	127.83
359.075	23.38
359.287	37.72
359.498	19.29
359.709	203.6
359.921	156.5
360.132	82.77
360.344	-29.87
360.555	109.4
360.766	131.92
360.977	-29.87
361.189	150.36
361.4	127.83
361.611	232.27
361.823	68.44
362.034	-19.63
362.245	-40.11
362.456	52.05
362.667	207.7
362.879	-150.7
363.09	232.27
363.301	275.28
363.512	-95.4
363.723	-36.01
363.935	148.31
364.146	252.75
364.357	-103.59
364.568	-40.11
364.779	35.67
364.99	271.19
365.201	11.09
365.412	156.5
365.623	45.91
365.834	127.83
366.045	76.63
366.256	19.29
366.467	217.94
366.678	115.54
366.889	39.76
367.1	-46.25
367.311	359.25
367.522	160.59
367.733	111.44
367.944	45.91
368.155	127.83
368.366	183.12
368.577	37.72
368.788	197.46
368.999	101.2
369.209	101.2
369.42	72.53
369.631	361.3
369.842	150.36
370.053	150.36
370.264	-3.24
370.474	-56.49
370.685	262.99
370.896	158.55
371.107	41.81
371.317	0.85
371.528	219.99
371.739	422.73
371.95	66.39
372.16	-23.72
372.371	45.91
372.582	86.87
372.792	-68.78
373.003	27.48
373.214	226.13
373.424	142.16
373.635	-44.2
373.846	158.55
374.056	193.36
374.267	115.54
374.477	80.72
374.688	11.09
374.898	250.71
375.109	201.55
375.319	111.44
375.53	136.02
375.74	308.05
375.951	68.44
376.161	70.48
376.372	84.82
376.582	78.68
376.793	193.36
377.003	7
377.214	84.82
377.424	299.86
377.635	209.75
377.845	-70.83
378.055	103.25
378.266	80.72
378.476	154.45
378.686	37.72
378.897	129.88
379.107	312.14
379.317	275.28
379.528	-7.34
379.738	115.54
379.948	111.44
380.158	260.95
380.369	54.1
380.579	90.96
380.789	201.55
380.999	246.61
381.21	86.87
381.42	254.8
381.63	183.12
381.84	308.05
382.05	68.44
382.261	144.21
382.471	234.32
382.681	131.92
382.891	158.55
383.101	138.07
383.311	97.11
383.521	68.44
383.731	-31.91
383.941	240.47
384.151	250.71
384.361	113.49
384.571	90.96
384.781	64.34
384.991	318.29
385.201	375.63
385.411	101.2
385.621	13.14
385.831	273.23
386.041	170.83
386.251	66.39
386.461	80.72
386.671	162.64
386.881	189.27
387.091	29.52
387.301	166.74
387.511	154.45
387.72	215.89
387.93	176.98
388.14	-36.01
388.35	158.55
388.56	351.06
388.769	58.2
388.979	4.95
389.189	119.64
389.399	207.7
389.609	68.44
389.818	60.24
390.028	174.93
390.238	242.51
390.447	56.15
390.657	82.77
390.867	187.22
391.076	-1.19
391.286	54.1
391.496	131.92
391.705	301.9
391.915	432.97
392.125	111.44
392.334	64.34
392.544	377.68
392.753	234.32
392.963	47.96
393.172	35.67
393.382	123.73
393.591	400.21
393.801	27.48
394.01	117.59
394.22	318.29
394.429	156.5
394.639	84.82
394.848	54.1
395.058	181.07
395.267	209.75
395.477	142.16
395.686	115.54
395.895	494.41
396.105	330.58
396.314	111.44
396.524	99.16
396.733	166.74
396.942	318.29
397.152	97.11
397.361	238.42
397.57	211.79
397.78	256.85
397.989	146.26
398.198	351.06
398.407	174.93
398.617	201.55
398.826	109.4
399.035	52.05
399.244	344.91
399.453	250.71
399.663	90.96
399.872	4.95
400.081	146.26
400.29	340.82
400.499	76.63
400.708	226.13
400.917	191.31
401.127	260.95
401.336	74.58
401.545	334.67
401.754	367.44
401.963	346.96
402.172	166.74
402.381	27.48
402.59	301.9
402.799	189.27
403.008	217.94
403.217	191.31
403.426	250.71
403.635	127.83
403.844	47.96
404.053	58.2
404.262	281.43
404.471	469.84
404.68	156.5
404.888	219.99
405.097	275.28
405.306	265.04
405.515	27.48
405.724	72.53
405.933	308.05
406.142	299.86
406.35	99.16
406.559	148.31
406.768	387.92
406.977	512.85
407.185	101.2
407.394	164.69
407.603	70.48
407.812	279.38
408.02	174.93
408.229	174.93
408.438	392.02
408.646	54.1
408.855	-3.24
409.064	109.4
409.272	256.85
409.481	299.86
409.69	37.72
409.898	125.78
410.107	316.24
410.315	414.54
410.524	146.26
410.733	88.92
410.941	297.81
411.15	424.78
411.358	170.83
411.567	183.12
411.775	332.62
411.984	213.84
412.192	197.46
412.401	166.74
412.609	502.61
412.818	387.92
413.026	174.93
413.234	101.2
413.443	324.43
413.651	224.08
413.86	-11.43
414.068	314.19
414.276	502.61
414.485	170.83
414.693	228.18
414.901	342.86
415.11	217.94
415.318	289.62
415.526	209.75
415.734	258.9
415.943	363.34
416.151	441.17
416.359	105.3
416.567	176.98
416.776	367.44
416.984	394.06
417.192	234.32
417.4	62.29
417.608	230.23
417.817	193.36
418.025	301.9
418.233	260.95
418.441	236.37
418.649	142.16
418.857	158.55
419.065	127.83
419.273	133.97
419.481	332.62
419.689	303.95
419.897	152.4
420.105	219.99
420.313	449.36
420.521	217.94
420.729	201.55
420.937	332.62
421.145	199.51
421.353	195.41
421.561	224.08
421.769	355.15
421.977	193.36
422.185	174.93
422.393	148.31
422.601	392.02
422.809	320.34
423.017	226.13
423.224	213.84
423.432	430.93
423.64	306
423.848	168.79
424.056	115.54
424.263	467.79
424.471	334.67
424.679	299.86
424.887	162.64
425.094	545.61
425.302	453.45
425.51	144.21
425.718	250.71
425.925	338.77
426.133	189.27
426.341	277.33
426.548	199.51
426.756	199.51
426.964	461.65
427.171	242.51
427.379	252.75
427.586	363.34
427.794	373.58
428.001	275.28
428.209	314.19
428.417	486.22
428.624	420.69
428.832	289.62
429.039	338.77
429.247	359.25
429.454	394.06
429.662	398.16
429.869	293.71
430.076	445.26
430.284	461.65
430.491	338.77
430.699	297.81
430.906	545.61
431.114	496.46
431.321	219.99
431.528	455.5
431.736	410.45
431.943	531.28
432.15	357.2
432.358	416.59
432.565	727.88
432.772	254.8
432.979	475.98
433.187	404.3
433.394	736.07
433.601	447.31
433.808	447.31
434.016	588.62
434.223	592.72
434.43	586.57
434.637	326.48
434.844	648.01
435.052	535.37
435.259	611.15
435.466	576.33
435.673	557.9
435.88	805.71
436.087	738.12
436.294	717.64
436.501	672.59
436.708	719.69
436.915	752.46
437.122	789.32
437.329	541.52
437.537	731.98
437.743	772.94
437.95	731.98
438.157	619.34
438.364	897.86
438.571	787.27
438.778	768.84
438.985	889.67
439.192	1016.65
439.399	926.54
439.606	791.37
439.813	963.4
440.02	1235.78
440.227	1223.49
440.433	916.3
440.64	871.24
440.847	1012.55
441.054	1102.66
441.261	971.59
441.467	1051.46
441.674	1071.94
441.881	1383.23
442.088	1088.32
442.294	1035.08
442.501	1422.14
442.708	1340.22
442.914	1221.44
443.121	1311.55
443.328	1370.94
443.534	1512.25
443.741	1254.21
443.948	1260.35
444.154	1614.65
444.361	1760.06
444.568	1575.74
444.774	1518.4
444.981	1479.49
445.187	1727.29
445.394	1643.32
445.6	1614.65
445.807	1809.21
446.013	1831.74
446.22	1571.65
446.426	1962.81
446.633	1968.95
446.839	2298.67
447.046	1887.03
447.252	2200.37
447.459	2188.08
447.665	2194.23
447.871	2255.67
448.078	2724.65
448.284	2466.61
448.491	2667.31
448.697	2550.57
448.903	2528.05
449.11	2911.02
449.316	2706.22
449.522	2966.31
449.728	2978.6
449.935	3074.85
450.141	3167.01
450.347	3121.96
450.553	3220.26
450.76	3330.85
450.966	3455.78
451.172	3441.44
451.378	3562.27
451.584	3744.54
451.791	3908.38
451.997	3808.03
452.203	3787.55
452.409	4168.47
452.615	4313.88
452.821	3988.25
453.027	3937.05
453.233	4799.24
453.44	4350.74
453.646	4225.81
453.852	4553.49
454.058	4639.5
454.264	4795.15
454.47	4887.31
454.676	4930.31
454.882	5235.46
455.088	4920.07
455.294	5010.18
455.5	5368.58
455.705	5616.38
455.911	5413.63
456.117	5135.11
456.323	5298.95
456.529	5317.38
456.735	5559.04
456.941	5286.66
457.147	5790.46
457.352	5442.31
457.558	5446.4
457.764	5622.53
457.97	5593.86
458.176	5587.71
458.381	5778.17
458.587	5569.28
458.793	5739.26
458.999	5442.31
459.204	5980.92
459.41	5765.89
459.616	5460.74
459.821	5860.09
460.027	5475.07
460.233	5636.86
460.438	5415.68
460.644	5667.58
