Data from USB4F104151__12__11-52-16-322.txt Node

Date: Wed Feb 19 11:52:16 EST 2025
User: louis
Spectrometer: USB4F10415
Trigger mode: 4
Integration Time (sec): 2.250200E-1
Scans to average: 1
Electric dark correction enabled: true
Nonlinearity correction enabled: false
Boxcar width: 0
XAxis mode: Wavelengths
Number of Pixels in Spectrum: 3648
>>>>>Begin Spectral Data<<<<<
178.204	-862.19
178.424	-862.19
178.644	-862.19
178.864	-757.75
179.084	-788.47
179.304	116.73
179.524	69.63
179.744	-51.2
179.964	-186.37
180.184	231.42
180.404	129.02
180.624	-286.72
180.844	-108.54
181.064	63.49
181.283	215.04
181.503	-141.31
181.723	-51.2
181.943	-137.21
182.163	401.4
182.383	-204.8
182.602	-120.83
182.822	376.83
183.042	256
183.262	-276.48
183.482	-198.65
183.701	229.37
183.921	186.37
184.141	-163.84
184.361	-163.84
184.58	239.61
184.8	176.13
185.02	-133.12
185.239	-98.3
185.459	268.28
185.679	370.68
185.898	-249.85
186.118	-225.28
186.338	198.65
186.557	251.9
186.777	-256
186.997	-190.46
187.216	251.9
187.436	458.74
187.655	-71.68
187.875	-10.24
188.095	249.85
188.314	397.31
188.534	-28.67
188.753	-278.52
188.973	417.79
189.192	440.31
189.412	-229.37
189.631	-184.32
189.851	311.29
190.07	477.18
190.29	-260.09
190.509	-155.65
190.729	266.24
190.948	419.83
191.168	-59.39
191.387	-153.6
191.607	208.89
191.826	342.01
192.045	-147.45
192.265	-137.21
192.484	272.38
192.704	172.03
192.923	-137.21
193.142	8.19
193.362	385.02
193.581	335.87
193.8	-139.26
194.02	-161.79
194.239	221.18
194.458	262.14
194.678	-108.54
194.897	-198.65
195.116	215.04
195.335	329.72
195.555	-180.22
195.774	-223.23
195.993	356.35
196.212	182.27
196.432	-139.26
196.651	-229.37
196.87	202.75
197.089	524.28
197.308	-202.75
197.528	-198.65
197.747	55.3
197.966	180.22
198.185	-79.87
198.404	-200.7
198.623	272.38
198.842	372.73
199.062	-135.17
199.281	-92.16
199.5	278.52
199.719	284.67
199.938	-180.22
200.157	-145.41
200.376	473.08
200.595	432.12
200.814	-149.5
201.033	-149.5
201.252	475.13
201.471	253.95
201.69	-202.75
201.909	-98.3
202.128	358.39
202.347	339.96
202.566	-145.41
202.785	-342.01
203.004	69.63
203.223	501.75
203.442	-190.46
203.661	-299
203.879	280.57
204.098	315.39
204.317	-204.8
204.536	51.2
204.755	286.72
204.974	317.44
205.193	-221.18
205.411	-124.93
205.63	372.73
205.849	282.62
206.068	-126.97
206.287	-299
206.505	272.38
206.724	208.89
206.943	-233.47
207.162	-208.89
207.381	178.17
207.599	212.99
207.818	-75.77
208.037	-237.56
208.255	227.32
208.474	266.24
208.693	-149.5
208.911	-153.6
209.13	290.81
209.349	262.14
209.567	-73.73
209.786	-163.84
210.005	335.87
210.223	256
210.442	-327.67
210.661	-243.71
210.879	239.61
211.098	227.32
211.316	-81.92
211.535	-163.84
211.753	184.32
211.972	249.85
212.191	-192.51
212.409	-217.08
212.628	339.96
212.846	163.84
213.065	-198.65
213.283	-100.35
213.502	186.37
213.72	178.17
213.938	-219.13
214.157	-198.65
214.375	311.29
214.594	159.74
214.812	-69.63
215.031	-190.46
215.249	163.84
215.467	202.75
215.686	-116.73
215.904	-202.75
216.122	253.95
216.341	335.87
216.559	6.14
216.778	2.05
216.996	428.03
217.214	167.93
217.432	-180.22
217.651	-237.56
217.869	198.65
218.087	274.43
218.306	-151.55
218.524	-215.04
218.742	178.17
218.96	311.29
219.179	-139.26
219.397	-288.76
219.615	491.51
219.833	301.05
220.051	-208.89
220.27	-106.49
220.488	413.69
220.706	339.96
220.924	-194.56
221.142	-196.61
221.36	278.52
221.578	208.89
221.796	-200.7
222.015	-86.01
222.233	280.57
222.451	380.92
222.669	-102.4
222.887	-116.73
223.105	161.79
223.323	217.08
223.541	-114.69
223.759	-108.54
223.977	221.18
224.195	333.82
224.413	-165.89
224.631	-196.61
224.849	264.19
225.067	415.74
225.285	-67.58
225.503	-204.8
225.721	-69.63
225.939	219.13
226.157	-45.06
226.375	106.49
226.592	137.21
226.81	110.59
227.028	-43.01
227.246	-83.97
227.464	260.09
227.682	305.15
227.9	-10.24
228.117	-18.43
228.335	198.65
228.553	151.55
228.771	-153.6
228.989	-225.28
229.206	247.8
229.424	65.53
229.642	-151.55
229.86	-208.89
230.077	339.96
230.295	153.6
230.513	-86.01
230.731	-112.64
230.948	444.41
231.166	391.16
231.384	-67.58
231.601	-104.45
231.819	350.2
232.037	45.06
232.254	-116.73
232.472	-57.34
232.689	153.6
232.907	309.24
233.125	-180.22
233.342	-178.17
233.56	153.6
233.777	188.41
233.995	-124.93
234.213	-106.49
234.43	276.48
234.648	227.32
234.865	-169.98
235.083	-34.82
235.3	165.89
235.518	278.52
235.735	-172.03
235.953	-67.58
236.17	223.23
236.388	147.45
236.605	124.93
236.822	-65.53
237.04	315.39
237.257	241.66
237.475	-120.83
237.692	-155.65
237.909	292.86
238.127	206.84
238.344	-77.82
238.562	-59.39
238.779	45.06
238.996	49.15
239.214	0
239.431	-116.73
239.648	51.2
239.865	280.57
240.083	-100.35
240.3	-118.78
240.517	53.25
240.735	157.69
240.952	59.39
241.169	-194.56
241.386	307.2
241.603	169.98
241.821	-219.13
242.038	-167.93
242.255	268.28
242.472	63.49
242.689	-59.39
242.907	-124.93
243.124	217.08
243.341	188.41
243.558	-86.01
243.775	-258.04
243.992	43.01
244.209	323.58
244.426	-43.01
244.643	-26.62
244.86	172.03
245.078	329.72
245.295	-131.07
245.512	-208.89
245.729	59.39
245.946	303.1
246.163	-167.93
246.38	-231.42
246.597	253.95
246.814	169.98
247.031	-110.59
247.248	-210.94
247.464	385.02
247.681	260.09
247.898	-71.68
248.115	-18.43
248.332	225.28
248.549	401.4
248.766	-53.25
248.983	-100.35
249.2	227.32
249.417	428.03
249.633	-124.93
249.85	-38.91
250.067	182.27
250.284	122.88
250.501	-106.49
250.717	-139.26
250.934	38.91
251.151	178.17
251.368	-79.87
251.585	-32.77
251.801	190.46
252.018	34.82
252.235	-22.53
252.451	-114.69
252.668	147.45
252.885	348.15
253.102	8.19
253.318	-92.16
253.535	169.98
253.752	196.61
253.968	-135.17
254.185	-245.76
254.401	245.76
254.618	190.46
254.835	-79.87
255.051	-90.11
255.268	272.38
255.484	212.99
255.701	-116.73
255.917	-145.41
256.134	180.22
256.351	210.94
256.567	-210.94
256.784	-4.1
257	-36.86
257.217	323.58
257.433	51.2
257.65	-51.2
257.866	358.39
258.082	16.38
258.299	-157.69
258.515	-63.49
258.732	161.79
258.948	-6.14
259.165	-26.62
259.381	-131.07
259.597	249.85
259.814	139.26
260.03	-184.32
260.246	-161.79
260.463	331.77
260.679	260.09
260.895	-8.19
261.112	-106.49
261.328	143.36
261.544	147.45
261.761	-116.73
261.977	-118.78
262.193	-2.05
262.409	294.91
262.626	-77.82
262.842	-147.45
263.058	67.58
263.274	292.86
263.49	-47.1
263.707	-200.7
263.923	241.66
264.139	-18.43
264.355	-2.05
264.571	-71.68
264.787	169.98
265.004	325.63
265.22	-96.25
265.436	-131.07
265.652	208.89
265.868	223.23
266.084	-182.27
266.3	-129.02
266.516	43.01
266.732	161.79
266.948	-18.43
267.164	-149.5
267.38	339.96
267.596	329.72
267.812	63.49
268.028	-69.63
268.244	92.16
268.46	278.52
268.676	-71.68
268.892	22.53
269.108	32.77
269.324	-26.62
269.54	-81.92
269.756	-49.15
269.972	14.34
270.188	212.99
270.403	-200.7
270.619	-71.68
270.835	169.98
271.051	161.79
271.267	-165.89
271.483	-194.56
271.698	354.3
271.914	268.28
272.13	-40.96
272.346	-94.21
272.562	241.66
272.777	270.33
272.993	-18.43
273.209	-88.06
273.425	241.66
273.64	-45.06
273.856	-53.25
274.072	-194.56
274.287	120.83
274.503	241.66
274.719	2.05
274.934	-94.21
275.15	-28.67
275.366	161.79
275.581	-120.83
275.797	-47.1
276.012	215.04
276.228	92.16
276.444	-59.39
276.659	126.97
276.875	2.05
277.09	131.07
277.306	-34.82
277.521	-40.96
277.737	118.78
277.952	223.23
278.168	-172.03
278.383	-71.68
278.599	83.97
278.814	251.9
279.03	-137.21
279.245	-51.2
279.461	167.93
279.676	253.95
279.892	-98.3
280.107	-131.07
280.322	110.59
280.538	276.48
280.753	-73.73
280.969	6.14
281.184	172.03
281.399	331.77
281.615	4.1
281.83	30.72
282.045	-2.05
282.26	49.15
282.476	-100.35
282.691	55.3
282.906	153.6
283.122	141.31
283.337	-51.2
283.552	28.67
283.767	77.82
283.983	161.79
284.198	-65.53
284.413	-96.25
284.628	-14.34
284.843	182.27
285.058	-28.67
285.274	-36.86
285.489	122.88
285.704	202.75
285.919	-110.59
286.134	-51.2
286.349	141.31
286.564	110.59
286.779	47.1
286.995	-20.48
287.21	-8.19
287.425	202.75
287.64	-145.41
287.855	155.65
288.07	-6.14
288.285	219.13
288.5	53.25
288.715	0
288.93	81.92
289.145	26.62
289.36	-40.96
289.575	-133.12
289.79	325.63
290.004	59.39
290.219	49.15
290.434	-151.55
290.649	139.26
290.864	147.45
291.079	45.06
291.294	16.38
291.509	233.47
291.724	126.97
291.938	-30.72
292.153	-61.44
292.368	110.59
292.583	215.04
292.798	75.77
293.012	-51.2
293.227	202.75
293.442	98.3
293.657	90.11
293.871	2.05
294.086	270.33
294.301	294.91
294.516	2.05
294.73	38.91
294.945	73.73
295.16	118.78
295.374	28.67
295.589	2.05
295.804	47.1
296.018	88.06
296.233	-73.73
296.447	6.14
296.662	145.41
296.877	374.78
297.091	43.01
297.306	22.53
297.52	165.89
297.735	227.32
297.949	67.58
298.164	-133.12
298.378	196.61
298.593	61.44
298.807	-34.82
299.022	-51.2
299.236	333.82
299.451	-65.53
299.665	26.62
299.88	4.1
300.094	253.95
300.309	118.78
300.523	-18.43
300.737	-92.16
300.952	305.15
301.166	260.09
301.381	-55.3
301.595	-155.65
301.809	163.84
302.024	178.17
302.238	-63.49
302.452	86.01
302.667	184.32
302.881	247.8
303.095	34.82
303.309	-30.72
303.524	122.88
303.738	120.83
303.952	6.14
304.166	79.87
304.381	-149.5
304.595	258.04
304.809	-4.1
305.023	-26.62
305.237	165.89
305.452	77.82
305.666	-63.49
305.88	14.34
306.094	276.48
306.308	67.58
306.522	-20.48
306.736	129.02
306.95	266.24
307.164	10.24
307.379	28.67
307.593	55.3
307.807	235.52
308.021	319.48
308.235	135.17
308.449	-141.31
308.663	167.93
308.877	440.31
309.091	-8.19
309.305	55.3
309.519	-94.21
309.733	184.32
309.947	-90.11
310.161	-49.15
310.374	149.5
310.588	290.81
310.802	-92.16
311.016	-98.3
311.23	219.13
311.444	49.15
311.658	53.25
311.872	208.89
312.085	249.85
312.299	294.91
312.513	188.41
312.727	-81.92
312.941	96.25
313.154	137.21
313.368	8.19
313.582	-51.2
313.796	210.94
314.009	184.32
314.223	137.21
314.437	71.68
314.651	241.66
314.864	57.34
315.078	-59.39
315.292	-100.35
315.505	120.83
315.719	81.92
315.933	90.11
316.146	-47.1
316.36	6.14
316.573	227.32
316.787	159.74
317.001	79.87
317.214	63.49
317.428	145.41
317.641	-49.15
317.855	-10.24
318.068	253.95
318.282	227.32
318.495	98.3
318.709	-65.53
318.922	169.98
319.136	305.15
319.349	75.77
319.563	-4.1
319.776	249.85
319.99	-63.49
320.203	-2.05
320.417	-45.06
320.63	96.25
320.843	225.28
321.057	47.1
321.27	-26.62
321.483	292.86
321.697	184.32
321.91	-88.06
322.124	49.15
322.337	145.41
322.55	88.06
322.763	-4.1
322.977	-57.34
323.19	61.44
323.403	28.67
323.617	14.34
323.83	159.74
324.043	227.32
324.256	106.49
324.469	-196.61
324.683	157.69
324.896	215.04
325.109	174.08
325.322	-112.64
325.535	18.43
325.748	323.58
325.962	169.98
326.175	22.53
326.388	-98.3
326.601	206.84
326.814	63.49
327.027	-18.43
327.24	-14.34
327.453	-98.3
327.666	172.03
327.879	167.93
328.092	63.49
328.305	231.42
328.518	88.06
328.731	-22.53
328.944	-92.16
329.157	165.89
329.37	90.11
329.583	71.68
329.796	90.11
330.009	38.91
330.222	249.85
330.435	45.06
330.648	-12.29
330.861	206.84
331.073	116.73
331.286	92.16
331.499	-90.11
331.712	65.53
331.925	176.13
332.138	22.53
332.35	-59.39
332.563	88.06
332.776	311.29
332.989	-28.67
333.202	-34.82
333.414	88.06
333.627	122.88
333.84	-83.97
334.053	55.3
334.265	47.1
334.478	51.2
334.691	-12.29
334.903	151.55
335.116	126.97
335.329	118.78
335.541	30.72
335.754	143.36
335.966	98.3
336.179	129.02
336.392	-18.43
336.604	112.64
336.817	206.84
337.029	182.27
337.242	6.14
337.454	-53.25
337.667	270.33
337.88	317.44
338.092	81.92
338.305	77.82
338.517	145.41
338.729	206.84
338.942	69.63
339.154	-71.68
339.367	65.53
339.579	346.11
339.792	-124.93
340.004	100.35
340.217	116.73
340.429	106.49
340.641	-63.49
340.854	-153.6
341.066	219.13
341.278	276.48
341.491	192.51
341.703	-47.1
341.915	88.06
342.128	202.75
342.34	34.82
342.552	-67.58
342.764	153.6
342.977	247.8
343.189	14.34
343.401	100.35
343.613	-14.34
343.826	131.07
344.038	-81.92
344.25	120.83
344.462	102.4
344.674	129.02
344.886	-92.16
345.099	75.77
345.311	184.32
345.523	155.65
345.735	-174.08
345.947	92.16
346.159	194.56
346.371	221.18
346.583	67.58
346.795	116.73
347.007	104.45
347.219	182.27
347.431	53.25
347.643	212.99
347.855	8.19
348.067	286.72
348.279	8.19
348.491	-96.25
348.703	227.32
348.915	53.25
349.127	-34.82
349.339	38.91
349.551	120.83
349.763	278.52
349.975	45.06
350.187	88.06
350.399	378.87
350.61	188.41
350.822	-22.53
351.034	-51.2
351.246	247.8
351.458	210.94
351.669	12.29
351.881	30.72
352.093	385.02
352.305	245.76
352.517	-88.06
352.728	122.88
352.94	83.97
353.152	307.2
353.363	-88.06
353.575	108.54
353.787	401.4
353.999	188.41
354.21	110.59
354.422	-112.64
354.633	167.93
354.845	223.23
355.057	192.51
355.268	0
355.48	276.48
355.692	-20.48
355.903	24.58
356.115	-129.02
356.326	-71.68
356.538	342.01
356.749	4.1
356.961	100.35
357.172	149.5
357.384	-30.72
357.595	186.37
357.807	10.24
358.018	104.45
358.23	217.08
358.441	20.48
358.653	-86.01
358.864	106.49
359.075	-26.62
359.287	-14.34
359.498	71.68
359.709	225.28
359.921	174.08
360.132	75.77
360.344	-100.35
360.555	176.13
360.766	223.23
360.977	-36.86
361.189	153.6
361.4	118.78
361.611	305.15
361.823	71.68
362.034	8.19
362.245	-59.39
362.456	151.55
362.667	143.36
362.879	-114.69
363.09	227.32
363.301	172.03
363.512	-20.48
363.723	-6.14
363.935	104.45
364.146	317.44
364.357	-20.48
364.568	-30.72
364.779	102.4
364.99	284.67
365.201	-8.19
365.412	86.01
365.623	-20.48
365.834	190.46
366.045	16.38
366.256	-51.2
366.467	231.42
366.678	110.59
366.889	55.3
367.1	-30.72
367.311	335.87
367.522	96.25
367.733	92.16
367.944	-18.43
368.155	188.41
368.366	215.04
368.577	135.17
368.788	122.88
368.999	22.53
369.209	137.21
369.42	67.58
369.631	307.2
369.842	157.69
370.053	86.01
370.264	-10.24
370.474	-112.64
370.685	270.33
370.896	63.49
371.107	106.49
371.317	-36.86
371.528	153.6
371.739	274.43
371.95	79.87
372.16	-14.34
372.371	-2.05
372.582	79.87
372.792	-47.1
373.003	131.07
373.214	235.52
373.424	249.85
373.635	18.43
373.846	147.45
374.056	215.04
374.267	131.07
374.477	45.06
374.688	-18.43
374.898	243.71
375.109	151.55
375.319	86.01
375.53	141.31
375.74	264.19
375.951	131.07
376.161	47.1
376.372	67.58
376.582	59.39
376.793	165.89
377.003	-104.45
377.214	-59.39
377.424	305.15
377.635	122.88
377.845	-79.87
378.055	118.78
378.266	6.14
378.476	188.41
378.686	86.01
378.897	-6.14
379.107	331.77
379.317	206.84
379.528	-26.62
379.738	71.68
379.948	67.58
380.158	262.14
380.369	98.3
380.579	131.07
380.789	174.08
380.999	157.69
381.21	129.02
381.42	190.46
381.63	159.74
381.84	245.76
382.05	40.96
382.261	90.11
382.471	299
382.681	86.01
382.891	112.64
383.101	55.3
383.311	22.53
383.521	81.92
383.731	-6.14
383.941	169.98
384.151	106.49
384.361	18.43
384.571	63.49
384.781	18.43
384.991	313.34
385.201	352.25
385.411	157.69
385.621	57.34
385.831	192.51
386.041	145.41
386.251	112.64
386.461	69.63
386.671	217.08
386.881	219.13
387.091	59.39
387.301	151.55
387.511	210.94
387.72	186.37
387.93	94.21
388.14	-73.73
388.35	96.25
388.56	303.1
388.769	49.15
388.979	-22.53
389.189	120.83
389.399	145.41
389.609	-63.49
389.818	104.45
390.028	319.48
390.238	161.79
390.447	-71.68
390.657	73.73
390.867	163.84
391.076	8.19
391.286	-34.82
391.496	-47.1
391.705	98.3
391.915	346.11
392.125	-10.24
392.334	-4.1
392.544	221.18
392.753	151.55
392.963	-47.1
393.172	34.82
393.382	120.83
393.591	454.65
393.801	-12.29
394.01	59.39
394.22	206.84
394.429	110.59
394.639	47.1
394.848	59.39
395.058	233.47
395.267	169.98
395.477	122.88
395.686	71.68
395.895	425.98
396.105	387.07
396.314	26.62
396.524	47.1
396.733	137.21
396.942	319.48
397.152	59.39
397.361	180.22
397.57	124.93
397.78	167.93
397.989	55.3
398.198	206.84
398.407	71.68
398.617	122.88
398.826	10.24
399.035	16.38
399.244	217.08
399.453	190.46
399.663	-16.38
399.872	-90.11
400.081	65.53
400.29	223.23
400.499	24.58
400.708	45.06
400.917	194.56
401.127	120.83
401.336	-16.38
401.545	282.62
401.754	309.24
401.963	272.38
402.172	16.38
402.381	-26.62
402.59	182.27
402.799	174.08
403.008	172.03
403.217	118.78
403.426	223.23
403.635	-53.25
403.844	-28.67
404.053	-2.05
404.262	137.21
404.471	290.81
404.68	8.19
404.888	106.49
405.097	102.4
405.306	167.93
405.515	12.29
405.724	45.06
405.933	278.52
406.142	256
406.35	34.82
406.559	57.34
406.768	182.27
406.977	303.1
407.185	30.72
407.394	120.83
407.603	38.91
407.812	153.6
408.02	137.21
408.229	2.05
408.438	210.94
408.646	-2.05
408.855	-16.38
409.064	34.82
409.272	163.84
409.481	221.18
409.69	8.19
409.898	-114.69
410.107	172.03
410.315	311.29
410.524	67.58
410.733	67.58
410.941	233.47
411.15	313.34
411.358	114.69
411.567	137.21
411.775	194.56
411.984	161.79
412.192	114.69
412.401	-49.15
412.609	454.65
412.818	317.44
413.026	30.72
413.234	-63.49
413.443	221.18
413.651	129.02
413.86	-139.26
414.068	266.24
414.276	389.11
414.485	116.73
414.693	151.55
414.901	278.52
415.11	247.8
415.318	165.89
415.526	131.07
415.734	180.22
415.943	145.41
416.151	288.76
416.359	57.34
416.567	143.36
416.776	317.44
416.984	198.65
417.192	153.6
417.4	71.68
417.608	141.31
417.817	94.21
418.025	137.21
418.233	174.08
418.441	102.4
418.649	112.64
418.857	137.21
419.065	81.92
419.273	239.61
419.481	198.65
419.689	73.73
419.897	-14.34
420.105	38.91
420.313	395.26
420.521	190.46
420.729	212.99
420.937	221.18
421.145	65.53
421.353	110.59
421.561	237.56
421.769	282.62
421.977	65.53
422.185	151.55
422.393	83.97
422.601	292.86
422.809	276.48
423.017	110.59
423.224	45.06
423.432	382.97
423.64	204.8
423.848	108.54
424.056	63.49
424.263	407.55
424.471	251.9
424.679	223.23
424.887	61.44
425.094	522.23
425.302	425.98
425.51	8.19
425.718	100.35
425.925	344.06
426.133	157.69
426.341	282.62
426.548	126.97
426.756	296.96
426.964	309.24
427.171	178.17
427.379	151.55
427.586	294.91
427.794	419.83
428.001	169.98
428.209	241.66
428.417	468.98
428.624	333.82
428.832	219.13
429.039	253.95
429.247	350.2
429.454	374.78
429.662	342.01
429.869	235.52
430.076	477.18
430.284	473.08
430.491	333.82
430.699	278.52
430.906	618.49
431.114	391.16
431.321	372.73
431.528	387.07
431.736	428.03
431.943	423.93
432.15	362.49
432.358	274.43
432.565	694.26
432.772	147.45
432.979	393.21
433.187	380.92
433.394	569.34
433.601	442.36
433.808	391.16
434.016	399.35
434.223	577.53
434.43	641.01
434.637	319.48
434.844	536.57
435.052	589.82
435.259	659.45
435.466	579.58
435.673	442.36
435.88	675.83
436.087	765.94
436.294	751.6
436.501	669.69
436.708	684.02
436.915	790.52
437.122	743.41
437.329	555
437.537	626.68
437.743	808.95
437.95	763.89
438.157	534.52
438.364	798.71
438.571	839.67
438.778	794.61
438.985	868.34
439.192	956.4
439.399	847.86
439.606	864.24
439.813	839.67
440.02	1064.94
440.227	1175.53
440.433	878.58
440.64	880.63
440.847	948.21
441.054	987.12
441.261	923.63
441.467	843.76
441.674	958.45
441.881	1304.56
442.088	948.21
442.294	1071.09
442.501	1284.08
442.708	1386.47
442.914	1026.03
443.121	1132.53
443.328	1341.42
443.534	1531.88
443.741	1163.25
443.948	1144.81
444.154	1449.96
444.361	1714.15
444.568	1394.67
444.774	1298.41
444.981	1261.55
445.187	1638.38
445.394	1392.62
445.6	1433.58
445.807	1681.38
446.013	1644.52
446.22	1347.56
446.426	1742.82
446.633	1763.3
446.839	2000.87
447.046	1533.93
447.252	1898.47
447.459	1906.66
447.665	1798.12
447.871	1880.04
448.078	2193.37
448.284	2056.16
448.491	2193.37
448.697	2078.69
448.903	2146.27
449.11	2283.49
449.316	2306.01
449.522	2344.92
449.728	2455.51
449.935	2631.64
450.141	2480.09
450.347	2545.63
450.553	2416.6
450.76	2656.22
450.966	2863.06
451.172	2758.61
451.378	2809.81
451.584	2834.39
451.791	3203.02
451.997	3024.85
452.203	3160.02
452.409	3434.44
452.615	3356.62
452.821	3074
453.027	3012.56
453.233	3645.38
453.44	3366.86
453.646	3471.31
453.852	3491.79
454.058	3571.66
454.264	3825.61
454.47	3774.41
454.676	3737.54
454.882	4112.32
455.088	3850.18
455.294	3913.67
455.5	3997.63
455.705	4149.18
455.911	4036.55
456.117	4028.35
456.323	4132.8
456.529	3989.44
456.735	4153.28
456.941	3911.62
457.147	4237.25
457.352	4257.73
457.558	4001.73
457.764	4280.25
457.97	4202.43
458.176	4390.84
458.381	4487.1
458.587	4161.47
458.793	4210.62
458.999	4020.16
459.204	4476.86
459.41	4175.81
459.616	4249.54
459.821	4440
460.027	4054.98
460.233	4130.75
460.438	4063.17
460.644	4159.42
460.85	4085.7
461.055	4071.36
461.261	3932.1
