Data from USB4F104151__11__11-51-12-648.txt Node

Date: Wed Feb 19 11:51:12 EST 2025
User: louis
Spectrometer: USB4F10415
Trigger mode: 4
Integration Time (sec): 2.250200E-1
Scans to average: 1
Electric dark correction enabled: true
Nonlinearity correction enabled: false
Boxcar width: 0
XAxis mode: Wavelengths
Number of Pixels in Spectrum: 3648
>>>>>Begin Spectral Data<<<<<
178.204	-726.35
178.424	-726.35
178.644	-726.35
178.864	-798.03
179.084	-783.69
179.304	133.8
179.524	92.84
179.744	-27.99
179.964	-185.68
180.184	232.1
180.404	141.99
180.624	-269.65
180.844	-62.8
181.064	10.92
181.283	160.42
181.503	-175.44
181.723	-50.52
181.943	94.89
182.163	496.29
182.383	-161.11
182.602	-136.53
182.822	436.9
183.042	332.45
183.262	-163.15
183.482	-91.48
183.701	185
183.921	244.39
184.141	-116.05
184.361	-144.72
184.58	268.97
184.8	248.49
185.02	-175.44
185.239	-25.94
185.459	236.2
185.679	393.89
185.898	-212.31
186.118	-195.92
186.338	289.45
186.557	434.85
186.777	-273.75
186.997	-181.59
187.216	254.63
187.436	576.16
187.655	-132.44
187.875	21.16
188.095	221.86
188.314	406.18
188.534	-27.99
188.753	-183.63
188.973	346.79
189.192	414.37
189.412	-224.59
189.631	-142.68
189.851	332.45
190.07	432.8
190.29	-148.82
190.509	-300.37
190.729	191.14
190.948	469.67
191.168	-30.04
191.387	-216.4
191.607	191.14
191.826	305.83
192.045	-130.39
192.265	-134.48
192.484	311.97
192.704	234.15
192.923	-128.34
193.142	41.64
193.362	363.17
193.581	420.52
193.8	-122.2
194.02	-75.09
194.239	301.73
194.458	242.34
194.678	-169.3
194.897	-177.49
195.116	230.06
195.335	236.2
195.555	-85.33
195.774	-216.4
195.993	418.47
196.212	225.96
196.432	-118.1
196.651	-193.87
196.87	246.44
197.089	645.79
197.308	-175.44
197.528	-103.76
197.747	139.94
197.966	164.52
198.185	31.4
198.404	-218.45
198.623	234.15
198.842	348.84
199.062	-101.72
199.281	-77.14
199.5	197.29
199.719	248.49
199.938	-128.34
200.157	-222.55
200.376	377.51
200.595	393.89
200.814	-128.34
201.033	-136.53
201.252	463.52
201.471	287.4
201.69	-150.87
201.909	-120.15
202.128	424.61
202.347	291.49
202.566	-60.76
202.785	-308.56
203.004	168.62
203.223	541.35
203.442	-138.58
203.661	-271.7
203.879	373.41
204.098	354.98
204.317	-298.32
204.536	45.74
204.755	385.7
204.974	361.13
205.193	-245.07
205.411	-81.24
205.63	395.94
205.849	309.93
206.068	-179.54
206.287	-236.88
206.505	412.32
206.724	160.42
206.943	-224.59
207.162	-116.05
207.381	283.3
207.599	117.42
207.818	-44.37
208.037	-169.3
208.255	246.44
208.474	275.11
208.693	-148.82
208.911	-236.88
209.13	320.17
209.349	275.11
209.567	12.97
209.786	-111.96
210.005	420.52
210.223	285.35
210.442	-331.09
210.661	-214.35
210.879	219.82
211.098	246.44
211.316	-140.63
211.535	-157.01
211.753	277.16
211.972	248.49
212.191	-116.05
212.409	-142.68
212.628	393.89
212.846	189.1
213.065	-232.79
213.283	-118.1
213.502	178.86
213.72	219.82
213.938	-183.63
214.157	-167.25
214.375	252.58
214.594	240.3
214.812	-58.71
215.031	-130.39
215.249	209.58
215.467	324.26
215.686	-81.24
215.904	-204.11
216.122	299.69
216.341	412.32
216.559	-42.32
216.778	-7.51
216.996	363.17
217.214	150.18
217.432	-99.67
217.651	-142.68
217.869	260.77
218.087	156.33
218.306	-177.49
218.524	-218.45
218.742	271.01
218.96	250.53
219.179	-132.44
219.397	-175.44
219.615	529.06
219.833	225.96
220.051	-218.45
220.27	-60.76
220.488	416.42
220.706	262.82
220.924	-200.02
221.142	-218.45
221.36	332.45
221.578	219.82
221.796	-193.87
222.015	-124.24
222.233	268.97
222.451	434.85
222.669	-50.52
222.887	-17.75
223.105	187.05
223.323	144.04
223.541	-109.91
223.759	-128.34
223.977	195.24
224.195	432.8
224.413	-128.34
224.631	-175.44
224.849	254.63
225.067	529.06
225.285	-25.94
225.503	-163.15
225.721	-44.37
225.939	223.91
226.157	-89.43
226.375	92.84
226.592	193.19
226.81	195.24
227.028	74.41
227.246	-169.3
227.464	271.01
227.682	316.07
227.9	-107.86
228.117	-56.66
228.335	277.16
228.553	197.29
228.771	-230.74
228.989	-179.54
229.206	328.36
229.424	156.33
229.642	-71
229.86	-240.98
230.077	385.7
230.295	201.38
230.513	31.4
230.731	-97.62
230.948	500.39
231.166	404.13
231.384	-75.09
231.601	-134.48
231.819	508.58
232.037	115.37
232.254	-62.8
232.472	-101.72
232.689	133.8
232.907	385.7
233.125	-138.58
233.342	-259.41
233.56	66.22
233.777	176.81
233.995	-171.35
234.213	-62.8
234.43	295.59
234.648	185
234.865	-181.59
235.083	-101.72
235.3	264.87
235.518	305.83
235.735	-52.56
235.953	-103.76
236.17	258.73
236.388	154.28
236.605	66.22
236.822	-128.34
237.04	297.64
237.257	250.53
237.475	-77.14
237.692	-148.82
237.909	328.36
238.127	158.38
238.344	-81.24
238.562	-95.57
238.779	88.75
238.996	62.12
239.214	-107.86
239.431	-66.9
239.648	119.46
239.865	242.34
240.083	-99.67
240.3	-175.44
240.517	137.9
240.735	228.01
240.952	76.46
241.169	-81.24
241.386	330.41
241.603	201.38
241.821	-64.85
242.038	-52.56
242.255	303.78
242.472	176.81
242.689	-68.95
242.907	-132.44
243.124	289.45
243.341	240.3
243.558	-40.28
243.775	-124.24
243.992	92.84
244.209	264.87
244.426	-25.94
244.643	-50.52
244.86	158.38
245.078	354.98
245.295	-1.37
245.512	-150.87
245.729	117.42
245.946	283.3
246.163	-101.72
246.38	-191.83
246.597	273.06
246.814	244.39
247.031	-111.96
247.248	-185.68
247.464	322.21
247.681	199.34
247.898	-111.96
248.115	-21.84
248.332	146.09
248.549	406.18
248.766	-5.46
248.983	-75.09
249.2	314.02
249.417	273.06
249.633	-148.82
249.85	-42.32
250.067	185
250.284	195.24
250.501	-93.52
250.717	-32.08
250.934	58.03
251.151	217.77
251.368	-15.7
251.585	-75.09
251.801	246.44
252.018	37.55
252.235	37.55
252.451	-171.35
252.668	101.03
252.885	326.31
253.102	-64.85
253.318	-85.33
253.535	168.62
253.752	156.33
253.968	-87.38
254.185	-181.59
254.401	338.6
254.618	277.16
254.835	-13.65
255.051	-122.2
255.268	291.49
255.484	264.87
255.701	-30.04
255.917	-68.95
256.134	101.03
256.351	221.86
256.567	-179.54
256.784	43.69
257	-1.37
257.217	371.37
257.433	109.23
257.65	-91.48
257.866	332.45
258.082	-34.13
258.299	-21.84
258.515	-97.62
258.732	182.95
258.948	107.18
259.165	-11.61
259.381	-202.07
259.597	281.25
259.814	228.01
260.03	-152.91
260.246	-134.48
260.463	338.6
260.679	340.65
260.895	-60.76
261.112	-13.65
261.328	170.66
261.544	96.94
261.761	-71
261.977	-152.91
262.193	39.59
262.409	381.6
262.626	43.69
262.842	-44.37
263.058	94.89
263.274	391.84
263.49	23.21
263.707	-87.38
263.923	412.32
264.139	10.92
264.355	-21.84
264.571	-83.28
264.787	236.2
265.004	283.3
265.22	60.07
265.436	-95.57
265.652	205.48
265.868	258.73
266.084	-109.91
266.3	-124.24
266.516	152.23
266.732	252.58
266.948	-9.56
267.164	-202.07
267.38	357.03
267.596	342.69
267.812	113.32
268.028	-68.95
268.244	178.86
268.46	238.25
268.676	-99.67
268.892	-42.32
269.108	101.03
269.324	70.31
269.54	-95.57
269.756	-23.89
269.972	58.03
270.188	266.92
270.403	-157.01
270.619	-130.39
270.835	232.1
271.051	156.33
271.267	-116.05
271.483	-126.29
271.698	342.69
271.914	262.82
272.13	49.83
272.346	-87.38
272.562	271.01
272.777	371.37
272.993	-34.13
273.209	-75.09
273.425	189.1
273.64	-15.7
273.856	-77.14
274.072	-212.31
274.287	123.56
274.503	217.77
274.719	125.61
274.934	-103.76
275.15	37.55
275.366	176.81
275.581	-138.58
275.797	12.97
276.012	275.11
276.228	78.51
276.444	29.35
276.659	119.46
276.875	86.7
277.09	111.27
277.306	-15.7
277.521	-21.84
277.737	141.99
277.952	248.49
278.168	-1.37
278.383	-27.99
278.599	160.42
278.814	301.73
279.03	-101.72
279.245	49.83
279.461	205.48
279.676	166.57
279.892	-62.8
280.107	-34.13
280.322	55.98
280.538	346.79
280.753	-167.25
280.969	-62.8
281.184	275.11
281.399	330.41
281.615	-34.13
281.83	88.75
282.045	-3.41
282.26	12.97
282.476	-107.86
282.691	96.94
282.906	232.1
283.122	152.23
283.337	-132.44
283.552	92.84
283.767	137.9
283.983	207.53
284.198	-21.84
284.413	-103.76
284.628	127.66
284.843	187.05
285.058	-13.65
285.274	-93.52
285.489	107.18
285.704	264.87
285.919	-21.84
286.134	17.07
286.349	137.9
286.564	127.66
286.779	-32.08
286.995	19.11
287.21	53.93
287.425	281.25
287.64	-111.96
287.855	201.38
288.07	-17.75
288.285	287.4
288.5	35.5
288.715	33.45
288.93	119.46
289.145	96.94
289.36	-1.37
289.575	-19.8
289.79	318.12
290.004	88.75
290.219	-9.56
290.434	-111.96
290.649	37.55
290.864	131.75
291.079	-79.19
291.294	58.03
291.509	193.19
291.724	205.48
291.938	39.59
292.153	-87.38
292.368	178.86
292.583	203.43
292.798	70.31
293.012	51.88
293.227	150.18
293.442	168.62
293.657	70.31
293.871	37.55
294.086	205.48
294.301	318.12
294.516	-23.89
294.73	119.46
294.945	119.46
295.16	101.03
295.374	70.31
295.589	72.36
295.804	103.08
296.018	92.84
296.233	-68.95
296.447	160.42
296.662	96.94
296.877	297.64
297.091	-1.37
297.306	21.16
297.52	199.34
297.735	219.82
297.949	47.79
298.164	-103.76
298.378	236.2
298.593	35.5
298.807	35.5
299.022	45.74
299.236	289.45
299.451	129.7
299.665	0.68
299.88	-11.61
300.094	277.16
300.309	111.27
300.523	-136.53
300.737	-62.8
300.952	328.36
301.166	215.72
301.381	-46.42
301.595	-185.68
301.809	113.32
302.024	131.75
302.238	-25.94
302.452	187.05
302.667	213.67
302.881	297.64
303.095	10.92
303.309	88.75
303.524	84.65
303.738	115.37
303.952	17.07
304.166	76.46
304.381	-48.47
304.595	299.69
304.809	23.21
305.023	45.74
305.237	86.7
305.452	125.61
305.666	-38.23
305.88	64.17
306.094	273.06
306.308	164.52
306.522	62.12
306.736	33.45
306.95	275.11
307.164	45.74
307.379	90.79
307.593	70.31
307.807	324.26
308.021	225.96
308.235	207.53
308.449	-66.9
308.663	125.61
308.877	522.91
309.091	12.97
309.305	135.85
309.519	-66.9
309.733	275.11
309.947	-73.04
310.161	8.87
310.374	193.19
310.588	318.12
310.802	-77.14
311.016	0.68
311.23	174.76
311.444	78.51
311.658	4.78
311.872	236.2
312.085	354.98
312.299	336.55
312.513	168.62
312.727	-36.18
312.941	92.84
313.154	223.91
313.368	17.07
313.582	45.74
313.796	240.3
314.009	156.33
314.223	103.08
314.437	133.8
314.651	262.82
314.864	174.76
315.078	23.21
315.292	-120.15
315.505	158.38
315.719	209.58
315.933	117.42
316.146	-5.46
316.36	148.14
316.573	213.67
316.787	156.33
317.001	21.16
317.214	6.83
317.428	129.7
317.641	-54.61
317.855	45.74
318.068	238.25
318.282	180.9
318.495	62.12
318.709	21.16
318.922	209.58
319.136	285.35
319.349	160.42
319.563	-97.62
319.776	281.25
319.99	-17.75
320.203	6.83
320.417	6.83
320.63	223.91
320.843	281.25
321.057	107.18
321.27	-5.46
321.483	277.16
321.697	246.44
321.91	-36.18
322.124	4.78
322.337	160.42
322.55	109.23
322.763	-25.94
322.977	-9.56
323.19	29.35
323.403	121.51
323.617	-3.41
323.83	174.76
324.043	107.18
324.256	146.09
324.469	-185.68
324.683	117.42
324.896	121.51
325.109	144.04
325.322	-128.34
325.535	74.41
325.748	316.07
325.962	187.05
326.175	35.5
326.388	17.07
326.601	234.15
326.814	68.27
327.027	55.98
327.24	162.47
327.453	-87.38
327.666	203.43
327.879	137.9
328.092	29.35
328.305	246.44
328.518	31.4
328.731	-42.32
328.944	-19.8
329.157	182.95
329.37	80.55
329.583	125.61
329.796	82.6
330.009	66.22
330.222	287.4
330.435	109.23
330.648	-3.41
330.861	203.43
331.073	225.96
331.286	80.55
331.499	47.79
331.712	123.56
331.925	139.94
332.138	15.02
332.35	-44.37
332.563	162.47
332.776	365.22
332.989	-23.89
333.202	27.31
333.414	180.9
333.627	248.49
333.84	-44.37
334.053	43.69
334.265	-48.47
334.478	25.26
334.691	-38.23
334.903	144.04
335.116	111.27
335.329	144.04
335.541	78.51
335.754	289.45
335.966	191.14
336.179	248.49
336.392	39.59
336.604	-3.41
336.817	225.96
337.029	266.92
337.242	15.02
337.454	78.51
337.667	115.37
337.88	293.54
338.092	115.37
338.305	131.75
338.517	103.08
338.729	193.19
338.942	172.71
339.154	-13.65
339.367	17.07
339.579	232.1
339.792	-50.52
340.004	68.27
340.217	137.9
340.429	191.14
340.641	-89.43
340.854	-34.13
341.066	193.19
341.278	297.64
341.491	146.09
341.703	-52.56
341.915	70.31
342.128	254.63
342.34	62.12
342.552	-64.85
342.764	205.48
342.977	131.75
343.189	88.75
343.401	98.99
343.613	-97.62
343.826	125.61
344.038	23.21
344.25	82.6
344.462	41.64
344.674	121.51
344.886	-42.32
345.099	23.21
345.311	258.73
345.523	92.84
345.735	-120.15
345.947	33.45
346.159	256.68
346.371	133.8
346.583	51.88
346.795	129.7
347.007	66.22
347.219	305.83
347.431	111.27
347.643	160.42
347.855	86.7
348.067	295.59
348.279	-64.85
348.491	39.59
348.703	297.64
348.915	127.66
349.127	-73.04
349.339	25.26
349.551	78.51
349.763	324.26
349.975	29.35
350.187	148.14
350.399	379.56
350.61	248.49
350.822	-15.7
351.034	49.83
351.246	281.25
351.458	172.71
351.669	68.27
351.881	60.07
352.093	420.52
352.305	211.62
352.517	82.6
352.728	160.42
352.94	201.38
353.152	277.16
353.363	-50.52
353.575	101.03
353.787	395.94
353.999	316.07
354.21	178.86
354.422	-11.61
354.633	146.09
354.845	125.61
355.057	92.84
355.268	137.9
355.48	283.3
355.692	23.21
355.903	35.5
356.115	-44.37
356.326	-5.46
356.538	445.09
356.749	58.03
356.961	111.27
357.172	230.06
357.384	-13.65
357.595	246.44
357.807	17.07
358.018	182.95
358.23	185
358.441	-48.47
358.653	-21.84
358.864	119.46
359.075	-11.61
359.287	74.41
359.498	62.12
359.709	180.9
359.921	236.2
360.132	162.47
360.344	-71
360.555	88.75
360.766	193.19
360.977	-11.61
361.189	86.7
361.4	213.67
361.611	330.41
361.823	162.47
362.034	53.93
362.245	25.26
362.456	154.28
362.667	223.91
362.879	10.92
363.09	273.06
363.301	207.53
363.512	-25.94
363.723	-1.37
363.935	176.81
364.146	260.77
364.357	98.99
364.568	-1.37
364.779	-5.46
364.99	371.37
365.201	-38.23
365.412	158.38
365.623	-1.37
365.834	223.91
366.045	84.65
366.256	58.03
366.467	254.63
366.678	137.9
366.889	131.75
367.1	-7.51
367.311	283.3
367.522	141.99
367.733	86.7
367.944	60.07
368.155	211.62
368.366	156.33
368.577	82.6
368.788	117.42
368.999	160.42
369.209	78.51
369.42	55.98
369.631	422.56
369.842	268.97
370.053	133.8
370.264	76.46
370.474	12.97
370.685	279.21
370.896	168.62
371.107	146.09
371.317	78.51
371.528	174.76
371.739	361.13
371.95	88.75
372.16	29.35
372.371	51.88
372.582	43.69
372.792	-7.51
373.003	119.46
373.214	221.86
373.424	287.4
373.635	17.07
373.846	135.85
374.056	258.73
374.267	166.57
374.477	115.37
374.688	-34.13
374.898	248.49
375.109	228.01
375.319	53.93
375.53	88.75
375.74	320.17
375.951	96.94
376.161	141.99
376.372	86.7
376.582	205.48
376.793	260.77
377.003	119.46
377.214	15.02
377.424	258.73
377.635	203.43
377.845	2.73
378.055	146.09
378.266	-11.61
378.476	127.66
378.686	43.69
378.897	43.69
379.107	363.17
379.317	178.86
379.528	-40.28
379.738	105.13
379.948	45.74
380.158	354.98
380.369	41.64
380.579	49.83
380.789	211.62
380.999	182.95
381.21	176.81
381.42	209.58
381.63	189.1
381.84	320.17
382.05	109.23
382.261	84.65
382.471	332.45
382.681	123.56
382.891	160.42
383.101	86.7
383.311	78.51
383.521	135.85
383.731	29.35
383.941	162.47
384.151	262.82
384.361	49.83
384.571	-17.75
384.781	107.18
384.991	348.84
385.201	498.34
385.411	172.71
385.621	53.93
385.831	250.53
386.041	191.14
386.251	117.42
386.461	158.38
386.671	236.2
386.881	170.66
387.091	53.93
387.301	109.23
387.511	273.06
387.72	174.76
387.93	82.6
388.14	-27.99
388.35	160.42
388.56	334.5
388.769	33.45
388.979	35.5
389.189	68.27
389.399	164.52
389.609	70.31
389.818	47.79
390.028	299.69
390.238	248.49
390.447	-56.66
390.657	101.03
390.867	199.34
391.076	-13.65
391.286	4.78
391.496	21.16
391.705	217.77
391.915	420.52
392.125	-3.41
392.334	94.89
392.544	348.84
392.753	221.86
392.963	23.21
393.172	94.89
393.382	180.9
393.591	397.99
393.801	15.02
394.01	8.87
394.22	346.79
394.429	150.18
394.639	133.8
394.848	148.14
395.058	260.77
395.267	281.25
395.477	121.51
395.686	80.55
395.895	594.59
396.105	428.71
396.314	105.13
396.524	185
396.733	215.72
396.942	373.41
397.152	70.31
397.361	176.81
397.57	191.14
397.78	256.68
397.989	125.61
398.198	279.21
398.407	141.99
398.617	191.14
398.826	41.64
399.035	68.27
399.244	318.12
399.453	205.48
399.663	62.12
399.872	-85.33
400.081	23.21
400.29	289.45
400.499	39.59
400.708	252.58
400.917	178.86
401.127	135.85
401.336	29.35
401.545	234.15
401.754	307.88
401.963	340.65
402.172	86.7
402.381	29.35
402.59	201.38
402.799	199.34
403.008	209.58
403.217	170.66
403.426	244.39
403.635	58.03
403.844	25.26
404.053	19.11
404.262	98.99
404.471	236.2
404.68	105.13
404.888	146.09
405.097	162.47
405.306	209.58
405.515	125.61
405.724	2.73
405.933	281.25
406.142	217.77
406.35	90.79
406.559	107.18
406.768	211.62
406.977	438.95
407.185	84.65
407.394	203.43
407.603	17.07
407.812	234.15
408.02	160.42
408.229	150.18
408.438	223.91
408.646	-15.7
408.855	-11.61
409.064	62.12
409.272	191.14
409.481	289.45
409.69	19.11
409.898	35.5
410.107	236.2
410.315	314.02
410.524	107.18
410.733	33.45
410.941	164.52
411.15	365.22
411.358	78.51
411.567	248.49
411.775	258.73
411.984	178.86
412.192	201.38
412.401	8.87
412.609	465.57
412.818	322.21
413.026	127.66
413.234	107.18
413.443	314.02
413.651	141.99
413.86	33.45
414.068	275.11
414.276	516.77
414.485	156.33
414.693	187.05
414.901	350.89
415.11	295.59
415.318	268.97
415.526	121.51
415.734	248.49
415.943	242.34
416.151	420.52
416.359	17.07
416.567	221.86
416.776	342.69
416.984	340.65
417.192	213.67
417.4	80.55
417.608	160.42
417.817	158.38
418.025	260.77
418.233	189.1
418.441	174.76
418.649	74.41
418.857	144.04
419.065	193.19
419.273	172.71
419.481	320.17
419.689	170.66
419.897	90.79
420.105	139.94
420.313	410.28
420.521	219.82
420.729	221.86
420.937	258.73
421.145	127.66
421.353	141.99
421.561	244.39
421.769	311.97
421.977	125.61
422.185	182.95
422.393	131.75
422.601	330.41
422.809	203.43
423.017	150.18
423.224	78.51
423.432	453.28
423.64	262.82
423.848	35.5
424.056	84.65
424.263	475.81
424.471	307.88
424.679	350.89
424.887	76.46
425.094	608.93
425.302	367.27
425.51	107.18
425.718	234.15
425.925	328.36
426.133	197.29
426.341	285.35
426.548	211.62
426.756	254.63
426.964	449.19
427.171	180.9
427.379	285.35
427.586	406.18
427.794	457.38
428.001	344.74
428.209	254.63
428.417	522.91
428.624	453.28
428.832	350.89
429.039	322.21
429.247	414.37
429.454	467.62
429.662	471.72
429.869	334.5
430.076	529.06
430.284	504.48
430.491	412.32
430.699	371.37
430.906	572.07
431.114	543.39
431.321	496.29
431.528	451.24
431.736	535.2
431.943	594.59
432.15	475.81
432.358	395.94
432.565	803.49
432.772	348.84
432.979	631.46
433.187	512.67
433.394	846.49
433.601	576.16
433.808	600.74
434.016	592.55
434.223	737.95
434.43	783.01
434.637	608.93
434.844	713.38
435.052	844.45
435.259	860.83
435.466	785.05
435.673	701.09
435.88	1000.09
436.087	973.47
436.294	977.56
436.501	940.7
436.708	938.65
436.915	1008.28
437.122	1000.09
437.329	783.01
437.537	928.41
437.743	1010.33
437.95	1079.96
438.157	963.23
438.364	1108.63
438.571	1069.72
438.778	1051.29
438.985	1305.24
439.192	1260.18
439.399	1172.12
439.606	1057.43
439.813	1309.33
440.02	1464.98
440.227	1550.99
440.433	1254.04
440.64	1229.46
440.847	1399.45
441.054	1342.1
441.261	1421.97
441.467	1426.07
441.674	1544.85
441.881	1675.92
442.088	1518.23
442.294	1452.69
442.501	1655.44
442.708	1815.18
442.914	1524.37
443.121	1684.11
443.328	1759.89
443.534	2032.27
443.741	1714.83
443.948	1680.02
444.154	2054.8
444.361	2146.95
444.568	1936.01
444.774	2019.98
444.981	1829.52
445.187	2349.7
445.394	2052.75
445.6	2071.18
445.807	2413.19
446.013	2257.54
446.22	2065.04
446.426	2407.05
446.633	2564.74
446.839	2800.26
447.046	2323.08
447.252	2648.71
447.459	2691.71
447.665	2667.14
447.871	2675.33
448.078	3089.02
448.284	3005.05
448.491	3039.87
448.697	3043.96
448.903	3293.82
449.11	3353.21
449.316	3148.41
449.522	3324.54
449.728	3416.69
449.935	3510.9
450.141	3523.19
450.347	3732.08
450.553	3500.66
450.76	3865.2
450.966	4043.37
451.172	3822.19
451.378	4057.71
451.584	4336.23
451.791	4551.27
451.997	4512.36
452.203	4307.56
452.409	4895.33
452.615	4790.88
452.821	4471.4
453.027	4467.3
453.233	5096.03
453.44	4842.08
453.646	4674.15
453.852	4964.96
454.058	5100.12
454.264	5388.89
454.47	5407.32
454.676	5417.56
454.882	5845.59
455.088	5417.56
455.294	5392.98
455.5	5857.87
455.705	6013.52
455.911	5962.32
456.117	5608.02
456.323	5921.36
456.529	5616.21
456.735	5929.55
456.941	5990.99
457.147	5952.08
457.352	6132.3
457.558	5980.75
457.764	6177.36
457.97	5974.61
458.176	6077.01
458.381	6314.57
458.587	6201.93
458.793	5950.03
458.999	6013.52
459.204	6306.38
459.41	6027.85
459.616	5859.92
459.821	6169.16
460.027	6048.33
460.233	6109.77
460.438	5831.25
460.644	6083.15
460.85	5982.8
461.055	5769.81
