Data from USB4F104151__86__12-42-32-476.txt Node

Date: Fri Mar 14 12:42:32 EDT 2025
User: louis
Spectrometer: USB4F10415
Trigger mode: 4
Integration Time (sec): 3.000000E-2
Scans to average: 1
Electric dark correction enabled: true
Nonlinearity correction enabled: false
Boxcar width: 0
XAxis mode: Wavelengths
Number of Pixels in Spectrum: 3648
>>>>>Begin Spectral Data<<<<<
178.204	-84.31
178.424	-84.31
178.644	-84.31
178.864	-135.51
179.084	-129.36
179.304	-51.54
179.524	-31.06
179.744	50.86
179.964	28.33
180.184	34.47
180.404	20.14
180.624	-10.58
180.844	-4.44
181.064	-20.82
181.283	9.9
181.503	-0.34
181.723	-24.92
181.943	1.71
182.163	140.97
182.383	20.14
182.602	120.49
182.822	7.85
183.042	100.01
183.262	-29.01
183.482	91.82
183.701	-12.63
183.921	-0.34
184.141	-31.06
184.361	100.01
184.58	34.47
184.8	57
185.02	-55.64
185.239	32.43
185.459	54.95
185.679	7.85
185.898	-69.97
186.118	11.95
186.338	32.43
186.557	54.95
186.777	-10.58
186.997	28.33
187.216	54.95
187.436	48.81
187.655	71.34
187.875	110.25
188.095	1.71
188.314	67.24
188.534	38.57
188.753	28.33
188.973	81.58
189.192	34.47
189.412	79.53
189.631	91.82
189.851	81.58
190.07	30.38
190.29	-0.34
190.509	11.95
190.729	-2.39
190.948	85.67
191.168	126.63
191.387	116.39
191.607	-8.53
191.826	7.85
192.045	77.48
192.265	-4.44
192.484	30.38
192.704	77.48
192.923	18.09
193.142	179.88
193.362	52.91
193.581	67.24
193.8	40.62
194.02	48.81
194.239	65.19
194.458	16.04
194.678	30.38
194.897	-33.11
195.116	83.63
195.335	-6.49
195.555	130.73
195.774	75.43
195.993	-0.34
196.212	44.71
196.432	36.52
196.651	11.95
196.87	83.63
197.089	13.99
197.308	81.58
197.528	67.24
197.747	26.28
197.966	22.19
198.185	83.63
198.404	20.14
198.623	71.34
198.842	34.47
199.062	108.2
199.281	75.43
199.5	-10.58
199.719	-16.73
199.938	26.28
200.157	32.43
200.376	110.25
200.595	95.91
200.814	114.34
201.033	32.43
201.252	75.43
201.471	40.62
201.69	24.23
201.909	26.28
202.128	110.25
202.347	75.43
202.566	-10.58
202.785	-51.54
203.004	13.99
203.223	87.72
203.442	-6.49
203.661	77.48
203.879	32.43
204.098	65.19
204.317	5.8
204.536	50.86
204.755	-2.39
204.974	52.91
205.193	42.67
205.411	69.29
205.63	9.9
205.849	61.1
206.068	93.87
206.287	13.99
206.505	38.57
206.724	97.96
206.943	5.8
207.162	13.99
207.381	20.14
207.599	5.8
207.818	30.38
208.037	-41.3
208.255	102.06
208.474	-6.49
208.693	-24.92
208.911	13.99
209.13	34.47
209.349	79.53
209.567	24.23
209.786	89.77
210.005	-31.06
210.223	106.15
210.442	57
210.661	79.53
210.879	-33.11
211.098	-6.49
211.316	11.95
211.535	110.25
211.753	-0.34
211.972	9.9
212.191	42.67
212.409	20.14
212.628	75.43
212.846	112.3
213.065	48.81
213.283	104.11
213.502	26.28
213.72	40.62
213.938	75.43
214.157	-26.96
214.375	16.04
214.594	30.38
214.812	97.96
215.031	16.04
215.249	24.23
215.467	77.48
215.686	26.28
215.904	22.19
216.122	61.1
216.341	79.53
216.559	30.38
216.778	57
216.996	65.19
217.214	34.47
217.432	-4.44
217.651	-55.64
217.869	28.33
218.087	114.34
218.306	-10.58
218.524	40.62
218.742	-2.39
218.96	11.95
219.179	-2.39
219.397	63.15
219.615	59.05
219.833	102.06
220.051	28.33
220.27	20.14
220.488	26.28
220.706	95.91
220.924	1.71
221.142	71.34
221.36	36.52
221.578	44.71
221.796	42.67
222.015	61.1
222.233	5.8
222.451	50.86
222.669	-12.63
222.887	65.19
223.105	9.9
223.323	106.15
223.541	7.85
223.759	89.77
223.977	28.33
224.195	93.87
224.413	42.67
224.631	38.57
224.849	-37.2
225.067	20.14
225.285	30.38
225.503	13.99
225.721	22.19
225.939	36.52
226.157	30.38
226.375	155.3
226.592	-12.63
226.81	26.28
227.028	95.91
227.246	59.05
227.464	69.29
227.682	57
227.9	106.15
228.117	108.2
228.335	-14.68
228.553	-8.53
228.771	-20.82
228.989	110.25
229.206	83.63
229.424	26.28
229.642	-20.82
229.86	38.57
230.077	59.05
230.295	-18.77
230.513	87.72
230.731	61.1
230.948	24.23
231.166	73.39
231.384	42.67
231.601	7.85
231.819	-20.82
232.037	-45.4
232.254	-24.92
232.472	24.23
232.689	75.43
232.907	50.86
233.125	57
233.342	67.24
233.56	1.71
233.777	48.81
233.995	48.81
234.213	75.43
234.43	-16.73
234.648	-59.73
234.865	54.95
235.083	50.86
235.3	110.25
235.518	87.72
235.735	67.24
235.953	44.71
236.17	42.67
236.388	50.86
236.605	57
236.822	-10.58
237.04	48.81
237.257	120.49
237.475	22.19
237.692	11.95
237.909	130.73
238.127	48.81
238.344	30.38
238.562	32.43
238.779	-39.25
238.996	61.1
239.214	110.25
239.431	-0.34
239.648	36.52
239.865	59.05
240.083	28.33
240.3	38.57
240.517	20.14
240.735	63.15
240.952	52.91
241.169	71.34
241.386	-33.11
241.603	79.53
241.821	48.81
242.038	106.15
242.255	93.87
242.472	-18.77
242.689	-2.39
242.907	44.71
243.124	-12.63
243.341	102.06
243.558	13.99
243.775	-10.58
243.992	-43.35
244.209	50.86
244.426	130.73
244.643	48.81
244.86	77.48
245.078	124.58
245.295	104.11
245.512	54.95
245.729	130.73
245.946	89.77
246.163	24.23
246.38	75.43
246.597	40.62
246.814	-37.2
247.031	48.81
247.248	40.62
247.464	100.01
247.681	36.52
247.898	20.14
248.115	67.24
248.332	63.15
248.549	100.01
248.766	87.72
248.983	95.91
249.2	36.52
249.417	54.95
249.633	-0.34
249.85	46.76
250.067	9.9
250.284	57
250.501	42.67
250.717	81.58
250.934	-18.77
251.151	102.06
251.368	24.23
251.585	22.19
251.801	-12.63
252.018	79.53
252.235	95.91
252.451	59.05
252.668	28.33
252.885	36.52
253.102	87.72
253.318	83.63
253.535	-0.34
253.752	32.43
253.968	1.71
254.185	22.19
254.401	-26.96
254.618	73.39
254.835	13.99
255.051	81.58
255.268	-0.34
255.484	40.62
255.701	13.99
255.917	79.53
256.134	42.67
256.351	73.39
256.567	-59.73
256.784	110.25
257	79.53
257.217	24.23
257.433	59.05
257.65	48.81
257.866	16.04
258.082	16.04
258.299	11.95
258.515	18.09
258.732	28.33
258.948	26.28
259.165	46.76
259.381	48.81
259.597	40.62
259.814	-2.39
260.03	24.23
260.246	9.9
260.463	40.62
260.679	120.49
260.895	85.67
261.112	118.44
261.328	128.68
261.544	-39.25
261.761	63.15
261.977	87.72
262.193	-10.58
262.409	-35.16
262.626	97.96
262.842	79.53
263.058	32.43
263.274	69.29
263.49	106.15
263.707	83.63
263.923	40.62
264.139	32.43
264.355	20.14
264.571	67.24
264.787	65.19
265.004	75.43
265.22	50.86
265.436	75.43
265.652	42.67
265.868	73.39
266.084	38.57
266.3	-10.58
266.516	24.23
266.732	-0.34
266.948	3.75
267.164	57
267.38	91.82
267.596	59.05
267.812	46.76
268.028	22.19
268.244	18.09
268.46	79.53
268.676	79.53
268.892	30.38
269.108	63.15
269.324	57
269.54	16.04
269.756	36.52
269.972	-33.11
270.188	44.71
270.403	30.38
270.619	81.58
270.835	7.85
271.051	52.91
271.267	-0.34
271.483	22.19
271.698	106.15
271.914	52.91
272.13	3.75
272.346	40.62
272.562	89.77
272.777	54.95
272.993	22.19
273.209	63.15
273.425	20.14
273.64	-10.58
273.856	61.1
274.072	9.9
274.287	-16.73
274.503	143.02
274.719	9.9
274.934	71.34
275.15	-2.39
275.366	11.95
275.581	34.47
275.797	24.23
276.012	59.05
276.228	24.23
276.444	9.9
276.659	118.44
276.875	26.28
277.09	36.52
277.306	-12.63
277.521	-0.34
277.737	32.43
277.952	114.34
278.168	42.67
278.383	46.76
278.599	22.19
278.814	54.95
279.03	75.43
279.245	85.67
279.461	28.33
279.676	50.86
279.892	57
280.107	71.34
280.322	5.8
280.538	46.76
280.753	5.8
280.969	50.86
281.184	138.92
281.399	59.05
281.615	30.38
281.83	48.81
282.045	7.85
282.26	1.71
282.476	-12.63
282.691	100.01
282.906	5.8
283.122	1.71
283.337	-0.34
283.552	126.63
283.767	7.85
283.983	48.81
284.198	24.23
284.413	-37.2
284.628	5.8
284.843	18.09
285.058	61.1
285.274	104.11
285.489	-35.16
285.704	44.71
285.919	-0.34
286.134	30.38
286.349	20.14
286.564	52.91
286.779	-14.68
286.995	110.25
287.21	11.95
287.425	73.39
287.64	63.15
287.855	54.95
288.07	3.75
288.285	89.77
288.5	81.58
288.715	32.43
288.93	44.71
289.145	73.39
289.36	114.34
289.575	1.71
289.79	54.95
290.004	71.34
290.219	30.38
290.434	-0.34
290.649	108.2
290.864	52.91
291.079	-16.73
291.294	13.99
291.509	108.2
291.724	65.19
291.938	36.52
292.153	147.11
292.368	32.43
292.583	75.43
292.798	79.53
293.012	65.19
293.227	36.52
293.442	87.72
293.657	106.15
293.871	85.67
294.086	30.38
294.301	42.67
294.516	95.91
294.73	36.52
294.945	102.06
295.16	26.28
295.374	59.05
295.589	54.95
295.804	-6.49
296.018	57
296.233	71.34
296.447	54.95
296.662	77.48
296.877	73.39
297.091	59.05
297.306	104.11
297.52	20.14
297.735	77.48
297.949	89.77
298.164	93.87
298.378	3.75
298.593	7.85
298.807	22.19
299.022	44.71
299.236	-6.49
299.451	28.33
299.665	-14.68
299.88	48.81
300.094	-45.4
300.309	-6.49
300.523	-12.63
300.737	36.52
300.952	97.96
301.166	65.19
301.381	11.95
301.595	57
301.809	24.23
302.024	75.43
302.238	38.57
302.452	87.72
302.667	46.76
302.881	20.14
303.095	93.87
303.309	46.76
303.524	28.33
303.738	73.39
303.952	-6.49
304.166	16.04
304.381	3.75
304.595	102.06
304.809	38.57
305.023	5.8
305.237	79.53
305.452	40.62
305.666	104.11
305.88	140.97
306.094	59.05
306.308	77.48
306.522	-35.16
306.736	46.76
306.95	69.29
307.164	85.67
307.379	57
307.593	106.15
307.807	75.43
308.021	36.52
308.235	57
308.449	7.85
308.663	44.71
308.877	38.57
309.091	112.3
309.305	81.58
309.519	7.85
309.733	81.58
309.947	30.38
310.161	124.58
310.374	65.19
310.588	73.39
310.802	9.9
311.016	81.58
311.23	57
311.444	7.85
311.658	1.71
311.872	114.34
312.085	38.57
312.299	104.11
312.513	57
312.727	9.9
312.941	44.71
313.154	63.15
313.368	83.63
313.582	11.95
313.796	44.71
314.009	79.53
314.223	79.53
314.437	67.24
314.651	34.47
314.864	65.19
315.078	-33.11
315.292	59.05
315.505	71.34
315.719	-4.44
315.933	48.81
316.146	32.43
316.36	50.86
316.573	120.49
316.787	77.48
317.001	106.15
317.214	-10.58
317.428	69.29
317.641	30.38
317.855	48.81
318.068	-0.34
318.282	20.14
318.495	42.67
318.709	71.34
318.922	44.71
319.136	151.21
319.349	97.96
319.563	69.29
319.776	44.71
319.99	30.38
320.203	81.58
320.417	-12.63
320.63	65.19
320.843	140.97
321.057	81.58
321.27	-12.63
321.483	85.67
321.697	65.19
321.91	97.96
322.124	95.91
322.337	81.58
322.55	11.95
322.763	18.09
322.977	108.2
323.19	71.34
323.403	61.1
323.617	26.28
323.83	102.06
324.043	30.38
324.256	30.38
324.469	61.1
324.683	-22.87
324.896	136.87
325.109	93.87
325.322	-10.58
325.535	9.9
325.748	85.67
325.962	61.1
326.175	44.71
326.388	28.33
326.601	16.04
326.814	59.05
327.027	79.53
327.24	112.3
327.453	5.8
327.666	143.02
327.879	38.57
328.092	52.91
328.305	38.57
328.518	22.19
328.731	24.23
328.944	18.09
329.157	5.8
329.37	28.33
329.583	67.24
329.796	83.63
330.009	83.63
330.222	9.9
330.435	79.53
330.648	110.25
330.861	-12.63
331.073	134.82
331.286	42.67
331.499	40.62
331.712	75.43
331.925	100.01
332.138	106.15
332.35	140.97
332.563	130.73
332.776	93.87
332.989	9.9
333.202	81.58
333.414	5.8
333.627	36.52
333.84	38.57
334.053	9.9
334.265	40.62
334.478	149.16
334.691	67.24
334.903	11.95
335.116	30.38
335.329	42.67
335.541	42.67
335.754	71.34
335.966	24.23
336.179	130.73
336.392	63.15
336.604	116.39
336.817	71.34
337.029	46.76
337.242	106.15
337.454	85.67
337.667	7.85
337.88	40.62
338.092	65.19
338.305	79.53
338.517	61.1
338.729	83.63
338.942	11.95
339.154	95.91
339.367	61.1
339.579	38.57
339.792	38.57
340.004	97.96
340.217	18.09
340.429	67.24
340.641	67.24
340.854	28.33
341.066	11.95
341.278	128.68
341.491	52.91
341.703	24.23
341.915	48.81
342.128	97.96
342.34	120.49
342.552	26.28
342.764	89.77
342.977	71.34
343.189	24.23
343.401	79.53
343.613	11.95
343.826	59.05
344.038	65.19
344.25	34.47
344.462	63.15
344.674	30.38
344.886	59.05
345.099	134.82
345.311	75.43
345.523	-53.59
345.735	5.8
345.947	71.34
346.159	81.58
346.371	106.15
346.583	20.14
346.795	151.21
347.007	61.1
347.219	63.15
347.431	126.63
347.643	102.06
347.855	104.11
348.067	81.58
348.279	75.43
348.491	81.58
348.703	57
348.915	18.09
349.127	91.82
349.339	44.71
349.551	24.23
349.763	75.43
349.975	28.33
350.187	114.34
350.399	102.06
350.61	16.04
350.822	69.29
351.034	126.63
351.246	38.57
351.458	75.43
351.669	104.11
351.881	18.09
352.093	50.86
352.305	11.95
352.517	75.43
352.728	102.06
352.94	81.58
353.152	118.44
353.363	116.39
353.575	32.43
353.787	59.05
353.999	32.43
354.21	151.21
354.422	18.09
354.633	-47.44
354.845	38.57
355.057	89.77
355.268	75.43
355.48	128.68
355.692	9.9
355.903	20.14
356.115	30.38
356.326	85.67
356.538	106.15
356.749	93.87
356.961	130.73
357.172	81.58
357.384	26.28
357.595	85.67
357.807	102.06
358.018	163.5
358.23	77.48
358.441	108.2
358.653	26.28
358.864	22.19
359.075	79.53
359.287	20.14
359.498	71.34
359.709	102.06
359.921	63.15
360.132	89.77
360.344	91.82
360.555	-16.73
360.766	79.53
360.977	38.57
361.189	89.77
361.4	24.23
361.611	79.53
361.823	130.73
362.034	44.71
362.245	7.85
362.456	65.19
362.667	85.67
362.879	100.01
363.09	34.47
363.301	106.15
363.512	87.72
363.723	-10.58
363.935	67.24
364.146	26.28
364.357	112.3
364.568	46.76
364.779	50.86
364.99	120.49
365.201	91.82
365.412	118.44
365.623	24.23
365.834	91.82
366.045	102.06
366.256	71.34
366.467	114.34
366.678	95.91
366.889	18.09
367.1	77.48
367.311	42.67
367.522	81.58
367.733	114.34
367.944	128.68
368.155	67.24
368.366	91.82
368.577	97.96
368.788	147.11
368.999	40.62
369.209	54.95
369.42	186.02
369.631	136.87
369.842	93.87
370.053	-10.58
370.264	97.96
370.474	63.15
370.685	-2.39
370.896	9.9
371.107	116.39
371.317	65.19
371.528	3.75
371.739	81.58
371.95	120.49
372.16	124.58
372.371	11.95
372.582	20.14
372.792	46.76
373.003	65.19
373.214	-8.53
373.424	112.3
373.635	42.67
373.846	140.97
374.056	38.57
374.267	87.72
374.477	155.3
374.688	36.52
374.898	77.48
375.109	63.15
375.319	67.24
375.53	97.96
375.74	95.91
375.951	77.48
376.161	71.34
376.372	95.91
376.582	40.62
376.793	50.86
377.003	48.81
377.214	26.28
377.424	79.53
377.635	28.33
377.845	79.53
378.055	79.53
378.266	106.15
378.476	118.44
378.686	48.81
378.897	81.58
379.107	16.04
379.317	112.3
379.528	69.29
379.738	81.58
379.948	69.29
380.158	108.2
380.369	63.15
380.579	130.73
380.789	91.82
380.999	128.68
381.21	126.63
381.42	89.77
381.63	1.71
381.84	116.39
382.05	112.3
382.261	118.44
382.471	163.5
382.681	30.38
382.891	110.25
383.101	32.43
383.311	42.67
383.521	89.77
383.731	97.96
383.941	114.34
384.151	91.82
384.361	28.33
384.571	95.91
384.781	79.53
384.991	18.09
385.201	130.73
385.411	30.38
385.621	120.49
385.831	40.62
386.041	114.34
386.251	110.25
386.461	145.06
386.671	97.96
386.881	124.58
387.091	52.91
387.301	69.29
387.511	118.44
387.72	30.38
387.93	52.91
388.14	110.25
388.35	63.15
388.56	155.3
388.769	83.63
388.979	126.63
389.189	75.43
389.399	138.92
389.609	89.77
389.818	108.2
390.028	36.52
390.238	116.39
390.447	75.43
390.657	100.01
390.867	143.02
391.076	42.67
391.286	54.95
391.496	95.91
391.705	116.39
391.915	130.73
392.125	165.54
392.334	196.26
392.544	120.49
392.753	89.77
392.963	102.06
393.172	126.63
393.382	83.63
393.591	97.96
393.801	163.5
394.01	186.02
394.22	165.54
394.429	46.76
394.639	97.96
394.848	93.87
395.058	157.35
395.267	188.07
395.477	157.35
395.686	140.97
395.895	216.74
396.105	171.69
396.314	102.06
396.524	128.68
396.733	163.5
396.942	138.92
397.152	181.93
397.361	171.69
397.57	118.44
397.78	120.49
397.989	167.59
398.198	253.61
398.407	239.27
398.617	132.78
398.826	179.88
399.035	138.92
399.244	177.83
399.453	145.06
399.663	202.41
399.872	177.83
400.081	132.78
400.29	229.03
400.499	143.02
400.708	202.41
400.917	124.58
401.127	155.3
401.336	151.21
401.545	286.37
401.754	171.69
401.963	177.83
402.172	163.5
402.381	171.69
402.59	214.7
402.799	186.02
403.008	214.7
403.217	251.56
403.426	175.78
403.635	192.17
403.844	126.63
404.053	194.22
404.262	233.13
404.471	267.94
404.68	226.98
404.888	263.85
405.097	212.65
405.306	255.65
405.515	255.65
405.724	208.55
405.933	200.36
406.142	345.77
406.35	157.35
406.559	339.62
406.768	282.28
406.977	337.57
407.185	284.33
407.394	263.85
407.603	327.33
407.812	386.72
408.02	353.96
408.229	310.95
408.438	315.05
408.646	419.49
408.855	409.25
409.064	439.97
409.272	423.59
409.481	487.08
409.69	503.46
409.898	444.07
410.107	452.26
410.315	511.65
410.524	466.6
410.733	612
410.941	493.22
411.15	605.86
411.358	532.13
411.567	632.48
411.775	585.38
411.984	646.82
412.192	655.01
412.401	761.5
412.609	716.45
412.818	812.7
413.026	849.57
413.234	777.89
413.443	831.13
413.651	833.18
413.86	970.4
414.068	941.72
414.276	917.15
414.485	933.53
414.693	1007.26
414.901	1171.1
415.11	1156.76
415.318	1076.89
415.526	1097.37
415.734	1220.25
415.943	1310.36
416.151	1347.22
416.359	1316.5
416.567	1447.57
416.776	1351.32
416.984	1457.81
417.192	1611.41
417.4	1648.27
417.608	1617.55
417.817	1633.94
418.025	1758.86
418.233	1889.93
418.441	1855.12
418.649	1904.27
418.857	2072.2
419.065	2055.82
419.273	2057.87
419.481	2059.92
419.689	2301.58
419.897	2408.07
420.105	2403.97
420.313	2436.74
420.521	2516.61
420.729	2621.06
420.937	2690.69
421.145	2784.9
421.353	3053.18
421.561	2983.55
421.769	3182.2
421.977	3292.79
422.185	3157.63
422.393	3567.22
422.601	3620.47
422.809	3729.01
423.017	3518.07
423.224	3757.68
423.432	3901.04
423.64	4066.92
423.848	4445.8
424.056	4306.54
424.263	4552.29
424.471	4619.88
424.679	4736.61
424.887	5017.18
425.094	5111.39
425.302	5142.11
425.51	5246.55
425.718	5396.06
425.925	5576.28
426.133	5727.83
426.341	6061.65
426.548	6278.73
426.756	6092.37
426.964	6391.37
427.171	6690.37
427.379	6862.4
427.586	7032.38
427.794	7364.15
428.001	7591.48
428.209	7933.49
428.417	7671.35
428.624	8324.65
428.832	8298.03
429.039	8281.64
429.247	8283.69
429.454	9188.89
429.662	9590.3
429.869	9000.48
430.076	9723.41
430.284	9498.14
430.491	10003.99
430.699	10475.02
430.906	10378.76
431.114	10700.3
431.321	10905.09
431.528	11306.49
431.736	11980.28
431.943	12443.12
432.15	12172.78
432.358	12137.97
432.565	12811.75
432.772	12973.54
432.979	13479.39
433.187	13704.67
433.394	13712.86
433.601	15044.04
433.808	15093.19
434.016	14738.89
434.223	15508.93
434.43	16346.55
434.637	15900.09
434.844	16995.75
435.052	17208.74
435.259	17331.62
435.466	17208.74
435.673	17124.77
435.88	18163.09
436.087	19158.41
436.294	19281.28
436.501	19041.67
436.708	19162.5
436.915	19856.76
437.122	20718.96
437.329	20694.38
437.537	21556.58
437.743	21757.28
437.95	21564.77
438.157	22670.67
438.364	23444.8
438.571	23147.85
438.778	23659.84
438.985	25654.56
439.192	24622.39
439.399	25378.09
439.606	24722.74
439.813	26621.2
440.02	27757.83
440.227	27305.23
440.433	27254.03
440.64	28136.7
440.847	28077.31
441.054	28624.12
441.261	30477.53
441.467	30160.09
441.674	30885.08
441.881	31589.58
442.088	31634.63
442.294	31554.76
442.501	32435.39
442.708	33268.91
442.914	34245.79
443.121	35574.92
443.328	34309.28
443.534	37129.33
443.741	35910.79
443.948	35681.42
444.154	38376.55
444.361	38057.06
444.568	38095.97
444.774	38095.97
444.981	38929.5
445.187	39611.47
445.394	41589.81
445.6	40307.78
445.807	44149.77
446.013	42548.26
446.22	43449.36
446.426	45235.19
446.633	45235.19
446.839	47074.27
447.046	45263.86
447.252	47326.17
447.459	47373.27
447.665	47549.4
447.871	49613.75
448.078	51704.73
448.284	49529.78
448.491	50406.31
448.697	52659.08
448.903	53449.6
449.11	53494.65
449.316	53164.93
449.522	53670.78
449.728	54817.64
449.935	55657.31
450.141	55255.9
450.347	56421.2
450.553	54762.34
450.76	55796.57
450.966	57330.5
451.172	56734.54
451.378	58143.54
451.584	56927.05
451.791	58198.83
451.997	58047.28
452.203	58553.13
452.409	58917.67
452.615	58671.92
452.821	56386.38
453.027	56005.46
453.233	58905.38
453.44	57029.44
453.646	57922.36
453.852	57705.27
454.058	58663.72
454.264	57025.35
454.47	57799.48
454.676	56572.75
454.882	58536.75
455.088	53627.77
455.294	54485.87
455.5	55446.36
455.705	55661.4
455.911	53570.43
456.117	52628.36
456.323	52269.97
456.529	49556.41
456.735	51692.44
456.941	50295.72
457.147	49449.91
457.352	48190.41
457.558	47322.07
457.764	47608.79
457.97	46638.05
458.176	46052.33
458.381	45888.49
458.587	43244.57
458.793	43611.15
458.999	41479.22
459.204	44624.9
459.41	43349.01
459.616	40508.48
459.821	40141.89
460.027	39750.73
460.233	39257.17
460.438	37696.62
460.644	37983.34
460.85	36078.72
461.055	35806.34
461.261	35468.43
461.466	33270.96
461.672	32111.81
461.878	34268.32
462.083	31966.4
462.289	31505.61
462.494	30903.51
462.7	29603.05
462.905	28959.98
463.111	29928.67
463.316	30029.02
463.522	29627.62
463.727	29367.53
463.932	29209.84
464.138	28769.52
464.343	29207.79
464.549	28101.89
464.754	28974.32
464.959	28800.24
465.165	28957.94
465.37	27530.5
465.575	26809.62
465.781	28296.44
465.986	27962.62
466.191	27163.92
466.397	26641.68
