Data from USB4F104151__0__12-40-51-013.txt Node

Date: Fri Mar 14 12:40:51 EDT 2025
User: louis
Spectrometer: USB4F10415
Trigger mode: 4
Integration Time (sec): 3.000000E-2
Scans to average: 1
Electric dark correction enabled: true
Nonlinearity correction enabled: false
Boxcar width: 0
XAxis mode: Wavelengths
Number of Pixels in Spectrum: 3648
>>>>>Begin Spectral Data<<<<<
178.204	-113.15
178.424	-113.15
178.644	-113.15
178.864	-109.05
179.084	-107.01
179.304	-37.38
179.524	-2.56
179.744	15.87
179.964	52.74
180.184	-39.42
180.404	13.82
180.624	22.02
180.844	13.82
181.064	-14.85
181.283	-0.51
181.503	-94.72
181.723	71.17
181.943	-18.94
182.163	30.21
182.383	-27.14
182.602	89.6
182.822	75.26
183.042	32.26
183.262	44.54
183.482	9.73
183.701	-12.8
183.921	11.78
184.141	15.87
184.361	58.88
184.58	28.16
184.8	-0.51
185.02	22.02
185.239	99.84
185.459	26.11
185.679	75.26
185.898	32.26
186.118	126.46
186.338	11.78
186.557	13.82
186.777	36.35
186.997	-33.28
187.216	26.11
187.436	132.61
187.655	79.36
187.875	50.69
188.095	26.11
188.314	69.12
188.534	48.64
188.753	-14.85
188.973	75.26
189.192	38.4
189.412	50.69
189.631	15.87
189.851	93.69
190.07	48.64
190.29	71.17
190.509	38.4
190.729	-43.52
190.948	112.13
191.168	73.21
191.387	3.58
191.607	40.45
191.826	26.11
192.045	-16.9
192.265	40.45
192.484	75.26
192.704	85.5
192.923	13.82
193.142	138.75
193.362	-25.09
193.581	132.61
193.8	40.45
194.02	79.36
194.239	46.59
194.458	60.93
194.678	1.54
194.897	-33.28
195.116	15.87
195.335	62.98
195.555	54.78
195.774	65.02
195.993	40.45
196.212	-39.42
196.432	30.21
196.651	65.02
196.87	67.07
197.089	69.12
197.308	69.12
197.528	-20.99
197.747	-23.04
197.966	62.98
198.185	95.74
198.404	-23.04
198.623	69.12
198.842	89.6
199.062	9.73
199.281	28.16
199.5	-43.52
199.719	-61.95
199.938	83.45
200.157	79.36
200.376	15.87
200.595	103.93
200.814	1.54
201.033	30.21
201.252	46.59
201.471	38.4
201.69	50.69
201.909	69.12
202.128	9.73
202.347	67.07
202.566	7.68
202.785	28.16
203.004	15.87
203.223	28.16
203.442	42.5
203.661	13.82
203.879	-18.94
204.098	87.55
204.317	-94.72
204.536	56.83
204.755	87.55
204.974	15.87
205.193	-25.09
205.411	101.89
205.63	50.69
205.849	5.63
206.068	13.82
206.287	9.73
206.505	13.82
206.724	28.16
206.943	-12.8
207.162	17.92
207.381	108.03
207.599	101.89
207.818	114.17
208.037	40.45
208.255	24.06
208.474	52.74
208.693	62.98
208.911	71.17
209.13	67.07
209.349	32.26
209.567	28.16
209.786	95.74
210.005	40.45
210.223	40.45
210.442	9.73
210.661	71.17
210.879	38.4
211.098	19.97
211.316	19.97
211.535	71.17
211.753	-6.66
211.972	13.82
212.191	34.3
212.409	54.78
212.628	-6.66
212.846	-39.42
213.065	-25.09
213.283	114.17
213.502	34.3
213.72	60.93
213.938	60.93
214.157	95.74
214.375	24.06
214.594	30.21
214.812	91.65
215.031	28.16
215.249	-10.75
215.467	15.87
215.686	58.88
215.904	73.21
216.122	62.98
216.341	22.02
216.559	110.08
216.778	99.84
216.996	28.16
217.214	5.63
217.432	58.88
217.651	3.58
217.869	99.84
218.087	19.97
218.306	34.3
218.524	50.69
218.742	-25.09
218.96	9.73
219.179	-18.94
219.397	22.02
219.615	83.45
219.833	44.54
220.051	11.78
220.27	65.02
220.488	52.74
220.706	-29.18
220.924	79.36
221.142	22.02
221.36	-16.9
221.578	46.59
221.796	-2.56
222.015	50.69
222.233	-14.85
222.451	58.88
222.669	26.11
222.887	46.59
223.105	85.5
223.323	26.11
223.541	7.68
223.759	5.63
223.977	46.59
224.195	151.04
224.413	-12.8
224.631	38.4
224.849	52.74
225.067	89.6
225.285	79.36
225.503	-20.99
225.721	-27.14
225.939	71.17
226.157	-23.04
226.375	144.89
226.592	-2.56
226.81	22.02
227.028	17.92
227.246	144.89
227.464	69.12
227.682	81.41
227.9	62.98
228.117	69.12
228.335	46.59
228.553	28.16
228.771	48.64
228.989	81.41
229.206	77.31
229.424	36.35
229.642	77.31
229.86	-31.23
230.077	54.78
230.295	26.11
230.513	97.79
230.731	34.3
230.948	97.79
231.166	65.02
231.384	-16.9
231.601	34.3
231.819	77.31
232.037	32.26
232.254	30.21
232.472	-41.47
232.689	5.63
232.907	81.41
233.125	54.78
233.342	-41.47
233.56	9.73
233.777	11.78
233.995	34.3
234.213	67.07
234.43	71.17
234.648	48.64
234.865	44.54
235.083	60.93
235.3	105.98
235.518	77.31
235.735	81.41
235.953	65.02
236.17	19.97
236.388	13.82
236.605	17.92
236.822	105.98
237.04	34.3
237.257	140.8
237.475	36.35
237.692	-18.94
237.909	42.5
238.127	-20.99
238.344	50.69
238.562	67.07
238.779	-23.04
238.996	5.63
239.214	-14.85
239.431	136.7
239.648	46.59
239.865	50.69
240.083	-20.99
240.3	-20.99
240.517	17.92
240.735	11.78
240.952	56.83
241.169	56.83
241.386	38.4
241.603	71.17
241.821	-43.52
242.038	62.98
242.255	60.93
242.472	52.74
242.689	11.78
242.907	75.26
243.124	-10.75
243.341	17.92
243.558	-64
243.775	-14.85
243.992	73.21
244.209	95.74
244.426	134.65
244.643	83.45
244.86	-16.9
245.078	73.21
245.295	103.93
245.512	97.79
245.729	-10.75
245.946	30.21
246.163	97.79
246.38	122.37
246.597	17.92
246.814	3.58
247.031	-18.94
247.248	-12.8
247.464	50.69
247.681	58.88
247.898	103.93
248.115	15.87
248.332	69.12
248.549	40.45
248.766	124.41
248.983	13.82
249.2	54.78
249.417	69.12
249.633	-16.9
249.85	50.69
250.067	5.63
250.284	50.69
250.501	-0.51
250.717	75.26
250.934	-31.23
251.151	-6.66
251.368	11.78
251.585	24.06
251.801	97.79
252.018	9.73
252.235	38.4
252.451	22.02
252.668	65.02
252.885	77.31
253.102	46.59
253.318	3.58
253.535	19.97
253.752	42.5
253.968	15.87
254.185	-6.66
254.401	42.5
254.618	-14.85
254.835	1.54
255.051	50.69
255.268	-16.9
255.484	81.41
255.701	26.11
255.917	34.3
256.134	42.5
256.351	93.69
256.567	-41.47
256.784	34.3
257	-27.14
257.217	54.78
257.433	52.74
257.65	67.07
257.866	13.82
258.082	-18.94
258.299	19.97
258.515	9.73
258.732	62.98
258.948	-45.57
259.165	56.83
259.381	50.69
259.597	58.88
259.814	52.74
260.03	42.5
260.246	99.84
260.463	60.93
260.679	46.59
260.895	19.97
261.112	56.83
261.328	-6.66
261.544	1.54
261.761	91.65
261.977	79.36
262.193	-47.62
262.409	28.16
262.626	60.93
262.842	1.54
263.058	-12.8
263.274	-29.18
263.49	52.74
263.707	85.5
263.923	42.5
264.139	-55.81
264.355	99.84
264.571	95.74
264.787	34.3
265.004	122.37
265.22	34.3
265.436	30.21
265.652	24.06
265.868	-31.23
266.084	-20.99
266.3	60.93
266.516	-6.66
266.732	-6.66
266.948	40.45
267.164	-14.85
267.38	73.21
267.596	46.59
267.812	46.59
268.028	-10.75
268.244	62.98
268.46	15.87
268.676	56.83
268.892	81.41
269.108	-29.18
269.324	11.78
269.54	-37.38
269.756	73.21
269.972	-8.7
270.188	38.4
270.403	28.16
270.619	54.78
270.835	38.4
271.051	67.07
271.267	13.82
271.483	-20.99
271.698	-8.7
271.914	13.82
272.13	17.92
272.346	5.63
272.562	36.35
272.777	24.06
272.993	89.6
273.209	26.11
273.425	19.97
273.64	30.21
273.856	167.42
274.072	3.58
274.287	30.21
274.503	36.35
274.719	40.45
274.934	71.17
275.15	1.54
275.366	11.78
275.581	-14.85
275.797	114.17
276.012	-4.61
276.228	50.69
276.444	19.97
276.659	75.26
276.875	67.07
277.09	42.5
277.306	17.92
277.521	34.3
277.737	15.87
277.952	58.88
278.168	15.87
278.383	77.31
278.599	22.02
278.814	67.07
279.03	22.02
279.245	75.26
279.461	69.12
279.676	71.17
279.892	-12.8
280.107	34.3
280.322	9.73
280.538	32.26
280.753	24.06
280.969	83.45
281.184	9.73
281.399	79.36
281.615	13.82
281.83	73.21
282.045	11.78
282.26	-6.66
282.476	26.11
282.691	124.41
282.906	34.3
283.122	40.45
283.337	28.16
283.552	77.31
283.767	5.63
283.983	-0.51
284.198	87.55
284.413	54.78
284.628	1.54
284.843	-0.51
285.058	58.88
285.274	22.02
285.489	-31.23
285.704	52.74
285.919	58.88
286.134	42.5
286.349	58.88
286.564	32.26
286.779	58.88
286.995	67.07
287.21	-20.99
287.425	87.55
287.64	3.58
287.855	38.4
288.07	-4.61
288.285	95.74
288.5	99.84
288.715	81.41
288.93	79.36
289.145	7.68
289.36	19.97
289.575	15.87
289.79	97.79
290.004	-37.38
290.219	67.07
290.434	48.64
290.649	1.54
290.864	46.59
291.079	28.16
291.294	56.83
291.509	-4.61
291.724	-37.38
291.938	-2.56
292.153	-29.18
292.368	58.88
292.583	-4.61
292.798	34.3
293.012	-37.38
293.227	-43.52
293.442	118.27
293.657	73.21
293.871	132.61
294.086	54.78
294.301	73.21
294.516	71.17
294.73	71.17
294.945	-16.9
295.16	-0.51
295.374	52.74
295.589	19.97
295.804	-0.51
296.018	101.89
296.233	110.08
296.447	40.45
296.662	11.78
296.877	52.74
297.091	95.74
297.306	1.54
297.52	9.73
297.735	34.3
297.949	48.64
298.164	13.82
298.378	93.69
298.593	50.69
298.807	81.41
299.022	42.5
299.236	40.45
299.451	91.65
299.665	19.97
299.88	116.22
300.094	1.54
300.309	42.5
300.523	67.07
300.737	1.54
300.952	97.79
301.166	-0.51
301.381	69.12
301.595	26.11
301.809	58.88
302.024	-10.75
302.238	19.97
302.452	81.41
302.667	-37.38
302.881	75.26
303.095	69.12
303.309	50.69
303.524	32.26
303.738	26.11
303.952	-20.99
304.166	22.02
304.381	9.73
304.595	118.27
304.809	-14.85
305.023	116.22
305.237	-2.56
305.452	44.54
305.666	-4.61
305.88	71.17
306.094	28.16
306.308	103.93
306.522	54.78
306.736	52.74
306.95	36.35
307.164	36.35
307.379	-0.51
307.593	73.21
307.807	32.26
308.021	9.73
308.235	13.82
308.449	48.64
308.663	54.78
308.877	114.17
309.091	32.26
309.305	48.64
309.519	24.06
309.733	30.21
309.947	-39.42
310.161	71.17
310.374	26.11
310.588	81.41
310.802	-16.9
311.016	-14.85
311.23	50.69
311.444	-61.95
311.658	75.26
311.872	44.54
312.085	132.61
312.299	83.45
312.513	32.26
312.727	85.5
312.941	19.97
313.154	77.31
313.368	73.21
313.582	30.21
313.796	69.12
314.009	28.16
314.223	85.5
314.437	40.45
314.651	38.4
314.864	116.22
315.078	-8.7
315.292	-0.51
315.505	40.45
315.719	46.59
315.933	60.93
316.146	26.11
316.36	26.11
316.573	67.07
316.787	60.93
317.001	62.98
317.214	38.4
317.428	34.3
317.641	13.82
317.855	32.26
318.068	83.45
318.282	3.58
318.495	93.69
318.709	71.17
318.922	85.5
319.136	99.84
319.349	54.78
319.563	60.93
319.776	120.32
319.99	46.59
320.203	19.97
320.417	5.63
320.63	89.6
320.843	62.98
321.057	79.36
321.27	30.21
321.483	15.87
321.697	97.79
321.91	7.68
322.124	85.5
322.337	-29.18
322.55	60.93
322.763	48.64
322.977	22.02
323.19	-14.85
323.403	30.21
323.617	-41.47
323.83	93.69
324.043	46.59
324.256	7.68
324.469	3.58
324.683	99.84
324.896	79.36
325.109	52.74
325.322	-31.23
325.535	56.83
325.748	-2.56
325.962	-4.61
326.175	42.5
326.388	91.65
326.601	83.45
326.814	91.65
327.027	79.36
327.24	83.45
327.453	22.02
327.666	46.59
327.879	79.36
328.092	42.5
328.305	56.83
328.518	79.36
328.731	93.69
328.944	73.21
329.157	26.11
329.37	1.54
329.583	50.69
329.796	71.17
330.009	15.87
330.222	36.35
330.435	40.45
330.648	81.41
330.861	17.92
331.073	28.16
331.286	148.99
331.499	140.8
331.712	11.78
331.925	-4.61
332.138	50.69
332.35	105.98
332.563	19.97
332.776	38.4
332.989	5.63
333.202	26.11
333.414	83.45
333.627	75.26
333.84	89.6
334.053	17.92
334.265	50.69
334.478	17.92
334.691	65.02
334.903	36.35
335.116	52.74
335.329	46.59
335.541	52.74
335.754	132.61
335.966	26.11
336.179	38.4
336.392	17.92
336.604	79.36
336.817	-2.56
337.029	73.21
337.242	79.36
337.454	60.93
337.667	48.64
337.88	1.54
338.092	97.79
338.305	-53.76
338.517	3.58
338.729	48.64
338.942	83.45
339.154	-6.66
339.367	36.35
339.579	114.17
339.792	17.92
340.004	97.79
340.217	38.4
340.429	17.92
340.641	5.63
340.854	48.64
341.066	67.07
341.278	34.3
341.491	122.37
341.703	52.74
341.915	73.21
342.128	48.64
342.34	7.68
342.552	17.92
342.764	9.73
342.977	83.45
343.189	58.88
343.401	46.59
343.613	3.58
343.826	19.97
344.038	91.65
344.25	85.5
344.462	-8.7
344.674	28.16
344.886	48.64
345.099	118.27
345.311	71.17
345.523	22.02
345.735	52.74
345.947	67.07
346.159	56.83
346.371	11.78
346.583	40.45
346.795	91.65
347.007	99.84
347.219	97.79
347.431	128.51
347.643	11.78
347.855	-23.04
348.067	118.27
348.279	26.11
348.491	56.83
348.703	42.5
348.915	42.5
349.127	-20.99
349.339	69.12
349.551	36.35
349.763	-2.56
349.975	19.97
350.187	62.98
350.399	181.76
350.61	7.68
350.822	52.74
351.034	136.7
351.246	44.54
351.458	50.69
351.669	3.58
351.881	48.64
352.093	114.17
352.305	175.61
352.517	114.17
352.728	108.03
352.94	32.26
353.152	-18.94
353.363	34.3
353.575	124.41
353.787	69.12
353.999	142.85
354.21	87.55
354.422	13.82
354.633	38.4
354.845	5.63
355.057	89.6
355.268	81.41
355.48	17.92
355.692	-45.57
355.903	-18.94
356.115	62.98
356.326	-27.14
356.538	108.03
356.749	77.31
356.961	148.99
357.172	112.13
357.384	34.3
357.595	220.67
357.807	30.21
358.018	1.54
358.23	56.83
358.441	116.22
358.653	126.46
358.864	32.26
359.075	-47.62
359.287	79.36
359.498	79.36
359.709	38.4
359.921	-4.61
360.132	69.12
360.344	120.32
360.555	52.74
360.766	46.59
360.977	99.84
361.189	71.17
361.4	65.02
361.611	79.36
361.823	54.78
362.034	110.08
362.245	11.78
362.456	79.36
362.667	110.08
362.879	132.61
363.09	44.54
363.301	69.12
363.512	13.82
363.723	24.06
363.935	34.3
364.146	77.31
364.357	15.87
364.568	112.13
364.779	1.54
364.99	122.37
365.201	36.35
365.412	81.41
365.623	-2.56
365.834	22.02
366.045	93.69
366.256	-45.57
366.467	69.12
366.678	71.17
366.889	-14.85
367.1	40.45
367.311	46.59
367.522	44.54
367.733	36.35
367.944	67.07
368.155	69.12
368.366	130.56
368.577	124.41
368.788	87.55
368.999	50.69
369.209	50.69
369.42	144.89
369.631	108.03
369.842	52.74
370.053	91.65
370.264	110.08
370.474	87.55
370.685	28.16
370.896	-6.66
371.107	138.75
371.317	103.93
371.528	95.74
371.739	67.07
371.95	71.17
372.16	50.69
372.371	110.08
372.582	122.37
372.792	48.64
373.003	130.56
373.214	138.75
373.424	62.98
373.635	62.98
373.846	167.42
374.056	42.5
374.267	46.59
374.477	26.11
374.688	50.69
374.898	77.31
375.109	54.78
375.319	128.51
375.53	91.65
375.74	40.45
375.951	148.99
376.161	103.93
376.372	87.55
376.582	114.17
376.793	71.17
377.003	42.5
377.214	65.02
377.424	99.84
377.635	69.12
377.845	75.26
378.055	69.12
378.266	11.78
378.476	13.82
378.686	-0.51
378.897	26.11
379.107	79.36
379.317	24.06
379.528	77.31
379.738	62.98
379.948	50.69
380.158	118.27
380.369	108.03
380.579	58.88
380.789	-74.24
380.999	110.08
381.21	89.6
381.42	56.83
381.63	124.41
381.84	77.31
382.05	118.27
382.261	87.55
382.471	69.12
382.681	103.93
382.891	112.13
383.101	83.45
383.311	67.07
383.521	67.07
383.731	62.98
383.941	99.84
384.151	52.74
384.361	77.31
384.571	54.78
384.781	103.93
384.991	60.93
385.201	132.61
385.411	73.21
385.621	69.12
385.831	69.12
386.041	62.98
386.251	122.37
386.461	91.65
386.671	93.69
386.881	132.61
387.091	71.17
387.301	120.32
387.511	126.46
387.72	30.21
387.93	116.22
388.14	58.88
388.35	22.02
388.56	95.74
388.769	155.13
388.979	40.45
389.189	46.59
389.399	-12.8
389.609	120.32
389.818	17.92
390.028	44.54
390.238	171.52
390.447	26.11
390.657	122.37
390.867	93.69
391.076	9.73
391.286	112.13
391.496	69.12
391.705	54.78
391.915	151.04
392.125	40.45
392.334	77.31
392.544	75.26
392.753	81.41
392.963	1.54
393.172	17.92
393.382	81.41
393.591	155.13
393.801	120.32
394.01	220.67
394.22	114.17
394.429	134.65
394.639	69.12
394.848	103.93
395.058	118.27
395.267	112.13
395.477	163.33
395.686	118.27
395.895	138.75
396.105	255.48
396.314	105.98
396.524	79.36
396.733	120.32
396.942	67.07
397.152	138.75
397.361	192
397.57	89.6
397.78	87.55
397.989	165.37
398.198	148.99
398.407	97.79
398.617	194.05
398.826	112.13
399.035	157.18
399.244	198.14
399.453	124.41
399.663	58.88
399.872	163.33
400.081	75.26
400.29	77.31
400.499	36.35
400.708	110.08
400.917	142.85
401.127	159.23
401.336	112.13
401.545	251.39
401.754	212.48
401.963	142.85
402.172	146.94
402.381	144.89
402.59	177.66
402.799	144.89
403.008	140.8
403.217	124.41
403.426	165.37
403.635	155.13
403.844	235
404.053	200.19
404.262	124.41
404.471	243.2
404.68	226.81
404.888	243.2
405.097	155.13
405.306	198.14
405.515	218.62
405.724	232.96
405.933	216.57
406.142	198.14
406.35	192
406.559	265.72
406.768	210.43
406.977	261.63
407.185	255.48
407.394	286.2
407.603	243.2
407.812	290.3
408.02	306.68
408.229	304.64
408.438	280.06
408.646	325.12
408.855	380.41
409.064	306.68
409.272	327.16
409.481	402.94
409.69	384.51
409.898	331.26
410.107	384.51
410.315	439.8
410.524	390.65
410.733	392.7
410.941	384.51
411.15	497.14
411.358	464.38
411.567	531.96
411.775	542.2
411.984	548.34
412.192	595.45
412.401	599.54
412.609	712.18
412.818	654.84
413.026	703.99
413.234	685.56
413.443	675.32
413.651	624.12
413.86	693.75
414.068	806.39
414.276	812.53
414.485	812.53
414.693	835.06
414.901	884.21
415.11	814.58
415.318	910.83
415.526	978.42
415.734	970.23
415.943	1078.77
416.151	1115.63
416.359	1060.34
416.567	1117.68
416.776	1091.06
416.984	1181.17
417.192	1232.37
417.4	1207.79
417.608	1314.28
417.817	1353.2
418.025	1484.27
418.233	1582.57
418.441	1467.88
418.649	1517.03
418.857	1795.56
419.065	1678.82
419.273	1754.6
419.481	1785.32
419.689	1893.86
419.897	2035.17
420.105	1994.21
420.313	1969.63
420.521	2055.65
420.729	2090.46
420.937	2248.16
421.145	2311.64
421.353	2285.02
421.561	2584.02
421.769	2491.87
421.977	2624.98
422.185	2647.51
422.393	2797.01
422.601	2948.56
422.809	2807.25
423.017	3175.89
423.224	3102.16
423.432	3200.46
423.64	3169.74
423.848	3556.81
424.056	3419.6
424.263	3646.92
424.471	3665.35
424.679	3818.95
424.887	4015.55
425.094	4257.22
425.302	4189.63
425.51	4279.74
425.718	4474.3
425.925	4595.13
426.133	4695.48
426.341	5017.01
426.548	5053.87
426.756	5070.26
426.964	5281.2
427.171	5442.99
427.379	5725.61
427.586	5619.11
427.794	5864.87
428.001	6188.45
428.209	6458.78
428.417	6325.66
428.624	6860.18
428.832	6776.22
429.039	6806.94
429.247	6796.7
429.454	7380.37
429.662	7894.41
429.869	7450
430.076	7896.46
430.284	7777.67
430.491	8113.54
430.699	8494.46
430.906	8416.64
431.114	8693.12
431.321	8904.06
431.528	9266.55
431.736	9721.2
431.943	9950.57
432.15	9831.79
432.358	9915.75
432.565	10554.72
432.772	10536.29
432.979	11023.7
433.187	11124.05
433.394	11201.88
433.601	12092.74
433.808	12100.94
434.016	11883.85
434.223	12578.11
434.43	13204.79
434.637	12791.1
434.844	13983.02
435.052	14142.76
435.259	13878.57
435.466	14079.27
435.673	14062.89
435.88	15002.91
436.087	15686.93
436.294	15740.18
436.501	15219.99
436.708	15496.47
436.915	16106.76
437.122	17036.54
437.329	17001.72
437.537	17411.32
437.743	17624.31
437.95	17534.2
438.157	18109.68
438.364	19270.87
438.571	19006.69
438.778	19141.85
438.985	21023.94
439.192	20085.97
439.399	20870.34
439.606	20233.42
439.813	21363.9
440.02	22910.11
440.227	22564.01
440.433	21966
440.64	22727.85
440.847	22766.76
441.054	23262.37
441.261	24624.26
441.467	24417.42
441.674	25054.34
441.881	25664.63
442.088	25795.7
442.294	25580.67
442.501	26229.87
442.708	26956.9
442.914	27946.07
443.121	29256.77
443.328	28341.33
443.534	30542.89
443.741	29606.97
443.948	29099.08
444.154	31081.51
444.361	30585.9
444.568	31110.18
444.774	31163.43
444.981	31368.23
445.187	32644.11
445.394	33778.68
445.6	33299.46
445.807	36096.99
446.013	35273.7
446.22	36010.97
446.426	36930.51
446.633	37159.88
446.839	39015.34
447.046	37073.87
447.252	39039.92
447.459	38781.87
447.665	38896.56
447.871	40756.11
448.078	42523.51
448.284	40205.21
448.491	41761.67
448.697	43332.46
448.903	43905.89
449.11	43864.93
449.316	43242.35
449.522	44393.31
449.728	45400.91
449.935	45708.1
450.141	45427.53
450.347	46885.68
450.553	44888.92
450.76	45732.68
450.966	47078.19
451.172	46523.19
451.378	48063.27
451.584	46861.11
451.791	47913.76
451.997	47999.78
452.203	48646.94
452.409	49017.62
452.615	48706.33
452.821	47219.5
453.027	46465.85
453.233	48919.32
453.44	47108.91
453.646	47149.87
453.852	47727.4
454.058	48241.44
454.264	47391.53
454.47	47985.44
454.676	46842.68
454.882	48206.62
455.088	44282.72
455.294	44755.8
455.5	45396.81
455.705	46211.9
455.911	44565.34
456.117	43262.83
456.323	42640.25
456.529	40547.22
456.735	42451.83
456.941	41384.84
457.147	40469.4
457.352	39353.26
457.558	39127.98
457.764	39074.73
457.97	38548.4
458.176	37372.87
458.381	37538.76
458.587	36037.59
458.793	35832.8
458.999	34036.73
459.204	36621.27
459.41	35191.78
459.616	33195.01
459.821	32973.83
460.027	33229.83
460.233	32637.97
460.438	30596.14
460.644	31104.04
460.85	29774.91
461.055	29127.75
461.261	29080.64
461.466	26782.82
461.672	26285.17
461.878	28138.58
462.083	26528.88
462.289	25644.15
462.494	25529.47
462.7	24351.88
462.905	23710.87
463.111	24550.54
463.316	24644.74
463.522	24056.98
463.727	24216.72
463.932	23829.65
464.138	23936.15
464.343	23751.83
464.549	23094.43
464.754	23809.17
464.959	23508.12
465.165	23504.03
465.37	22326.44
465.575	22133.93
465.781	23069.86
465.986	23098.53
466.191	22041.78
466.397	21603.51
466.602	20591.81
466.807	21480.63
467.012	21488.82
