Data from USB4F104151__62__12-42-02-059.txt Node

Date: Fri Mar 14 12:42:02 EDT 2025
User: louis
Spectrometer: USB4F10415
Trigger mode: 4
Integration Time (sec): 3.000000E-2
Scans to average: 1
Electric dark correction enabled: true
Nonlinearity correction enabled: false
Boxcar width: 0
XAxis mode: Wavelengths
Number of Pixels in Spectrum: 3648
>>>>>Begin Spectral Data<<<<<
178.204	-141.82
178.424	-141.82
178.644	-141.82
178.864	-123.39
179.084	-227.84
179.304	-61.95
179.524	-27.14
179.744	3.58
179.964	105.98
180.184	-51.71
180.404	-0.51
180.624	11.78
180.844	48.64
181.064	-61.95
181.283	44.54
181.503	-37.38
181.723	26.11
181.943	30.21
182.163	40.45
182.383	-31.23
182.602	26.11
182.822	24.06
183.042	44.54
183.262	-18.94
183.482	13.82
183.701	1.54
183.921	22.02
184.141	-31.23
184.361	32.26
184.58	5.63
184.8	-33.28
185.02	-20.99
185.239	34.3
185.459	112.13
185.679	83.45
185.898	-45.57
186.118	11.78
186.338	-18.94
186.557	15.87
186.777	15.87
186.997	-10.75
187.216	24.06
187.436	32.26
187.655	-6.66
187.875	79.36
188.095	85.5
188.314	97.79
188.534	99.84
188.753	-41.47
188.973	30.21
189.192	5.63
189.412	17.92
189.631	34.3
189.851	-4.61
190.07	65.02
190.29	38.4
190.509	13.82
190.729	-59.9
190.948	60.93
191.168	128.51
191.387	-16.9
191.607	15.87
191.826	-6.66
192.045	58.88
192.265	5.63
192.484	17.92
192.704	32.26
192.923	32.26
193.142	122.37
193.362	46.59
193.581	44.54
193.8	69.12
194.02	40.45
194.239	9.73
194.458	22.02
194.678	-12.8
194.897	-53.76
195.116	-27.14
195.335	-29.18
195.555	-6.66
195.774	-31.23
195.993	28.16
196.212	71.17
196.432	-27.14
196.651	34.3
196.87	-49.66
197.089	83.45
197.308	13.82
197.528	97.79
197.747	-33.28
197.966	-0.51
198.185	24.06
198.404	30.21
198.623	-47.62
198.842	19.97
199.062	-20.99
199.281	71.17
199.5	-41.47
199.719	42.5
199.938	32.26
200.157	-0.51
200.376	-0.51
200.595	75.26
200.814	-27.14
201.033	-39.42
201.252	112.13
201.471	22.02
201.69	85.5
201.909	13.82
202.128	62.98
202.347	34.3
202.566	-0.51
202.785	48.64
203.004	-70.14
203.223	28.16
203.442	38.4
203.661	-33.28
203.879	122.37
204.098	46.59
204.317	-64
204.536	101.89
204.755	1.54
204.974	-39.42
205.193	44.54
205.411	62.98
205.63	-47.62
205.849	73.21
206.068	-6.66
206.287	75.26
206.505	-84.48
206.724	5.63
206.943	52.74
207.162	-25.09
207.381	-2.56
207.599	9.73
207.818	32.26
208.037	-53.76
208.255	-66.05
208.474	151.04
208.693	-4.61
208.911	9.73
209.13	-12.8
209.349	40.45
209.567	24.06
209.786	58.88
210.005	-14.85
210.223	-0.51
210.442	-33.28
210.661	56.83
210.879	-51.71
211.098	52.74
211.316	-0.51
211.535	60.93
211.753	-20.99
211.972	32.26
212.191	-20.99
212.409	-8.7
212.628	19.97
212.846	-14.85
213.065	15.87
213.283	101.89
213.502	-47.62
213.72	-33.28
213.938	32.26
214.157	-33.28
214.375	15.87
214.594	118.27
214.812	26.11
215.031	73.21
215.249	-25.09
215.467	48.64
215.686	-14.85
215.904	-33.28
216.122	42.5
216.341	75.26
216.559	26.11
216.778	38.4
216.996	79.36
217.214	15.87
217.432	-37.38
217.651	-27.14
217.869	69.12
218.087	-10.75
218.306	-29.18
218.524	13.82
218.742	9.73
218.96	42.5
219.179	73.21
219.397	-16.9
219.615	85.5
219.833	36.35
220.051	15.87
220.27	-14.85
220.488	36.35
220.706	46.59
220.924	-39.42
221.142	24.06
221.36	22.02
221.578	83.45
221.796	-27.14
222.015	-20.99
222.233	52.74
222.451	32.26
222.669	-55.81
222.887	44.54
223.105	19.97
223.323	34.3
223.541	-37.38
223.759	42.5
223.977	-66.05
224.195	32.26
224.413	-14.85
224.631	-41.47
224.849	32.26
225.067	52.74
225.285	15.87
225.503	54.78
225.721	-10.75
225.939	-53.76
226.157	17.92
226.375	91.65
226.592	1.54
226.81	9.73
227.028	95.74
227.246	108.03
227.464	-31.23
227.682	114.17
227.9	5.63
228.117	19.97
228.335	-35.33
228.553	-72.19
228.771	13.82
228.989	-0.51
229.206	-0.51
229.424	-6.66
229.642	-39.42
229.86	52.74
230.077	52.74
230.295	-27.14
230.513	52.74
230.731	52.74
230.948	42.5
231.166	69.12
231.384	-0.51
231.601	52.74
231.819	36.35
232.037	-47.62
232.254	-25.09
232.472	-14.85
232.689	-6.66
232.907	11.78
233.125	-2.56
233.342	75.26
233.56	-57.86
233.777	-0.51
233.995	15.87
234.213	-2.56
234.43	48.64
234.648	-4.61
234.865	-0.51
235.083	81.41
235.3	-10.75
235.518	17.92
235.735	77.31
235.953	99.84
236.17	-25.09
236.388	-4.61
236.605	5.63
236.822	17.92
237.04	-14.85
237.257	13.82
237.475	-45.57
237.692	32.26
237.909	-10.75
238.127	-20.99
238.344	56.83
238.562	-39.42
238.779	-16.9
238.996	-23.04
239.214	30.21
239.431	50.69
239.648	-10.75
239.865	-8.7
240.083	24.06
240.3	-6.66
240.517	13.82
240.735	103.93
240.952	30.21
241.169	79.36
241.386	44.54
241.603	1.54
241.821	-25.09
242.038	52.74
242.255	17.92
242.472	-2.56
242.689	1.54
242.907	-18.94
243.124	32.26
243.341	5.63
243.558	-57.86
243.775	-61.95
243.992	-47.62
244.209	30.21
244.426	89.6
244.643	58.88
244.86	-23.04
245.078	56.83
245.295	22.02
245.512	26.11
245.729	-16.9
245.946	-64
246.163	32.26
246.38	58.88
246.597	5.63
246.814	13.82
247.031	-6.66
247.248	52.74
247.464	-12.8
247.681	7.68
247.898	-0.51
248.115	-0.51
248.332	-10.75
248.549	36.35
248.766	24.06
248.983	-33.28
249.2	-29.18
249.417	46.59
249.633	7.68
249.85	-8.7
250.067	-4.61
250.284	-53.76
250.501	15.87
250.717	99.84
250.934	15.87
251.151	15.87
251.368	3.58
251.585	28.16
251.801	50.69
252.018	34.3
252.235	77.31
252.451	-27.14
252.668	-0.51
252.885	50.69
253.102	-2.56
253.318	22.02
253.535	-35.33
253.752	-72.19
253.968	7.68
254.185	-92.67
254.401	7.68
254.618	30.21
254.835	15.87
255.051	48.64
255.268	32.26
255.484	1.54
255.701	-20.99
255.917	11.78
256.134	-51.71
256.351	-2.56
256.567	26.11
256.784	116.22
257	-10.75
257.217	13.82
257.433	42.5
257.65	-33.28
257.866	48.64
258.082	48.64
258.299	-51.71
258.515	110.08
258.732	-14.85
258.948	17.92
259.165	3.58
259.381	7.68
259.597	28.16
259.814	-86.53
260.03	77.31
260.246	-18.94
260.463	128.51
260.679	48.64
260.895	46.59
261.112	46.59
261.328	-2.56
261.544	60.93
261.761	30.21
261.977	5.63
262.193	1.54
262.409	112.13
262.626	40.45
262.842	87.55
263.058	-66.05
263.274	62.98
263.49	5.63
263.707	34.3
263.923	-6.66
264.139	-104.96
264.355	15.87
264.571	30.21
264.787	34.3
265.004	87.55
265.22	-2.56
265.436	-18.94
265.652	36.35
265.868	-25.09
266.084	9.73
266.3	-27.14
266.516	-61.95
266.732	32.26
266.948	-10.75
267.164	-51.71
267.38	19.97
267.596	50.69
267.812	130.56
268.028	58.88
268.244	-16.9
268.46	15.87
268.676	5.63
268.892	46.59
269.108	7.68
269.324	9.73
269.54	40.45
269.756	81.41
269.972	-20.99
270.188	-2.56
270.403	11.78
270.619	1.54
270.835	13.82
271.051	17.92
271.267	-37.38
271.483	-6.66
271.698	26.11
271.914	75.26
272.13	-53.76
272.346	5.63
272.562	-33.28
272.777	7.68
272.993	-29.18
273.209	-18.94
273.425	-25.09
273.64	-20.99
273.856	71.17
274.072	5.63
274.287	26.11
274.503	44.54
274.719	-16.9
274.934	19.97
275.15	3.58
275.366	-2.56
275.581	-14.85
275.797	-31.23
276.012	67.07
276.228	-8.7
276.444	-35.33
276.659	-0.51
276.875	-35.33
277.09	-14.85
277.306	-102.91
277.521	44.54
277.737	67.07
277.952	-53.76
278.168	56.83
278.383	-12.8
278.599	79.36
278.814	9.73
279.03	-8.7
279.245	75.26
279.461	32.26
279.676	28.16
279.892	15.87
280.107	1.54
280.322	-33.28
280.538	22.02
280.753	7.68
280.969	38.4
281.184	5.63
281.399	32.26
281.615	26.11
281.83	19.97
282.045	-14.85
282.26	-68.09
282.476	-8.7
282.691	-23.04
282.906	44.54
283.122	-41.47
283.337	87.55
283.552	-23.04
283.767	-74.24
283.983	34.3
284.198	26.11
284.413	42.5
284.628	48.64
284.843	3.58
285.058	38.4
285.274	-2.56
285.489	-53.76
285.704	38.4
285.919	-70.14
286.134	24.06
286.349	-16.9
286.564	-45.57
286.779	32.26
286.995	28.16
287.21	-0.51
287.425	81.41
287.64	48.64
287.855	5.63
288.07	-2.56
288.285	19.97
288.5	-14.85
288.715	67.07
288.93	-18.94
289.145	52.74
289.36	52.74
289.575	-31.23
289.79	140.8
290.004	65.02
290.219	17.92
290.434	-18.94
290.649	-12.8
290.864	7.68
291.079	3.58
291.294	38.4
291.509	17.92
291.724	7.68
291.938	7.68
292.153	32.26
292.368	-20.99
292.583	118.27
292.798	77.31
293.012	24.06
293.227	1.54
293.442	-8.7
293.657	62.98
293.871	48.64
294.086	3.58
294.301	101.89
294.516	48.64
294.73	-20.99
294.945	-37.38
295.16	7.68
295.374	71.17
295.589	52.74
295.804	-0.51
296.018	56.83
296.233	60.93
296.447	7.68
296.662	-10.75
296.877	-51.71
297.091	-16.9
297.306	52.74
297.52	13.82
297.735	5.63
297.949	40.45
298.164	-0.51
298.378	7.68
298.593	13.82
298.807	79.36
299.022	1.54
299.236	-23.04
299.451	-27.14
299.665	54.78
299.88	46.59
300.094	30.21
300.309	62.98
300.523	17.92
300.737	79.36
300.952	9.73
301.166	40.45
301.381	24.06
301.595	50.69
301.809	-8.7
302.024	-14.85
302.238	5.63
302.452	62.98
302.667	38.4
302.881	65.02
303.095	22.02
303.309	-27.14
303.524	11.78
303.738	46.59
303.952	28.16
304.166	62.98
304.381	-31.23
304.595	97.79
304.809	-2.56
305.023	50.69
305.237	1.54
305.452	3.58
305.666	-8.7
305.88	105.98
306.094	9.73
306.308	-37.38
306.522	79.36
306.736	9.73
306.95	44.54
307.164	-25.09
307.379	22.02
307.593	60.93
307.807	32.26
308.021	46.59
308.235	91.65
308.449	34.3
308.663	5.63
308.877	87.55
309.091	56.83
309.305	89.6
309.519	-41.47
309.733	22.02
309.947	-88.57
310.161	32.26
310.374	67.07
310.588	44.54
310.802	3.58
311.016	62.98
311.23	58.88
311.444	58.88
311.658	-0.51
311.872	19.97
312.085	24.06
312.299	110.08
312.513	73.21
312.727	15.87
312.941	32.26
313.154	9.73
313.368	22.02
313.582	15.87
313.796	-8.7
314.009	105.98
314.223	38.4
314.437	17.92
314.651	83.45
314.864	13.82
315.078	-31.23
315.292	3.58
315.505	26.11
315.719	114.17
315.933	-14.85
316.146	5.63
316.36	5.63
316.573	97.79
316.787	-29.18
317.001	56.83
317.214	-39.42
317.428	38.4
317.641	24.06
317.855	-47.62
318.068	-25.09
318.282	93.69
318.495	79.36
318.709	-2.56
318.922	-43.52
319.136	44.54
319.349	56.83
319.563	1.54
319.776	-6.66
319.99	56.83
320.203	48.64
320.417	-29.18
320.63	95.74
320.843	130.56
321.057	85.5
321.27	-109.05
321.483	54.78
321.697	11.78
321.91	15.87
322.124	32.26
322.337	103.93
322.55	-8.7
322.763	11.78
322.977	-10.75
323.19	3.58
323.403	5.63
323.617	-6.66
323.83	50.69
324.043	48.64
324.256	32.26
324.469	-33.28
324.683	26.11
324.896	95.74
325.109	1.54
325.322	5.63
325.535	44.54
325.748	48.64
325.962	52.74
326.175	-10.75
326.388	7.68
326.601	24.06
326.814	-4.61
327.027	60.93
327.24	79.36
327.453	30.21
327.666	13.82
327.879	54.78
328.092	114.17
328.305	-31.23
328.518	-68.09
328.731	-0.51
328.944	-6.66
329.157	-4.61
329.37	38.4
329.583	122.37
329.796	52.74
330.009	1.54
330.222	105.98
330.435	-12.8
330.648	44.54
330.861	15.87
331.073	62.98
331.286	32.26
331.499	56.83
331.712	56.83
331.925	15.87
332.138	-39.42
332.35	7.68
332.563	-27.14
332.776	77.31
332.989	30.21
333.202	58.88
333.414	30.21
333.627	-18.94
333.84	30.21
334.053	24.06
334.265	13.82
334.478	48.64
334.691	75.26
334.903	40.45
335.116	-16.9
335.329	7.68
335.541	65.02
335.754	95.74
335.966	-35.33
336.179	-68.09
336.392	34.3
336.604	-20.99
336.817	44.54
337.029	91.65
337.242	22.02
337.454	-2.56
337.667	62.98
337.88	46.59
338.092	44.54
338.305	5.63
338.517	34.3
338.729	58.88
338.942	144.89
339.154	9.73
339.367	-45.57
339.579	30.21
339.792	-20.99
340.004	19.97
340.217	-6.66
340.429	15.87
340.641	36.35
340.854	-10.75
341.066	-25.09
341.278	105.98
341.491	-0.51
341.703	17.92
341.915	50.69
342.128	91.65
342.34	-16.9
342.552	-6.66
342.764	81.41
342.977	56.83
343.189	136.7
343.401	42.5
343.613	-37.38
343.826	9.73
344.038	-39.42
344.25	11.78
344.462	38.4
344.674	97.79
344.886	-18.94
345.099	-16.9
345.311	110.08
345.523	15.87
345.735	-51.71
345.947	9.73
346.159	108.03
346.371	81.41
346.583	-74.24
346.795	81.41
347.007	-39.42
347.219	42.5
347.431	42.5
347.643	17.92
347.855	44.54
348.067	11.78
348.279	34.3
348.491	-31.23
348.703	-0.51
348.915	17.92
349.127	19.97
349.339	48.64
349.551	19.97
349.763	40.45
349.975	-20.99
350.187	87.55
350.399	-8.7
350.61	46.59
350.822	7.68
351.034	56.83
351.246	22.02
351.458	-2.56
351.669	91.65
351.881	32.26
352.093	93.69
352.305	-10.75
352.517	5.63
352.728	71.17
352.94	-35.33
353.152	-16.9
353.363	-10.75
353.575	32.26
353.787	83.45
353.999	-6.66
354.21	48.64
354.422	11.78
354.633	50.69
354.845	3.58
355.057	42.5
355.268	32.26
355.48	26.11
355.692	-16.9
355.903	-49.66
356.115	62.98
356.326	-27.14
356.538	-6.66
356.749	-33.28
356.961	62.98
357.172	-20.99
357.384	-61.95
357.595	132.61
357.807	19.97
358.018	11.78
358.23	-2.56
358.441	-8.7
358.653	24.06
358.864	26.11
359.075	50.69
359.287	-8.7
359.498	36.35
359.709	-16.9
359.921	73.21
360.132	32.26
360.344	73.21
360.555	36.35
360.766	32.26
360.977	48.64
361.189	24.06
361.4	-6.66
361.611	19.97
361.823	1.54
362.034	15.87
362.245	3.58
362.456	-18.94
362.667	52.74
362.879	116.22
363.09	26.11
363.301	65.02
363.512	7.68
363.723	15.87
363.935	32.26
364.146	75.26
364.357	17.92
364.568	-14.85
364.779	-20.99
364.99	87.55
365.201	26.11
365.412	17.92
365.623	-2.56
365.834	1.54
366.045	60.93
366.256	65.02
366.467	93.69
366.678	40.45
366.889	108.03
367.1	67.07
367.311	108.03
367.522	19.97
367.733	7.68
367.944	24.06
368.155	-35.33
368.366	17.92
368.577	58.88
368.788	65.02
368.999	-33.28
369.209	7.68
369.42	81.41
369.631	116.22
369.842	28.16
370.053	40.45
370.264	83.45
370.474	-8.7
370.685	40.45
370.896	3.58
371.107	56.83
371.317	46.59
371.528	19.97
371.739	93.69
371.95	-16.9
372.16	-51.71
372.371	28.16
372.582	28.16
372.792	89.6
373.003	71.17
373.214	38.4
373.424	118.27
373.635	7.68
373.846	73.21
374.056	32.26
374.267	97.79
374.477	15.87
374.688	-49.66
374.898	-0.51
375.109	-0.51
375.319	30.21
375.53	40.45
375.74	58.88
375.951	-35.33
376.161	58.88
376.372	97.79
376.582	-31.23
376.793	52.74
377.003	-66.05
377.214	1.54
377.424	32.26
377.635	38.4
377.845	1.54
378.055	34.3
378.266	-12.8
378.476	7.68
378.686	5.63
378.897	56.83
379.107	22.02
379.317	15.87
379.528	62.98
379.738	54.78
379.948	-10.75
380.158	85.5
380.369	60.93
380.579	93.69
380.789	-2.56
380.999	46.59
381.21	42.5
381.42	75.26
381.63	91.65
381.84	58.88
382.05	60.93
382.261	101.89
382.471	60.93
382.681	73.21
382.891	24.06
383.101	75.26
383.311	-18.94
383.521	28.16
383.731	34.3
383.941	79.36
384.151	28.16
384.361	50.69
384.571	9.73
384.781	77.31
384.991	79.36
385.201	22.02
385.411	108.03
385.621	-20.99
385.831	48.64
386.041	54.78
386.251	32.26
386.461	65.02
386.671	-4.61
386.881	5.63
387.091	85.5
387.301	73.21
387.511	79.36
387.72	13.82
387.93	11.78
388.14	44.54
388.35	67.07
388.56	32.26
388.769	71.17
388.979	-27.14
389.189	77.31
389.399	67.07
389.609	65.02
389.818	40.45
390.028	56.83
390.238	71.17
390.447	-12.8
390.657	24.06
390.867	83.45
391.076	71.17
391.286	122.37
391.496	30.21
391.705	65.02
391.915	44.54
392.125	-33.28
392.334	22.02
392.544	22.02
392.753	44.54
392.963	65.02
393.172	24.06
393.382	83.45
393.591	132.61
393.801	-8.7
394.01	44.54
394.22	44.54
394.429	26.11
394.639	91.65
394.848	-16.9
395.058	101.89
395.267	-39.42
395.477	75.26
395.686	114.17
395.895	91.65
396.105	89.6
396.314	83.45
396.524	-16.9
396.733	56.83
396.942	67.07
397.152	118.27
397.361	110.08
397.57	124.41
397.78	19.97
397.989	110.08
398.198	54.78
398.407	15.87
398.617	81.41
398.826	101.89
399.035	56.83
399.244	71.17
399.453	60.93
399.663	120.32
399.872	54.78
400.081	138.75
400.29	169.47
400.499	48.64
400.708	155.13
400.917	26.11
401.127	93.69
401.336	17.92
401.545	116.22
401.754	175.61
401.963	144.89
402.172	71.17
402.381	22.02
402.59	65.02
402.799	75.26
403.008	13.82
403.217	163.33
403.426	50.69
403.635	124.41
403.844	81.41
404.053	118.27
404.262	140.8
404.471	122.37
404.68	138.75
404.888	153.09
405.097	142.85
405.306	67.07
405.515	187.9
405.724	153.09
405.933	179.71
406.142	165.37
406.35	212.48
406.559	105.98
406.768	200.19
406.977	161.28
407.185	181.76
407.394	232.96
407.603	146.94
407.812	202.24
408.02	208.38
408.229	185.85
408.438	175.61
408.646	134.65
408.855	189.95
409.064	253.44
409.272	241.15
409.481	273.92
409.69	265.72
409.898	185.85
410.107	218.62
410.315	253.44
410.524	192
410.733	282.11
410.941	245.24
411.15	355.83
411.358	341.5
411.567	370.17
411.775	306.68
411.984	431.61
412.192	404.99
412.401	437.75
412.609	458.23
412.818	501.24
413.026	462.33
413.234	464.38
413.443	435.71
413.651	476.66
413.86	511.48
414.068	562.68
414.276	648.69
414.485	568.82
414.693	585.21
414.901	673.27
415.11	695.8
415.318	634.36
415.526	802.29
415.734	806.39
415.943	757.24
416.151	826.87
416.359	814.58
416.567	888.31
416.776	851.44
416.984	867.83
417.192	919.03
417.4	835.06
417.608	972.27
417.817	865.78
418.025	1058.29
418.233	1086.96
418.441	994.8
418.649	1193.45
418.857	1172.97
419.065	1310.19
419.273	1271.28
419.481	1287.66
419.689	1478.12
419.897	1545.7
420.105	1377.77
420.313	1510.89
420.521	1557.99
420.729	1547.75
420.937	1658.34
421.145	1742.31
421.353	1824.23
421.561	1920.48
421.769	1969.63
421.977	2002.4
422.185	2063.84
422.393	2031.07
422.601	2225.63
422.809	2231.77
423.017	2246.11
423.224	2239.97
423.432	2473.43
423.64	2477.53
423.848	2782.68
424.056	2653.66
424.263	2854.36
424.471	2829.78
424.679	2786.77
424.887	3089.87
425.094	3089.87
425.302	3061.2
425.51	3259.85
425.718	3419.6
425.925	3399.12
426.133	3450.32
426.341	3784.13
426.548	3904.96
426.756	3933.64
426.964	3970.5
427.171	4179.39
427.379	4345.28
427.586	4419
427.794	4414.91
428.001	4820.41
428.209	4914.61
428.417	4842.93
428.624	5100.98
428.832	5186.99
429.039	5125.55
429.247	4984.24
429.454	5471.66
429.662	5934.5
429.869	5524.91
430.076	6032.8
430.284	5924.26
430.491	6204.83
430.699	6565.28
430.906	6524.32
431.114	6596
431.321	6747.55
431.528	7042.45
431.736	7292.3
431.943	7640.46
432.15	7566.73
432.358	7710.09
432.565	7998.85
432.772	7943.56
432.979	8285.57
433.187	8516.99
433.394	8562.05
433.601	8934.78
433.808	9127.28
434.016	9024.89
434.223	9389.42
434.43	10100.07
434.637	9839.98
434.844	10411.36
435.052	10700.12
435.259	10587.49
435.466	10937.69
435.673	10464.61
435.88	11134.29
436.087	11973.96
436.294	11863.37
436.501	11666.77
436.708	12119.37
436.915	12033.35
437.122	12838.2
437.329	12614.98
437.537	13249.85
437.743	13391.16
437.95	13432.12
438.157	13907.24
438.364	14411.04
438.571	14302.5
438.778	14423.33
438.985	15977.74
439.192	15267.1
439.399	15684.88
439.606	15250.71
439.813	16264.46
440.02	17442.04
440.227	16993.53
440.433	16735.49
440.64	17362.17
440.847	17208.57
441.054	17370.36
441.261	18918.62
441.467	18834.66
441.674	19158.24
441.881	19707.09
442.088	19809.49
442.294	19342.55
442.501	19903.7
442.708	20604.1
442.914	21198.01
443.121	22062.26
443.328	21482.68
443.534	23022.75
443.741	22123.69
443.948	22342.83
444.154	23698.58
444.361	23403.67
444.568	23964.82
444.774	23757.97
444.981	24065.17
445.187	24743.05
445.394	25302.14
445.6	25525.37
445.807	27835.48
446.013	26571.88
446.22	26813.54
446.426	28247.12
446.633	28435.53
446.839	29551.68
447.046	27905.11
447.252	29506.62
447.459	29606.97
447.665	29467.71
447.871	31036.45
448.078	32543.76
448.284	31159.33
448.491	31677.47
448.697	32861.19
448.903	33369.09
449.11	33131.53
449.316	32777.23
449.522	33528.83
449.728	34251.77
449.935	34829.29
450.141	34876.4
450.347	35572.71
450.553	34327.54
450.76	35118.06
450.966	36471.76
451.172	35607.52
451.378	36537.3
451.584	35716.06
451.791	36930.51
451.997	36586.45
452.203	36983.76
452.409	37483.46
452.615	36975.56
452.821	35877.85
453.027	35257.32
453.233	37166.02
453.44	35752.93
453.646	35922.91
453.852	36287.45
454.058	37280.71
454.264	35920.86
454.47	36475.86
454.676	35609.57
454.882	36783.05
455.088	33805.31
455.294	33930.23
455.5	34827.24
455.705	34829.29
455.911	33928.19
456.117	33141.77
456.323	32517.14
456.529	31349.79
456.735	32400.4
456.941	31474.72
457.147	31038.5
457.352	30055.48
457.558	29705.27
457.764	30102.58
457.97	29193.28
458.176	28597.32
458.381	28462.16
458.587	26965.09
458.793	27298.91
458.999	25883.77
459.204	27671.64
459.41	26743.91
459.616	24632.46
459.821	25154.69
460.027	25164.93
460.233	24243.34
460.438	23225.5
460.644	23860.37
460.85	22516.9
461.055	22166.7
461.261	22160.56
461.466	20597.96
461.672	19934.42
461.878	21228.73
462.083	19664.08
462.289	19371.22
462.494	19262.68
462.7	18316.52
462.905	17847.54
463.111	18717.92
463.316	18578.66
463.522	18087.15
463.727	18183.4
463.932	18164.97
464.138	18095.34
464.343	18138.35
464.549	17374.45
464.754	18160.87
464.959	17820.91
465.165	17898.73
465.37	17272.06
465.575	16508.16
465.781	17288.44
465.986	17433.85
466.191	16798.98
466.397	16723.2
466.602	15736.08
466.807	16305.42
467.012	16368.9
