Data from USB4F104151__46__12-41-38-422.txt Node

Date: Fri Mar 14 12:41:38 EDT 2025
User: louis
Spectrometer: USB4F10415
Trigger mode: 4
Integration Time (sec): 3.000000E-2
Scans to average: 1
Electric dark correction enabled: true
Nonlinearity correction enabled: false
Boxcar width: 0
XAxis mode: Wavelengths
Number of Pixels in Spectrum: 3648
>>>>>Begin Spectral Data<<<<<
178.204	-95.23
178.424	-95.23
178.644	-95.23
178.864	-115.71
179.084	-132.09
179.304	-84.99
179.524	80.89
179.744	17.41
179.964	-3.07
180.184	-1.02
180.404	-31.74
180.624	5.12
180.844	78.85
181.064	-138.24
181.283	-7.17
181.503	3.07
181.723	80.89
181.943	-82.94
182.163	70.65
182.383	23.55
182.602	15.36
182.822	113.66
183.042	62.46
183.262	95.23
183.482	27.65
183.701	15.36
183.921	130.05
184.141	-9.22
184.361	132.09
184.58	41.98
184.8	50.18
185.02	44.03
185.239	52.22
185.459	101.37
185.679	25.6
185.898	5.12
186.118	17.41
186.338	-23.55
186.557	33.79
186.777	109.57
186.997	113.66
187.216	56.32
187.436	66.56
187.655	31.74
187.875	152.57
188.095	-7.17
188.314	70.65
188.534	31.74
188.753	-27.65
188.973	-13.31
189.192	128
189.412	99.33
189.631	97.28
189.851	25.6
190.07	72.7
190.29	89.09
190.509	50.18
190.729	1.02
190.948	3.07
191.168	185.34
191.387	37.89
191.607	48.13
191.826	76.8
192.045	44.03
192.265	56.32
192.484	103.42
192.704	56.32
192.923	-37.89
193.142	105.47
193.362	52.22
193.581	62.46
193.8	-41.98
194.02	46.08
194.239	17.41
194.458	121.85
194.678	-13.31
194.897	17.41
195.116	1.02
195.335	31.74
195.555	35.84
195.774	33.79
195.993	162.81
196.212	101.37
196.432	-7.17
196.651	37.89
196.87	50.18
197.089	60.42
197.308	60.42
197.528	25.6
197.747	-41.98
197.966	80.89
198.185	93.18
198.404	-27.65
198.623	-17.41
198.842	41.98
199.062	58.37
199.281	31.74
199.5	39.94
199.719	80.89
199.938	82.94
200.157	70.65
200.376	84.99
200.595	33.79
200.814	54.27
201.033	29.7
201.252	48.13
201.471	84.99
201.69	107.52
201.909	84.99
202.128	21.5
202.347	41.98
202.566	1.02
202.785	21.5
203.004	58.37
203.223	136.19
203.442	39.94
203.661	37.89
203.879	23.55
204.098	33.79
204.317	35.84
204.536	29.7
204.755	50.18
204.974	31.74
205.193	29.7
205.411	95.23
205.63	13.31
205.849	66.56
206.068	72.7
206.287	35.84
206.505	48.13
206.724	37.89
206.943	29.7
207.162	82.94
207.381	37.89
207.599	35.84
207.818	7.17
208.037	29.7
208.255	13.31
208.474	95.23
208.693	123.9
208.911	50.18
209.13	64.51
209.349	103.42
209.567	84.99
209.786	78.85
210.005	130.05
210.223	64.51
210.442	37.89
210.661	21.5
210.879	-21.5
211.098	17.41
211.316	50.18
211.535	37.89
211.753	19.46
211.972	87.04
212.191	-1.02
212.409	37.89
212.628	39.94
212.846	62.46
213.065	89.09
213.283	78.85
213.502	31.74
213.72	31.74
213.938	62.46
214.157	25.6
214.375	87.04
214.594	5.12
214.812	13.31
215.031	107.52
215.249	3.07
215.467	76.8
215.686	91.13
215.904	19.46
216.122	89.09
216.341	76.8
216.559	66.56
216.778	87.04
216.996	80.89
217.214	64.51
217.432	64.51
217.651	5.12
217.869	119.81
218.087	19.46
218.306	78.85
218.524	95.23
218.742	80.89
218.96	91.13
219.179	58.37
219.397	29.7
219.615	99.33
219.833	46.08
220.051	7.17
220.27	136.19
220.488	19.46
220.706	103.42
220.924	37.89
221.142	29.7
221.36	23.55
221.578	41.98
221.796	41.98
222.015	72.7
222.233	66.56
222.451	64.51
222.669	39.94
222.887	80.89
223.105	-3.07
223.323	68.61
223.541	60.42
223.759	105.47
223.977	48.13
224.195	60.42
224.413	97.28
224.631	101.37
224.849	1.02
225.067	70.65
225.285	56.32
225.503	13.31
225.721	35.84
225.939	97.28
226.157	60.42
226.375	84.99
226.592	27.65
226.81	13.31
227.028	97.28
227.246	50.18
227.464	3.07
227.682	101.37
227.9	39.94
228.117	105.47
228.335	27.65
228.553	19.46
228.771	84.99
228.989	27.65
229.206	60.42
229.424	-3.07
229.642	33.79
229.86	70.65
230.077	44.03
230.295	31.74
230.513	80.89
230.731	134.14
230.948	62.46
231.166	54.27
231.384	19.46
231.601	11.26
231.819	29.7
232.037	31.74
232.254	87.04
232.472	23.55
232.689	13.31
232.907	109.57
233.125	58.37
233.342	33.79
233.56	9.22
233.777	25.6
233.995	60.42
234.213	25.6
234.43	87.04
234.648	41.98
234.865	21.5
235.083	23.55
235.3	19.46
235.518	27.65
235.735	37.89
235.953	74.75
236.17	48.13
236.388	23.55
236.605	52.22
236.822	89.09
237.04	76.8
237.257	19.46
237.475	60.42
237.692	107.52
237.909	60.42
238.127	15.36
238.344	60.42
238.562	95.23
238.779	41.98
238.996	39.94
239.214	17.41
239.431	72.7
239.648	95.23
239.865	89.09
240.083	56.32
240.3	31.74
240.517	-19.46
240.735	17.41
240.952	146.43
241.169	95.23
241.386	44.03
241.603	52.22
241.821	1.02
242.038	72.7
242.255	48.13
242.472	52.22
242.689	109.57
242.907	109.57
243.124	23.55
243.341	25.6
243.558	41.98
243.775	95.23
243.992	78.85
244.209	27.65
244.426	72.7
244.643	125.95
244.86	70.65
245.078	103.42
245.295	130.05
245.512	78.85
245.729	37.89
245.946	95.23
246.163	-5.12
246.38	58.37
246.597	89.09
246.814	128
247.031	3.07
247.248	-3.07
247.464	39.94
247.681	56.32
247.898	78.85
248.115	105.47
248.332	29.7
248.549	130.05
248.766	97.28
248.983	58.37
249.2	70.65
249.417	72.7
249.633	68.61
249.85	136.19
250.067	103.42
250.284	25.6
250.501	113.66
250.717	82.94
250.934	13.31
251.151	19.46
251.368	17.41
251.585	109.57
251.801	48.13
252.018	50.18
252.235	74.75
252.451	50.18
252.668	50.18
252.885	119.81
253.102	39.94
253.318	62.46
253.535	-5.12
253.752	89.09
253.968	41.98
254.185	39.94
254.401	41.98
254.618	105.47
254.835	17.41
255.051	99.33
255.268	58.37
255.484	66.56
255.701	17.41
255.917	128
256.134	138.24
256.351	-21.5
256.567	-29.7
256.784	60.42
257	60.42
257.217	62.46
257.433	21.5
257.65	37.89
257.866	33.79
258.082	44.03
258.299	-17.41
258.515	41.98
258.732	11.26
258.948	-27.65
259.165	15.36
259.381	132.09
259.597	78.85
259.814	111.61
260.03	-1.02
260.246	9.22
260.463	27.65
260.679	95.23
260.895	21.5
261.112	27.65
261.328	68.61
261.544	52.22
261.761	105.47
261.977	27.65
262.193	37.89
262.409	87.04
262.626	78.85
262.842	44.03
263.058	60.42
263.274	52.22
263.49	144.38
263.707	50.18
263.923	99.33
264.139	56.32
264.355	84.99
264.571	97.28
264.787	44.03
265.004	101.37
265.22	68.61
265.436	33.79
265.652	-48.13
265.868	70.65
266.084	39.94
266.3	82.94
266.516	-19.46
266.732	54.27
266.948	80.89
267.164	-3.07
267.38	37.89
267.596	103.42
267.812	80.89
268.028	23.55
268.244	56.32
268.46	111.61
268.676	9.22
268.892	50.18
269.108	-41.98
269.324	41.98
269.54	19.46
269.756	76.8
269.972	-11.26
270.188	117.76
270.403	13.31
270.619	31.74
270.835	64.51
271.051	66.56
271.267	33.79
271.483	68.61
271.698	78.85
271.914	60.42
272.13	-17.41
272.346	9.22
272.562	99.33
272.777	44.03
272.993	35.84
273.209	35.84
273.425	37.89
273.64	-7.17
273.856	50.18
274.072	68.61
274.287	-48.13
274.503	70.65
274.719	87.04
274.934	15.36
275.15	5.12
275.366	76.8
275.581	84.99
275.797	50.18
276.012	17.41
276.228	60.42
276.444	95.23
276.659	23.55
276.875	-7.17
277.09	64.51
277.306	46.08
277.521	89.09
277.737	80.89
277.952	68.61
278.168	50.18
278.383	29.7
278.599	64.51
278.814	29.7
279.03	78.85
279.245	115.71
279.461	99.33
279.676	17.41
279.892	78.85
280.107	-29.7
280.322	56.32
280.538	97.28
280.753	-1.02
280.969	1.02
281.184	76.8
281.399	123.9
281.615	5.12
281.83	97.28
282.045	17.41
282.26	58.37
282.476	119.81
282.691	146.43
282.906	60.42
283.122	115.71
283.337	-3.07
283.552	25.6
283.767	72.7
283.983	64.51
284.198	37.89
284.413	111.61
284.628	31.74
284.843	23.55
285.058	7.17
285.274	54.27
285.489	-9.22
285.704	74.75
285.919	27.65
286.134	37.89
286.349	87.04
286.564	44.03
286.779	171.01
286.995	39.94
287.21	7.17
287.425	78.85
287.64	1.02
287.855	107.52
288.07	17.41
288.285	3.07
288.5	58.37
288.715	128
288.93	27.65
289.145	87.04
289.36	46.08
289.575	66.56
289.79	44.03
290.004	31.74
290.219	56.32
290.434	23.55
290.649	52.22
290.864	62.46
291.079	41.98
291.294	95.23
291.509	31.74
291.724	74.75
291.938	60.42
292.153	95.23
292.368	54.27
292.583	52.22
292.798	78.85
293.012	74.75
293.227	33.79
293.442	-1.02
293.657	-3.07
293.871	211.96
294.086	101.37
294.301	119.81
294.516	78.85
294.73	128
294.945	50.18
295.16	48.13
295.374	46.08
295.589	68.61
295.804	87.04
296.018	23.55
296.233	80.89
296.447	115.71
296.662	-21.5
296.877	-1.02
297.091	64.51
297.306	46.08
297.52	15.36
297.735	39.94
297.949	39.94
298.164	31.74
298.378	-7.17
298.593	-1.02
298.807	39.94
299.022	103.42
299.236	74.75
299.451	82.94
299.665	-44.03
299.88	52.22
300.094	128
300.309	64.51
300.523	29.7
300.737	60.42
300.952	109.57
301.166	31.74
301.381	-9.22
301.595	29.7
301.809	70.65
302.024	113.66
302.238	33.79
302.452	76.8
302.667	70.65
302.881	46.08
303.095	113.66
303.309	39.94
303.524	11.26
303.738	103.42
303.952	11.26
304.166	93.18
304.381	29.7
304.595	111.61
304.809	9.22
305.023	72.7
305.237	-58.37
305.452	60.42
305.666	52.22
305.88	117.76
306.094	93.18
306.308	89.09
306.522	105.47
306.736	64.51
306.95	50.18
307.164	84.99
307.379	31.74
307.593	62.46
307.807	-41.98
308.021	23.55
308.235	60.42
308.449	-3.07
308.663	105.47
308.877	44.03
309.091	91.13
309.305	41.98
309.519	-37.89
309.733	154.62
309.947	54.27
310.161	111.61
310.374	46.08
310.588	121.85
310.802	56.32
311.016	23.55
311.23	80.89
311.444	72.7
311.658	-7.17
311.872	62.46
312.085	56.32
312.299	136.19
312.513	72.7
312.727	132.09
312.941	56.32
313.154	66.56
313.368	74.75
313.582	78.85
313.796	130.05
314.009	62.46
314.223	84.99
314.437	5.12
314.651	5.12
314.864	29.7
315.078	-7.17
315.292	48.13
315.505	31.74
315.719	5.12
315.933	97.28
316.146	27.65
316.36	-9.22
316.573	156.67
316.787	54.27
317.001	29.7
317.214	-48.13
317.428	101.37
317.641	58.37
317.855	21.5
318.068	99.33
318.282	9.22
318.495	148.48
318.709	105.47
318.922	66.56
319.136	87.04
319.349	70.65
319.563	70.65
319.776	58.37
319.99	-3.07
320.203	50.18
320.417	64.51
320.63	48.13
320.843	150.53
321.057	80.89
321.27	103.42
321.483	29.7
321.697	142.33
321.91	84.99
322.124	117.76
322.337	60.42
322.55	-13.31
322.763	62.46
322.977	46.08
323.19	25.6
323.403	27.65
323.617	54.27
323.83	101.37
324.043	21.5
324.256	31.74
324.469	35.84
324.683	128
324.896	35.84
325.109	3.07
325.322	33.79
325.535	62.46
325.748	123.9
325.962	50.18
326.175	125.95
326.388	46.08
326.601	103.42
326.814	37.89
327.027	23.55
327.24	95.23
327.453	23.55
327.666	9.22
327.879	76.8
328.092	25.6
328.305	84.99
328.518	64.51
328.731	60.42
328.944	41.98
329.157	39.94
329.37	-13.31
329.583	119.81
329.796	107.52
330.009	-64.51
330.222	72.7
330.435	31.74
330.648	117.76
330.861	107.52
331.073	68.61
331.286	95.23
331.499	50.18
331.712	11.26
331.925	46.08
332.138	-21.5
332.35	117.76
332.563	87.04
332.776	50.18
332.989	5.12
333.202	76.8
333.414	109.57
333.627	95.23
333.84	-25.6
334.053	68.61
334.265	41.98
334.478	64.51
334.691	103.42
334.903	64.51
335.116	29.7
335.329	56.32
335.541	109.57
335.754	115.71
335.966	15.36
336.179	72.7
336.392	-5.12
336.604	35.84
336.817	93.18
337.029	103.42
337.242	35.84
337.454	64.51
337.667	89.09
337.88	37.89
338.092	37.89
338.305	80.89
338.517	70.65
338.729	62.46
338.942	29.7
339.154	89.09
339.367	35.84
339.579	136.19
339.792	35.84
340.004	52.22
340.217	64.51
340.429	41.98
340.641	82.94
340.854	7.17
341.066	62.46
341.278	78.85
341.491	17.41
341.703	17.41
341.915	66.56
342.128	60.42
342.34	52.22
342.552	17.41
342.764	37.89
342.977	70.65
343.189	84.99
343.401	84.99
343.613	54.27
343.826	64.51
344.038	21.5
344.25	19.46
344.462	35.84
344.674	125.95
344.886	60.42
345.099	78.85
345.311	9.22
345.523	11.26
345.735	78.85
345.947	193.53
346.159	52.22
346.371	35.84
346.583	101.37
346.795	113.66
347.007	41.98
347.219	121.85
347.431	74.75
347.643	56.32
347.855	19.46
348.067	89.09
348.279	52.22
348.491	60.42
348.703	-1.02
348.915	23.55
349.127	33.79
349.339	105.47
349.551	13.31
349.763	74.75
349.975	56.32
350.187	101.37
350.399	132.09
350.61	74.75
350.822	50.18
351.034	19.46
351.246	107.52
351.458	64.51
351.669	-17.41
351.881	128
352.093	117.76
352.305	117.76
352.517	25.6
352.728	84.99
352.94	99.33
353.152	58.37
353.363	56.32
353.575	68.61
353.787	68.61
353.999	25.6
354.21	95.23
354.422	37.89
354.633	7.17
354.845	113.66
355.057	64.51
355.268	84.99
355.48	105.47
355.692	19.46
355.903	66.56
356.115	-13.31
356.326	54.27
356.538	136.19
356.749	17.41
356.961	150.53
357.172	87.04
357.384	27.65
357.595	125.95
357.807	41.98
358.018	29.7
358.23	58.37
358.441	148.48
358.653	52.22
358.864	37.89
359.075	66.56
359.287	64.51
359.498	138.24
359.709	66.56
359.921	15.36
360.132	25.6
360.344	29.7
360.555	19.46
360.766	142.33
360.977	62.46
361.189	105.47
361.4	80.89
361.611	-9.22
361.823	37.89
362.034	95.23
362.245	-1.02
362.456	46.08
362.667	78.85
362.879	99.33
363.09	76.8
363.301	52.22
363.512	105.47
363.723	46.08
363.935	54.27
364.146	119.81
364.357	-25.6
364.568	37.89
364.779	-13.31
364.99	27.65
365.201	46.08
365.412	52.22
365.623	31.74
365.834	-25.6
366.045	107.52
366.256	99.33
366.467	82.94
366.678	39.94
366.889	91.13
367.1	48.13
367.311	130.05
367.522	35.84
367.733	68.61
367.944	173.05
368.155	15.36
368.366	136.19
368.577	33.79
368.788	91.13
368.999	50.18
369.209	152.57
369.42	123.9
369.631	177.15
369.842	68.61
370.053	15.36
370.264	111.61
370.474	25.6
370.685	50.18
370.896	132.09
371.107	35.84
371.317	82.94
371.528	13.31
371.739	54.27
371.95	70.65
372.16	76.8
372.371	25.6
372.582	103.42
372.792	89.09
373.003	121.85
373.214	66.56
373.424	13.31
373.635	62.46
373.846	156.67
374.056	15.36
374.267	39.94
374.477	97.28
374.688	134.14
374.898	48.13
375.109	17.41
375.319	93.18
375.53	46.08
375.74	76.8
375.951	7.17
376.161	101.37
376.372	29.7
376.582	70.65
376.793	140.29
377.003	-21.5
377.214	68.61
377.424	37.89
377.635	66.56
377.845	64.51
378.055	46.08
378.266	48.13
378.476	29.7
378.686	80.89
378.897	68.61
379.107	111.61
379.317	154.62
379.528	-15.36
379.738	117.76
379.948	33.79
380.158	56.32
380.369	113.66
380.579	99.33
380.789	62.46
380.999	78.85
381.21	95.23
381.42	138.24
381.63	-1.02
381.84	97.28
382.05	1.02
382.261	117.76
382.471	121.85
382.681	5.12
382.891	58.37
383.101	64.51
383.311	-1.02
383.521	52.22
383.731	70.65
383.941	117.76
384.151	44.03
384.361	95.23
384.571	29.7
384.781	109.57
384.991	121.85
385.201	136.19
385.411	148.48
385.621	46.08
385.831	134.14
386.041	125.95
386.251	64.51
386.461	93.18
386.671	31.74
386.881	121.85
387.091	107.52
387.301	187.39
387.511	23.55
387.72	107.52
387.93	136.19
388.14	60.42
388.35	117.76
388.56	128
388.769	177.15
388.979	56.32
389.189	56.32
389.399	87.04
389.609	37.89
389.818	115.71
390.028	29.7
390.238	60.42
390.447	84.99
390.657	121.85
390.867	19.46
391.076	58.37
391.286	-25.6
391.496	101.37
391.705	99.33
391.915	160.77
392.125	113.66
392.334	115.71
392.544	128
392.753	70.65
392.963	66.56
393.172	72.7
393.382	64.51
393.591	113.66
393.801	64.51
394.01	162.81
394.22	89.09
394.429	154.62
394.639	56.32
394.848	140.29
395.058	91.13
395.267	82.94
395.477	121.85
395.686	177.15
395.895	74.75
396.105	132.09
396.314	101.37
396.524	187.39
396.733	80.89
396.942	70.65
397.152	177.15
397.361	103.42
397.57	187.39
397.78	41.98
397.989	171.01
398.198	254.97
398.407	64.51
398.617	193.53
398.826	121.85
399.035	121.85
399.244	66.56
399.453	136.19
399.663	125.95
399.872	144.38
400.081	29.7
400.29	183.29
400.499	109.57
400.708	130.05
400.917	119.81
401.127	171.01
401.336	195.58
401.545	150.53
401.754	111.61
401.963	107.52
402.172	33.79
402.381	164.86
402.59	121.85
402.799	82.94
403.008	203.77
403.217	193.53
403.426	111.61
403.635	158.72
403.844	125.95
404.053	211.96
404.262	187.39
404.471	252.92
404.68	128
404.888	199.68
405.097	101.37
405.306	177.15
405.515	66.56
405.724	220.16
405.933	236.54
406.142	216.06
406.35	195.58
406.559	234.49
406.768	199.68
406.977	291.84
407.185	250.88
407.394	250.88
407.603	232.44
407.812	240.64
408.02	218.11
408.229	338.94
408.438	226.3
408.646	248.83
408.855	347.13
409.064	306.17
409.272	257.02
409.481	279.55
409.69	238.59
409.898	334.84
410.107	361.47
410.315	338.94
410.524	265.21
410.733	424.95
410.941	367.61
411.15	406.52
411.358	463.86
411.567	496.63
411.775	510.97
411.984	435.19
412.192	416.76
412.401	488.44
412.609	476.15
412.818	576.5
413.026	547.83
413.234	556.02
413.443	607.22
413.651	500.73
413.86	592.89
414.068	672.76
414.276	652.28
414.485	687.09
414.693	703.48
414.901	719.86
415.11	730.1
415.318	740.34
415.526	740.34
415.734	758.77
415.943	855.03
416.151	947.19
416.359	826.36
416.567	910.32
416.776	877.55
416.984	951.28
417.192	1035.25
417.4	1016.82
417.608	1051.63
417.817	1004.53
418.025	1170.41
418.233	1238
418.441	1229.81
418.649	1301.48
418.857	1344.49
419.065	1391.59
419.273	1379.31
419.481	1428.46
419.689	1512.42
419.897	1598.44
420.105	1688.55
420.313	1672.17
420.521	1627.11
420.729	1823.72
420.937	1760.23
421.145	1799.14
421.353	1924.07
421.561	2042.85
421.769	2221.02
421.977	2208.73
422.185	2171.87
422.393	2329.56
422.601	2407.39
422.809	2440.15
423.017	2460.63
423.224	2472.92
423.432	2745.3
423.64	2710.49
423.848	2763.73
424.056	2796.5
424.263	3062.74
424.471	3152.85
424.679	3122.13
424.887	3232.72
425.094	3343.31
425.302	3247.05
425.51	3408.84
425.718	3660.74
425.925	3783.62
426.133	3677.13
426.341	4189.12
426.548	4166.59
426.756	4070.34
426.964	4180.93
427.171	4289.47
427.379	4418.49
427.586	4522.94
427.794	4731.83
428.001	5020.6
428.209	5284.78
428.417	5114.8
428.624	5518.25
428.832	5491.63
429.039	5442.48
429.247	5325.74
429.454	5946.28
429.662	6314.91
429.869	5923.75
430.076	6222.75
430.284	6120.35
430.491	6423.45
430.699	6933.4
430.906	6886.29
431.114	7035.8
431.321	7164.82
431.528	7250.83
431.736	7721.87
431.943	8242.05
432.15	7850.89
432.358	8049.54
432.565	8391.55
432.772	8291.2
432.979	8915.83
433.187	8905.59
433.394	8936.31
433.601	9745.26
433.808	9628.53
434.016	9614.19
434.223	10007.4
434.43	10439.52
434.637	10298.21
434.844	11090.77
435.052	11213.65
435.259	11107.16
435.466	11268.95
435.673	11187.03
435.88	11866.95
436.087	12643.14
436.294	12745.53
436.501	12092.23
436.708	12784.44
436.915	12958.52
437.122	13529.91
437.329	13558.58
437.537	13951.79
437.743	14310.18
437.95	14050.09
438.157	15002.4
438.364	15397.65
438.571	15385.37
438.778	15291.16
438.985	16745.22
439.192	16151.31
439.399	16782.08
439.606	16208.65
439.813	17310.46
440.02	18060.01
440.227	17924.85
440.433	17609.46
440.64	18393.83
440.847	18148.08
441.054	18549.48
441.261	19915.47
441.467	19651.28
441.674	20079.31
441.881	20783.81
442.088	20865.73
442.294	20568.77
442.501	21258.94
442.708	21723.83
442.914	22252.2
443.121	22938.27
443.328	22520.49
443.534	24421
443.741	23730.84
443.948	23548.57
444.154	25025.15
444.361	24656.52
444.568	25076.35
444.774	25432.7
444.981	25342.59
445.187	26241.65
445.394	27077.22
445.6	27234.91
445.807	29422.14
446.013	28203.6
446.22	28643.91
446.426	30044.73
446.633	29823.54
446.839	31214.12
447.046	29755.96
447.252	31349.28
447.459	31470.11
447.665	31461.92
447.871	32817.68
448.078	34281.97
448.284	32283.16
448.491	33612.29
448.697	34769.39
448.903	35590.62
449.11	35508.71
449.316	34904.56
449.522	35791.33
449.728	36557.27
449.935	36682.19
450.141	36688.34
450.347	37859.77
450.553	36274.65
450.76	37179.85
450.966	37990.84
451.172	37523.91
451.378	38484.4
451.584	38056.38
451.791	38863.28
451.997	38601.14
452.203	39049.64
452.409	39291.3
452.615	38924.72
452.821	37644.74
453.027	37079.5
453.233	38998.44
453.44	37401.03
453.646	37994.94
453.852	38175.16
454.058	38830.51
454.264	37681.6
454.47	38529.46
454.676	37611.97
454.882	38343.09
455.088	35799.52
455.294	35717.6
455.5	36559.31
455.705	36661.71
455.911	35400.16
456.117	34943.47
456.323	34488.82
456.529	32674.32
456.735	34013.69
456.941	33178.12
457.147	32311.83
457.352	31586.85
457.558	31019.56
457.764	31181.35
457.97	30790.19
458.176	30442.03
458.381	29944.38
458.587	28475.98
458.793	28328.53
458.999	27286.11
459.204	29278.79
459.41	28373.58
459.616	26397.29
459.821	26485.36
460.027	26382.96
460.233	25641.59
460.438	24367.76
460.644	24664.71
460.85	23505.56
461.055	23296.67
461.261	23376.54
461.466	21516.98
461.672	20814.53
461.878	22014.64
462.083	21164.73
462.289	20331.21
462.494	20501.19
462.7	19352.28
462.905	18940.64
463.111	19555.03
463.316	19645.14
463.522	19247.83
463.727	19362.52
463.932	19127
464.138	18936.54
464.343	19149.53
464.549	18547.43
464.754	18873.06
464.959	18741.99
465.165	18795.23
465.37	17990.38
465.575	17500.92
465.781	18291.43
465.986	18447.08
466.191	17427.19
466.397	17468.15
466.602	16638.72
466.807	17087.23
467.012	17275.64
