Data from USB4F104151__13__12-41-01-136.txt Node

Date: Fri Mar 14 12:41:01 EDT 2025
User: louis
Spectrometer: USB4F10415
Trigger mode: 4
Integration Time (sec): 3.000000E-2
Scans to average: 1
Electric dark correction enabled: true
Nonlinearity correction enabled: false
Boxcar width: 0
XAxis mode: Wavelengths
Number of Pixels in Spectrum: 3648
>>>>>Begin Spectral Data<<<<<
178.204	-85.5
178.424	-85.5
178.644	-85.5
178.864	-171.52
179.084	-136.7
179.304	-13.82
179.524	4.61
179.744	-56.83
179.964	4.61
180.184	-38.4
180.404	-9.73
180.624	16.9
180.844	43.52
181.064	-11.78
181.283	37.38
181.503	16.9
181.723	6.66
181.943	-71.17
182.163	-28.16
182.383	12.8
182.602	-30.21
182.822	51.71
183.042	-24.06
183.262	-50.69
183.482	31.23
183.701	37.38
183.921	74.24
184.141	47.62
184.361	39.42
184.58	-79.36
184.8	37.38
185.02	53.76
185.239	76.29
185.459	55.81
185.679	78.33
185.898	-28.16
186.118	102.91
186.338	61.95
186.557	18.94
186.777	31.23
186.997	43.52
187.216	-3.58
187.436	57.86
187.655	45.57
187.875	14.85
188.095	68.09
188.314	55.81
188.534	129.53
188.753	72.19
188.973	-15.87
189.192	76.29
189.412	14.85
189.631	20.99
189.851	45.57
190.07	-9.73
190.29	18.94
190.509	-1.54
190.729	-11.78
190.948	31.23
191.168	125.44
191.387	0.51
191.607	-19.97
191.826	41.47
192.045	64
192.265	27.14
192.484	119.29
192.704	-9.73
192.923	-26.11
193.142	94.72
193.362	14.85
193.581	39.42
193.8	8.7
194.02	86.53
194.239	14.85
194.458	80.38
194.678	2.56
194.897	10.75
195.116	27.14
195.335	59.9
195.555	-5.63
195.774	31.23
195.993	12.8
196.212	68.09
196.432	4.61
196.651	-52.74
196.87	-22.02
197.089	72.19
197.308	25.09
197.528	86.53
197.747	-130.56
197.966	14.85
198.185	55.81
198.404	-15.87
198.623	-5.63
198.842	98.81
199.062	33.28
199.281	64
199.5	2.56
199.719	41.47
199.938	-13.82
200.157	-3.58
200.376	45.57
200.595	23.04
200.814	64
201.033	-34.3
201.252	45.57
201.471	31.23
201.69	-7.68
201.909	43.52
202.128	20.99
202.347	72.19
202.566	12.8
202.785	-5.63
203.004	33.28
203.223	90.62
203.442	37.38
203.661	27.14
203.879	-22.02
204.098	64
204.317	-13.82
204.536	88.57
204.755	12.8
204.974	23.04
205.193	74.24
205.411	70.14
205.63	74.24
205.849	25.09
206.068	23.04
206.287	27.14
206.505	109.05
206.724	76.29
206.943	-60.93
207.162	78.33
207.381	-36.35
207.599	2.56
207.818	20.99
208.037	10.75
208.255	80.38
208.474	-36.35
208.693	64
208.911	25.09
209.13	23.04
209.349	61.95
209.567	14.85
209.786	55.81
210.005	88.57
210.223	76.29
210.442	-56.83
210.661	16.9
210.879	10.75
211.098	61.95
211.316	37.38
211.535	72.19
211.753	12.8
211.972	8.7
212.191	31.23
212.409	55.81
212.628	18.94
212.846	70.14
213.065	35.33
213.283	-13.82
213.502	31.23
213.72	6.66
213.938	14.85
214.157	-7.68
214.375	20.99
214.594	-1.54
214.812	51.71
215.031	55.81
215.249	-83.45
215.467	16.9
215.686	53.76
215.904	90.62
216.122	43.52
216.341	49.66
216.559	23.04
216.778	29.18
216.996	16.9
217.214	33.28
217.432	25.09
217.651	-3.58
217.869	2.56
218.087	8.7
218.306	4.61
218.524	100.86
218.742	-11.78
218.96	10.75
219.179	12.8
219.397	23.04
219.615	141.82
219.833	45.57
220.051	39.42
220.27	68.09
220.488	-9.73
220.706	33.28
220.924	86.53
221.142	70.14
221.36	55.81
221.578	41.47
221.796	25.09
222.015	61.95
222.233	53.76
222.451	37.38
222.669	-32.26
222.887	23.04
223.105	29.18
223.323	14.85
223.541	68.09
223.759	-11.78
223.977	31.23
224.195	-3.58
224.413	33.28
224.631	150.01
224.849	49.66
225.067	43.52
225.285	47.62
225.503	53.76
225.721	-120.32
225.939	-13.82
226.157	12.8
226.375	96.77
226.592	66.05
226.81	31.23
227.028	25.09
227.246	131.58
227.464	16.9
227.682	55.81
227.9	-5.63
228.117	18.94
228.335	25.09
228.553	25.09
228.771	-36.35
228.989	29.18
229.206	-5.63
229.424	41.47
229.642	39.42
229.86	-26.11
230.077	2.56
230.295	10.75
230.513	55.81
230.731	33.28
230.948	66.05
231.166	27.14
231.384	-7.68
231.601	-1.54
231.819	111.1
232.037	18.94
232.254	-26.11
232.472	-48.64
232.689	-26.11
232.907	-24.06
233.125	-24.06
233.342	88.57
233.56	64
233.777	16.9
233.995	82.43
234.213	82.43
234.43	70.14
234.648	16.9
234.865	-44.54
235.083	18.94
235.3	51.71
235.518	121.34
235.735	27.14
235.953	55.81
236.17	72.19
236.388	90.62
236.605	25.09
236.822	104.96
237.04	20.99
237.257	59.9
237.475	-3.58
237.692	4.61
237.909	20.99
238.127	20.99
238.344	49.66
238.562	-32.26
238.779	14.85
238.996	10.75
239.214	12.8
239.431	27.14
239.648	82.43
239.865	55.81
240.083	111.1
240.3	2.56
240.517	76.29
240.735	41.47
240.952	74.24
241.169	43.52
241.386	10.75
241.603	51.71
241.821	18.94
242.038	59.9
242.255	64
242.472	76.29
242.689	23.04
242.907	64
243.124	-19.97
243.341	-22.02
243.558	-15.87
243.775	-5.63
243.992	25.09
244.209	66.05
244.426	143.87
244.643	76.29
244.86	14.85
245.078	29.18
245.295	66.05
245.512	45.57
245.729	-5.63
245.946	23.04
246.163	31.23
246.38	-9.73
246.597	35.33
246.814	27.14
247.031	14.85
247.248	-26.11
247.464	45.57
247.681	61.95
247.898	12.8
248.115	25.09
248.332	14.85
248.549	35.33
248.766	49.66
248.983	51.71
249.2	57.86
249.417	27.14
249.633	14.85
249.85	51.71
250.067	6.66
250.284	0.51
250.501	70.14
250.717	154.11
250.934	-28.16
251.151	33.28
251.368	43.52
251.585	102.91
251.801	33.28
252.018	-3.58
252.235	78.33
252.451	18.94
252.668	-44.54
252.885	64
253.102	-15.87
253.318	53.76
253.535	-7.68
253.752	25.09
253.968	37.38
254.185	-65.02
254.401	45.57
254.618	-11.78
254.835	4.61
255.051	82.43
255.268	14.85
255.484	100.86
255.701	-22.02
255.917	43.52
256.134	33.28
256.351	16.9
256.567	18.94
256.784	14.85
257	-3.58
257.217	92.67
257.433	37.38
257.65	49.66
257.866	12.8
258.082	-56.83
258.299	12.8
258.515	47.62
258.732	-79.36
258.948	-56.83
259.165	47.62
259.381	-42.5
259.597	90.62
259.814	117.25
260.03	-32.26
260.246	61.95
260.463	14.85
260.679	33.28
260.895	-13.82
261.112	82.43
261.328	-32.26
261.544	35.33
261.761	125.44
261.977	6.66
262.193	39.42
262.409	29.18
262.626	20.99
262.842	115.2
263.058	64
263.274	31.23
263.49	92.67
263.707	66.05
263.923	6.66
264.139	43.52
264.355	96.77
264.571	12.8
264.787	25.09
265.004	25.09
265.22	107.01
265.436	12.8
265.652	51.71
265.868	27.14
266.084	45.57
266.3	57.86
266.516	-17.92
266.732	18.94
266.948	37.38
267.164	59.9
267.38	23.04
267.596	23.04
267.812	80.38
268.028	72.19
268.244	-5.63
268.46	23.04
268.676	-7.68
268.892	53.76
269.108	-22.02
269.324	84.48
269.54	23.04
269.756	82.43
269.972	47.62
270.188	70.14
270.403	78.33
270.619	45.57
270.835	57.86
271.051	-28.16
271.267	33.28
271.483	39.42
271.698	107.01
271.914	78.33
272.13	-13.82
272.346	31.23
272.562	-15.87
272.777	57.86
272.993	64
273.209	-15.87
273.425	61.95
273.64	41.47
273.856	43.52
274.072	64
274.287	10.75
274.503	43.52
274.719	-30.21
274.934	68.09
275.15	18.94
275.366	-28.16
275.581	8.7
275.797	49.66
276.012	68.09
276.228	66.05
276.444	-13.82
276.659	88.57
276.875	33.28
277.09	111.1
277.306	59.9
277.521	41.47
277.737	51.71
277.952	14.85
278.168	-11.78
278.383	78.33
278.599	-30.21
278.814	37.38
279.03	39.42
279.245	78.33
279.461	53.76
279.676	-11.78
279.892	-40.45
280.107	-54.78
280.322	35.33
280.538	25.09
280.753	86.53
280.969	31.23
281.184	49.66
281.399	82.43
281.615	16.9
281.83	43.52
282.045	37.38
282.26	-22.02
282.476	-3.58
282.691	0.51
282.906	102.91
283.122	57.86
283.337	0.51
283.552	29.18
283.767	18.94
283.983	53.76
284.198	49.66
284.413	57.86
284.628	-1.54
284.843	51.71
285.058	51.71
285.274	43.52
285.489	8.7
285.704	72.19
285.919	47.62
286.134	12.8
286.349	12.8
286.564	6.66
286.779	18.94
286.995	-11.78
287.21	-38.4
287.425	-9.73
287.64	49.66
287.855	6.66
288.07	55.81
288.285	82.43
288.5	33.28
288.715	133.63
288.93	25.09
289.145	74.24
289.36	66.05
289.575	6.66
289.79	111.1
290.004	25.09
290.219	88.57
290.434	4.61
290.649	-26.11
290.864	-24.06
291.079	-17.92
291.294	18.94
291.509	45.57
291.724	2.56
291.938	74.24
292.153	8.7
292.368	25.09
292.583	51.71
292.798	68.09
293.012	29.18
293.227	102.91
293.442	68.09
293.657	-22.02
293.871	80.38
294.086	143.87
294.301	92.67
294.516	6.66
294.73	121.34
294.945	39.42
295.16	57.86
295.374	61.95
295.589	119.29
295.804	8.7
296.018	-54.78
296.233	59.9
296.447	-65.02
296.662	33.28
296.877	27.14
297.091	35.33
297.306	29.18
297.52	-52.74
297.735	33.28
297.949	111.1
298.164	57.86
298.378	10.75
298.593	-24.06
298.807	-32.26
299.022	-1.54
299.236	80.38
299.451	25.09
299.665	8.7
299.88	6.66
300.094	35.33
300.309	-11.78
300.523	86.53
300.737	59.9
300.952	-13.82
301.166	27.14
301.381	49.66
301.595	16.9
301.809	78.33
302.024	70.14
302.238	0.51
302.452	111.1
302.667	-19.97
302.881	82.43
303.095	35.33
303.309	82.43
303.524	18.94
303.738	53.76
303.952	72.19
304.166	82.43
304.381	-50.69
304.595	59.9
304.809	-1.54
305.023	49.66
305.237	14.85
305.452	8.7
305.666	45.57
305.88	113.15
306.094	25.09
306.308	16.9
306.522	107.01
306.736	72.19
306.95	76.29
307.164	12.8
307.379	0.51
307.593	10.75
307.807	117.25
308.021	8.7
308.235	76.29
308.449	59.9
308.663	64
308.877	98.81
309.091	49.66
309.305	12.8
309.519	-5.63
309.733	88.57
309.947	-1.54
310.161	147.97
310.374	18.94
310.588	78.33
310.802	29.18
311.016	2.56
311.23	66.05
311.444	90.62
311.658	78.33
311.872	61.95
312.085	12.8
312.299	102.91
312.513	49.66
312.727	72.19
312.941	2.56
313.154	-15.87
313.368	-36.35
313.582	82.43
313.796	74.24
314.009	64
314.223	59.9
314.437	66.05
314.651	47.62
314.864	23.04
315.078	10.75
315.292	27.14
315.505	-30.21
315.719	27.14
315.933	20.99
316.146	86.53
316.36	10.75
316.573	41.47
316.787	82.43
317.001	33.28
317.214	45.57
317.428	41.47
317.641	-24.06
317.855	137.73
318.068	76.29
318.282	10.75
318.495	96.77
318.709	45.57
318.922	41.47
319.136	135.68
319.349	86.53
319.563	0.51
319.776	47.62
319.99	45.57
320.203	66.05
320.417	66.05
320.63	74.24
320.843	86.53
321.057	12.8
321.27	76.29
321.483	51.71
321.697	12.8
321.91	-15.87
322.124	-22.02
322.337	59.9
322.55	43.52
322.763	84.48
322.977	90.62
323.19	39.42
323.403	33.28
323.617	27.14
323.83	64
324.043	37.38
324.256	64
324.469	-22.02
324.683	80.38
324.896	45.57
325.109	31.23
325.322	31.23
325.535	123.39
325.748	37.38
325.962	113.15
326.175	43.52
326.388	43.52
326.601	16.9
326.814	39.42
327.027	-26.11
327.24	121.34
327.453	-9.73
327.666	84.48
327.879	-26.11
328.092	53.76
328.305	39.42
328.518	27.14
328.731	10.75
328.944	59.9
329.157	37.38
329.37	-15.87
329.583	113.15
329.796	72.19
330.009	-7.68
330.222	31.23
330.435	-34.3
330.648	72.19
330.861	88.57
331.073	53.76
331.286	20.99
331.499	98.81
331.712	-34.3
331.925	-24.06
332.138	23.04
332.35	72.19
332.563	-1.54
332.776	43.52
332.989	86.53
333.202	45.57
333.414	31.23
333.627	16.9
333.84	43.52
334.053	2.56
334.265	39.42
334.478	10.75
334.691	49.66
334.903	51.71
335.116	78.33
335.329	35.33
335.541	70.14
335.754	88.57
335.966	29.18
336.179	55.81
336.392	41.47
336.604	88.57
336.817	12.8
337.029	109.05
337.242	113.15
337.454	10.75
337.667	8.7
337.88	94.72
338.092	0.51
338.305	102.91
338.517	-3.58
338.729	129.53
338.942	115.2
339.154	59.9
339.367	27.14
339.579	72.19
339.792	41.47
340.004	100.86
340.217	12.8
340.429	-1.54
340.641	25.09
340.854	-19.97
341.066	104.96
341.278	43.52
341.491	170.49
341.703	43.52
341.915	29.18
342.128	25.09
342.34	25.09
342.552	88.57
342.764	59.9
342.977	-1.54
343.189	45.57
343.401	119.29
343.613	47.62
343.826	125.44
344.038	107.01
344.25	111.1
344.462	41.47
344.674	20.99
344.886	39.42
345.099	100.86
345.311	74.24
345.523	74.24
345.735	25.09
345.947	6.66
346.159	2.56
346.371	68.09
346.583	107.01
346.795	98.81
347.007	82.43
347.219	53.76
347.431	16.9
347.643	64
347.855	18.94
348.067	66.05
348.279	6.66
348.491	45.57
348.703	78.33
348.915	0.51
349.127	-7.68
349.339	117.25
349.551	55.81
349.763	55.81
349.975	104.96
350.187	43.52
350.399	96.77
350.61	76.29
350.822	-50.69
351.034	55.81
351.246	104.96
351.458	80.38
351.669	119.29
351.881	64
352.093	10.75
352.305	76.29
352.517	72.19
352.728	68.09
352.94	-5.63
353.152	4.61
353.363	-19.97
353.575	45.57
353.787	68.09
353.999	29.18
354.21	143.87
354.422	0.51
354.633	29.18
354.845	4.61
355.057	23.04
355.268	78.33
355.48	25.09
355.692	84.48
355.903	74.24
356.115	33.28
356.326	14.85
356.538	92.67
356.749	51.71
356.961	45.57
357.172	47.62
357.384	-24.06
357.595	139.77
357.807	57.86
358.018	16.9
358.23	64
358.441	92.67
358.653	53.76
358.864	61.95
359.075	-11.78
359.287	94.72
359.498	111.1
359.709	111.1
359.921	80.38
360.132	33.28
360.344	59.9
360.555	41.47
360.766	59.9
360.977	88.57
361.189	14.85
361.4	10.75
361.611	72.19
361.823	111.1
362.034	10.75
362.245	-36.35
362.456	82.43
362.667	76.29
362.879	98.81
363.09	-1.54
363.301	51.71
363.512	-26.11
363.723	76.29
363.935	-1.54
364.146	88.57
364.357	125.44
364.568	66.05
364.779	18.94
364.99	113.15
365.201	51.71
365.412	94.72
365.623	31.23
365.834	96.77
366.045	12.8
366.256	4.61
366.467	125.44
366.678	43.52
366.889	66.05
367.1	25.09
367.311	104.96
367.522	59.9
367.733	76.29
367.944	107.01
368.155	39.42
368.366	43.52
368.577	10.75
368.788	45.57
368.999	84.48
369.209	-15.87
369.42	96.77
369.631	117.25
369.842	127.49
370.053	139.77
370.264	111.1
370.474	47.62
370.685	66.05
370.896	102.91
371.107	82.43
371.317	55.81
371.528	113.15
371.739	39.42
371.95	37.38
372.16	37.38
372.371	31.23
372.582	53.76
372.792	94.72
373.003	68.09
373.214	68.09
373.424	143.87
373.635	49.66
373.846	86.53
374.056	70.14
374.267	123.39
374.477	23.04
374.688	47.62
374.898	37.38
375.109	53.76
375.319	88.57
375.53	66.05
375.74	-22.02
375.951	111.1
376.161	55.81
376.372	125.44
376.582	41.47
376.793	27.14
377.003	-13.82
377.214	-44.54
377.424	107.01
377.635	37.38
377.845	-11.78
378.055	64
378.266	14.85
378.476	16.9
378.686	88.57
378.897	14.85
379.107	94.72
379.317	66.05
379.528	-3.58
379.738	96.77
379.948	-15.87
380.158	129.53
380.369	102.91
380.579	16.9
380.789	35.33
380.999	64
381.21	33.28
381.42	53.76
381.63	59.9
381.84	131.58
382.05	76.29
382.261	143.87
382.471	121.34
382.681	55.81
382.891	154.11
383.101	119.29
383.311	20.99
383.521	74.24
383.731	27.14
383.941	102.91
384.151	45.57
384.361	96.77
384.571	74.24
384.781	45.57
384.991	100.86
385.201	182.78
385.411	29.18
385.621	55.81
385.831	74.24
386.041	55.81
386.251	74.24
386.461	113.15
386.671	-22.02
386.881	113.15
387.091	82.43
387.301	102.91
387.511	141.82
387.72	92.67
387.93	96.77
388.14	12.8
388.35	-30.21
388.56	102.91
388.769	88.57
388.979	14.85
389.189	74.24
389.399	92.67
389.609	31.23
389.818	143.87
390.028	72.19
390.238	74.24
390.447	55.81
390.657	45.57
390.867	150.01
391.076	92.67
391.286	80.38
391.496	78.33
391.705	-17.92
391.915	92.67
392.125	64
392.334	100.86
392.544	180.73
392.753	74.24
392.963	47.62
393.172	113.15
393.382	49.66
393.591	59.9
393.801	72.19
394.01	172.54
394.22	82.43
394.429	31.23
394.639	117.25
394.848	127.49
395.058	39.42
395.267	66.05
395.477	80.38
395.686	41.47
395.895	195.07
396.105	143.87
396.314	154.11
396.524	127.49
396.733	111.1
396.942	107.01
397.152	152.06
397.361	61.95
397.57	82.43
397.78	78.33
397.989	72.19
398.198	231.93
398.407	115.2
398.617	84.48
398.826	84.48
399.035	143.87
399.244	143.87
399.453	88.57
399.663	102.91
399.872	98.81
400.081	64
400.29	154.11
400.499	80.38
400.708	117.25
400.917	135.68
401.127	156.16
401.336	188.93
401.545	174.59
401.754	188.93
401.963	166.4
402.172	184.83
402.381	135.68
402.59	152.06
402.799	135.68
403.008	186.88
403.217	156.16
403.426	168.45
403.635	109.05
403.844	180.73
404.053	123.39
404.262	162.3
404.471	186.88
404.68	143.87
404.888	211.45
405.097	141.82
405.306	197.12
405.515	221.69
405.724	178.69
405.933	262.65
406.142	168.45
406.35	213.5
406.559	236.03
406.768	190.97
406.977	344.57
407.185	240.12
407.394	227.84
407.603	201.21
407.812	236.03
408.02	270.84
408.229	260.6
408.438	281.08
408.646	252.41
408.855	399.87
409.064	285.18
409.272	264.7
409.481	303.61
409.69	334.33
409.898	395.77
410.107	365.05
410.315	408.06
410.524	438.78
410.733	475.64
410.941	455.16
411.15	487.93
411.358	586.23
411.567	541.18
411.775	483.83
411.984	512.5
412.192	578.04
412.401	563.7
412.609	625.14
412.818	680.44
413.026	645.62
413.234	639.48
413.443	664.05
413.651	686.58
413.86	672.25
414.068	752.12
414.276	838.13
414.485	842.23
414.693	829.94
414.901	834.04
415.11	885.23
415.318	844.28
415.526	961.01
415.734	973.3
415.943	973.3
416.151	1106.42
416.359	1098.22
416.567	1038.83
416.776	1114.61
416.984	1227.25
417.192	1262.06
417.4	1217.01
417.608	1204.72
417.817	1331.69
418.025	1296.88
418.233	1479.15
418.441	1538.54
418.649	1452.52
418.857	1597.93
419.065	1683.94
419.273	1704.42
419.481	1759.72
419.689	1735.14
419.897	1933.79
420.105	1927.65
420.313	1948.13
420.521	2064.86
420.729	2056.67
420.937	2073.06
421.145	2257.37
421.353	2269.66
421.561	2537.95
421.769	2445.79
421.977	2642.39
422.185	2507.23
422.393	2773.46
422.601	2898.39
422.809	2957.78
423.017	2968.02
423.224	2990.55
423.432	3105.23
423.64	3430.86
423.848	3443.15
424.056	3256.78
424.263	3631.56
424.471	3609.03
424.679	3688.9
424.887	3897.8
425.094	4028.87
425.302	4092.35
425.51	4186.56
425.718	4252.1
425.925	4504
426.133	4444.6
426.341	4768.18
426.548	4925.88
426.756	4856.25
426.964	4977.08
427.171	5411.25
427.379	5431.73
427.586	5751.21
427.794	5867.94
428.001	6046.12
428.209	6410.65
428.417	6115.75
428.624	6482.33
428.832	6689.18
429.039	6586.78
429.247	6701.47
429.454	7405.97
429.662	7780.75
429.869	7152.02
430.076	7584.14
430.284	7526.8
430.491	7833.99
430.699	8405.38
430.906	8382.85
431.114	8391.04
431.321	8909.18
431.528	8839.55
431.736	9441.65
431.943	9935.21
432.15	9716.08
432.358	9961.83
432.565	10297.7
432.772	10260.84
432.979	10891.61
433.187	10864.99
433.394	11080.02
433.601	11712.85
433.808	11940.17
434.016	11848.01
434.223	12409.15
434.43	12859.71
434.637	12609.86
434.844	13484.34
435.052	13592.88
435.259	13701.42
435.466	13955.37
435.673	13652.27
435.88	14512.42
436.087	15489.3
436.294	15448.34
436.501	14934.3
436.708	15405.33
436.915	15632.66
437.122	16582.91
437.329	16355.59
437.537	17131.77
437.743	17256.7
437.95	17295.61
438.157	18376.94
438.364	18878.69
438.571	18825.44
438.778	18870.5
438.985	20443.34
439.192	19564.76
439.399	20246.73
439.606	20074.7
439.813	21252.28
440.02	22026.42
440.227	22014.13
440.433	21561.53
440.64	22417.58
440.847	22784.16
441.054	22886.56
441.261	24197.26
441.467	23771.29
441.674	24260.75
441.881	25104.51
442.088	25440.38
442.294	25233.53
442.501	25497.72
442.708	26472.56
442.914	27537.5
443.121	28710.99
443.328	28057.68
443.534	29653.05
443.741	28641.35
443.948	28274.77
444.154	30230.58
444.361	30488.62
444.568	30631.98
444.774	30564.4
444.981	31150.12
445.187	31813.66
445.394	33331.2
445.6	32686.09
445.807	36026.33
446.013	34109.43
446.22	35289.06
446.426	36022.23
446.633	36153.3
446.839	37906.37
447.046	36155.35
447.252	38113.21
447.459	38256.57
447.665	38318.01
447.871	39794.59
448.078	41682.82
448.284	39788.45
448.491	41129.87
448.697	42624.89
448.903	42985.33
449.11	43118.45
449.316	42407.8
449.522	43177.84
449.728	44492.63
449.935	44877.65
450.141	44765.01
450.347	45639.5
450.553	44138.33
450.76	44848.98
450.966	46303.04
451.172	45977.41
451.378	46442.3
451.584	45854.53
451.791	46778.17
451.997	46753.59
452.203	47470.38
452.409	47675.18
452.615	47333.17
452.821	45666.12
453.027	45258.57
453.233	47320.88
453.44	46065.47
453.646	46069.57
453.852	46712.63
454.058	47265.58
454.264	45922.12
454.47	46982.96
454.676	45621.06
454.882	47200.05
455.088	43038.58
455.294	44044.13
455.5	44296.03
455.705	44928.85
455.911	43358.06
456.117	42393.47
456.323	41719.68
456.529	39706.53
456.735	41588.61
456.941	40589.2
457.147	39559.08
457.352	38369.21
457.558	38264.76
457.764	38170.55
457.97	37437.38
458.176	36939.72
458.381	36673.49
458.587	35096.55
458.793	34938.86
458.999	33024.01
459.204	35401.7
459.41	34447.35
459.616	31989.78
459.821	32090.13
460.027	32073.75
460.233	31305.76
460.438	30130.23
460.644	30003.25
460.85	28557.39
461.055	28522.57
461.261	28346.45
461.466	26173.55
461.672	25411.71
461.878	27777.11
462.083	25487.48
462.289	24938.63
462.494	24502.41
462.7	23640.22
462.905	23214.24
463.111	23814.29
463.316	24010.9
463.522	23128.22
463.727	23570.58
463.932	23546.01
464.138	23128.22
464.343	23232.67
464.549	22458.54
464.754	23410.84
464.959	23386.27
465.165	22935.71
465.37	21969.07
465.575	21272.76
465.781	22407.34
465.986	22358.19
466.191	21573.81
466.397	21067.97
466.602	19886.29
466.807	21283
467.012	20885.7
467.218	20850.88
467.423	20433.1
467.628	20873.41
