Data from USB4F104151__45__12-41-30-952.txt Node

Date: Fri Mar 14 12:41:30 EDT 2025
User: louis
Spectrometer: USB4F10415
Trigger mode: 4
Integration Time (sec): 3.000000E-2
Scans to average: 1
Electric dark correction enabled: true
Nonlinearity correction enabled: false
Boxcar width: 0
XAxis mode: Wavelengths
Number of Pixels in Spectrum: 3648
>>>>>Begin Spectral Data<<<<<
178.204	-159.74
178.424	-159.74
178.644	-159.74
178.864	-174.08
179.084	-155.65
179.304	-45.06
179.524	-55.3
179.744	10.24
179.964	-12.29
180.184	2.05
180.404	-4.1
180.624	-12.29
180.844	61.44
181.064	-38.91
181.283	69.63
181.503	4.1
181.723	20.48
181.943	-38.91
182.163	22.53
182.383	-53.25
182.602	104.45
182.822	8.19
183.042	24.58
183.262	14.34
183.482	8.19
183.701	-57.34
183.921	-12.29
184.141	-30.72
184.361	47.1
184.58	-16.38
184.8	-16.38
185.02	22.53
185.239	92.16
185.459	-24.58
185.679	30.72
185.898	-47.1
186.118	40.96
186.338	22.53
186.557	112.64
186.777	-53.25
186.997	55.3
187.216	10.24
187.436	14.34
187.655	-6.14
187.875	81.92
188.095	45.06
188.314	22.53
188.534	30.72
188.753	14.34
188.973	57.34
189.192	57.34
189.412	63.49
189.631	28.67
189.851	-28.67
190.07	14.34
190.29	-8.19
190.509	18.43
190.729	20.48
190.948	16.38
191.168	104.45
191.387	57.34
191.607	49.15
191.826	63.49
192.045	-32.77
192.265	-4.1
192.484	-14.34
192.704	49.15
192.923	2.05
193.142	69.63
193.362	12.29
193.581	2.05
193.8	32.77
194.02	24.58
194.239	-8.19
194.458	-49.15
194.678	18.43
194.897	20.48
195.116	-14.34
195.335	30.72
195.555	-2.05
195.774	-22.53
195.993	2.05
196.212	24.58
196.432	-40.96
196.651	2.05
196.87	-10.24
197.089	75.77
197.308	40.96
197.528	10.24
197.747	-40.96
197.966	53.25
198.185	30.72
198.404	0
198.623	-6.14
198.842	77.82
199.062	43.01
199.281	-40.96
199.5	14.34
199.719	-63.49
199.938	43.01
200.157	10.24
200.376	-12.29
200.595	98.3
200.814	34.82
201.033	34.82
201.252	81.92
201.471	57.34
201.69	102.4
201.909	24.58
202.128	-4.1
202.347	0
202.566	-26.62
202.785	24.58
203.004	-38.91
203.223	110.59
203.442	20.48
203.661	79.87
203.879	-32.77
204.098	63.49
204.317	-32.77
204.536	38.91
204.755	-4.1
204.974	67.58
205.193	79.87
205.411	75.77
205.63	57.34
205.849	36.86
206.068	-12.29
206.287	124.93
206.505	10.24
206.724	24.58
206.943	18.43
207.162	43.01
207.381	10.24
207.599	-6.14
207.818	-12.29
208.037	-26.62
208.255	-45.06
208.474	6.14
208.693	79.87
208.911	32.77
209.13	38.91
209.349	-22.53
209.567	0
209.786	43.01
210.005	-28.67
210.223	-55.3
210.442	10.24
210.661	22.53
210.879	-16.38
211.098	88.06
211.316	22.53
211.535	-6.14
211.753	-14.34
211.972	83.97
212.191	40.96
212.409	10.24
212.628	49.15
212.846	-34.82
213.065	0
213.283	59.39
213.502	-6.14
213.72	34.82
213.938	-10.24
214.157	-57.34
214.375	59.39
214.594	-79.87
214.812	38.91
215.031	-49.15
215.249	-2.05
215.467	-43.01
215.686	24.58
215.904	45.06
216.122	34.82
216.341	18.43
216.559	8.19
216.778	-10.24
216.996	-32.77
217.214	53.25
217.432	-65.53
217.651	14.34
217.869	10.24
218.087	98.3
218.306	-26.62
218.524	26.62
218.742	43.01
218.96	63.49
219.179	-30.72
219.397	40.96
219.615	59.39
219.833	92.16
220.051	36.86
220.27	104.45
220.488	67.58
220.706	47.1
220.924	-34.82
221.142	79.87
221.36	30.72
221.578	12.29
221.796	-57.34
222.015	8.19
222.233	55.3
222.451	73.73
222.669	-14.34
222.887	24.58
223.105	6.14
223.323	22.53
223.541	0
223.759	22.53
223.977	16.38
224.195	22.53
224.413	26.62
224.631	-14.34
224.849	-18.43
225.067	69.63
225.285	38.91
225.503	-20.48
225.721	6.14
225.939	57.34
226.157	86.01
226.375	196.61
226.592	-38.91
226.81	28.67
227.028	-10.24
227.246	22.53
227.464	38.91
227.682	36.86
227.9	22.53
228.117	32.77
228.335	16.38
228.553	-32.77
228.771	-10.24
228.989	90.11
229.206	38.91
229.424	67.58
229.642	-22.53
229.86	22.53
230.077	-28.67
230.295	40.96
230.513	14.34
230.731	-8.19
230.948	10.24
231.166	30.72
231.384	22.53
231.601	20.48
231.819	4.1
232.037	-24.58
232.254	14.34
232.472	-34.82
232.689	-14.34
232.907	32.77
233.125	53.25
233.342	22.53
233.56	-34.82
233.777	-63.49
233.995	67.58
234.213	45.06
234.43	34.82
234.648	36.86
234.865	14.34
235.083	34.82
235.3	-20.48
235.518	0
235.735	45.06
235.953	47.1
236.17	16.38
236.388	65.54
236.605	-43.01
236.822	79.87
237.04	55.3
237.257	20.48
237.475	6.14
237.692	8.19
237.909	4.1
238.127	-73.73
238.344	12.29
238.562	-8.19
238.779	-36.86
238.996	55.3
239.214	30.72
239.431	49.15
239.648	-36.86
239.865	26.62
240.083	24.58
240.3	40.96
240.517	-16.38
240.735	-30.72
240.952	137.21
241.169	-4.1
241.386	67.58
241.603	67.58
241.821	18.43
242.038	94.21
242.255	63.49
242.472	-55.3
242.689	0
242.907	96.25
243.124	-38.91
243.341	38.91
243.558	36.86
243.775	61.44
243.992	49.15
244.209	36.86
244.426	53.25
244.643	112.64
244.86	45.06
245.078	28.67
245.295	30.72
245.512	69.63
245.729	34.82
245.946	2.05
246.163	26.62
246.38	32.77
246.597	-38.91
246.814	49.15
247.031	8.19
247.248	22.53
247.464	-40.96
247.681	69.63
247.898	-4.1
248.115	-8.19
248.332	-53.25
248.549	30.72
248.766	65.54
248.983	69.63
249.2	36.86
249.417	47.1
249.633	-22.53
249.85	43.01
250.067	-8.19
250.284	79.87
250.501	55.3
250.717	40.96
250.934	-12.29
251.151	-8.19
251.368	-30.72
251.585	51.2
251.801	40.96
252.018	30.72
252.235	30.72
252.451	81.92
252.668	26.62
252.885	59.39
253.102	-20.48
253.318	51.2
253.535	-24.58
253.752	0
253.968	10.24
254.185	30.72
254.401	26.62
254.618	8.19
254.835	-43.01
255.051	86.01
255.268	83.97
255.484	63.49
255.701	40.96
255.917	8.19
256.134	-30.72
256.351	73.73
256.567	-36.86
256.784	-2.05
257	45.06
257.217	-2.05
257.433	43.01
257.65	32.77
257.866	49.15
258.082	-22.53
258.299	67.58
258.515	0
258.732	-18.43
258.948	-38.91
259.165	47.1
259.381	-24.58
259.597	-51.2
259.814	30.72
260.03	55.3
260.246	-4.1
260.463	32.77
260.679	18.43
260.895	45.06
261.112	-10.24
261.328	57.34
261.544	-28.67
261.761	86.01
261.977	12.29
262.193	-40.96
262.409	69.63
262.626	-49.15
262.842	53.25
263.058	4.1
263.274	-47.1
263.49	28.67
263.707	-24.58
263.923	96.25
264.139	30.72
264.355	10.24
264.571	77.82
264.787	30.72
265.004	59.39
265.22	-40.96
265.436	4.1
265.652	22.53
265.868	-47.1
266.084	-20.48
266.3	53.25
266.516	0
266.732	-10.24
266.948	-2.05
267.164	51.2
267.38	-6.14
267.596	20.48
267.812	139.26
268.028	-2.05
268.244	-10.24
268.46	51.2
268.676	-4.1
268.892	-34.82
269.108	59.39
269.324	12.29
269.54	12.29
269.756	69.63
269.972	12.29
270.188	55.3
270.403	12.29
270.619	-49.15
270.835	8.19
271.051	75.77
271.267	-26.62
271.483	40.96
271.698	10.24
271.914	12.29
272.13	-24.58
272.346	47.1
272.562	-51.2
272.777	36.86
272.993	36.86
273.209	79.87
273.425	-51.2
273.64	-16.38
273.856	-22.53
274.072	30.72
274.287	40.96
274.503	-32.77
274.719	26.62
274.934	28.67
275.15	-47.1
275.366	63.49
275.581	-45.06
275.797	43.01
276.012	-28.67
276.228	-24.58
276.444	30.72
276.659	18.43
276.875	-57.34
277.09	20.48
277.306	49.15
277.521	10.24
277.737	-14.34
277.952	32.77
278.168	-47.1
278.383	10.24
278.599	-24.58
278.814	43.01
279.03	28.67
279.245	32.77
279.461	-32.77
279.676	32.77
279.892	-8.19
280.107	12.29
280.322	20.48
280.538	20.48
280.753	12.29
280.969	34.82
281.184	43.01
281.399	38.91
281.615	16.38
281.83	8.19
282.045	-34.82
282.26	28.67
282.476	38.91
282.691	14.34
282.906	53.25
283.122	-28.67
283.337	22.53
283.552	67.58
283.767	-18.43
283.983	4.1
284.198	8.19
284.413	51.2
284.628	40.96
284.843	71.68
285.058	40.96
285.274	6.14
285.489	30.72
285.704	47.1
285.919	22.53
286.134	2.05
286.349	-49.15
286.564	47.1
286.779	67.58
286.995	-14.34
287.21	-63.49
287.425	51.2
287.64	20.48
287.855	59.39
288.07	-49.15
288.285	57.34
288.5	8.19
288.715	18.43
288.93	57.34
289.145	26.62
289.36	28.67
289.575	-2.05
289.79	59.39
290.004	49.15
290.219	34.82
290.434	12.29
290.649	63.49
290.864	-6.14
291.079	-22.53
291.294	45.06
291.509	30.72
291.724	12.29
291.938	55.3
292.153	20.48
292.368	2.05
292.583	8.19
292.798	65.54
293.012	30.72
293.227	10.24
293.442	-49.15
293.657	36.86
293.871	71.68
294.086	-6.14
294.301	59.39
294.516	63.49
294.73	49.15
294.945	0
295.16	-6.14
295.374	69.63
295.589	-18.43
295.804	-12.29
296.018	-8.19
296.233	79.87
296.447	-8.19
296.662	14.34
296.877	6.14
297.091	20.48
297.306	-34.82
297.52	-30.72
297.735	30.72
297.949	59.39
298.164	-4.1
298.378	100.35
298.593	-45.06
298.807	47.1
299.022	10.24
299.236	63.49
299.451	0
299.665	65.54
299.88	98.3
300.094	53.25
300.309	30.72
300.523	34.82
300.737	49.15
300.952	12.29
301.166	-22.53
301.381	69.63
301.595	34.82
301.809	2.05
302.024	-30.72
302.238	10.24
302.452	2.05
302.667	69.63
302.881	26.62
303.095	47.1
303.309	-67.58
303.524	-32.77
303.738	-10.24
303.952	4.1
304.166	20.48
304.381	-34.82
304.595	4.1
304.809	-18.43
305.023	24.58
305.237	-4.1
305.452	38.91
305.666	-2.05
305.88	67.58
306.094	83.97
306.308	59.39
306.522	75.77
306.736	-6.14
306.95	47.1
307.164	-30.72
307.379	-4.1
307.593	-4.1
307.807	-18.43
308.021	63.49
308.235	24.58
308.449	8.19
308.663	0
308.877	106.49
309.091	34.82
309.305	18.43
309.519	67.58
309.733	90.11
309.947	16.38
310.161	155.65
310.374	-14.34
310.588	57.34
310.802	55.3
311.016	45.06
311.23	77.82
311.444	-40.96
311.658	2.05
311.872	77.82
312.085	12.29
312.299	38.91
312.513	100.35
312.727	57.34
312.941	8.19
313.154	-26.62
313.368	40.96
313.582	36.86
313.796	51.2
314.009	8.19
314.223	-24.58
314.437	-8.19
314.651	30.72
314.864	26.62
315.078	34.82
315.292	-24.58
315.505	24.58
315.719	12.29
315.933	73.73
316.146	69.63
316.36	12.29
316.573	8.19
316.787	38.91
317.001	18.43
317.214	14.34
317.428	-18.43
317.641	16.38
317.855	18.43
318.068	-53.25
318.282	40.96
318.495	-69.63
318.709	43.01
318.922	79.87
319.136	22.53
319.349	61.44
319.563	-24.58
319.776	49.15
319.99	63.49
320.203	-22.53
320.417	-65.53
320.63	26.62
320.843	22.53
321.057	14.34
321.27	12.29
321.483	61.44
321.697	92.16
321.91	-20.48
322.124	32.77
322.337	34.82
322.55	32.77
322.763	22.53
322.977	16.38
323.19	18.43
323.403	-6.14
323.617	-4.1
323.83	55.3
324.043	45.06
324.256	69.63
324.469	53.25
324.683	49.15
324.896	20.48
325.109	6.14
325.322	-10.24
325.535	92.16
325.748	24.58
325.962	40.96
326.175	8.19
326.388	24.58
326.601	73.73
326.814	14.34
327.027	94.21
327.24	8.19
327.453	-16.38
327.666	40.96
327.879	124.93
328.092	8.19
328.305	24.58
328.518	22.53
328.731	26.62
328.944	-4.1
329.157	86.01
329.37	16.38
329.583	49.15
329.796	131.07
330.009	-40.96
330.222	65.54
330.435	32.77
330.648	-2.05
330.861	24.58
331.073	137.21
331.286	2.05
331.499	0
331.712	18.43
331.925	65.54
332.138	22.53
332.35	73.73
332.563	51.2
332.776	106.49
332.989	18.43
333.202	-20.48
333.414	-2.05
333.627	2.05
333.84	-16.38
334.053	47.1
334.265	32.77
334.478	24.58
334.691	36.86
334.903	49.15
335.116	32.77
335.329	86.01
335.541	34.82
335.754	4.1
335.966	38.91
336.179	2.05
336.392	26.62
336.604	-67.58
336.817	-6.14
337.029	38.91
337.242	59.39
337.454	6.14
337.667	61.44
337.88	53.25
338.092	53.25
338.305	38.91
338.517	122.88
338.729	75.77
338.942	73.73
339.154	40.96
339.367	18.43
339.579	53.25
339.792	36.86
340.004	75.77
340.217	22.53
340.429	-10.24
340.641	20.48
340.854	51.2
341.066	-30.72
341.278	6.14
341.491	86.01
341.703	75.77
341.915	-30.72
342.128	55.3
342.34	65.54
342.552	28.67
342.764	47.1
342.977	6.14
343.189	20.48
343.401	22.53
343.613	-16.38
343.826	14.34
344.038	22.53
344.25	79.87
344.462	18.43
344.674	14.34
344.886	-28.67
345.099	67.58
345.311	57.34
345.523	-49.15
345.735	-65.53
345.947	-22.53
346.159	22.53
346.371	34.82
346.583	49.15
346.795	57.34
347.007	8.19
347.219	-4.1
347.431	-18.43
347.643	45.06
347.855	-24.58
348.067	34.82
348.279	10.24
348.491	83.97
348.703	-8.19
348.915	16.38
349.127	30.72
349.339	28.67
349.551	-16.38
349.763	-2.05
349.975	8.19
350.187	57.34
350.399	92.16
350.61	45.06
350.822	-63.49
351.034	36.86
351.246	75.77
351.458	86.01
351.669	86.01
351.881	63.49
352.093	40.96
352.305	36.86
352.517	12.29
352.728	61.44
352.94	-10.24
353.152	28.67
353.363	57.34
353.575	-2.05
353.787	112.64
353.999	26.62
354.21	104.45
354.422	0
354.633	49.15
354.845	-6.14
355.057	26.62
355.268	16.38
355.48	-22.53
355.692	32.77
355.903	26.62
356.115	12.29
356.326	32.77
356.538	96.25
356.749	6.14
356.961	57.34
357.172	88.06
357.384	26.62
357.595	98.3
357.807	16.38
358.018	26.62
358.23	71.68
358.441	81.92
358.653	75.77
358.864	18.43
359.075	32.77
359.287	118.78
359.498	8.19
359.709	20.48
359.921	24.58
360.132	30.72
360.344	43.01
360.555	18.43
360.766	151.55
360.977	-34.82
361.189	57.34
361.4	24.58
361.611	34.82
361.823	79.87
362.034	16.38
362.245	36.86
362.456	22.53
362.667	-18.43
362.879	-59.39
363.09	55.3
363.301	43.01
363.512	12.29
363.723	16.38
363.935	6.14
364.146	12.29
364.357	20.48
364.568	14.34
364.779	-16.38
364.99	98.3
365.201	40.96
365.412	14.34
365.623	-26.62
365.834	2.05
366.045	81.92
366.256	104.45
366.467	26.62
366.678	67.58
366.889	-32.77
367.1	24.58
367.311	53.25
367.522	-61.44
367.733	90.11
367.944	57.34
368.155	24.58
368.366	47.1
368.577	-2.05
368.788	71.68
368.999	-14.34
369.209	90.11
369.42	110.59
369.631	57.34
369.842	-18.43
370.053	53.25
370.264	10.24
370.474	-18.43
370.685	36.86
370.896	34.82
371.107	30.72
371.317	49.15
371.528	-8.19
371.739	133.12
371.95	6.14
372.16	53.25
372.371	-30.72
372.582	12.29
372.792	92.16
373.003	4.1
373.214	22.53
373.424	-75.77
373.635	16.38
373.846	12.29
374.056	55.3
374.267	53.25
374.477	61.44
374.688	12.29
374.898	-14.34
375.109	71.68
375.319	-32.77
375.53	100.35
375.74	-18.43
375.951	8.19
376.161	122.88
376.372	45.06
376.582	-34.82
376.793	28.67
377.003	83.97
377.214	20.48
377.424	40.96
377.635	53.25
377.845	-8.19
378.055	20.48
378.266	16.38
378.476	57.34
378.686	12.29
378.897	20.48
379.107	112.64
379.317	18.43
379.528	-6.14
379.738	43.01
379.948	2.05
380.158	118.78
380.369	63.49
380.579	67.58
380.789	32.77
380.999	83.97
381.21	-12.29
381.42	77.82
381.63	24.58
381.84	45.06
382.05	20.48
382.261	51.2
382.471	167.93
382.681	-20.48
382.891	57.34
383.101	38.91
383.311	-6.14
383.521	16.38
383.731	24.58
383.941	67.58
384.151	104.45
384.361	83.97
384.571	20.48
384.781	86.01
384.991	51.2
385.201	129.02
385.411	65.54
385.621	40.96
385.831	67.58
386.041	18.43
386.251	47.1
386.461	45.06
386.671	83.97
386.881	-28.67
387.091	30.72
387.301	86.01
387.511	-10.24
387.72	55.3
387.93	96.25
388.14	26.62
388.35	94.21
388.56	83.97
388.769	73.73
388.979	108.54
389.189	-63.49
389.399	63.49
389.609	163.84
389.818	8.19
390.028	49.15
390.238	63.49
390.447	-20.48
390.657	63.49
390.867	24.58
391.076	22.53
391.286	114.69
391.496	20.48
391.705	61.44
391.915	45.06
392.125	38.91
392.334	129.02
392.544	110.59
392.753	36.86
392.963	0
393.172	120.83
393.382	83.97
393.591	90.11
393.801	59.39
394.01	83.97
394.22	59.39
394.429	34.82
394.639	40.96
394.848	98.3
395.058	14.34
395.267	102.4
395.477	83.97
395.686	79.87
395.895	86.01
396.105	114.69
396.314	90.11
396.524	65.54
396.733	40.96
396.942	135.17
397.152	63.49
397.361	116.73
397.57	2.05
397.78	75.77
397.989	116.73
398.198	120.83
398.407	129.02
398.617	45.06
398.826	69.63
399.035	149.5
399.244	96.25
399.453	98.3
399.663	92.16
399.872	106.49
400.081	38.91
400.29	118.78
400.499	55.3
400.708	75.77
400.917	143.36
401.127	57.34
401.336	51.2
401.545	126.97
401.754	114.69
401.963	157.69
402.172	131.07
402.381	79.87
402.59	55.3
402.799	92.16
403.008	151.55
403.217	155.65
403.426	163.84
403.635	71.68
403.844	88.06
404.053	196.61
404.262	96.25
404.471	122.88
404.68	98.3
404.888	135.17
405.097	124.93
405.306	141.31
405.515	83.97
405.724	135.17
405.933	143.36
406.142	114.69
406.35	165.89
406.559	221.18
406.768	169.98
406.977	215.04
407.185	143.36
407.394	192.51
407.603	190.46
407.812	167.93
408.02	239.61
408.229	147.45
408.438	190.46
408.646	182.27
408.855	225.28
409.064	219.13
409.272	145.41
409.481	301.05
409.69	301.05
409.898	294.91
410.107	245.76
410.315	315.39
410.524	331.77
410.733	303.1
410.941	325.63
411.15	303.1
411.358	356.35
411.567	331.77
411.775	411.64
411.984	309.24
412.192	450.55
412.401	372.73
412.609	399.35
412.818	503.8
413.026	403.45
413.234	438.27
413.443	483.32
413.651	438.27
413.86	497.66
414.068	569.34
414.276	638.97
414.485	561.14
414.693	593.91
414.901	661.49
415.11	591.86
415.318	616.44
415.526	681.97
415.734	679.93
415.943	612.34
416.151	767.99
416.359	786.42
416.567	856.05
416.776	788.47
416.984	854
417.192	935.92
417.4	960.5
417.608	851.96
417.817	962.55
418.025	987.12
418.233	1021.94
418.441	999.41
418.649	1107.95
418.857	1196.01
419.065	1265.64
419.273	1155.05
419.481	1243.12
419.689	1343.47
419.897	1402.86
420.105	1339.37
420.313	1480.68
420.521	1505.26
420.729	1441.77
420.937	1423.34
421.145	1646.57
421.353	1630.18
421.561	1779.68
421.769	1834.98
421.977	1873.89
422.185	1871.84
422.393	2078.69
422.601	2101.22
422.809	2168.8
423.017	2101.22
423.224	2185.18
423.432	2283.49
423.64	2287.58
423.848	2469.85
424.056	2428.89
424.263	2623.45
424.471	2506.71
424.679	2641.88
424.887	2844.63
425.094	2920.4
425.302	2996.18
425.51	3059.67
425.718	3164.11
425.925	3162.06
426.133	3241.93
426.341	3502.03
426.548	3639.24
426.756	3610.57
426.964	3567.56
427.171	3862.47
427.379	4038.59
427.586	3981.25
427.794	4181.95
428.001	4517.82
428.209	4534.2
428.417	4466.62
428.624	4786.1
428.832	4730.81
429.039	4730.81
429.247	4884.41
429.454	5283.76
429.662	5502.89
429.869	5226.42
430.076	5777.32
430.284	5525.42
430.491	5746.6
430.699	6135.71
430.906	5955.49
431.114	6129.57
431.321	6426.53
431.528	6401.95
431.736	6848.41
431.943	7223.19
432.15	6864.79
432.358	7075.73
432.565	7534.48
432.772	7376.78
432.979	7731.08
433.187	7903.11
433.394	7948.17
433.601	8400.77
433.808	8437.63
434.016	8255.36
434.223	8992.63
434.43	9383.79
434.637	9338.74
434.844	9918.31
435.052	9998.18
435.259	9930.6
435.466	9975.66
435.673	10026.85
435.88	10575.71
436.087	10923.87
436.294	11075.41
436.501	10712.92
436.708	11155.29
436.915	11534.16
437.122	11847.5
437.329	11855.69
437.537	12375.88
437.743	12611.39
437.95	12474.18
438.157	13049.66
438.364	13600.56
438.571	13498.16
438.778	13475.63
438.985	14792.48
439.192	14137.13
439.399	14589.73
439.606	14489.38
439.813	15165.21
440.02	16301.83
440.227	15927.05
440.433	15580.95
440.64	16111.37
440.847	15912.72
441.054	16381.7
441.261	17434.36
441.467	17305.34
441.674	17747.7
441.881	18554.6
442.088	18523.88
442.294	17743.6
442.501	18677.47
442.708	18800.35
442.914	19787.47
443.121	20596.42
443.328	20029.13
443.534	21395.13
443.741	20907.71
443.948	20430.54
444.154	21792.44
444.361	21878.45
444.568	22140.59
444.774	21921.46
444.981	22326.96
445.187	23010.98
445.394	24041.11
445.6	23828.12
445.807	25865.85
446.013	24678.02
446.22	25163.39
446.426	26283.63
446.633	26039.92
446.839	27080.29
447.046	26322.54
447.252	27885.14
447.459	27774.55
447.665	27305.57
447.871	28999.24
448.078	30377.52
448.284	28442.19
448.491	29337.15
448.697	30557.74
448.903	31213.09
449.11	30981.67
449.316	30850.6
449.522	31141.41
449.728	31911.45
449.935	32269.84
450.141	32024.09
450.347	33105.41
450.553	32128.53
450.76	32443.92
450.966	33367.55
451.172	33246.72
451.378	33947.13
451.584	33078.79
451.791	34067.96
451.997	33885.69
452.203	34571.76
452.409	34878.96
452.615	34477.55
452.821	33056.26
453.027	32982.54
453.233	34475.51
453.44	32964.1
453.646	33461.76
453.852	33654.27
454.058	34053.62
454.264	33113.61
454.47	33938.94
454.676	32945.67
454.882	34323.96
455.088	31010.34
455.294	31823.39
455.5	32079.38
455.705	32224.79
455.911	31364.64
456.117	30668.33
456.323	30117.43
456.529	29046.34
456.735	29808.19
456.941	29163.07
457.147	28309.07
457.352	28028.5
457.558	27430.49
457.764	27719.26
457.97	27170.4
458.176	26431.08
458.381	26633.83
458.587	24872.58
458.793	25269.89
458.999	23738.01
459.204	25271.93
459.41	24905.35
459.616	23209.63
459.821	23127.71
460.027	23013.02
460.233	22687.4
460.438	21587.64
460.644	21565.11
460.85	20973.25
461.055	20475.59
461.261	20330.19
461.466	18749.15
461.672	18185.96
461.878	19719.89
462.083	18104.04
462.289	17880.82
462.494	17755.89
462.7	17041.15
462.905	16463.62
463.111	17153.79
463.316	17127.16
463.522	16756.48
463.727	16748.29
463.932	16740.1
464.138	16635.65
464.343	16690.95
464.549	16226.06
464.754	16686.85
464.959	16697.09
465.165	16551.68
465.37	15593.23
465.575	15249.18
465.781	16097.03
465.986	16080.65
466.191	15613.71
466.397	15003.42
466.602	14579.49
466.807	14964.51
467.012	14923.55
467.218	14737.18
467.423	14733.09
467.628	14956.32
