Data from USB4F104151__68__12-42-11-658.txt Node

Date: Fri Mar 14 12:42:11 EDT 2025
User: louis
Spectrometer: USB4F10415
Trigger mode: 4
Integration Time (sec): 3.000000E-2
Scans to average: 1
Electric dark correction enabled: true
Nonlinearity correction enabled: false
Boxcar width: 0
XAxis mode: Wavelengths
Number of Pixels in Spectrum: 3648
>>>>>Begin Spectral Data<<<<<
178.204	-109.05
178.424	-109.05
178.644	-109.05
178.864	-86.53
179.084	-102.91
179.304	17.92
179.524	-8.7
179.744	-8.7
179.964	-8.7
180.184	-37.38
180.404	-43.52
180.624	15.87
180.844	13.82
181.064	-43.52
181.283	11.78
181.503	77.31
181.723	13.82
181.943	-47.62
182.163	132.61
182.383	67.07
182.602	105.98
182.822	42.5
183.042	34.3
183.262	40.45
183.482	34.3
183.701	26.11
183.921	58.88
184.141	7.68
184.361	7.68
184.58	9.73
184.8	30.21
185.02	48.64
185.239	65.02
185.459	79.36
185.679	62.98
185.898	-33.28
186.118	71.17
186.338	89.6
186.557	71.17
186.777	15.87
186.997	3.58
187.216	9.73
187.436	77.31
187.655	97.79
187.875	24.06
188.095	79.36
188.314	-8.7
188.534	34.3
188.753	28.16
188.973	17.92
189.192	151.04
189.412	34.3
189.631	77.31
189.851	52.74
190.07	73.21
190.29	26.11
190.509	3.58
190.729	52.74
190.948	60.93
191.168	79.36
191.387	73.21
191.607	75.26
191.826	67.07
192.045	95.74
192.265	99.84
192.484	50.69
192.704	103.93
192.923	-53.76
193.142	124.41
193.362	11.78
193.581	138.75
193.8	26.11
194.02	83.45
194.239	73.21
194.458	69.12
194.678	19.97
194.897	91.65
195.116	44.54
195.335	60.93
195.555	32.26
195.774	-14.85
195.993	40.45
196.212	40.45
196.432	93.69
196.651	65.02
196.87	87.55
197.089	181.76
197.308	58.88
197.528	67.07
197.747	-55.81
197.966	105.98
198.185	146.94
198.404	89.6
198.623	101.89
198.842	24.06
199.062	73.21
199.281	75.26
199.5	13.82
199.719	34.3
199.938	97.79
200.157	65.02
200.376	9.73
200.595	99.84
200.814	91.65
201.033	73.21
201.252	171.52
201.471	69.12
201.69	67.07
201.909	9.73
202.128	108.03
202.347	40.45
202.566	73.21
202.785	-20.99
203.004	1.54
203.223	122.37
203.442	30.21
203.661	34.3
203.879	99.84
204.098	50.69
204.317	-23.04
204.536	65.02
204.755	128.51
204.974	69.12
205.193	62.98
205.411	60.93
205.63	79.36
205.849	50.69
206.068	-41.47
206.287	-20.99
206.505	36.35
206.724	54.78
206.943	5.63
207.162	52.74
207.381	126.46
207.599	36.35
207.818	15.87
208.037	52.74
208.255	67.07
208.474	42.5
208.693	58.88
208.911	50.69
209.13	83.45
209.349	13.82
209.567	30.21
209.786	65.02
210.005	19.97
210.223	46.59
210.442	24.06
210.661	24.06
210.879	69.12
211.098	118.27
211.316	89.6
211.535	124.41
211.753	11.78
211.972	48.64
212.191	67.07
212.409	15.87
212.628	17.92
212.846	71.17
213.065	118.27
213.283	91.65
213.502	-2.56
213.72	44.54
213.938	50.69
214.157	40.45
214.375	79.36
214.594	-43.52
214.812	97.79
215.031	60.93
215.249	56.83
215.467	60.93
215.686	17.92
215.904	110.08
216.122	38.4
216.341	101.89
216.559	26.11
216.778	103.93
216.996	50.69
217.214	50.69
217.432	-14.85
217.651	28.16
217.869	40.45
218.087	65.02
218.306	28.16
218.524	116.22
218.742	124.41
218.96	52.74
219.179	17.92
219.397	28.16
219.615	114.17
219.833	40.45
220.051	-61.95
220.27	101.89
220.488	60.93
220.706	48.64
220.924	40.45
221.142	50.69
221.36	36.35
221.578	81.41
221.796	75.26
222.015	93.69
222.233	71.17
222.451	114.17
222.669	30.21
222.887	34.3
223.105	62.98
223.323	79.36
223.541	-8.7
223.759	187.9
223.977	-16.9
224.195	52.74
224.413	71.17
224.631	32.26
224.849	32.26
225.067	65.02
225.285	-10.75
225.503	50.69
225.721	7.68
225.939	69.12
226.157	54.78
226.375	165.37
226.592	-41.47
226.81	-0.51
227.028	3.58
227.246	140.8
227.464	99.84
227.682	116.22
227.9	1.54
228.117	97.79
228.335	93.69
228.553	71.17
228.771	34.3
228.989	40.45
229.206	38.4
229.424	50.69
229.642	22.02
229.86	36.35
230.077	38.4
230.295	36.35
230.513	128.51
230.731	52.74
230.948	71.17
231.166	91.65
231.384	44.54
231.601	15.87
231.819	122.37
232.037	-6.66
232.254	-39.42
232.472	28.16
232.689	58.88
232.907	99.84
233.125	62.98
233.342	7.68
233.56	19.97
233.777	19.97
233.995	56.83
234.213	83.45
234.43	-18.94
234.648	116.22
234.865	7.68
235.083	7.68
235.3	11.78
235.518	77.31
235.735	85.5
235.953	67.07
236.17	-14.85
236.388	3.58
236.605	124.41
236.822	128.51
237.04	144.89
237.257	28.16
237.475	28.16
237.692	85.5
237.909	48.64
238.127	17.92
238.344	38.4
238.562	79.36
238.779	30.21
238.996	13.82
239.214	42.5
239.431	42.5
239.648	91.65
239.865	52.74
240.083	114.17
240.3	1.54
240.517	-33.28
240.735	58.88
240.952	65.02
241.169	40.45
241.386	42.5
241.603	5.63
241.821	32.26
242.038	112.13
242.255	-8.7
242.472	54.78
242.689	130.56
242.907	79.36
243.124	60.93
243.341	62.98
243.558	46.59
243.775	-18.94
243.992	77.31
244.209	116.22
244.426	122.37
244.643	91.65
244.86	3.58
245.078	81.41
245.295	79.36
245.512	93.69
245.729	114.17
245.946	87.55
246.163	17.92
246.38	48.64
246.597	48.64
246.814	26.11
247.031	95.74
247.248	34.3
247.464	44.54
247.681	26.11
247.898	52.74
248.115	-45.57
248.332	36.35
248.549	-6.66
248.766	93.69
248.983	52.74
249.2	77.31
249.417	83.45
249.633	38.4
249.85	105.98
250.067	42.5
250.284	108.03
250.501	58.88
250.717	36.35
250.934	-12.8
251.151	118.27
251.368	-0.51
251.585	32.26
251.801	46.59
252.018	1.54
252.235	-10.75
252.451	58.88
252.668	15.87
252.885	151.04
253.102	67.07
253.318	85.5
253.535	65.02
253.752	-33.28
253.968	5.63
254.185	56.83
254.401	69.12
254.618	114.17
254.835	1.54
255.051	128.51
255.268	56.83
255.484	140.8
255.701	3.58
255.917	110.08
256.134	-16.9
256.351	19.97
256.567	15.87
256.784	93.69
257	50.69
257.217	19.97
257.433	3.58
257.65	56.83
257.866	67.07
258.082	30.21
258.299	56.83
258.515	40.45
258.732	157.18
258.948	24.06
259.165	48.64
259.381	60.93
259.597	136.7
259.814	5.63
260.03	56.83
260.246	-4.61
260.463	42.5
260.679	95.74
260.895	89.6
261.112	54.78
261.328	11.78
261.544	85.5
261.761	108.03
261.977	-84.48
262.193	58.88
262.409	17.92
262.626	77.31
262.842	24.06
263.058	75.26
263.274	91.65
263.49	105.98
263.707	120.32
263.923	85.5
264.139	65.02
264.355	81.41
264.571	85.5
264.787	3.58
265.004	40.45
265.22	11.78
265.436	50.69
265.652	46.59
265.868	114.17
266.084	-20.99
266.3	85.5
266.516	52.74
266.732	54.78
266.948	36.35
267.164	54.78
267.38	46.59
267.596	77.31
267.812	87.55
268.028	13.82
268.244	65.02
268.46	48.64
268.676	32.26
268.892	42.5
269.108	79.36
269.324	36.35
269.54	-68.09
269.756	67.07
269.972	71.17
270.188	83.45
270.403	46.59
270.619	60.93
270.835	101.89
271.051	112.13
271.267	-25.09
271.483	9.73
271.698	69.12
271.914	52.74
272.13	95.74
272.346	15.87
272.562	-0.51
272.777	19.97
272.993	73.21
273.209	81.41
273.425	62.98
273.64	-2.56
273.856	101.89
274.072	22.02
274.287	5.63
274.503	91.65
274.719	75.26
274.934	38.4
275.15	54.78
275.366	54.78
275.581	15.87
275.797	26.11
276.012	36.35
276.228	-0.51
276.444	48.64
276.659	101.89
276.875	87.55
277.09	19.97
277.306	50.69
277.521	-18.94
277.737	73.21
277.952	48.64
278.168	77.31
278.383	67.07
278.599	-31.23
278.814	140.8
279.03	71.17
279.245	58.88
279.461	54.78
279.676	46.59
279.892	-20.99
280.107	28.16
280.322	17.92
280.538	-8.7
280.753	56.83
280.969	118.27
281.184	42.5
281.399	71.17
281.615	91.65
281.83	77.31
282.045	15.87
282.26	44.54
282.476	48.64
282.691	75.26
282.906	50.69
283.122	75.26
283.337	77.31
283.552	9.73
283.767	93.69
283.983	42.5
284.198	11.78
284.413	46.59
284.628	-4.61
284.843	58.88
285.058	91.65
285.274	38.4
285.489	65.02
285.704	103.93
285.919	28.16
286.134	32.26
286.349	24.06
286.564	7.68
286.779	36.35
286.995	30.21
287.21	19.97
287.425	93.69
287.64	13.82
287.855	42.5
288.07	32.26
288.285	118.27
288.5	128.51
288.715	126.46
288.93	52.74
289.145	30.21
289.36	77.31
289.575	30.21
289.79	3.58
290.004	24.06
290.219	40.45
290.434	1.54
290.649	56.83
290.864	83.45
291.079	40.45
291.294	-20.99
291.509	85.5
291.724	1.54
291.938	28.16
292.153	60.93
292.368	-29.18
292.583	71.17
292.798	93.69
293.012	69.12
293.227	30.21
293.442	93.69
293.657	62.98
293.871	13.82
294.086	15.87
294.301	81.41
294.516	87.55
294.73	52.74
294.945	52.74
295.16	77.31
295.374	75.26
295.589	30.21
295.804	13.82
296.018	38.4
296.233	128.51
296.447	75.26
296.662	67.07
296.877	36.35
297.091	7.68
297.306	-39.42
297.52	34.3
297.735	65.02
297.949	30.21
298.164	73.21
298.378	93.69
298.593	38.4
298.807	34.3
299.022	-25.09
299.236	24.06
299.451	40.45
299.665	101.89
299.88	116.22
300.094	1.54
300.309	56.83
300.523	142.85
300.737	-4.61
300.952	40.45
301.166	128.51
301.381	118.27
301.595	36.35
301.809	7.68
302.024	36.35
302.238	28.16
302.452	122.37
302.667	48.64
302.881	99.84
303.095	42.5
303.309	38.4
303.524	3.58
303.738	71.17
303.952	67.07
304.166	81.41
304.381	-6.66
304.595	136.7
304.809	69.12
305.023	42.5
305.237	-33.28
305.452	91.65
305.666	58.88
305.88	79.36
306.094	99.84
306.308	7.68
306.522	44.54
306.736	-6.66
306.95	48.64
307.164	-33.28
307.379	34.3
307.593	112.13
307.807	101.89
308.021	69.12
308.235	99.84
308.449	67.07
308.663	65.02
308.877	128.51
309.091	52.74
309.305	65.02
309.519	48.64
309.733	50.69
309.947	-16.9
310.161	48.64
310.374	142.85
310.588	87.55
310.802	1.54
311.016	48.64
311.23	77.31
311.444	62.98
311.658	-8.7
311.872	165.37
312.085	58.88
312.299	97.79
312.513	56.83
312.727	46.59
312.941	17.92
313.154	118.27
313.368	-10.75
313.582	13.82
313.796	11.78
314.009	77.31
314.223	60.93
314.437	38.4
314.651	120.32
314.864	60.93
315.078	60.93
315.292	50.69
315.505	17.92
315.719	50.69
315.933	93.69
316.146	110.08
316.36	7.68
316.573	91.65
316.787	1.54
317.001	128.51
317.214	-6.66
317.428	-14.85
317.641	-14.85
317.855	83.45
318.068	95.74
318.282	17.92
318.495	77.31
318.709	58.88
318.922	58.88
319.136	91.65
319.349	134.65
319.563	3.58
319.776	69.12
319.99	7.68
320.203	54.78
320.417	22.02
320.63	46.59
320.843	118.27
321.057	5.63
321.27	65.02
321.483	95.74
321.697	81.41
321.91	36.35
322.124	58.88
322.337	71.17
322.55	85.5
322.763	81.41
322.977	69.12
323.19	-25.09
323.403	-0.51
323.617	75.26
323.83	32.26
324.043	105.98
324.256	22.02
324.469	28.16
324.683	97.79
324.896	-49.66
325.109	34.3
325.322	101.89
325.535	71.17
325.748	71.17
325.962	-41.47
326.175	65.02
326.388	87.55
326.601	91.65
326.814	-20.99
327.027	91.65
327.24	146.94
327.453	-74.24
327.666	99.84
327.879	11.78
328.092	93.69
328.305	32.26
328.518	73.21
328.731	-0.51
328.944	42.5
329.157	40.45
329.37	36.35
329.583	153.09
329.796	93.69
330.009	-2.56
330.222	105.98
330.435	146.94
330.648	30.21
330.861	-4.61
331.073	101.89
331.286	46.59
331.499	58.88
331.712	19.97
331.925	83.45
332.138	34.3
332.35	69.12
332.563	-2.56
332.776	75.26
332.989	22.02
333.202	-14.85
333.414	54.78
333.627	44.54
333.84	42.5
334.053	58.88
334.265	17.92
334.478	52.74
334.691	-18.94
334.903	112.13
335.116	50.69
335.329	58.88
335.541	40.45
335.754	99.84
335.966	58.88
336.179	-29.18
336.392	-18.94
336.604	56.83
336.817	-12.8
337.029	93.69
337.242	83.45
337.454	81.41
337.667	30.21
337.88	89.6
338.092	87.55
338.305	19.97
338.517	83.45
338.729	124.41
338.942	77.31
339.154	28.16
339.367	-49.66
339.579	122.37
339.792	77.31
340.004	75.26
340.217	56.83
340.429	91.65
340.641	11.78
340.854	22.02
341.066	56.83
341.278	56.83
341.491	153.09
341.703	34.3
341.915	30.21
342.128	40.45
342.34	110.08
342.552	11.78
342.764	130.56
342.977	22.02
343.189	50.69
343.401	89.6
343.613	108.03
343.826	48.64
344.038	-45.57
344.25	22.02
344.462	46.59
344.674	65.02
344.886	-0.51
345.099	142.85
345.311	93.69
345.523	132.61
345.735	93.69
345.947	83.45
346.159	22.02
346.371	40.45
346.583	24.06
346.795	99.84
347.007	50.69
347.219	-41.47
347.431	81.41
347.643	101.89
347.855	89.6
348.067	116.22
348.279	30.21
348.491	148.99
348.703	38.4
348.915	56.83
349.127	24.06
349.339	83.45
349.551	114.17
349.763	9.73
349.975	48.64
350.187	159.23
350.399	46.59
350.61	73.21
350.822	17.92
351.034	19.97
351.246	15.87
351.458	54.78
351.669	48.64
351.881	136.7
352.093	75.26
352.305	105.98
352.517	118.27
352.728	148.99
352.94	42.5
353.152	99.84
353.363	122.37
353.575	56.83
353.787	120.32
353.999	13.82
354.21	144.89
354.422	34.3
354.633	65.02
354.845	69.12
355.057	105.98
355.268	44.54
355.48	65.02
355.692	85.5
355.903	36.35
356.115	-6.66
356.326	9.73
356.538	79.36
356.749	50.69
356.961	73.21
357.172	81.41
357.384	-8.7
357.595	163.33
357.807	128.51
358.018	60.93
358.23	87.55
358.441	142.85
358.653	110.08
358.864	44.54
359.075	38.4
359.287	22.02
359.498	40.45
359.709	52.74
359.921	38.4
360.132	-27.14
360.344	108.03
360.555	42.5
360.766	89.6
360.977	15.87
361.189	132.61
361.4	71.17
361.611	118.27
361.823	126.46
362.034	73.21
362.245	52.74
362.456	9.73
362.667	89.6
362.879	67.07
363.09	73.21
363.301	28.16
363.512	50.69
363.723	108.03
363.935	22.02
364.146	50.69
364.357	22.02
364.568	34.3
364.779	77.31
364.99	83.45
365.201	101.89
365.412	71.17
365.623	26.11
365.834	87.55
366.045	40.45
366.256	75.26
366.467	15.87
366.678	62.98
366.889	17.92
367.1	46.59
367.311	44.54
367.522	19.97
367.733	3.58
367.944	54.78
368.155	-6.66
368.366	62.98
368.577	116.22
368.788	155.13
368.999	65.02
369.209	120.32
369.42	91.65
369.631	128.51
369.842	110.08
370.053	91.65
370.264	58.88
370.474	58.88
370.685	77.31
370.896	62.98
371.107	83.45
371.317	134.65
371.528	13.82
371.739	87.55
371.95	81.41
372.16	120.32
372.371	15.87
372.582	124.41
372.792	67.07
373.003	65.02
373.214	138.75
373.424	134.65
373.635	30.21
373.846	138.75
374.056	-0.51
374.267	42.5
374.477	-6.66
374.688	81.41
374.898	50.69
375.109	95.74
375.319	42.5
375.53	89.6
375.74	116.22
375.951	69.12
376.161	124.41
376.372	163.33
376.582	52.74
376.793	103.93
377.003	34.3
377.214	167.42
377.424	81.41
377.635	32.26
377.845	44.54
378.055	151.04
378.266	22.02
378.476	42.5
378.686	114.17
378.897	101.89
379.107	101.89
379.317	114.17
379.528	42.5
379.738	73.21
379.948	38.4
380.158	48.64
380.369	105.98
380.579	85.5
380.789	34.3
380.999	140.8
381.21	122.37
381.42	87.55
381.63	22.02
381.84	101.89
382.05	87.55
382.261	87.55
382.471	79.36
382.681	1.54
382.891	99.84
383.101	46.59
383.311	-8.7
383.521	15.87
383.731	60.93
383.941	73.21
384.151	60.93
384.361	17.92
384.571	101.89
384.781	44.54
384.991	97.79
385.201	132.61
385.411	144.89
385.621	87.55
385.831	140.8
386.041	73.21
386.251	30.21
386.461	97.79
386.671	83.45
386.881	11.78
387.091	40.45
387.301	-6.66
387.511	71.17
387.72	151.04
387.93	85.5
388.14	48.64
388.35	112.13
388.56	124.41
388.769	126.46
388.979	19.97
389.189	60.93
389.399	114.17
389.609	177.66
389.818	128.51
390.028	169.47
390.238	140.8
390.447	32.26
390.657	124.41
390.867	87.55
391.076	40.45
391.286	110.08
391.496	101.89
391.705	65.02
391.915	38.4
392.125	77.31
392.334	60.93
392.544	181.76
392.753	122.37
392.963	44.54
393.172	26.11
393.382	48.64
393.591	151.04
393.801	48.64
394.01	118.27
394.22	126.46
394.429	67.07
394.639	114.17
394.848	81.41
395.058	52.74
395.267	136.7
395.477	95.74
395.686	124.41
395.895	155.13
396.105	138.75
396.314	167.42
396.524	136.7
396.733	83.45
396.942	110.08
397.152	146.94
397.361	118.27
397.57	144.89
397.78	142.85
397.989	116.22
398.198	97.79
398.407	165.37
398.617	103.93
398.826	148.99
399.035	112.13
399.244	200.19
399.453	148.99
399.663	97.79
399.872	87.55
400.081	99.84
400.29	144.89
400.499	181.76
400.708	144.89
400.917	65.02
401.127	157.18
401.336	136.7
401.545	196.09
401.754	130.56
401.963	204.28
402.172	138.75
402.381	73.21
402.59	116.22
402.799	151.04
403.008	97.79
403.217	136.7
403.426	194.05
403.635	169.47
403.844	163.33
404.053	99.84
404.262	122.37
404.471	185.85
404.68	157.18
404.888	136.7
405.097	177.66
405.306	189.95
405.515	179.71
405.724	185.85
405.933	300.54
406.142	124.41
406.35	204.28
406.559	216.57
406.768	212.48
406.977	255.48
407.185	148.99
407.394	243.2
407.603	220.67
407.812	349.69
408.02	271.87
408.229	308.73
408.438	232.96
408.646	257.53
408.855	333.31
409.064	263.68
409.272	275.96
409.481	269.82
409.69	294.4
409.898	253.44
410.107	325.12
410.315	337.4
410.524	325.12
410.733	394.75
410.941	347.64
411.15	423.42
411.358	378.36
411.567	484.86
411.775	374.27
411.984	468.47
412.192	491
412.401	464.38
412.609	505.34
412.818	650.74
413.026	577.02
413.234	517.62
413.443	558.58
413.651	556.54
413.86	605.69
414.068	599.54
414.276	671.22
414.485	652.79
414.693	744.95
414.901	765.43
415.11	687.61
415.318	773.62
415.526	691.7
415.734	798.2
415.943	744.95
416.151	843.25
416.359	818.68
416.567	871.92
416.776	925.17
416.984	1017.33
417.192	1046
417.4	994.8
417.608	980.47
417.817	1019.38
418.025	1119.73
418.233	1160.69
418.441	1086.96
418.649	1181.17
418.857	1287.66
419.065	1359.34
419.273	1365.48
419.481	1381.87
419.689	1439.21
419.897	1572.33
420.105	1545.7
420.313	1547.75
420.521	1750.5
420.729	1682.92
420.937	1744.36
421.145	1785.32
421.353	1924.58
421.561	1918.43
421.769	1988.07
421.977	2037.22
422.185	2127.33
422.393	2160.1
422.601	2317.79
422.809	2336.22
423.017	2346.46
423.224	2563.54
423.432	2518.49
423.64	2461.15
423.848	2745.81
424.056	2778.58
424.263	2883.03
424.471	2899.41
424.679	2842.07
424.887	3079.63
425.094	3321.29
425.302	3286.48
425.51	3454.41
425.718	3497.42
425.925	3528.14
426.133	3657.16
426.341	3829.19
426.548	4091.33
426.756	3943.88
426.964	4132.29
427.171	4300.22
427.379	4257.22
427.586	4525.5
427.794	4728.25
428.001	4683.19
428.209	5053.87
428.417	4904.37
428.624	5262.77
428.832	5266.86
429.039	5254.58
429.247	5152.18
429.454	5645.74
429.662	6296.99
429.869	5670.31
430.076	6174.11
430.284	5932.45
430.491	6235.55
430.699	6776.22
430.906	6552.99
431.114	6602.14
431.321	7034.26
431.528	6962.58
431.736	7562.64
431.943	7826.82
432.15	7521.68
432.358	7540.11
432.565	8064.39
432.772	8177.03
432.979	8437.12
433.187	8584.57
433.394	8758.65
433.601	9459.06
433.808	9442.67
434.016	9264.5
434.223	9692.52
434.43	10229.09
434.637	10085.73
434.844	10775.9
435.052	10902.87
435.259	10829.15
435.466	11056.47
435.673	10999.13
435.88	11638.09
436.087	12076.36
436.294	12137.8
436.501	12078.41
436.708	12047.69
436.915	12834.11
437.122	12963.13
437.329	13038.91
437.537	13321.52
437.743	13739.31
437.95	13503.79
438.157	14406.95
438.364	14759.2
438.571	14681.38
438.778	14605.6
438.985	16155.91
439.192	15729.94
439.399	16096.52
439.606	15746.32
439.813	16577.8
440.02	17857.78
440.227	17177.85
440.433	17208.57
440.64	17743.09
440.847	17497.33
441.054	18050.28
441.261	19299.55
441.467	19121.37
441.674	19211.48
441.881	20143.31
442.088	19887.31
442.294	19780.82
442.501	20356.3
442.708	20720.84
442.914	21562.55
443.121	22293.68
443.328	21742.77
443.534	23315.61
443.741	22863.01
443.948	22377.64
444.154	24206.48
444.361	23923.86
444.568	24179.86
444.774	24276.11
444.981	24482.95
445.187	25187.46
445.394	26371.18
445.6	25754.74
445.807	28425.29
446.013	27552.86
446.22	27614.3
446.426	28693.58
446.633	29015.11
446.839	29895.74
447.046	28795.98
447.252	30370.86
447.459	30374.96
447.665	30362.67
447.871	31706.14
448.078	33205.25
448.284	31257.64
448.491	32396.31
448.697	33569.79
448.903	34360.31
449.11	34053.11
449.316	33723.39
449.522	34477.04
449.728	35255.27
449.935	35718.11
450.141	35283.94
450.347	36068.31
450.553	34919.4
450.76	35781.6
450.966	36787.15
451.172	36465.62
451.378	37549
451.584	36604.88
451.791	37868.48
451.997	37256.14
452.203	38093.75
452.409	37852.09
452.615	37665.73
452.821	36512.72
453.027	35787.74
453.233	37843.9
453.44	36328.41
453.646	36891.6
453.852	37266.38
454.058	38007.74
454.264	36486.1
454.47	37268.42
454.676	36400.08
454.882	37379.01
455.088	34427.89
455.294	34876.4
455.5	34878.44
455.705	35582.95
455.911	34270.2
456.117	33582.08
456.323	33459.2
456.529	31794.2
456.735	32842.76
456.941	32285.72
457.147	31712.28
457.352	30643.24
457.558	30299.19
457.764	30284.85
457.97	29991.99
458.176	29109.32
458.381	28955.72
458.587	27804.76
458.793	27669.59
458.999	26180.72
459.204	27872.34
459.41	27458.65
459.616	25826.42
459.821	25887.86
460.027	25457.79
460.233	25162.88
460.438	23555.22
460.644	24384.65
460.85	22875.3
461.055	22498.47
461.261	22535.34
461.466	20954.3
461.672	20219.08
461.878	21681.33
462.083	20294.86
462.289	20112.59
462.494	19737.81
462.7	18801.89
462.905	18218.22
463.111	19002.59
463.316	19082.46
463.522	18517.22
463.727	18758.88
463.932	18676.96
464.138	18474.21
464.343	18445.54
464.549	17947.89
464.754	18697.44
464.959	18291.94
465.165	18062.57
465.37	17427.7
465.575	17143.03
465.781	17775.86
465.986	17837.3
466.191	16977.15
466.397	16727.3
466.602	15858.96
466.807	16610.56
