Data from USB4F104151__41__12-41-23-783.txt Node

Date: Fri Mar 14 12:41:23 EDT 2025
User: louis
Spectrometer: USB4F10415
Trigger mode: 4
Integration Time (sec): 3.000000E-2
Scans to average: 1
Electric dark correction enabled: true
Nonlinearity correction enabled: false
Boxcar width: 0
XAxis mode: Wavelengths
Number of Pixels in Spectrum: 3648
>>>>>Begin Spectral Data<<<<<
178.204	-48.98
178.424	-48.98
178.644	-48.98
178.864	-118.61
179.084	-135
179.304	-10.07
179.524	-22.36
179.744	-96.08
179.964	8.36
180.184	10.41
180.404	-8.02
180.624	34.99
180.844	6.31
181.064	12.46
181.283	43.18
181.503	-20.31
181.723	41.13
181.943	-40.79
182.163	84.14
182.383	-44.88
182.602	73.9
182.822	59.56
183.042	2.22
183.262	26.79
183.482	30.89
183.701	2.22
183.921	37.03
184.141	41.13
184.361	55.47
184.58	-18.26
184.8	-16.21
185.02	-5.97
185.239	59.56
185.459	4.27
185.679	127.14
185.898	-34.64
186.118	22.7
186.338	-5.97
186.557	10.41
186.777	-5.97
186.997	98.47
187.216	67.75
187.436	104.62
187.655	32.94
187.875	45.23
188.095	30.89
188.314	102.57
188.534	127.14
188.753	55.47
188.973	69.8
189.192	12.46
189.412	-5.97
189.631	-20.31
189.851	-46.93
190.07	67.75
190.29	8.36
190.509	8.36
190.729	20.65
190.948	75.95
191.168	131.24
191.387	26.79
191.607	12.46
191.826	112.81
192.045	34.99
192.265	26.79
192.484	22.7
192.704	20.65
192.923	-87.89
193.142	110.76
193.362	59.56
193.581	45.23
193.8	32.94
194.02	71.85
194.239	22.7
194.458	65.71
194.678	30.89
194.897	-34.64
195.116	80.04
195.335	39.08
195.555	8.36
195.774	73.9
195.993	37.03
196.212	43.18
196.432	71.85
196.651	10.41
196.87	0.17
197.089	63.66
197.308	51.37
197.528	47.27
197.747	51.37
197.966	77.99
198.185	86.19
198.404	49.32
198.623	12.46
198.842	59.56
199.062	49.32
199.281	143.53
199.5	77.99
199.719	53.42
199.938	30.89
200.157	98.47
200.376	82.09
200.595	84.14
200.814	67.75
201.033	86.19
201.252	-3.93
201.471	63.66
201.69	129.19
201.909	22.7
202.128	-1.88
202.347	43.18
202.566	18.6
202.785	47.27
203.004	-10.07
203.223	108.71
203.442	43.18
203.661	6.31
203.879	84.14
204.098	127.14
204.317	-22.36
204.536	88.23
204.755	73.9
204.974	135.34
205.193	104.62
205.411	43.18
205.63	34.99
205.849	-36.69
206.068	20.65
206.287	47.27
206.505	125.1
206.724	0.17
206.943	6.31
207.162	73.9
207.381	30.89
207.599	18.6
207.818	43.18
208.037	30.89
208.255	34.99
208.474	53.42
208.693	8.36
208.911	39.08
209.13	102.57
209.349	86.19
209.567	129.19
209.786	65.71
210.005	-32.6
210.223	34.99
210.442	-38.74
210.661	106.67
210.879	24.75
211.098	51.37
211.316	47.27
211.535	82.09
211.753	22.7
211.972	12.46
212.191	30.89
212.409	-14.17
212.628	-8.02
212.846	-1.88
213.065	-20.31
213.283	110.76
213.502	45.23
213.72	100.52
213.938	32.94
214.157	18.6
214.375	86.19
214.594	65.71
214.812	75.95
215.031	-14.17
215.249	67.75
215.467	-16.21
215.686	39.08
215.904	-42.84
216.122	86.19
216.341	10.41
216.559	12.46
216.778	125.1
216.996	43.18
217.214	26.79
217.432	-34.64
217.651	12.46
217.869	51.37
218.087	80.04
218.306	-16.21
218.524	37.03
218.742	30.89
218.96	71.85
219.179	45.23
219.397	22.7
219.615	102.57
219.833	14.51
220.051	-73.56
220.27	80.04
220.488	77.99
220.706	34.99
220.924	12.46
221.142	34.99
221.36	59.56
221.578	49.32
221.796	16.55
222.015	65.71
222.233	141.48
222.451	43.18
222.669	39.08
222.887	51.37
223.105	77.99
223.323	18.6
223.541	26.79
223.759	84.14
223.977	77.99
224.195	75.95
224.413	0.17
224.631	12.46
224.849	22.7
225.067	127.14
225.285	88.23
225.503	77.99
225.721	102.57
225.939	75.95
226.157	77.99
226.375	127.14
226.592	45.23
226.81	14.51
227.028	121
227.246	30.89
227.464	32.94
227.682	57.51
227.9	37.03
228.117	-22.36
228.335	47.27
228.553	34.99
228.771	10.41
228.989	47.27
229.206	37.03
229.424	59.56
229.642	43.18
229.86	2.22
230.077	34.99
230.295	55.47
230.513	73.9
230.731	-16.21
230.948	63.66
231.166	14.51
231.384	67.75
231.601	16.55
231.819	94.38
232.037	-8.02
232.254	-20.31
232.472	-44.88
232.689	43.18
232.907	77.99
233.125	30.89
233.342	112.81
233.56	98.47
233.777	-1.88
233.995	55.47
234.213	139.43
234.43	86.19
234.648	41.13
234.865	-30.55
235.083	43.18
235.3	2.22
235.518	123.05
235.735	92.33
235.953	149.67
236.17	24.75
236.388	59.56
236.605	4.27
236.822	34.99
237.04	53.42
237.257	73.9
237.475	28.84
237.692	2.22
237.909	20.65
238.127	71.85
238.344	-3.93
238.562	-12.12
238.779	26.79
238.996	28.84
239.214	116.9
239.431	84.14
239.648	-1.88
239.865	12.46
240.083	61.61
240.3	75.95
240.517	43.18
240.735	94.38
240.952	43.18
241.169	139.43
241.386	-61.27
241.603	47.27
241.821	-48.98
242.038	49.32
242.255	20.65
242.472	28.84
242.689	20.65
242.907	45.23
243.124	84.14
243.341	61.61
243.558	67.75
243.775	24.75
243.992	37.03
244.209	84.14
244.426	80.04
244.643	65.71
244.86	86.19
245.078	61.61
245.295	61.61
245.512	34.99
245.729	-12.12
245.946	80.04
246.163	98.47
246.38	18.6
246.597	-8.02
246.814	125.1
247.031	30.89
247.248	65.71
247.464	4.27
247.681	47.27
247.898	37.03
248.115	34.99
248.332	69.8
248.549	49.32
248.766	65.71
248.983	118.95
249.2	12.46
249.417	26.79
249.633	-12.12
249.85	75.95
250.067	6.31
250.284	41.13
250.501	49.32
250.717	82.09
250.934	12.46
251.151	30.89
251.368	55.47
251.585	14.51
251.801	26.79
252.018	12.46
252.235	63.66
252.451	-5.97
252.668	73.9
252.885	77.99
253.102	116.9
253.318	4.27
253.535	26.79
253.752	8.36
253.968	51.37
254.185	80.04
254.401	16.55
254.618	45.23
254.835	67.75
255.051	108.71
255.268	49.32
255.484	32.94
255.701	82.09
255.917	34.99
256.134	55.47
256.351	100.52
256.567	-16.21
256.784	26.79
257	10.41
257.217	8.36
257.433	51.37
257.65	102.57
257.866	116.9
258.082	10.41
258.299	63.66
258.515	10.41
258.732	37.03
258.948	14.51
259.165	45.23
259.381	-73.56
259.597	61.61
259.814	24.75
260.03	71.85
260.246	37.03
260.463	69.8
260.679	57.51
260.895	4.27
261.112	71.85
261.328	-28.5
261.544	69.8
261.761	125.1
261.977	-12.12
262.193	39.08
262.409	59.56
262.626	100.52
262.842	6.31
263.058	-14.17
263.274	69.8
263.49	-28.5
263.707	55.47
263.923	49.32
264.139	-3.93
264.355	75.95
264.571	39.08
264.787	30.89
265.004	49.32
265.22	43.18
265.436	22.7
265.652	30.89
265.868	43.18
266.084	-3.93
266.3	28.84
266.516	8.36
266.732	141.48
266.948	20.65
267.164	22.7
267.38	94.38
267.596	86.19
267.812	92.33
268.028	20.65
268.244	10.41
268.46	-12.12
268.676	18.6
268.892	110.76
269.108	2.22
269.324	49.32
269.54	18.6
269.756	133.29
269.972	10.41
270.188	10.41
270.403	34.99
270.619	88.23
270.835	73.9
271.051	77.99
271.267	112.81
271.483	73.9
271.698	16.55
271.914	82.09
272.13	104.62
272.346	-14.17
272.562	43.18
272.777	149.67
272.993	14.51
273.209	55.47
273.425	39.08
273.64	18.6
273.856	49.32
274.072	-26.45
274.287	69.8
274.503	108.71
274.719	53.42
274.934	22.7
275.15	2.22
275.366	61.61
275.581	14.51
275.797	75.95
276.012	55.47
276.228	77.99
276.444	41.13
276.659	104.62
276.875	-32.6
277.09	61.61
277.306	53.42
277.521	10.41
277.737	34.99
277.952	-16.21
278.168	41.13
278.383	51.37
278.599	110.76
278.814	51.37
279.03	4.27
279.245	39.08
279.461	47.27
279.676	104.62
279.892	41.13
280.107	-38.74
280.322	75.95
280.538	59.56
280.753	55.47
280.969	61.61
281.184	26.79
281.399	28.84
281.615	4.27
281.83	8.36
282.045	-3.93
282.26	47.27
282.476	-1.88
282.691	71.85
282.906	69.8
283.122	55.47
283.337	63.66
283.552	45.23
283.767	-1.88
283.983	125.1
284.198	-28.5
284.413	4.27
284.628	82.09
284.843	88.23
285.058	45.23
285.274	-8.02
285.489	53.42
285.704	73.9
285.919	34.99
286.134	20.65
286.349	53.42
286.564	86.19
286.779	24.75
286.995	94.38
287.21	32.94
287.425	90.28
287.64	32.94
287.855	45.23
288.07	-26.45
288.285	98.47
288.5	32.94
288.715	86.19
288.93	22.7
289.145	102.57
289.36	82.09
289.575	-3.93
289.79	45.23
290.004	30.89
290.219	69.8
290.434	-65.36
290.649	53.42
290.864	51.37
291.079	18.6
291.294	45.23
291.509	-1.88
291.724	-30.55
291.938	-12.12
292.153	53.42
292.368	53.42
292.583	53.42
292.798	-3.93
293.012	86.19
293.227	100.52
293.442	-5.97
293.657	67.75
293.871	125.1
294.086	57.51
294.301	80.04
294.516	20.65
294.73	151.72
294.945	6.31
295.16	73.9
295.374	102.57
295.589	129.19
295.804	26.79
296.018	37.03
296.233	88.23
296.447	75.95
296.662	0.17
296.877	80.04
297.091	73.9
297.306	30.89
297.52	0.17
297.735	53.42
297.949	112.81
298.164	65.71
298.378	49.32
298.593	43.18
298.807	71.85
299.022	26.79
299.236	110.76
299.451	92.33
299.665	110.76
299.88	61.61
300.094	14.51
300.309	51.37
300.523	22.7
300.737	6.31
300.952	86.19
301.166	53.42
301.381	139.43
301.595	133.29
301.809	45.23
302.024	-32.6
302.238	77.99
302.452	59.56
302.667	24.75
302.881	168.1
303.095	26.79
303.309	39.08
303.524	34.99
303.738	22.7
303.952	63.66
304.166	30.89
304.381	37.03
304.595	149.67
304.809	57.51
305.023	112.81
305.237	20.65
305.452	47.27
305.666	69.8
305.88	75.95
306.094	94.38
306.308	88.23
306.522	51.37
306.736	53.42
306.95	47.27
307.164	80.04
307.379	22.7
307.593	71.85
307.807	61.61
308.021	-28.5
308.235	26.79
308.449	0.17
308.663	-3.93
308.877	125.1
309.091	88.23
309.305	69.8
309.519	57.51
309.733	32.94
309.947	45.23
310.161	24.75
310.374	39.08
310.588	57.51
310.802	63.66
311.016	24.75
311.23	59.56
311.444	-20.31
311.658	51.37
311.872	55.47
312.085	61.61
312.299	110.76
312.513	34.99
312.727	53.42
312.941	2.22
313.154	67.75
313.368	49.32
313.582	75.95
313.796	43.18
314.009	67.75
314.223	55.47
314.437	57.51
314.651	18.6
314.864	43.18
315.078	-26.45
315.292	47.27
315.505	-42.84
315.719	100.52
315.933	106.67
316.146	37.03
316.36	-5.97
316.573	84.14
316.787	137.38
317.001	86.19
317.214	4.27
317.428	61.61
317.641	-24.4
317.855	32.94
318.068	45.23
318.282	-44.88
318.495	28.84
318.709	155.82
318.922	49.32
319.136	84.14
319.349	59.56
319.563	125.1
319.776	102.57
319.99	-38.74
320.203	82.09
320.417	-12.12
320.63	51.37
320.843	88.23
321.057	92.33
321.27	49.32
321.483	69.8
321.697	75.95
321.91	131.24
322.124	65.71
322.337	123.05
322.55	75.95
322.763	6.31
322.977	63.66
323.19	57.51
323.403	51.37
323.617	59.56
323.83	69.8
324.043	96.43
324.256	22.7
324.469	4.27
324.683	18.6
324.896	45.23
325.109	84.14
325.322	49.32
325.535	30.89
325.748	77.99
325.962	67.75
326.175	98.47
326.388	75.95
326.601	75.95
326.814	20.65
327.027	24.75
327.24	137.38
327.453	-24.4
327.666	67.75
327.879	102.57
328.092	10.41
328.305	61.61
328.518	-40.79
328.731	45.23
328.944	6.31
329.157	20.65
329.37	82.09
329.583	98.47
329.796	139.43
330.009	49.32
330.222	41.13
330.435	16.55
330.648	108.71
330.861	30.89
331.073	28.84
331.286	94.38
331.499	63.66
331.712	88.23
331.925	94.38
332.138	45.23
332.35	0.17
332.563	6.31
332.776	53.42
332.989	-46.93
333.202	82.09
333.414	59.56
333.627	57.51
333.84	45.23
334.053	63.66
334.265	-12.12
334.478	47.27
334.691	-1.88
334.903	80.04
335.116	0.17
335.329	84.14
335.541	53.42
335.754	57.51
335.966	82.09
336.179	61.61
336.392	53.42
336.604	43.18
336.817	41.13
337.029	34.99
337.242	143.53
337.454	30.89
337.667	96.43
337.88	69.8
338.092	49.32
338.305	110.76
338.517	-44.88
338.729	73.9
338.942	37.03
339.154	30.89
339.367	2.22
339.579	80.04
339.792	75.95
340.004	135.34
340.217	65.71
340.429	45.23
340.641	67.75
340.854	39.08
341.066	34.99
341.278	65.71
341.491	92.33
341.703	94.38
341.915	39.08
342.128	90.28
342.34	100.52
342.552	-1.88
342.764	59.56
342.977	80.04
343.189	65.71
343.401	84.14
343.613	45.23
343.826	59.56
344.038	55.47
344.25	51.37
344.462	73.9
344.674	118.95
344.886	43.18
345.099	63.66
345.311	110.76
345.523	63.66
345.735	0.17
345.947	84.14
346.159	41.13
346.371	55.47
346.583	116.9
346.795	92.33
347.007	-18.26
347.219	80.04
347.431	30.89
347.643	155.82
347.855	24.75
348.067	96.43
348.279	55.47
348.491	69.8
348.703	77.99
348.915	100.52
349.127	10.41
349.339	53.42
349.551	4.27
349.763	2.22
349.975	39.08
350.187	116.9
350.399	96.43
350.61	20.65
350.822	86.19
351.034	108.71
351.246	73.9
351.458	80.04
351.669	129.19
351.881	88.23
352.093	77.99
352.305	102.57
352.517	90.28
352.728	84.14
352.94	92.33
353.152	114.86
353.363	-1.88
353.575	59.56
353.787	16.55
353.999	96.43
354.21	100.52
354.422	37.03
354.633	77.99
354.845	12.46
355.057	57.51
355.268	45.23
355.48	61.61
355.692	67.75
355.903	49.32
356.115	28.84
356.326	-3.93
356.538	143.53
356.749	37.03
356.961	157.86
357.172	2.22
357.384	16.55
357.595	112.81
357.807	32.94
358.018	39.08
358.23	84.14
358.441	104.62
358.653	147.62
358.864	8.36
359.075	51.37
359.287	106.67
359.498	110.76
359.709	61.61
359.921	86.19
360.132	53.42
360.344	28.84
360.555	100.52
360.766	69.8
360.977	0.17
361.189	75.95
361.4	26.79
361.611	108.71
361.823	69.8
362.034	137.38
362.245	53.42
362.456	67.75
362.667	71.85
362.879	104.62
363.09	125.1
363.301	67.75
363.512	59.56
363.723	39.08
363.935	71.85
364.146	51.37
364.357	59.56
364.568	59.56
364.779	-24.4
364.99	77.99
365.201	77.99
365.412	45.23
365.623	30.89
365.834	77.99
366.045	77.99
366.256	51.37
366.467	106.67
366.678	57.51
366.889	69.8
367.1	77.99
367.311	16.55
367.522	65.71
367.733	108.71
367.944	123.05
368.155	22.7
368.366	123.05
368.577	157.86
368.788	82.09
368.999	-24.4
369.209	110.76
369.42	166.06
369.631	198.82
369.842	141.48
370.053	8.36
370.264	108.71
370.474	32.94
370.685	53.42
370.896	69.8
371.107	75.95
371.317	63.66
371.528	49.32
371.739	30.89
371.95	73.9
372.16	39.08
372.371	41.13
372.582	104.62
372.792	106.67
373.003	55.47
373.214	30.89
373.424	82.09
373.635	94.38
373.846	51.37
374.056	37.03
374.267	110.76
374.477	116.9
374.688	75.95
374.898	86.19
375.109	63.66
375.319	157.86
375.53	41.13
375.74	135.34
375.951	49.32
376.161	34.99
376.372	125.1
376.582	57.51
376.793	71.85
377.003	6.31
377.214	41.13
377.424	151.72
377.635	80.04
377.845	65.71
378.055	49.32
378.266	-30.55
378.476	100.52
378.686	131.24
378.897	82.09
379.107	41.13
379.317	77.99
379.528	86.19
379.738	49.32
379.948	43.18
380.158	188.58
380.369	61.61
380.579	133.29
380.789	63.66
380.999	67.75
381.21	43.18
381.42	82.09
381.63	88.23
381.84	131.24
382.05	51.37
382.261	34.99
382.471	112.81
382.681	22.7
382.891	164.01
383.101	129.19
383.311	61.61
383.521	18.6
383.731	47.27
383.941	106.67
384.151	45.23
384.361	135.34
384.571	139.43
384.781	159.91
384.991	176.3
385.201	121
385.411	63.66
385.621	170.15
385.831	106.67
386.041	61.61
386.251	80.04
386.461	151.72
386.671	53.42
386.881	92.33
387.091	61.61
387.301	49.32
387.511	88.23
387.72	71.85
387.93	151.72
388.14	53.42
388.35	51.37
388.56	86.19
388.769	139.43
388.979	96.43
389.189	32.94
389.399	51.37
389.609	53.42
389.818	118.95
390.028	123.05
390.238	145.58
390.447	73.9
390.657	104.62
390.867	94.38
391.076	88.23
391.286	43.18
391.496	108.71
391.705	22.7
391.915	100.52
392.125	84.14
392.334	125.1
392.544	164.01
392.753	135.34
392.963	118.95
393.172	84.14
393.382	88.23
393.591	170.15
393.801	86.19
394.01	211.11
394.22	157.86
394.429	82.09
394.639	94.38
394.848	147.62
395.058	112.81
395.267	170.15
395.477	116.9
395.686	157.86
395.895	166.06
396.105	174.25
396.314	84.14
396.524	157.86
396.733	98.47
396.942	102.57
397.152	188.58
397.361	159.91
397.57	188.58
397.78	77.99
397.989	155.82
398.198	180.39
398.407	51.37
398.617	168.1
398.826	59.56
399.035	106.67
399.244	211.11
399.453	196.78
399.663	114.86
399.872	198.82
400.081	131.24
400.29	217.26
400.499	170.15
400.708	192.68
400.917	188.58
401.127	100.52
401.336	94.38
401.545	192.68
401.754	178.34
401.963	133.29
402.172	192.68
402.381	186.54
402.59	192.68
402.799	209.06
403.008	157.86
403.217	186.54
403.426	190.63
403.635	100.52
403.844	184.49
404.053	186.54
404.262	202.92
404.471	293.03
404.68	278.69
404.888	235.69
405.097	196.78
405.306	278.69
405.515	254.12
405.724	217.26
405.933	327.85
406.142	286.89
406.35	305.32
406.559	288.93
406.768	245.93
406.977	321.7
407.185	303.27
407.394	299.17
407.603	284.84
407.812	362.66
408.02	374.95
408.229	436.39
408.438	288.93
408.646	387.24
408.855	319.65
409.064	372.9
409.272	446.63
409.481	477.35
409.69	481.44
409.898	438.44
410.107	385.19
410.315	454.82
410.524	618.66
410.733	524.45
410.941	524.45
411.15	569.51
411.358	592.03
411.567	604.32
411.775	577.7
411.984	655.52
412.192	743.58
412.401	618.66
412.609	725.15
412.818	741.54
413.026	733.34
413.234	778.4
413.443	850.08
413.651	747.68
413.86	798.88
414.068	1024.16
414.276	985.24
414.485	1005.72
414.693	1015.96
414.901	1069.21
415.11	1075.35
415.318	1052.83
415.526	1134.75
415.734	1112.22
415.943	1257.62
416.151	1319.06
416.359	1276.06
416.567	1370.26
416.776	1333.4
416.984	1527.96
417.192	1618.07
417.4	1419.41
417.608	1511.57
417.817	1575.06
418.025	1732.75
418.233	1845.39
418.441	1806.48
418.649	1826.96
418.857	2001.04
419.065	2021.52
419.273	2001.04
419.481	2132.11
419.689	2285.7
419.897	2379.91
420.105	2322.57
420.313	2451.59
420.521	2551.94
420.729	2590.85
420.937	2627.71
421.145	2852.99
421.353	2928.77
421.561	2953.34
421.769	3201.15
421.977	3188.86
422.185	3172.47
422.393	3438.71
422.601	3743.86
422.809	3530.87
423.017	3537.01
423.224	3858.54
423.432	4020.33
423.64	4065.39
423.848	4288.62
424.056	4178.03
424.263	4462.69
424.471	4491.37
424.679	4599.91
424.887	5056.61
425.094	5050.46
425.302	4999.26
425.51	5181.53
425.718	5351.51
425.925	5521.49
426.133	5591.13
426.341	5793.87
426.548	6084.69
426.756	6385.74
426.964	6361.16
427.171	6617.16
427.379	6678.6
427.586	6957.12
427.794	7168.06
428.001	7477.3
428.209	7714.87
428.417	7565.37
428.624	8329.26
428.832	8206.38
429.039	8044.59
429.247	8118.32
429.454	8923.17
429.662	9558.04
429.869	8888.36
430.076	9644.06
430.284	9248.8
430.491	9865.24
430.699	10375.18
430.906	10323.98
431.114	10405.9
431.321	10940.42
431.528	11134.98
431.736	11673.59
431.943	12185.58
432.15	11986.93
432.358	12072.95
432.565	12791.78
432.772	12543.98
432.979	13273.06
433.187	13623.26
433.394	13721.56
433.601	14604.24
433.808	14647.24
434.016	14440.4
434.223	15263.68
434.43	16052.15
434.637	15853.5
434.844	16656.3
435.052	17153.96
435.259	16791.47
435.466	17121.19
435.673	17104.81
435.88	17991.58
436.087	19113.86
436.294	19109.77
436.501	18771.85
436.708	18808.72
436.915	19670.91
437.122	20254.58
437.329	20318.07
437.537	21096.3
437.743	21358.44
437.95	21405.54
438.157	22421.33
438.364	23193.42
438.571	23201.61
438.778	23254.86
438.985	25243.43
439.192	24299.32
439.399	25169.71
439.606	24657.71
439.813	26009.37
440.02	27445
440.227	26988.3
440.433	26799.89
440.64	27813.63
440.847	27410.18
441.054	28206.84
441.261	30156.51
441.467	29691.62
441.674	30373.6
441.881	31477.45
442.088	31409.87
442.294	31348.43
442.501	31887.04
442.708	32779.96
442.914	33986.21
443.121	35231.38
443.328	34023.08
443.534	36564.6
443.741	35595.92
443.948	35083.92
444.154	37473.9
444.361	37488.24
444.568	37946.98
444.774	37801.58
444.981	38383.2
445.187	39368.27
445.394	41006.65
445.6	40087.11
445.807	44047.88
446.013	42421.8
446.22	42913.31
446.426	44736
446.633	45338.1
446.839	46622.18
447.046	44594.69
447.252	47162.84
447.459	47193.56
447.665	47001.05
447.871	49548.73
448.078	51162.53
448.284	48813.51
448.491	49735.09
448.697	51922.32
448.903	52710.79
449.11	52903.3
449.316	52280.72
449.522	52850.05
449.728	54369.65
449.935	54658.41
450.141	54711.66
450.347	56073.56
450.553	54039.92
450.76	54855.01
450.966	56560.97
451.172	56005.97
451.378	57249.09
451.584	56180.05
451.791	57279.81
451.997	57468.22
452.203	58066.23
452.409	57976.12
452.615	58549.55
452.821	56253.78
453.027	55526.75
453.233	58039.61
453.44	56399.18
453.646	56665.42
453.852	56556.88
454.058	57554.24
454.264	56175.95
454.47	57050.44
454.676	55950.68
454.882	57789.75
455.088	53480.83
455.294	53814.65
455.5	54445.42
455.705	54889.83
455.911	53214.59
456.117	51846.55
456.323	51131.81
456.529	48590.28
456.735	50628.01
456.941	49438.14
457.147	49130.94
457.352	47699.41
457.558	46826.98
457.764	47033.82
457.97	46450.15
458.176	44758.53
458.381	45307.38
458.587	42815.01
458.793	42763.81
458.999	40492.61
459.204	43826.7
459.41	42526.24
459.616	39700.04
459.821	40085.06
460.027	39644.75
460.233	38766.17
460.438	36771.45
460.644	37133.94
460.85	35423.89
461.055	34715.29
461.261	35317.39
461.466	32374.46
461.672	31182.54
461.878	33820.33
462.083	31844.04
462.289	30987.99
462.494	30543.58
462.7	29308.65
462.905	28520.18
463.111	29390.57
463.316	29279.98
463.522	28907.25
463.727	29009.65
463.932	28978.93
464.138	28575.48
464.343	28540.66
464.549	28141.31
464.754	29032.18
464.959	28421.88
465.165	28514.04
465.37	27293.45
465.575	26527.51
465.781	27363.08
465.986	27903.74
466.191	26461.97
466.397	26132.25
