Data from USB4F104151__65__12-42-10-428.txt Node

Date: Fri Mar 14 12:42:10 EDT 2025
User: louis
Spectrometer: USB4F10415
Trigger mode: 4
Integration Time (sec): 3.000000E-2
Scans to average: 1
Electric dark correction enabled: true
Nonlinearity correction enabled: false
Boxcar width: 0
XAxis mode: Wavelengths
Number of Pixels in Spectrum: 3648
>>>>>Begin Spectral Data<<<<<
178.204	-162.64
178.424	-162.64
178.644	-162.64
178.864	-121.68
179.084	-191.31
179.304	-17.24
179.524	-39.76
179.744	-41.81
179.964	27.82
180.184	-39.76
180.404	29.87
180.624	3.24
180.844	38.06
181.064	-7
181.283	25.77
181.503	-25.43
181.723	46.25
181.943	-29.52
182.163	74.92
182.383	9.39
182.602	40.11
182.822	62.63
183.042	31.91
183.262	25.77
183.482	38.06
183.701	25.77
183.921	27.82
184.141	1.19
184.361	81.07
184.58	-9.05
184.8	3.24
185.02	-2.9
185.239	81.07
185.459	-41.81
185.679	62.63
185.898	7.34
186.118	31.91
186.338	3.24
186.557	60.59
186.777	17.58
186.997	31.91
187.216	62.63
187.436	48.3
187.655	97.45
187.875	17.58
188.095	-25.43
188.314	83.11
188.534	7.34
188.753	-9.05
188.973	-2.9
189.192	103.59
189.412	-2.9
189.631	-43.86
189.851	-4.95
190.07	23.72
190.29	-7
190.509	-7
190.729	-15.19
190.948	89.26
191.168	93.35
191.387	31.91
191.607	66.73
191.826	15.53
192.045	50.35
192.265	46.25
192.484	31.91
192.704	31.91
192.923	-52.05
193.142	91.31
193.362	101.55
193.581	79.02
193.8	13.48
194.02	81.07
194.239	-17.24
194.458	-31.57
194.678	31.91
194.897	74.92
195.116	56.49
195.335	50.35
195.555	7.34
195.774	42.15
195.993	50.35
196.212	15.53
196.432	103.59
196.651	48.3
196.87	33.96
197.089	31.91
197.308	89.26
197.528	42.15
197.747	-56.15
197.966	81.07
198.185	91.31
198.404	-31.57
198.623	62.63
198.842	38.06
199.062	66.73
199.281	19.63
199.5	91.31
199.719	36.01
199.938	50.35
200.157	19.63
200.376	31.91
200.595	64.68
200.814	29.87
201.033	42.15
201.252	74.92
201.471	7.34
201.69	62.63
201.909	36.01
202.128	44.2
202.347	-4.95
202.566	38.06
202.785	-35.67
203.004	-33.62
203.223	130.22
203.442	36.01
203.661	44.2
203.879	40.11
204.098	76.97
204.317	66.73
204.536	31.91
204.755	46.25
204.974	107.69
205.193	60.59
205.411	38.06
205.63	46.25
205.849	9.39
206.068	87.21
206.287	-7
206.505	29.87
206.724	64.68
206.943	3.24
207.162	33.96
207.381	79.02
207.599	25.77
207.818	23.72
208.037	-43.86
208.255	13.48
208.474	83.11
208.693	64.68
208.911	-25.43
209.13	29.87
209.349	50.35
209.567	89.26
209.786	31.91
210.005	1.19
210.223	15.53
210.442	1.19
210.661	19.63
210.879	-33.62
211.098	42.15
211.316	81.07
211.535	33.96
211.753	42.15
211.972	-15.19
212.191	50.35
212.409	54.44
212.628	44.2
212.846	9.39
213.065	-2.9
213.283	81.07
213.502	-31.57
213.72	44.2
213.938	-4.95
214.157	48.3
214.375	17.58
214.594	-4.95
214.812	56.49
215.031	52.39
215.249	-17.24
215.467	48.3
215.686	-39.76
215.904	89.26
216.122	-7
216.341	81.07
216.559	81.07
216.778	99.5
216.996	76.97
217.214	15.53
217.432	-35.67
217.651	93.35
217.869	19.63
218.087	-66.39
218.306	56.49
218.524	-23.38
218.742	3.24
218.96	58.54
219.179	44.2
219.397	23.72
219.615	46.25
219.833	85.16
220.051	33.96
220.27	42.15
220.488	-2.9
220.706	52.39
220.924	44.2
221.142	40.11
221.36	21.67
221.578	99.5
221.796	31.91
222.015	93.35
222.233	36.01
222.451	99.5
222.669	15.53
222.887	50.35
223.105	-80.72
223.323	33.96
223.541	25.77
223.759	3.24
223.977	9.39
224.195	31.91
224.413	103.59
224.631	48.3
224.849	-9.05
225.067	56.49
225.285	-7
225.503	31.91
225.721	38.06
225.939	19.63
226.157	29.87
226.375	187.56
226.592	-72.53
226.81	44.2
227.028	64.68
227.246	52.39
227.464	68.78
227.682	95.4
227.9	54.44
228.117	-9.05
228.335	-35.67
228.553	89.26
228.771	66.73
228.989	81.07
229.206	31.91
229.424	-15.19
229.642	19.63
229.86	81.07
230.077	83.11
230.295	42.15
230.513	64.68
230.731	42.15
230.948	64.68
231.166	115.88
231.384	33.96
231.601	42.15
231.819	62.63
232.037	81.07
232.254	-39.76
232.472	-13.14
232.689	1.19
232.907	15.53
233.125	-23.38
233.342	107.69
233.56	-0.85
233.777	-62.29
233.995	40.11
234.213	19.63
234.43	50.35
234.648	15.53
234.865	72.87
235.083	83.11
235.3	40.11
235.518	44.2
235.735	126.12
235.953	56.49
236.17	38.06
236.388	64.68
236.605	13.48
236.822	17.58
237.04	54.44
237.257	13.48
237.475	17.58
237.692	38.06
237.909	9.39
238.127	40.11
238.344	38.06
238.562	107.69
238.779	-17.24
238.996	33.96
239.214	81.07
239.431	23.72
239.648	25.77
239.865	36.01
240.083	-19.29
240.3	97.45
240.517	-15.19
240.735	64.68
240.952	76.97
241.169	23.72
241.386	-0.85
241.603	23.72
241.821	31.91
242.038	60.59
242.255	40.11
242.472	-4.95
242.689	21.67
242.907	25.77
243.124	54.44
243.341	17.58
243.558	52.39
243.775	74.92
243.992	-25.43
244.209	-7
244.426	124.07
244.643	13.48
244.86	27.82
245.078	-13.14
245.295	42.15
245.512	70.83
245.729	42.15
245.946	54.44
246.163	68.78
246.38	56.49
246.597	52.39
246.814	107.69
247.031	-7
247.248	13.48
247.464	93.35
247.681	113.83
247.898	44.2
248.115	60.59
248.332	40.11
248.549	74.92
248.766	93.35
248.983	130.22
249.2	1.19
249.417	36.01
249.633	23.72
249.85	23.72
250.067	117.93
250.284	105.64
250.501	-11.09
250.717	87.21
250.934	13.48
251.151	56.49
251.368	-13.14
251.585	66.73
251.801	-23.38
252.018	46.25
252.235	60.59
252.451	-23.38
252.668	81.07
252.885	95.4
253.102	11.43
253.318	9.39
253.535	21.67
253.752	-2.9
253.968	-2.9
254.185	-82.77
254.401	11.43
254.618	79.02
254.835	44.2
255.051	91.31
255.268	52.39
255.484	13.48
255.701	68.78
255.917	5.29
256.134	40.11
256.351	36.01
256.567	-0.85
256.784	23.72
257	-17.24
257.217	81.07
257.433	-37.72
257.65	-17.24
257.866	15.53
258.082	83.11
258.299	-13.14
258.515	17.58
258.732	83.11
258.948	76.97
259.165	-9.05
259.381	-41.81
259.597	21.67
259.814	29.87
260.03	-60.24
260.246	36.01
260.463	15.53
260.679	60.59
260.895	42.15
261.112	23.72
261.328	-17.24
261.544	13.48
261.761	60.59
261.977	66.73
262.193	23.72
262.409	87.21
262.626	11.43
262.842	33.96
263.058	-13.14
263.274	111.78
263.49	-21.33
263.707	107.69
263.923	31.91
264.139	33.96
264.355	66.73
264.571	50.35
264.787	33.96
265.004	81.07
265.22	-76.63
265.436	68.78
265.652	15.53
265.868	44.2
266.084	17.58
266.3	-21.33
266.516	-52.05
266.732	93.35
266.948	54.44
267.164	89.26
267.38	50.35
267.596	103.59
267.812	126.12
268.028	5.29
268.244	-31.57
268.46	81.07
268.676	5.29
268.892	52.39
269.108	3.24
269.324	-29.52
269.54	-2.9
269.756	113.83
269.972	9.39
270.188	21.67
270.403	9.39
270.619	54.44
270.835	62.63
271.051	-21.33
271.267	25.77
271.483	-0.85
271.698	85.16
271.914	33.96
272.13	119.98
272.346	-25.43
272.562	13.48
272.777	68.78
272.993	52.39
273.209	79.02
273.425	27.82
273.64	54.44
273.856	46.25
274.072	42.15
274.287	-56.15
274.503	25.77
274.719	3.24
274.934	-17.24
275.15	-58.2
275.366	83.11
275.581	-62.29
275.797	19.63
276.012	-27.48
276.228	25.77
276.444	70.83
276.659	42.15
276.875	-68.44
277.09	-2.9
277.306	25.77
277.521	52.39
277.737	89.26
277.952	56.49
278.168	31.91
278.383	27.82
278.599	13.48
278.814	117.93
279.03	-9.05
279.245	76.97
279.461	44.2
279.676	1.19
279.892	-11.09
280.107	74.92
280.322	46.25
280.538	81.07
280.753	36.01
280.969	60.59
281.184	31.91
281.399	21.67
281.615	79.02
281.83	31.91
282.045	-39.76
282.26	62.63
282.476	-19.29
282.691	21.67
282.906	23.72
283.122	27.82
283.337	3.24
283.552	21.67
283.767	23.72
283.983	-0.85
284.198	56.49
284.413	58.54
284.628	-27.48
284.843	74.92
285.058	17.58
285.274	79.02
285.489	85.16
285.704	70.83
285.919	-19.29
286.134	21.67
286.349	58.54
286.564	-23.38
286.779	38.06
286.995	29.87
287.21	-4.95
287.425	9.39
287.64	-60.24
287.855	62.63
288.07	38.06
288.285	91.31
288.5	68.78
288.715	97.45
288.93	21.67
289.145	21.67
289.36	40.11
289.575	7.34
289.79	54.44
290.004	40.11
290.219	29.87
290.434	64.68
290.649	-33.62
290.864	25.77
291.079	21.67
291.294	-23.38
291.509	-15.19
291.724	46.25
291.938	-29.52
292.153	9.39
292.368	7.34
292.583	56.49
292.798	89.26
293.012	66.73
293.227	21.67
293.442	7.34
293.657	13.48
293.871	42.15
294.086	44.2
294.301	72.87
294.516	64.68
294.73	50.35
294.945	60.59
295.16	44.2
295.374	72.87
295.589	50.35
295.804	50.35
296.018	33.96
296.233	113.83
296.447	89.26
296.662	-15.19
296.877	119.98
297.091	48.3
297.306	7.34
297.52	54.44
297.735	56.49
297.949	60.59
298.164	105.64
298.378	19.63
298.593	-29.52
298.807	33.96
299.022	7.34
299.236	58.54
299.451	7.34
299.665	68.78
299.88	81.07
300.094	13.48
300.309	29.87
300.523	48.3
300.737	-23.38
300.952	9.39
301.166	70.83
301.381	62.63
301.595	48.3
301.809	11.43
302.024	5.29
302.238	9.39
302.452	105.64
302.667	50.35
302.881	7.34
303.095	64.68
303.309	124.07
303.524	5.29
303.738	56.49
303.952	-47.96
304.166	21.67
304.381	25.77
304.595	85.16
304.809	72.87
305.023	38.06
305.237	-35.67
305.452	21.67
305.666	103.59
305.88	64.68
306.094	-4.95
306.308	56.49
306.522	99.5
306.736	50.35
306.95	103.59
307.164	-0.85
307.379	54.44
307.593	56.49
307.807	76.97
308.021	50.35
308.235	31.91
308.449	-56.15
308.663	23.72
308.877	70.83
309.091	21.67
309.305	13.48
309.519	-0.85
309.733	25.77
309.947	5.29
310.161	72.87
310.374	-9.05
310.588	97.45
310.802	-31.57
311.016	-7
311.23	48.3
311.444	-2.9
311.658	111.78
311.872	79.02
312.085	64.68
312.299	27.82
312.513	40.11
312.727	62.63
312.941	-2.9
313.154	-13.14
313.368	33.96
313.582	19.63
313.796	128.17
314.009	95.4
314.223	-21.33
314.437	54.44
314.651	76.97
314.864	11.43
315.078	7.34
315.292	-37.72
315.505	9.39
315.719	87.21
315.933	-33.62
316.146	31.91
316.36	15.53
316.573	13.48
316.787	29.87
317.001	-29.52
317.214	5.29
317.428	62.63
317.641	-35.67
317.855	48.3
318.068	64.68
318.282	56.49
318.495	13.48
318.709	105.64
318.922	31.91
319.136	70.83
319.349	68.78
319.563	25.77
319.776	83.11
319.99	-9.05
320.203	38.06
320.417	36.01
320.63	13.48
320.843	72.87
321.057	33.96
321.27	109.74
321.483	-0.85
321.697	132.26
321.91	33.96
322.124	27.82
322.337	40.11
322.55	56.49
322.763	74.92
322.977	58.54
323.19	-52.05
323.403	21.67
323.617	19.63
323.83	66.73
324.043	25.77
324.256	36.01
324.469	52.39
324.683	76.97
324.896	25.77
325.109	115.88
325.322	25.77
325.535	40.11
325.748	21.67
325.962	74.92
326.175	33.96
326.388	87.21
326.601	7.34
326.814	76.97
327.027	76.97
327.24	58.54
327.453	29.87
327.666	72.87
327.879	33.96
328.092	95.4
328.305	93.35
328.518	97.45
328.731	48.3
328.944	9.39
329.157	33.96
329.37	99.5
329.583	91.31
329.796	107.69
330.009	9.39
330.222	27.82
330.435	58.54
330.648	48.3
330.861	89.26
331.073	7.34
331.286	109.74
331.499	58.54
331.712	31.91
331.925	54.44
332.138	68.78
332.35	25.77
332.563	52.39
332.776	-39.76
332.989	83.11
333.202	101.55
333.414	-54.1
333.627	52.39
333.84	-2.9
334.053	56.49
334.265	29.87
334.478	7.34
334.691	44.2
334.903	33.96
335.116	38.06
335.329	21.67
335.541	13.48
335.754	72.87
335.966	1.19
336.179	27.82
336.392	66.73
336.604	50.35
336.817	87.21
337.029	-7
337.242	103.59
337.454	36.01
337.667	13.48
337.88	91.31
338.092	76.97
338.305	42.15
338.517	76.97
338.729	7.34
338.942	36.01
339.154	7.34
339.367	23.72
339.579	76.97
339.792	33.96
340.004	42.15
340.217	68.78
340.429	1.19
340.641	9.39
340.854	5.29
341.066	23.72
341.278	36.01
341.491	29.87
341.703	19.63
341.915	23.72
342.128	87.21
342.34	46.25
342.552	50.35
342.764	54.44
342.977	81.07
343.189	27.82
343.401	31.91
343.613	3.24
343.826	81.07
344.038	-45.91
344.25	105.64
344.462	42.15
344.674	91.31
344.886	40.11
345.099	23.72
345.311	70.83
345.523	33.96
345.735	5.29
345.947	46.25
346.159	3.24
346.371	31.91
346.583	27.82
346.795	140.46
347.007	-29.52
347.219	-0.85
347.431	13.48
347.643	50.35
347.855	-31.57
348.067	171.18
348.279	17.58
348.491	68.78
348.703	76.97
348.915	31.91
349.127	19.63
349.339	5.29
349.551	33.96
349.763	15.53
349.975	15.53
350.187	-13.14
350.399	72.87
350.61	25.77
350.822	64.68
351.034	99.5
351.246	81.07
351.458	44.2
351.669	81.07
351.881	29.87
352.093	42.15
352.305	62.63
352.517	-0.85
352.728	91.31
352.94	91.31
353.152	-0.85
353.363	33.96
353.575	1.19
353.787	23.72
353.999	113.83
354.21	58.54
354.422	56.49
354.633	5.29
354.845	66.73
355.057	13.48
355.268	46.25
355.48	48.3
355.692	29.87
355.903	-4.95
356.115	48.3
356.326	50.35
356.538	134.31
356.749	89.26
356.961	122.02
357.172	48.3
357.384	74.92
357.595	111.78
357.807	79.02
358.018	72.87
358.23	7.34
358.441	101.55
358.653	79.02
358.864	11.43
359.075	36.01
359.287	38.06
359.498	107.69
359.709	-29.52
359.921	25.77
360.132	19.63
360.344	27.82
360.555	40.11
360.766	76.97
360.977	-52.05
361.189	87.21
361.4	19.63
361.611	-19.29
361.823	117.93
362.034	54.44
362.245	11.43
362.456	15.53
362.667	15.53
362.879	68.78
363.09	27.82
363.301	81.07
363.512	52.39
363.723	15.53
363.935	-7
364.146	68.78
364.357	25.77
364.568	17.58
364.779	-0.85
364.99	74.92
365.201	29.87
365.412	85.16
365.623	81.07
365.834	119.98
366.045	81.07
366.256	40.11
366.467	91.31
366.678	56.49
366.889	36.01
367.1	56.49
367.311	29.87
367.522	-0.85
367.733	105.64
367.944	50.35
368.155	62.63
368.366	99.5
368.577	13.48
368.788	101.55
368.999	17.58
369.209	76.97
369.42	81.07
369.631	107.69
369.842	48.3
370.053	11.43
370.264	122.02
370.474	50.35
370.685	-47.96
370.896	138.41
371.107	40.11
371.317	15.53
371.528	58.54
371.739	62.63
371.95	107.69
372.16	25.77
372.371	3.24
372.582	38.06
372.792	21.67
373.003	122.02
373.214	-19.29
373.424	13.48
373.635	76.97
373.846	103.59
374.056	36.01
374.267	117.93
374.477	19.63
374.688	46.25
374.898	42.15
375.109	-11.09
375.319	15.53
375.53	54.44
375.74	-9.05
375.951	27.82
376.161	54.44
376.372	91.31
376.582	66.73
376.793	54.44
377.003	76.97
377.214	-13.14
377.424	79.02
377.635	85.16
377.845	3.24
378.055	44.2
378.266	48.3
378.476	46.25
378.686	89.26
378.897	52.39
379.107	142.5
379.317	109.74
379.528	58.54
379.738	105.64
379.948	-43.86
380.158	140.46
380.369	-7
380.579	103.59
380.789	81.07
380.999	134.31
381.21	27.82
381.42	99.5
381.63	79.02
381.84	87.21
382.05	107.69
382.261	66.73
382.471	103.59
382.681	95.4
382.891	52.39
383.101	62.63
383.311	31.91
383.521	95.4
383.731	85.16
383.941	9.39
384.151	152.74
384.361	62.63
384.571	13.48
384.781	52.39
384.991	111.78
385.201	126.12
385.411	97.45
385.621	48.3
385.831	93.35
386.041	9.39
386.251	36.01
386.461	97.45
386.671	44.2
386.881	62.63
387.091	60.59
387.301	54.44
387.511	89.26
387.72	60.59
387.93	107.69
388.14	42.15
388.35	62.63
388.56	25.77
388.769	15.53
388.979	21.67
389.189	56.49
389.399	42.15
389.609	91.31
389.818	48.3
390.028	19.63
390.238	93.35
390.447	58.54
390.657	95.4
390.867	99.5
391.076	76.97
391.286	58.54
391.496	29.87
391.705	119.98
391.915	115.88
392.125	74.92
392.334	19.63
392.544	81.07
392.753	107.69
392.963	60.59
393.172	33.96
393.382	60.59
393.591	146.6
393.801	79.02
394.01	128.17
394.22	11.43
394.429	50.35
394.639	9.39
394.848	29.87
395.058	81.07
395.267	64.68
395.477	89.26
395.686	95.4
395.895	91.31
396.105	81.07
396.314	40.11
396.524	93.35
396.733	95.4
396.942	85.16
397.152	122.02
397.361	148.65
397.57	56.49
397.78	107.69
397.989	64.68
398.198	160.94
398.407	93.35
398.617	105.64
398.826	107.69
399.035	56.49
399.244	142.5
399.453	117.93
399.663	132.26
399.872	40.11
400.081	99.5
400.29	138.41
400.499	23.72
400.708	224.42
400.917	29.87
401.127	64.68
401.336	62.63
401.545	156.84
401.754	165.03
401.963	179.37
402.172	113.83
402.381	40.11
402.59	140.46
402.799	89.26
403.008	175.27
403.217	79.02
403.426	103.59
403.635	44.2
403.844	74.92
404.053	160.94
404.262	193.7
404.471	185.51
404.68	214.18
404.888	191.66
405.097	152.74
405.306	189.61
405.515	214.18
405.724	134.31
405.933	162.98
406.142	144.55
406.35	171.18
406.559	236.71
406.768	95.4
406.977	246.95
407.185	251.05
407.394	124.07
407.603	79.02
407.812	222.38
408.02	232.62
408.229	205.99
408.438	273.57
408.646	240.81
408.855	287.91
409.064	228.52
409.272	224.42
409.481	341.16
409.69	279.72
409.898	269.48
410.107	390.31
410.315	261.29
410.524	304.29
410.733	367.78
410.941	320.68
411.15	443.56
411.358	435.36
411.567	386.21
411.775	427.17
411.984	404.64
412.192	421.03
412.401	404.64
412.609	478.37
412.818	464.04
413.026	443.56
413.234	464.04
413.443	548
413.651	591.01
413.86	531.62
414.068	570.53
414.276	599.2
414.485	644.26
414.693	728.22
414.901	707.74
415.11	717.98
415.318	740.51
415.526	801.95
415.734	793.76
415.943	883.87
416.151	808.09
416.359	883.87
416.567	853.15
416.776	847.01
416.984	908.44
417.192	1037.47
417.4	969.88
417.608	908.44
417.817	1008.8
418.025	1072.28
418.233	1156.25
418.441	1150.11
418.649	1213.59
418.857	1281.18
419.065	1350.81
419.273	1297.56
419.481	1342.61
419.689	1504.4
419.897	1571.99
420.105	1569.94
420.313	1496.21
420.521	1703.06
420.729	1645.71
420.937	1701.01
421.145	1744.02
421.353	1961.1
421.561	1997.96
421.769	1977.48
421.977	2100.36
422.185	1938.57
422.393	2180.23
422.601	2374.79
422.809	2290.82
423.017	2260.1
423.224	2385.03
423.432	2567.3
423.64	2593.92
423.848	2657.41
424.056	2712.71
424.263	2782.34
424.471	2866.3
424.679	3097.72
424.887	3140.73
425.094	3179.64
425.302	3247.23
425.51	3458.17
425.718	3355.77
425.925	3462.26
426.133	3517.56
426.341	3871.86
426.548	4039.79
426.756	4025.45
426.964	4185.19
427.171	4144.24
427.379	4346.98
427.586	4459.62
427.794	4566.12
428.001	4908.13
428.209	5024.86
428.417	4883.55
428.624	5233.75
428.832	5325.91
429.039	5293.15
429.247	5262.43
429.454	5715.03
429.662	5952.59
429.869	5680.21
430.076	6085.71
430.284	6083.66
430.491	6212.68
430.699	6569.03
430.906	6573.13
431.114	6653
431.321	6974.53
431.528	6913.09
431.736	7566.39
431.943	7928.88
432.15	7603.25
432.358	7627.83
432.565	8195.12
432.772	8049.71
432.979	8696.87
433.187	8698.92
433.394	8789.03
433.601	9290.78
433.808	9444.38
434.016	9305.12
434.223	9935.89
434.43	10218.51
434.637	9903.12
434.844	10820.61
435.052	11041.79
435.259	10798.09
435.466	10937.35
435.673	10837
435.88	11592.7
436.087	12170.22
436.294	12202.99
436.501	11877.37
436.708	12047.35
436.915	12442.6
437.122	13263.84
437.329	12753.9
437.537	13435.87
437.743	13470.69
437.95	13601.76
438.157	14367.7
438.364	14889.93
438.571	14468.05
438.778	14949.32
438.985	16231.35
439.192	15608.76
439.399	16272.31
439.606	15655.87
439.813	16581.55
440.02	17587.1
440.227	17212.32
440.433	17185.7
440.64	17681.31
440.847	17642.4
441.054	17779.61
441.261	19004.3
441.467	19147.65
441.674	19444.61
441.881	19932.03
442.088	19882.88
442.294	19837.82
442.501	20421.49
442.708	20650.86
442.914	21523.3
443.121	22602.58
443.328	21724
443.534	23616.32
443.741	23040.84
443.948	22567.76
444.154	24079.16
444.361	24052.54
444.568	24281.91
444.774	24525.62
444.981	24494.9
445.187	25338.66
445.394	26235.67
445.6	25797.41
445.807	28529.4
446.013	27040.53
446.22	27896.58
446.426	28893.94
446.633	29233.9
446.839	29782.76
447.046	29057.78
447.252	30169.82
447.459	30116.58
447.665	30753.49
447.871	31593.16
448.078	33188.53
448.284	31341.26
448.491	32430.78
448.697	33606.31
448.903	34159.27
449.11	34073.25
449.316	33702.57
449.522	33921.7
449.728	35144.34
449.935	35345.04
450.141	35455.63
450.347	36149.89
450.553	35037.84
450.76	35830.41
450.966	36786.81
451.172	36375.17
451.378	37014.13
451.584	36829.82
451.791	37268.08
451.997	37124.72
452.203	37931.62
452.409	37993.06
452.615	37739.11
452.821	36201.09
453.027	35871.37
453.233	38132.32
453.44	36291.2
453.646	36717.18
453.852	37175.92
454.058	37796.46
454.264	36530.81
454.47	36999.8
454.676	36375.17
454.882	37692.01
455.088	34513.56
455.294	34622.11
455.5	35293.84
455.705	35941
455.911	34445.98
456.117	33520.3
456.323	33159.86
456.529	31285.97
456.735	32914.1
456.941	31802.05
457.147	31306.44
457.352	30943.95
457.558	30358.24
457.764	30401.24
457.97	29784.8
458.176	29381.35
458.381	28936.95
458.587	27605.77
458.793	27859.71
458.999	26290.97
459.204	28349.18
459.41	27652.87
459.616	25707.3
459.821	25652
460.027	25568.04
460.233	24777.52
460.438	23855.93
460.644	24062.78
460.85	22811.47
461.055	22598.48
461.261	22606.67
461.466	20640.62
461.672	20083.58
461.878	21736.29
462.083	20482.93
462.289	19899.26
462.494	19469.19
462.7	18566.03
462.905	18269.08
463.111	18688.91
463.316	19041.16
463.522	18606.99
463.727	18629.52
463.932	18516.88
464.138	18518.93
464.343	18355.09
464.549	17922.97
464.754	18715.53
464.959	18185.11
465.165	18060.18
465.37	17384.35
465.575	17116.07
465.781	17812.38
465.986	17935.26
466.191	17380.26
466.397	16858.03
466.602	15842.23
466.807	16575.41
467.012	16700.33
467.218	16386.99
467.423	16296.88
467.628	16366.51
467.833	17101.73
468.038	16499.63
