Data from USB4F104151__16__12-41-01-676.txt Node

Date: Fri Mar 14 12:41:01 EDT 2025
User: louis
Spectrometer: USB4F10415
Trigger mode: 4
Integration Time (sec): 3.000000E-2
Scans to average: 1
Electric dark correction enabled: true
Nonlinearity correction enabled: false
Boxcar width: 0
XAxis mode: Wavelengths
Number of Pixels in Spectrum: 3648
>>>>>Begin Spectral Data<<<<<
178.204	-107.69
178.424	-107.69
178.644	-107.69
178.864	-140.46
179.084	-193.7
179.304	31.57
179.524	19.29
179.744	-15.53
179.964	58.2
180.184	23.38
180.404	-5.29
180.624	-13.48
180.844	23.38
181.064	-89.26
181.283	-21.67
181.503	29.52
181.723	-40.11
181.943	-103.59
182.163	33.62
182.383	7
182.602	58.2
182.822	35.67
183.042	60.24
183.262	-19.63
183.482	0.85
183.701	-21.67
183.921	29.52
184.141	9.05
184.361	47.96
184.58	56.15
184.8	2.9
185.02	41.81
185.239	62.29
185.459	25.43
185.679	15.19
185.898	64.34
186.118	52.05
186.338	52.05
186.557	33.62
186.777	19.29
186.997	45.91
187.216	-44.2
187.436	25.43
187.655	72.53
187.875	33.62
188.095	41.81
188.314	47.96
188.534	13.14
188.753	58.2
188.973	-44.2
189.192	29.52
189.412	-58.54
189.631	66.39
189.851	31.57
190.07	56.15
190.29	-29.87
190.509	-1.19
190.729	-40.11
190.948	66.39
191.168	131.92
191.387	60.24
191.607	-72.87
191.826	9.05
192.045	39.76
192.265	95.06
192.484	41.81
192.704	66.39
192.923	17.24
193.142	62.29
193.362	78.68
193.581	70.48
193.8	58.2
194.02	56.15
194.239	-3.24
194.458	25.43
194.678	25.43
194.897	41.81
195.116	62.29
195.335	17.24
195.555	2.9
195.774	7
195.993	82.77
196.212	9.05
196.432	-46.25
196.651	9.05
196.87	-5.29
197.089	99.16
197.308	-11.43
197.528	33.62
197.747	-64.68
197.966	95.06
198.185	127.83
198.404	43.86
198.623	78.68
198.842	33.62
199.062	7
199.281	58.2
199.5	50
199.719	-17.58
199.938	58.2
200.157	74.58
200.376	74.58
200.595	-31.91
200.814	101.2
201.033	29.52
201.252	35.67
201.471	17.24
201.69	33.62
201.909	29.52
202.128	58.2
202.347	103.25
202.566	-3.24
202.785	-9.39
203.004	-50.35
203.223	179.03
203.442	74.58
203.661	-48.3
203.879	78.68
204.098	50
204.317	-31.91
204.536	62.29
204.755	-7.34
204.974	60.24
205.193	15.19
205.411	90.96
205.63	56.15
205.849	37.72
206.068	-5.29
206.287	54.1
206.505	9.05
206.724	39.76
206.943	58.2
207.162	-64.68
207.381	-25.77
207.599	15.19
207.818	23.38
208.037	66.39
208.255	21.33
208.474	54.1
208.693	13.14
208.911	7
209.13	25.43
209.349	-31.91
209.567	58.2
209.786	2.9
210.005	70.48
210.223	68.44
210.442	-31.91
210.661	29.52
210.879	37.72
211.098	-13.48
211.316	93.01
211.535	72.53
211.753	-40.11
211.972	-17.58
212.191	31.57
212.409	64.34
212.628	-15.53
212.846	19.29
213.065	54.1
213.283	78.68
213.502	0.85
213.72	41.81
213.938	31.57
214.157	4.95
214.375	70.48
214.594	45.91
214.812	-27.82
215.031	47.96
215.249	19.29
215.467	78.68
215.686	-9.39
215.904	58.2
216.122	99.16
216.341	33.62
216.559	58.2
216.778	15.19
216.996	123.73
217.214	33.62
217.432	-11.43
217.651	-72.87
217.869	35.67
218.087	58.2
218.306	68.44
218.524	66.39
218.742	29.52
218.96	45.91
219.179	-70.83
219.397	35.67
219.615	88.92
219.833	23.38
220.051	13.14
220.27	80.72
220.488	-7.34
220.706	68.44
220.924	-3.24
221.142	2.9
221.36	78.68
221.578	58.2
221.796	21.33
222.015	-5.29
222.233	-27.82
222.451	17.24
222.669	-36.01
222.887	58.2
223.105	0.85
223.323	80.72
223.541	21.33
223.759	2.9
223.977	76.63
224.195	-5.29
224.413	47.96
224.631	21.33
224.849	29.52
225.067	72.53
225.285	11.09
225.503	86.87
225.721	-33.96
225.939	-33.96
226.157	7
226.375	117.59
226.592	50
226.81	-5.29
227.028	-54.44
227.246	150.36
227.464	33.62
227.682	86.87
227.9	39.76
228.117	-1.19
228.335	35.67
228.553	-13.48
228.771	-3.24
228.989	0.85
229.206	-50.35
229.424	-31.91
229.642	39.76
229.86	37.72
230.077	58.2
230.295	17.24
230.513	66.39
230.731	-40.11
230.948	99.16
231.166	60.24
231.384	-19.63
231.601	0.85
231.819	103.25
232.037	33.62
232.254	-50.35
232.472	15.19
232.689	-7.34
232.907	109.4
233.125	-40.11
233.342	13.14
233.56	-66.73
233.777	-27.82
233.995	-9.39
234.213	72.53
234.43	7
234.648	0.85
234.865	-23.72
235.083	56.15
235.3	0.85
235.518	82.77
235.735	-9.39
235.953	37.72
236.17	54.1
236.388	-11.43
236.605	62.29
236.822	50
237.04	84.82
237.257	9.05
237.475	-38.06
237.692	62.29
237.909	37.72
238.127	25.43
238.344	39.76
238.562	-17.58
238.779	-33.96
238.996	23.38
239.214	39.76
239.431	54.1
239.648	-3.24
239.865	33.62
240.083	31.57
240.3	-7.34
240.517	-15.53
240.735	33.62
240.952	54.1
241.169	54.1
241.386	9.05
241.603	-64.68
241.821	-17.58
242.038	62.29
242.255	11.09
242.472	15.19
242.689	52.05
242.907	0.85
243.124	2.9
243.341	23.38
243.558	52.05
243.775	-3.24
243.992	-52.39
244.209	78.68
244.426	31.57
244.643	50
244.86	39.76
245.078	11.09
245.295	23.38
245.512	113.49
245.729	-9.39
245.946	54.1
246.163	64.34
246.38	27.48
246.597	64.34
246.814	86.87
247.031	-44.2
247.248	-23.72
247.464	68.44
247.681	17.24
247.898	70.48
248.115	13.14
248.332	-23.72
248.549	90.96
248.766	70.48
248.983	7
249.2	64.34
249.417	70.48
249.633	-5.29
249.85	33.62
250.067	-7.34
250.284	29.52
250.501	64.34
250.717	-1.19
250.934	-66.73
251.151	-15.53
251.368	-31.91
251.585	60.24
251.801	25.43
252.018	7
252.235	-23.72
252.451	-23.72
252.668	-17.58
252.885	-7.34
253.102	-1.19
253.318	2.9
253.535	13.14
253.752	-23.72
253.968	11.09
254.185	-5.29
254.401	47.96
254.618	127.83
254.835	-7.34
255.051	86.87
255.268	21.33
255.484	23.38
255.701	15.19
255.917	68.44
256.134	4.95
256.351	11.09
256.567	-76.97
256.784	39.76
257	-72.87
257.217	52.05
257.433	-7.34
257.65	66.39
257.866	47.96
258.082	-21.67
258.299	60.24
258.515	88.92
258.732	52.05
258.948	72.53
259.165	25.43
259.381	19.29
259.597	13.14
259.814	9.05
260.03	2.9
260.246	60.24
260.463	23.38
260.679	43.86
260.895	50
261.112	9.05
261.328	56.15
261.544	60.24
261.761	95.06
261.977	0.85
262.193	29.52
262.409	4.95
262.626	72.53
262.842	-3.24
263.058	-7.34
263.274	88.92
263.49	80.72
263.707	109.4
263.923	31.57
264.139	9.05
264.355	25.43
264.571	66.39
264.787	-33.96
265.004	39.76
265.22	29.52
265.436	47.96
265.652	45.91
265.868	27.48
266.084	-17.58
266.3	50
266.516	39.76
266.732	21.33
266.948	39.76
267.164	76.63
267.38	82.77
267.596	95.06
267.812	82.77
268.028	80.72
268.244	68.44
268.46	-44.2
268.676	47.96
268.892	39.76
269.108	-5.29
269.324	58.2
269.54	45.91
269.756	52.05
269.972	-13.48
270.188	-33.96
270.403	-17.58
270.619	66.39
270.835	15.19
271.051	66.39
271.267	29.52
271.483	43.86
271.698	15.19
271.914	17.24
272.13	60.24
272.346	60.24
272.562	9.05
272.777	95.06
272.993	-91.31
273.209	13.14
273.425	88.92
273.64	-13.48
273.856	47.96
274.072	41.81
274.287	39.76
274.503	-17.58
274.719	103.25
274.934	19.29
275.15	-25.77
275.366	9.05
275.581	19.29
275.797	7
276.012	15.19
276.228	88.92
276.444	107.35
276.659	-29.87
276.875	-23.72
277.09	-1.19
277.306	-17.58
277.521	117.59
277.737	76.63
277.952	31.57
278.168	64.34
278.383	39.76
278.599	-44.2
278.814	101.2
279.03	7
279.245	23.38
279.461	37.72
279.676	47.96
279.892	33.62
280.107	-21.67
280.322	15.19
280.538	-9.39
280.753	15.19
280.969	39.76
281.184	-36.01
281.399	84.82
281.615	27.48
281.83	37.72
282.045	88.92
282.26	7
282.476	58.2
282.691	72.53
282.906	39.76
283.122	41.81
283.337	33.62
283.552	47.96
283.767	-21.67
283.983	35.67
284.198	11.09
284.413	15.19
284.628	29.52
284.843	80.72
285.058	58.2
285.274	-5.29
285.489	11.09
285.704	64.34
285.919	27.48
286.134	13.14
286.349	9.05
286.564	19.29
286.779	76.63
286.995	23.38
287.21	-44.2
287.425	41.81
287.64	-70.83
287.855	-50.35
288.07	4.95
288.285	47.96
288.5	82.77
288.715	103.25
288.93	31.57
289.145	-38.06
289.36	35.67
289.575	-46.25
289.79	4.95
290.004	70.48
290.219	47.96
290.434	-3.24
290.649	-21.67
290.864	45.91
291.079	15.19
291.294	86.87
291.509	31.57
291.724	80.72
291.938	2.9
292.153	90.96
292.368	-17.58
292.583	39.76
292.798	17.24
293.012	90.96
293.227	13.14
293.442	33.62
293.657	90.96
293.871	45.91
294.086	-19.63
294.301	60.24
294.516	107.35
294.73	15.19
294.945	-21.67
295.16	27.48
295.374	60.24
295.589	76.63
295.804	-99.5
296.018	0.85
296.233	133.97
296.447	25.43
296.662	13.14
296.877	68.44
297.091	21.33
297.306	45.91
297.52	29.52
297.735	43.86
297.949	80.72
298.164	82.77
298.378	56.15
298.593	4.95
298.807	-62.63
299.022	43.86
299.236	7
299.451	68.44
299.665	33.62
299.88	90.96
300.094	33.62
300.309	50
300.523	47.96
300.737	64.34
300.952	15.19
301.166	64.34
301.381	9.05
301.595	33.62
301.809	15.19
302.024	31.57
302.238	-66.73
302.452	90.96
302.667	33.62
302.881	64.34
303.095	43.86
303.309	74.58
303.524	-27.82
303.738	56.15
303.952	31.57
304.166	25.43
304.381	23.38
304.595	60.24
304.809	0.85
305.023	45.91
305.237	66.39
305.452	7
305.666	-3.24
305.88	72.53
306.094	58.2
306.308	56.15
306.522	4.95
306.736	45.91
306.95	-19.63
307.164	23.38
307.379	43.86
307.593	70.48
307.807	43.86
308.021	-36.01
308.235	50
308.449	80.72
308.663	-7.34
308.877	90.96
309.091	54.1
309.305	52.05
309.519	-42.15
309.733	52.05
309.947	52.05
310.161	101.2
310.374	47.96
310.588	62.29
310.802	39.76
311.016	121.68
311.23	84.82
311.444	88.92
311.658	19.29
311.872	45.91
312.085	95.06
312.299	45.91
312.513	82.77
312.727	17.24
312.941	50
313.154	-56.49
313.368	39.76
313.582	31.57
313.796	50
314.009	-74.92
314.223	60.24
314.437	62.29
314.651	39.76
314.864	-1.19
315.078	54.1
315.292	-9.39
315.505	21.33
315.719	-56.49
315.933	93.01
316.146	60.24
316.36	15.19
316.573	35.67
316.787	-40.11
317.001	19.29
317.214	4.95
317.428	23.38
317.641	60.24
317.855	-42.15
318.068	52.05
318.282	43.86
318.495	80.72
318.709	15.19
318.922	-25.77
319.136	35.67
319.349	37.72
319.563	-21.67
319.776	-17.58
319.99	-7.34
320.203	78.68
320.417	54.1
320.63	66.39
320.843	74.58
321.057	19.29
321.27	-56.49
321.483	58.2
321.697	72.53
321.91	56.15
322.124	54.1
322.337	33.62
322.55	78.68
322.763	31.57
322.977	88.92
323.19	-1.19
323.403	64.34
323.617	45.91
323.83	80.72
324.043	17.24
324.256	52.05
324.469	4.95
324.683	111.44
324.896	-40.11
325.109	74.58
325.322	-1.19
325.535	109.4
325.748	41.81
325.962	25.43
326.175	29.52
326.388	56.15
326.601	58.2
326.814	47.96
327.027	47.96
327.24	90.96
327.453	-5.29
327.666	74.58
327.879	0.85
328.092	78.68
328.305	119.64
328.518	29.52
328.731	-21.67
328.944	39.76
329.157	-21.67
329.37	-23.72
329.583	56.15
329.796	78.68
330.009	-62.63
330.222	105.3
330.435	74.58
330.648	-19.63
330.861	37.72
331.073	39.76
331.286	56.15
331.499	68.44
331.712	-15.53
331.925	23.38
332.138	2.9
332.35	43.86
332.563	78.68
332.776	35.67
332.989	56.15
333.202	27.48
333.414	103.25
333.627	-42.15
333.84	27.48
334.053	152.4
334.265	127.83
334.478	17.24
334.691	-19.63
334.903	72.53
335.116	-46.25
335.329	84.82
335.541	31.57
335.754	82.77
335.966	-48.3
336.179	2.9
336.392	68.44
336.604	72.53
336.817	4.95
337.029	39.76
337.242	76.63
337.454	47.96
337.667	66.39
337.88	70.48
338.092	25.43
338.305	58.2
338.517	68.44
338.729	35.67
338.942	43.86
339.154	37.72
339.367	54.1
339.579	80.72
339.792	-79.02
340.004	-17.58
340.217	21.33
340.429	68.44
340.641	9.05
340.854	9.05
341.066	25.43
341.278	4.95
341.491	72.53
341.703	84.82
341.915	43.86
342.128	39.76
342.34	23.38
342.552	19.29
342.764	31.57
342.977	19.29
343.189	119.64
343.401	47.96
343.613	7
343.826	23.38
344.038	-19.63
344.25	37.72
344.462	54.1
344.674	50
344.886	-23.72
345.099	29.52
345.311	25.43
345.523	4.95
345.735	-15.53
345.947	50
346.159	43.86
346.371	35.67
346.583	-5.29
346.795	88.92
347.007	54.1
347.219	29.52
347.431	64.34
347.643	11.09
347.855	27.48
348.067	76.63
348.279	21.33
348.491	80.72
348.703	-25.77
348.915	4.95
349.127	93.01
349.339	25.43
349.551	23.38
349.763	23.38
349.975	41.81
350.187	64.34
350.399	62.29
350.61	50
350.822	-1.19
351.034	136.02
351.246	13.14
351.458	37.72
351.669	72.53
351.881	52.05
352.093	35.67
352.305	58.2
352.517	45.91
352.728	52.05
352.94	2.9
353.152	41.81
353.363	31.57
353.575	23.38
353.787	13.14
353.999	62.29
354.21	70.48
354.422	11.09
354.633	27.48
354.845	39.76
355.057	35.67
355.268	31.57
355.48	115.54
355.692	29.52
355.903	-1.19
356.115	-19.63
356.326	7
356.538	101.2
356.749	-13.48
356.961	107.35
357.172	45.91
357.384	-5.29
357.595	90.96
357.807	41.81
358.018	62.29
358.23	84.82
358.441	56.15
358.653	70.48
358.864	-7.34
359.075	-13.48
359.287	0.85
359.498	52.05
359.709	50
359.921	99.16
360.132	11.09
360.344	56.15
360.555	-5.29
360.766	7
360.977	13.14
361.189	68.44
361.4	15.19
361.611	68.44
361.823	25.43
362.034	95.06
362.245	-68.78
362.456	37.72
362.667	68.44
362.879	35.67
363.09	101.2
363.301	45.91
363.512	-13.48
363.723	68.44
363.935	-9.39
364.146	39.76
364.357	-15.53
364.568	11.09
364.779	80.72
364.99	129.88
365.201	82.77
365.412	82.77
365.623	84.82
365.834	21.33
366.045	23.38
366.256	60.24
366.467	64.34
366.678	54.1
366.889	21.33
367.1	-17.58
367.311	58.2
367.522	4.95
367.733	45.91
367.944	39.76
368.155	72.53
368.366	47.96
368.577	2.9
368.788	105.3
368.999	86.87
369.209	52.05
369.42	166.74
369.631	109.4
369.842	2.9
370.053	4.95
370.264	23.38
370.474	2.9
370.685	107.35
370.896	54.1
371.107	93.01
371.317	47.96
371.528	86.87
371.739	138.07
371.95	95.06
372.16	21.33
372.371	39.76
372.582	41.81
372.792	101.2
373.003	62.29
373.214	56.15
373.424	88.92
373.635	47.96
373.846	76.63
374.056	115.54
374.267	37.72
374.477	50
374.688	2.9
374.898	35.67
375.109	66.39
375.319	37.72
375.53	80.72
375.74	99.16
375.951	31.57
376.161	54.1
376.372	47.96
376.582	66.39
376.793	156.5
377.003	52.05
377.214	29.52
377.424	105.3
377.635	25.43
377.845	72.53
378.055	127.83
378.266	45.91
378.476	52.05
378.686	99.16
378.897	58.2
379.107	78.68
379.317	25.43
379.528	-19.63
379.738	35.67
379.948	43.86
380.158	119.64
380.369	19.29
380.579	58.2
380.789	64.34
380.999	11.09
381.21	168.79
381.42	82.77
381.63	70.48
381.84	50
382.05	82.77
382.261	105.3
382.471	125.78
382.681	60.24
382.891	93.01
383.101	74.58
383.311	15.19
383.521	56.15
383.731	64.34
383.941	117.59
384.151	62.29
384.361	103.25
384.571	66.39
384.781	123.73
384.991	129.88
385.201	52.05
385.411	84.82
385.621	99.16
385.831	84.82
386.041	-5.29
386.251	47.96
386.461	148.31
386.671	76.63
386.881	93.01
387.091	105.3
387.301	113.49
387.511	66.39
387.72	74.58
387.93	54.1
388.14	7
388.35	25.43
388.56	154.45
388.769	152.4
388.979	-27.82
389.189	50
389.399	60.24
389.609	164.69
389.818	101.2
390.028	156.5
390.238	50
390.447	-13.48
390.657	21.33
390.867	74.58
391.076	9.05
391.286	70.48
391.496	117.59
391.705	140.12
391.915	37.72
392.125	82.77
392.334	80.72
392.544	72.53
392.753	138.07
392.963	90.96
393.172	2.9
393.382	80.72
393.591	129.88
393.801	119.64
394.01	146.26
394.22	101.2
394.429	72.53
394.639	101.2
394.848	45.91
395.058	95.06
395.267	23.38
395.477	131.92
395.686	41.81
395.895	146.26
396.105	166.74
396.314	99.16
396.524	97.11
396.733	84.82
396.942	95.06
397.152	7
397.361	136.02
397.57	62.29
397.78	148.31
397.989	72.53
398.198	113.49
398.407	150.36
398.617	201.55
398.826	138.07
399.035	76.63
399.244	97.11
399.453	197.46
399.663	86.87
399.872	107.35
400.081	88.92
400.29	70.48
400.499	90.96
400.708	162.64
400.917	107.35
401.127	99.16
401.336	117.59
401.545	179.03
401.754	78.68
401.963	148.31
402.172	103.25
402.381	99.16
402.59	125.78
402.799	146.26
403.008	97.11
403.217	60.24
403.426	146.26
403.635	121.68
403.844	166.74
404.053	154.45
404.262	136.02
404.471	111.44
404.68	193.36
404.888	183.12
405.097	84.82
405.306	203.6
405.515	201.55
405.724	148.31
405.933	179.03
406.142	211.79
406.35	283.47
406.559	238.42
406.768	217.94
406.977	228.18
407.185	273.23
407.394	242.51
407.603	252.75
407.812	250.71
408.02	379.73
408.229	254.8
408.438	342.86
408.646	308.05
408.855	293.71
409.064	287.57
409.272	344.91
409.481	412.5
409.69	375.63
409.898	381.78
410.107	375.63
410.315	396.11
410.524	396.11
410.733	430.93
410.941	375.63
411.15	459.6
411.358	453.45
411.567	478.03
411.775	426.83
411.984	553.8
412.192	492.37
412.401	553.8
412.609	467.79
412.818	613.2
413.026	582.48
413.234	541.52
413.443	656.2
413.651	678.73
413.86	830.28
414.068	756.55
414.276	748.36
414.485	858.95
414.693	848.71
414.901	932.68
415.11	828.23
415.318	836.42
415.526	961.35
415.734	981.83
415.943	953.16
416.151	1041.22
416.359	1002.31
416.567	1065.8
416.776	1188.68
416.984	1225.54
417.192	1205.06
417.4	1342.27
417.608	1233.73
417.817	1293.12
418.025	1393.47
418.233	1514.3
418.441	1438.53
418.649	1514.3
418.857	1624.89
419.065	1672
419.273	1692.48
419.481	1837.88
419.689	1776.44
419.897	1897.27
420.105	1905.46
420.313	2071.35
420.521	2067.25
420.729	2104.12
420.937	2196.28
421.145	2249.52
421.353	2327.35
421.561	2343.73
421.769	2448.18
421.977	2648.88
422.185	2507.57
422.393	2622.25
422.601	2878.25
422.809	2767.66
423.017	2933.54
423.224	3095.33
423.432	3207.97
423.64	3068.71
423.848	3474.21
424.056	3347.23
424.263	3601.18
424.471	3574.56
424.679	3722.01
424.887	3834.65
425.094	3965.72
425.302	4109.08
425.51	4195.09
425.718	4549.39
425.925	4303.64
426.133	4436.75
426.341	4793.1
426.548	4944.65
426.756	5055.24
426.964	5061.38
427.171	5411.59
427.379	5487.36
427.586	5692.16
427.794	5681.92
428.001	6052.6
428.209	6286.07
428.417	6169.34
428.624	6691.57
428.832	6433.52
429.039	6613.74
429.247	6390.52
429.454	7187.18
429.662	7774.94
429.869	7351.01
430.076	7748.32
430.284	7529.19
430.491	7875.29
430.699	8237.78
430.906	8053.47
431.114	8276.7
431.321	8737.49
431.528	8917.71
431.736	9519.81
431.943	9827.01
432.15	9593.54
432.358	9646.79
432.565	10472.12
432.772	10455.73
432.979	10871.47
433.187	11008.69
433.394	11033.26
433.601	11969.18
433.808	11934.37
434.016	11721.38
434.223	12313.24
434.43	12839.57
434.637	12722.84
434.844	13728.39
435.052	13775.49
435.259	13484.68
435.466	13560.45
435.673	13879.94
435.88	14590.58
436.087	15358.57
436.294	14989.94
436.501	15131.25
436.708	15250.03
436.915	15829.6
437.122	16456.28
437.329	16521.82
437.537	17033.81
437.743	17132.11
437.95	17001.04
438.157	18223.68
438.364	18608.7
438.571	18557.5
438.778	18952.76
438.985	20611.61
439.192	19698.22
439.399	20242.98
439.606	19847.72
439.813	20920.85
440.02	22151.68
440.227	21907.98
440.433	21660.17
440.64	22444.54
440.847	22190.59
441.054	22817.27
441.261	24519.14
441.467	24099.3
441.674	24459.74
441.881	25321.94
442.088	25242.07
442.294	25346.51
442.501	25981.38
442.708	26208.71
442.914	27468.21
443.121	28461.48
443.328	27335.09
443.534	29677.97
443.741	28694.94
443.948	28250.53
444.154	30617.99
444.361	30581.12
444.568	30665.09
444.774	30210.44
444.981	31054.2
445.187	31809.9
445.394	32614.76
445.6	32717.15
445.807	35742
446.013	34279.75
446.22	34916.67
446.426	36139.31
446.633	36634.92
446.839	37759.25
447.046	36200.75
447.252	37779.73
447.459	38412.56
447.665	38215.95
447.871	39418.11
448.078	41674.97
448.284	39645.43
448.491	40761.58
448.697	42227.92
448.903	42625.23
449.11	42934.47
449.316	42240.21
449.522	43026.63
449.728	44093.62
449.935	44542.13
450.141	44720.3
450.347	45371.55
450.553	44146.87
450.76	44787.88
450.966	46196.88
451.172	45725.85
451.378	46606.48
451.584	45551.77
451.791	46514.32
451.997	46629.01
452.203	47298.69
452.409	47773.82
452.615	47044.74
452.821	45654.17
453.027	45035.69
453.233	47683.71
453.44	45998.23
453.646	46305.43
453.852	46409.87
454.058	47280.26
454.264	45582.49
454.47	46528.66
454.676	45414.56
454.882	46821.51
455.088	43124.93
455.294	43745.47
455.5	44185.78
455.705	44812.46
455.911	42793.16
456.117	42215.63
456.323	41580.76
456.529	39682.3
456.735	41017.57
456.941	39887.09
457.147	39409.92
457.352	38359.31
457.558	37636.38
457.764	38084.88
457.97	37290.27
458.176	36882.72
458.381	36860.19
458.587	34408.78
458.793	34697.54
458.999	32831.84
459.204	34926.91
459.41	34081.1
459.616	31949.17
459.821	31897.97
460.027	32149.87
460.233	31248.76
460.438	29942.16
460.644	30439.81
460.85	28854.69
461.055	28133.8
461.261	28311.97
461.466	25981.38
461.672	25455.06
461.878	27296.18
462.083	25278.93
462.289	25002.46
462.494	24674.78
462.7	23435.76
462.905	23157.24
463.111	23892.46
463.316	23761.39
463.522	23294.45
463.727	23425.52
463.932	23351.79
464.138	23015.93
464.343	23237.11
464.549	22465.02
464.754	23312.88
464.959	23007.73
465.165	23120.37
465.37	22086.15
465.575	21215.76
465.781	22231.55
465.986	22352.38
466.191	21817.86
466.397	21213.71
466.602	20056.61
466.807	20775.45
467.012	20730.39
467.218	20742.68
467.423	20470.3
467.628	20834.84
467.833	21193.23
468.038	20789.78
468.244	20226.59
468.449	21101.08
