Data from USB4F104151__51__12-41-44-001.txt Node

Date: Fri Mar 14 12:41:44 EDT 2025
User: louis
Spectrometer: USB4F10415
Trigger mode: 4
Integration Time (sec): 3.000000E-2
Scans to average: 1
Electric dark correction enabled: true
Nonlinearity correction enabled: false
Boxcar width: 0
XAxis mode: Wavelengths
Number of Pixels in Spectrum: 3648
>>>>>Begin Spectral Data<<<<<
178.204	-88.75
178.424	-88.75
178.644	-88.75
178.864	-131.75
179.084	-55.98
179.304	-35.5
179.524	-92.84
179.744	58.71
179.964	-29.35
180.184	-27.31
180.404	7.51
180.624	-29.35
180.844	1.37
181.064	-19.11
181.283	38.23
181.503	54.61
181.723	73.04
181.943	-101.03
182.163	46.42
182.383	-2.73
182.602	58.71
182.822	-10.92
183.042	3.41
183.262	27.99
183.482	21.85
183.701	-29.35
183.921	-68.27
184.141	27.99
184.361	77.14
184.58	48.47
184.8	9.56
185.02	11.61
185.239	75.09
185.459	81.24
185.679	103.76
185.898	-41.64
186.118	1.37
186.338	5.46
186.557	27.99
186.777	-55.98
186.997	25.94
187.216	25.94
187.436	54.61
187.655	142.68
187.875	56.66
188.095	11.61
188.314	11.61
188.534	44.37
188.753	105.81
188.973	44.37
189.192	66.9
189.412	11.61
189.631	25.94
189.851	1.37
190.07	132.44
190.29	-4.78
190.509	66.9
190.729	40.28
190.948	105.81
191.168	169.3
191.387	58.71
191.607	60.76
191.826	66.9
192.045	23.89
192.265	32.08
192.484	25.94
192.704	36.18
192.923	-4.78
193.142	73.04
193.362	11.61
193.581	62.8
193.8	-39.59
194.02	91.48
194.239	5.46
194.458	15.7
194.678	40.28
194.897	64.85
195.116	58.71
195.335	52.56
195.555	73.04
195.774	23.89
195.993	66.9
196.212	-33.45
196.432	-6.83
196.651	34.13
196.87	23.89
197.089	97.62
197.308	42.32
197.528	38.23
197.747	17.75
197.966	66.9
198.185	77.14
198.404	-10.92
198.623	46.42
198.842	44.37
199.062	93.52
199.281	89.43
199.5	19.8
199.719	15.7
199.938	50.52
200.157	48.47
200.376	83.28
200.595	34.13
200.814	-21.16
201.033	68.95
201.252	73.04
201.471	77.14
201.69	9.56
201.909	48.47
202.128	19.8
202.347	17.75
202.566	15.7
202.785	5.46
203.004	42.32
203.223	126.29
203.442	56.66
203.661	-37.55
203.879	13.65
204.098	73.04
204.317	1.37
204.536	64.85
204.755	103.76
204.974	15.7
205.193	-6.83
205.411	34.13
205.63	19.8
205.849	-8.87
206.068	11.61
206.287	56.66
206.505	66.9
206.724	-51.88
206.943	-76.46
207.162	11.61
207.381	38.23
207.599	21.85
207.818	73.04
208.037	-49.83
208.255	-4.78
208.474	52.56
208.693	-23.21
208.911	-39.59
209.13	15.7
209.349	-0.68
209.567	-35.5
209.786	52.56
210.005	77.14
210.223	42.32
210.442	-2.73
210.661	23.89
210.879	42.32
211.098	1.37
211.316	17.75
211.535	107.86
211.753	15.7
211.972	36.18
212.191	50.52
212.409	32.08
212.628	17.75
212.846	-15.02
213.065	77.14
213.283	101.72
213.502	34.13
213.72	60.76
213.938	34.13
214.157	-2.73
214.375	64.85
214.594	17.75
214.812	34.13
215.031	11.61
215.249	-23.21
215.467	9.56
215.686	64.85
215.904	62.8
216.122	91.48
216.341	62.8
216.559	60.76
216.778	50.52
216.996	62.8
217.214	9.56
217.432	-31.4
217.651	5.46
217.869	32.08
218.087	48.47
218.306	58.71
218.524	21.85
218.742	7.51
218.96	52.56
219.179	9.56
219.397	95.57
219.615	132.44
219.833	40.28
220.051	60.76
220.27	40.28
220.488	107.86
220.706	87.38
220.924	1.37
221.142	-58.03
221.36	89.43
221.578	54.61
221.796	48.47
222.015	60.76
222.233	-35.5
222.451	21.85
222.669	-8.87
222.887	21.85
223.105	9.56
223.323	-12.97
223.541	-2.73
223.759	42.32
223.977	-8.87
224.195	103.76
224.413	-33.45
224.631	30.04
224.849	-12.97
225.067	140.63
225.285	-15.02
225.503	30.04
225.721	-49.83
225.939	44.37
226.157	9.56
226.375	30.04
226.592	17.75
226.81	-12.97
227.028	58.71
227.246	62.8
227.464	11.61
227.682	1.37
227.9	32.08
228.117	81.24
228.335	3.41
228.553	17.75
228.771	46.42
228.989	130.39
229.206	48.47
229.424	79.19
229.642	13.65
229.86	-17.07
230.077	36.18
230.295	-6.83
230.513	1.37
230.731	30.04
230.948	38.23
231.166	60.76
231.384	-10.92
231.601	42.32
231.819	62.8
232.037	-15.02
232.254	-60.07
232.472	56.66
232.689	-66.22
232.907	64.85
233.125	40.28
233.342	-17.07
233.56	7.51
233.777	52.56
233.995	17.75
234.213	97.62
234.43	-2.73
234.648	25.94
234.865	46.42
235.083	85.33
235.3	30.04
235.518	21.85
235.735	109.91
235.953	109.91
236.17	3.41
236.388	1.37
236.605	17.75
236.822	60.76
237.04	54.61
237.257	40.28
237.475	-10.92
237.692	56.66
237.909	111.96
238.127	60.76
238.344	34.13
238.562	27.99
238.779	-23.21
238.996	11.61
239.214	56.66
239.431	-8.87
239.648	21.85
239.865	64.85
240.083	11.61
240.3	93.52
240.517	34.13
240.735	-6.83
240.952	56.66
241.169	101.72
241.386	46.42
241.603	60.76
241.821	-37.55
242.038	132.44
242.255	97.62
242.472	-47.79
242.689	-37.55
242.907	103.76
243.124	99.67
243.341	5.46
243.558	11.61
243.775	40.28
243.992	44.37
244.209	85.33
244.426	126.29
244.643	34.13
244.86	17.75
245.078	1.37
245.295	71
245.512	99.67
245.729	-4.78
245.946	85.33
246.163	95.57
246.38	-29.35
246.597	-33.45
246.814	32.08
247.031	56.66
247.248	27.99
247.464	19.8
247.681	-25.26
247.898	-29.35
248.115	40.28
248.332	73.04
248.549	40.28
248.766	103.76
248.983	19.8
249.2	7.51
249.417	54.61
249.633	-10.92
249.85	42.32
250.067	38.23
250.284	17.75
250.501	40.28
250.717	-0.68
250.934	40.28
251.151	52.56
251.368	-4.78
251.585	-49.83
251.801	17.75
252.018	-55.98
252.235	77.14
252.451	48.47
252.668	-35.5
252.885	17.75
253.102	138.58
253.318	64.85
253.535	-2.73
253.752	-29.35
253.968	93.52
254.185	-66.22
254.401	-74.41
254.618	50.52
254.835	19.8
255.051	23.89
255.268	83.28
255.484	17.75
255.701	75.09
255.917	118.1
256.134	-74.41
256.351	54.61
256.567	-55.98
256.784	79.19
257	58.71
257.217	111.96
257.433	50.52
257.65	68.95
257.866	40.28
258.082	42.32
258.299	-49.83
258.515	3.41
258.732	-4.78
258.948	66.9
259.165	25.94
259.381	25.94
259.597	15.7
259.814	40.28
260.03	54.61
260.246	13.65
260.463	62.8
260.679	-8.87
260.895	-19.11
261.112	99.67
261.328	23.89
261.544	60.76
261.761	118.1
261.977	44.37
262.193	25.94
262.409	71
262.626	-12.97
262.842	62.8
263.058	36.18
263.274	81.24
263.49	56.66
263.707	138.58
263.923	58.71
264.139	19.8
264.355	7.51
264.571	120.15
264.787	50.52
265.004	34.13
265.22	-12.97
265.436	64.85
265.652	42.32
265.868	30.04
266.084	-4.78
266.3	-0.68
266.516	-98.99
266.732	32.08
266.948	3.41
267.164	3.41
267.38	40.28
267.596	105.81
267.812	101.72
268.028	-10.92
268.244	5.46
268.46	-6.83
268.676	42.32
268.892	30.04
269.108	21.85
269.324	91.48
269.54	-0.68
269.756	48.47
269.972	3.41
270.188	21.85
270.403	9.56
270.619	34.13
270.835	30.04
271.051	21.85
271.267	-27.31
271.483	122.2
271.698	23.89
271.914	19.8
272.13	-23.21
272.346	19.8
272.562	-39.59
272.777	42.32
272.993	19.8
273.209	9.56
273.425	87.38
273.64	-31.4
273.856	111.96
274.072	42.32
274.287	-47.79
274.503	91.48
274.719	1.37
274.934	62.8
275.15	-41.64
275.366	5.46
275.581	-29.35
275.797	95.57
276.012	13.65
276.228	52.56
276.444	-6.83
276.659	95.57
276.875	73.04
277.09	17.75
277.306	19.8
277.521	85.33
277.737	42.32
277.952	23.89
278.168	95.57
278.383	81.24
278.599	-43.69
278.814	66.9
279.03	-29.35
279.245	58.71
279.461	40.28
279.676	46.42
279.892	21.85
280.107	19.8
280.322	15.7
280.538	132.44
280.753	1.37
280.969	130.39
281.184	36.18
281.399	91.48
281.615	58.71
281.83	83.28
282.045	-12.97
282.26	23.89
282.476	19.8
282.691	17.75
282.906	19.8
283.122	-21.16
283.337	50.52
283.552	34.13
283.767	7.51
283.983	54.61
284.198	19.8
284.413	9.56
284.628	52.56
284.843	128.34
285.058	79.19
285.274	75.09
285.489	19.8
285.704	48.47
285.919	25.94
286.134	-27.31
286.349	36.18
286.564	62.8
286.779	46.42
286.995	54.61
287.21	44.37
287.425	60.76
287.64	21.85
287.855	19.8
288.07	-15.02
288.285	75.09
288.5	-21.16
288.715	54.61
288.93	56.66
289.145	-21.16
289.36	34.13
289.575	48.47
289.79	111.96
290.004	-53.93
290.219	27.99
290.434	-29.35
290.649	3.41
290.864	38.23
291.079	-29.35
291.294	7.51
291.509	-43.69
291.724	77.14
291.938	64.85
292.153	44.37
292.368	7.51
292.583	93.52
292.798	42.32
293.012	75.09
293.227	3.41
293.442	17.75
293.657	46.42
293.871	97.62
294.086	21.85
294.301	107.86
294.516	42.32
294.73	-37.55
294.945	-19.11
295.16	15.7
295.374	56.66
295.589	58.71
295.804	-15.02
296.018	-25.26
296.233	71
296.447	38.23
296.662	-12.97
296.877	73.04
297.091	-4.78
297.306	66.9
297.52	-23.21
297.735	91.48
297.949	34.13
298.164	23.89
298.378	52.56
298.593	1.37
298.807	95.57
299.022	44.37
299.236	79.19
299.451	46.42
299.665	36.18
299.88	91.48
300.094	1.37
300.309	66.9
300.523	60.76
300.737	-17.07
300.952	-31.4
301.166	95.57
301.381	36.18
301.595	64.85
301.809	19.8
302.024	42.32
302.238	44.37
302.452	107.86
302.667	50.52
302.881	3.41
303.095	60.76
303.309	89.43
303.524	-21.16
303.738	60.76
303.952	48.47
304.166	56.66
304.381	1.37
304.595	77.14
304.809	62.8
305.023	32.08
305.237	1.37
305.452	19.8
305.666	77.14
305.88	54.61
306.094	-2.73
306.308	42.32
306.522	159.06
306.736	-0.68
306.95	66.9
307.164	77.14
307.379	68.95
307.593	163.15
307.807	79.19
308.021	27.99
308.235	52.56
308.449	-10.92
308.663	75.09
308.877	109.91
309.091	40.28
309.305	44.37
309.519	-64.17
309.733	75.09
309.947	5.46
310.161	36.18
310.374	95.57
310.588	93.52
310.802	27.99
311.016	62.8
311.23	27.99
311.444	66.9
311.658	44.37
311.872	87.38
312.085	50.52
312.299	95.57
312.513	21.85
312.727	62.8
312.941	36.18
313.154	-2.73
313.368	-41.64
313.582	-2.73
313.796	83.28
314.009	44.37
314.223	9.56
314.437	62.8
314.651	3.41
314.864	21.85
315.078	-25.26
315.292	30.04
315.505	46.42
315.719	150.87
315.933	5.46
316.146	15.7
316.36	58.71
316.573	124.24
316.787	99.67
317.001	-39.59
317.214	25.94
317.428	30.04
317.641	9.56
317.855	71
318.068	-6.83
318.282	128.34
318.495	103.76
318.709	130.39
318.922	52.56
319.136	46.42
319.349	7.51
319.563	17.75
319.776	-21.16
319.99	-15.02
320.203	50.52
320.417	-6.83
320.63	79.19
320.843	50.52
321.057	68.95
321.27	-2.73
321.483	62.8
321.697	130.39
321.91	83.28
322.124	5.46
322.337	9.56
322.55	-8.87
322.763	118.1
322.977	1.37
323.19	34.13
323.403	36.18
323.617	-6.83
323.83	73.04
324.043	15.7
324.256	66.9
324.469	-33.45
324.683	52.56
324.896	-15.02
325.109	15.7
325.322	-37.55
325.535	66.9
325.748	-19.11
325.962	30.04
326.175	103.76
326.388	34.13
326.601	136.53
326.814	81.24
327.027	52.56
327.24	79.19
327.453	-25.26
327.666	56.66
327.879	50.52
328.092	1.37
328.305	71
328.518	-41.64
328.731	13.65
328.944	114
329.157	34.13
329.37	83.28
329.583	73.04
329.796	89.43
330.009	1.37
330.222	122.2
330.435	-6.83
330.648	-29.35
330.861	32.08
331.073	32.08
331.286	1.37
331.499	19.8
331.712	21.85
331.925	48.47
332.138	42.32
332.35	34.13
332.563	30.04
332.776	66.9
332.989	46.42
333.202	-8.87
333.414	17.75
333.627	120.15
333.84	-17.07
334.053	75.09
334.265	-29.35
334.478	-68.27
334.691	73.04
334.903	27.99
335.116	-27.31
335.329	58.71
335.541	-55.98
335.754	134.48
335.966	54.61
336.179	77.14
336.392	36.18
336.604	21.85
336.817	44.37
337.029	5.46
337.242	19.8
337.454	30.04
337.667	42.32
337.88	-0.68
338.092	-31.4
338.305	44.37
338.517	77.14
338.729	-31.4
338.942	73.04
339.154	58.71
339.367	-33.45
339.579	75.09
339.792	-6.83
340.004	-15.02
340.217	48.47
340.429	83.28
340.641	81.24
340.854	25.94
341.066	-17.07
341.278	38.23
341.491	27.99
341.703	23.89
341.915	40.28
342.128	19.8
342.34	95.57
342.552	58.71
342.764	11.61
342.977	27.99
343.189	27.99
343.401	-4.78
343.613	38.23
343.826	73.04
344.038	11.61
344.25	56.66
344.462	-2.73
344.674	11.61
344.886	50.52
345.099	48.47
345.311	89.43
345.523	68.95
345.735	-29.35
345.947	56.66
346.159	36.18
346.371	71
346.583	19.8
346.795	42.32
347.007	54.61
347.219	11.61
347.431	40.28
347.643	52.56
347.855	81.24
348.067	48.47
348.279	54.61
348.491	25.94
348.703	42.32
348.915	36.18
349.127	-27.31
349.339	56.66
349.551	-15.02
349.763	27.99
349.975	-74.41
350.187	56.66
350.399	52.56
350.61	107.86
350.822	103.76
351.034	32.08
351.246	101.72
351.458	-2.73
351.669	93.52
351.881	109.91
352.093	5.46
352.305	68.95
352.517	3.41
352.728	126.29
352.94	73.04
353.152	25.94
353.363	19.8
353.575	56.66
353.787	23.89
353.999	73.04
354.21	130.39
354.422	27.99
354.633	68.95
354.845	62.8
355.057	142.68
355.268	75.09
355.48	73.04
355.692	75.09
355.903	27.99
356.115	81.24
356.326	-41.64
356.538	68.95
356.749	21.85
356.961	27.99
357.172	62.8
357.384	56.66
357.595	85.33
357.807	77.14
358.018	54.61
358.23	36.18
358.441	134.48
358.653	81.24
358.864	97.62
359.075	-0.68
359.287	21.85
359.498	-2.73
359.709	126.29
359.921	40.28
360.132	52.56
360.344	97.62
360.555	-10.92
360.766	-31.4
360.977	13.65
361.189	32.08
361.4	15.7
361.611	40.28
361.823	7.51
362.034	17.75
362.245	15.7
362.456	-23.21
362.667	79.19
362.879	44.37
363.09	-31.4
363.301	62.8
363.512	60.76
363.723	36.18
363.935	3.41
364.146	150.87
364.357	77.14
364.568	13.65
364.779	5.46
364.99	58.71
365.201	9.56
365.412	128.34
365.623	-21.16
365.834	21.85
366.045	13.65
366.256	62.8
366.467	48.47
366.678	60.76
366.889	9.56
367.1	17.75
367.311	36.18
367.522	87.38
367.733	58.71
367.944	44.37
368.155	103.76
368.366	71
368.577	-8.87
368.788	159.06
368.999	11.61
369.209	50.52
369.42	154.96
369.631	134.48
369.842	21.85
370.053	128.34
370.264	103.76
370.474	9.56
370.685	30.04
370.896	54.61
371.107	58.71
371.317	56.66
371.528	-47.79
371.739	105.81
371.95	107.86
372.16	79.19
372.371	60.76
372.582	-2.73
372.792	50.52
373.003	11.61
373.214	54.61
373.424	50.52
373.635	13.65
373.846	97.62
374.056	52.56
374.267	36.18
374.477	89.43
374.688	44.37
374.898	42.32
375.109	91.48
375.319	77.14
375.53	32.08
375.74	114
375.951	30.04
376.161	91.48
376.372	138.58
376.582	50.52
376.793	91.48
377.003	42.32
377.214	36.18
377.424	58.71
377.635	97.62
377.845	21.85
378.055	91.48
378.266	36.18
378.476	36.18
378.686	52.56
378.897	118.1
379.107	40.28
379.317	71
379.528	27.99
379.738	89.43
379.948	66.9
380.158	64.85
380.369	93.52
380.579	95.57
380.789	-27.31
380.999	58.71
381.21	75.09
381.42	97.62
381.63	23.89
381.84	101.72
382.05	-2.73
382.261	60.76
382.471	13.65
382.681	27.99
382.891	48.47
383.101	122.2
383.311	25.94
383.521	13.65
383.731	-2.73
383.941	126.29
384.151	36.18
384.361	11.61
384.571	-19.11
384.781	114
384.991	60.76
385.201	56.66
385.411	116.05
385.621	81.24
385.831	52.56
386.041	3.41
386.251	48.47
386.461	85.33
386.671	79.19
386.881	107.86
387.091	77.14
387.301	130.39
387.511	1.37
387.72	1.37
387.93	23.89
388.14	30.04
388.35	75.09
388.56	75.09
388.769	64.85
388.979	79.19
389.189	5.46
389.399	34.13
389.609	52.56
389.818	138.58
390.028	40.28
390.238	83.28
390.447	-29.35
390.657	138.58
390.867	38.23
391.076	-49.83
391.286	105.81
391.496	42.32
391.705	79.19
391.915	111.96
392.125	122.2
392.334	46.42
392.544	140.63
392.753	44.37
392.963	56.66
393.172	142.68
393.382	68.95
393.591	64.85
393.801	-17.07
394.01	159.06
394.22	36.18
394.429	44.37
394.639	44.37
394.848	36.18
395.058	60.76
395.267	83.28
395.477	56.66
395.686	89.43
395.895	89.43
396.105	169.3
396.314	130.39
396.524	126.29
396.733	73.04
396.942	124.24
397.152	52.56
397.361	161.11
397.57	66.9
397.78	83.28
397.989	116.05
398.198	224.59
398.407	42.32
398.617	38.23
398.826	66.9
399.035	109.91
399.244	142.68
399.453	56.66
399.663	89.43
399.872	173.39
400.081	138.58
400.29	134.48
400.499	95.57
400.708	138.58
400.917	32.08
401.127	62.8
401.336	148.82
401.545	105.81
401.754	124.24
401.963	77.14
402.172	111.96
402.381	66.9
402.59	56.66
402.799	77.14
403.008	132.44
403.217	116.05
403.426	124.24
403.635	107.86
403.844	134.48
404.053	136.53
404.262	167.25
404.471	161.11
404.68	142.68
404.888	216.4
405.097	64.85
405.306	179.54
405.515	224.59
405.724	202.07
405.933	202.07
406.142	114
406.35	251.22
406.559	206.16
406.768	165.2
406.977	218.45
407.185	220.5
407.394	218.45
407.603	245.07
407.812	277.84
408.02	322.9
408.229	243.03
408.438	263.51
408.646	183.63
408.855	181.59
409.064	300.37
409.272	216.4
409.481	296.27
409.69	292.18
409.898	261.46
410.107	320.85
410.315	331.09
410.524	306.51
410.733	283.99
410.941	251.22
411.15	349.52
411.358	396.62
411.567	400.72
411.775	318.8
411.984	374.1
412.192	513.36
412.401	400.72
412.609	582.99
412.818	537.93
413.026	515.41
413.234	580.94
413.443	531.79
413.651	601.42
413.86	652.62
414.068	605.52
414.276	679.24
414.485	531.79
414.693	644.43
414.901	695.63
415.11	769.35
415.318	728.39
415.526	697.67
415.734	859.46
415.943	808.27
416.151	933.19
416.359	884.04
416.567	894.28
416.776	957.77
416.984	955.72
417.192	941.38
417.4	1015.11
417.608	1017.16
417.817	976.2
418.025	1111.36
418.233	1047.88
418.441	1217.86
418.649	1211.71
418.857	1281.35
419.065	1303.87
419.273	1322.31
419.481	1305.92
419.689	1475.9
419.897	1500.48
420.105	1559.87
420.313	1600.83
420.521	1701.18
420.729	1711.42
420.937	1688.89
421.145	1838.39
421.353	1928.5
421.561	1965.37
421.769	2020.66
421.977	2071.86
422.185	2086.2
422.393	2209.08
422.601	2204.98
422.809	2397.49
423.017	2356.53
423.224	2448.69
423.432	2561.33
423.64	2534.7
423.848	2884.91
424.056	2776.36
424.263	2882.86
424.471	2882.86
424.679	3003.69
424.887	3145
425.094	3241.25
425.302	3288.36
425.51	3290.4
425.718	3495.2
425.925	3560.73
426.133	3763.48
426.341	3931.42
426.548	4072.73
426.756	3958.04
426.964	4039.96
427.171	4373.78
427.379	4431.12
427.586	4392.21
427.794	4719.89
428.001	4930.83
428.209	4910.35
428.417	5020.94
428.624	5393.67
428.832	5354.76
429.039	5219.59
429.247	5311.75
429.454	5848.32
429.662	6141.18
429.869	5774.59
430.076	6171.9
430.284	6175.99
430.491	6405.36
430.699	6640.88
430.906	6794.48
431.114	6759.66
431.321	6866.16
431.528	7204.07
431.736	7537.89
431.943	7970.01
432.15	7863.52
432.358	7881.95
432.565	8072.41
432.772	8273.11
432.979	8824.01
433.187	8803.53
433.394	8742.1
433.601	9594.05
433.808	9516.23
434.016	9442.5
434.223	9807.04
434.43	10380.47
434.637	10298.55
434.844	10818.74
435.052	11173.03
435.259	10910.89
435.466	10986.67
435.673	10810.54
435.88	11795.62
436.087	12338.33
436.294	12256.41
436.501	12125.34
436.708	12096.67
436.915	12649.62
437.122	13356.17
437.329	13345.93
437.537	13591.69
437.743	13839.49
437.95	13913.22
438.157	14400.63
438.364	14920.82
438.571	14916.72
438.778	15109.23
438.985	16274.53
439.192	15789.16
439.399	16221.28
439.606	16014.43
439.813	16974.93
440.02	17982.53
440.227	17355.85
440.433	17351.76
440.64	17949.76
440.847	17910.85
441.054	18072.64
441.261	19379.25
441.467	19170.35
441.674	19541.04
441.881	20151.33
442.088	20546.59
442.294	20212.77
442.501	20679.71
442.708	21015.57
442.914	21783.56
443.121	22858.74
443.328	22045.7
443.534	23819.24
443.741	23036.92
443.948	22598.65
444.154	24431.58
444.361	24443.87
444.568	24656.86
444.774	24566.75
444.981	24656.86
445.187	25592.78
445.394	26684.35
445.6	25908.17
445.807	28691.36
446.013	27511.73
446.22	28089.26
446.426	29031.32
446.633	29363.09
446.839	30491.52
447.046	29254.55
447.252	30630.79
447.459	30753.66
447.665	30491.52
447.871	31759.22
448.078	33305.43
448.284	31746.93
448.491	33282.91
448.697	33794.9
448.903	34431.82
449.11	34632.52
449.316	34116.43
449.522	34511.69
449.728	35445.56
449.935	35783.48
450.141	35855.15
450.347	36410.15
450.553	35703.6
450.76	35978.03
450.966	36973.35
451.172	36692.77
451.378	37702.42
451.584	36866.85
451.791	37604.12
451.997	37612.31
452.203	38730.5
452.409	38476.55
452.615	38179.6
452.821	37077.79
453.027	36617
453.233	38675.21
453.44	36918.05
453.646	37186.33
453.852	37364.51
454.058	38093.58
454.264	36760.36
454.47	38060.82
454.676	36608.81
454.882	38036.24
455.088	34892.61
455.294	35248.96
455.5	35932.98
455.705	35975.98
455.911	34597.7
456.117	33821.52
456.323	33977.17
456.529	31480.69
456.735	33194.84
456.941	32473.96
457.147	31857.52
457.352	30524.29
457.558	30518.15
457.764	30469
457.97	30051.21
458.176	29631.38
458.381	29457.3
458.587	28009.39
458.793	27886.51
458.999	26778.56
459.204	28269.48
459.41	27577.26
459.616	25811.92
459.821	26055.62
460.027	25648.08
460.233	25015.26
460.438	23897.06
460.644	24210.4
460.85	23038.97
461.055	22959.1
461.261	22815.74
461.466	20874.26
461.672	20405.28
461.878	21810.18
462.083	20214.82
462.289	19776.55
462.494	19840.04
462.7	18967.6
462.905	18353.21
463.111	18885.69
463.316	19213.36
463.522	18828.34
463.727	18594.87
463.932	18701.37
464.138	18523.19
464.343	18580.54
464.549	17777.73
464.754	18592.83
464.959	18299.97
465.165	18383.93
465.37	17628.23
465.575	17235.02
465.781	17718.34
465.986	18334.78
466.191	17235.02
466.397	16917.59
466.602	15963.23
466.807	16882.77
467.012	16835.67
467.218	16798.81
467.423	16174.17
467.628	16387.16
