Data from USB4F104151__39__12-41-23-153.txt Node

Date: Fri Mar 14 12:41:23 EDT 2025
User: louis
Spectrometer: USB4F10415
Trigger mode: 4
Integration Time (sec): 3.000000E-2
Scans to average: 1
Electric dark correction enabled: true
Nonlinearity correction enabled: false
Boxcar width: 0
XAxis mode: Wavelengths
Number of Pixels in Spectrum: 3648
>>>>>Begin Spectral Data<<<<<
178.204	-49.15
178.424	-49.15
178.644	-49.15
178.864	-231.42
179.084	-88.06
179.304	-34.82
179.524	-16.38
179.744	-8.19
179.964	36.86
180.184	34.82
180.404	16.38
180.624	75.77
180.844	-12.29
181.064	-28.67
181.283	-6.14
181.503	-49.15
181.723	-8.19
181.943	-61.44
182.163	43.01
182.383	-30.72
182.602	55.3
182.822	49.15
183.042	77.82
183.262	32.77
183.482	18.43
183.701	43.01
183.921	36.86
184.141	16.38
184.361	90.11
184.58	28.67
184.8	-38.91
185.02	36.86
185.239	14.34
185.459	-2.05
185.679	36.86
185.898	18.43
186.118	83.97
186.338	-14.34
186.557	73.73
186.777	-16.38
186.997	55.3
187.216	40.96
187.436	67.58
187.655	49.15
187.875	28.67
188.095	38.91
188.314	53.25
188.534	36.86
188.753	-14.34
188.973	86.01
189.192	22.53
189.412	43.01
189.631	34.82
189.851	36.86
190.07	98.3
190.29	10.24
190.509	-22.53
190.729	55.3
190.948	49.15
191.168	151.55
191.387	22.53
191.607	16.38
191.826	63.49
192.045	-2.05
192.265	6.14
192.484	32.77
192.704	24.58
192.923	40.96
193.142	215.04
193.362	75.77
193.581	6.14
193.8	53.25
194.02	49.15
194.239	16.38
194.458	38.91
194.678	63.49
194.897	51.2
195.116	47.1
195.335	28.67
195.555	63.49
195.774	16.38
195.993	28.67
196.212	126.97
196.432	-8.19
196.651	47.1
196.87	40.96
197.089	106.49
197.308	6.14
197.528	34.82
197.747	51.2
197.966	30.72
198.185	110.59
198.404	4.1
198.623	67.58
198.842	57.34
199.062	83.97
199.281	-14.34
199.5	10.24
199.719	100.35
199.938	90.11
200.157	75.77
200.376	49.15
200.595	86.01
200.814	4.1
201.033	-8.19
201.252	124.93
201.471	12.29
201.69	90.11
201.909	16.38
202.128	47.1
202.347	83.97
202.566	47.1
202.785	59.39
203.004	4.1
203.223	63.49
203.442	10.24
203.661	28.67
203.879	49.15
204.098	145.41
204.317	2.05
204.536	24.58
204.755	-49.15
204.974	43.01
205.193	-10.24
205.411	96.25
205.63	28.67
205.849	43.01
206.068	77.82
206.287	59.39
206.505	88.06
206.724	51.2
206.943	83.97
207.162	36.86
207.381	-10.24
207.599	53.25
207.818	53.25
208.037	14.34
208.255	28.67
208.474	75.77
208.693	45.06
208.911	38.91
209.13	67.58
209.349	30.72
209.567	38.91
209.786	67.58
210.005	79.87
210.223	51.2
210.442	-20.48
210.661	79.87
210.879	6.14
211.098	24.58
211.316	18.43
211.535	104.45
211.753	14.34
211.972	67.58
212.191	28.67
212.409	55.3
212.628	59.39
212.846	63.49
213.065	-8.19
213.283	106.49
213.502	2.05
213.72	63.49
213.938	10.24
214.157	18.43
214.375	155.65
214.594	49.15
214.812	57.34
215.031	75.77
215.249	0
215.467	32.77
215.686	47.1
215.904	81.92
216.122	47.1
216.341	55.3
216.559	61.44
216.778	79.87
216.996	34.82
217.214	12.29
217.432	24.58
217.651	-43.01
217.869	79.87
218.087	-16.38
218.306	61.44
218.524	124.93
218.742	-8.19
218.96	10.24
219.179	69.63
219.397	47.1
219.615	49.15
219.833	10.24
220.051	6.14
220.27	49.15
220.488	98.3
220.706	96.25
220.924	22.53
221.142	55.3
221.36	100.35
221.578	34.82
221.796	20.48
222.015	30.72
222.233	108.54
222.451	126.97
222.669	-51.2
222.887	49.15
223.105	49.15
223.323	34.82
223.541	-43.01
223.759	30.72
223.977	40.96
224.195	24.58
224.413	75.77
224.631	90.11
224.849	47.1
225.067	147.45
225.285	55.3
225.503	106.49
225.721	-71.68
225.939	26.62
226.157	32.77
226.375	122.88
226.592	47.1
226.81	65.54
227.028	30.72
227.246	79.87
227.464	12.29
227.682	73.73
227.9	94.21
228.117	73.73
228.335	145.41
228.553	40.96
228.771	88.06
228.989	40.96
229.206	40.96
229.424	57.34
229.642	71.68
229.86	53.25
230.077	96.25
230.295	55.3
230.513	40.96
230.731	137.21
230.948	69.63
231.166	96.25
231.384	-26.62
231.601	61.44
231.819	18.43
232.037	83.97
232.254	100.35
232.472	30.72
232.689	96.25
232.907	36.86
233.125	49.15
233.342	-16.38
233.56	49.15
233.777	14.34
233.995	2.05
234.213	53.25
234.43	6.14
234.648	22.53
234.865	100.35
235.083	22.53
235.3	75.77
235.518	2.05
235.735	36.86
235.953	88.06
236.17	96.25
236.388	81.92
236.605	18.43
236.822	40.96
237.04	28.67
237.257	102.4
237.475	24.58
237.692	102.4
237.909	90.11
238.127	-14.34
238.344	88.06
238.562	149.5
238.779	-8.19
238.996	-40.96
239.214	96.25
239.431	129.02
239.648	-18.43
239.865	61.44
240.083	79.87
240.3	-28.67
240.517	43.01
240.735	73.73
240.952	116.73
241.169	67.58
241.386	122.88
241.603	92.16
241.821	49.15
242.038	65.54
242.255	131.07
242.472	22.53
242.689	116.73
242.907	69.63
243.124	108.54
243.341	8.19
243.558	-4.1
243.775	55.3
243.992	32.77
244.209	51.2
244.426	131.07
244.643	69.63
244.86	67.58
245.078	28.67
245.295	83.97
245.512	90.11
245.729	73.73
245.946	32.77
246.163	18.43
246.38	63.49
246.597	24.58
246.814	16.38
247.031	49.15
247.248	65.54
247.464	73.73
247.681	75.77
247.898	71.68
248.115	14.34
248.332	18.43
248.549	96.25
248.766	174.08
248.983	-6.14
249.2	61.44
249.417	43.01
249.633	6.14
249.85	102.4
250.067	110.59
250.284	61.44
250.501	-14.34
250.717	55.3
250.934	47.1
251.151	43.01
251.368	14.34
251.585	36.86
251.801	18.43
252.018	51.2
252.235	88.06
252.451	69.63
252.668	2.05
252.885	92.16
253.102	43.01
253.318	26.62
253.535	55.3
253.752	73.73
253.968	8.19
254.185	0
254.401	106.49
254.618	94.21
254.835	51.2
255.051	106.49
255.268	61.44
255.484	73.73
255.701	16.38
255.917	16.38
256.134	-18.43
256.351	73.73
256.567	20.48
256.784	-6.14
257	-73.73
257.217	108.54
257.433	86.01
257.65	118.78
257.866	55.3
258.082	6.14
258.299	24.58
258.515	67.58
258.732	47.1
258.948	10.24
259.165	69.63
259.381	8.19
259.597	116.73
259.814	57.34
260.03	-14.34
260.246	75.77
260.463	92.16
260.679	106.49
260.895	83.97
261.112	94.21
261.328	104.45
261.544	24.58
261.761	79.87
261.977	40.96
262.193	94.21
262.409	49.15
262.626	116.73
262.842	51.2
263.058	12.29
263.274	94.21
263.49	38.91
263.707	51.2
263.923	61.44
264.139	0
264.355	40.96
264.571	102.4
264.787	32.77
265.004	133.12
265.22	83.97
265.436	53.25
265.652	96.25
265.868	75.77
266.084	45.06
266.3	30.72
266.516	53.25
266.732	53.25
266.948	71.68
267.164	32.77
267.38	28.67
267.596	71.68
267.812	88.06
268.028	69.63
268.244	90.11
268.46	59.39
268.676	90.11
268.892	102.4
269.108	55.3
269.324	65.54
269.54	-10.24
269.756	57.34
269.972	43.01
270.188	32.77
270.403	2.05
270.619	8.19
270.835	59.39
271.051	51.2
271.267	45.06
271.483	65.54
271.698	4.1
271.914	116.73
272.13	67.58
272.346	-8.19
272.562	43.01
272.777	10.24
272.993	-28.67
273.209	32.77
273.425	143.36
273.64	24.58
273.856	92.16
274.072	83.97
274.287	-2.05
274.503	63.49
274.719	73.73
274.934	100.35
275.15	-75.77
275.366	112.64
275.581	36.86
275.797	32.77
276.012	57.34
276.228	40.96
276.444	61.44
276.659	131.07
276.875	-24.58
277.09	26.62
277.306	-28.67
277.521	88.06
277.737	32.77
277.952	100.35
278.168	75.77
278.383	88.06
278.599	63.49
278.814	139.26
279.03	18.43
279.245	126.97
279.461	6.14
279.676	73.73
279.892	10.24
280.107	32.77
280.322	55.3
280.538	75.77
280.753	67.58
280.969	-6.14
281.184	79.87
281.399	57.34
281.615	-4.1
281.83	116.73
282.045	-34.82
282.26	104.45
282.476	28.67
282.691	106.49
282.906	40.96
283.122	40.96
283.337	49.15
283.552	110.59
283.767	98.3
283.983	137.21
284.198	92.16
284.413	65.54
284.628	38.91
284.843	90.11
285.058	30.72
285.274	20.48
285.489	40.96
285.704	86.01
285.919	63.49
286.134	40.96
286.349	20.48
286.564	2.05
286.779	102.4
286.995	43.01
287.21	12.29
287.425	90.11
287.64	28.67
287.855	71.68
288.07	28.67
288.285	139.26
288.5	32.77
288.715	71.68
288.93	18.43
289.145	51.2
289.36	83.97
289.575	114.69
289.79	34.82
290.004	65.54
290.219	83.97
290.434	38.91
290.649	-22.53
290.864	59.39
291.079	65.54
291.294	79.87
291.509	4.1
291.724	38.91
291.938	120.83
292.153	122.88
292.368	34.82
292.583	120.83
292.798	61.44
293.012	83.97
293.227	-18.43
293.442	-8.19
293.657	51.2
293.871	45.06
294.086	18.43
294.301	61.44
294.516	24.58
294.73	22.53
294.945	51.2
295.16	10.24
295.374	8.19
295.589	75.77
295.804	96.25
296.018	36.86
296.233	126.97
296.447	63.49
296.662	-28.67
296.877	57.34
297.091	77.82
297.306	59.39
297.52	22.53
297.735	59.39
297.949	40.96
298.164	135.17
298.378	12.29
298.593	81.92
298.807	94.21
299.022	75.77
299.236	96.25
299.451	38.91
299.665	28.67
299.88	-24.58
300.094	86.01
300.309	57.34
300.523	-61.44
300.737	57.34
300.952	22.53
301.166	79.87
301.381	28.67
301.595	53.25
301.809	34.82
302.024	18.43
302.238	-8.19
302.452	92.16
302.667	26.62
302.881	45.06
303.095	131.07
303.309	28.67
303.524	-38.91
303.738	86.01
303.952	69.63
304.166	49.15
304.381	-12.29
304.595	43.01
304.809	6.14
305.023	43.01
305.237	55.3
305.452	4.1
305.666	102.4
305.88	114.69
306.094	108.54
306.308	92.16
306.522	63.49
306.736	43.01
306.95	86.01
307.164	94.21
307.379	65.54
307.593	131.07
307.807	0
308.021	36.86
308.235	77.82
308.449	-24.58
308.663	45.06
308.877	92.16
309.091	22.53
309.305	32.77
309.519	28.67
309.733	67.58
309.947	28.67
310.161	94.21
310.374	83.97
310.588	69.63
310.802	69.63
311.016	8.19
311.23	149.5
311.444	32.77
311.658	53.25
311.872	16.38
312.085	141.31
312.299	38.91
312.513	114.69
312.727	36.86
312.941	20.48
313.154	-2.05
313.368	100.35
313.582	43.01
313.796	36.86
314.009	40.96
314.223	106.49
314.437	83.97
314.651	38.91
314.864	28.67
315.078	43.01
315.292	67.58
315.505	40.96
315.719	63.49
315.933	53.25
316.146	53.25
316.36	14.34
316.573	63.49
316.787	0
317.001	49.15
317.214	77.82
317.428	-14.34
317.641	-49.15
317.855	20.48
318.068	36.86
318.282	36.86
318.495	139.26
318.709	104.45
318.922	172.03
319.136	59.39
319.349	86.01
319.563	90.11
319.776	63.49
319.99	2.05
320.203	147.45
320.417	30.72
320.63	0
320.843	122.88
321.057	83.97
321.27	-57.34
321.483	55.3
321.697	86.01
321.91	65.54
322.124	67.58
322.337	51.2
322.55	8.19
322.763	83.97
322.977	0
323.19	65.54
323.403	32.77
323.617	104.45
323.83	96.25
324.043	-36.86
324.256	122.88
324.469	51.2
324.683	96.25
324.896	53.25
325.109	81.92
325.322	14.34
325.535	131.07
325.748	65.54
325.962	26.62
326.175	86.01
326.388	69.63
326.601	73.73
326.814	94.21
327.027	120.83
327.24	63.49
327.453	67.58
327.666	75.77
327.879	75.77
328.092	67.58
328.305	14.34
328.518	65.54
328.731	20.48
328.944	0
329.157	36.86
329.37	67.58
329.583	153.6
329.796	126.97
330.009	14.34
330.222	135.17
330.435	86.01
330.648	24.58
330.861	108.54
331.073	79.87
331.286	-26.62
331.499	86.01
331.712	71.68
331.925	22.53
332.138	40.96
332.35	131.07
332.563	61.44
332.776	108.54
332.989	32.77
333.202	-4.1
333.414	55.3
333.627	30.72
333.84	45.06
334.053	-10.24
334.265	53.25
334.478	43.01
334.691	45.06
334.903	-34.82
335.116	24.58
335.329	96.25
335.541	40.96
335.754	133.12
335.966	47.1
336.179	55.3
336.392	63.49
336.604	32.77
336.817	100.35
337.029	34.82
337.242	69.63
337.454	83.97
337.667	98.3
337.88	49.15
338.092	32.77
338.305	55.3
338.517	108.54
338.729	108.54
338.942	53.25
339.154	104.45
339.367	90.11
339.579	51.2
339.792	8.19
340.004	83.97
340.217	65.54
340.429	67.58
340.641	77.82
340.854	102.4
341.066	61.44
341.278	124.93
341.491	124.93
341.703	79.87
341.915	36.86
342.128	53.25
342.34	32.77
342.552	-6.14
342.764	6.14
342.977	86.01
343.189	63.49
343.401	73.73
343.613	55.3
343.826	126.97
344.038	63.49
344.25	108.54
344.462	67.58
344.674	49.15
344.886	55.3
345.099	59.39
345.311	131.07
345.523	81.92
345.735	4.1
345.947	79.87
346.159	65.54
346.371	24.58
346.583	92.16
346.795	145.41
347.007	126.97
347.219	174.08
347.431	40.96
347.643	96.25
347.855	36.86
348.067	86.01
348.279	28.67
348.491	122.88
348.703	38.91
348.915	10.24
349.127	10.24
349.339	55.3
349.551	24.58
349.763	65.54
349.975	71.68
350.187	43.01
350.399	88.06
350.61	147.45
350.822	69.63
351.034	118.78
351.246	96.25
351.458	139.26
351.669	98.3
351.881	71.68
352.093	69.63
352.305	120.83
352.517	26.62
352.728	137.21
352.94	79.87
353.152	79.87
353.363	75.77
353.575	131.07
353.787	71.68
353.999	43.01
354.21	124.93
354.422	16.38
354.633	-8.19
354.845	73.73
355.057	75.77
355.268	24.58
355.48	59.39
355.692	69.63
355.903	86.01
356.115	32.77
356.326	-8.19
356.538	137.21
356.749	45.06
356.961	131.07
357.172	57.34
357.384	6.14
357.595	92.16
357.807	47.1
358.018	59.39
358.23	77.82
358.441	112.64
358.653	176.13
358.864	20.48
359.075	59.39
359.287	108.54
359.498	129.02
359.709	-45.06
359.921	40.96
360.132	110.59
360.344	122.88
360.555	112.64
360.766	106.49
360.977	24.58
361.189	188.41
361.4	2.05
361.611	36.86
361.823	90.11
362.034	-10.24
362.245	57.34
362.456	126.97
362.667	96.25
362.879	36.86
363.09	63.49
363.301	83.97
363.512	112.64
363.723	38.91
363.935	77.82
364.146	75.77
364.357	81.92
364.568	65.54
364.779	-26.62
364.99	102.4
365.201	81.92
365.412	124.93
365.623	-8.19
365.834	71.68
366.045	57.34
366.256	88.06
366.467	61.44
366.678	36.86
366.889	86.01
367.1	61.44
367.311	47.1
367.522	112.64
367.733	126.97
367.944	149.5
368.155	102.4
368.366	81.92
368.577	157.69
368.788	73.73
368.999	90.11
369.209	61.44
369.42	147.45
369.631	51.2
369.842	116.73
370.053	122.88
370.264	98.3
370.474	10.24
370.685	79.87
370.896	73.73
371.107	61.44
371.317	67.58
371.528	34.82
371.739	98.3
371.95	79.87
372.16	118.78
372.371	40.96
372.582	49.15
372.792	120.83
373.003	155.65
373.214	165.89
373.424	65.54
373.635	24.58
373.846	112.64
374.056	47.1
374.267	28.67
374.477	120.83
374.688	77.82
374.898	45.06
375.109	38.91
375.319	18.43
375.53	94.21
375.74	81.92
375.951	180.22
376.161	83.97
376.372	131.07
376.582	65.54
376.793	118.78
377.003	53.25
377.214	102.4
377.424	96.25
377.635	110.59
377.845	59.39
378.055	159.74
378.266	49.15
378.476	92.16
378.686	45.06
378.897	90.11
379.107	114.69
379.317	92.16
379.528	81.92
379.738	124.93
379.948	24.58
380.158	18.43
380.369	104.45
380.579	36.86
380.789	73.73
380.999	163.84
381.21	71.68
381.42	122.88
381.63	55.3
381.84	118.78
382.05	59.39
382.261	81.92
382.471	143.36
382.681	98.3
382.891	180.22
383.101	110.59
383.311	102.4
383.521	45.06
383.731	88.06
383.941	174.08
384.151	112.64
384.361	92.16
384.571	38.91
384.781	100.35
384.991	96.25
385.201	133.12
385.411	106.49
385.621	90.11
385.831	141.31
386.041	104.45
386.251	34.82
386.461	108.54
386.671	65.54
386.881	77.82
387.091	65.54
387.301	79.87
387.511	90.11
387.72	77.82
387.93	143.36
388.14	71.68
388.35	67.58
388.56	151.55
388.769	112.64
388.979	81.92
389.189	61.44
389.399	106.49
389.609	122.88
389.818	102.4
390.028	4.1
390.238	172.03
390.447	40.96
390.657	108.54
390.867	90.11
391.076	104.45
391.286	147.45
391.496	196.61
391.705	108.54
391.915	155.65
392.125	145.41
392.334	114.69
392.544	204.8
392.753	73.73
392.963	159.74
393.172	131.07
393.382	145.41
393.591	153.6
393.801	73.73
394.01	120.83
394.22	161.79
394.429	149.5
394.639	151.55
394.848	133.12
395.058	120.83
395.267	40.96
395.477	169.98
395.686	147.45
395.895	210.94
396.105	163.84
396.314	165.89
396.524	122.88
396.733	124.93
396.942	141.31
397.152	135.17
397.361	122.88
397.57	161.79
397.78	137.21
397.989	174.08
398.198	256
398.407	112.64
398.617	163.84
398.826	112.64
399.035	122.88
399.244	210.94
399.453	221.18
399.663	161.79
399.872	194.56
400.081	143.36
400.29	141.31
400.499	172.03
400.708	135.17
400.917	161.79
401.127	143.36
401.336	167.93
401.545	200.7
401.754	126.97
401.963	215.04
402.172	198.65
402.381	196.61
402.59	167.93
402.799	208.89
403.008	196.61
403.217	196.61
403.426	178.17
403.635	223.23
403.844	161.79
404.053	202.75
404.262	210.94
404.471	286.72
404.68	178.17
404.888	227.32
405.097	239.61
405.306	282.62
405.515	227.32
405.724	235.52
405.933	262.14
406.142	342.01
406.35	266.24
406.559	339.96
406.768	292.86
406.977	256
407.185	354.3
407.394	303.1
407.603	374.78
407.812	364.54
408.02	385.02
408.229	382.97
408.438	305.15
408.646	387.07
408.855	401.4
409.064	385.02
409.272	382.97
409.481	456.7
409.69	385.02
409.898	438.27
410.107	399.35
410.315	522.23
410.524	514.04
410.733	555
410.941	528.38
411.15	540.66
411.358	593.91
411.567	722.93
411.775	681.97
411.984	665.59
412.192	690.17
412.401	651.25
412.609	751.6
412.818	772.08
413.026	749.56
413.234	774.13
413.443	880.63
413.651	845.81
413.86	860.15
414.068	1013.74
414.276	960.5
414.485	935.92
414.693	1019.89
414.901	987.12
415.11	1023.98
415.318	1128.43
415.526	1175.53
415.734	1277.93
415.943	1218.54
416.151	1300.46
416.359	1308.65
416.567	1392.62
416.776	1366
416.984	1429.48
417.192	1529.83
417.4	1560.55
417.608	1456.11
417.817	1529.83
418.025	1802.21
418.233	1808.36
418.441	1763.3
418.649	1920.99
418.857	1984.48
419.065	2179.04
419.273	1890.28
419.481	2205.66
419.689	2224.09
419.897	2275.29
420.105	2484.19
420.313	2521.05
420.521	2469.85
420.729	2351.07
420.937	2664.41
421.145	2688.98
421.353	2891.73
421.561	2951.12
421.769	3108.82
421.977	3225.55
422.185	3131.34
422.393	3416.01
422.601	3551.18
422.809	3522.51
423.017	3530.7
423.224	3729.35
423.432	3755.97
423.64	3891.14
423.848	4313.02
424.056	4110.27
424.263	4503.48
424.471	4407.23
424.679	4671.42
424.887	4804.53
425.094	5005.24
425.302	5005.24
425.51	4968.37
425.718	5257.14
425.925	5384.11
426.133	5625.77
426.341	5762.98
426.548	6209.44
426.756	6143.91
426.964	6262.69
427.171	6707.1
427.379	6694.81
427.586	6868.89
427.794	7135.12
428.001	7417.74
428.209	7761.8
428.417	7530.38
428.624	8075.14
428.832	8236.93
429.039	8322.94
429.247	8105.86
429.454	8853.37
429.662	9353.07
429.869	8841.08
430.076	9410.42
430.284	9238.39
430.491	9670.51
430.699	10297.19
430.906	10096.49
431.114	10159.97
431.321	10643.29
431.528	10968.92
431.736	11564.88
431.943	12236.61
432.15	11827.02
432.358	11935.56
432.565	12762.94
432.772	12685.12
432.979	13223.73
433.187	13467.44
433.394	13424.44
433.601	14434.08
433.808	14434.08
434.016	14260.01
434.223	14911.26
434.43	15908.62
434.637	15658.77
434.844	16641.79
435.052	16985.85
435.259	16928.51
435.466	16967.42
435.673	16854.78
435.88	17946.35
436.087	18931.42
436.294	18945.76
436.501	18489.06
436.708	18927.33
436.915	19437.27
437.122	20430.54
437.329	20053.71
437.537	21012.16
437.743	21143.23
437.95	21300.92
438.157	22116.01
438.364	22822.56
438.571	22927.01
438.778	22965.92
438.985	25169.54
439.192	24174.22
439.399	24845.96
439.606	24647.3
439.813	25769.59
440.02	27623
440.227	26916.45
440.433	26556.01
440.64	27569.76
440.847	27188.83
441.054	27778.65
441.261	29728.31
441.467	29294.15
441.674	29898.3
441.881	31243.81
442.088	31022.63
442.294	30621.23
442.501	31614.49
442.708	32038.42
442.914	33213.96
443.121	34426.35
443.328	33639.93
443.534	36027.87
443.741	35425.76
443.948	34520.56
444.154	37690.82
444.361	36984.27
444.568	37469.64
444.774	37393.86
444.981	38247.86
445.187	38612.4
445.394	40240.54
445.6	40088.99
445.807	43855.2
446.013	41723.27
446.22	42843.51
446.426	43935.07
446.633	44739.93
446.839	46144.83
447.046	44182.88
447.252	46312.77
447.459	46554.43
447.665	46343.48
447.871	48698.65
448.078	50638.08
448.284	48133.41
448.491	49190.16
448.697	51119.35
448.903	52348.13
449.11	52706.52
449.316	51494.13
449.522	52323.55
449.728	53421.26
449.935	54394.05
450.141	54189.25
450.347	55516.34
450.553	53900.49
450.76	54244.55
450.966	55864.49
451.172	55379.12
451.378	56532.13
451.584	55499.95
451.791	56941.72
451.997	56446.11
452.203	57848.97
452.409	57885.84
452.615	57703.57
452.821	55360.69
453.027	55076.02
453.233	57984.14
453.44	55626.93
453.646	56282.28
453.852	56251.56
454.058	57437.33
454.264	55317.68
454.47	56648.86
454.676	55430.32
454.882	57298.07
455.088	52702.43
455.294	52958.42
455.5	53914.83
455.705	53951.69
455.911	52522.21
456.117	51815.66
456.323	50932.98
456.529	48227.62
456.735	49929.48
456.941	48893.21
457.147	48022.82
457.352	46835
457.558	46189.89
457.764	46441.79
457.97	45454.67
458.176	44688.73
458.381	44954.96
458.587	42425.72
458.793	42618.23
458.999	40351.13
459.204	42997.1
459.41	42139
459.616	39249.32
459.821	39062.96
460.027	38944.17
460.233	38311.35
460.438	36763.09
460.644	36871.63
460.85	35431.91
461.055	34616.82
461.261	34565.62
461.466	31876.63
461.672	30953
461.878	33291.78
462.083	30709.29
462.289	30598.7
462.494	30176.82
462.7	28612.17
462.905	28282.45
463.111	29175.36
463.316	29163.07
463.522	28616.27
463.727	28911.17
463.932	28556.88
464.138	28343.89
464.343	28679.75
464.549	27631.19
464.754	28493.39
464.959	28313.17
465.165	28042.84
465.37	26455.66
465.575	26429.04
465.781	27412.06
465.986	27416.16
466.191	26496.62
