Data from USB4F104151__36__12-41-19-464.txt Node

Date: Fri Mar 14 12:41:19 EDT 2025
User: louis
Spectrometer: USB4F10415
Trigger mode: 4
Integration Time (sec): 3.000000E-2
Scans to average: 1
Electric dark correction enabled: true
Nonlinearity correction enabled: false
Boxcar width: 0
XAxis mode: Wavelengths
Number of Pixels in Spectrum: 3648
>>>>>Begin Spectral Data<<<<<
178.204	-29.7
178.424	-29.7
178.644	-29.7
178.864	-142.33
179.084	-191.49
179.304	-37.89
179.524	-37.89
179.744	-23.55
179.964	31.74
180.184	-27.65
180.404	-25.6
180.624	7.17
180.844	-9.22
181.064	-1.02
181.283	105.47
181.503	-29.7
181.723	48.13
181.943	9.22
182.163	78.85
182.383	-7.17
182.602	25.6
182.822	50.18
183.042	87.04
183.262	-13.31
183.482	62.46
183.701	25.6
183.921	50.18
184.141	3.07
184.361	-9.22
184.58	7.17
184.8	70.65
185.02	-27.65
185.239	17.41
185.459	50.18
185.679	25.6
185.898	31.74
186.118	80.89
186.338	17.41
186.557	76.8
186.777	35.84
186.997	39.94
187.216	52.22
187.436	89.09
187.655	37.89
187.875	17.41
188.095	-13.31
188.314	48.13
188.534	27.65
188.753	-35.84
188.973	54.27
189.192	21.5
189.412	136.19
189.631	64.51
189.851	-46.08
190.07	74.75
190.29	3.07
190.509	-11.26
190.729	56.32
190.948	70.65
191.168	175.1
191.387	3.07
191.607	52.22
191.826	25.6
192.045	-11.26
192.265	23.55
192.484	35.84
192.704	-21.5
192.923	9.22
193.142	95.23
193.362	72.7
193.581	113.66
193.8	74.75
194.02	87.04
194.239	58.37
194.458	7.17
194.678	7.17
194.897	1.02
195.116	7.17
195.335	19.46
195.555	54.27
195.774	9.22
195.993	15.36
196.212	39.94
196.432	33.79
196.651	60.42
196.87	64.51
197.089	17.41
197.308	119.81
197.528	37.89
197.747	-21.5
197.966	9.22
198.185	89.09
198.404	46.08
198.623	50.18
198.842	33.79
199.062	29.7
199.281	-9.22
199.5	107.52
199.719	13.31
199.938	50.18
200.157	82.94
200.376	154.62
200.595	123.9
200.814	37.89
201.033	103.42
201.252	39.94
201.471	99.33
201.69	54.27
201.909	72.7
202.128	64.51
202.347	-31.74
202.566	58.37
202.785	9.22
203.004	13.31
203.223	144.38
203.442	52.22
203.661	21.5
203.879	-39.94
204.098	39.94
204.317	52.22
204.536	44.03
204.755	62.46
204.974	103.42
205.193	72.7
205.411	101.37
205.63	117.76
205.849	66.56
206.068	48.13
206.287	130.05
206.505	58.37
206.724	60.42
206.943	11.26
207.162	89.09
207.381	93.18
207.599	1.02
207.818	-27.65
208.037	54.27
208.255	82.94
208.474	35.84
208.693	64.51
208.911	13.31
209.13	13.31
209.349	72.7
209.567	44.03
209.786	97.28
210.005	25.6
210.223	52.22
210.442	-3.07
210.661	72.7
210.879	11.26
211.098	119.81
211.316	95.23
211.535	146.43
211.753	-13.31
211.972	41.98
212.191	21.5
212.409	-27.65
212.628	58.37
212.846	7.17
213.065	19.46
213.283	134.14
213.502	7.17
213.72	15.36
213.938	50.18
214.157	33.79
214.375	25.6
214.594	-3.07
214.812	31.74
215.031	29.7
215.249	15.36
215.467	87.04
215.686	3.07
215.904	68.61
216.122	3.07
216.341	62.46
216.559	60.42
216.778	33.79
216.996	3.07
217.214	46.08
217.432	46.08
217.651	-3.07
217.869	84.99
218.087	80.89
218.306	-11.26
218.524	123.9
218.742	-37.89
218.96	17.41
219.179	-29.7
219.397	64.51
219.615	93.18
219.833	60.42
220.051	-15.36
220.27	66.56
220.488	29.7
220.706	84.99
220.924	60.42
221.142	9.22
221.36	-17.41
221.578	78.85
221.796	48.13
222.015	-1.02
222.233	37.89
222.451	56.32
222.669	-1.02
222.887	68.61
223.105	35.84
223.323	62.46
223.541	29.7
223.759	29.7
223.977	13.31
224.195	95.23
224.413	33.79
224.631	17.41
224.849	93.18
225.067	76.8
225.285	52.22
225.503	5.12
225.721	9.22
225.939	9.22
226.157	11.26
226.375	101.37
226.592	-11.26
226.81	87.04
227.028	97.28
227.246	50.18
227.464	35.84
227.682	48.13
227.9	33.79
228.117	54.27
228.335	70.65
228.553	46.08
228.771	29.7
228.989	31.74
229.206	39.94
229.424	-5.12
229.642	23.55
229.86	62.46
230.077	99.33
230.295	15.36
230.513	19.46
230.731	56.32
230.948	68.61
231.166	29.7
231.384	41.98
231.601	56.32
231.819	15.36
232.037	70.65
232.254	35.84
232.472	46.08
232.689	76.8
232.907	41.98
233.125	39.94
233.342	76.8
233.56	13.31
233.777	78.85
233.995	19.46
234.213	46.08
234.43	19.46
234.648	9.22
234.865	60.42
235.083	64.51
235.3	70.65
235.518	89.09
235.735	58.37
235.953	70.65
236.17	17.41
236.388	7.17
236.605	17.41
236.822	109.57
237.04	21.5
237.257	27.65
237.475	56.32
237.692	21.5
237.909	7.17
238.127	5.12
238.344	99.33
238.562	35.84
238.779	21.5
238.996	44.03
239.214	91.13
239.431	25.6
239.648	13.31
239.865	27.65
240.083	78.85
240.3	48.13
240.517	17.41
240.735	25.6
240.952	21.5
241.169	-15.36
241.386	37.89
241.603	87.04
241.821	9.22
242.038	70.65
242.255	23.55
242.472	27.65
242.689	62.46
242.907	103.42
243.124	56.32
243.341	64.51
243.558	70.65
243.775	-3.07
243.992	78.85
244.209	21.5
244.426	91.13
244.643	39.94
244.86	-19.46
245.078	66.56
245.295	68.61
245.512	72.7
245.729	31.74
245.946	87.04
246.163	29.7
246.38	60.42
246.597	37.89
246.814	39.94
247.031	13.31
247.248	52.22
247.464	66.56
247.681	9.22
247.898	9.22
248.115	56.32
248.332	46.08
248.549	60.42
248.766	146.43
248.983	80.89
249.2	-3.07
249.417	-11.26
249.633	9.22
249.85	15.36
250.067	39.94
250.284	35.84
250.501	-15.36
250.717	62.46
250.934	33.79
251.151	1.02
251.368	87.04
251.585	111.61
251.801	80.89
252.018	23.55
252.235	107.52
252.451	-56.32
252.668	64.51
252.885	31.74
253.102	33.79
253.318	39.94
253.535	-5.12
253.752	50.18
253.968	-19.46
254.185	52.22
254.401	84.99
254.618	89.09
254.835	-17.41
255.051	107.52
255.268	46.08
255.484	37.89
255.701	46.08
255.917	44.03
256.134	-44.03
256.351	7.17
256.567	5.12
256.784	58.37
257	-46.08
257.217	21.5
257.433	52.22
257.65	171.01
257.866	-1.02
258.082	-64.51
258.299	5.12
258.515	84.99
258.732	29.7
258.948	9.22
259.165	84.99
259.381	31.74
259.597	9.22
259.814	31.74
260.03	60.42
260.246	52.22
260.463	48.13
260.679	39.94
260.895	5.12
261.112	5.12
261.328	31.74
261.544	-15.36
261.761	9.22
261.977	-5.12
262.193	7.17
262.409	48.13
262.626	31.74
262.842	31.74
263.058	48.13
263.274	78.85
263.49	29.7
263.707	-17.41
263.923	62.46
264.139	9.22
264.355	113.66
264.571	80.89
264.787	23.55
265.004	93.18
265.22	72.7
265.436	60.42
265.652	-3.07
265.868	50.18
266.084	-21.5
266.3	82.94
266.516	46.08
266.732	62.46
266.948	31.74
267.164	15.36
267.38	39.94
267.596	70.65
267.812	72.7
268.028	35.84
268.244	11.26
268.46	105.47
268.676	39.94
268.892	119.81
269.108	44.03
269.324	41.98
269.54	3.07
269.756	105.47
269.972	-35.84
270.188	56.32
270.403	13.31
270.619	56.32
270.835	80.89
271.051	72.7
271.267	31.74
271.483	54.27
271.698	17.41
271.914	35.84
272.13	33.79
272.346	84.99
272.562	78.85
272.777	97.28
272.993	58.37
273.209	21.5
273.425	68.61
273.64	-13.31
273.856	115.71
274.072	7.17
274.287	13.31
274.503	132.09
274.719	-3.07
274.934	19.46
275.15	15.36
275.366	-21.5
275.581	56.32
275.797	-13.31
276.012	37.89
276.228	1.02
276.444	56.32
276.659	52.22
276.875	33.79
277.09	58.37
277.306	-41.98
277.521	23.55
277.737	19.46
277.952	56.32
278.168	66.56
278.383	33.79
278.599	123.9
278.814	13.31
279.03	-17.41
279.245	56.32
279.461	-7.17
279.676	5.12
279.892	37.89
280.107	13.31
280.322	-19.46
280.538	93.18
280.753	-1.02
280.969	64.51
281.184	62.46
281.399	132.09
281.615	48.13
281.83	136.19
282.045	19.46
282.26	44.03
282.476	46.08
282.691	78.85
282.906	13.31
283.122	76.8
283.337	84.99
283.552	46.08
283.767	58.37
283.983	39.94
284.198	50.18
284.413	84.99
284.628	76.8
284.843	50.18
285.058	74.75
285.274	29.7
285.489	35.84
285.704	37.89
285.919	-13.31
286.134	37.89
286.349	62.46
286.564	66.56
286.779	23.55
286.995	9.22
287.21	58.37
287.425	23.55
287.64	23.55
287.855	17.41
288.07	37.89
288.285	72.7
288.5	66.56
288.715	97.28
288.93	29.7
289.145	54.27
289.36	25.6
289.575	-25.6
289.79	46.08
290.004	33.79
290.219	35.84
290.434	113.66
290.649	-11.26
290.864	58.37
291.079	41.98
291.294	74.75
291.509	80.89
291.724	23.55
291.938	80.89
292.153	74.75
292.368	37.89
292.583	64.51
292.798	39.94
293.012	41.98
293.227	-11.26
293.442	62.46
293.657	21.5
293.871	41.98
294.086	-23.55
294.301	35.84
294.516	25.6
294.73	62.46
294.945	11.26
295.16	76.8
295.374	111.61
295.589	39.94
295.804	35.84
296.018	72.7
296.233	-23.55
296.447	68.61
296.662	41.98
296.877	101.37
297.091	-21.5
297.306	27.65
297.52	130.05
297.735	52.22
297.949	50.18
298.164	-5.12
298.378	-3.07
298.593	1.02
298.807	17.41
299.022	-13.31
299.236	87.04
299.451	-11.26
299.665	48.13
299.88	-13.31
300.094	68.61
300.309	89.09
300.523	-23.55
300.737	62.46
300.952	62.46
301.166	52.22
301.381	87.04
301.595	-62.46
301.809	-5.12
302.024	46.08
302.238	29.7
302.452	111.61
302.667	68.61
302.881	1.02
303.095	68.61
303.309	58.37
303.524	52.22
303.738	76.8
303.952	5.12
304.166	72.7
304.381	-31.74
304.595	80.89
304.809	17.41
305.023	9.22
305.237	-19.46
305.452	74.75
305.666	91.13
305.88	113.66
306.094	111.61
306.308	89.09
306.522	17.41
306.736	39.94
306.95	39.94
307.164	-15.36
307.379	9.22
307.593	97.28
307.807	89.09
308.021	5.12
308.235	33.79
308.449	-52.22
308.663	25.6
308.877	183.29
309.091	52.22
309.305	52.22
309.519	-23.55
309.733	21.5
309.947	9.22
310.161	56.32
310.374	-11.26
310.588	41.98
310.802	1.02
311.016	17.41
311.23	33.79
311.444	66.56
311.658	7.17
311.872	7.17
312.085	3.07
312.299	68.61
312.513	35.84
312.727	17.41
312.941	44.03
313.154	19.46
313.368	78.85
313.582	60.42
313.796	46.08
314.009	48.13
314.223	35.84
314.437	56.32
314.651	64.51
314.864	23.55
315.078	31.74
315.292	66.56
315.505	56.32
315.719	66.56
315.933	7.17
316.146	46.08
316.36	-21.5
316.573	93.18
316.787	62.46
317.001	121.85
317.214	41.98
317.428	132.09
317.641	3.07
317.855	39.94
318.068	50.18
318.282	70.65
318.495	128
318.709	60.42
318.922	-7.17
319.136	25.6
319.349	68.61
319.563	87.04
319.776	64.51
319.99	17.41
320.203	91.13
320.417	3.07
320.63	52.22
320.843	109.57
321.057	101.37
321.27	-105.47
321.483	78.85
321.697	134.14
321.91	41.98
322.124	13.31
322.337	52.22
322.55	138.24
322.763	44.03
322.977	41.98
323.19	50.18
323.403	109.57
323.617	68.61
323.83	68.61
324.043	54.27
324.256	123.9
324.469	3.07
324.683	140.29
324.896	27.65
325.109	76.8
325.322	80.89
325.535	78.85
325.748	84.99
325.962	46.08
326.175	123.9
326.388	80.89
326.601	91.13
326.814	25.6
327.027	46.08
327.24	64.51
327.453	52.22
327.666	9.22
327.879	82.94
328.092	41.98
328.305	62.46
328.518	21.5
328.731	37.89
328.944	66.56
329.157	-7.17
329.37	41.98
329.583	82.94
329.796	74.75
330.009	3.07
330.222	78.85
330.435	68.61
330.648	7.17
330.861	37.89
331.073	21.5
331.286	84.99
331.499	111.61
331.712	109.57
331.925	95.23
332.138	58.37
332.35	84.99
332.563	76.8
332.776	74.75
332.989	60.42
333.202	58.37
333.414	54.27
333.627	29.7
333.84	54.27
334.053	78.85
334.265	-13.31
334.478	56.32
334.691	19.46
334.903	74.75
335.116	-39.94
335.329	62.46
335.541	23.55
335.754	68.61
335.966	15.36
336.179	41.98
336.392	52.22
336.604	41.98
336.817	35.84
337.029	130.05
337.242	68.61
337.454	105.47
337.667	-21.5
337.88	82.94
338.092	70.65
338.305	91.13
338.517	-37.89
338.729	35.84
338.942	76.8
339.154	23.55
339.367	9.22
339.579	7.17
339.792	11.26
340.004	89.09
340.217	-9.22
340.429	78.85
340.641	52.22
340.854	-5.12
341.066	41.98
341.278	48.13
341.491	128
341.703	19.46
341.915	15.36
342.128	54.27
342.34	35.84
342.552	-58.37
342.764	-39.94
342.977	89.09
343.189	44.03
343.401	-17.41
343.613	-7.17
343.826	3.07
344.038	-29.7
344.25	58.37
344.462	21.5
344.674	80.89
344.886	39.94
345.099	97.28
345.311	148.48
345.523	7.17
345.735	-23.55
345.947	64.51
346.159	68.61
346.371	56.32
346.583	68.61
346.795	95.23
347.007	89.09
347.219	84.99
347.431	70.65
347.643	78.85
347.855	-19.46
348.067	82.94
348.279	93.18
348.491	84.99
348.703	39.94
348.915	15.36
349.127	9.22
349.339	39.94
349.551	74.75
349.763	19.46
349.975	64.51
350.187	91.13
350.399	19.46
350.61	54.27
350.822	41.98
351.034	70.65
351.246	72.7
351.458	107.52
351.669	52.22
351.881	54.27
352.093	89.09
352.305	130.05
352.517	166.91
352.728	80.89
352.94	50.18
353.152	58.37
353.363	48.13
353.575	-1.02
353.787	27.65
353.999	89.09
354.21	156.67
354.422	25.6
354.633	46.08
354.845	72.7
355.057	66.56
355.268	62.46
355.48	148.48
355.692	19.46
355.903	37.89
356.115	21.5
356.326	-5.12
356.538	33.79
356.749	107.52
356.961	25.6
357.172	97.28
357.384	-9.22
357.595	193.53
357.807	29.7
358.018	9.22
358.23	58.37
358.441	70.65
358.653	-23.55
358.864	19.46
359.075	58.37
359.287	56.32
359.498	25.6
359.709	62.46
359.921	64.51
360.132	11.26
360.344	37.89
360.555	31.74
360.766	91.13
360.977	64.51
361.189	62.46
361.4	46.08
361.611	50.18
361.823	89.09
362.034	48.13
362.245	-17.41
362.456	-35.84
362.667	46.08
362.879	80.89
363.09	150.53
363.301	15.36
363.512	101.37
363.723	25.6
363.935	-7.17
364.146	50.18
364.357	41.98
364.568	58.37
364.779	33.79
364.99	99.33
365.201	33.79
365.412	134.14
365.623	64.51
365.834	50.18
366.045	41.98
366.256	89.09
366.467	84.99
366.678	87.04
366.889	41.98
367.1	87.04
367.311	97.28
367.522	-23.55
367.733	66.56
367.944	44.03
368.155	46.08
368.366	87.04
368.577	72.7
368.788	93.18
368.999	48.13
369.209	46.08
369.42	142.33
369.631	162.81
369.842	125.95
370.053	50.18
370.264	21.5
370.474	23.55
370.685	-17.41
370.896	103.42
371.107	62.46
371.317	109.57
371.528	64.51
371.739	111.61
371.95	33.79
372.16	134.14
372.371	-58.37
372.582	7.17
372.792	70.65
373.003	41.98
373.214	93.18
373.424	54.27
373.635	89.09
373.846	74.75
374.056	64.51
374.267	134.14
374.477	140.29
374.688	41.98
374.898	35.84
375.109	78.85
375.319	95.23
375.53	80.89
375.74	115.71
375.951	64.51
376.161	21.5
376.372	82.94
376.582	19.46
376.793	74.75
377.003	35.84
377.214	54.27
377.424	15.36
377.635	99.33
377.845	74.75
378.055	121.85
378.266	89.09
378.476	56.32
378.686	60.42
378.897	44.03
379.107	117.76
379.317	115.71
379.528	72.7
379.738	82.94
379.948	15.36
380.158	80.89
380.369	111.61
380.579	39.94
380.789	105.47
380.999	33.79
381.21	113.66
381.42	121.85
381.63	-3.07
381.84	113.66
382.05	-5.12
382.261	25.6
382.471	-23.55
382.681	66.56
382.891	33.79
383.101	74.75
383.311	15.36
383.521	23.55
383.731	84.99
383.941	66.56
384.151	46.08
384.361	27.65
384.571	80.89
384.781	89.09
384.991	177.15
385.201	95.23
385.411	103.42
385.621	119.81
385.831	115.71
386.041	97.28
386.251	-5.12
386.461	84.99
386.671	39.94
386.881	74.75
387.091	80.89
387.301	80.89
387.511	27.65
387.72	74.75
387.93	101.37
388.14	39.94
388.35	19.46
388.56	82.94
388.769	115.71
388.979	123.9
389.189	-17.41
389.399	82.94
389.609	84.99
389.818	80.89
390.028	91.13
390.238	144.38
390.447	158.72
390.657	60.42
390.867	35.84
391.076	29.7
391.286	54.27
391.496	146.43
391.705	95.23
391.915	166.91
392.125	89.09
392.334	64.51
392.544	68.61
392.753	84.99
392.963	130.05
393.172	68.61
393.382	103.42
393.591	70.65
393.801	50.18
394.01	130.05
394.22	70.65
394.429	142.33
394.639	117.76
394.848	119.81
395.058	119.81
395.267	91.13
395.477	64.51
395.686	97.28
395.895	140.29
396.105	136.19
396.314	121.85
396.524	105.47
396.733	27.65
396.942	175.1
397.152	173.05
397.361	134.14
397.57	117.76
397.78	64.51
397.989	123.9
398.198	209.92
398.407	80.89
398.617	105.47
398.826	187.39
399.035	84.99
399.244	138.24
399.453	158.72
399.663	148.48
399.872	222.2
400.081	-11.26
400.29	97.28
400.499	58.37
400.708	152.57
400.917	187.39
401.127	166.91
401.336	125.95
401.545	168.96
401.754	191.49
401.963	152.57
402.172	78.85
402.381	107.52
402.59	214.01
402.799	109.57
403.008	197.63
403.217	121.85
403.426	125.95
403.635	117.76
403.844	66.56
404.053	152.57
404.262	134.14
404.471	185.34
404.68	89.09
404.888	162.81
405.097	156.67
405.306	156.67
405.515	168.96
405.724	162.81
405.933	209.92
406.142	160.77
406.35	152.57
406.559	177.15
406.768	257.02
406.977	277.5
407.185	314.36
407.394	238.59
407.603	109.57
407.812	191.49
408.02	320.51
408.229	199.68
408.438	207.87
408.646	250.88
408.855	193.53
409.064	314.36
409.272	269.31
409.481	304.12
409.69	306.17
409.898	295.93
410.107	273.4
410.315	359.42
410.524	281.6
410.733	455.67
410.941	343.03
411.15	351.23
411.358	416.76
411.567	424.95
411.775	431.1
411.984	377.85
412.192	556.02
412.401	517.11
412.609	474.1
412.818	637.94
413.026	480.25
413.234	506.87
413.443	553.98
413.651	510.97
413.86	611.32
414.068	652.28
414.276	693.24
414.485	670.71
414.693	699.38
414.901	687.09
415.11	760.82
415.318	789.49
415.526	758.77
415.734	846.84
415.943	775.16
416.151	822.26
416.359	889.84
416.567	934.9
416.776	973.81
416.984	1035.25
417.192	1106.93
417.4	1000.43
417.608	1045.49
417.817	1076.21
418.025	1164.27
418.233	1201.13
418.441	1186.8
418.649	1272.81
418.857	1364.97
419.065	1338.35
419.273	1350.64
419.481	1336.3
419.689	1463.27
419.897	1543.14
420.105	1635.3
420.313	1727.46
420.521	1641.45
420.729	1782.76
420.937	1606.63
421.145	1833.96
421.353	1938.4
421.561	2108.38
421.769	2085.86
421.977	2184.16
422.185	2149.34
422.393	2280.41
422.601	2431.96
422.809	2429.91
423.017	2421.72
423.224	2499.55
423.432	2573.27
423.64	2603.99
423.848	2905.04
424.056	2816.98
424.263	3064.79
424.471	2943.96
424.679	3167.18
424.887	3236.81
425.094	3156.94
425.302	3269.58
425.51	3414.99
425.718	3648.46
425.925	3646.41
426.133	3806.15
426.341	4010.95
426.548	4152.26
426.756	4131.78
426.964	4182.98
427.171	4471.74
427.379	4543.42
427.586	4744.12
427.794	4766.65
428.001	4920.24
428.209	5161.91
428.417	5116.85
428.624	5399.47
428.832	5374.89
429.039	5372.85
429.247	5338.03
429.454	6067.11
429.662	6464.41
429.869	5895.08
430.076	6370.21
430.284	6187.94
430.491	6452.13
430.699	6765.46
430.906	6706.07
431.114	6874.01
431.321	7043.99
431.528	7412.62
431.736	7918.47
431.943	8010.63
432.15	7830.41
432.358	7951.24
432.565	8412.03
432.772	8366.98
432.979	8915.83
433.187	9075.57
433.394	9007.99
433.601	9724.78
433.808	9732.97
434.016	9673.58
434.223	9909.1
434.43	10615.65
434.637	10447.71
434.844	11199.32
435.052	11082.58
435.259	11172.69
435.466	11221.84
435.673	11238.23
435.88	11928.39
436.087	12516.16
436.294	12712.77
436.501	12172.1
436.708	12493.63
436.915	12800.83
437.122	13490.99
437.329	13267.77
437.537	13927.21
437.743	14209.83
437.95	14021.42
438.157	14754.59
438.364	15530.77
438.571	15016.73
438.778	15196.95
438.985	16476.93
439.192	16147.21
439.399	16788.22
439.606	16050.96
439.813	17042.17
440.02	17873.65
440.227	17996.53
440.433	17679.09
440.64	18137.84
440.847	18275.05
441.054	18610.92
441.261	19542.74
441.467	19675.86
441.674	20167.37
441.881	20656.84
442.088	20507.34
442.294	20507.34
442.501	21017.28
442.708	21201.6
442.914	22039.22
443.121	23118.5
443.328	22475.43
443.534	24351.37
443.741	23491.23
443.948	22991.52
444.154	24924.8
444.361	24777.35
444.568	24539.79
444.774	24715.91
444.981	25172.61
445.187	26073.71
445.394	26757.74
445.6	26624.62
445.807	29227.59
446.013	27943.51
446.22	28330.58
446.426	29350.46
446.633	29878.84
446.839	30954.02
447.046	29895.22
447.252	31203.88
447.459	31259.17
447.665	31130.15
447.871	32510.48
448.078	33823.23
448.284	32223.76
448.491	33321.48
448.697	34204.15
448.903	34939.37
449.11	35197.41
449.316	34578.93
449.522	35303.91
449.728	36063.71
449.935	36192.73
450.141	36293.08
450.347	37001.68
450.553	35842.53
450.76	36592.08
450.966	37603.78
451.172	37013.96
451.378	38418.87
451.584	37245.38
451.791	38601.14
451.997	37960.12
452.203	38920.62
452.409	39006.64
452.615	38480.31
452.821	37413.32
453.027	36895.18
453.233	38857.14
453.44	37382.6
453.646	37495.24
453.852	38072.76
454.058	38377.91
454.264	37171.66
454.47	38033.85
454.676	37210.57
454.882	38494.64
455.088	35217.89
455.294	35731.93
455.5	36350.42
455.705	36354.52
455.911	35213.8
456.117	34374.13
456.323	34040.31
456.529	32055.83
456.735	33718.78
456.941	32739.85
457.147	32262.68
457.352	31336.99
457.558	30689.84
457.764	31314.47
457.97	30669.36
458.176	29827.64
458.381	29731.39
458.587	28232.27
458.793	28256.85
458.999	26720.87
459.204	28582.48
459.41	27900.5
459.616	25944.69
459.821	26088.05
460.027	25809.53
460.233	25457.28
460.438	24435.34
460.644	24545.93
460.85	23358.11
461.055	22866.6
461.261	22905.51
461.466	21072.57
461.672	20828.87
461.878	22293.16
462.083	20576.97
462.289	20206.28
462.494	20019.92
462.7	19036.89
462.905	18408.17
463.111	19550.93
463.316	19417.82
463.522	19133.15
463.727	19006.17
463.932	19002.08
464.138	19092.19
464.343	18961.12
464.549	18481.89
464.754	19000.03
464.959	18643.68
465.165	18664.16
465.37	17718
465.575	17427.19
465.781	17951.47
465.986	18207.47
466.191	17734.39
466.397	17117.95
466.602	16292.62
466.807	17160.95
467.012	16820.99
467.218	17103.61
467.423	16769.79
