Data from USB4F104151__89__12-42-41-205.txt Node

Date: Fri Mar 14 12:42:41 EDT 2025
User: louis
Spectrometer: USB4F10415
Trigger mode: 4
Integration Time (sec): 3.000000E-2
Scans to average: 1
Electric dark correction enabled: true
Nonlinearity correction enabled: false
Boxcar width: 0
XAxis mode: Wavelengths
Number of Pixels in Spectrum: 3648
>>>>>Begin Spectral Data<<<<<
178.204	-121.17
178.424	-121.17
178.644	-121.17
178.864	-131.41
179.084	-131.41
179.304	-53.59
179.524	-59.73
179.744	-24.92
179.964	57
180.184	-2.39
180.404	7.85
180.624	50.86
180.844	1.71
181.064	-12.63
181.283	36.52
181.503	-29.01
181.723	28.33
181.943	-31.06
182.163	-6.49
182.383	59.05
182.602	32.43
182.822	5.8
183.042	65.19
183.262	11.95
183.482	63.15
183.701	52.91
183.921	9.9
184.141	-35.16
184.361	22.19
184.58	71.34
184.8	48.81
185.02	-4.44
185.239	57
185.459	9.9
185.679	48.81
185.898	-18.77
186.118	46.76
186.338	38.57
186.557	147.11
186.777	36.52
186.997	7.85
187.216	44.71
187.436	22.19
187.655	44.71
187.875	95.91
188.095	52.91
188.314	132.78
188.534	57
188.753	71.34
188.973	1.71
189.192	36.52
189.412	61.1
189.631	122.54
189.851	32.43
190.07	97.96
190.29	69.29
190.509	-43.35
190.729	-24.92
190.948	118.44
191.168	214.7
191.387	83.63
191.607	38.57
191.826	38.57
192.045	-4.44
192.265	26.28
192.484	67.24
192.704	5.8
192.923	30.38
193.142	18.09
193.362	81.58
193.581	69.29
193.8	110.25
194.02	42.67
194.239	71.34
194.458	-33.11
194.678	65.19
194.897	-35.16
195.116	36.52
195.335	42.67
195.555	48.81
195.774	63.15
195.993	-2.39
196.212	-22.87
196.432	69.29
196.651	-55.64
196.87	38.57
197.089	83.63
197.308	77.48
197.528	73.39
197.747	36.52
197.966	42.67
198.185	122.54
198.404	-22.87
198.623	28.33
198.842	48.81
199.062	91.82
199.281	-4.44
199.5	-4.44
199.719	34.47
199.938	124.58
200.157	81.58
200.376	54.95
200.595	118.44
200.814	71.34
201.033	71.34
201.252	44.71
201.471	-2.39
201.69	63.15
201.909	36.52
202.128	102.06
202.347	20.14
202.566	-20.82
202.785	102.06
203.004	-10.58
203.223	143.02
203.442	-0.34
203.661	52.91
203.879	48.81
204.098	63.15
204.317	11.95
204.536	85.67
204.755	145.06
204.974	130.73
205.193	28.33
205.411	46.76
205.63	-2.39
205.849	32.43
206.068	-39.25
206.287	73.39
206.505	57
206.724	30.38
206.943	52.91
207.162	48.81
207.381	132.78
207.599	81.58
207.818	73.39
208.037	-0.34
208.255	65.19
208.474	44.71
208.693	52.91
208.911	34.47
209.13	59.05
209.349	16.04
209.567	110.25
209.786	73.39
210.005	-37.2
210.223	-10.58
210.442	34.47
210.661	102.06
210.879	75.43
211.098	24.23
211.316	87.72
211.535	38.57
211.753	69.29
211.972	93.87
212.191	18.09
212.409	112.3
212.628	34.47
212.846	-12.63
213.065	104.11
213.283	124.58
213.502	104.11
213.72	59.05
213.938	57
214.157	75.43
214.375	48.81
214.594	52.91
214.812	128.68
215.031	-4.44
215.249	13.99
215.467	46.76
215.686	28.33
215.904	65.19
216.122	22.19
216.341	22.19
216.559	50.86
216.778	106.15
216.996	26.28
217.214	9.9
217.432	50.86
217.651	-4.44
217.869	30.38
218.087	38.57
218.306	11.95
218.524	87.72
218.742	-0.34
218.96	24.23
219.179	54.95
219.397	-2.39
219.615	110.25
219.833	73.39
220.051	9.9
220.27	16.04
220.488	69.29
220.706	67.24
220.924	7.85
221.142	-31.06
221.36	75.43
221.578	87.72
221.796	63.15
222.015	54.95
222.233	40.62
222.451	73.39
222.669	-16.73
222.887	-24.92
223.105	11.95
223.323	9.9
223.541	5.8
223.759	126.63
223.977	50.86
224.195	30.38
224.413	52.91
224.631	20.14
224.849	44.71
225.067	77.48
225.285	116.39
225.503	85.67
225.721	-2.39
225.939	-53.59
226.157	75.43
226.375	87.72
226.592	65.19
226.81	1.71
227.028	22.19
227.246	118.44
227.464	52.91
227.682	24.23
227.9	24.23
228.117	42.67
228.335	22.19
228.553	30.38
228.771	36.52
228.989	13.99
229.206	42.67
229.424	50.86
229.642	48.81
229.86	44.71
230.077	71.34
230.295	77.48
230.513	102.06
230.731	57
230.948	124.58
231.166	95.91
231.384	73.39
231.601	22.19
231.819	28.33
232.037	24.23
232.254	63.15
232.472	22.19
232.689	32.43
232.907	18.09
233.125	32.43
233.342	46.76
233.56	46.76
233.777	13.99
233.995	32.43
234.213	77.48
234.43	128.68
234.648	30.38
234.865	132.78
235.083	1.71
235.3	24.23
235.518	44.71
235.735	54.95
235.953	108.2
236.17	11.95
236.388	44.71
236.605	48.81
236.822	87.72
237.04	32.43
237.257	77.48
237.475	34.47
237.692	93.87
237.909	11.95
238.127	120.49
238.344	89.77
238.562	71.34
238.779	34.47
238.996	16.04
239.214	73.39
239.431	85.67
239.648	32.43
239.865	50.86
240.083	52.91
240.3	30.38
240.517	42.67
240.735	7.85
240.952	48.81
241.169	5.8
241.386	16.04
241.603	126.63
241.821	18.09
242.038	32.43
242.255	89.77
242.472	-26.96
242.689	18.09
242.907	65.19
243.124	-22.87
243.341	-4.44
243.558	-12.63
243.775	1.71
243.992	52.91
244.209	7.85
244.426	50.86
244.643	85.67
244.86	-16.73
245.078	67.24
245.295	85.67
245.512	63.15
245.729	71.34
245.946	52.91
246.163	34.47
246.38	22.19
246.597	16.04
246.814	71.34
247.031	13.99
247.248	26.28
247.464	-29.01
247.681	48.81
247.898	38.57
248.115	65.19
248.332	-18.77
248.549	114.34
248.766	110.25
248.983	52.91
249.2	5.8
249.417	120.49
249.633	5.8
249.85	65.19
250.067	-10.58
250.284	44.71
250.501	52.91
250.717	102.06
250.934	-76.12
251.151	42.67
251.368	7.85
251.585	73.39
251.801	85.67
252.018	-18.77
252.235	149.16
252.451	-0.34
252.668	9.9
252.885	30.38
253.102	100.01
253.318	65.19
253.535	-47.44
253.752	83.63
253.968	9.9
254.185	5.8
254.401	46.76
254.618	24.23
254.835	106.15
255.051	87.72
255.268	16.04
255.484	106.15
255.701	32.43
255.917	40.62
256.134	-29.01
256.351	81.58
256.567	36.52
256.784	-4.44
257	108.2
257.217	22.19
257.433	1.71
257.65	73.39
257.866	61.1
258.082	-22.87
258.299	9.9
258.515	71.34
258.732	-10.58
258.948	46.76
259.165	61.1
259.381	28.33
259.597	59.05
259.814	81.58
260.03	59.05
260.246	38.57
260.463	79.53
260.679	85.67
260.895	-4.44
261.112	110.25
261.328	34.47
261.544	28.33
261.761	173.74
261.977	54.95
262.193	52.91
262.409	122.54
262.626	79.53
262.842	26.28
263.058	16.04
263.274	52.91
263.49	-10.58
263.707	147.11
263.923	26.28
264.139	79.53
264.355	34.47
264.571	116.39
264.787	13.99
265.004	65.19
265.22	89.77
265.436	48.81
265.652	59.05
265.868	57
266.084	48.81
266.3	13.99
266.516	52.91
266.732	83.63
266.948	93.87
267.164	59.05
267.38	93.87
267.596	91.82
267.812	77.48
268.028	89.77
268.244	83.63
268.46	89.77
268.676	63.15
268.892	38.57
269.108	54.95
269.324	-2.39
269.54	3.75
269.756	57
269.972	67.24
270.188	20.14
270.403	38.57
270.619	91.82
270.835	52.91
271.051	48.81
271.267	52.91
271.483	77.48
271.698	42.67
271.914	11.95
272.13	57
272.346	32.43
272.562	26.28
272.777	128.68
272.993	104.11
273.209	22.19
273.425	59.05
273.64	57
273.856	79.53
274.072	-10.58
274.287	34.47
274.503	28.33
274.719	30.38
274.934	145.06
275.15	48.81
275.366	112.3
275.581	34.47
275.797	-35.16
276.012	26.28
276.228	16.04
276.444	-112.98
276.659	69.29
276.875	-22.87
277.09	122.54
277.306	16.04
277.521	83.63
277.737	75.43
277.952	89.77
278.168	89.77
278.383	93.87
278.599	95.91
278.814	122.54
279.03	87.72
279.245	93.87
279.461	-4.44
279.676	57
279.892	5.8
280.107	77.48
280.322	71.34
280.538	89.77
280.753	-18.77
280.969	34.47
281.184	54.95
281.399	126.63
281.615	26.28
281.83	143.02
282.045	73.39
282.26	16.04
282.476	26.28
282.691	30.38
282.906	65.19
283.122	13.99
283.337	-29.01
283.552	73.39
283.767	52.91
283.983	91.82
284.198	112.3
284.413	50.86
284.628	77.48
284.843	3.75
285.058	-31.06
285.274	11.95
285.489	-53.59
285.704	118.44
285.919	79.53
286.134	38.57
286.349	5.8
286.564	61.1
286.779	36.52
286.995	36.52
287.21	24.23
287.425	73.39
287.64	77.48
287.855	36.52
288.07	30.38
288.285	52.91
288.5	20.14
288.715	93.87
288.93	77.48
289.145	36.52
289.36	-37.2
289.575	48.81
289.79	9.9
290.004	59.05
290.219	122.54
290.434	-2.39
290.649	24.23
290.864	22.19
291.079	30.38
291.294	104.11
291.509	57
291.724	63.15
291.938	-2.39
292.153	104.11
292.368	50.86
292.583	-10.58
292.798	132.78
293.012	38.57
293.227	22.19
293.442	44.71
293.657	34.47
293.871	130.73
294.086	50.86
294.301	118.44
294.516	48.81
294.73	61.1
294.945	73.39
295.16	79.53
295.374	104.11
295.589	63.15
295.804	22.19
296.018	57
296.233	32.43
296.447	44.71
296.662	91.82
296.877	87.72
297.091	83.63
297.306	3.75
297.52	77.48
297.735	79.53
297.949	75.43
298.164	73.39
298.378	61.1
298.593	116.39
298.807	77.48
299.022	22.19
299.236	50.86
299.451	16.04
299.665	120.49
299.88	118.44
300.094	-8.53
300.309	71.34
300.523	16.04
300.737	61.1
300.952	57
301.166	42.67
301.381	46.76
301.595	52.91
301.809	38.57
302.024	71.34
302.238	26.28
302.452	20.14
302.667	50.86
302.881	50.86
303.095	-0.34
303.309	67.24
303.524	-47.44
303.738	44.71
303.952	26.28
304.166	20.14
304.381	18.09
304.595	93.87
304.809	42.67
305.023	36.52
305.237	7.85
305.452	57
305.666	48.81
305.88	108.2
306.094	63.15
306.308	79.53
306.522	89.77
306.736	57
306.95	77.48
307.164	13.99
307.379	61.1
307.593	59.05
307.807	16.04
308.021	61.1
308.235	87.72
308.449	32.43
308.663	30.38
308.877	57
309.091	83.63
309.305	67.24
309.519	-47.44
309.733	93.87
309.947	59.05
310.161	87.72
310.374	16.04
310.588	108.2
310.802	5.8
311.016	22.19
311.23	89.77
311.444	34.47
311.658	46.76
311.872	89.77
312.085	73.39
312.299	67.24
312.513	36.52
312.727	114.34
312.941	104.11
313.154	79.53
313.368	40.62
313.582	22.19
313.796	67.24
314.009	100.01
314.223	87.72
314.437	83.63
314.651	87.72
314.864	38.57
315.078	40.62
315.292	-31.06
315.505	48.81
315.719	91.82
315.933	20.14
316.146	-22.87
316.36	73.39
316.573	52.91
316.787	108.2
317.001	134.82
317.214	26.28
317.428	75.43
317.641	46.76
317.855	-4.44
318.068	20.14
318.282	44.71
318.495	73.39
318.709	122.54
318.922	50.86
319.136	104.11
319.349	46.76
319.563	50.86
319.776	77.48
319.99	20.14
320.203	-16.73
320.417	87.72
320.63	59.05
320.843	134.82
321.057	50.86
321.27	61.1
321.483	38.57
321.697	134.82
321.91	-0.34
322.124	52.91
322.337	79.53
322.55	65.19
322.763	20.14
322.977	75.43
323.19	-10.58
323.403	136.87
323.617	97.96
323.83	126.63
324.043	79.53
324.256	18.09
324.469	40.62
324.683	5.8
324.896	-12.63
325.109	138.92
325.322	30.38
325.535	85.67
325.748	57
325.962	65.19
326.175	26.28
326.388	46.76
326.601	118.44
326.814	-35.16
327.027	11.95
327.24	143.02
327.453	20.14
327.666	91.82
327.879	38.57
328.092	89.77
328.305	42.67
328.518	81.58
328.731	69.29
328.944	57
329.157	44.71
329.37	67.24
329.583	54.95
329.796	83.63
330.009	57
330.222	79.53
330.435	50.86
330.648	95.91
330.861	134.82
331.073	134.82
331.286	42.67
331.499	48.81
331.712	61.1
331.925	75.43
332.138	155.3
332.35	136.87
332.563	1.71
332.776	106.15
332.989	28.33
333.202	69.29
333.414	85.67
333.627	85.67
333.84	52.91
334.053	30.38
334.265	63.15
334.478	102.06
334.691	-2.39
334.903	48.81
335.116	42.67
335.329	44.71
335.541	157.35
335.754	143.02
335.966	-35.16
336.179	-4.44
336.392	9.9
336.604	63.15
336.817	104.11
337.029	93.87
337.242	40.62
337.454	73.39
337.667	65.19
337.88	83.63
338.092	81.58
338.305	61.1
338.517	85.67
338.729	71.34
338.942	65.19
339.154	34.47
339.367	16.04
339.579	71.34
339.792	-12.63
340.004	145.06
340.217	-39.25
340.429	87.72
340.641	57
340.854	57
341.066	124.58
341.278	71.34
341.491	155.3
341.703	36.52
341.915	1.71
342.128	67.24
342.34	16.04
342.552	83.63
342.764	61.1
342.977	-16.73
343.189	67.24
343.401	100.01
343.613	42.67
343.826	20.14
344.038	-12.63
344.25	124.58
344.462	38.57
344.674	46.76
344.886	67.24
345.099	67.24
345.311	59.05
345.523	81.58
345.735	42.67
345.947	69.29
346.159	9.9
346.371	42.67
346.583	40.62
346.795	22.19
347.007	87.72
347.219	22.19
347.431	46.76
347.643	77.48
347.855	7.85
348.067	71.34
348.279	40.62
348.491	57
348.703	79.53
348.915	61.1
349.127	67.24
349.339	44.71
349.551	95.91
349.763	116.39
349.975	77.48
350.187	100.01
350.399	63.15
350.61	65.19
350.822	-10.58
351.034	16.04
351.246	50.86
351.458	50.86
351.669	100.01
351.881	77.48
352.093	22.19
352.305	79.53
352.517	30.38
352.728	75.43
352.94	22.19
353.152	75.43
353.363	110.25
353.575	65.19
353.787	69.29
353.999	48.81
354.21	140.97
354.422	44.71
354.633	69.29
354.845	93.87
355.057	54.95
355.268	38.57
355.48	102.06
355.692	59.05
355.903	-12.63
356.115	36.52
356.326	-49.49
356.538	87.72
356.749	116.39
356.961	34.47
357.172	75.43
357.384	69.29
357.595	161.45
357.807	110.25
358.018	40.62
358.23	61.1
358.441	147.11
358.653	65.19
358.864	48.81
359.075	36.52
359.287	114.34
359.498	57
359.709	91.82
359.921	-16.73
360.132	-18.77
360.344	112.3
360.555	46.76
360.766	112.3
360.977	46.76
361.189	124.58
361.4	50.86
361.611	114.34
361.823	65.19
362.034	-31.06
362.245	48.81
362.456	3.75
362.667	120.49
362.879	112.3
363.09	95.91
363.301	110.25
363.512	114.34
363.723	100.01
363.935	36.52
364.146	145.06
364.357	26.28
364.568	85.67
364.779	61.1
364.99	138.92
365.201	38.57
365.412	102.06
365.623	38.57
365.834	100.01
366.045	40.62
366.256	124.58
366.467	61.1
366.678	97.96
366.889	46.76
367.1	40.62
367.311	87.72
367.522	122.54
367.733	128.68
367.944	136.87
368.155	57
368.366	126.63
368.577	79.53
368.788	63.15
368.999	24.23
369.209	79.53
369.42	130.73
369.631	89.77
369.842	34.47
370.053	81.58
370.264	69.29
370.474	61.1
370.685	122.54
370.896	95.91
371.107	67.24
371.317	73.39
371.528	30.38
371.739	118.44
371.95	63.15
372.16	71.34
372.371	155.3
372.582	89.77
372.792	91.82
373.003	63.15
373.214	188.07
373.424	104.11
373.635	32.43
373.846	69.29
374.056	32.43
374.267	34.47
374.477	71.34
374.688	85.67
374.898	36.52
375.109	77.48
375.319	73.39
375.53	167.59
375.74	97.96
375.951	38.57
376.161	85.67
376.372	46.76
376.582	50.86
376.793	116.39
377.003	26.28
377.214	67.24
377.424	91.82
377.635	46.76
377.845	42.67
378.055	73.39
378.266	104.11
378.476	149.16
378.686	108.2
378.897	75.43
379.107	46.76
379.317	116.39
379.528	89.77
379.738	63.15
379.948	-39.25
380.158	126.63
380.369	132.78
380.579	44.71
380.789	34.47
380.999	52.91
381.21	110.25
381.42	120.49
381.63	73.39
381.84	87.72
382.05	63.15
382.261	175.78
382.471	75.43
382.681	71.34
382.891	134.82
383.101	-8.53
383.311	89.77
383.521	42.67
383.731	52.91
383.941	124.58
384.151	120.49
384.361	40.62
384.571	130.73
384.781	28.33
384.991	108.2
385.201	110.25
385.411	61.1
385.621	24.23
385.831	52.91
386.041	116.39
386.251	52.91
386.461	116.39
386.671	91.82
386.881	50.86
387.091	13.99
387.301	171.69
387.511	32.43
387.72	83.63
387.93	85.67
388.14	69.29
388.35	32.43
388.56	183.98
388.769	126.63
388.979	173.74
389.189	100.01
389.399	93.87
389.609	89.77
389.818	85.67
390.028	104.11
390.238	67.24
390.447	100.01
390.657	63.15
390.867	85.67
391.076	97.96
391.286	26.28
391.496	110.25
391.705	104.11
391.915	155.3
392.125	114.34
392.334	120.49
392.544	85.67
392.753	100.01
392.963	32.43
393.172	85.67
393.382	71.34
393.591	91.82
393.801	81.58
394.01	140.97
394.22	122.54
394.429	95.91
394.639	48.81
394.848	188.07
395.058	91.82
395.267	159.4
395.477	63.15
395.686	100.01
395.895	177.83
396.105	173.74
396.314	163.5
396.524	83.63
396.733	89.77
396.942	192.17
397.152	97.96
397.361	159.4
397.57	169.64
397.78	108.2
397.989	116.39
398.198	106.15
398.407	175.78
398.617	194.22
398.826	118.44
399.035	75.43
399.244	130.73
399.453	229.03
399.663	253.61
399.872	134.82
400.081	145.06
400.29	169.64
400.499	155.3
400.708	241.32
400.917	194.22
401.127	200.36
401.336	112.3
401.545	237.22
401.754	177.83
401.963	216.74
402.172	188.07
402.381	140.97
402.59	245.41
402.799	175.78
403.008	138.92
403.217	155.3
403.426	192.17
403.635	183.98
403.844	214.7
404.053	239.27
404.262	276.13
404.471	210.6
404.68	267.94
404.888	229.03
405.097	255.65
405.306	175.78
405.515	249.51
405.724	220.84
405.933	249.51
406.142	237.22
406.35	241.32
406.559	333.48
406.768	255.65
406.977	282.28
407.185	341.67
407.394	298.66
407.603	251.56
407.812	360.1
408.02	317.09
408.229	259.75
408.438	382.63
408.646	325.29
408.855	362.15
409.064	319.14
409.272	374.44
409.481	423.59
409.69	515.75
409.898	464.55
410.107	489.12
410.315	392.87
410.524	474.79
410.733	448.16
410.941	509.6
411.15	517.79
411.358	571.04
411.567	593.57
411.775	581.28
411.984	620.19
412.192	698.02
412.401	687.78
412.609	648.86
412.818	720.54
413.026	741.02
413.234	796.32
413.443	667.3
413.651	833.18
413.86	747.17
414.068	894.62
414.276	927.39
414.485	915.1
414.693	927.39
414.901	972.44
415.11	958.11
415.318	1048.22
415.526	1031.83
415.734	1152.67
415.943	1089.18
416.151	1158.81
416.359	1259.16
416.567	1263.26
416.776	1238.68
416.984	1390.23
417.192	1390.23
417.4	1345.17
417.608	1359.51
417.817	1468.05
418.025	1687.18
418.233	1642.13
418.441	1586.83
418.649	1652.37
418.857	1859.21
419.065	1740.43
419.273	1873.55
419.481	2008.72
419.689	2088.59
419.897	2166.41
420.105	2154.12
420.313	2258.57
420.521	2430.6
420.729	2444.93
420.937	2516.61
421.145	2430.6
421.353	2645.63
421.561	2758.27
421.769	2928.25
421.977	3063.42
422.185	2905.73
422.393	3133.05
422.601	3391.09
422.809	3296.89
423.017	3319.42
423.224	3503.73
423.432	3581.56
423.64	3667.57
423.848	3942
424.056	3921.52
424.263	4146.8
424.471	4083.31
424.679	4144.75
424.887	4353.64
425.094	4505.19
425.302	4652.64
425.51	4834.91
425.718	4957.79
425.925	4972.13
426.133	5191.26
426.341	5467.74
426.548	5688.92
426.756	5736.02
426.964	5697.11
427.171	6045.26
427.379	6233.68
427.586	6192.72
427.794	6448.71
428.001	6940.22
428.209	7120.45
428.417	6846.02
428.624	7411.26
428.832	7622.2
429.039	7585.33
429.247	7689.78
429.454	8351.28
429.662	8775.2
429.869	8150.57
430.076	8773.16
430.284	8474.15
430.491	8795.68
430.699	9455.13
430.906	9375.26
431.114	9508.38
431.321	9991.7
431.528	10307.09
431.736	10921.48
431.943	11146.75
432.15	10767.88
432.358	11052.55
432.565	11711.99
432.772	11634.17
432.979	12299.76
433.187	12414.45
433.394	12473.84
433.601	13381.09
433.808	13479.39
434.016	13207.01
434.223	13909.46
434.43	14765.51
434.637	14525.9
434.844	15128
435.052	15613.37
435.259	15439.3
435.466	15570.37
435.673	15472.06
435.88	16287.15
436.087	17460.64
436.294	17601.95
436.501	17075.62
436.708	17296.8
436.915	17788.32
437.122	18466.19
437.329	18660.75
437.537	18908.55
437.743	19697.02
437.95	19318.15
438.157	20606.32
438.364	20903.28
438.571	21185.9
438.778	21380.45
438.985	23104.84
439.192	22209.88
439.399	23043.4
439.606	22568.27
439.813	23637.31
440.02	25007.41
440.227	24704.31
440.433	24732.98
440.64	25261.35
440.847	25085.23
441.054	25818.4
441.261	27673.86
441.467	26920.21
441.674	27839.75
441.881	28327.16
442.088	28783.86
442.294	28486.9
442.501	29310.19
442.708	29873.38
442.914	30905.56
443.121	32439.48
443.328	31554.76
443.534	33746.09
443.741	32490.68
443.948	32236.73
444.154	34380.96
444.361	34051.24
444.568	34634.91
444.774	34387.1
444.981	34743.45
445.187	35884.17
445.394	37485.68
445.6	37063.8
445.807	40252.48
446.013	38829.15
446.22	39244.88
446.426	41002.04
446.633	41346.1
446.839	42738.72
447.046	41106.49
447.252	43107.35
447.459	43117.59
447.665	43021.34
447.871	45341.69
448.078	46795.74
448.284	44950.52
448.491	45757.42
448.697	47748.05
448.903	48067.53
449.11	48501.7
449.316	47512.53
449.522	48978.88
449.728	49834.93
449.935	50064.3
450.141	50344.87
450.347	51809.17
450.553	49570.74
450.76	50801.57
450.966	52022.16
451.172	51702.68
451.378	52599.69
451.584	52042.64
451.791	52689.8
451.997	52835.2
452.203	53592.95
452.409	54104.95
452.615	53318.53
452.821	51561.37
453.027	51102.62
453.233	53384.06
453.44	51409.82
453.646	52384.65
453.852	52122.51
454.058	53023.62
454.264	51864.47
454.47	52716.42
454.676	51612.57
454.882	53162.88
455.088	49001.41
455.294	49793.97
455.5	50367.4
455.705	50850.72
455.911	48716.74
456.117	47940.56
456.323	47651.8
456.529	44932.09
456.735	46918.62
456.941	45575.16
457.147	45255.67
457.352	43744.27
457.558	43004.95
457.764	43107.35
457.97	42425.38
458.176	41641.01
458.381	41948.2
458.587	39318.61
458.793	39488.59
458.999	37588.08
459.204	40111.17
459.41	38972.5
459.616	36648.06
459.821	36424.83
460.027	36179.07
460.233	35265.68
460.438	33780.9
460.644	34225.31
460.85	32892.08
461.055	32214.21
461.261	32171.2
461.466	29547.75
461.672	28835.06
461.878	30653.65
462.083	28759.28
462.289	28321.02
462.494	28019.97
462.7	26750.23
462.905	26096.92
463.111	27041.04
463.316	27401.48
463.522	26531.09
463.727	26504.47
463.932	26483.99
464.138	26563.86
464.343	26443.03
464.549	25589.03
464.754	26352.92
464.959	26197.27
465.165	26092.83
465.37	25140.52
465.575	24231.22
465.781	25335.08
465.986	25189.67
466.191	24485.17
466.397	23866.69
466.602	22848.85
466.807	23797.06
