Data from USB4F104151__99__12-43-03-492.txt Node

Date: Fri Mar 14 12:43:03 EDT 2025
User: louis
Spectrometer: USB4F10415
Trigger mode: 4
Integration Time (sec): 3.000000E-2
Scans to average: 1
Electric dark correction enabled: true
Nonlinearity correction enabled: false
Boxcar width: 0
XAxis mode: Wavelengths
Number of Pixels in Spectrum: 3648
>>>>>Begin Spectral Data<<<<<
178.204	-176.47
178.424	-176.47
178.644	-176.47
178.864	-117.08
179.084	-108.88
179.304	11.95
179.524	52.91
179.744	-82.26
179.964	-0.34
180.184	-10.58
180.404	28.33
180.624	-51.54
180.844	38.57
181.064	-14.68
181.283	-55.64
181.503	28.33
181.723	54.95
181.943	5.8
182.163	54.95
182.383	28.33
182.602	5.8
182.822	67.24
183.042	40.62
183.262	32.43
183.482	73.39
183.701	11.95
183.921	42.67
184.141	-0.34
184.361	93.87
184.58	93.87
184.8	38.57
185.02	9.9
185.239	63.15
185.459	-22.87
185.679	63.15
185.898	-6.49
186.118	28.33
186.338	87.72
186.557	122.54
186.777	42.67
186.997	13.99
187.216	79.53
187.436	100.01
187.655	81.58
187.875	87.72
188.095	44.71
188.314	95.91
188.534	89.77
188.753	9.9
188.973	28.33
189.192	110.25
189.412	77.48
189.631	11.95
189.851	5.8
190.07	79.53
190.29	-20.82
190.509	-8.53
190.729	22.19
190.948	36.52
191.168	206.5
191.387	5.8
191.607	93.87
191.826	11.95
192.045	-10.58
192.265	71.34
192.484	87.72
192.704	-35.16
192.923	36.52
193.142	67.24
193.362	18.09
193.581	95.91
193.8	81.58
194.02	95.91
194.239	63.15
194.458	-18.77
194.678	36.52
194.897	54.95
195.116	3.75
195.335	-6.49
195.555	63.15
195.774	85.67
195.993	83.63
196.212	7.85
196.432	-24.92
196.651	28.33
196.87	-8.53
197.089	130.73
197.308	85.67
197.528	110.25
197.747	-53.59
197.966	32.43
198.185	63.15
198.404	34.47
198.623	7.85
198.842	118.44
199.062	87.72
199.281	36.52
199.5	44.71
199.719	61.1
199.938	42.67
200.157	91.82
200.376	9.9
200.595	61.1
200.814	26.28
201.033	-10.58
201.252	91.82
201.471	-0.34
201.69	67.24
201.909	3.75
202.128	61.1
202.347	65.19
202.566	61.1
202.785	-10.58
203.004	-53.59
203.223	163.5
203.442	71.34
203.661	44.71
203.879	67.24
204.098	85.67
204.317	-61.78
204.536	48.81
204.755	20.14
204.974	118.44
205.193	-20.82
205.411	87.72
205.63	85.67
205.849	61.1
206.068	136.87
206.287	69.29
206.505	85.67
206.724	24.23
206.943	63.15
207.162	46.76
207.381	85.67
207.599	65.19
207.818	13.99
208.037	46.76
208.255	5.8
208.474	36.52
208.693	52.91
208.911	-24.92
209.13	77.48
209.349	44.71
209.567	85.67
209.786	46.76
210.005	108.2
210.223	32.43
210.442	5.8
210.661	44.71
210.879	32.43
211.098	16.04
211.316	24.23
211.535	32.43
211.753	75.43
211.972	44.71
212.191	22.19
212.409	44.71
212.628	22.19
212.846	52.91
213.065	63.15
213.283	77.48
213.502	44.71
213.72	20.14
213.938	93.87
214.157	-10.58
214.375	83.63
214.594	61.1
214.812	85.67
215.031	126.63
215.249	18.09
215.467	13.99
215.686	18.09
215.904	118.44
216.122	75.43
216.341	95.91
216.559	104.11
216.778	59.05
216.996	71.34
217.214	85.67
217.432	26.28
217.651	46.76
217.869	-8.53
218.087	28.33
218.306	40.62
218.524	61.1
218.742	59.05
218.96	48.81
219.179	22.19
219.397	65.19
219.615	87.72
219.833	36.52
220.051	20.14
220.27	20.14
220.488	75.43
220.706	-20.82
220.924	13.99
221.142	59.05
221.36	61.1
221.578	69.29
221.796	102.06
222.015	-0.34
222.233	-24.92
222.451	136.87
222.669	20.14
222.887	54.95
223.105	9.9
223.323	22.19
223.541	81.58
223.759	3.75
223.977	-8.53
224.195	87.72
224.413	118.44
224.631	32.43
224.849	93.87
225.067	157.35
225.285	-35.16
225.503	63.15
225.721	11.95
225.939	100.01
226.157	48.81
226.375	110.25
226.592	36.52
226.81	3.75
227.028	61.1
227.246	65.19
227.464	16.04
227.682	50.86
227.9	24.23
228.117	13.99
228.335	18.09
228.553	46.76
228.771	-22.87
228.989	-41.3
229.206	77.48
229.424	32.43
229.642	7.85
229.86	9.9
230.077	9.9
230.295	42.67
230.513	79.53
230.731	48.81
230.948	36.52
231.166	73.39
231.384	18.09
231.601	26.28
231.819	108.2
232.037	-26.96
232.254	-14.68
232.472	83.63
232.689	-0.34
232.907	79.53
233.125	48.81
233.342	-2.39
233.56	65.19
233.777	73.39
233.995	-35.16
234.213	130.73
234.43	59.05
234.648	44.71
234.865	67.24
235.083	48.81
235.3	48.81
235.518	95.91
235.735	50.86
235.953	130.73
236.17	-18.77
236.388	71.34
236.605	50.86
236.822	87.72
237.04	46.76
237.257	-35.16
237.475	-41.3
237.692	95.91
237.909	9.9
238.127	20.14
238.344	108.2
238.562	36.52
238.779	-6.49
238.996	32.43
239.214	32.43
239.431	79.53
239.648	9.9
239.865	89.77
240.083	-14.68
240.3	46.76
240.517	18.09
240.735	61.1
240.952	79.53
241.169	87.72
241.386	110.25
241.603	65.19
241.821	81.58
242.038	89.77
242.255	5.8
242.472	-4.44
242.689	75.43
242.907	79.53
243.124	108.2
243.341	134.82
243.558	79.53
243.775	42.67
243.992	-12.63
244.209	104.11
244.426	110.25
244.643	18.09
244.86	9.9
245.078	9.9
245.295	-4.44
245.512	57
245.729	40.62
245.946	11.95
246.163	61.1
246.38	102.06
246.597	-31.06
246.814	61.1
247.031	-8.53
247.248	24.23
247.464	52.91
247.681	24.23
247.898	83.63
248.115	36.52
248.332	7.85
248.549	104.11
248.766	93.87
248.983	106.15
249.2	40.62
249.417	63.15
249.633	32.43
249.85	100.01
250.067	-2.39
250.284	22.19
250.501	48.81
250.717	77.48
250.934	5.8
251.151	9.9
251.368	108.2
251.585	69.29
251.801	16.04
252.018	-35.16
252.235	71.34
252.451	34.47
252.668	13.99
252.885	97.96
253.102	52.91
253.318	3.75
253.535	30.38
253.752	5.8
253.968	50.86
254.185	36.52
254.401	30.38
254.618	20.14
254.835	26.28
255.051	1.71
255.268	38.57
255.484	63.15
255.701	13.99
255.917	110.25
256.134	26.28
256.351	50.86
256.567	97.96
256.784	106.15
257	-4.44
257.217	63.15
257.433	46.76
257.65	104.11
257.866	83.63
258.082	85.67
258.299	54.95
258.515	44.71
258.732	-12.63
258.948	7.85
259.165	69.29
259.381	48.81
259.597	61.1
259.814	11.95
260.03	44.71
260.246	65.19
260.463	108.2
260.679	38.57
260.895	-8.53
261.112	32.43
261.328	71.34
261.544	-16.73
261.761	149.16
261.977	77.48
262.193	16.04
262.409	69.29
262.626	93.87
262.842	63.15
263.058	9.9
263.274	52.91
263.49	73.39
263.707	13.99
263.923	81.58
264.139	-0.34
264.355	118.44
264.571	75.43
264.787	46.76
265.004	-12.63
265.22	48.81
265.436	34.47
265.652	-0.34
265.868	61.1
266.084	-6.49
266.3	28.33
266.516	3.75
266.732	-24.92
266.948	24.23
267.164	54.95
267.38	69.29
267.596	48.81
267.812	44.71
268.028	46.76
268.244	75.43
268.46	75.43
268.676	11.95
268.892	63.15
269.108	24.23
269.324	36.52
269.54	26.28
269.756	28.33
269.972	22.19
270.188	81.58
270.403	18.09
270.619	9.9
270.835	46.76
271.051	57
271.267	71.34
271.483	69.29
271.698	-10.58
271.914	30.38
272.13	79.53
272.346	100.01
272.562	54.95
272.777	73.39
272.993	89.77
273.209	89.77
273.425	44.71
273.64	50.86
273.856	24.23
274.072	26.28
274.287	57
274.503	106.15
274.719	122.54
274.934	32.43
275.15	61.1
275.366	87.72
275.581	28.33
275.797	-16.73
276.012	79.53
276.228	57
276.444	65.19
276.659	69.29
276.875	61.1
277.09	48.81
277.306	38.57
277.521	44.71
277.737	95.91
277.952	46.76
278.168	20.14
278.383	40.62
278.599	73.39
278.814	38.57
279.03	9.9
279.245	46.76
279.461	20.14
279.676	63.15
279.892	149.16
280.107	34.47
280.322	-18.77
280.538	24.23
280.753	57
280.969	-12.63
281.184	26.28
281.399	91.82
281.615	9.9
281.83	143.02
282.045	36.52
282.26	44.71
282.476	22.19
282.691	57
282.906	71.34
283.122	57
283.337	-2.39
283.552	44.71
283.767	-43.35
283.983	79.53
284.198	110.25
284.413	44.71
284.628	-55.64
284.843	50.86
285.058	77.48
285.274	57
285.489	-14.68
285.704	7.85
285.919	26.28
286.134	54.95
286.349	36.52
286.564	-14.68
286.779	3.75
286.995	52.91
287.21	61.1
287.425	81.58
287.64	93.87
287.855	118.44
288.07	1.71
288.285	54.95
288.5	54.95
288.715	145.06
288.93	93.87
289.145	-12.63
289.36	54.95
289.575	-10.58
289.79	110.25
290.004	44.71
290.219	59.05
290.434	-33.11
290.649	-31.06
290.864	73.39
291.079	1.71
291.294	83.63
291.509	54.95
291.724	24.23
291.938	-33.11
292.153	75.43
292.368	73.39
292.583	16.04
292.798	155.3
293.012	102.06
293.227	9.9
293.442	65.19
293.657	-4.44
293.871	18.09
294.086	34.47
294.301	46.76
294.516	16.04
294.73	83.63
294.945	-65.88
295.16	9.9
295.374	67.24
295.589	30.38
295.804	13.99
296.018	110.25
296.233	-2.39
296.447	95.91
296.662	61.1
296.877	87.72
297.091	16.04
297.306	-2.39
297.52	34.47
297.735	46.76
297.949	52.91
298.164	91.82
298.378	20.14
298.593	-22.87
298.807	48.81
299.022	89.77
299.236	69.29
299.451	-6.49
299.665	59.05
299.88	81.58
300.094	36.52
300.309	71.34
300.523	30.38
300.737	38.57
300.952	57
301.166	83.63
301.381	-59.73
301.595	52.91
301.809	24.23
302.024	89.77
302.238	-31.06
302.452	75.43
302.667	3.75
302.881	26.28
303.095	124.58
303.309	118.44
303.524	-43.35
303.738	-4.44
303.952	50.86
304.166	34.47
304.381	11.95
304.595	106.15
304.809	36.52
305.023	-4.44
305.237	59.05
305.452	24.23
305.666	69.29
305.88	112.3
306.094	151.21
306.308	61.1
306.522	28.33
306.736	71.34
306.95	54.95
307.164	24.23
307.379	-45.4
307.593	52.91
307.807	71.34
308.021	83.63
308.235	128.68
308.449	120.49
308.663	9.9
308.877	114.34
309.091	36.52
309.305	32.43
309.519	-8.53
309.733	24.23
309.947	61.1
310.161	104.11
310.374	48.81
310.588	149.16
310.802	32.43
311.016	75.43
311.23	138.92
311.444	79.53
311.658	50.86
311.872	108.2
312.085	108.2
312.299	122.54
312.513	46.76
312.727	118.44
312.941	26.28
313.154	136.87
313.368	13.99
313.582	87.72
313.796	40.62
314.009	38.57
314.223	40.62
314.437	71.34
314.651	-8.53
314.864	57
315.078	57
315.292	104.11
315.505	38.57
315.719	77.48
315.933	-14.68
316.146	-18.77
316.36	54.95
316.573	112.3
316.787	155.3
317.001	7.85
317.214	30.38
317.428	95.91
317.641	91.82
317.855	38.57
318.068	40.62
318.282	-14.68
318.495	118.44
318.709	112.3
318.922	71.34
319.136	85.67
319.349	30.38
319.563	32.43
319.776	87.72
319.99	22.19
320.203	63.15
320.417	40.62
320.63	46.76
320.843	65.19
321.057	130.73
321.27	79.53
321.483	61.1
321.697	134.82
321.91	26.28
322.124	93.87
322.337	75.43
322.55	85.67
322.763	100.01
322.977	32.43
323.19	36.52
323.403	65.19
323.617	77.48
323.83	89.77
324.043	120.49
324.256	132.78
324.469	28.33
324.683	48.81
324.896	52.91
325.109	46.76
325.322	50.86
325.535	71.34
325.748	30.38
325.962	28.33
326.175	18.09
326.388	22.19
326.601	46.76
326.814	71.34
327.027	18.09
327.24	95.91
327.453	-4.44
327.666	106.15
327.879	87.72
328.092	44.71
328.305	85.67
328.518	91.82
328.731	3.75
328.944	65.19
329.157	24.23
329.37	26.28
329.583	157.35
329.796	124.58
330.009	-10.58
330.222	61.1
330.435	97.96
330.648	73.39
330.861	69.29
331.073	28.33
331.286	50.86
331.499	57
331.712	65.19
331.925	30.38
332.138	7.85
332.35	69.29
332.563	18.09
332.776	48.81
332.989	18.09
333.202	26.28
333.414	-4.44
333.627	100.01
333.84	5.8
334.053	83.63
334.265	-0.34
334.478	63.15
334.691	140.97
334.903	48.81
335.116	16.04
335.329	48.81
335.541	143.02
335.754	95.91
335.966	28.33
336.179	87.72
336.392	87.72
336.604	48.81
336.817	67.24
337.029	112.3
337.242	44.71
337.454	48.81
337.667	38.57
337.88	63.15
338.092	132.78
338.305	85.67
338.517	75.43
338.729	97.96
338.942	100.01
339.154	83.63
339.367	-6.49
339.579	112.3
339.792	75.43
340.004	73.39
340.217	28.33
340.429	32.43
340.641	44.71
340.854	71.34
341.066	61.1
341.278	18.09
341.491	100.01
341.703	-18.77
341.915	104.11
342.128	44.71
342.34	48.81
342.552	5.8
342.764	20.14
342.977	52.91
343.189	63.15
343.401	75.43
343.613	30.38
343.826	89.77
344.038	67.24
344.25	32.43
344.462	-33.11
344.674	71.34
344.886	83.63
345.099	95.91
345.311	20.14
345.523	122.54
345.735	40.62
345.947	71.34
346.159	48.81
346.371	7.85
346.583	30.38
346.795	40.62
347.007	38.57
347.219	89.77
347.431	73.39
347.643	147.11
347.855	75.43
348.067	108.2
348.279	-51.54
348.491	77.48
348.703	83.63
348.915	93.87
349.127	46.76
349.339	77.48
349.551	13.99
349.763	7.85
349.975	63.15
350.187	85.67
350.399	59.05
350.61	7.85
350.822	32.43
351.034	38.57
351.246	104.11
351.458	7.85
351.669	52.91
351.881	132.78
352.093	89.77
352.305	61.1
352.517	106.15
352.728	224.94
352.94	40.62
353.152	134.82
353.363	44.71
353.575	124.58
353.787	97.96
353.999	50.86
354.21	149.16
354.422	11.95
354.633	67.24
354.845	77.48
355.057	83.63
355.268	69.29
355.48	59.05
355.692	1.71
355.903	79.53
356.115	57
356.326	59.05
356.538	52.91
356.749	40.62
356.961	118.44
357.172	52.91
357.384	79.53
357.595	128.68
357.807	61.1
358.018	-4.44
358.23	42.67
358.441	91.82
358.653	102.06
358.864	40.62
359.075	91.82
359.287	95.91
359.498	28.33
359.709	116.39
359.921	65.19
360.132	28.33
360.344	114.34
360.555	52.91
360.766	61.1
360.977	122.54
361.189	122.54
361.4	153.26
361.611	73.39
361.823	93.87
362.034	85.67
362.245	3.75
362.456	77.48
362.667	87.72
362.879	69.29
363.09	89.77
363.301	38.57
363.512	52.91
363.723	52.91
363.935	26.28
364.146	57
364.357	42.67
364.568	48.81
364.779	106.15
364.99	77.48
365.201	-41.3
365.412	108.2
365.623	16.04
365.834	151.21
366.045	22.19
366.256	126.63
366.467	22.19
366.678	20.14
366.889	91.82
367.1	75.43
367.311	93.87
367.522	-18.77
367.733	85.67
367.944	89.77
368.155	69.29
368.366	24.23
368.577	120.49
368.788	73.39
368.999	-24.92
369.209	87.72
369.42	3.75
369.631	128.68
369.842	44.71
370.053	91.82
370.264	130.73
370.474	69.29
370.685	-4.44
370.896	81.58
371.107	167.59
371.317	42.67
371.528	36.52
371.739	97.96
371.95	81.58
372.16	183.98
372.371	13.99
372.582	95.91
372.792	106.15
373.003	81.58
373.214	63.15
373.424	106.15
373.635	126.63
373.846	95.91
374.056	54.95
374.267	28.33
374.477	89.77
374.688	34.47
374.898	26.28
375.109	54.95
375.319	77.48
375.53	87.72
375.74	1.71
375.951	95.91
376.161	85.67
376.372	128.68
376.582	57
376.793	36.52
377.003	57
377.214	40.62
377.424	46.76
377.635	126.63
377.845	-49.49
378.055	52.91
378.266	122.54
378.476	20.14
378.686	102.06
378.897	63.15
379.107	130.73
379.317	69.29
379.528	46.76
379.738	40.62
379.948	85.67
380.158	46.76
380.369	149.16
380.579	81.58
380.789	57
380.999	65.19
381.21	85.67
381.42	9.9
381.63	-6.49
381.84	95.91
382.05	106.15
382.261	95.91
382.471	89.77
382.681	122.54
382.891	83.63
383.101	116.39
383.311	48.81
383.521	54.95
383.731	112.3
383.941	95.91
384.151	42.67
384.361	54.95
384.571	34.47
384.781	63.15
384.991	81.58
385.201	102.06
385.411	59.05
385.621	118.44
385.831	114.34
386.041	130.73
386.251	67.24
386.461	36.52
386.671	50.86
386.881	59.05
387.091	87.72
387.301	77.48
387.511	63.15
387.72	36.52
387.93	83.63
388.14	32.43
388.35	122.54
388.56	-20.82
388.769	54.95
388.979	42.67
389.189	34.47
389.399	22.19
389.609	151.21
389.818	77.48
390.028	16.04
390.238	61.1
390.447	50.86
390.657	126.63
390.867	100.01
391.076	87.72
391.286	52.91
391.496	122.54
391.705	44.71
391.915	118.44
392.125	102.06
392.334	130.73
392.544	95.91
392.753	83.63
392.963	16.04
393.172	87.72
393.382	100.01
393.591	183.98
393.801	106.15
394.01	132.78
394.22	61.1
394.429	57
394.639	93.87
394.848	85.67
395.058	118.44
395.267	59.05
395.477	112.3
395.686	151.21
395.895	83.63
396.105	134.82
396.314	89.77
396.524	71.34
396.733	122.54
396.942	159.4
397.152	128.68
397.361	143.02
397.57	85.67
397.78	126.63
397.989	165.54
398.198	194.22
398.407	104.11
398.617	134.82
398.826	67.24
399.035	175.78
399.244	157.35
399.453	114.34
399.663	26.28
399.872	93.87
400.081	48.81
400.29	85.67
400.499	124.58
400.708	134.82
400.917	81.58
401.127	93.87
401.336	183.98
401.545	216.74
401.754	167.59
401.963	120.49
402.172	114.34
402.381	120.49
402.59	89.77
402.799	48.81
403.008	151.21
403.217	194.22
403.426	124.58
403.635	48.81
403.844	128.68
404.053	161.45
404.262	173.74
404.471	196.26
404.68	114.34
404.888	183.98
405.097	124.58
405.306	177.83
405.515	177.83
405.724	163.5
405.933	255.65
406.142	198.31
406.35	263.85
406.559	204.46
406.768	210.6
406.977	241.32
407.185	216.74
407.394	269.99
407.603	169.64
407.812	163.5
408.02	269.99
408.229	198.31
408.438	306.85
408.646	136.87
408.855	282.28
409.064	282.28
409.272	186.02
409.481	323.24
409.69	272.04
409.898	308.9
410.107	337.57
410.315	343.72
410.524	319.14
410.733	333.48
410.941	310.95
411.15	405.16
411.358	378.53
411.567	380.58
411.775	353.96
411.984	415.4
412.192	396.96
412.401	431.78
412.609	470.69
412.818	487.08
413.026	593.57
413.234	462.5
413.443	511.65
413.651	612
413.86	521.89
414.068	552.61
414.276	614.05
414.485	675.49
414.693	663.2
414.901	652.96
415.11	706.21
415.318	618.15
415.526	700.06
415.734	751.26
415.943	794.27
416.151	781.98
416.359	781.98
416.567	831.13
416.776	796.32
416.984	1035.93
417.192	908.96
417.4	999.07
417.608	947.87
417.817	970.4
418.025	1072.79
418.233	1148.57
418.441	1093.27
418.649	1195.67
418.857	1234.58
419.065	1253.02
419.273	1224.34
419.481	1289.88
419.689	1379.99
419.897	1509.01
420.105	1521.3
420.313	1558.16
420.521	1521.3
420.729	1527.44
420.937	1552.02
421.145	1627.79
421.353	1848.97
421.561	1803.92
421.769	1932.94
421.977	1971.85
422.185	2025.1
422.393	2127.5
422.601	2254.47
422.809	2174.6
423.017	2266.76
423.224	2363.01
423.432	2430.6
423.64	2465.41
423.848	2643.59
424.056	2522.76
424.263	2690.69
424.471	2735.74
424.679	2758.27
424.887	2903.68
425.094	3067.52
425.302	3022.46
425.51	3174.01
425.718	3233.4
425.925	3323.51
426.133	3526.26
426.341	3546.74
426.548	3835.5
426.756	3829.36
426.964	3821.17
427.171	4204.14
427.379	3985.01
427.586	4208.23
427.794	4351.59
428.001	4501.09
428.209	4798.05
428.417	4615.78
428.624	5150.3
428.832	5062.24
429.039	4988.51
429.247	4986.46
429.454	5699.16
429.662	5836.37
429.869	5574.23
430.076	6053.45
430.284	5697.11
430.491	5940.82
430.699	6121.04
430.906	6217.29
431.114	6426.18
431.321	6706.76
431.528	6684.23
431.736	7224.89
431.943	7380.54
432.15	7280.19
432.358	7157.31
432.565	7661.11
432.772	7562.81
432.979	8107.57
433.187	8259.12
433.394	8281.64
433.601	8810.02
433.808	8957.47
434.016	8787.49
434.223	9238.05
434.43	9635.35
434.637	9709.08
434.844	10225.17
435.052	10284.56
435.259	10212.88
435.466	10544.65
435.673	10286.61
435.88	11138.56
436.087	11589.11
436.294	11552.25
436.501	11269.63
436.708	11607.55
436.915	11847.16
437.122	12508.65
437.329	12578.28
437.537	12879.33
437.743	13077.99
437.95	13084.13
438.157	13553.12
438.364	13903.32
438.571	13989.33
438.778	14079.44
438.985	15312.32
439.192	14945.73
439.399	15441.34
439.606	14863.82
439.813	15637.95
440.02	16907.69
440.227	16420.27
440.433	16166.32
440.64	16807.34
440.847	16676.27
441.054	17130.92
441.261	18511.25
441.467	17915.29
441.674	18075.03
441.881	18959.75
442.088	18990.47
442.294	19088.78
442.501	19279.24
442.708	19899.77
442.914	20807.02
443.121	21357.92
443.328	20917.61
443.534	22293.85
443.741	21593.44
443.948	21247.33
444.154	22912.33
444.361	22863.18
444.568	22691.15
444.774	22979.92
444.981	23188.81
445.187	24063.29
445.394	25064.75
445.6	24821.04
445.807	27014.41
446.013	25601.32
446.22	26135.84
446.426	27290.89
446.633	27458.82
446.839	28624.12
447.046	27176.2
447.252	28943.6
447.459	28646.65
447.665	28843.25
447.871	30305.5
448.078	31362.25
448.284	29857
448.491	30747.86
448.697	31714.5
448.903	32222.4
449.11	32658.62
449.316	31853.76
449.522	32701.62
449.728	33457.32
449.935	33563.82
450.141	33434.8
450.347	34258.08
450.553	33303.73
450.76	33879.21
450.966	34876.57
451.172	34247.84
451.378	35400.85
451.584	34552.99
451.791	35517.58
451.997	35052.69
452.203	35921.03
452.409	36260.99
452.615	35554.44
452.821	34282.66
453.027	34114.72
453.233	35812.49
453.44	34505.88
453.646	35036.31
453.852	34952.34
454.058	35949.7
454.264	34606.23
454.47	35185.81
454.676	34534.56
454.882	35695.75
455.088	32302.27
455.294	33006.77
455.5	33389.74
455.705	33754.28
455.911	32507.07
456.117	31812.81
456.323	31423.69
456.529	30137.57
456.735	31102.16
456.941	30205.15
457.147	29754.6
457.352	28810.48
457.558	28474.62
457.764	28812.53
457.97	28153.09
458.176	27606.28
458.381	27487.5
458.587	25849.12
458.793	26141.98
458.999	24741.17
459.204	26561.81
459.41	25814.3
459.616	24223.03
459.821	24479.03
460.027	24073.53
460.233	23514.44
460.438	22613.33
460.644	22642
460.85	21792.09
461.055	21284.2
461.261	21345.64
461.466	19735.93
461.672	19082.63
461.878	20477.3
462.083	19002.76
462.289	18926.99
462.494	18589.07
462.7	17692.06
462.905	17218.98
463.111	17845.66
463.316	17780.12
463.522	17536.42
463.727	17395.11
463.932	17448.35
464.138	17345.95
464.343	17528.22
464.549	17122.73
464.754	17386.91
464.959	17401.25
465.165	17202.6
465.37	16510.38
465.575	16211.38
465.781	16633.26
465.986	16760.23
466.191	16049.59
466.397	15834.55
466.602	14974.41
466.807	15627.71
467.012	15629.76
467.218	15545.79
467.423	15515.07
467.628	15543.74
