Data from USB4F104151__16__11-57-19-391.txt Node

Date: Wed Feb 19 11:57:19 EST 2025
User: louis
Spectrometer: USB4F10415
Trigger mode: 4
Integration Time (sec): 2.250200E-1
Scans to average: 1
Electric dark correction enabled: true
Nonlinearity correction enabled: false
Boxcar width: 0
XAxis mode: Wavelengths
Number of Pixels in Spectrum: 3648
>>>>>Begin Spectral Data<<<<<
178.204	-845.47
178.424	-845.47
178.644	-845.47
178.864	-802.46
179.084	-771.74
179.304	131.41
179.524	110.93
179.744	55.64
179.964	-212.65
180.184	221.52
180.404	182.61
180.624	-278.18
180.844	-118.44
181.064	33.11
181.283	151.89
181.503	-196.26
181.723	-81.58
181.943	-11.95
182.163	342.35
182.383	-216.74
182.602	-143.02
182.822	424.27
183.042	225.62
183.262	-216.74
183.482	-147.11
183.701	264.53
183.921	299.34
184.141	-218.79
184.361	-171.69
184.58	143.7
184.8	209.23
185.02	-157.35
185.239	-42.67
185.459	274.77
185.679	430.41
185.898	-292.52
186.118	-173.74
186.338	239.95
186.557	319.82
186.777	-110.25
186.997	-169.64
187.216	221.52
187.436	579.92
187.655	-112.3
187.875	-77.48
188.095	328.02
188.314	360.78
188.534	-97.96
188.753	-237.22
188.973	432.46
189.192	487.76
189.412	-186.02
189.631	-196.26
189.851	340.3
190.07	500.05
190.29	-83.63
190.509	-138.92
190.729	166.23
190.948	454.99
191.168	-34.47
191.387	-175.78
191.607	192.85
191.826	323.92
192.045	-175.78
192.265	-120.49
192.484	358.74
192.704	198.99
192.923	-231.08
193.142	-3.75
193.362	366.93
193.581	405.84
193.8	-114.34
194.02	-151.21
194.239	268.63
194.458	395.6
194.678	-97.96
194.897	-202.41
195.116	301.39
195.335	250.19
195.555	-77.48
195.774	-308.9
195.993	371.02
196.212	155.99
196.432	-134.82
196.651	-216.74
196.87	172.37
197.089	512.33
197.308	-239.27
197.528	-167.59
197.747	61.78
197.966	194.9
198.185	-48.81
198.404	-239.27
198.623	340.3
198.842	287.06
199.062	-36.52
199.281	-89.77
199.5	174.42
199.719	239.95
199.938	-202.41
200.157	-63.15
200.376	426.32
200.595	325.97
200.814	-171.69
201.033	-175.78
201.252	454.99
201.471	250.19
201.69	-243.37
201.909	-134.82
202.128	334.16
202.347	246.1
202.566	-100.01
202.785	-280.23
203.004	141.65
203.223	536.91
203.442	-169.64
203.661	-175.78
203.879	231.76
204.098	340.3
204.317	-233.13
204.536	31.06
204.755	426.32
204.974	360.78
205.193	-343.72
205.411	-216.74
205.63	293.2
205.849	225.62
206.068	-208.55
206.287	-204.46
206.505	432.46
206.724	260.43
206.943	-220.84
207.162	-95.91
207.381	225.62
207.599	174.42
207.818	-36.52
208.037	-181.93
208.255	207.19
208.474	203.09
208.693	-147.11
208.911	-151.21
209.13	317.78
209.349	307.54
209.567	16.73
209.786	-173.74
210.005	356.69
210.223	215.38
210.442	-325.29
210.661	-233.13
210.879	303.44
211.098	237.91
211.316	-165.54
211.535	-136.87
211.753	254.29
211.972	285.01
212.191	-179.88
212.409	-36.52
212.628	321.87
212.846	129.36
213.065	-173.74
213.283	-65.19
213.502	176.47
213.72	176.47
213.938	-177.83
214.157	-161.45
214.375	356.69
214.594	196.95
214.812	-73.39
215.031	-192.17
215.249	145.75
215.467	274.77
215.686	-71.34
215.904	-134.82
216.122	190.8
216.341	465.23
216.559	14.68
216.778	-3.75
216.996	481.61
217.214	145.75
217.432	-147.11
217.651	-237.22
217.869	239.95
218.087	176.47
218.306	-257.7
218.524	-229.03
218.742	250.19
218.96	393.55
219.179	-132.78
219.397	-249.51
219.615	551.24
219.833	213.33
220.051	-145.06
220.27	-34.47
220.488	389.46
220.706	229.71
220.924	-186.02
221.142	-200.36
221.36	176.47
221.578	299.34
221.796	-202.41
222.015	-79.53
222.233	207.19
222.451	393.55
222.669	-100.01
222.887	-93.87
223.105	170.32
223.323	201.04
223.541	-159.4
223.759	-57
223.977	190.8
224.195	471.37
224.413	-50.86
224.631	-89.77
224.849	295.25
225.067	532.81
225.285	-126.63
225.503	-126.63
225.721	-1.71
225.939	145.75
226.157	-130.73
226.375	94.55
226.592	162.13
226.81	223.57
227.028	18.77
227.246	-67.24
227.464	194.9
227.682	295.25
227.9	-155.3
228.117	-46.76
228.335	348.5
228.553	215.38
228.771	-243.37
228.989	-132.78
229.206	309.58
229.424	153.94
229.642	-85.67
229.86	-147.11
230.077	436.56
230.295	217.43
230.513	-18.09
230.731	-81.58
230.948	514.38
231.166	467.28
231.384	24.92
231.601	-159.4
231.819	489.81
232.037	88.4
232.254	-54.95
232.472	-165.54
232.689	162.13
232.907	272.72
233.125	-202.41
233.342	-214.7
233.56	164.18
233.777	104.79
233.995	-93.87
234.213	-11.95
234.43	246.1
234.648	270.67
234.865	-151.21
235.083	-7.85
235.3	280.91
235.518	289.1
235.735	-124.58
235.953	-44.71
236.17	252.24
236.388	217.43
236.605	4.44
236.822	-69.29
237.04	354.64
237.257	262.48
237.475	-116.39
237.692	-118.44
237.909	358.74
238.127	184.66
238.344	-22.19
238.562	-116.39
238.779	35.16
238.996	61.78
239.214	-16.04
239.431	-102.06
239.648	137.56
239.865	354.64
240.083	-91.82
240.3	-235.18
240.517	168.27
240.735	135.51
240.952	72.02
241.169	-151.21
241.386	254.29
241.603	194.9
241.821	-159.4
242.038	-108.2
242.255	469.33
242.472	12.63
242.689	-102.06
242.907	-83.63
243.124	209.23
243.341	223.57
243.558	-36.52
243.775	-153.26
243.992	65.88
244.209	332.11
244.426	12.63
244.643	-83.63
244.86	172.37
245.078	239.95
245.295	-59.05
245.512	-149.16
245.729	43.35
245.946	258.39
246.163	-153.26
246.38	-173.74
246.597	229.71
246.814	227.67
247.031	-79.53
247.248	-171.69
247.464	346.45
247.681	176.47
247.898	-102.06
248.115	8.53
248.332	117.08
248.549	373.07
248.766	14.68
248.983	-73.39
249.2	336.21
249.417	391.5
249.633	-147.11
249.85	18.77
250.067	280.91
250.284	178.51
250.501	-100.01
250.717	-116.39
250.934	16.73
251.151	186.71
251.368	-28.33
251.585	-81.58
251.801	254.29
252.018	67.92
252.235	-7.85
252.451	-198.31
252.668	196.95
252.885	336.21
253.102	-67.24
253.318	-102.06
253.535	168.27
253.752	149.84
253.968	-65.19
254.185	-226.98
254.401	291.15
254.618	250.19
254.835	-132.78
255.051	-40.62
255.268	305.49
255.484	278.87
255.701	-140.97
255.917	-114.34
256.134	160.08
256.351	143.7
256.567	-128.68
256.784	-3.75
257	-57
257.217	248.15
257.433	26.96
257.65	-57
257.866	356.69
258.082	53.59
258.299	-95.91
258.515	-11.95
258.732	205.14
258.948	110.93
259.165	-26.28
259.381	-128.68
259.597	346.45
259.814	209.23
260.03	-85.67
260.246	-118.44
260.463	364.88
260.679	350.54
260.895	-22.19
261.112	-3.75
261.328	194.9
261.544	86.36
261.761	-32.43
261.977	-167.59
262.193	22.87
262.409	334.16
262.626	57.68
262.842	-24.23
263.058	102.74
263.274	299.34
263.49	72.02
263.707	-122.54
263.923	274.77
264.139	39.25
264.355	12.63
264.571	-69.29
264.787	252.24
265.004	350.54
265.22	33.11
265.436	-71.34
265.652	217.43
265.868	254.29
266.084	-95.91
266.3	-108.2
266.516	104.79
266.732	235.86
266.948	-108.2
267.164	-134.82
267.38	360.78
267.596	358.74
267.812	-18.09
268.028	4.44
268.244	194.9
268.46	237.91
268.676	-116.39
268.892	-50.86
269.108	18.77
269.324	57.68
269.54	-190.12
269.756	-126.63
269.972	110.93
270.188	184.66
270.403	-132.78
270.619	-36.52
270.835	198.99
271.051	145.75
271.267	-126.63
271.483	-145.06
271.698	309.58
271.914	235.86
272.13	22.87
272.346	-71.34
272.562	213.33
272.777	354.64
272.993	-9.9
273.209	-67.24
273.425	260.43
273.64	37.2
273.856	-48.81
274.072	-194.22
274.287	90.45
274.503	301.39
274.719	65.88
274.934	-134.82
275.15	78.16
275.366	180.56
275.581	-145.06
275.797	-9.9
276.012	182.61
276.228	143.7
276.444	-20.14
276.659	96.6
276.875	96.6
277.09	57.68
277.306	-28.33
277.521	22.87
277.737	90.45
277.952	219.47
278.168	12.63
278.383	-57
278.599	207.19
278.814	270.67
279.03	-44.71
279.245	78.16
279.461	176.47
279.676	227.67
279.892	6.49
280.107	-118.44
280.322	31.06
280.538	383.31
280.753	-67.24
280.969	-130.73
281.184	223.57
281.399	352.59
281.615	-3.75
281.83	110.93
282.045	-16.04
282.26	127.32
282.476	-69.29
282.691	20.82
282.906	166.23
283.122	160.08
283.337	-69.29
283.552	82.26
283.767	215.38
283.983	248.15
284.198	4.44
284.413	-108.2
284.628	96.6
284.843	184.66
285.058	-13.99
285.274	-46.76
285.489	164.18
285.704	217.43
285.919	-5.8
286.134	-13.99
286.349	145.75
286.564	170.32
286.779	22.87
286.995	4.44
287.21	-26.28
287.425	213.33
287.64	-40.62
287.855	196.95
288.07	-42.67
288.285	276.82
288.5	33.11
288.715	8.53
288.93	242
289.145	166.23
289.36	35.16
289.575	-1.71
289.79	352.59
290.004	137.56
290.219	67.92
290.434	-42.67
290.649	57.68
290.864	131.41
291.079	-93.87
291.294	24.92
291.509	297.3
291.724	119.12
291.938	-50.86
292.153	-44.71
292.368	164.18
292.583	201.04
292.798	14.68
293.012	0.34
293.227	213.33
293.442	96.6
293.657	53.59
293.871	-11.95
294.086	248.15
294.301	328.02
294.516	104.79
294.73	63.83
294.945	88.4
295.16	227.67
295.374	84.31
295.589	63.83
295.804	82.26
296.018	108.88
296.233	20.82
296.447	104.79
296.662	155.99
296.877	348.5
297.091	29.01
297.306	-93.87
297.52	166.23
297.735	264.53
297.949	39.25
298.164	-147.11
298.378	186.71
298.593	78.16
298.807	-36.52
299.022	47.44
299.236	338.26
299.451	127.32
299.665	33.11
299.88	49.49
300.094	213.33
300.309	217.43
300.523	-18.09
300.737	-13.99
300.952	233.81
301.166	311.63
301.381	-5.8
301.595	-48.81
301.809	205.14
302.024	151.89
302.238	-57
302.452	141.65
302.667	209.23
302.881	289.1
303.095	16.73
303.309	131.41
303.524	125.27
303.738	178.51
303.952	41.3
304.166	-36.52
304.381	-73.39
304.595	227.67
304.809	2.39
305.023	-54.95
305.237	69.97
305.452	178.51
305.666	-5.8
305.88	6.49
306.094	272.72
306.308	205.14
306.522	-83.63
306.736	78.16
306.95	242
307.164	125.27
307.379	33.11
307.593	121.17
307.807	346.45
308.021	188.75
308.235	151.89
308.449	-175.78
308.663	129.36
308.877	536.91
309.091	49.49
309.305	59.73
309.519	-36.52
309.733	256.34
309.947	-59.05
310.161	-50.86
310.374	246.1
310.588	227.67
310.802	-28.33
311.016	67.92
311.23	160.08
311.444	158.03
311.658	51.54
311.872	198.99
312.085	416.08
312.299	270.67
312.513	217.43
312.727	-138.92
312.941	22.87
313.154	233.81
313.368	14.68
313.582	12.63
313.796	291.15
314.009	121.17
314.223	242
314.437	196.95
314.651	266.58
314.864	80.21
315.078	29.01
315.292	-97.96
315.505	143.7
315.719	194.9
315.933	139.6
316.146	-26.28
316.36	55.64
316.573	239.95
316.787	198.99
317.001	65.88
317.214	39.25
317.428	160.08
317.641	-28.33
317.855	-5.8
318.068	164.18
318.282	186.71
318.495	194.9
318.709	-3.75
318.922	209.23
319.136	360.78
319.349	63.83
319.563	12.63
319.776	233.81
319.99	-75.43
320.203	53.59
320.417	-3.75
320.63	94.55
320.843	242
321.057	100.69
321.27	-24.23
321.483	330.06
321.697	278.87
321.91	-69.29
322.124	24.92
322.337	198.99
322.55	-7.85
322.763	20.82
322.977	-26.28
323.19	76.12
323.403	45.4
323.617	162.13
323.83	258.39
324.043	143.7
324.256	231.76
324.469	-118.44
324.683	205.14
324.896	205.14
325.109	153.94
325.322	-52.91
325.535	55.64
325.748	315.73
325.962	186.71
326.175	63.83
326.388	-42.67
326.601	194.9
326.814	110.93
327.027	86.36
327.24	108.88
327.453	-36.52
327.666	160.08
327.879	176.47
328.092	78.16
328.305	297.3
328.518	137.56
328.731	26.96
328.944	-3.75
329.157	235.86
329.37	65.88
329.583	168.27
329.796	31.06
330.009	26.96
330.222	289.1
330.435	18.77
330.648	153.94
330.861	209.23
331.073	166.23
331.286	135.51
331.499	-18.09
331.712	115.03
331.925	217.43
332.138	67.92
332.35	-38.57
332.563	235.86
332.776	319.82
332.989	12.63
333.202	-42.67
333.414	213.33
333.627	186.71
333.84	33.11
334.053	123.22
334.265	12.63
334.478	115.03
334.691	14.68
334.903	102.74
335.116	168.27
335.329	104.79
335.541	82.26
335.754	209.23
335.966	86.36
336.179	145.75
336.392	10.58
336.604	76.12
336.817	168.27
337.029	166.23
337.242	-18.09
337.454	112.98
337.667	180.56
337.88	352.59
338.092	35.16
338.305	90.45
338.517	94.55
338.729	217.43
338.942	51.54
339.154	-59.05
339.367	59.73
339.579	217.43
339.792	-85.67
340.004	41.3
340.217	139.6
340.429	256.34
340.641	43.35
340.854	-93.87
341.066	172.37
341.278	323.92
341.491	145.75
341.703	-34.47
341.915	112.98
342.128	305.49
342.34	61.78
342.552	47.44
342.764	176.47
342.977	188.75
343.189	133.46
343.401	102.74
343.613	37.2
343.826	135.51
344.038	18.77
344.25	51.54
344.462	98.64
344.674	188.75
344.886	20.82
345.099	4.44
345.311	231.76
345.523	123.22
345.735	-126.63
345.947	127.32
346.159	272.72
346.371	201.04
346.583	72.02
346.795	104.79
347.007	55.64
347.219	407.89
347.431	6.49
347.643	135.51
347.855	82.26
348.067	332.11
348.279	-5.8
348.491	-108.2
348.703	272.72
348.915	121.17
349.127	-16.04
349.339	59.73
349.551	117.08
349.763	287.06
349.975	31.06
350.187	72.02
350.399	287.06
350.61	250.19
350.822	26.96
351.034	57.68
351.246	309.58
351.458	252.24
351.669	35.16
351.881	72.02
352.093	426.32
352.305	268.63
352.517	-61.1
352.728	106.84
352.94	262.48
353.152	307.54
353.363	-75.43
353.575	125.27
353.787	432.46
353.999	217.43
354.21	215.38
354.422	-136.87
354.633	153.94
354.845	260.43
355.057	37.2
355.268	-20.14
355.48	244.05
355.692	65.88
355.903	41.3
356.115	-11.95
356.326	-30.38
356.538	430.41
356.749	45.4
356.961	88.4
357.172	225.62
357.384	14.68
357.595	217.43
357.807	72.02
358.018	78.16
358.23	168.27
358.441	-59.05
358.653	57.68
358.864	190.8
359.075	102.74
359.287	143.7
359.498	133.46
359.709	258.39
359.921	254.29
360.132	219.47
360.344	-42.67
360.555	112.98
360.766	153.94
360.977	-20.14
361.189	80.21
361.4	211.28
361.611	280.91
361.823	29.01
362.034	33.11
362.245	-9.9
362.456	196.95
362.667	96.6
362.879	-106.15
363.09	299.34
363.301	235.86
363.512	-11.95
363.723	-18.09
363.935	127.32
364.146	274.77
364.357	31.06
364.568	4.44
364.779	-32.43
364.99	399.7
365.201	16.73
365.412	178.51
365.623	-44.71
365.834	182.61
366.045	137.56
366.256	102.74
366.467	225.62
366.678	127.32
366.889	74.07
367.1	-50.86
367.311	340.3
367.522	147.8
367.733	82.26
367.944	20.82
368.155	213.33
368.366	313.68
368.577	174.42
368.788	143.7
368.999	76.12
369.209	248.15
369.42	151.89
369.631	405.84
369.842	248.15
370.053	143.7
370.264	24.92
370.474	-69.29
370.685	336.21
370.896	127.32
371.107	135.51
371.317	-22.19
371.528	276.82
371.739	397.65
371.95	155.99
372.16	57.68
372.371	-20.14
372.582	203.09
372.792	33.11
373.003	121.17
373.214	217.43
373.424	180.56
373.635	-9.9
373.846	176.47
374.056	192.85
374.267	217.43
374.477	88.4
374.688	12.63
374.898	227.67
375.109	239.95
375.319	90.45
375.53	110.93
375.74	301.39
375.951	119.12
376.161	133.46
376.372	55.64
376.582	100.69
376.793	244.05
377.003	-7.85
377.214	-5.8
377.424	332.11
377.635	252.24
377.845	4.44
378.055	184.66
378.266	69.97
378.476	194.9
378.686	33.11
378.897	45.4
379.107	297.3
379.317	291.15
379.528	-3.75
379.738	86.36
379.948	35.16
380.158	315.73
380.369	102.74
380.579	119.12
380.789	168.27
380.999	291.15
381.21	164.18
381.42	272.72
381.63	188.75
381.84	276.82
382.05	125.27
382.261	86.36
382.471	323.92
382.681	86.36
382.891	217.43
383.101	72.02
383.311	94.55
383.521	141.65
383.731	12.63
383.941	276.82
384.151	227.67
384.361	133.46
384.571	69.97
384.781	90.45
384.991	307.54
385.201	491.85
385.411	172.37
385.621	123.22
385.831	254.29
386.041	225.62
386.251	168.27
386.461	166.23
386.671	211.28
386.881	186.71
387.091	24.92
387.301	244.05
387.511	176.47
387.72	223.57
387.93	94.55
388.14	98.64
388.35	282.96
388.56	336.21
388.769	69.97
388.979	41.3
389.189	162.13
389.399	215.38
389.609	106.84
389.818	69.97
390.028	299.34
390.238	325.97
390.447	18.77
390.657	147.8
390.867	121.17
391.076	-57
391.286	-11.95
391.496	2.39
391.705	260.43
391.915	344.4
392.125	100.69
392.334	45.4
392.544	305.49
392.753	315.73
392.963	-24.23
393.172	166.23
393.382	190.8
393.591	452.94
393.801	22.87
394.01	35.16
394.22	217.43
394.429	201.04
394.639	69.97
394.848	-1.71
395.058	248.15
395.267	108.88
395.477	131.41
395.686	137.56
395.895	450.89
396.105	325.97
396.314	117.08
396.524	119.12
396.733	188.75
396.942	383.31
397.152	61.78
397.361	221.52
397.57	256.34
397.78	151.89
397.989	108.88
398.198	342.35
398.407	184.66
398.617	141.65
398.826	76.12
399.035	-5.8
399.244	266.58
399.453	235.86
399.663	2.39
399.872	-22.19
400.081	137.56
400.29	438.61
400.499	16.73
400.708	219.47
400.917	217.43
401.127	74.07
401.336	137.56
401.545	381.26
401.754	309.58
401.963	340.3
402.172	12.63
402.381	112.98
402.59	237.91
402.799	246.1
403.008	194.9
403.217	190.8
403.426	307.54
403.635	41.3
403.844	4.44
404.053	-9.9
404.262	192.85
404.471	414.03
404.68	121.17
404.888	137.56
405.097	211.28
405.306	225.62
405.515	162.13
405.724	18.77
405.933	293.2
406.142	223.57
406.35	112.98
406.559	119.12
406.768	278.87
406.977	504.14
407.185	61.78
407.394	149.84
407.603	143.7
407.812	209.23
408.02	276.82
408.229	69.97
408.438	348.5
408.646	41.3
408.855	94.55
409.064	39.25
409.272	192.85
409.481	315.73
409.69	78.16
409.898	2.39
410.107	248.15
410.315	313.68
410.524	149.84
410.733	72.02
410.941	301.39
411.15	399.7
411.358	174.42
411.567	338.26
411.775	293.2
411.984	287.06
412.192	260.43
412.401	55.64
412.609	506.19
412.818	373.07
413.026	198.99
413.234	149.84
413.443	393.55
413.651	145.75
413.86	-3.75
414.068	354.64
414.276	637.26
414.485	209.23
414.693	170.32
414.901	430.41
415.11	371.02
415.318	239.95
415.526	190.8
415.734	362.83
415.943	237.91
416.151	534.86
416.359	90.45
416.567	330.06
416.776	450.89
416.984	401.74
417.192	377.17
417.4	162.13
417.608	256.34
417.817	270.67
418.025	395.6
418.233	323.92
418.441	264.53
418.649	229.71
418.857	325.97
419.065	328.02
419.273	348.5
419.481	442.7
419.689	270.67
419.897	256.34
420.105	315.73
420.313	500.05
420.521	391.5
420.729	348.5
420.937	399.7
421.145	287.06
421.353	399.7
421.561	510.29
421.769	520.53
421.977	330.06
422.185	463.18
422.393	471.37
422.601	670.03
422.809	549.2
423.017	465.23
423.224	452.94
423.432	727.37
423.64	639.31
423.848	504.14
424.056	450.89
424.263	831.82
424.471	647.5
424.679	700.75
424.887	596.3
425.094	887.11
425.302	819.53
425.51	604.49
425.718	641.36
425.925	840.01
426.133	667.98
426.341	854.34
426.548	784.71
426.756	905.54
426.964	1030.47
427.171	823.62
427.379	848.2
427.586	1063.24
427.794	1042.76
428.001	1030.47
428.209	1040.71
428.417	1247.55
428.624	1186.12
428.832	1073.48
429.039	1100.1
429.247	1190.21
429.454	1306.95
429.662	1380.67
429.869	1247.55
430.076	1429.82
430.284	1550.65
430.491	1374.53
430.699	1423.68
430.906	1696.06
431.114	1638.72
431.321	1636.67
431.528	1524.03
431.736	1820.99
431.943	1892.66
432.15	1737.02
432.358	1644.86
432.565	2148.66
432.772	1800.51
432.979	2038.07
433.187	1915.19
433.394	2361.65
433.601	2208.05
433.808	2298.16
434.016	2306.35
434.223	2318.64
434.43	2511.15
434.637	2445.62
434.844	2634.03
435.052	2808.11
435.259	2824.49
435.466	2785.58
435.673	2707.76
435.88	3105.06
436.087	3428.64
436.294	3326.24
436.501	3080.49
436.708	3389.73
436.915	3363.11
437.122	3633.44
437.329	3307.81
437.537	3559.71
437.743	3830.04
437.95	3864.86
438.157	3875.1
438.364	4034.84
438.571	4247.83
438.778	4092.18
438.985	4552.98
439.192	4526.35
439.399	4526.35
439.606	4505.87
439.813	4913.42
440.02	5333.25
440.227	5433.6
440.433	5054.73
440.64	5161.22
440.847	5144.84
441.054	5456.13
441.261	5611.78
441.467	5546.24
441.674	5792
441.881	6125.82
442.088	5988.6
442.294	6152.44
442.501	6375.67
442.708	6658.29
442.914	6596.85
443.121	6772.97
443.328	6668.53
443.534	7540.96
443.741	6996.2
443.948	6877.42
444.154	7807.2
444.361	7942.36
444.568	7600.35
444.774	7760.09
444.981	7745.76
445.187	8403.16
445.394	8425.68
445.6	8331.48
445.807	9306.31
446.013	8935.63
446.22	8855.76
446.426	9394.37
446.633	9746.62
446.839	10404.02
447.046	9554.12
447.252	10457.27
447.459	10485.94
447.665	10459.32
447.871	11008.17
448.078	11755.68
448.284	11292.84
448.491	11788.45
448.697	12222.62
448.903	12630.16
449.11	12689.56
449.316	12599.45
449.522	13072.53
449.728	13650.05
449.935	13789.31
450.141	14131.33
450.347	14491.77
450.553	14137.47
450.76	14862.45
450.966	15401.07
451.172	15255.66
451.378	16193.63
451.584	16111.71
451.791	16957.52
451.997	17098.83
452.203	17274.96
452.409	18106.43
452.615	18270.27
452.821	17580.11
453.027	17688.65
453.233	19255.34
453.44	18810.93
453.646	19437.61
453.852	19675.18
454.058	20232.22
454.264	20344.86
454.47	21225.49
454.676	20889.62
454.882	22347.78
455.088	20881.43
455.294	21280.78
455.5	22358.02
455.705	22824.95
455.911	22482.94
456.117	22132.74
456.323	22845.43
456.529	22224.9
456.735	23429.1
456.941	22913.02
457.147	22996.98
457.352	23283.7
457.558	23238.64
457.764	23457.78
457.97	23177.2
458.176	23666.67
458.381	24117.22
458.587	23330.8
458.793	23613.42
458.999	22484.99
459.204	24713.18
459.41	24350.69
459.616	23162.87
