Data from USB4F104151__6__11-47-24-052.txt Node

Date: Wed Feb 19 11:47:24 EST 2025
User: louis
Spectrometer: USB4F10415
Trigger mode: 4
Integration Time (sec): 2.250200E-1
Scans to average: 1
Electric dark correction enabled: true
Nonlinearity correction enabled: false
Boxcar width: 0
XAxis mode: Wavelengths
Number of Pixels in Spectrum: 3648
>>>>>Begin Spectral Data<<<<<
178.204	-882.16
178.424	-882.16
178.644	-882.16
178.864	-769.52
179.084	-796.15
179.304	147.97
179.524	88.57
179.744	-9.73
179.964	-167.42
180.184	166.4
180.404	193.02
180.624	-267.77
180.844	-183.81
181.064	31.23
181.283	170.49
181.503	-155.13
181.723	-13.82
181.943	-81.41
182.163	387.58
182.383	-263.68
182.602	-226.81
182.822	408.06
183.042	156.16
183.262	-253.44
183.482	-273.92
183.701	117.25
183.921	256.51
184.141	-218.62
184.361	-159.23
184.58	178.69
184.8	205.31
185.02	-185.85
185.239	-73.21
185.459	262.65
185.679	326.14
185.898	-292.35
186.118	-175.61
186.338	195.07
186.557	260.6
186.777	-335.35
186.997	-214.52
187.216	152.06
187.436	492.02
187.655	-179.71
187.875	-24.06
188.095	190.97
188.314	381.43
188.534	-38.4
188.753	-351.74
188.973	381.43
189.192	412.15
189.412	-339.45
189.631	-224.76
189.851	266.75
190.07	387.58
190.29	-257.53
190.509	-241.15
190.729	201.21
190.948	350.71
191.168	-62.98
191.387	-237.05
191.607	154.11
191.826	145.92
192.045	-169.47
192.265	-198.14
192.484	227.84
192.704	178.69
192.923	-247.29
193.142	-42.5
193.362	272.89
193.581	322.04
193.8	-124.41
194.02	-144.89
194.239	236.03
194.458	340.47
194.678	-228.86
194.897	-288.25
195.116	178.69
195.335	57.86
195.555	-192
195.774	-220.67
195.993	330.23
196.212	227.84
196.432	-226.81
196.651	-275.96
196.87	152.06
197.089	541.18
197.308	-275.96
197.528	-105.98
197.747	90.62
197.966	188.93
198.185	-24.06
198.404	-286.2
198.623	279.04
198.842	354.81
199.062	-169.47
199.281	-124.41
199.5	145.92
199.719	299.52
199.938	-267.77
200.157	-159.23
200.376	367.1
200.595	264.7
200.814	-130.56
201.033	-189.95
201.252	395.77
201.471	162.3
201.69	-198.14
201.909	-148.99
202.128	311.8
202.347	236.03
202.566	-153.09
202.785	-370.17
203.004	37.38
203.223	537.08
203.442	-187.9
203.661	-255.48
203.879	287.23
204.098	324.09
204.317	-220.67
204.536	-11.78
204.755	256.51
204.974	315.9
205.193	-368.12
205.411	-114.17
205.63	336.38
205.849	195.07
206.068	-194.05
206.287	-351.74
206.505	358.91
206.724	145.92
206.943	-294.4
207.162	-224.76
207.381	131.58
207.599	150.01
207.818	-105.98
208.037	-192
208.255	260.6
208.474	233.98
208.693	-226.81
208.911	-263.68
209.13	264.7
209.349	340.47
209.567	-69.12
209.786	-220.67
210.005	309.76
210.223	252.41
210.442	-349.69
210.661	-257.53
210.879	203.26
211.098	223.74
211.316	-226.81
211.535	-151.04
211.753	174.59
211.972	209.4
212.191	-212.48
212.409	-108.03
212.628	203.26
212.846	43.52
213.065	-214.52
213.283	-71.17
213.502	229.88
213.72	256.51
213.938	-185.85
214.157	-192
214.375	311.8
214.594	166.4
214.812	-126.46
215.031	-220.67
215.249	156.16
215.467	229.88
215.686	-148.99
215.904	-210.43
216.122	182.78
216.341	340.47
216.559	-17.92
216.778	-50.69
216.996	356.86
217.214	6.66
217.432	-230.91
217.651	-329.21
217.869	68.09
218.087	147.97
218.306	-314.88
218.524	-218.62
218.742	139.77
218.96	270.84
219.179	-263.68
219.397	-235
219.615	459.26
219.833	244.22
220.051	-257.53
220.27	-153.09
220.488	285.18
220.706	190.97
220.924	-267.77
221.142	-208.38
221.36	258.56
221.578	209.4
221.796	-222.72
222.015	-105.98
222.233	252.41
222.451	399.87
222.669	-144.89
222.887	-114.17
223.105	29.18
223.323	145.92
223.541	-97.79
223.759	-128.51
223.977	117.25
224.195	348.67
224.413	-132.61
224.631	-241.15
224.849	264.7
225.067	475.64
225.285	-79.36
225.503	-247.29
225.721	-101.89
225.939	283.13
226.157	-144.89
226.375	0.51
226.592	29.18
226.81	158.21
227.028	-42.5
227.246	-140.8
227.464	252.41
227.682	252.41
227.9	-120.32
228.117	-116.22
228.335	244.22
228.553	141.82
228.771	-249.34
228.989	-161.28
229.206	258.56
229.424	84.48
229.642	-108.03
229.86	-204.28
230.077	320
230.295	117.25
230.513	-56.83
230.731	-159.23
230.948	403.96
231.166	264.7
231.384	-30.21
231.601	-144.89
231.819	373.24
232.037	18.94
232.254	-157.18
232.472	-85.5
232.689	166.4
232.907	299.52
233.125	-251.39
233.342	-278.01
233.56	143.87
233.777	199.16
233.995	-226.81
234.213	-130.56
234.43	258.56
234.648	211.45
234.865	-198.14
235.083	-83.45
235.3	211.45
235.518	313.85
235.735	-132.61
235.953	-95.74
236.17	176.64
236.388	64
236.605	18.94
236.822	-128.51
237.04	385.53
237.257	205.31
237.475	-151.04
237.692	-144.89
237.909	254.46
238.127	76.29
238.344	-1.54
238.562	-177.66
238.779	23.04
238.996	-65.02
239.214	-101.89
239.431	-155.13
239.648	84.48
239.865	240.12
240.083	-71.17
240.3	-210.43
240.517	35.33
240.735	147.97
240.952	25.09
241.169	-218.62
241.386	346.62
241.603	90.62
241.821	-173.57
242.038	-142.85
242.255	264.7
242.472	0.51
242.689	-114.17
242.907	-189.95
243.124	162.3
243.341	141.82
243.558	-81.41
243.775	-302.59
243.992	2.56
244.209	303.61
244.426	-50.69
244.643	-79.36
244.86	72.19
245.078	285.18
245.295	-13.82
245.512	-167.42
245.729	141.82
245.946	160.25
246.163	-148.99
246.38	-148.99
246.597	242.17
246.814	164.35
247.031	-62.98
247.248	-216.57
247.464	223.74
247.681	205.31
247.898	-151.04
248.115	-15.87
248.332	123.39
248.549	360.95
248.766	-17.92
248.983	-75.26
249.2	287.23
249.417	274.94
249.633	-118.27
249.85	-91.65
250.067	154.11
250.284	172.54
250.501	-153.09
250.717	-83.45
250.934	61.95
251.151	74.24
251.368	-75.26
251.585	-112.13
251.801	227.84
252.018	-17.92
252.235	6.66
252.451	-204.28
252.668	137.73
252.885	307.71
253.102	-87.55
253.318	-103.93
253.535	86.53
253.752	121.34
253.968	-110.08
254.185	-298.49
254.401	209.4
254.618	240.12
254.835	-134.65
255.051	-112.13
255.268	305.66
255.484	172.54
255.701	-99.84
255.917	-194.05
256.134	12.8
256.351	199.16
256.567	-194.05
256.784	53.76
257	-24.06
257.217	309.76
257.433	45.57
257.65	-108.03
257.866	322.04
258.082	14.85
258.299	-83.45
258.515	-206.33
258.732	150.01
258.948	16.9
259.165	-85.5
259.381	-198.14
259.597	285.18
259.814	129.53
260.03	-153.09
260.246	-171.52
260.463	221.69
260.679	252.41
260.895	-122.37
261.112	-67.07
261.328	82.43
261.544	33.28
261.761	-130.56
261.977	-132.61
262.193	-36.35
262.409	328.19
262.626	-75.26
262.842	-132.61
263.058	39.42
263.274	231.93
263.49	-73.21
263.707	-192
263.923	303.61
264.139	-17.92
264.355	-105.98
264.571	-85.5
264.787	231.93
265.004	258.56
265.22	-62.98
265.436	-155.13
265.652	227.84
265.868	258.56
266.084	-196.09
266.3	-159.23
266.516	53.76
266.732	227.84
266.948	-69.12
267.164	-220.67
267.38	289.28
267.596	182.78
267.812	-65.02
268.028	-28.16
268.244	131.58
268.46	143.87
268.676	-130.56
268.892	-44.54
269.108	-1.54
269.324	35.33
269.54	-153.09
269.756	-42.5
269.972	35.33
270.188	107.01
270.403	-151.04
270.619	-108.03
270.835	184.83
271.051	223.74
271.267	-153.09
271.483	-138.75
271.698	260.6
271.914	209.4
272.13	-38.4
272.346	-108.03
272.562	147.97
272.777	285.18
272.993	-105.98
273.209	-95.74
273.425	260.6
273.64	-13.82
273.856	-99.84
274.072	-294.4
274.287	72.19
274.503	248.32
274.719	-38.4
274.934	-151.04
275.15	-30.21
275.366	145.92
275.581	-183.81
275.797	-163.33
276.012	203.26
276.228	84.48
276.444	-114.17
276.659	88.57
276.875	18.94
277.09	100.86
277.306	-75.26
277.521	-15.87
277.737	76.29
277.952	145.92
278.168	-67.07
278.383	-79.36
278.599	45.57
278.814	201.21
279.03	-136.7
279.245	72.19
279.461	121.34
279.676	229.88
279.892	-157.18
280.107	-120.32
280.322	25.09
280.538	158.21
280.753	-138.75
280.969	-97.79
281.184	94.72
281.399	279.04
281.615	-114.17
281.83	29.18
282.045	-77.31
282.26	64
282.476	-132.61
282.691	8.7
282.906	158.21
283.122	92.67
283.337	-50.69
283.552	29.18
283.767	123.39
283.983	229.88
284.198	-101.89
284.413	-120.32
284.628	-11.78
284.843	113.15
285.058	-99.84
285.274	-116.22
285.489	-36.35
285.704	145.92
285.919	-110.08
286.134	-62.98
286.349	111.1
286.564	102.91
286.779	8.7
286.995	-75.26
287.21	-73.21
287.425	172.54
287.64	-75.26
287.855	16.9
288.07	0.51
288.285	203.26
288.5	57.86
288.715	-30.21
288.93	143.87
289.145	-9.73
289.36	-42.5
289.575	-77.31
289.79	348.67
290.004	51.71
290.219	14.85
290.434	-110.08
290.649	111.1
290.864	59.9
291.079	-120.32
291.294	-1.54
291.509	229.88
291.724	68.09
291.938	-105.98
292.153	-42.5
292.368	115.2
292.583	143.87
292.798	12.8
293.012	-73.21
293.227	178.69
293.442	117.25
293.657	23.04
293.871	-44.54
294.086	170.49
294.301	309.76
294.516	55.81
294.73	57.86
294.945	14.85
295.16	145.92
295.374	-58.88
295.589	16.9
295.804	0.51
296.018	121.34
296.233	-128.51
296.447	16.9
296.662	104.96
296.877	344.57
297.091	-26.11
297.306	-46.59
297.52	43.52
297.735	250.36
297.949	14.85
298.164	-198.14
298.378	115.2
298.593	-3.58
298.807	-65.02
299.022	-67.07
299.236	244.22
299.451	74.24
299.665	6.66
299.88	25.09
300.094	190.97
300.309	94.72
300.523	-38.4
300.737	-91.65
300.952	233.98
301.166	211.45
301.381	-132.61
301.595	-153.09
301.809	84.48
302.024	59.9
302.238	-50.69
302.452	109.05
302.667	143.87
302.881	252.41
303.095	41.47
303.309	10.75
303.524	35.33
303.738	104.96
303.952	-1.54
304.166	-75.26
304.381	-124.41
304.595	229.88
304.809	-1.54
305.023	-48.64
305.237	-13.82
305.452	74.24
305.666	-40.45
305.88	0.51
306.094	201.21
306.308	123.39
306.522	-112.13
306.736	18.94
306.95	205.31
307.164	88.57
307.379	-13.82
307.593	88.57
307.807	203.26
308.021	180.73
308.235	125.44
308.449	-122.37
308.663	115.2
308.877	473.59
309.091	92.67
309.305	-7.68
309.519	-13.82
309.733	227.84
309.947	-85.5
310.161	-163.33
310.374	207.36
310.588	195.07
310.802	-62.98
311.016	-42.5
311.23	125.44
311.444	0.51
311.658	49.66
311.872	135.68
312.085	252.41
312.299	338.43
312.513	59.9
312.727	-153.09
312.941	31.23
313.154	129.53
313.368	-24.06
313.582	16.9
313.796	68.09
314.009	158.21
314.223	96.77
314.437	41.47
314.651	131.58
314.864	-17.92
315.078	-26.11
315.292	-101.89
315.505	74.24
315.719	129.53
315.933	43.52
316.146	-132.61
316.36	-15.87
316.573	141.82
316.787	182.78
317.001	-26.11
317.214	-62.98
317.428	100.86
317.641	-85.5
317.855	-75.26
318.068	182.78
318.282	147.97
318.495	117.25
318.709	-112.13
318.922	123.39
319.136	270.84
319.349	16.9
319.563	-103.93
319.776	240.12
319.99	-67.07
320.203	59.9
320.417	-77.31
320.63	141.82
320.843	186.88
321.057	-1.54
321.27	4.61
321.483	158.21
321.697	229.88
321.91	-34.3
322.124	-65.02
322.337	154.11
322.55	33.28
322.763	-13.82
322.977	-132.61
323.19	16.9
323.403	143.87
323.617	-26.11
323.83	61.95
324.043	96.77
324.256	109.05
324.469	-192
324.683	74.24
324.896	233.98
325.109	117.25
325.322	-157.18
325.535	51.71
325.748	270.84
325.962	4.61
326.175	2.56
326.388	-17.92
326.601	176.64
326.814	57.86
327.027	-40.45
327.24	31.23
327.453	-32.26
327.666	188.93
327.879	154.11
328.092	25.09
328.305	145.92
328.518	117.25
328.731	-56.83
328.944	-124.41
329.157	76.29
329.37	78.33
329.583	94.72
329.796	-44.54
330.009	-24.06
330.222	107.01
330.435	14.85
330.648	14.85
330.861	223.74
331.073	133.63
331.286	72.19
331.499	-19.97
331.712	96.77
331.925	90.62
332.138	-50.69
332.35	-40.45
332.563	39.42
332.776	305.66
332.989	-116.22
333.202	-144.89
333.414	92.67
333.627	125.44
333.84	-75.26
334.053	-36.35
334.265	39.42
334.478	-56.83
334.691	-95.74
334.903	68.09
335.116	55.81
335.329	141.82
335.541	53.76
335.754	197.12
335.966	86.53
336.179	64
336.392	10.75
336.604	-38.4
336.817	186.88
337.029	193.02
337.242	-97.79
337.454	68.09
337.667	115.2
337.88	225.79
338.092	35.33
338.305	-22.02
338.517	47.62
338.729	131.58
338.942	43.52
339.154	-165.37
339.367	-87.55
339.579	166.4
339.792	-163.33
340.004	98.81
340.217	59.9
340.429	188.93
340.641	-62.98
340.854	-75.26
341.066	139.77
341.278	293.37
341.491	129.53
341.703	-38.4
341.915	8.7
342.128	229.88
342.34	-7.68
342.552	-69.12
342.764	147.97
342.977	72.19
343.189	-9.73
343.401	96.77
343.613	-22.02
343.826	143.87
344.038	-50.69
344.25	-3.58
344.462	39.42
344.674	197.12
344.886	-128.51
345.099	-42.5
345.311	184.83
345.523	107.01
345.735	-181.76
345.947	-36.35
346.159	135.68
346.371	178.69
346.583	14.85
346.795	-19.97
347.007	-3.58
347.219	229.88
347.431	-7.68
347.643	139.77
347.855	86.53
348.067	297.47
348.279	-83.45
348.491	-40.45
348.703	268.8
348.915	113.15
349.127	-9.73
349.339	10.75
349.551	49.66
349.763	240.12
349.975	-62.98
350.187	-79.36
350.399	317.95
350.61	162.3
350.822	-58.88
351.034	-26.11
351.246	209.4
351.458	76.29
351.669	4.61
351.881	-58.88
352.093	227.84
352.305	246.27
352.517	-81.41
352.728	-40.45
352.94	90.62
353.152	238.08
353.363	-91.65
353.575	8.7
353.787	367.1
353.999	166.4
354.21	94.72
354.422	-208.38
354.633	94.72
354.845	154.11
355.057	20.99
355.268	20.99
355.48	188.93
355.692	-7.68
355.903	6.66
356.115	-175.61
356.326	10.75
356.538	260.6
356.749	18.94
356.961	154.11
357.172	31.23
357.384	-7.68
357.595	90.62
357.807	-67.07
358.018	23.04
358.23	156.16
358.441	-120.32
358.653	-50.69
358.864	193.02
359.075	-89.6
359.287	12.8
359.498	-56.83
359.709	217.6
359.921	84.48
360.132	45.57
360.344	-73.21
360.555	20.99
360.766	201.21
360.977	-136.7
361.189	37.38
361.4	33.28
361.611	221.69
361.823	64
362.034	-120.32
362.245	-58.88
362.456	125.44
362.667	45.57
362.879	-110.08
363.09	152.06
363.301	152.06
363.512	-95.74
363.723	-112.13
363.935	139.77
364.146	229.88
364.357	0.51
364.568	-17.92
364.779	70.14
364.99	336.38
365.201	8.7
365.412	127.49
365.623	8.7
365.834	150.01
366.045	14.85
366.256	4.61
366.467	250.36
366.678	2.56
366.889	16.9
367.1	-101.89
367.311	299.52
367.522	41.47
367.733	-32.26
367.944	-42.5
368.155	68.09
368.366	96.77
368.577	80.38
368.788	20.99
368.999	12.8
369.209	162.3
369.42	100.86
369.631	301.56
369.842	160.25
370.053	57.86
370.264	14.85
370.474	-112.13
370.685	174.59
370.896	117.25
371.107	98.81
371.317	-73.21
371.528	82.43
371.739	268.8
371.95	6.66
372.16	-9.73
372.371	-1.54
372.582	96.77
372.792	-15.87
373.003	4.61
373.214	64
373.424	158.21
373.635	-79.36
373.846	129.53
374.056	121.34
374.267	121.34
374.477	61.95
374.688	-114.17
374.898	131.58
375.109	66.05
375.319	47.62
375.53	35.33
375.74	227.84
375.951	6.66
376.161	59.9
376.372	64
376.582	143.87
376.793	193.02
377.003	-36.35
377.214	-146.94
377.424	113.15
377.635	107.01
377.845	-42.5
378.055	41.47
378.266	-50.69
378.476	80.38
378.686	33.28
378.897	25.09
379.107	256.51
379.317	193.02
379.528	-99.84
379.738	-26.11
379.948	31.23
380.158	193.02
380.369	37.38
380.579	-36.35
380.789	166.4
380.999	223.74
381.21	27.14
381.42	129.53
381.63	125.44
381.84	309.76
382.05	-3.58
382.261	84.48
382.471	324.09
382.681	33.28
382.891	57.86
383.101	45.57
383.311	31.23
383.521	-36.35
383.731	-13.82
383.941	115.2
384.151	154.11
384.361	49.66
384.571	-52.74
384.781	20.99
384.991	231.93
385.201	328.19
385.411	129.53
385.621	0.51
385.831	195.07
386.041	80.38
386.251	29.18
386.461	96.77
386.671	64
386.881	154.11
387.091	14.85
387.301	84.48
387.511	68.09
387.72	115.2
387.93	43.52
388.14	-83.45
388.35	74.24
388.56	238.08
388.769	10.75
388.979	-19.97
389.189	-15.87
389.399	160.25
389.609	-17.92
389.818	51.71
390.028	166.4
390.238	100.86
390.447	-95.74
390.657	70.14
390.867	107.01
391.076	-138.75
391.286	-17.92
391.496	-65.02
391.705	186.88
391.915	293.37
392.125	2.56
392.334	64
392.544	307.71
392.753	113.15
392.963	-42.5
393.172	-42.5
393.382	113.15
393.591	293.37
393.801	-32.26
394.01	10.75
394.22	184.83
394.429	90.62
394.639	72.19
394.848	57.86
395.058	119.29
395.267	39.42
395.477	31.23
395.686	39.42
395.895	406.01
396.105	285.18
396.314	8.7
396.524	25.09
396.733	84.48
396.942	256.51
397.152	-9.73
397.361	147.97
397.57	225.79
397.78	82.43
397.989	98.81
398.198	244.22
398.407	74.24
398.617	150.01
398.826	-56.83
399.035	-114.17
399.244	182.78
399.453	107.01
399.663	-30.21
399.872	-75.26
400.081	-95.74
400.29	221.69
400.499	-87.55
400.708	82.43
400.917	70.14
401.127	123.39
401.336	-48.64
401.545	215.55
401.754	315.9
401.963	147.97
402.172	6.66
402.381	-69.12
402.59	74.24
402.799	86.53
403.008	162.3
403.217	53.76
403.426	154.11
403.635	-93.69
403.844	-67.07
404.053	-40.45
404.262	145.92
404.471	227.84
404.68	14.85
404.888	57.86
405.097	55.81
405.306	92.67
405.515	-13.82
405.724	-9.73
405.933	195.07
406.142	147.97
406.35	-22.02
406.559	43.52
406.768	143.87
406.977	305.66
407.185	-7.68
407.394	12.8
407.603	41.47
407.812	156.16
408.02	107.01
408.229	-1.54
408.438	201.21
408.646	-13.82
408.855	-91.65
409.064	-50.69
409.272	68.09
409.481	209.4
409.69	-79.36
409.898	-155.13
410.107	135.68
410.315	211.45
410.524	51.71
410.733	-19.97
410.941	209.4
411.15	229.88
411.358	80.38
411.567	139.77
411.775	152.06
411.984	176.64
412.192	92.67
412.401	-120.32
412.609	295.42
412.818	283.13
413.026	55.81
413.234	-11.78
413.443	203.26
413.651	80.38
413.86	-226.81
414.068	246.27
414.276	315.9
414.485	10.75
414.693	14.85
414.901	166.4
415.11	201.21
415.318	100.86
415.526	-3.58
415.734	57.86
415.943	172.54
416.151	250.36
416.359	-28.16
416.567	66.05
416.776	121.34
416.984	276.99
417.192	51.71
417.4	-42.5
417.608	80.38
417.817	-19.97
418.025	113.15
418.233	86.53
418.441	-28.16
418.649	12.8
418.857	14.85
419.065	104.96
419.273	82.43
419.481	193.02
419.689	51.71
419.897	-32.26
420.105	-17.92
420.313	147.97
420.521	107.01
420.729	68.09
420.937	172.54
421.145	64
421.353	-32.26
421.561	141.82
421.769	205.31
421.977	113.15
422.185	20.99
422.393	59.9
422.601	203.26
422.809	141.82
423.017	92.67
423.224	10.75
423.432	285.18
423.64	94.72
423.848	-81.41
424.056	-50.69
424.263	264.7
424.471	190.97
424.679	117.25
424.887	-169.47
425.094	483.83
425.302	190.97
425.51	-44.54
425.718	23.04
425.925	219.64
426.133	6.66
426.341	152.06
426.548	51.71
426.756	113.15
426.964	145.92
427.171	14.85
427.379	47.62
427.586	131.58
427.794	219.64
428.001	72.19
428.209	12.8
428.417	309.76
428.624	256.51
428.832	55.81
429.039	131.58
429.247	182.78
429.454	127.49
429.662	109.05
429.869	57.86
430.076	256.51
430.284	260.6
430.491	43.52
430.699	-22.02
430.906	299.52
431.114	217.6
431.321	150.01
431.528	76.29
431.736	162.3
431.943	225.79
432.15	68.09
432.358	12.8
432.565	389.63
432.772	-7.68
432.979	135.68
433.187	23.04
433.394	289.28
433.601	68.09
433.808	35.33
434.016	104.96
434.223	174.59
434.43	117.25
434.637	25.09
434.844	162.3
435.052	260.6
435.259	258.56
435.466	143.87
435.673	111.1
435.88	299.52
436.087	365.05
436.294	274.94
436.501	219.64
436.708	199.16
436.915	301.56
437.122	276.99
437.329	98.81
437.537	231.93
437.743	344.57
437.95	219.64
438.157	94.72
438.364	330.23
438.571	272.89
438.778	72.19
438.985	137.73
439.192	379.39
439.399	170.49
439.606	188.93
439.813	254.46
440.02	584.18
440.227	584.18
440.433	244.22
440.64	168.45
440.847	258.56
441.054	260.6
441.261	233.98
441.467	236.03
441.674	221.69
441.881	481.78
442.088	236.03
442.294	246.27
442.501	414.2
442.708	508.41
442.914	281.08
443.121	315.9
443.328	410.11
443.534	604.66
443.741	342.52
443.948	225.79
444.154	481.78
444.361	713.21
444.568	313.85
444.774	408.06
444.981	422.39
445.187	668.15
445.394	420.35
445.6	410.11
445.807	545.27
446.013	461.3
446.22	236.03
446.426	643.57
446.633	645.62
446.839	829.94
447.046	317.95
447.252	561.66
447.459	588.28
447.665	692.73
447.871	551.42
448.078	805.36
448.284	774.64
448.491	940.53
448.697	686.58
448.903	686.58
449.11	899.57
449.316	858.61
449.522	954.87
449.728	844.28
449.935	1063.41
450.141	903.67
450.347	956.91
450.553	977.39
450.76	1198.57
450.966	1102.32
451.172	1186.29
451.378	1092.08
451.584	1321.45
451.791	1487.34
451.997	1282.54
452.203	1337.84
452.409	1651.17
452.615	1612.26
452.821	1315.31
453.027	1366.51
453.233	1872.36
453.44	1587.69
453.646	1382.89
453.852	1665.51
454.058	1653.22
454.264	1780.2
454.47	1772
454.676	1747.43
454.882	1989.09
455.088	1890.79
455.294	1911.27
455.5	2021.86
455.705	2101.73
455.911	2011.62
456.117	1855.97
456.323	2068.96
456.529	2054.62
456.735	2134.5
456.941	1927.65
457.147	2132.45
457.352	2308.57
457.558	2050.53
457.764	2120.16
457.97	1966.56
458.176	2181.6
458.381	2109.92
458.587	2187.74
458.793	2130.4
458.999	2068.96
459.204	2132.45
459.41	2118.11
459.616	2193.89
459.821	2310.62
460.027	2173.41
460.233	2138.59
460.438	2025.95
460.644	2081.25
460.85	2058.72
461.055	2046.43
461.261	2068.96
461.466	1866.21
461.672	2060.77
461.878	1829.35
462.083	1933.79
462.289	1751.53
