Data from USB4F104151__22__12-15-57-845.txt Node

Date: Wed Feb 19 12:15:57 EST 2025
User: louis
Spectrometer: USB4F10415
Trigger mode: 4
Integration Time (sec): 2.250200E-1
Scans to average: 1
Electric dark correction enabled: true
Nonlinearity correction enabled: false
Boxcar width: 0
XAxis mode: Wavelengths
Number of Pixels in Spectrum: 3648
>>>>>Begin Spectral Data<<<<<
178.204	-795.81
178.424	-795.81
178.644	-795.81
178.864	-822.43
179.084	-853.15
179.304	193.36
179.524	136.02
179.744	31.57
179.964	-283.81
180.184	211.79
180.404	133.97
180.624	-259.24
180.844	-158.89
181.064	-3.24
181.283	219.99
181.503	-142.5
181.723	-79.02
181.943	-23.72
182.163	422.73
182.383	-285.86
182.602	-261.29
182.822	406.35
183.042	195.41
183.262	-222.38
183.482	-212.14
183.701	203.6
183.921	176.98
184.141	-132.26
184.361	-124.07
184.58	258.9
184.8	205.65
185.02	-205.99
185.239	-138.41
185.459	260.95
185.679	334.67
185.898	-324.77
186.118	-285.86
186.338	283.47
186.557	303.95
186.777	-238.76
186.997	-263.33
187.216	197.46
187.436	465.74
187.655	-156.84
187.875	-74.92
188.095	242.51
188.314	398.16
188.534	-97.45
188.753	-271.53
188.973	353.1
189.192	392.02
189.412	-230.57
189.631	-107.69
189.851	306
190.07	381.78
190.29	-212.14
190.509	-269.48
190.729	230.23
190.948	398.16
191.168	-85.16
191.387	-251.05
191.607	189.27
191.826	246.61
192.045	-191.66
192.265	-185.51
192.484	295.76
192.704	156.5
192.923	-175.27
193.142	-97.45
193.362	267.09
193.581	371.54
193.8	-134.31
194.02	-142.5
194.239	209.75
194.458	369.49
194.678	-126.12
194.897	-240.81
195.116	181.07
195.335	246.61
195.555	-154.79
195.774	-251.05
195.993	449.36
196.212	205.65
196.432	-119.98
196.651	-255.14
196.87	166.74
197.089	602.96
197.308	-259.24
197.528	-64.68
197.747	29.52
197.966	213.84
198.185	-36.01
198.404	-187.56
198.623	283.47
198.842	375.63
199.062	-103.59
199.281	-58.54
199.5	258.9
199.719	310.1
199.938	-191.66
200.157	-191.66
200.376	371.54
200.595	508.75
200.814	-115.88
201.033	-165.03
201.252	408.4
201.471	232.27
201.69	-253.09
201.909	-197.8
202.128	306
202.347	201.55
202.566	-165.03
202.785	-322.73
203.004	70.48
203.223	478.03
203.442	-181.42
203.661	-277.67
203.879	318.29
204.098	383.82
204.317	-169.13
204.536	-27.82
204.755	349.01
204.974	349.01
205.193	-298.15
205.411	-97.45
205.63	303.95
205.849	279.38
206.068	-199.85
206.287	-253.09
206.505	367.44
206.724	189.27
206.943	-289.96
207.162	-267.43
207.381	228.18
207.599	185.17
207.818	-54.44
208.037	-259.24
208.255	252.75
208.474	246.61
208.693	-144.55
208.911	-152.74
209.13	258.9
209.349	334.67
209.567	-70.83
209.786	-240.81
210.005	349.01
210.223	275.28
210.442	-398.5
210.661	-255.14
210.879	250.71
211.098	164.69
211.316	-52.39
211.535	-134.31
211.753	283.47
211.972	275.28
212.191	-171.18
212.409	-251.05
212.628	236.37
212.846	156.5
213.065	-275.62
213.283	-171.18
213.502	187.22
213.72	105.3
213.938	-146.6
214.157	-197.8
214.375	299.86
214.594	174.93
214.812	-95.4
215.031	-191.66
215.249	217.94
215.467	291.66
215.686	-115.88
215.904	-238.76
216.122	168.79
216.341	398.16
216.559	-9.39
216.778	-9.39
216.996	435.02
217.214	144.21
217.432	-126.12
217.651	-330.92
217.869	262.99
218.087	213.84
218.306	-242.85
218.524	-199.85
218.742	146.26
218.96	420.69
219.179	-162.98
219.397	-156.84
219.615	414.54
219.833	297.81
220.051	-259.24
220.27	-109.74
220.488	400.21
220.706	217.94
220.924	-197.8
221.142	-246.95
221.36	234.32
221.578	326.48
221.796	-160.94
222.015	-109.74
222.233	232.27
222.451	371.54
222.669	-58.54
222.887	-54.44
223.105	154.45
223.323	168.79
223.541	-162.98
223.759	-83.11
223.977	209.75
224.195	467.79
224.413	-99.5
224.631	-214.18
224.849	283.47
225.067	570.19
225.285	-93.35
225.503	-197.8
225.721	-42.15
225.939	176.98
226.157	-23.72
226.375	43.86
226.592	172.88
226.81	191.31
227.028	11.09
227.246	-93.35
227.464	164.69
227.682	273.23
227.9	-156.84
228.117	-60.59
228.335	265.04
228.553	262.99
228.771	-236.71
228.989	-152.74
229.206	306
229.424	160.59
229.642	-191.66
229.86	-187.56
230.077	381.78
230.295	168.79
230.513	-105.64
230.731	-156.84
230.948	465.74
231.166	387.92
231.384	-93.35
231.601	-126.12
231.819	375.63
232.037	90.96
232.254	-44.2
232.472	-99.5
232.689	70.48
232.907	295.76
233.125	-165.03
233.342	-249
233.56	191.31
233.777	99.16
233.995	-203.94
234.213	-109.74
234.43	299.86
234.648	162.64
234.865	-154.79
235.083	-13.48
235.3	203.6
235.518	262.99
235.735	-50.35
235.953	-130.22
236.17	236.37
236.388	113.49
236.605	15.19
236.822	-117.93
237.04	293.71
237.257	295.76
237.475	-199.85
237.692	-126.12
237.909	287.57
238.127	172.88
238.344	2.9
238.562	-142.5
238.779	21.33
238.996	13.14
239.214	-76.97
239.431	-146.6
239.648	146.26
239.865	217.94
240.083	-83.11
240.3	-165.03
240.517	156.5
240.735	179.03
240.952	-68.78
241.169	-87.21
241.386	269.14
241.603	86.87
241.821	-197.8
242.038	-81.07
242.255	297.81
242.472	19.29
242.689	-138.41
242.907	-179.37
243.124	172.88
243.341	170.83
243.558	-103.59
243.775	-199.85
243.992	47.96
244.209	195.41
244.426	-50.35
244.643	-113.83
244.86	164.69
245.078	269.14
245.295	-72.87
245.512	-179.37
245.729	72.53
245.946	205.65
246.163	-115.88
246.38	-150.7
246.597	228.18
246.814	148.31
247.031	-58.54
247.248	-195.75
247.464	201.55
247.681	230.23
247.898	-144.55
248.115	-60.59
248.332	119.64
248.549	381.78
248.766	-9.39
248.983	-119.98
249.2	267.09
249.417	346.96
249.633	-101.55
249.85	4.95
250.067	133.97
250.284	217.94
250.501	-177.32
250.717	-156.84
250.934	131.92
251.151	185.17
251.368	-46.25
251.585	-167.08
251.801	219.99
252.018	70.48
252.235	27.48
252.451	-146.6
252.668	252.75
252.885	246.61
253.102	-101.55
253.318	-146.6
253.535	154.45
253.752	103.25
253.968	-228.52
254.185	-226.47
254.401	160.59
254.618	248.66
254.835	-91.31
255.051	-60.59
255.268	279.38
255.484	179.03
255.701	-109.74
255.917	-128.17
256.134	76.63
256.351	103.25
256.567	-261.29
256.784	4.95
257	-19.63
257.217	318.29
257.433	-3.24
257.65	-83.11
257.866	367.44
258.082	56.15
258.299	-210.09
258.515	-70.83
258.732	84.82
258.948	80.72
259.165	-117.93
259.381	-142.5
259.597	254.8
259.814	90.96
260.03	-173.22
260.246	-128.17
260.463	308.05
260.679	330.58
260.895	9.05
261.112	-70.83
261.328	162.64
261.544	54.1
261.761	-109.74
261.977	-64.68
262.193	47.96
262.409	250.71
262.626	2.9
262.842	-150.7
263.058	105.3
263.274	338.77
263.49	-117.93
263.707	-162.98
263.923	283.47
264.139	37.72
264.355	-111.78
264.571	-40.11
264.787	228.18
265.004	256.85
265.22	-81.07
265.436	-185.51
265.652	148.31
265.868	246.61
266.084	-195.75
266.3	-119.98
266.516	43.86
266.732	187.22
266.948	-76.97
267.164	-212.14
267.38	297.81
267.596	252.75
267.812	129.88
268.028	-115.88
268.244	199.51
268.46	158.55
268.676	-99.5
268.892	17.24
269.108	60.24
269.324	-1.19
269.54	-169.13
269.756	-44.2
269.972	35.67
270.188	146.26
270.403	-95.4
270.619	-89.26
270.835	140.12
271.051	152.4
271.267	-115.88
271.483	-263.33
271.698	254.8
271.914	240.47
272.13	-54.44
272.346	-132.26
272.562	133.97
272.777	351.06
272.993	23.38
273.209	-175.27
273.425	222.03
273.64	-27.82
273.856	-56.49
274.072	-183.46
274.287	47.96
274.503	256.85
274.719	54.1
274.934	-134.31
275.15	-3.24
275.366	123.73
275.581	-115.88
275.797	-91.31
276.012	242.51
276.228	72.53
276.444	-5.29
276.659	95.06
276.875	17.24
277.09	66.39
277.306	-15.53
277.521	-132.26
277.737	189.27
277.952	219.99
278.168	-99.5
278.383	-91.31
278.599	170.83
278.814	248.66
279.03	-105.64
279.245	13.14
279.461	113.49
279.676	170.83
279.892	-23.72
280.107	-99.5
280.322	101.2
280.538	222.03
280.753	-146.6
280.969	-93.35
281.184	238.42
281.399	287.57
281.615	15.19
281.83	-3.24
282.045	90.96
282.26	-27.82
282.476	-5.29
282.691	70.48
282.906	152.4
283.122	191.31
283.337	-36.01
283.552	-52.39
283.767	125.78
283.983	195.41
284.198	-27.82
284.413	-136.36
284.628	0.85
284.843	168.79
285.058	-79.02
285.274	-87.21
285.489	195.41
285.704	185.17
285.919	-33.96
286.134	-48.3
286.349	123.73
286.564	33.62
286.779	37.72
286.995	-38.06
287.21	13.14
287.425	172.88
287.64	-83.11
287.855	84.82
288.07	-62.63
288.285	215.89
288.5	72.53
288.715	-31.91
288.93	217.94
289.145	35.67
289.36	-50.35
289.575	-64.68
289.79	283.47
290.004	27.48
290.219	58.2
290.434	-48.3
290.649	56.15
290.864	68.44
291.079	-38.06
291.294	17.24
291.509	207.7
291.724	88.92
291.938	-70.83
292.153	-52.39
292.368	166.74
292.583	226.13
292.798	-58.54
293.012	-31.91
293.227	205.65
293.442	168.79
293.657	54.1
293.871	-11.43
294.086	246.61
294.301	320.34
294.516	37.72
294.73	66.39
294.945	43.86
295.16	170.83
295.374	-29.87
295.589	72.53
295.804	125.78
296.018	236.37
296.233	-85.16
296.447	97.11
296.662	156.5
296.877	367.44
297.091	-23.72
297.306	-27.82
297.52	88.92
297.735	277.33
297.949	76.63
298.164	-195.75
298.378	168.79
298.593	21.33
298.807	-42.15
299.022	35.67
299.236	353.1
299.451	62.29
299.665	29.52
299.88	-38.06
300.094	260.95
300.309	97.11
300.523	-42.15
300.737	-113.83
300.952	279.38
301.166	205.65
301.381	31.57
301.595	-130.22
301.809	107.35
302.024	107.35
302.238	-93.35
302.452	113.49
302.667	129.88
302.881	301.9
303.095	-3.24
303.309	11.09
303.524	97.11
303.738	160.59
303.952	80.72
304.166	74.58
304.381	-99.5
304.595	248.66
304.809	13.14
305.023	-74.92
305.237	136.02
305.452	136.02
305.666	-81.07
305.88	-19.63
306.094	252.75
306.308	203.6
306.522	-42.15
306.736	41.81
306.95	209.75
307.164	15.19
307.379	-15.53
307.593	82.77
307.807	256.85
308.021	258.9
308.235	88.92
308.449	-70.83
308.663	64.34
308.877	580.43
309.091	50
309.305	150.36
309.519	-85.16
309.733	219.99
309.947	-29.87
310.161	-70.83
310.374	179.03
310.588	213.84
310.802	-95.4
311.016	0.85
311.23	119.64
311.444	29.52
311.658	4.95
311.872	154.45
312.085	299.86
312.299	281.43
312.513	185.17
312.727	-85.16
312.941	-25.77
313.154	119.64
313.368	15.19
313.582	-11.43
313.796	164.69
314.009	146.26
314.223	144.21
314.437	111.44
314.651	226.13
314.864	60.24
315.078	-105.64
315.292	-134.31
315.505	115.54
315.719	105.3
315.933	17.24
316.146	-72.87
316.36	41.81
316.573	205.65
316.787	144.21
317.001	70.48
317.214	-11.43
317.428	123.73
317.641	-97.45
317.855	-36.01
318.068	244.56
318.282	168.79
318.495	105.3
318.709	-83.11
318.922	127.83
319.136	256.85
319.349	-27.82
319.563	-68.78
319.776	222.03
319.99	-124.07
320.203	35.67
320.417	21.33
320.63	129.88
320.843	254.8
321.057	68.44
321.27	15.19
321.483	219.99
321.697	209.75
321.91	-19.63
322.124	-15.53
322.337	138.07
322.55	23.38
322.763	-62.63
322.977	-81.07
323.19	43.86
323.403	109.4
323.617	37.72
323.83	154.45
324.043	45.91
324.256	138.07
324.469	-201.9
324.683	136.02
324.896	164.69
325.109	72.53
325.322	-183.46
325.535	25.43
325.748	349.01
325.962	125.78
326.175	21.33
326.388	2.9
326.601	152.4
326.814	41.81
327.027	107.35
327.24	99.16
327.453	-36.01
327.666	232.27
327.879	123.73
328.092	64.34
328.305	185.17
328.518	109.4
328.731	-29.87
328.944	-101.55
329.157	164.69
329.37	70.48
329.583	93.01
329.796	170.83
330.009	-142.5
330.222	269.14
330.435	82.77
330.648	97.11
330.861	219.99
331.073	84.82
331.286	66.39
331.499	-33.96
331.712	41.81
331.925	136.02
332.138	-44.2
332.35	-17.58
332.563	168.79
332.776	293.71
332.989	-93.35
333.202	-89.26
333.414	154.45
333.627	103.25
333.84	-107.69
334.053	95.06
334.265	-23.72
334.478	54.1
334.691	-29.87
334.903	54.1
335.116	148.31
335.329	78.68
335.541	-40.11
335.754	226.13
335.966	88.92
336.179	168.79
336.392	-13.48
336.604	54.1
336.817	136.02
337.029	205.65
337.242	-33.96
337.454	4.95
337.667	133.97
337.88	219.99
338.092	111.44
338.305	88.92
338.517	86.87
338.729	228.18
338.942	70.48
339.154	-60.59
339.367	60.24
339.579	293.71
339.792	-105.64
340.004	66.39
340.217	64.34
340.429	230.23
340.641	-29.87
340.854	-140.46
341.066	189.27
341.278	308.05
341.491	121.68
341.703	19.29
341.915	74.58
342.128	267.09
342.34	60.24
342.552	-52.39
342.764	191.31
342.977	201.55
343.189	95.06
343.401	37.72
343.613	7
343.826	140.12
344.038	-48.3
344.25	43.86
344.462	105.3
344.674	211.79
344.886	-105.64
345.099	-9.39
345.311	279.38
345.523	117.59
345.735	-165.03
345.947	21.33
346.159	187.22
346.371	138.07
346.583	33.62
346.795	45.91
347.007	99.16
347.219	246.61
347.431	41.81
347.643	111.44
347.855	84.82
348.067	295.76
348.279	-99.5
348.491	-52.39
348.703	299.86
348.915	117.59
349.127	-62.63
349.339	17.24
349.551	109.4
349.763	211.79
349.975	35.67
350.187	25.43
350.399	392.02
350.61	174.93
350.822	-27.82
351.034	-64.68
351.246	322.38
351.458	211.79
351.669	80.72
351.881	11.09
352.093	320.34
352.305	219.99
352.517	-58.54
352.728	117.59
352.94	133.97
353.152	267.09
353.363	-74.92
353.575	9.05
353.787	342.86
353.999	267.09
354.21	136.02
354.422	-142.5
354.633	127.83
354.845	166.74
355.057	4.95
355.268	4.95
355.48	234.32
355.692	-7.34
355.903	4.95
356.115	-93.35
356.326	-50.35
356.538	324.43
356.749	-64.68
356.961	97.11
357.172	138.07
357.384	72.53
357.595	217.94
357.807	29.52
358.018	72.53
358.23	142.16
358.441	-85.16
358.653	9.05
358.864	138.07
359.075	-13.48
359.287	76.63
359.498	-9.39
359.709	189.27
359.921	191.31
360.132	70.48
360.344	-79.02
360.555	78.68
360.766	205.65
360.977	-7.34
361.189	9.05
361.4	62.29
361.611	306
361.823	78.68
362.034	27.48
362.245	-42.15
362.456	54.1
362.667	195.41
362.879	-224.42
363.09	252.75
363.301	168.79
363.512	13.14
363.723	-79.02
363.935	101.2
364.146	248.66
364.357	11.09
364.568	-15.53
364.779	54.1
364.99	234.32
365.201	-1.19
365.412	74.58
365.623	17.24
365.834	199.51
366.045	70.48
366.256	29.52
366.467	256.85
366.678	101.2
366.889	60.24
367.1	-40.11
367.311	244.56
367.522	88.92
367.733	56.15
367.944	4.95
368.155	148.31
368.366	164.69
368.577	152.4
368.788	99.16
368.999	82.77
369.209	160.59
369.42	2.9
369.631	402.26
369.842	230.23
370.053	152.4
370.264	-7.34
370.474	-87.21
370.685	277.33
370.896	47.96
371.107	97.11
371.317	-3.24
371.528	148.31
371.739	203.6
371.95	9.05
372.16	72.53
372.371	-36.01
372.582	183.12
372.792	-21.67
373.003	50
373.214	97.11
373.424	222.03
373.635	-52.39
373.846	129.88
374.056	160.59
374.267	136.02
374.477	90.96
374.688	-23.72
374.898	277.33
375.109	142.16
375.319	50
375.53	41.81
375.74	277.33
375.951	50
376.161	113.49
376.372	121.68
376.582	86.87
376.793	189.27
377.003	-117.93
377.214	0.85
377.424	244.56
377.635	160.59
377.845	9.05
378.055	41.81
378.266	68.44
378.476	199.51
378.686	78.68
378.897	-42.15
379.107	283.47
379.317	174.93
379.528	-68.78
379.738	62.29
379.948	-111.78
380.158	279.38
380.369	70.48
380.579	29.52
380.789	90.96
380.999	230.23
381.21	80.72
381.42	193.36
381.63	95.06
381.84	275.28
382.05	99.16
382.261	60.24
382.471	195.41
382.681	17.24
382.891	45.91
383.101	47.96
383.311	-19.63
383.521	47.96
383.731	-15.53
383.941	166.74
384.151	140.12
384.361	56.15
384.571	-72.87
384.781	-52.39
384.991	187.22
385.201	340.82
385.411	166.74
385.621	-21.67
385.831	254.8
386.041	154.45
386.251	-7.34
386.461	62.29
386.671	136.02
386.881	191.31
387.091	25.43
387.301	176.98
387.511	105.3
387.72	129.88
387.93	84.82
388.14	-89.26
388.35	183.12
388.56	226.13
388.769	62.29
388.979	-68.78
389.189	29.52
389.399	70.48
389.609	15.19
389.818	15.19
390.028	228.18
390.238	146.26
390.447	-64.68
390.657	86.87
390.867	199.51
391.076	-99.5
391.286	-44.2
391.496	-68.78
391.705	209.75
391.915	316.24
392.125	-25.77
392.334	-17.58
392.544	383.82
392.753	95.06
392.963	-27.82
393.172	21.33
393.382	144.21
393.591	430.93
393.801	-3.24
394.01	-3.24
394.22	162.64
394.429	160.59
394.639	-17.58
394.848	82.77
395.058	211.79
395.267	168.79
395.477	62.29
395.686	-15.53
395.895	486.22
396.105	291.66
396.314	21.33
396.524	78.68
396.733	45.91
396.942	359.25
397.152	-15.53
397.361	142.16
397.57	140.12
397.78	144.21
397.989	123.73
398.198	238.42
398.407	146.26
398.617	103.25
398.826	0.85
399.035	-15.53
399.244	170.83
399.453	174.93
399.663	-76.97
399.872	-128.17
400.081	-7.34
400.29	289.62
400.499	-93.35
400.708	156.5
400.917	170.83
401.127	109.4
401.336	-27.82
401.545	260.95
401.754	254.8
401.963	207.7
402.172	-21.67
402.381	-42.15
402.59	252.75
402.799	174.93
403.008	148.31
403.217	45.91
403.426	193.36
403.635	-132.26
403.844	-140.46
404.053	4.95
404.262	146.26
404.471	271.19
404.68	68.44
404.888	140.12
405.097	70.48
405.306	152.4
405.515	125.78
405.724	-38.06
405.933	287.57
406.142	228.18
406.35	19.29
406.559	50
406.768	191.31
406.977	400.21
407.185	66.39
407.394	107.35
407.603	11.09
407.812	129.88
408.02	179.03
408.229	37.72
408.438	232.27
408.646	-62.63
408.855	-81.07
409.064	-76.97
409.272	111.44
409.481	185.17
409.69	11.09
409.898	-95.4
410.107	275.28
410.315	351.06
410.524	25.43
410.733	95.06
410.941	277.33
411.15	228.18
411.358	58.2
411.567	179.03
411.775	222.03
411.984	99.16
412.192	76.63
412.401	23.38
412.609	353.1
412.818	209.75
413.026	80.72
413.234	-23.72
413.443	207.7
413.651	84.82
413.86	-68.78
414.068	236.37
414.276	379.73
414.485	74.58
414.693	76.63
414.901	187.22
415.11	291.66
415.318	123.73
415.526	2.9
415.734	99.16
415.943	176.98
416.151	328.53
416.359	-66.73
416.567	66.39
416.776	232.27
416.984	185.17
417.192	113.49
417.4	-29.87
417.608	86.87
417.817	-25.77
418.025	172.88
418.233	95.06
418.441	15.19
418.649	31.57
418.857	7
419.065	154.45
419.273	152.4
419.481	127.83
419.689	13.14
419.897	-7.34
420.105	-29.87
420.313	203.6
420.521	76.63
420.729	144.21
420.937	136.02
421.145	29.52
421.353	2.9
421.561	76.63
421.769	199.51
421.977	27.48
422.185	68.44
422.393	60.24
422.601	199.51
422.809	332.62
423.017	43.86
423.224	-36.01
423.432	252.75
423.64	160.59
423.848	43.86
424.056	-76.97
424.263	328.53
424.471	152.4
424.679	142.16
424.887	-97.45
425.094	252.75
425.302	213.84
425.51	-107.69
425.718	84.82
425.925	154.45
426.133	93.01
426.341	160.59
426.548	-11.43
426.756	88.92
426.964	301.9
427.171	-46.25
427.379	45.91
427.586	246.61
427.794	197.46
428.001	154.45
428.209	95.06
428.417	283.47
428.624	211.79
428.832	95.06
429.039	152.4
429.247	158.55
429.454	129.88
429.662	90.96
429.869	52.05
430.076	336.72
430.284	185.17
430.491	109.4
430.699	78.68
430.906	324.43
431.114	201.55
431.321	129.88
431.528	215.89
431.736	181.07
431.943	203.6
432.15	78.68
432.358	-9.39
432.565	473.93
432.772	-113.83
432.979	154.45
433.187	64.34
433.394	320.34
433.601	127.83
433.808	29.52
434.016	129.88
434.223	209.75
434.43	213.84
434.637	93.01
434.844	181.07
435.052	271.19
435.259	248.66
435.466	144.21
435.673	76.63
435.88	308.05
436.087	344.91
436.294	310.1
436.501	195.41
436.708	203.6
436.915	256.85
437.122	209.75
437.329	-38.06
437.537	234.32
437.743	252.75
437.95	242.51
438.157	148.31
438.364	199.51
438.571	191.31
438.778	140.12
438.985	234.32
439.192	373.58
439.399	293.71
439.606	152.4
439.813	211.79
440.02	437.07
440.227	600.91
440.433	164.69
440.64	121.68
440.847	322.38
441.054	191.31
441.261	240.47
441.467	209.75
441.674	136.02
441.881	426.83
442.088	121.68
442.294	224.08
442.501	394.06
442.708	494.41
442.914	211.79
443.121	250.71
443.328	394.06
443.534	525.13
443.741	203.6
443.948	213.84
444.154	453.45
444.361	670.54
444.568	213.84
444.774	410.45
444.981	222.03
445.187	645.96
445.394	258.9
445.6	320.34
445.807	490.32
446.013	500.56
446.22	271.19
446.426	416.59
446.633	551.76
446.839	746.31
447.046	287.57
447.252	443.21
447.459	488.27
447.665	443.21
447.871	453.45
448.078	768.84
448.284	766.79
448.491	799.56
448.697	615.24
448.903	664.4
449.11	768.84
449.316	699.21
449.522	801.61
449.728	719.69
449.935	906.06
450.141	832.33
450.347	848.71
450.553	709.45
450.76	961.35
450.966	1061.7
451.172	871.24
451.378	760.65
451.584	1063.75
451.791	1329.99
451.997	1022.79
452.203	1020.74
452.409	1364.8
452.615	1250.11
452.821	1022.79
453.027	1104.71
453.233	1454.91
453.44	1293.12
453.646	1129.28
453.852	1282.88
454.058	1209.15
454.264	1395.52
454.47	1366.85
454.676	1227.59
454.882	1647.42
455.088	1536.83
455.294	1401.66
455.5	1467.2
455.705	1663.8
455.911	1643.32
456.117	1463.1
456.323	1395.52
456.529	1614.65
456.735	1700.67
456.941	1483.58
457.147	1579.84
457.352	1626.94
457.558	1635.13
457.764	1594.17
457.97	1614.65
458.176	1608.51
458.381	1798.97
458.587	1848.12
458.793	1549.12
458.999	1473.34
459.204	1727.29
459.41	1553.21
459.616	1624.89
459.821	1749.82
460.027	1567.55
460.233	1700.67
460.438	1547.07
460.644	1626.94
460.85	1715
461.055	1651.52
461.261	1565.5
461.466	1381.18
461.672	1493.82
461.878	1334.08
462.083	1553.21
462.289	1360.7
