Data from USB4F104151__24__12-16-15-395.txt Node

Date: Wed Feb 19 12:16:15 EST 2025
User: louis
Spectrometer: USB4F10415
Trigger mode: 4
Integration Time (sec): 2.250200E-1
Scans to average: 1
Electric dark correction enabled: true
Nonlinearity correction enabled: false
Boxcar width: 0
XAxis mode: Wavelengths
Number of Pixels in Spectrum: 3648
>>>>>Begin Spectral Data<<<<<
178.204	-824.48
178.424	-824.48
178.644	-824.48
178.864	-808.09
179.084	-814.24
179.304	125.78
179.524	123.73
179.744	-44.2
179.964	-140.46
180.184	185.17
180.404	244.56
180.624	-189.61
180.844	-171.18
181.064	-19.63
181.283	250.71
181.503	-210.09
181.723	-154.79
181.943	-52.39
182.163	389.97
182.383	-193.7
182.602	-162.98
182.822	408.4
183.042	293.71
183.262	-234.66
183.482	-148.65
183.701	244.56
183.921	150.36
184.141	-173.22
184.361	-189.61
184.58	234.32
184.8	199.51
185.02	-175.27
185.239	-95.4
185.459	365.39
185.679	404.3
185.898	-222.38
186.118	-257.19
186.338	248.66
186.557	330.58
186.777	-318.63
186.997	-251.05
187.216	125.78
187.436	564.04
187.655	-234.66
187.875	-29.87
188.095	226.13
188.314	441.17
188.534	-58.54
188.753	-283.81
188.973	367.44
189.192	463.69
189.412	-187.56
189.631	-177.32
189.851	324.43
190.07	406.35
190.29	-279.72
190.509	-128.17
190.729	193.36
190.948	373.58
191.168	-95.4
191.387	-173.22
191.607	131.92
191.826	287.57
192.045	-122.02
192.265	-203.94
192.484	328.53
192.704	193.36
192.923	-171.18
193.142	-19.63
193.362	318.29
193.581	299.86
193.8	-117.93
194.02	-169.13
194.239	238.42
194.458	291.66
194.678	-95.4
194.897	-205.99
195.116	258.9
195.335	236.37
195.555	-183.46
195.774	-234.66
195.993	369.49
196.212	215.89
196.432	-144.55
196.651	-261.29
196.87	201.55
197.089	598.86
197.308	-179.37
197.528	-42.15
197.747	27.48
197.966	297.81
198.185	-21.67
198.404	-271.53
198.623	330.58
198.842	295.76
199.062	-85.16
199.281	-64.68
199.5	224.08
199.719	297.81
199.938	-228.52
200.157	-210.09
200.376	381.78
200.595	359.25
200.814	-99.5
201.033	-259.24
201.252	543.57
201.471	279.38
201.69	-189.61
201.909	-115.88
202.128	277.33
202.347	301.9
202.566	-134.31
202.785	-398.5
203.004	156.5
203.223	455.5
203.442	-259.24
203.661	-349.35
203.879	291.66
204.098	404.3
204.317	-259.24
204.536	-21.67
204.755	308.05
204.974	330.58
205.193	-287.91
205.411	-130.22
205.63	400.21
205.849	383.82
206.068	-216.23
206.287	-328.87
206.505	422.73
206.724	162.64
206.943	-261.29
207.162	-203.94
207.381	189.27
207.599	179.03
207.818	-130.22
208.037	-242.85
208.255	258.9
208.474	256.85
208.693	-171.18
208.911	-160.94
209.13	303.95
209.349	312.14
209.567	-111.78
209.786	-201.9
210.005	396.11
210.223	215.89
210.442	-273.57
210.661	-210.09
210.879	254.8
211.098	176.98
211.316	-142.5
211.535	-210.09
211.753	236.37
211.972	262.99
212.191	-189.61
212.409	-40.11
212.628	326.48
212.846	162.64
213.065	-251.05
213.283	-87.21
213.502	260.95
213.72	211.79
213.938	-255.14
214.157	-195.75
214.375	295.76
214.594	174.93
214.812	-119.98
215.031	-119.98
215.249	248.66
215.467	215.89
215.686	-42.15
215.904	-146.6
216.122	219.99
216.341	301.9
216.559	-29.87
216.778	-11.43
216.996	469.84
217.214	248.66
217.432	-171.18
217.651	-296.1
217.869	246.61
218.087	142.16
218.306	-257.19
218.524	-195.75
218.742	269.14
218.96	408.4
219.179	-162.98
219.397	-156.84
219.615	502.61
219.833	316.24
220.051	-218.28
220.27	-124.07
220.488	359.25
220.706	271.19
220.924	-246.95
221.142	-218.28
221.36	242.51
221.578	224.08
221.796	-210.09
222.015	-85.16
222.233	256.85
222.451	482.13
222.669	-148.65
222.887	-93.35
223.105	99.16
223.323	136.02
223.541	-128.17
223.759	-111.78
223.977	295.76
224.195	412.5
224.413	-171.18
224.631	-212.14
224.849	144.21
225.067	504.65
225.285	-64.68
225.503	-148.65
225.721	-44.2
225.939	213.84
226.157	-144.55
226.375	66.39
226.592	115.54
226.81	136.02
227.028	-1.19
227.246	-175.27
227.464	179.03
227.682	230.23
227.9	-144.55
228.117	-99.5
228.335	262.99
228.553	240.47
228.771	-238.76
228.989	-205.99
229.206	369.49
229.424	142.16
229.642	-205.99
229.86	-83.11
230.077	381.78
230.295	211.79
230.513	-74.92
230.731	-267.43
230.948	420.69
231.166	346.96
231.384	-136.36
231.601	-263.33
231.819	330.58
232.037	105.3
232.254	-81.07
232.472	-169.13
232.689	105.3
232.907	373.58
233.125	-242.85
233.342	-275.62
233.56	109.4
233.777	78.68
233.995	-230.57
234.213	-128.17
234.43	324.43
234.648	136.02
234.865	-152.74
235.083	-76.97
235.3	250.71
235.518	373.58
235.735	-62.63
235.953	-107.69
236.17	351.06
236.388	119.64
236.605	60.24
236.822	-169.13
237.04	267.09
237.257	293.71
237.475	-144.55
237.692	-113.83
237.909	328.53
238.127	109.4
238.344	-19.63
238.562	-144.55
238.779	68.44
238.996	13.14
239.214	-132.26
239.431	-126.12
239.648	179.03
239.865	322.38
240.083	-117.93
240.3	-189.61
240.517	222.03
240.735	252.75
240.952	45.91
241.169	-175.27
241.386	301.9
241.603	207.7
241.821	-101.55
242.038	-138.41
242.255	402.26
242.472	58.2
242.689	-58.54
242.907	-148.65
243.124	248.66
243.341	209.75
243.558	-81.07
243.775	-222.38
243.992	13.14
244.209	256.85
244.426	-29.87
244.643	-103.59
244.86	176.98
245.078	328.53
245.295	-160.94
245.512	-193.7
245.729	119.64
245.946	295.76
246.163	-162.98
246.38	-97.45
246.597	99.16
246.814	162.64
247.031	-128.17
247.248	-146.6
247.464	289.62
247.681	193.36
247.898	-126.12
248.115	-42.15
248.332	97.11
248.549	357.2
248.766	4.95
248.983	-144.55
249.2	334.67
249.417	281.43
249.633	-99.5
249.85	47.96
250.067	193.36
250.284	174.93
250.501	-105.64
250.717	-122.02
250.934	11.09
251.151	152.4
251.368	-54.44
251.585	-158.89
251.801	250.71
252.018	-15.53
252.235	-15.53
252.451	-185.51
252.668	176.98
252.885	269.14
253.102	-156.84
253.318	-208.04
253.535	144.21
253.752	103.25
253.968	-138.41
254.185	-271.53
254.401	199.51
254.618	310.1
254.835	-60.59
255.051	-101.55
255.268	338.77
255.484	152.4
255.701	-40.11
255.917	-177.32
256.134	109.4
256.351	205.65
256.567	-199.85
256.784	19.29
257	2.9
257.217	283.47
257.433	107.35
257.65	-76.97
257.866	447.31
258.082	-1.19
258.299	-134.31
258.515	-99.5
258.732	176.98
258.948	99.16
259.165	-103.59
259.381	-271.53
259.597	258.9
259.814	256.85
260.03	-165.03
260.246	-148.65
260.463	328.53
260.679	379.73
260.895	7
261.112	-107.69
261.328	222.03
261.544	39.76
261.761	-111.78
261.977	-144.55
262.193	62.29
262.409	316.24
262.626	-42.15
262.842	-156.84
263.058	113.49
263.274	357.2
263.49	7
263.707	-183.46
263.923	258.9
264.139	70.48
264.355	-54.44
264.571	-40.11
264.787	310.1
265.004	338.77
265.22	-21.67
265.436	-136.36
265.652	207.7
265.868	299.86
266.084	-210.09
266.3	-117.93
266.516	86.87
266.732	234.32
266.948	-113.83
267.164	-205.99
267.38	299.86
267.596	242.51
267.812	4.95
268.028	-95.4
268.244	144.21
268.46	238.42
268.676	-144.55
268.892	-11.43
269.108	146.26
269.324	35.67
269.54	-21.67
269.756	-79.02
269.972	27.48
270.188	217.94
270.403	-99.5
270.619	-187.56
270.835	158.55
271.051	209.75
271.267	-113.83
271.483	-91.31
271.698	340.82
271.914	262.99
272.13	-56.49
272.346	-68.78
272.562	234.32
272.777	328.53
272.993	-150.7
273.209	-72.87
273.425	242.51
273.64	52.05
273.856	11.09
274.072	-257.19
274.287	43.86
274.503	211.79
274.719	99.16
274.934	-97.45
275.15	43.86
275.366	207.7
275.581	-130.22
275.797	-91.31
276.012	260.95
276.228	168.79
276.444	-97.45
276.659	152.4
276.875	-23.72
277.09	54.1
277.306	37.72
277.521	29.52
277.737	146.26
277.952	238.42
278.168	-81.07
278.383	-46.25
278.599	230.23
278.814	265.04
279.03	-103.59
279.245	-48.3
279.461	162.64
279.676	232.27
279.892	-83.11
280.107	-119.98
280.322	99.16
280.538	197.46
280.753	-132.26
280.969	-107.69
281.184	199.51
281.399	379.73
281.615	7
281.83	84.82
282.045	-15.53
282.26	64.34
282.476	-68.78
282.691	37.72
282.906	248.66
283.122	125.78
283.337	-109.74
283.552	7
283.767	72.53
283.983	187.22
284.198	-74.92
284.413	-134.31
284.628	-21.67
284.843	142.16
285.058	-54.44
285.274	-191.66
285.489	56.15
285.704	174.93
285.919	2.9
286.134	-74.92
286.349	164.69
286.564	80.72
286.779	41.81
286.995	-64.68
287.21	-52.39
287.425	209.75
287.64	-111.78
287.855	107.35
288.07	21.33
288.285	207.7
288.5	78.68
288.715	-52.39
288.93	170.83
289.145	50
289.36	-136.36
289.575	21.33
289.79	396.11
290.004	27.48
290.219	2.9
290.434	-58.54
290.649	111.44
290.864	154.45
291.079	-15.53
291.294	29.52
291.509	228.18
291.724	193.36
291.938	-52.39
292.153	-17.58
292.368	111.44
292.583	258.9
292.798	-11.43
293.012	37.72
293.227	240.47
293.442	107.35
293.657	64.34
293.871	-50.35
294.086	250.71
294.301	355.15
294.516	72.53
294.73	52.05
294.945	47.96
295.16	181.07
295.374	70.48
295.589	76.63
295.804	66.39
296.018	205.65
296.233	19.29
296.447	76.63
296.662	95.06
296.877	293.71
297.091	60.24
297.306	-11.43
297.52	62.29
297.735	244.56
297.949	86.87
298.164	-185.51
298.378	105.3
298.593	2.9
298.807	-64.68
299.022	78.68
299.236	320.34
299.451	70.48
299.665	-25.77
299.88	37.72
300.094	244.56
300.309	107.35
300.523	-36.01
300.737	-42.15
300.952	203.6
301.166	244.56
301.381	-50.35
301.595	-158.89
301.809	136.02
302.024	107.35
302.238	-72.87
302.452	68.44
302.667	127.83
302.881	338.77
303.095	21.33
303.309	23.38
303.524	115.54
303.738	60.24
303.952	-29.87
304.166	52.05
304.381	-107.69
304.595	166.74
304.809	-70.83
305.023	-29.87
305.237	33.62
305.452	125.78
305.666	4.95
305.88	23.38
306.094	258.9
306.308	248.66
306.522	-42.15
306.736	109.4
306.95	303.95
307.164	150.36
307.379	-36.01
307.593	144.21
307.807	279.38
308.021	250.71
308.235	129.88
308.449	-146.6
308.663	166.74
308.877	521.04
309.091	13.14
309.305	29.52
309.519	-15.53
309.733	219.99
309.947	-124.07
310.161	-68.78
310.374	166.74
310.588	291.66
310.802	-126.12
311.016	-126.12
311.23	244.56
311.444	45.91
311.658	11.09
311.872	297.81
312.085	262.99
312.299	359.25
312.513	179.03
312.727	-58.54
312.941	105.3
313.154	144.21
313.368	33.62
313.582	-140.46
313.796	236.37
314.009	11.09
314.223	164.69
314.437	56.15
314.651	199.51
314.864	136.02
315.078	-33.96
315.292	-107.69
315.505	62.29
315.719	197.46
315.933	37.72
316.146	-76.97
316.36	76.63
316.573	166.74
316.787	170.83
317.001	-7.34
317.214	-17.58
317.428	174.93
317.641	-130.22
317.855	-13.48
318.068	215.89
318.282	121.68
318.495	133.97
318.709	-11.43
318.922	197.46
319.136	283.47
319.349	-3.24
319.563	-58.54
319.776	213.84
319.99	-89.26
320.203	4.95
320.417	-21.67
320.63	84.82
320.843	217.94
321.057	76.63
321.27	-9.39
321.483	332.62
321.697	199.51
321.91	-3.24
322.124	-5.29
322.337	156.5
322.55	-1.19
322.763	7
322.977	-74.92
323.19	60.24
323.403	127.83
323.617	-3.24
323.83	189.27
324.043	133.97
324.256	101.2
324.469	-199.85
324.683	80.72
324.896	160.59
325.109	127.83
325.322	-203.94
325.535	62.29
325.748	283.47
325.962	144.21
326.175	-13.48
326.388	-27.82
326.601	187.22
326.814	74.58
327.027	19.29
327.24	56.15
327.453	-93.35
327.666	236.37
327.879	117.59
328.092	15.19
328.305	285.52
328.518	88.92
328.731	-68.78
328.944	-17.58
329.157	187.22
329.37	21.33
329.583	176.98
329.796	86.87
330.009	-9.39
330.222	287.57
330.435	107.35
330.648	52.05
330.861	197.46
331.073	142.16
331.286	39.76
331.499	-27.82
331.712	127.83
331.925	70.48
332.138	52.05
332.35	-36.01
332.563	150.36
332.776	312.14
332.989	-68.78
333.202	-185.51
333.414	144.21
333.627	105.3
333.84	-50.35
334.053	70.48
334.265	0.85
334.478	-3.24
334.691	-23.72
334.903	84.82
335.116	125.78
335.329	119.64
335.541	60.24
335.754	262.99
335.966	158.55
336.179	203.6
336.392	-68.78
336.604	50
336.817	117.59
337.029	242.51
337.242	-68.78
337.454	21.33
337.667	164.69
337.88	306
338.092	111.44
338.305	43.86
338.517	99.16
338.729	119.64
338.942	74.58
339.154	-111.78
339.367	21.33
339.579	207.7
339.792	-144.55
340.004	-27.82
340.217	82.77
340.429	127.83
340.641	-103.59
340.854	-95.4
341.066	191.31
341.278	271.19
341.491	119.64
341.703	31.57
341.915	70.48
342.128	207.7
342.34	76.63
342.552	-66.73
342.764	131.92
342.977	70.48
343.189	70.48
343.401	68.44
343.613	-50.35
343.826	90.96
344.038	-11.43
344.25	133.97
344.462	74.58
344.674	146.26
344.886	-101.55
345.099	-9.39
345.311	203.6
345.523	133.97
345.735	-152.74
345.947	-1.19
346.159	101.2
346.371	226.13
346.583	-5.29
346.795	103.25
347.007	109.4
347.219	150.36
347.431	31.57
347.643	158.55
347.855	60.24
348.067	275.28
348.279	-38.06
348.491	4.95
348.703	367.44
348.915	127.83
349.127	-72.87
349.339	86.87
349.551	113.49
349.763	299.86
349.975	19.29
350.187	144.21
350.399	418.64
350.61	217.94
350.822	27.48
351.034	11.09
351.246	248.66
351.458	160.59
351.669	78.68
351.881	17.24
352.093	373.58
352.305	213.84
352.517	-76.97
352.728	60.24
352.94	185.17
353.152	209.75
353.363	-91.31
353.575	47.96
353.787	367.44
353.999	230.23
354.21	158.55
354.422	-113.83
354.633	86.87
354.845	179.03
355.057	0.85
355.268	-3.24
355.48	181.07
355.692	-93.35
355.903	-9.39
356.115	-74.92
356.326	0.85
356.538	414.54
356.749	7
356.961	127.83
357.172	138.07
357.384	56.15
357.595	238.42
357.807	-5.29
358.018	150.36
358.23	140.12
358.441	-103.59
358.653	2.9
358.864	144.21
359.075	-27.82
359.287	13.14
359.498	-42.15
359.709	295.76
359.921	148.31
360.132	17.24
360.344	-101.55
360.555	31.57
360.766	179.03
360.977	-70.83
361.189	45.91
361.4	154.45
361.611	238.42
361.823	136.02
362.034	2.9
362.245	-85.16
362.456	152.4
362.667	109.4
362.879	-95.4
363.09	289.62
363.301	105.3
363.512	-52.39
363.723	-79.02
363.935	111.44
364.146	224.08
364.357	0.85
364.568	-33.96
364.779	9.05
364.99	256.85
365.201	21.33
365.412	144.21
365.623	-99.5
365.834	170.83
366.045	78.68
366.256	-3.24
366.467	275.28
366.678	99.16
366.889	-11.43
367.1	19.29
367.311	306
367.522	88.92
367.733	142.16
367.944	19.29
368.155	152.4
368.366	287.57
368.577	35.67
368.788	88.92
368.999	15.19
369.209	99.16
369.42	93.01
369.631	303.95
369.842	179.03
370.053	101.2
370.264	15.19
370.474	-117.93
370.685	217.94
370.896	109.4
371.107	109.4
371.317	-11.43
371.528	68.44
371.739	355.15
371.95	-3.24
372.16	19.29
372.371	-13.48
372.582	86.87
372.792	-68.78
373.003	39.76
373.214	291.66
373.424	267.09
373.635	-25.77
373.846	88.92
374.056	142.16
374.267	207.7
374.477	0.85
374.688	-23.72
374.898	246.61
375.109	160.59
375.319	43.86
375.53	27.48
375.74	191.31
375.951	11.09
376.161	23.38
376.372	62.29
376.582	84.82
376.793	234.32
377.003	-91.31
377.214	-29.87
377.424	248.66
377.635	242.51
377.845	-36.01
378.055	121.68
378.266	-27.82
378.476	136.02
378.686	86.87
378.897	7
379.107	240.47
379.317	248.66
379.528	-158.89
379.738	58.2
379.948	86.87
380.158	273.23
380.369	41.81
380.579	68.44
380.789	121.68
380.999	254.8
381.21	97.11
381.42	191.31
381.63	109.4
381.84	238.42
382.05	76.63
382.261	64.34
382.471	285.52
382.681	39.76
382.891	74.58
383.101	58.2
383.311	64.34
383.521	101.2
383.731	-93.35
383.941	150.36
384.151	187.22
384.361	43.86
384.571	-33.96
384.781	43.86
384.991	244.56
385.201	400.21
385.411	201.55
385.621	27.48
385.831	150.36
386.041	166.74
386.251	-70.83
386.461	88.92
386.671	162.64
386.881	199.51
387.091	-89.26
387.301	72.53
387.511	150.36
387.72	160.59
387.93	62.29
388.14	-46.25
388.35	209.75
388.56	314.19
388.769	58.2
388.979	-19.63
389.189	95.06
389.399	215.89
389.609	9.05
389.818	88.92
390.028	226.13
390.238	113.49
390.447	-38.06
390.657	103.25
390.867	66.39
391.076	-19.63
391.286	-60.59
391.496	-21.67
391.705	78.68
391.915	381.78
392.125	2.9
392.334	84.82
392.544	320.34
392.753	70.48
392.963	19.29
393.172	17.24
393.382	164.69
393.591	367.44
393.801	74.58
394.01	29.52
394.22	256.85
394.429	174.93
394.639	43.86
394.848	88.92
395.058	318.29
395.267	66.39
395.477	99.16
395.686	113.49
395.895	424.78
396.105	260.95
396.314	23.38
396.524	25.43
396.733	62.29
396.942	222.03
397.152	-21.67
397.361	133.97
397.57	185.17
397.78	156.5
397.989	127.83
398.198	203.6
398.407	191.31
398.617	86.87
398.826	52.05
399.035	-93.35
399.244	232.27
399.453	219.99
399.663	11.09
399.872	-111.78
400.081	45.91
400.29	306
400.499	-17.58
400.708	80.72
400.917	140.12
401.127	226.13
401.336	4.95
401.545	240.47
401.754	248.66
401.963	244.56
402.172	78.68
402.381	-72.87
402.59	183.12
402.799	189.27
403.008	162.64
403.217	76.63
403.426	244.56
403.635	47.96
403.844	-31.91
404.053	-70.83
404.262	95.06
404.471	234.32
404.68	101.2
404.888	66.39
405.097	17.24
405.306	176.98
405.515	7
405.724	-38.06
405.933	236.37
406.142	224.08
406.35	62.29
406.559	29.52
406.768	29.52
406.977	359.25
407.185	31.57
407.394	179.03
407.603	52.05
407.812	142.16
408.02	68.44
408.229	80.72
408.438	228.18
408.646	-23.72
408.855	4.95
409.064	-17.58
409.272	138.07
409.481	224.08
409.69	-36.01
409.898	-38.06
410.107	78.68
410.315	357.2
410.524	123.73
410.733	107.35
410.941	183.12
411.15	287.57
411.358	90.96
411.567	217.94
411.775	324.43
411.984	148.31
412.192	148.31
412.401	-36.01
412.609	402.26
412.818	396.11
413.026	119.64
413.234	31.57
413.443	213.84
413.651	76.63
413.86	-87.21
414.068	236.37
414.276	439.12
414.485	127.83
414.693	121.68
414.901	232.27
415.11	230.23
415.318	162.64
415.526	39.76
415.734	113.49
415.943	232.27
416.151	267.09
416.359	41.81
416.567	115.54
416.776	349.01
416.984	277.33
417.192	76.63
417.4	19.29
417.608	93.01
417.817	58.2
418.025	154.45
418.233	54.1
418.441	56.15
418.649	-7.34
418.857	109.4
419.065	82.77
419.273	90.96
419.481	234.32
419.689	47.96
419.897	17.24
420.105	95.06
420.313	240.47
420.521	123.73
420.729	144.21
420.937	115.54
421.145	23.38
421.353	103.25
421.561	195.41
421.769	228.18
421.977	80.72
422.185	86.87
422.393	56.15
422.601	306
422.809	125.78
423.017	11.09
423.224	-21.67
423.432	349.01
423.64	119.64
423.848	19.29
424.056	2.9
424.263	375.63
424.471	168.79
424.679	207.7
424.887	-70.83
425.094	451.41
425.302	170.83
425.51	-44.2
425.718	115.54
425.925	179.03
426.133	117.59
426.341	168.79
426.548	9.05
426.756	133.97
426.964	254.8
427.171	-19.63
427.379	25.43
427.586	267.09
427.794	297.81
428.001	64.34
428.209	136.02
428.417	375.63
428.624	234.32
428.832	88.92
429.039	144.21
429.247	199.51
429.454	205.65
429.662	105.3
429.869	136.02
430.076	277.33
430.284	246.61
430.491	64.34
430.699	121.68
430.906	293.71
431.114	219.99
431.321	168.79
431.528	99.16
431.736	244.56
431.943	277.33
432.15	164.69
432.358	43.86
432.565	383.82
432.772	17.24
432.979	64.34
433.187	62.29
433.394	346.96
433.601	39.76
433.808	183.12
434.016	277.33
434.223	158.55
434.43	185.17
434.637	68.44
434.844	213.84
435.052	232.27
435.259	285.52
435.466	172.88
435.673	72.53
435.88	381.78
436.087	322.38
436.294	303.95
436.501	258.9
436.708	262.99
436.915	326.48
437.122	328.53
437.329	45.91
437.537	215.89
437.743	219.99
437.95	277.33
438.157	185.17
438.364	269.14
438.571	322.38
438.778	176.98
438.985	193.36
439.192	406.35
439.399	308.05
439.606	226.13
439.813	283.47
440.02	471.89
440.227	660.3
440.433	191.31
440.64	146.26
440.847	293.71
441.054	299.86
441.261	240.47
441.467	232.27
441.674	281.43
441.881	459.6
442.088	205.65
442.294	303.95
442.501	475.98
442.708	555.85
442.914	183.12
443.121	281.43
443.328	494.41
443.534	473.93
443.741	306
443.948	168.79
444.154	496.46
444.361	611.15
444.568	373.58
444.774	406.35
444.981	217.94
445.187	609.1
445.394	326.48
445.6	299.86
445.807	453.45
446.013	514.89
446.22	236.37
446.426	412.5
446.633	666.44
446.839	699.21
447.046	252.75
447.252	439.12
447.459	541.52
447.665	496.46
447.871	400.21
448.078	705.35
448.284	639.82
448.491	731.98
448.697	623.44
448.903	754.51
449.11	813.9
449.316	639.82
449.522	695.11
449.728	740.17
449.935	920.39
450.141	797.51
450.347	895.82
450.553	762.7
450.76	895.82
450.966	875.34
451.172	817.99
451.378	856.9
451.584	944.97
451.791	1225.54
451.997	1016.65
452.203	998.21
452.409	1260.35
452.615	1246.02
452.821	947.01
453.027	1061.7
453.233	1467.2
453.44	1139.52
453.646	975.69
453.852	1145.67
454.058	1084.23
454.264	1461.06
454.47	1301.31
454.676	1102.66
454.882	1430.34
455.088	1274.69
455.294	1323.84
455.5	1405.76
455.705	1608.51
455.911	1459.01
456.117	1295.17
456.323	1286.98
456.529	1329.99
456.735	1641.28
456.941	1321.79
457.147	1485.63
457.352	1696.57
457.558	1383.23
457.764	1518.4
457.97	1391.42
458.176	1622.84
458.381	1610.56
458.587	1706.81
458.793	1471.29
458.999	1438.53
459.204	1375.04
459.41	1381.18
459.616	1528.64
459.821	1665.85
460.027	1473.34
460.233	1575.74
460.438	1436.48
460.644	1487.68
460.85	1577.79
461.055	1385.28
461.261	1479.49
461.466	1452.86
461.672	1360.7
461.878	1284.93
462.083	1428.29
462.289	1338.18
