Data from USB4F104151__28__12-19-52-066.txt Node

Date: Wed Feb 19 12:19:52 EST 2025
User: louis
Spectrometer: USB4F10415
Trigger mode: 4
Integration Time (sec): 2.250200E-1
Scans to average: 1
Electric dark correction enabled: true
Nonlinearity correction enabled: false
Boxcar width: 0
XAxis mode: Wavelengths
Number of Pixels in Spectrum: 3648
>>>>>Begin Spectral Data<<<<<
178.204	-729.59
178.424	-729.59
178.644	-729.59
178.864	-739.83
179.084	-856.56
179.304	93.69
179.524	83.45
179.744	-41.47
179.964	-168.45
180.184	243.2
180.404	192
180.624	-254.46
180.844	-86.53
181.064	-6.66
181.283	161.28
181.503	-209.4
181.723	-6.66
181.943	-43.52
182.163	476.66
182.383	-164.35
182.602	-195.07
182.822	460.28
183.042	255.48
183.262	-160.25
183.482	-168.45
183.701	245.24
183.921	259.58
184.141	-88.57
184.361	-92.67
184.58	214.52
184.8	169.47
185.02	-147.97
185.239	-90.62
185.459	282.11
185.679	402.94
185.898	-248.32
186.118	-217.6
186.338	294.4
186.557	343.55
186.777	-281.08
186.997	-238.08
187.216	228.86
187.436	560.63
187.655	-92.67
187.875	-31.23
188.095	169.47
188.314	470.52
188.534	-39.42
188.753	-203.26
188.973	417.27
189.192	493.05
189.412	-217.6
189.631	-100.86
189.851	253.44
190.07	540.15
190.29	-201.21
190.509	-135.68
190.729	298.49
190.948	447.99
191.168	-47.62
191.387	-213.5
191.607	243.2
191.826	339.45
192.045	-92.67
192.265	-125.44
192.484	359.93
192.704	235
192.923	-96.77
193.142	-23.04
193.362	318.97
193.581	357.88
193.8	-107.01
194.02	-111.1
194.239	273.92
194.458	304.64
194.678	-98.81
194.897	-240.12
195.116	239.1
195.335	343.55
195.555	-121.34
195.774	-164.35
195.993	474.62
196.212	155.13
196.432	-27.14
196.651	-229.88
196.87	169.47
197.089	626.17
197.308	-168.45
197.528	-82.43
197.747	44.54
197.966	228.86
198.185	-72.19
198.404	-217.6
198.623	312.83
198.842	378.36
199.062	-104.96
199.281	-4.61
199.5	239.1
199.719	345.59
199.938	-197.12
200.157	-88.57
200.376	413.18
200.595	462.33
200.814	-80.38
201.033	-182.78
201.252	513.53
201.471	237.05
201.69	-168.45
201.909	-143.87
202.128	269.82
202.347	337.4
202.566	-119.29
202.785	-289.28
203.004	183.81
203.223	607.73
203.442	-156.16
203.661	-328.19
203.879	374.27
204.098	427.51
204.317	-156.16
204.536	5.63
204.755	351.74
204.974	292.35
205.193	-346.62
205.411	-82.43
205.63	398.84
205.849	286.2
206.068	-158.21
206.287	-158.21
206.505	458.23
206.724	308.73
206.943	-213.5
207.162	-164.35
207.381	255.48
207.599	257.53
207.818	-131.58
208.037	-264.7
208.255	302.59
208.474	374.27
208.693	-143.87
208.911	-215.55
209.13	321.02
209.349	404.99
209.567	-41.47
209.786	-221.69
210.005	394.75
210.223	185.85
210.442	-246.27
210.661	-203.26
210.879	347.64
211.098	161.28
211.316	-137.73
211.535	-150.01
211.753	329.21
211.972	341.5
212.191	-205.31
212.409	-190.97
212.628	341.5
212.846	169.47
213.065	-207.36
213.283	-119.29
213.502	177.66
213.72	161.28
213.938	-303.61
214.157	-137.73
214.375	341.5
214.594	267.77
214.812	-143.87
215.031	-129.53
215.249	306.68
215.467	251.39
215.686	-100.86
215.904	-133.63
216.122	304.64
216.341	321.02
216.559	-37.38
216.778	-27.14
216.996	398.84
217.214	171.52
217.432	-96.77
217.651	-211.45
217.869	294.4
218.087	185.85
218.306	-233.98
218.524	-215.55
218.742	204.28
218.96	316.92
219.179	-223.74
219.397	-197.12
219.615	488.95
219.833	339.45
220.051	-121.34
220.27	-117.25
220.488	361.98
220.706	267.77
220.924	-231.93
221.142	-115.2
221.36	300.54
221.578	296.44
221.796	-203.26
222.015	-64
222.233	316.92
222.451	374.27
222.669	-55.81
222.887	-59.9
223.105	208.38
223.323	169.47
223.541	-125.44
223.759	-70.14
223.977	259.58
224.195	386.55
224.413	-76.29
224.631	-162.3
224.849	282.11
225.067	488.95
225.285	-131.58
225.503	-154.11
225.721	-68.09
225.939	222.72
226.157	-55.81
226.375	83.45
226.592	196.09
226.81	122.37
227.028	26.11
227.246	-107.01
227.464	245.24
227.682	339.45
227.9	-109.05
228.117	-61.95
228.335	241.15
228.553	228.86
228.771	-238.08
228.989	-125.44
229.206	333.31
229.424	232.96
229.642	-154.11
229.86	-133.63
230.077	484.86
230.295	247.29
230.513	-39.42
230.731	-127.49
230.948	472.57
231.166	421.37
231.384	-123.39
231.601	-174.59
231.819	474.62
232.037	103.93
232.254	-45.57
232.472	-86.53
232.689	146.94
232.907	433.66
233.125	-252.41
233.342	-203.26
233.56	177.66
233.777	151.04
233.995	-201.21
234.213	-61.95
234.43	382.46
234.648	208.38
234.865	-178.69
235.083	-84.48
235.3	210.43
235.518	275.96
235.735	-66.05
235.953	-74.24
236.17	259.58
236.388	153.09
236.605	5.63
236.822	-111.1
237.04	316.92
237.257	337.4
237.475	-125.44
237.692	-102.91
237.909	300.54
238.127	120.32
238.344	22.02
238.562	-104.96
238.779	67.07
238.996	38.4
239.214	-100.86
239.431	-139.77
239.648	189.95
239.865	275.96
240.083	-74.24
240.3	-141.82
240.517	97.79
240.735	202.24
240.952	46.59
241.169	-164.35
241.386	419.32
241.603	218.62
241.821	-147.97
242.038	-100.86
242.255	357.88
242.472	46.59
242.689	-31.23
242.907	-125.44
243.124	247.29
243.341	232.96
243.558	-145.92
243.775	-307.71
243.992	79.36
244.209	241.15
244.426	-8.7
244.643	-156.16
244.86	304.64
245.078	300.54
245.295	-18.94
245.512	-129.53
245.729	103.93
245.946	226.81
246.163	-125.44
246.38	-195.07
246.597	243.2
246.814	261.63
247.031	-64
247.248	-176.64
247.464	331.26
247.681	206.33
247.898	-35.33
248.115	-53.76
248.332	173.57
248.549	429.56
248.766	-23.04
248.983	-74.24
249.2	347.64
249.417	409.08
249.633	-145.92
249.85	-66.05
250.067	212.48
250.284	224.76
250.501	-137.73
250.717	-92.67
250.934	58.88
251.151	204.28
251.368	46.59
251.585	-78.33
251.801	339.45
252.018	24.06
252.235	15.87
252.451	-172.54
252.668	167.42
252.885	308.73
253.102	-37.38
253.318	-117.25
253.535	169.47
253.752	138.75
253.968	-154.11
254.185	-270.84
254.401	265.72
254.618	292.35
254.835	-127.49
255.051	-43.52
255.268	292.35
255.484	294.4
255.701	-76.29
255.917	-84.48
256.134	75.26
256.351	187.9
256.567	-166.4
256.784	-76.29
257	-53.76
257.217	347.64
257.433	75.26
257.65	-57.86
257.866	378.36
258.082	48.64
258.299	-117.25
258.515	-109.05
258.732	99.84
258.948	60.93
259.165	-66.05
259.381	-158.21
259.597	321.02
259.814	198.14
260.03	-129.53
260.246	-133.63
260.463	374.27
260.679	314.88
260.895	-55.81
261.112	-41.47
261.328	218.62
261.544	75.26
261.761	-25.09
261.977	-59.9
262.193	60.93
262.409	278.01
262.626	-49.66
262.842	-98.81
263.058	151.04
263.274	409.08
263.49	-47.62
263.707	-86.53
263.923	314.88
264.139	-27.14
264.355	7.68
264.571	-72.19
264.787	333.31
265.004	327.16
265.22	-102.91
265.436	-180.73
265.652	198.14
265.868	204.28
266.084	-133.63
266.3	-133.63
266.516	-14.85
266.732	259.58
266.948	-96.77
267.164	-166.4
267.38	376.31
267.596	243.2
267.812	42.5
268.028	-143.87
268.244	161.28
268.46	136.7
268.676	-35.33
268.892	-10.75
269.108	83.45
269.324	114.17
269.54	-104.96
269.756	-55.81
269.972	146.94
270.188	259.58
270.403	-90.62
270.619	-39.42
270.835	280.06
271.051	192
271.267	-76.29
271.483	-174.59
271.698	357.88
271.914	284.16
272.13	-98.81
272.346	-68.09
272.562	212.48
272.777	372.22
272.993	-37.38
273.209	-51.71
273.425	341.5
273.64	11.78
273.856	11.78
274.072	-219.64
274.287	97.79
274.503	300.54
274.719	22.02
274.934	-117.25
275.15	-68.09
275.366	169.47
275.581	-61.95
275.797	-49.66
276.012	183.81
276.228	122.37
276.444	7.68
276.659	112.13
276.875	103.93
277.09	75.26
277.306	-10.75
277.521	136.7
277.737	167.42
277.952	214.52
278.168	-33.28
278.383	-25.09
278.599	132.61
278.814	321.02
279.03	-82.43
279.245	85.5
279.461	134.65
279.676	196.09
279.892	-98.81
280.107	-125.44
280.322	169.47
280.538	327.16
280.753	-102.91
280.969	-96.77
281.184	288.25
281.399	335.35
281.615	24.06
281.83	52.74
282.045	26.11
282.26	146.94
282.476	-53.76
282.691	24.06
282.906	128.51
283.122	155.13
283.337	-27.14
283.552	-10.75
283.767	165.37
283.983	189.95
284.198	-16.9
284.413	-51.71
284.628	15.87
284.843	255.48
285.058	-29.18
285.274	-78.33
285.489	97.79
285.704	159.23
285.919	5.63
286.134	-76.29
286.349	181.76
286.564	130.56
286.779	69.12
286.995	93.69
287.21	-16.9
287.425	243.2
287.64	-100.86
287.855	99.84
288.07	-43.52
288.285	232.96
288.5	-0.51
288.715	19.97
288.93	192
289.145	177.66
289.36	15.87
289.575	32.26
289.79	321.02
290.004	110.08
290.219	108.03
290.434	-16.9
290.649	118.27
290.864	159.23
291.079	-64
291.294	13.82
291.509	232.96
291.724	99.84
291.938	-29.18
292.153	-37.38
292.368	228.86
292.583	300.54
292.798	87.55
293.012	26.11
293.227	237.05
293.442	108.03
293.657	114.17
293.871	101.89
294.086	235
294.301	302.59
294.516	9.73
294.73	71.17
294.945	30.21
295.16	128.51
295.374	-8.7
295.589	95.74
295.804	175.61
296.018	189.95
296.233	22.02
296.447	87.55
296.662	99.84
296.877	343.55
297.091	-2.56
297.306	26.11
297.52	169.47
297.735	284.16
297.949	32.26
298.164	-123.39
298.378	157.18
298.593	79.36
298.807	24.06
299.022	38.4
299.236	308.73
299.451	58.88
299.665	40.45
299.88	11.78
300.094	263.68
300.309	173.57
300.523	30.21
300.737	-2.56
300.952	349.69
301.166	224.76
301.381	-47.62
301.595	-90.62
301.809	175.61
302.024	185.85
302.238	22.02
302.452	87.55
302.667	249.34
302.881	353.79
303.095	71.17
303.309	52.74
303.524	122.37
303.738	151.04
303.952	-27.14
304.166	58.88
304.381	-92.67
304.595	222.72
304.809	26.11
305.023	-14.85
305.237	65.02
305.452	75.26
305.666	9.73
305.88	56.83
306.094	235
306.308	212.48
306.522	-66.05
306.736	118.27
306.95	206.33
307.164	75.26
307.379	132.61
307.593	126.46
307.807	278.01
308.021	226.81
308.235	179.71
308.449	-125.44
308.663	192
308.877	527.86
309.091	105.98
309.305	124.41
309.519	-64
309.733	306.68
309.947	-33.28
310.161	5.63
310.374	167.42
310.588	304.64
310.802	-61.95
311.016	13.82
311.23	163.33
311.444	71.17
311.658	44.54
311.872	114.17
312.085	282.11
312.299	329.21
312.513	153.09
312.727	-27.14
312.941	62.98
313.154	161.28
313.368	38.4
313.582	56.83
313.796	243.2
314.009	179.71
314.223	181.76
314.437	71.17
314.651	253.44
314.864	179.71
315.078	-29.18
315.292	-84.48
315.505	140.8
315.719	124.41
315.933	140.8
316.146	-53.76
316.36	132.61
316.573	210.43
316.787	214.52
317.001	28.16
317.214	54.78
317.428	97.79
317.641	-23.04
317.855	95.74
318.068	206.33
318.282	192
318.495	112.13
318.709	30.21
318.922	138.75
319.136	302.59
319.349	44.54
319.563	-64
319.776	237.05
319.99	-47.62
320.203	38.4
320.417	32.26
320.63	142.85
320.843	259.58
321.057	69.12
321.27	-23.04
321.483	200.19
321.697	163.33
321.91	1.54
322.124	48.64
322.337	173.57
322.55	62.98
322.763	44.54
322.977	-123.39
323.19	105.98
323.403	183.81
323.617	79.36
323.83	245.24
324.043	153.09
324.256	185.85
324.469	-276.99
324.683	136.7
324.896	128.51
325.109	95.74
325.322	-184.83
325.535	171.52
325.748	273.92
325.962	140.8
326.175	19.97
326.388	-20.99
326.601	216.57
326.814	144.89
327.027	36.35
327.24	62.98
327.453	-55.81
327.666	228.86
327.879	220.67
328.092	126.46
328.305	284.16
328.518	146.94
328.731	32.26
328.944	-47.62
329.157	165.37
329.37	42.5
329.583	171.52
329.796	108.03
330.009	99.84
330.222	163.33
330.435	69.12
330.648	-18.94
330.861	179.71
331.073	112.13
331.286	79.36
331.499	77.31
331.712	140.8
331.925	144.89
332.138	-25.09
332.35	38.4
332.563	142.85
332.776	353.79
332.989	13.82
333.202	-80.38
333.414	165.37
333.627	136.7
333.84	-10.75
334.053	81.41
334.265	22.02
334.478	-20.99
334.691	-2.56
334.903	187.9
335.116	132.61
335.329	65.02
335.541	89.6
335.754	265.72
335.966	93.69
336.179	177.66
336.392	34.3
336.604	95.74
336.817	216.57
337.029	175.61
337.242	-14.85
337.454	26.11
337.667	194.05
337.88	327.16
338.092	67.07
338.305	30.21
338.517	120.32
338.729	204.28
338.942	105.98
339.154	-133.63
339.367	-2.56
339.579	204.28
339.792	-0.51
340.004	22.02
340.217	97.79
340.429	261.63
340.641	-92.67
340.854	-82.43
341.066	292.35
341.278	298.49
341.491	108.03
341.703	34.3
341.915	89.6
342.128	187.9
342.34	-6.66
342.552	-51.71
342.764	185.85
342.977	144.89
343.189	54.78
343.401	58.88
343.613	19.97
343.826	181.76
344.038	-72.19
344.25	81.41
344.462	69.12
344.674	247.29
344.886	-55.81
345.099	103.93
345.311	220.67
345.523	179.71
345.735	-152.06
345.947	58.88
346.159	235
346.371	116.22
346.583	3.58
346.795	101.89
347.007	56.83
347.219	269.82
347.431	42.5
347.643	95.74
347.855	108.03
348.067	376.31
348.279	-78.33
348.491	-4.61
348.703	259.58
348.915	136.7
349.127	-47.62
349.339	36.35
349.551	116.22
349.763	347.64
349.975	42.5
350.187	126.46
350.399	409.08
350.61	153.09
350.822	7.68
351.034	-29.18
351.246	321.02
351.458	185.85
351.669	30.21
351.881	5.63
352.093	351.74
352.305	189.95
352.517	-4.61
352.728	97.79
352.94	148.99
353.152	228.86
353.363	-59.9
353.575	105.98
353.787	433.66
353.999	288.25
354.21	101.89
354.422	-41.47
354.633	175.61
354.845	204.28
355.057	69.12
355.268	77.31
355.48	337.4
355.692	-2.56
355.903	79.36
356.115	-107.01
356.326	-68.09
356.538	400.89
356.749	28.16
356.961	124.41
357.172	196.09
357.384	48.64
357.595	194.05
357.807	-4.61
358.018	181.76
358.23	167.42
358.441	44.54
358.653	-2.56
358.864	204.28
359.075	56.83
359.287	-43.52
359.498	73.21
359.709	179.71
359.921	241.15
360.132	103.93
360.344	-82.43
360.555	128.51
360.766	235
360.977	-27.14
361.189	30.21
361.4	214.52
361.611	228.86
361.823	24.06
362.034	58.88
362.245	13.82
362.456	136.7
362.667	138.75
362.879	-59.9
363.09	255.48
363.301	290.3
363.512	-45.57
363.723	-18.94
363.935	212.48
364.146	302.59
364.357	-14.85
364.568	30.21
364.779	17.92
364.99	267.77
365.201	28.16
365.412	179.71
365.623	-33.28
365.834	175.61
366.045	93.69
366.256	108.03
366.467	304.64
366.678	93.69
366.889	24.06
367.1	-25.09
367.311	312.83
367.522	144.89
367.733	85.5
367.944	48.64
368.155	81.41
368.366	296.44
368.577	120.32
368.788	189.95
368.999	144.89
369.209	87.55
369.42	114.17
369.631	400.89
369.842	235
370.053	187.9
370.264	81.41
370.474	-33.28
370.685	302.59
370.896	50.69
371.107	124.41
371.317	-74.24
371.528	144.89
371.739	353.79
371.95	105.98
372.16	42.5
372.371	110.08
372.582	212.48
372.792	65.02
373.003	91.65
373.214	247.29
373.424	177.66
373.635	44.54
373.846	185.85
374.056	247.29
374.267	185.85
374.477	46.59
374.688	-66.05
374.898	259.58
375.109	103.93
375.319	124.41
375.53	128.51
375.74	294.4
375.951	62.98
376.161	11.78
376.372	108.03
376.582	134.65
376.793	288.25
377.003	-33.28
377.214	-39.42
377.424	241.15
377.635	151.04
377.845	105.98
378.055	114.17
378.266	9.73
378.476	196.09
378.686	62.98
378.897	48.64
379.107	341.5
379.317	232.96
379.528	-80.38
379.738	34.3
379.948	69.12
380.158	206.33
380.369	54.78
380.579	196.09
380.789	138.75
380.999	187.9
381.21	132.61
381.42	179.71
381.63	183.81
381.84	318.97
382.05	151.04
382.261	83.45
382.471	343.55
382.681	179.71
382.891	146.94
383.101	83.45
383.311	38.4
383.521	44.54
383.731	-16.9
383.941	230.91
384.151	206.33
384.361	-4.61
384.571	38.4
384.781	34.3
384.991	349.69
385.201	400.89
385.411	112.13
385.621	34.3
385.831	230.91
386.041	179.71
386.251	17.92
386.461	118.27
386.671	241.15
386.881	151.04
387.091	22.02
387.301	181.76
387.511	235
387.72	189.95
387.93	99.84
388.14	56.83
388.35	212.48
388.56	349.69
388.769	65.02
388.979	1.54
389.189	81.41
389.399	155.13
389.609	60.93
389.818	161.28
390.028	208.38
390.238	192
390.447	15.87
390.657	97.79
390.867	247.29
391.076	165.37
391.286	24.06
391.496	7.68
391.705	288.25
391.915	380.41
392.125	-23.04
392.334	9.73
392.544	329.21
392.753	226.81
392.963	22.02
393.172	48.64
393.382	185.85
393.591	384.51
393.801	-16.9
394.01	130.56
394.22	341.5
394.429	194.05
394.639	56.83
394.848	85.5
395.058	298.49
395.267	206.33
395.477	75.26
395.686	136.7
395.895	499.19
396.105	474.62
396.314	73.21
396.524	32.26
396.733	151.04
396.942	331.26
397.152	65.02
397.361	228.86
397.57	220.67
397.78	173.57
397.989	175.61
398.198	312.83
398.407	108.03
398.617	226.81
398.826	126.46
399.035	124.41
399.244	321.02
399.453	275.96
399.663	34.3
399.872	-16.9
400.081	79.36
400.29	331.26
400.499	-27.14
400.708	187.9
400.917	153.09
401.127	151.04
401.336	15.87
401.545	308.73
401.754	378.36
401.963	296.44
402.172	81.41
402.381	46.59
402.59	243.2
402.799	235
403.008	247.29
403.217	124.41
403.426	310.78
403.635	5.63
403.844	1.54
404.053	54.78
404.262	253.44
404.471	443.9
404.68	42.5
404.888	179.71
405.097	230.91
405.306	187.9
405.515	140.8
405.724	81.41
405.933	402.94
406.142	300.54
406.35	126.46
406.559	173.57
406.768	224.76
406.977	554.49
407.185	101.89
407.394	235
407.603	126.46
407.812	114.17
408.02	243.2
408.229	58.88
408.438	243.2
408.646	-45.57
408.855	71.17
409.064	71.17
409.272	202.24
409.481	259.58
409.69	130.56
409.898	-2.56
410.107	243.2
410.315	366.07
410.524	38.4
410.733	120.32
410.941	230.91
411.15	333.31
411.358	40.45
411.567	183.81
411.775	247.29
411.984	275.96
412.192	77.31
412.401	-0.51
412.609	474.62
412.818	245.24
413.026	155.13
413.234	81.41
413.443	286.2
413.651	144.89
413.86	-35.33
414.068	267.77
414.276	531.96
414.485	134.65
414.693	112.13
414.901	292.35
415.11	298.49
415.318	292.35
415.526	134.65
415.734	216.57
415.943	294.4
416.151	400.89
416.359	79.36
416.567	183.81
416.776	327.16
416.984	316.92
417.192	148.99
417.4	83.45
417.608	128.51
417.817	77.31
418.025	208.38
418.233	169.47
418.441	140.8
418.649	95.74
418.857	175.61
419.065	169.47
419.273	230.91
419.481	235
419.689	140.8
419.897	-14.85
420.105	159.23
420.313	321.02
420.521	192
420.729	243.2
420.937	237.05
421.145	105.98
421.353	105.98
421.561	230.91
421.769	359.93
421.977	171.52
422.185	232.96
422.393	185.85
422.601	284.16
422.809	335.35
423.017	216.57
423.224	136.7
423.432	450.04
423.64	228.86
423.848	54.78
424.056	-14.85
424.263	415.23
424.471	292.35
424.679	288.25
424.887	79.36
425.094	423.42
425.302	382.46
425.51	17.92
425.718	124.41
425.925	310.78
426.133	142.85
426.341	292.35
426.548	157.18
426.756	189.95
426.964	323.07
427.171	103.93
427.379	136.7
427.586	284.16
427.794	396.79
428.001	251.39
428.209	175.61
428.417	376.31
428.624	318.97
428.832	159.23
429.039	214.52
429.247	310.78
429.454	337.4
429.662	282.11
429.869	179.71
430.076	265.72
430.284	376.31
430.491	239.1
430.699	245.24
430.906	493.05
431.114	431.61
431.321	237.05
431.528	294.4
431.736	368.12
431.943	372.22
432.15	335.35
432.358	204.28
432.565	568.82
432.772	140.8
432.979	333.31
433.187	253.44
433.394	452.09
433.601	321.02
433.808	298.49
434.016	337.4
434.223	505.34
434.43	339.45
434.637	212.48
434.844	298.49
435.052	478.71
435.259	404.99
435.466	302.59
435.673	351.74
435.88	570.87
436.087	671.22
436.294	482.81
436.501	429.56
436.708	544.25
436.915	579.06
437.122	517.62
437.329	292.35
437.537	447.99
437.743	454.14
437.95	460.28
438.157	376.31
438.364	437.75
438.571	546.3
438.778	335.35
438.985	468.47
439.192	538.1
439.399	464.38
439.606	470.52
439.813	517.62
440.02	906.74
440.227	894.45
440.433	529.91
440.64	509.43
440.847	536.06
441.054	570.87
441.261	538.1
441.467	630.26
441.674	554.49
441.881	732.66
442.088	507.38
442.294	595.45
442.501	755.19
442.708	855.54
442.914	511.48
443.121	603.64
443.328	830.96
443.534	884.21
443.741	554.49
443.948	466.42
444.154	781.81
444.361	994.8
444.568	689.65
444.774	673.27
444.981	597.49
445.187	1046
445.394	693.75
445.6	777.72
445.807	894.45
446.013	957.94
446.22	695.8
446.426	898.55
446.633	980.47
446.839	1209.84
447.046	757.24
447.252	894.45
447.459	1052.14
447.665	902.64
447.871	845.3
448.078	1285.61
448.284	1175.02
448.491	1332.72
448.697	1127.92
448.903	1195.5
449.11	1312.24
449.316	1058.29
449.522	1392.11
449.728	1179.12
449.935	1404.39
450.141	1236.46
450.347	1332.72
450.553	1336.81
450.76	1494.51
450.966	1560.04
451.172	1396.2
451.378	1465.83
451.584	1635.82
451.791	1822.18
451.997	1670.63
452.203	1500.65
452.409	1969.63
452.615	1809.89
452.821	1670.63
453.027	1637.86
453.233	2139.62
453.44	1848.8
453.646	1770.98
453.852	1983.97
454.058	1932.77
454.264	2076.13
454.47	2051.55
454.676	1934.82
454.882	2325.98
455.088	2186.72
455.294	2196.96
455.5	2258.4
455.705	2362.84
455.911	2360.8
456.117	2160.1
456.323	2391.52
456.529	2235.87
456.735	2405.85
456.941	2182.62
457.147	2495.96
457.352	2491.87
457.558	2248.16
457.764	2366.94
457.97	2201.05
458.176	2495.96
458.381	2571.74
458.587	2385.37
458.793	2321.88
458.999	2172.38
459.204	2553.31
459.41	2403.8
459.616	2389.47
459.821	2567.64
460.027	2303.45
460.233	2489.82
460.438	2381.28
460.644	2448.86
460.85	2407.9
461.055	2422.24
461.261	2317.79
461.466	2194.91
461.672	2262.49
461.878	2194.91
462.083	2231.77
462.289	2135.52
