Data from USB4F104151__14__11-55-41-743.txt Node

Date: Wed Feb 19 11:55:41 EST 2025
User: louis
Spectrometer: USB4F10415
Trigger mode: 4
Integration Time (sec): 2.250200E-1
Scans to average: 1
Electric dark correction enabled: true
Nonlinearity correction enabled: false
Boxcar width: 0
XAxis mode: Wavelengths
Number of Pixels in Spectrum: 3648
>>>>>Begin Spectral Data<<<<<
178.204	-790.35
178.424	-790.35
178.644	-790.35
178.864	-773.96
179.084	-786.25
179.304	82.09
179.524	121
179.744	0.17
179.964	-208.72
180.184	247.97
180.404	118.95
180.624	-257.87
180.844	-42.84
181.064	71.85
181.283	77.99
181.503	-159.57
181.723	-51.03
181.943	-12.12
182.163	471.2
182.383	-284.5
182.602	-98.13
182.822	393.38
183.042	217.26
183.262	-214.87
183.482	-229.2
183.701	147.62
183.921	329.89
184.141	-126.8
184.361	-81.75
184.58	247.97
184.8	290.98
185.02	-204.63
185.239	-44.88
185.459	198.82
185.679	417.96
185.898	-241.49
186.118	-151.38
186.338	202.92
186.557	348.33
186.777	-145.24
186.997	-229.2
187.216	135.34
187.436	520.35
187.655	-114.52
187.875	-59.22
188.095	215.21
188.314	397.48
188.534	-75.6
188.753	-208.72
188.973	358.57
189.192	495.78
189.412	-208.72
189.631	-190.29
189.851	358.57
190.07	530.59
190.29	-186.19
190.509	-153.43
190.729	215.21
190.948	344.23
191.168	-38.74
191.387	-104.28
191.607	176.3
191.826	280.74
192.045	-106.32
192.265	-169.81
192.484	282.79
192.704	204.97
192.923	-153.43
193.142	32.94
193.362	315.56
193.581	430.24
193.8	-104.28
194.02	-126.8
194.239	182.44
194.458	348.33
194.678	-63.32
194.897	-202.58
195.116	284.84
195.335	266.41
195.555	-122.71
195.774	-198.48
195.993	362.66
196.212	180.39
196.432	-173.91
196.651	-137.04
196.87	225.45
197.089	518.31
197.308	-210.77
197.528	-71.51
197.747	53.42
197.966	245.93
198.185	-18.26
198.404	-182.1
198.623	397.48
198.842	362.66
199.062	-12.12
199.281	-104.28
199.5	262.31
199.719	311.46
199.938	-198.48
200.157	-190.29
200.376	422.05
200.595	422.05
200.814	-137.04
201.033	-165.71
201.252	420
201.471	256.17
201.69	-206.67
201.909	-87.89
202.128	344.23
202.347	301.22
202.566	-87.89
202.785	-274.26
203.004	112.81
203.223	497.83
203.442	-190.29
203.661	-317.26
203.879	372.9
204.098	321.7
204.317	-163.67
204.536	26.79
204.755	342.18
204.974	331.94
205.193	-280.4
205.411	-98.13
205.63	387.24
205.849	211.11
206.068	-114.52
206.287	-249.68
206.505	401.57
206.724	176.3
206.943	-257.87
207.162	-143.19
207.381	272.55
207.599	135.34
207.818	-96.08
208.037	-206.67
208.255	170.15
208.474	323.75
208.693	-143.19
208.911	-112.47
209.13	368.81
209.349	297.13
209.567	6.31
209.786	-130.9
210.005	290.98
210.223	243.88
210.442	-264.02
210.661	-235.35
210.879	247.97
211.098	250.02
211.316	-128.85
211.535	-184.15
211.753	229.54
211.972	297.13
212.191	-137.04
212.409	-96.08
212.628	346.28
212.846	145.58
213.065	-200.53
213.283	-94.04
213.502	135.34
213.72	237.74
213.938	-208.72
214.157	-96.08
214.375	340.13
214.594	233.64
214.812	-77.65
215.031	-141.14
215.249	94.38
215.467	213.16
215.686	-46.93
215.904	-167.76
216.122	329.89
216.341	413.86
216.559	-67.41
216.778	-65.36
216.996	528.55
217.214	161.96
217.432	-167.76
217.651	-169.81
217.869	215.21
218.087	114.86
218.306	-245.59
218.524	-212.82
218.742	139.43
218.96	356.52
219.179	-178
219.397	-122.71
219.615	559.27
219.833	250.02
220.051	-171.86
220.27	-36.69
220.488	391.33
220.706	288.93
220.924	-198.48
221.142	-182.1
221.36	297.13
221.578	352.42
221.796	-139.09
222.015	-46.93
222.233	280.74
222.451	417.96
222.669	-75.6
222.887	-14.17
223.105	141.48
223.323	235.69
223.541	-116.56
223.759	-38.74
223.977	211.11
224.195	370.85
224.413	-108.37
224.631	-153.43
224.849	221.35
225.067	518.31
225.285	-151.38
225.503	-194.39
225.721	-12.12
225.939	172.2
226.157	-106.32
226.375	43.18
226.592	182.44
226.81	188.58
227.028	-3.93
227.246	-96.08
227.464	237.74
227.682	340.13
227.9	-159.57
228.117	-65.36
228.335	243.88
228.553	194.73
228.771	-241.49
228.989	-210.77
229.206	309.41
229.424	192.68
229.642	-139.09
229.86	-126.8
230.077	346.28
230.295	223.4
230.513	-32.6
230.731	-114.52
230.948	434.34
231.166	338.09
231.384	-83.8
231.601	-159.57
231.819	452.77
232.037	133.29
232.254	-104.28
232.472	-96.08
232.689	143.53
232.907	350.37
233.125	-184.15
233.342	-186.19
233.56	149.67
233.777	161.96
233.995	-169.81
234.213	-51.03
234.43	250.02
234.648	184.49
234.865	-173.91
235.083	-5.97
235.3	127.14
235.518	295.08
235.735	-12.12
235.953	-132.95
236.17	233.64
236.388	196.78
236.605	37.03
236.822	-20.31
237.04	383.14
237.257	237.74
237.475	-147.28
237.692	-198.48
237.909	358.57
238.127	221.35
238.344	12.46
238.562	-48.98
238.779	112.81
238.996	6.31
239.214	-55.12
239.431	-38.74
239.648	135.34
239.865	225.45
240.083	-34.64
240.3	-210.77
240.517	147.62
240.735	190.63
240.952	84.14
241.169	-208.72
241.386	336.04
241.603	209.06
241.821	-165.71
242.038	-16.21
242.255	280.74
242.472	-5.97
242.689	-100.18
242.907	-135
243.124	233.64
243.341	198.82
243.558	-63.32
243.775	-253.78
243.992	-53.08
244.209	350.37
244.426	14.51
244.643	-151.38
244.86	233.64
245.078	288.93
245.295	-81.75
245.512	-71.51
245.729	110.76
245.946	276.65
246.163	-85.84
246.38	-112.47
246.597	172.2
246.814	260.26
247.031	2.22
247.248	-182.1
247.464	325.8
247.681	225.45
247.898	-12.12
248.115	10.41
248.332	151.72
248.549	356.52
248.766	73.9
248.983	-87.89
249.2	331.94
249.417	297.13
249.633	-94.04
249.85	39.08
250.067	161.96
250.284	200.87
250.501	-112.47
250.717	-79.7
250.934	-36.69
251.151	229.54
251.368	26.79
251.585	-102.23
251.801	278.69
252.018	80.04
252.235	-36.69
252.451	-163.67
252.668	127.14
252.885	278.69
253.102	-81.75
253.318	-149.33
253.535	174.25
253.752	112.81
253.968	-141.14
254.185	-167.76
254.401	282.79
254.618	323.75
254.835	-122.71
255.051	-167.76
255.268	397.48
255.484	223.4
255.701	-124.76
255.917	-67.41
256.134	69.8
256.351	237.74
256.567	-180.05
256.784	-1.88
257	96.43
257.217	286.89
257.433	45.23
257.65	-124.76
257.866	352.42
258.082	-5.97
258.299	-184.15
258.515	-71.51
258.732	190.63
258.948	102.57
259.165	-1.88
259.381	-239.44
259.597	350.37
259.814	247.97
260.03	-94.04
260.246	-79.7
260.463	374.95
260.679	329.89
260.895	-57.17
261.112	-44.88
261.328	100.52
261.544	69.8
261.761	-77.65
261.977	-34.64
262.193	-5.97
262.409	309.41
262.626	43.18
262.842	-94.04
263.058	188.58
263.274	313.51
263.49	-55.12
263.707	-114.52
263.923	372.9
264.139	39.08
264.355	-44.88
264.571	-104.28
264.787	309.41
265.004	258.21
265.22	-14.17
265.436	-149.33
265.652	137.38
265.868	256.17
266.084	-106.32
266.3	-83.8
266.516	110.76
266.732	198.82
266.948	-67.41
267.164	-159.57
267.38	323.75
267.596	245.93
267.812	-32.6
268.028	69.8
268.244	133.29
268.46	196.78
268.676	12.46
268.892	28.84
269.108	116.9
269.324	24.75
269.54	-83.8
269.756	-36.69
269.972	127.14
270.188	131.24
270.403	-108.37
270.619	-79.7
270.835	252.07
271.051	215.21
271.267	-143.19
271.483	-157.52
271.698	327.85
271.914	235.69
272.13	59.56
272.346	-110.42
272.562	247.97
272.777	342.18
272.993	34.99
273.209	-26.45
273.425	338.09
273.64	102.57
273.856	-65.36
274.072	-169.81
274.287	110.76
274.503	301.22
274.719	92.33
274.934	-159.57
275.15	61.61
275.366	164.01
275.581	-91.99
275.797	-77.65
276.012	286.89
276.228	133.29
276.444	-26.45
276.659	127.14
276.875	67.75
277.09	47.27
277.306	-65.36
277.521	34.99
277.737	256.17
277.952	233.64
278.168	-63.32
278.383	-96.08
278.599	153.77
278.814	317.61
279.03	-128.85
279.245	102.57
279.461	157.86
279.676	262.31
279.892	-157.52
280.107	-122.71
280.322	37.03
280.538	282.79
280.753	-75.6
280.969	-96.08
281.184	194.73
281.399	254.12
281.615	-46.93
281.83	86.19
282.045	57.51
282.26	84.14
282.476	-14.17
282.691	65.71
282.906	288.93
283.122	164.01
283.337	0.17
283.552	49.32
283.767	166.06
283.983	182.44
284.198	-12.12
284.413	-69.46
284.628	-63.32
284.843	104.62
285.058	-12.12
285.274	-153.43
285.489	45.23
285.704	157.86
285.919	18.6
286.134	-5.97
286.349	202.92
286.564	102.57
286.779	55.47
286.995	75.95
287.21	63.66
287.425	227.5
287.64	-77.65
287.855	164.01
288.07	-69.46
288.285	340.13
288.5	22.7
288.715	59.56
288.93	143.53
289.145	6.31
289.36	20.65
289.575	-22.36
289.79	336.04
290.004	96.43
290.219	71.85
290.434	-73.56
290.649	129.19
290.864	84.14
291.079	-30.55
291.294	37.03
291.509	217.26
291.724	45.23
291.938	-20.31
292.153	-22.36
292.368	110.76
292.583	233.64
292.798	4.27
293.012	28.84
293.227	217.26
293.442	186.54
293.657	-26.45
293.871	100.52
294.086	233.64
294.301	364.71
294.516	43.18
294.73	77.99
294.945	106.67
295.16	157.86
295.374	-3.93
295.589	26.79
295.804	86.19
296.018	151.72
296.233	-87.89
296.447	106.67
296.662	133.29
296.877	284.84
297.091	12.46
297.306	-20.31
297.52	57.51
297.735	260.26
297.949	80.04
298.164	-147.28
298.378	188.58
298.593	47.27
298.807	-57.17
299.022	26.79
299.236	221.35
299.451	59.56
299.665	-28.5
299.88	37.03
300.094	254.12
300.309	211.11
300.523	16.55
300.737	-40.79
300.952	309.41
301.166	288.93
301.381	-5.97
301.595	-165.71
301.809	137.38
302.024	127.14
302.238	-42.84
302.452	84.14
302.667	186.54
302.881	387.24
303.095	20.65
303.309	159.91
303.524	202.92
303.738	166.06
303.952	92.33
304.166	14.51
304.381	-106.32
304.595	286.89
304.809	-3.93
305.023	-83.8
305.237	86.19
305.452	82.09
305.666	-40.79
305.88	8.36
306.094	188.58
306.308	204.97
306.522	-14.17
306.736	45.23
306.95	264.36
307.164	80.04
307.379	22.7
307.593	118.95
307.807	321.7
308.021	297.13
308.235	198.82
308.449	-124.76
308.663	151.72
308.877	518.31
309.091	26.79
309.305	41.13
309.519	-16.21
309.733	299.17
309.947	-61.27
310.161	-67.41
310.374	118.95
310.588	297.13
310.802	-94.04
311.016	-3.93
311.23	190.63
311.444	80.04
311.658	73.9
311.872	225.45
312.085	268.45
312.299	278.69
312.513	178.34
312.727	-10.07
312.941	45.23
313.154	254.12
313.368	34.99
313.582	28.84
313.796	258.21
314.009	55.47
314.223	211.11
314.437	45.23
314.651	295.08
314.864	45.23
315.078	-94.04
315.292	-100.18
315.505	172.2
315.719	155.82
315.933	59.56
316.146	-65.36
316.36	45.23
316.573	264.36
316.787	235.69
317.001	53.42
317.214	61.61
317.428	157.86
317.641	-20.31
317.855	59.56
318.068	186.54
318.282	135.34
318.495	198.82
318.709	-108.37
318.922	202.92
319.136	233.64
319.349	118.95
319.563	-53.08
319.776	256.17
319.99	57.51
320.203	4.27
320.417	51.37
320.63	172.2
320.843	309.41
321.057	22.7
321.27	84.14
321.483	331.94
321.697	176.3
321.91	-110.42
322.124	28.84
322.337	198.82
322.55	39.08
322.763	-38.74
322.977	-71.51
323.19	90.28
323.403	127.14
323.617	88.23
323.83	143.53
324.043	239.78
324.256	125.1
324.469	-227.15
324.683	143.53
324.896	159.91
325.109	133.29
325.322	-87.89
325.535	118.95
325.748	346.28
325.962	43.18
326.175	20.65
326.388	-10.07
326.601	202.92
326.814	49.32
327.027	26.79
327.24	131.24
327.453	2.22
327.666	272.55
327.879	192.68
328.092	67.75
328.305	250.02
328.518	133.29
328.731	-81.75
328.944	-132.95
329.157	184.49
329.37	53.42
329.583	145.58
329.796	53.42
330.009	53.42
330.222	256.17
330.435	100.52
330.648	49.32
330.861	204.97
331.073	135.34
331.286	86.19
331.499	12.46
331.712	55.47
331.925	121
332.138	26.79
332.35	-36.69
332.563	94.38
332.776	290.98
332.989	-44.88
333.202	-167.76
333.414	135.34
333.627	188.58
333.84	8.36
334.053	2.22
334.265	-18.26
334.478	-1.88
334.691	10.41
334.903	57.51
335.116	123.05
335.329	100.52
335.541	8.36
335.754	200.87
335.966	151.72
336.179	121
336.392	-10.07
336.604	20.65
336.817	178.34
337.029	125.1
337.242	-22.36
337.454	47.27
337.667	168.1
337.88	379.04
338.092	67.75
338.305	94.38
338.517	69.8
338.729	174.25
338.942	18.6
339.154	2.22
339.367	32.94
339.579	336.04
339.792	-55.12
340.004	-30.55
340.217	71.85
340.429	223.4
340.641	-71.51
340.854	-120.66
341.066	137.38
341.278	254.12
341.491	77.99
341.703	-18.26
341.915	143.53
342.128	219.3
342.34	45.23
342.552	-87.89
342.764	196.78
342.977	180.39
343.189	32.94
343.401	145.58
343.613	8.36
343.826	129.19
344.038	-32.6
344.25	28.84
344.462	90.28
344.674	168.1
344.886	-51.03
345.099	49.32
345.311	215.21
345.523	82.09
345.735	-65.36
345.947	39.08
346.159	307.37
346.371	225.45
346.583	123.05
346.795	125.1
347.007	96.43
347.219	321.7
347.431	102.57
347.643	168.1
347.855	92.33
348.067	311.46
348.279	-51.03
348.491	-59.22
348.703	237.74
348.915	108.71
349.127	-87.89
349.339	61.61
349.551	88.23
349.763	290.98
349.975	34.99
350.187	47.27
350.399	420
350.61	143.53
350.822	-63.32
351.034	37.03
351.246	288.93
351.458	192.68
351.669	-22.36
351.881	-5.97
352.093	360.61
352.305	274.6
352.517	45.23
352.728	102.57
352.94	149.67
353.152	241.83
353.363	-167.76
353.575	26.79
353.787	381.09
353.999	239.78
354.21	200.87
354.422	-67.41
354.633	168.1
354.845	168.1
355.057	88.23
355.268	51.37
355.48	342.18
355.692	12.46
355.903	71.85
356.115	-114.52
356.326	-69.46
356.538	352.42
356.749	37.03
356.961	90.28
357.172	149.67
357.384	63.66
357.595	280.74
357.807	65.71
358.018	127.14
358.23	200.87
358.441	-48.98
358.653	-1.88
358.864	153.77
359.075	61.61
359.287	41.13
359.498	69.8
359.709	217.26
359.921	233.64
360.132	121
360.344	8.36
360.555	22.7
360.766	135.34
360.977	-75.6
361.189	200.87
361.4	184.49
361.611	284.84
361.823	86.19
362.034	12.46
362.245	-5.97
362.456	149.67
362.667	145.58
362.879	-102.23
363.09	237.74
363.301	151.72
363.512	26.79
363.723	-65.36
363.935	133.29
364.146	284.84
364.357	59.56
364.568	22.7
364.779	39.08
364.99	329.89
365.201	53.42
365.412	143.53
365.623	16.55
365.834	254.12
366.045	57.51
366.256	106.67
366.467	260.26
366.678	98.47
366.889	55.47
367.1	24.75
367.311	323.75
367.522	86.19
367.733	121
367.944	41.13
368.155	176.3
368.366	260.26
368.577	108.71
368.788	174.25
368.999	174.25
369.209	168.1
369.42	49.32
369.631	401.57
369.842	272.55
370.053	168.1
370.264	49.32
370.474	-48.98
370.685	288.93
370.896	190.63
371.107	49.32
371.317	-38.74
371.528	143.53
371.739	313.51
371.95	12.46
372.16	2.22
372.371	-42.84
372.582	104.62
372.792	-10.07
373.003	125.1
373.214	274.6
373.424	202.92
373.635	-36.69
373.846	200.87
374.056	241.83
374.267	241.83
374.477	127.14
374.688	4.27
374.898	307.37
375.109	178.34
375.319	18.6
375.53	18.6
375.74	323.75
375.951	114.86
376.161	84.14
376.372	94.38
376.582	157.86
376.793	284.84
377.003	-48.98
377.214	-87.89
377.424	231.59
377.635	237.74
377.845	6.31
378.055	102.57
378.266	0.17
378.476	196.78
378.686	24.75
378.897	121
379.107	333.99
379.317	211.11
379.528	-59.22
379.738	67.75
379.948	67.75
380.158	280.74
380.369	67.75
380.579	92.33
380.789	211.11
380.999	215.21
381.21	198.82
381.42	151.72
381.63	110.76
381.84	235.69
382.05	118.95
382.261	116.9
382.471	280.74
382.681	100.52
382.891	145.58
383.101	176.3
383.311	14.51
383.521	90.28
383.731	41.13
383.941	139.43
384.151	192.68
384.361	123.05
384.571	-5.97
384.781	28.84
384.991	336.04
385.201	344.23
385.411	114.86
385.621	65.71
385.831	237.74
386.041	196.78
386.251	110.76
386.461	77.99
386.671	139.43
386.881	217.26
387.091	14.51
387.301	145.58
387.511	170.15
387.72	184.49
387.93	127.14
388.14	-48.98
388.35	172.2
388.56	342.18
388.769	67.75
388.979	-26.45
389.189	28.84
389.399	131.24
389.609	22.7
389.818	96.43
390.028	262.31
390.238	276.65
390.447	-57.17
390.657	22.7
390.867	133.29
391.076	-5.97
391.286	-104.28
391.496	8.36
391.705	135.34
391.915	377
392.125	-28.5
392.334	16.55
392.544	327.85
392.753	53.42
392.963	-38.74
393.172	94.38
393.382	47.27
393.591	413.86
393.801	8.36
394.01	49.32
394.22	217.26
394.429	172.2
394.639	67.75
394.848	57.51
395.058	235.69
395.267	102.57
395.477	102.57
395.686	47.27
395.895	526.5
396.105	374.95
396.314	32.94
396.524	32.94
396.733	186.54
396.942	299.17
397.152	73.9
397.361	194.73
397.57	190.63
397.78	170.15
397.989	143.53
398.198	272.55
398.407	186.54
398.617	166.06
398.826	18.6
399.035	-30.55
399.244	207.02
399.453	106.67
399.663	28.84
399.872	-24.4
400.081	30.89
400.29	329.89
400.499	-42.84
400.708	192.68
400.917	184.49
401.127	170.15
401.336	98.47
401.545	235.69
401.754	321.7
401.963	313.51
402.172	92.33
402.381	-12.12
402.59	106.67
402.799	114.86
403.008	268.45
403.217	84.14
403.426	278.69
403.635	20.65
403.844	30.89
404.053	-65.36
404.262	161.96
404.471	333.99
404.68	37.03
404.888	73.9
405.097	137.38
405.306	196.78
405.515	71.85
405.724	0.17
405.933	307.37
406.142	198.82
406.35	16.55
406.559	84.14
406.768	225.45
406.977	428.2
407.185	41.13
407.394	59.56
407.603	102.57
407.812	155.82
408.02	108.71
408.229	92.33
408.438	209.06
408.646	-57.17
408.855	-16.21
409.064	18.6
409.272	192.68
409.481	211.11
409.69	-5.97
409.898	0.17
410.107	182.44
410.315	282.79
410.524	84.14
410.733	96.43
410.941	237.74
411.15	209.06
411.358	92.33
411.567	219.3
411.775	276.65
411.984	135.34
412.192	96.43
412.401	67.75
412.609	489.64
412.818	274.6
413.026	100.52
413.234	14.51
413.443	215.21
413.651	24.75
413.86	-85.84
414.068	247.97
414.276	430.24
414.485	147.62
414.693	153.77
414.901	217.26
415.11	282.79
415.318	182.44
415.526	32.94
415.734	135.34
415.943	200.87
416.151	338.09
416.359	39.08
416.567	135.34
416.776	209.06
416.984	336.04
417.192	200.87
417.4	14.51
417.608	82.09
417.817	55.47
418.025	198.82
418.233	166.06
418.441	102.57
418.649	55.47
418.857	65.71
419.065	71.85
419.273	121
419.481	190.63
419.689	65.71
419.897	45.23
420.105	53.42
420.313	260.26
420.521	164.01
420.729	86.19
420.937	51.37
421.145	164.01
421.353	61.61
421.561	211.11
421.769	219.3
421.977	161.96
422.185	65.71
422.393	18.6
422.601	200.87
422.809	237.74
423.017	61.61
423.224	57.51
423.432	358.57
423.64	184.49
423.848	77.99
424.056	-63.32
424.263	362.66
424.471	241.83
424.679	217.26
424.887	37.03
425.094	420
425.302	276.65
425.51	-77.65
425.718	170.15
425.925	209.06
426.133	149.67
426.341	272.55
426.548	110.76
426.756	139.43
426.964	342.18
427.171	84.14
427.379	135.34
427.586	250.02
427.794	329.89
428.001	104.62
428.209	202.92
428.417	401.57
428.624	256.17
428.832	215.21
429.039	221.35
429.247	272.55
429.454	329.89
429.662	168.1
429.869	147.62
430.076	290.98
430.284	342.18
430.491	217.26
430.699	243.88
430.906	454.82
431.114	342.18
431.321	139.43
431.528	194.73
431.736	309.41
431.943	321.7
432.15	207.02
432.358	182.44
432.565	577.7
432.772	26.79
432.979	258.21
433.187	164.01
433.394	460.96
433.601	227.5
433.808	211.11
434.016	315.56
434.223	305.32
434.43	313.51
434.637	274.6
434.844	366.76
435.052	432.29
435.259	456.87
435.466	293.03
435.673	301.22
435.88	528.55
436.087	465.06
436.294	575.65
436.501	422.05
436.708	458.92
436.915	544.93
437.122	463.01
437.329	290.98
437.537	393.38
437.743	446.63
437.95	444.58
438.157	383.14
438.364	475.3
438.571	487.59
438.778	356.52
438.985	420
439.192	585.89
439.399	518.31
439.606	413.86
439.813	506.02
440.02	805.02
440.227	882.85
440.433	561.31
440.64	581.79
440.847	559.27
441.054	671.9
441.261	452.77
441.467	522.4
441.674	600.23
441.881	813.21
442.088	481.44
442.294	532.64
442.501	821.41
442.708	821.41
442.914	592.03
443.121	567.46
443.328	794.78
443.534	905.37
443.741	600.23
443.948	530.59
444.154	794.78
444.361	1009.82
444.568	641.18
444.774	798.88
444.981	704.67
445.187	979.1
445.394	829.6
445.6	712.86
445.807	1042.59
446.013	864.41
446.22	671.9
446.426	934.04
446.633	1073.31
446.839	1255.58
447.046	747.68
447.252	975
447.459	1079.45
447.665	1018.01
447.871	917.66
448.078	1271.96
448.284	1106.07
448.491	1349.78
448.697	1138.84
448.903	1224.86
449.11	1312.92
449.316	1243.29
449.522	1302.68
449.728	1228.95
449.935	1505.43
450.141	1292.44
450.347	1355.93
450.553	1343.64
450.76	1435.8
450.966	1546.39
451.172	1386.65
451.378	1413.27
451.584	1601.68
451.791	1831.05
451.997	1640.59
452.203	1462.42
452.409	1718.42
452.615	1919.12
452.821	1628.31
453.027	1652.88
453.233	2093.19
453.44	1761.42
453.646	1691.79
453.852	1777.81
454.058	1835.15
454.264	2039.95
454.47	2095.24
454.676	1904.78
454.882	2193.55
455.088	2068.62
455.294	1990.8
455.5	2148.49
455.705	2291.85
455.911	2287.75
456.117	1970.32
456.323	2107.53
456.529	2156.68
456.735	2134.15
456.941	1982.6
457.147	2148.49
457.352	2330.76
457.558	2142.35
457.764	2201.74
457.97	2148.49
458.176	2271.37
458.381	2386.05
458.587	2308.23
458.793	2230.41
458.999	2056.33
459.204	2447.49
459.41	2205.83
459.616	2273.42
459.821	2398.34
460.027	2125.96
460.233	2175.11
460.438	2140.3
460.644	2166.92
460.85	2209.93
461.055	2123.91
461.261	2089.1
461.466	1984.65
461.672	1994.89
461.878	1874.06
462.083	1978.51
462.289	1878.16
