Data from USB4F104151__36__12-21-33-315.txt Node

Date: Wed Feb 19 12:21:33 EST 2025
User: louis
Spectrometer: USB4F10415
Trigger mode: 4
Integration Time (sec): 2.250200E-1
Scans to average: 1
Electric dark correction enabled: true
Nonlinearity correction enabled: false
Boxcar width: 0
XAxis mode: Wavelengths
Number of Pixels in Spectrum: 3648
>>>>>Begin Spectral Data<<<<<
178.204	-806.39
178.424	-806.39
178.644	-806.39
178.864	-863.73
179.084	-749.04
179.304	111.1
179.524	94.72
179.744	-34.3
179.964	-200.19
180.184	131.58
180.404	233.98
180.624	-292.35
180.844	-85.5
181.064	20.99
181.283	258.56
181.503	-153.09
181.723	-85.5
181.943	-116.22
182.163	403.96
182.383	-151.04
182.602	-177.66
182.822	492.02
183.042	203.26
183.262	-253.44
183.482	-151.04
183.701	260.6
183.921	322.04
184.141	-222.72
184.361	-105.98
184.58	229.88
184.8	262.65
185.02	-171.52
185.239	-5.63
185.459	256.51
185.679	375.29
185.898	-300.54
186.118	-216.57
186.338	309.76
186.557	281.08
186.777	-142.85
186.997	-196.09
187.216	266.75
187.436	457.21
187.655	-179.71
187.875	-105.98
188.095	207.36
188.314	442.87
188.534	-128.51
188.753	-314.88
188.973	369.15
189.192	442.87
189.412	-189.95
189.631	-204.28
189.851	326.14
190.07	432.63
190.29	-194.05
190.509	-216.57
190.729	231.93
190.948	365.05
191.168	-73.21
191.387	-177.66
191.607	156.16
191.826	332.28
192.045	-120.32
192.265	-192
192.484	293.37
192.704	219.64
192.923	-161.28
193.142	-81.41
193.362	297.47
193.581	360.95
193.8	-110.08
194.02	-93.69
194.239	199.16
194.458	322.04
194.678	-134.65
194.897	-175.61
195.116	260.6
195.335	322.04
195.555	-89.6
195.774	-232.96
195.993	375.29
196.212	207.36
196.432	-116.22
196.651	-175.61
196.87	201.21
197.089	551.42
197.308	-194.05
197.528	-118.27
197.747	29.18
197.966	211.45
198.185	-9.73
198.404	-216.57
198.623	301.56
198.842	358.91
199.062	-114.17
199.281	-77.31
199.5	205.31
199.719	279.04
199.938	-93.69
200.157	-126.46
200.376	332.28
200.595	406.01
200.814	-134.65
201.033	-124.41
201.252	481.78
201.471	270.84
201.69	-148.99
201.909	-116.22
202.128	274.94
202.347	317.95
202.566	-103.93
202.785	-339.45
203.004	88.57
203.223	512.5
203.442	-177.66
203.661	-247.29
203.879	342.52
204.098	344.57
204.317	-198.14
204.536	14.85
204.755	338.43
204.974	315.9
205.193	-288.25
205.411	-95.74
205.63	399.87
205.849	297.47
206.068	-116.22
206.287	-288.25
206.505	401.91
206.724	143.87
206.943	-202.24
207.162	-185.85
207.381	150.01
207.599	211.45
207.818	-118.27
208.037	-261.63
208.255	215.55
208.474	186.88
208.693	-181.76
208.911	-148.99
209.13	369.15
209.349	348.67
209.567	-32.26
209.786	-171.52
210.005	324.09
210.223	229.88
210.442	-396.79
210.661	-249.34
210.879	322.04
211.098	182.78
211.316	-124.41
211.535	-46.59
211.753	207.36
211.972	322.04
212.191	-79.36
212.409	-77.31
212.628	303.61
212.846	141.82
213.065	-183.81
213.283	-157.18
213.502	215.55
213.72	184.83
213.938	-167.42
214.157	-173.57
214.375	299.52
214.594	203.26
214.812	-122.37
215.031	-204.28
215.249	246.27
215.467	317.95
215.686	-103.93
215.904	-144.89
216.122	205.31
216.341	426.49
216.559	-1.54
216.778	-48.64
216.996	469.5
217.214	111.1
217.432	-103.93
217.651	-224.76
217.869	326.14
218.087	360.95
218.306	-196.09
218.524	-175.61
218.742	184.83
218.96	334.33
219.179	-140.8
219.397	-198.14
219.615	455.16
219.833	252.41
220.051	-173.57
220.27	-67.07
220.488	403.96
220.706	248.32
220.924	-226.81
221.142	-216.57
221.36	293.37
221.578	340.47
221.796	-216.57
222.015	-85.5
222.233	244.22
222.451	485.88
222.669	-101.89
222.887	-50.69
223.105	113.15
223.323	111.1
223.541	-175.61
223.759	-148.99
223.977	203.26
224.195	438.78
224.413	-189.95
224.631	-132.61
224.849	279.04
225.067	483.83
225.285	-99.84
225.503	-159.23
225.721	-157.18
225.939	315.9
226.157	-118.27
226.375	129.53
226.592	162.3
226.81	164.35
227.028	-19.97
227.246	-97.79
227.464	238.08
227.682	305.66
227.9	-48.64
228.117	-69.12
228.335	203.26
228.553	135.68
228.771	-169.47
228.989	-116.22
229.206	223.74
229.424	129.53
229.642	-140.8
229.86	-183.81
230.077	479.74
230.295	184.83
230.513	-77.31
230.731	-128.51
230.948	416.25
231.166	444.92
231.384	-179.71
231.601	-157.18
231.819	469.5
232.037	55.81
232.254	-75.26
232.472	-91.65
232.689	100.86
232.907	449.02
233.125	-212.48
233.342	-116.22
233.56	145.92
233.777	16.9
233.995	-183.81
234.213	-120.32
234.43	266.75
234.648	223.74
234.865	-124.41
235.083	-42.5
235.3	211.45
235.518	291.32
235.735	-52.74
235.953	-103.93
236.17	195.07
236.388	162.3
236.605	98.81
236.822	-142.85
237.04	348.67
237.257	219.64
237.475	-153.09
237.692	-118.27
237.909	315.9
238.127	190.97
238.344	2.56
238.562	-157.18
238.779	137.73
238.996	6.66
239.214	-38.4
239.431	-75.26
239.648	154.11
239.865	309.76
240.083	-69.12
240.3	-239.1
240.517	207.36
240.735	160.25
240.952	72.19
241.169	-146.94
241.386	289.28
241.603	111.1
241.821	-58.88
242.038	-134.65
242.255	369.15
242.472	98.81
242.689	-24.06
242.907	-134.65
243.124	256.51
243.341	231.93
243.558	-116.22
243.775	-144.89
243.992	31.23
244.209	297.47
244.426	35.33
244.643	-120.32
244.86	209.4
245.078	295.42
245.295	-67.07
245.512	-99.84
245.729	152.06
245.946	197.12
246.163	-138.75
246.38	-169.47
246.597	301.56
246.814	197.12
247.031	-101.89
247.248	-151.04
247.464	324.09
247.681	184.83
247.898	-183.81
248.115	-26.11
248.332	64
248.549	420.35
248.766	-44.54
248.983	-103.93
249.2	379.39
249.417	358.91
249.633	-140.8
249.85	-9.73
250.067	162.3
250.284	178.69
250.501	-99.84
250.717	-91.65
250.934	14.85
251.151	219.64
251.368	-13.82
251.585	-118.27
251.801	182.78
252.018	35.33
252.235	25.09
252.451	-144.89
252.668	217.6
252.885	299.52
253.102	-69.12
253.318	-196.09
253.535	141.82
253.752	115.2
253.968	-140.8
254.185	-140.8
254.401	236.03
254.618	240.12
254.835	-62.98
255.051	-5.63
255.268	293.37
255.484	188.93
255.701	-114.17
255.917	-75.26
256.134	117.25
256.351	252.41
256.567	-257.53
256.784	16.9
257	-22.02
257.217	354.81
257.433	16.9
257.65	-126.46
257.866	391.67
258.082	35.33
258.299	-112.13
258.515	-85.5
258.732	209.4
258.948	51.71
259.165	-24.06
259.381	-214.52
259.597	279.04
259.814	215.55
260.03	-161.28
260.246	-198.14
260.463	371.19
260.679	281.08
260.895	-58.88
261.112	-69.12
261.328	166.4
261.544	59.9
261.761	-91.65
261.977	-97.79
262.193	-7.68
262.409	258.56
262.626	8.7
262.842	-71.17
263.058	152.06
263.274	358.91
263.49	-62.98
263.707	-198.14
263.923	266.75
264.139	12.8
264.355	-120.32
264.571	-58.88
264.787	201.21
265.004	354.81
265.22	-54.78
265.436	-17.92
265.652	178.69
265.868	258.56
266.084	-155.13
266.3	-163.33
266.516	23.04
266.732	182.78
266.948	-87.55
267.164	-222.72
267.38	297.47
267.596	244.22
267.812	68.09
268.028	-93.69
268.244	100.86
268.46	207.36
268.676	-108.03
268.892	6.66
269.108	-7.68
269.324	27.14
269.54	-91.65
269.756	35.33
269.972	35.33
270.188	164.35
270.403	-69.12
270.619	-105.98
270.835	166.4
271.051	250.36
271.267	-108.03
271.483	-196.09
271.698	365.05
271.914	309.76
272.13	-60.93
272.346	-91.65
272.562	219.64
272.777	442.87
272.993	-9.73
273.209	-60.93
273.425	209.4
273.64	4.61
273.856	-157.18
274.072	-275.96
274.287	131.58
274.503	283.13
274.719	45.57
274.934	-153.09
275.15	14.85
275.366	178.69
275.581	-124.41
275.797	-99.84
276.012	156.16
276.228	102.91
276.444	-52.74
276.659	78.33
276.875	102.91
277.09	139.77
277.306	-54.78
277.521	-38.4
277.737	199.16
277.952	195.07
278.168	-146.94
278.383	-87.55
278.599	231.93
278.814	279.04
279.03	-85.5
279.245	-1.54
279.461	193.02
279.676	285.18
279.892	-75.26
280.107	-60.93
280.322	66.05
280.538	293.37
280.753	-77.31
280.969	-40.45
281.184	225.79
281.399	309.76
281.615	8.7
281.83	78.33
282.045	33.28
282.26	35.33
282.476	-108.03
282.691	78.33
282.906	223.74
283.122	225.79
283.337	37.38
283.552	-48.64
283.767	125.44
283.983	233.98
284.198	-60.93
284.413	-95.74
284.628	-5.63
284.843	133.63
285.058	-7.68
285.274	-67.07
285.489	53.76
285.704	145.92
285.919	-42.5
286.134	-1.54
286.349	258.56
286.564	119.29
286.779	57.86
286.995	59.9
287.21	-50.69
287.425	254.46
287.64	-124.41
287.855	55.81
288.07	-32.26
288.285	320
288.5	86.53
288.715	-17.92
288.93	152.06
289.145	66.05
289.36	-42.5
289.575	-58.88
289.79	377.34
290.004	39.42
290.219	68.09
290.434	-13.82
290.649	145.92
290.864	88.57
291.079	-3.58
291.294	4.61
291.509	252.41
291.724	143.87
291.938	-22.02
292.153	-85.5
292.368	193.02
292.583	182.78
292.798	41.47
293.012	23.04
293.227	293.37
293.442	133.63
293.657	45.57
293.871	-34.3
294.086	250.36
294.301	291.32
294.516	100.86
294.73	102.91
294.945	119.29
295.16	133.63
295.374	-17.92
295.589	45.57
295.804	107.01
296.018	168.45
296.233	-42.5
296.447	84.48
296.662	76.29
296.877	320
297.091	-36.35
297.306	78.33
297.52	115.2
297.735	248.32
297.949	-11.78
298.164	-134.65
298.378	180.73
298.593	92.67
298.807	-95.74
299.022	80.38
299.236	299.52
299.451	70.14
299.665	33.28
299.88	-36.35
300.094	307.71
300.309	74.24
300.523	29.18
300.737	-36.35
300.952	203.26
301.166	197.12
301.381	-48.64
301.595	-136.7
301.809	197.12
302.024	176.64
302.238	-38.4
302.452	117.25
302.667	168.45
302.881	233.98
303.095	55.81
303.309	96.77
303.524	135.68
303.738	150.01
303.952	66.05
304.166	41.47
304.381	-5.63
304.595	248.32
304.809	-26.11
305.023	12.8
305.237	82.43
305.452	104.96
305.666	-17.92
305.88	123.39
306.094	256.51
306.308	260.6
306.522	-58.88
306.736	59.9
306.95	338.43
307.164	96.77
307.379	6.66
307.593	66.05
307.807	238.08
308.021	227.84
308.235	150.01
308.449	-40.45
308.663	168.45
308.877	528.89
309.091	23.04
309.305	74.24
309.519	-136.7
309.733	252.41
309.947	-194.05
310.161	-26.11
310.374	154.11
310.588	385.53
310.802	-83.45
311.016	16.9
311.23	207.36
311.444	113.15
311.658	-7.68
311.872	215.55
312.085	330.23
312.299	315.9
312.513	135.68
312.727	-26.11
312.941	78.33
313.154	203.26
313.368	-42.5
313.582	29.18
313.796	117.25
314.009	145.92
314.223	154.11
314.437	47.62
314.651	233.98
314.864	88.57
315.078	-95.74
315.292	-56.83
315.505	170.49
315.719	156.16
315.933	70.14
316.146	-50.69
316.36	113.15
316.573	219.64
316.787	205.31
317.001	59.9
317.214	-44.54
317.428	268.8
317.641	-28.16
317.855	72.19
318.068	201.21
318.282	174.59
318.495	143.87
318.709	4.61
318.922	186.88
319.136	315.9
319.349	51.71
319.563	-77.31
319.776	242.17
319.99	-28.16
320.203	49.66
320.417	-42.5
320.63	207.36
320.843	244.22
321.057	84.48
321.27	-89.6
321.483	313.85
321.697	195.07
321.91	-3.58
322.124	0.51
322.337	125.44
322.55	-7.68
322.763	18.94
322.977	-58.88
323.19	150.01
323.403	78.33
323.617	129.53
323.83	244.22
324.043	184.83
324.256	125.44
324.469	-179.71
324.683	160.25
324.896	186.88
325.109	172.54
325.322	-75.26
325.535	45.57
325.748	307.71
325.962	129.53
326.175	20.99
326.388	-17.92
326.601	219.64
326.814	23.04
327.027	104.96
327.24	121.34
327.453	-28.16
327.666	272.89
327.879	180.73
328.092	74.24
328.305	279.04
328.518	70.14
328.731	-50.69
328.944	-22.02
329.157	201.21
329.37	-1.54
329.583	131.58
329.796	94.72
330.009	12.8
330.222	279.04
330.435	43.52
330.648	92.67
330.861	236.03
331.073	135.68
331.286	96.77
331.499	41.47
331.712	86.53
331.925	156.16
332.138	82.43
332.35	-75.26
332.563	152.06
332.776	297.47
332.989	-120.32
333.202	-140.8
333.414	266.75
333.627	139.77
333.84	-34.3
334.053	119.29
334.265	115.2
334.478	72.19
334.691	-32.26
334.903	143.87
335.116	123.39
335.329	104.96
335.541	137.73
335.754	227.84
335.966	129.53
336.179	236.03
336.392	20.99
336.604	47.62
336.817	184.83
337.029	307.71
337.242	-7.68
337.454	57.86
337.667	225.79
337.88	250.36
338.092	45.57
338.305	59.9
338.517	78.33
338.729	158.21
338.942	25.09
339.154	-124.41
339.367	68.09
339.579	274.94
339.792	-30.21
340.004	80.38
340.217	221.69
340.429	215.55
340.641	-28.16
340.854	-40.45
341.066	186.88
341.278	307.71
341.491	158.21
341.703	16.9
341.915	82.43
342.128	268.8
342.34	4.61
342.552	-42.5
342.764	184.83
342.977	143.87
343.189	37.38
343.401	152.06
343.613	-42.5
343.826	188.93
344.038	-24.06
344.25	53.76
344.462	14.85
344.674	145.92
344.886	-110.08
345.099	61.95
345.311	109.05
345.523	127.49
345.735	-58.88
345.947	115.2
346.159	246.27
346.371	90.62
346.583	47.62
346.795	80.38
347.007	201.21
347.219	252.41
347.431	59.9
347.643	115.2
347.855	96.77
348.067	262.65
348.279	-91.65
348.491	-17.92
348.703	367.1
348.915	190.97
349.127	-26.11
349.339	0.51
349.551	135.68
349.763	264.7
349.975	-3.58
350.187	111.1
350.399	446.97
350.61	162.3
350.822	-48.64
351.034	14.85
351.246	248.32
351.458	182.78
351.669	41.47
351.881	-19.97
352.093	391.67
352.305	260.6
352.517	-15.87
352.728	96.77
352.94	199.16
353.152	299.52
353.363	41.47
353.575	-7.68
353.787	416.25
353.999	281.08
354.21	137.73
354.422	-95.74
354.633	195.07
354.845	150.01
355.057	33.28
355.268	37.38
355.48	332.28
355.692	-36.35
355.903	4.61
356.115	-89.6
356.326	-97.79
356.538	305.66
356.749	57.86
356.961	141.82
357.172	178.69
357.384	-30.21
357.595	188.93
357.807	39.42
358.018	107.01
358.23	178.69
358.441	20.99
358.653	-5.63
358.864	201.21
359.075	96.77
359.287	-34.3
359.498	49.66
359.709	238.08
359.921	246.27
360.132	113.15
360.344	-87.55
360.555	186.88
360.766	238.08
360.977	-89.6
361.189	115.2
361.4	160.25
361.611	250.36
361.823	12.8
362.034	-11.78
362.245	-17.92
362.456	164.35
362.667	150.01
362.879	-93.69
363.09	252.41
363.301	184.83
363.512	-15.87
363.723	-9.73
363.935	121.34
364.146	389.63
364.357	6.66
364.568	53.76
364.779	49.66
364.99	367.1
365.201	-3.58
365.412	139.77
365.623	6.66
365.834	205.31
366.045	90.62
366.256	14.85
366.467	266.75
366.678	176.64
366.889	150.01
367.1	37.38
367.311	326.14
367.522	125.44
367.733	45.57
367.944	-3.58
368.155	264.7
368.366	264.7
368.577	174.59
368.788	121.34
368.999	121.34
369.209	170.49
369.42	90.62
369.631	334.33
369.842	197.12
370.053	170.49
370.264	-7.68
370.474	-26.11
370.685	338.43
370.896	160.25
371.107	76.29
371.317	98.81
371.528	205.31
371.739	414.2
371.95	139.77
372.16	104.96
372.371	41.47
372.582	55.81
372.792	88.57
373.003	166.4
373.214	295.42
373.424	221.69
373.635	-48.64
373.846	135.68
374.056	233.98
374.267	211.45
374.477	184.83
374.688	-3.58
374.898	317.95
375.109	295.42
375.319	-1.54
375.53	125.44
375.74	279.04
375.951	156.16
376.161	143.87
376.372	143.87
376.582	170.49
376.793	309.76
377.003	-50.69
377.214	4.61
377.424	211.45
377.635	184.83
377.845	88.57
378.055	113.15
378.266	6.66
378.476	225.79
378.686	31.23
378.897	90.62
379.107	344.57
379.317	307.71
379.528	-48.64
379.738	160.25
379.948	27.14
380.158	252.41
380.369	152.06
380.579	158.21
380.789	225.79
380.999	213.5
381.21	172.54
381.42	168.45
381.63	164.35
381.84	406.01
382.05	178.69
382.261	166.4
382.471	340.47
382.681	70.14
382.891	111.1
383.101	119.29
383.311	176.64
383.521	145.92
383.731	23.04
383.941	213.5
384.151	154.11
384.361	94.72
384.571	53.76
384.781	57.86
384.991	291.32
385.201	412.15
385.411	156.16
385.621	90.62
385.831	315.9
386.041	199.16
386.251	80.38
386.461	221.69
386.671	176.64
386.881	236.03
387.091	84.48
387.301	178.69
387.511	180.73
387.72	186.88
387.93	178.69
388.14	-15.87
388.35	190.97
388.56	391.67
388.769	53.76
388.979	41.47
389.189	37.38
389.399	250.36
389.609	-24.06
389.818	193.02
390.028	307.71
390.238	279.04
390.447	-9.73
390.657	70.14
390.867	195.07
391.076	86.53
391.286	88.57
391.496	37.38
391.705	326.14
391.915	389.63
392.125	49.66
392.334	98.81
392.544	377.34
392.753	201.21
392.963	53.76
393.172	39.42
393.382	174.59
393.591	442.87
393.801	-11.78
394.01	39.42
394.22	254.46
394.429	213.5
394.639	104.96
394.848	168.45
395.058	358.91
395.267	283.13
395.477	154.11
395.686	219.64
395.895	600.57
396.105	375.29
396.314	119.29
396.524	111.1
396.733	131.58
396.942	262.65
397.152	70.14
397.361	258.56
397.57	254.46
397.78	190.97
397.989	240.12
398.198	369.15
398.407	199.16
398.617	215.55
398.826	113.15
399.035	109.05
399.244	309.76
399.453	287.23
399.663	113.15
399.872	53.76
400.081	164.35
400.29	444.92
400.499	35.33
400.708	115.2
400.917	229.88
401.127	166.4
401.336	94.72
401.545	395.77
401.754	375.29
401.963	487.93
402.172	129.53
402.381	76.29
402.59	303.61
402.799	244.22
403.008	268.8
403.217	211.45
403.426	320
403.635	78.33
403.844	18.94
404.053	72.19
404.262	266.75
404.471	426.49
404.68	107.01
404.888	219.64
405.097	225.79
405.306	307.71
405.515	152.06
405.724	59.9
405.933	365.05
406.142	279.04
406.35	217.6
406.559	168.45
406.768	274.94
406.977	557.56
407.185	109.05
407.394	260.6
407.603	197.12
407.812	381.43
408.02	190.97
408.229	223.74
408.438	373.24
408.646	55.81
408.855	129.53
409.064	162.3
409.272	178.69
409.481	414.2
409.69	141.82
409.898	-13.82
410.107	373.24
410.315	418.3
410.524	139.77
410.733	104.96
410.941	334.33
411.15	455.16
411.358	160.25
411.567	291.32
411.775	293.37
411.984	295.42
412.192	297.47
412.401	61.95
412.609	489.98
412.818	365.05
413.026	217.6
413.234	117.25
413.443	293.37
413.651	209.4
413.86	59.9
414.068	373.24
414.276	487.93
414.485	268.8
414.693	164.35
414.901	410.11
415.11	410.11
415.318	360.95
415.526	242.17
415.734	287.23
415.943	338.43
416.151	485.88
416.359	80.38
416.567	211.45
416.776	377.34
416.984	406.01
417.192	197.12
417.4	166.4
417.608	254.46
417.817	287.23
418.025	268.8
418.233	252.41
418.441	225.79
418.649	188.93
418.857	283.13
419.065	274.94
419.273	289.28
419.481	414.2
419.689	350.71
419.897	156.16
420.105	209.4
420.313	469.5
420.521	260.6
420.729	289.28
420.937	287.23
421.145	193.02
421.353	295.42
421.561	354.81
421.769	434.68
421.977	244.22
422.185	299.52
422.393	369.15
422.601	481.78
422.809	383.48
423.017	287.23
423.224	295.42
423.432	508.41
423.64	426.49
423.848	248.32
424.056	195.07
424.263	555.51
424.471	424.44
424.679	350.71
424.887	190.97
425.094	653.81
425.302	561.66
425.51	221.69
425.718	418.3
425.925	469.5
426.133	389.63
426.341	438.78
426.548	375.29
426.756	432.63
426.964	524.79
427.171	436.73
427.379	479.74
427.586	639.48
427.794	645.62
428.001	473.59
428.209	406.01
428.417	735.73
428.624	612.85
428.832	528.89
429.039	457.21
429.247	586.23
429.454	705.01
429.662	582.14
429.869	524.79
430.076	711.16
430.284	668.15
430.491	561.66
430.699	629.24
430.906	885.23
431.114	756.21
431.321	633.33
431.528	571.9
431.736	713.21
431.943	791.03
432.15	608.76
432.358	635.38
432.565	1026.54
432.772	549.37
432.979	788.98
433.187	698.87
433.394	973.3
433.601	791.03
433.808	768.5
434.016	920.05
434.223	965.11
434.43	930.29
434.637	905.71
434.844	905.71
435.052	1094.13
435.259	1065.46
435.466	997.87
435.673	1051.12
435.88	1225.2
436.087	1331.69
436.294	1255.92
436.501	1149.42
436.708	1270.25
436.915	1356.27
437.122	1249.77
437.329	1110.51
437.537	1288.68
437.743	1313.26
437.95	1386.99
438.157	1217.01
438.364	1444.33
438.571	1409.51
438.778	1309.16
438.985	1475.05
439.192	1573.35
439.399	1595.88
439.606	1520.1
439.813	1610.22
440.02	1989.09
440.227	2054.62
440.433	1593.83
440.64	1708.52
440.847	1825.25
441.054	1798.63
441.261	1935.84
441.467	1954.27
441.674	1962.47
441.881	2249.18
442.088	1917.41
442.294	1984.99
442.501	2249.18
442.708	2238.94
442.914	2179.55
443.121	2245.09
443.328	2513.37
443.534	2744.79
443.741	2347.48
443.948	2314.72
444.154	2734.55
444.361	2888.15
444.568	2462.17
444.774	2642.39
444.981	2685.4
445.187	2961.87
445.394	3037.65
445.6	2904.53
445.807	3140.05
446.013	3127.76
446.22	3062.23
446.426	3336.65
446.633	3516.87
446.839	3805.64
447.046	3312.08
447.252	3756.49
447.459	4004.29
447.665	3879.36
447.871	3912.13
448.078	4460.99
448.284	4233.66
448.491	4469.18
448.697	4436.41
448.903	4602.3
449.11	4841.91
449.316	4716.98
449.522	4968.88
449.728	5132.72
449.935	5396.91
450.141	5312.94
450.347	5654.95
450.553	5558.7
450.76	5833.13
450.966	6021.54
451.172	5996.96
451.378	6193.57
451.584	6357.41
451.791	6869.4
451.997	6666.65
452.203	6842.78
452.409	7305.62
452.615	7291.28
452.821	6922.65
453.027	7211.41
453.233	7868.81
453.44	7578
453.646	7692.68
453.852	8028.55
454.058	8184.2
454.264	8262.02
454.47	8597.88
454.676	8284.55
454.882	9140.6
455.088	8432
455.294	8790.39
455.5	8954.23
455.705	9589.1
455.911	9070.97
456.117	9128.31
456.323	9187.7
456.529	8878.46
456.735	9558.38
456.941	9329.01
457.147	9384.3
457.352	9763.18
457.558	9447.79
457.764	9660.78
457.97	9439.6
458.176	9787.75
458.381	9695.6
458.587	9429.36
458.793	9369.97
458.999	9353.59
459.204	10162.53
459.41	9777.51
459.616	9587.05
459.821	9726.32
460.027	9650.54
460.233	9462.13
460.438	9310.58
