Data from USB4F104151__19__11-51-18-530.txt Node

Date: Fri Mar 14 11:51:18 EDT 2025
User: louis
Spectrometer: USB4F10415
Trigger mode: 4
Integration Time (sec): 2.000000E-2
Scans to average: 1
Electric dark correction enabled: true
Nonlinearity correction enabled: false
Boxcar width: 0
XAxis mode: Wavelengths
Number of Pixels in Spectrum: 3648
>>>>>Begin Spectral Data<<<<<
178.204	-87.72
178.424	-87.72
178.644	-87.72
178.864	-120.49
179.084	-57
179.304	-11.95
179.524	-9.9
179.744	-16.04
179.964	-22.19
180.184	26.96
180.404	-28.33
180.624	-9.9
180.844	49.49
181.064	-20.14
181.283	33.11
181.503	-26.28
181.723	35.16
181.943	8.53
182.163	51.54
182.383	-67.24
182.602	-3.75
182.822	4.44
183.042	45.4
183.262	41.3
183.482	-13.99
183.701	-28.33
183.921	18.77
184.141	-52.91
184.361	12.63
184.58	-5.8
184.8	-81.58
185.02	18.77
185.239	80.21
185.459	12.63
185.679	76.12
185.898	-13.99
186.118	2.39
186.338	61.78
186.557	51.54
186.777	18.77
186.997	-11.95
187.216	20.82
187.436	67.92
187.655	8.53
187.875	63.83
188.095	31.06
188.314	22.87
188.534	-22.19
188.753	53.59
188.973	65.88
189.192	14.68
189.412	41.3
189.631	100.69
189.851	-46.76
190.07	117.08
190.29	-22.19
190.509	16.73
190.729	-11.95
190.948	61.78
191.168	141.65
191.387	37.2
191.607	-38.57
191.826	65.88
192.045	33.11
192.265	104.79
192.484	47.44
192.704	33.11
192.923	-5.8
193.142	24.92
193.362	92.5
193.581	90.45
193.8	45.4
194.02	78.16
194.239	41.3
194.458	74.07
194.678	43.35
194.897	72.02
195.116	-20.14
195.335	65.88
195.555	-61.1
195.774	-9.9
195.993	92.5
196.212	-13.99
196.432	-50.86
196.651	24.92
196.87	47.44
197.089	51.54
197.308	22.87
197.528	22.87
197.747	-52.91
197.966	115.03
198.185	6.49
198.404	43.35
198.623	22.87
198.842	45.4
199.062	29.01
199.281	18.77
199.5	24.92
199.719	72.02
199.938	37.2
200.157	41.3
200.376	-42.67
200.595	59.73
200.814	0.34
201.033	22.87
201.252	76.12
201.471	10.58
201.69	82.26
201.909	31.06
202.128	49.49
202.347	33.11
202.566	78.16
202.785	-11.95
203.004	0.34
203.223	80.21
203.442	43.35
203.661	47.44
203.879	31.06
204.098	100.69
204.317	-13.99
204.536	22.87
204.755	26.96
204.974	59.73
205.193	-9.9
205.411	57.68
205.63	-3.75
205.849	139.6
206.068	47.44
206.287	29.01
206.505	31.06
206.724	45.4
206.943	-20.14
207.162	-34.47
207.381	14.68
207.599	6.49
207.818	4.44
208.037	41.3
208.255	24.92
208.474	33.11
208.693	31.06
208.911	29.01
209.13	80.21
209.349	67.92
209.567	12.63
209.786	78.16
210.005	-59.05
210.223	6.49
210.442	-18.09
210.661	-38.57
210.879	18.77
211.098	-40.62
211.316	-30.38
211.535	69.97
211.753	22.87
211.972	31.06
212.191	47.44
212.409	67.92
212.628	41.3
212.846	35.16
213.065	-16.04
213.283	51.54
213.502	35.16
213.72	43.35
213.938	10.58
214.157	12.63
214.375	121.17
214.594	12.63
214.812	37.2
215.031	10.58
215.249	-75.43
215.467	45.4
215.686	6.49
215.904	63.83
216.122	74.07
216.341	10.58
216.559	-13.99
216.778	53.59
216.996	2.39
217.214	-26.28
217.432	29.01
217.651	47.44
217.869	41.3
218.087	-38.57
218.306	-20.14
218.524	-1.71
218.742	55.64
218.96	67.92
219.179	51.54
219.397	31.06
219.615	84.31
219.833	-20.14
220.051	4.44
220.27	37.2
220.488	39.25
220.706	-5.8
220.924	22.87
221.142	63.83
221.36	102.74
221.578	-16.04
221.796	12.63
222.015	43.35
222.233	47.44
222.451	2.39
222.669	-30.38
222.887	74.07
223.105	-13.99
223.323	-11.95
223.541	-1.71
223.759	18.77
223.977	4.44
224.195	12.63
224.413	41.3
224.631	49.49
224.849	74.07
225.067	88.4
225.285	12.63
225.503	51.54
225.721	-34.47
225.939	-3.75
226.157	39.25
226.375	92.5
226.592	22.87
226.81	-9.9
227.028	-20.14
227.246	65.88
227.464	2.39
227.682	-1.71
227.9	43.35
228.117	49.49
228.335	49.49
228.553	8.53
228.771	41.3
228.989	47.44
229.206	-22.19
229.424	-28.33
229.642	-11.95
229.86	2.39
230.077	-3.75
230.295	26.96
230.513	86.36
230.731	-24.23
230.948	39.25
231.166	108.88
231.384	-65.19
231.601	96.6
231.819	14.68
232.037	26.96
232.254	-13.99
232.472	22.87
232.689	-32.43
232.907	65.88
233.125	-9.9
233.342	16.73
233.56	-38.57
233.777	10.58
233.995	65.88
234.213	108.88
234.43	22.87
234.648	74.07
234.865	82.26
235.083	76.12
235.3	4.44
235.518	51.54
235.735	20.82
235.953	43.35
236.17	51.54
236.388	39.25
236.605	90.45
236.822	14.68
237.04	39.25
237.257	43.35
237.475	55.64
237.692	78.16
237.909	41.3
238.127	41.3
238.344	55.64
238.562	10.58
238.779	8.53
238.996	33.11
239.214	37.2
239.431	43.35
239.648	22.87
239.865	29.01
240.083	49.49
240.3	63.83
240.517	-22.19
240.735	74.07
240.952	86.36
241.169	31.06
241.386	2.39
241.603	18.77
241.821	-16.04
242.038	115.03
242.255	49.49
242.472	-28.33
242.689	4.44
242.907	115.03
243.124	26.96
243.341	49.49
243.558	8.53
243.775	37.2
243.992	-61.1
244.209	-44.71
244.426	4.44
244.643	47.44
244.86	22.87
245.078	-42.67
245.295	47.44
245.512	-7.85
245.729	-1.71
245.946	2.39
246.163	0.34
246.38	41.3
246.597	67.92
246.814	47.44
247.031	-30.38
247.248	45.4
247.464	12.63
247.681	14.68
247.898	84.31
248.115	16.73
248.332	16.73
248.549	76.12
248.766	94.55
248.983	-5.8
249.2	35.16
249.417	14.68
249.633	4.44
249.85	100.69
250.067	-9.9
250.284	63.83
250.501	59.73
250.717	106.84
250.934	16.73
251.151	8.53
251.368	22.87
251.585	78.16
251.801	43.35
252.018	12.63
252.235	43.35
252.451	31.06
252.668	-54.95
252.885	45.4
253.102	-1.71
253.318	24.92
253.535	-24.23
253.752	69.97
253.968	-32.43
254.185	-5.8
254.401	-42.67
254.618	-71.34
254.835	-16.04
255.051	33.11
255.268	22.87
255.484	57.68
255.701	74.07
255.917	-7.85
256.134	6.49
256.351	26.96
256.567	6.49
256.784	127.32
257	-106.15
257.217	49.49
257.433	24.92
257.65	74.07
257.866	82.26
258.082	-20.14
258.299	-13.99
258.515	-5.8
258.732	76.12
258.948	31.06
259.165	-1.71
259.381	-16.04
259.597	2.39
259.814	-3.75
260.03	55.64
260.246	39.25
260.463	57.68
260.679	41.3
260.895	-1.71
261.112	18.77
261.328	-32.43
261.544	16.73
261.761	86.36
261.977	-75.43
262.193	-7.85
262.409	115.03
262.626	8.53
262.842	-7.85
263.058	43.35
263.274	45.4
263.49	18.77
263.707	59.73
263.923	51.54
264.139	45.4
264.355	53.59
264.571	43.35
264.787	35.16
265.004	29.01
265.22	-18.09
265.436	31.06
265.652	29.01
265.868	0.34
266.084	0.34
266.3	-7.85
266.516	-5.8
266.732	-22.19
266.948	14.68
267.164	67.92
267.38	14.68
267.596	67.92
267.812	88.4
268.028	14.68
268.244	2.39
268.46	55.64
268.676	67.92
268.892	49.49
269.108	-9.9
269.324	33.11
269.54	2.39
269.756	24.92
269.972	-50.86
270.188	49.49
270.403	4.44
270.619	88.4
270.835	102.74
271.051	43.35
271.267	6.49
271.483	-16.04
271.698	-32.43
271.914	8.53
272.13	-32.43
272.346	65.88
272.562	-1.71
272.777	43.35
272.993	78.16
273.209	6.49
273.425	57.68
273.64	51.54
273.856	-11.95
274.072	74.07
274.287	26.96
274.503	16.73
274.719	-3.75
274.934	6.49
275.15	-20.14
275.366	37.2
275.581	-1.71
275.797	22.87
276.012	43.35
276.228	88.4
276.444	14.68
276.659	72.02
276.875	26.96
277.09	8.53
277.306	-44.71
277.521	43.35
277.737	20.82
277.952	57.68
278.168	16.73
278.383	-28.33
278.599	35.16
278.814	2.39
279.03	102.74
279.245	47.44
279.461	98.64
279.676	8.53
279.892	84.31
280.107	-44.71
280.322	10.58
280.538	53.59
280.753	8.53
280.969	8.53
281.184	55.64
281.399	41.3
281.615	22.87
281.83	-28.33
282.045	61.78
282.26	82.26
282.476	-18.09
282.691	106.84
282.906	-16.04
283.122	102.74
283.337	14.68
283.552	72.02
283.767	16.73
283.983	63.83
284.198	22.87
284.413	100.69
284.628	12.63
284.843	61.78
285.058	4.44
285.274	24.92
285.489	-48.81
285.704	86.36
285.919	22.87
286.134	-13.99
286.349	53.59
286.564	16.73
286.779	51.54
286.995	12.63
287.21	14.68
287.425	22.87
287.64	49.49
287.855	76.12
288.07	49.49
288.285	14.68
288.5	2.39
288.715	76.12
288.93	26.96
289.145	41.3
289.36	80.21
289.575	29.01
289.79	90.45
290.004	67.92
290.219	31.06
290.434	-24.23
290.649	-11.95
290.864	74.07
291.079	-34.47
291.294	86.36
291.509	31.06
291.724	78.16
291.938	47.44
292.153	4.44
292.368	72.02
292.583	0.34
292.798	-1.71
293.012	76.12
293.227	43.35
293.442	55.64
293.657	108.88
293.871	22.87
294.086	35.16
294.301	53.59
294.516	12.63
294.73	119.12
294.945	4.44
295.16	59.73
295.374	74.07
295.589	4.44
295.804	2.39
296.018	12.63
296.233	112.98
296.447	12.63
296.662	84.31
296.877	26.96
297.091	37.2
297.306	61.78
297.52	-28.33
297.735	14.68
297.949	51.54
298.164	119.12
298.378	72.02
298.593	6.49
298.807	14.68
299.022	-3.75
299.236	57.68
299.451	2.39
299.665	57.68
299.88	-22.19
300.094	55.64
300.309	-3.75
300.523	6.49
300.737	61.78
300.952	6.49
301.166	12.63
301.381	-20.14
301.595	18.77
301.809	55.64
302.024	24.92
302.238	12.63
302.452	86.36
302.667	-9.9
302.881	80.21
303.095	41.3
303.309	16.73
303.524	6.49
303.738	74.07
303.952	-7.85
304.166	2.39
304.381	-30.38
304.595	31.06
304.809	-7.85
305.023	65.88
305.237	57.68
305.452	18.77
305.666	-32.43
305.88	16.73
306.094	45.4
306.308	41.3
306.522	22.87
306.736	29.01
306.95	-9.9
307.164	6.49
307.379	67.92
307.593	26.96
307.807	108.88
308.021	-1.71
308.235	41.3
308.449	43.35
308.663	-11.95
308.877	76.12
309.091	-9.9
309.305	53.59
309.519	-36.52
309.733	31.06
309.947	4.44
310.161	59.73
310.374	43.35
310.588	-20.14
310.802	2.39
311.016	-48.81
311.23	53.59
311.444	-32.43
311.658	61.78
311.872	45.4
312.085	43.35
312.299	45.4
312.513	-26.28
312.727	74.07
312.941	8.53
313.154	47.44
313.368	45.4
313.582	47.44
313.796	102.74
314.009	-9.9
314.223	45.4
314.437	31.06
314.651	20.82
314.864	69.97
315.078	22.87
315.292	74.07
315.505	-26.28
315.719	65.88
315.933	45.4
316.146	86.36
316.36	37.2
316.573	37.2
316.787	29.01
317.001	18.77
317.214	-7.85
317.428	14.68
317.641	8.53
317.855	-26.28
318.068	80.21
318.282	-3.75
318.495	94.55
318.709	31.06
318.922	6.49
319.136	43.35
319.349	65.88
319.563	88.4
319.776	61.78
319.99	31.06
320.203	16.73
320.417	20.82
320.63	39.25
320.843	41.3
321.057	43.35
321.27	63.83
321.483	10.58
321.697	98.64
321.91	-46.76
322.124	-22.19
322.337	41.3
322.55	63.83
322.763	55.64
322.977	39.25
323.19	43.35
323.403	43.35
323.617	20.82
323.83	94.55
324.043	14.68
324.256	-9.9
324.469	57.68
324.683	110.93
324.896	98.64
325.109	43.35
325.322	14.68
325.535	49.49
325.748	35.16
325.962	57.68
326.175	18.77
326.388	59.73
326.601	43.35
326.814	-32.43
327.027	10.58
327.24	53.59
327.453	-7.85
327.666	12.63
327.879	119.12
328.092	-26.28
328.305	74.07
328.518	16.73
328.731	24.92
328.944	92.5
329.157	18.77
329.37	35.16
329.583	69.97
329.796	26.96
330.009	2.39
330.222	-24.23
330.435	24.92
330.648	33.11
330.861	67.92
331.073	-36.52
331.286	88.4
331.499	16.73
331.712	-13.99
331.925	59.73
332.138	-89.77
332.35	61.78
332.563	-34.47
332.776	49.49
332.989	-40.62
333.202	-9.9
333.414	2.39
333.627	98.64
333.84	-16.04
334.053	94.55
334.265	-7.85
334.478	67.92
334.691	90.45
334.903	-1.71
335.116	-13.99
335.329	2.39
335.541	88.4
335.754	65.88
335.966	61.78
336.179	-13.99
336.392	47.44
336.604	51.54
336.817	45.4
337.029	47.44
337.242	-9.9
337.454	67.92
337.667	86.36
337.88	8.53
338.092	-3.75
338.305	53.59
338.517	-20.14
338.729	29.01
338.942	92.5
339.154	-20.14
339.367	63.83
339.579	-61.1
339.792	-7.85
340.004	-20.14
340.217	61.78
340.429	82.26
340.641	0.34
340.854	20.82
341.066	94.55
341.278	65.88
341.491	63.83
341.703	61.78
341.915	-38.57
342.128	31.06
342.34	49.49
342.552	-3.75
342.764	43.35
342.977	-22.19
343.189	4.44
343.401	-20.14
343.613	31.06
343.826	31.06
344.038	74.07
344.25	20.82
344.462	61.78
344.674	39.25
344.886	47.44
345.099	-26.28
345.311	61.78
345.523	57.68
345.735	22.87
345.947	33.11
346.159	55.64
346.371	-30.38
346.583	20.82
346.795	72.02
347.007	49.49
347.219	82.26
347.431	0.34
347.643	158.03
347.855	-20.14
348.067	-24.23
348.279	80.21
348.491	63.83
348.703	24.92
348.915	55.64
349.127	51.54
349.339	26.96
349.551	104.79
349.763	88.4
349.975	33.11
350.187	22.87
350.399	57.68
350.61	-3.75
350.822	37.2
351.034	39.25
351.246	104.79
351.458	74.07
351.669	65.88
351.881	31.06
352.093	82.26
352.305	43.35
352.517	74.07
352.728	131.41
352.94	31.06
353.152	139.6
353.363	53.59
353.575	100.69
353.787	51.54
353.999	29.01
354.21	80.21
354.422	35.16
354.633	131.41
354.845	18.77
355.057	45.4
355.268	-11.95
355.48	131.41
355.692	20.82
355.903	16.73
356.115	63.83
356.326	49.49
356.538	108.88
356.749	45.4
356.961	65.88
357.172	-18.09
357.384	59.73
357.595	155.99
357.807	39.25
358.018	-24.23
358.23	26.96
358.441	2.39
358.653	65.88
358.864	-20.14
359.075	31.06
359.287	67.92
359.498	74.07
359.709	94.55
359.921	37.2
360.132	33.11
360.344	-16.04
360.555	-1.71
360.766	-28.33
360.977	49.49
361.189	33.11
361.4	88.4
361.611	121.17
361.823	67.92
362.034	67.92
362.245	43.35
362.456	84.31
362.667	45.4
362.879	16.73
363.09	100.69
363.301	72.02
363.512	119.12
363.723	-30.38
363.935	37.2
364.146	35.16
364.357	26.96
364.568	78.16
364.779	18.77
364.99	92.5
365.201	12.63
365.412	22.87
365.623	-5.8
365.834	4.44
366.045	-26.28
366.256	84.31
366.467	57.68
366.678	76.12
366.889	45.4
367.1	47.44
367.311	67.92
367.522	63.83
367.733	4.44
367.944	84.31
368.155	37.2
368.366	63.83
368.577	26.96
368.788	72.02
368.999	49.49
369.209	72.02
369.42	67.92
369.631	121.17
369.842	35.16
370.053	57.68
370.264	88.4
370.474	-28.33
370.685	18.77
370.896	104.79
371.107	6.49
371.317	80.21
371.528	127.32
371.739	80.21
371.95	80.21
372.16	121.17
372.371	53.59
372.582	61.78
372.792	47.44
373.003	84.31
373.214	2.39
373.424	49.49
373.635	100.69
373.846	108.88
374.056	10.58
374.267	6.49
374.477	18.77
374.688	47.44
374.898	131.41
375.109	49.49
375.319	-18.09
375.53	35.16
375.74	61.78
375.951	98.64
376.161	20.82
376.372	158.03
376.582	-48.81
376.793	59.73
377.003	37.2
377.214	6.49
377.424	76.12
377.635	43.35
377.845	63.83
378.055	153.94
378.266	-34.47
378.476	6.49
378.686	53.59
378.897	33.11
379.107	141.65
379.317	131.41
379.528	4.44
379.738	119.12
379.948	20.82
380.158	80.21
380.369	-24.23
380.579	35.16
380.789	29.01
380.999	-11.95
381.21	100.69
381.42	100.69
381.63	37.2
381.84	78.16
382.05	78.16
382.261	65.88
382.471	78.16
382.681	67.92
382.891	164.18
383.101	31.06
383.311	37.2
383.521	137.56
383.731	80.21
383.941	76.12
384.151	98.64
384.361	47.44
384.571	78.16
384.781	37.2
384.991	100.69
385.201	63.83
385.411	4.44
385.621	33.11
385.831	26.96
386.041	16.73
386.251	80.21
386.461	65.88
386.671	55.64
386.881	29.01
387.091	94.55
387.301	47.44
387.511	121.17
387.72	16.73
387.93	35.16
388.14	57.68
388.35	92.5
388.56	41.3
388.769	29.01
388.979	104.79
389.189	61.78
389.399	65.88
389.609	41.3
389.818	69.97
390.028	33.11
390.238	86.36
390.447	74.07
390.657	22.87
390.867	86.36
391.076	63.83
391.286	45.4
391.496	-26.28
391.705	72.02
391.915	90.45
392.125	88.4
392.334	22.87
392.544	166.23
392.753	65.88
392.963	-3.75
393.172	94.55
393.382	49.49
393.591	115.03
393.801	121.17
394.01	63.83
394.22	67.92
394.429	121.17
394.639	80.21
394.848	65.88
395.058	53.59
395.267	53.59
395.477	59.73
395.686	160.08
395.895	139.6
396.105	123.22
396.314	45.4
396.524	123.22
396.733	80.21
396.942	121.17
397.152	151.89
397.361	137.56
397.57	104.79
397.78	192.85
397.989	76.12
398.198	96.6
398.407	84.31
398.617	110.93
398.826	74.07
399.035	117.08
399.244	102.74
399.453	74.07
399.663	129.36
399.872	131.41
400.081	59.73
400.29	147.8
400.499	153.94
400.708	125.27
400.917	35.16
401.127	125.27
401.336	115.03
401.545	133.46
401.754	67.92
401.963	115.03
402.172	170.32
402.381	143.7
402.59	63.83
402.799	57.68
403.008	180.56
403.217	133.46
403.426	168.27
403.635	188.75
403.844	127.32
404.053	110.93
404.262	80.21
404.471	252.24
404.68	217.43
404.888	162.13
405.097	145.75
405.306	121.17
405.515	188.75
405.724	196.95
405.933	160.08
406.142	170.32
406.35	180.56
406.559	186.71
406.768	211.28
406.977	151.89
407.185	250.19
407.394	172.37
407.603	137.56
407.812	151.89
408.02	239.95
408.229	295.25
408.438	205.14
408.646	217.43
408.855	211.28
409.064	231.76
409.272	260.43
409.481	289.1
409.69	280.91
409.898	264.53
410.107	315.73
410.315	287.06
410.524	328.02
410.733	301.39
410.941	309.58
411.15	375.12
411.358	381.26
411.567	444.75
411.775	352.59
411.984	395.6
412.192	475.47
412.401	411.98
412.609	512.33
412.818	547.15
413.026	444.75
413.234	473.42
413.443	522.57
413.651	495.95
413.86	684.36
414.068	561.48
414.276	612.68
414.485	659.79
414.693	661.84
414.901	676.17
415.11	749.9
415.318	776.52
415.526	715.08
415.734	655.69
415.943	835.91
416.151	887.11
416.359	831.82
416.567	897.35
416.776	928.07
416.984	956.74
417.192	1014.09
417.4	960.84
417.608	1016.13
417.817	1040.71
418.025	1126.72
418.233	1112.39
418.441	1120.58
418.649	1290.56
418.857	1296.71
419.065	1345.86
419.273	1270.08
419.481	1382.72
419.689	1487.17
419.897	1569.09
420.105	1548.61
420.313	1622.33
420.521	1734.97
420.729	1648.96
420.937	1773.88
421.145	1870.14
421.353	1974.58
421.561	1945.91
421.769	2040.12
421.977	2109.75
422.185	2101.56
422.393	2154.8
422.601	2326.83
422.809	2335.03
423.017	2212.15
423.224	2554.16
423.432	2505.01
423.64	2552.11
423.848	2656.56
424.056	2787.63
424.263	2828.59
424.471	2937.13
424.679	3064.1
424.887	3156.26
425.094	3365.15
425.302	3293.48
425.51	3297.57
425.718	3553.57
425.925	3410.21
426.133	3719.45
426.341	3981.59
426.548	3905.82
426.756	3936.54
426.964	4038.94
427.171	4272.4
427.379	4339.99
427.586	4663.57
427.794	4665.61
428.001	4831.5
428.209	5185.8
428.417	4981
428.624	5316.87
428.832	5325.06
429.039	5406.98
429.247	5271.81
429.454	5837.05
429.662	6347
429.869	5855.48
430.076	6326.52
430.284	5959.93
430.491	6236.41
430.699	6703.34
430.906	6717.68
431.114	6877.42
431.321	6965.48
431.528	7268.58
431.736	7502.05
431.943	7688.42
432.15	7987.42
432.358	7837.92
432.565	8171.74
432.772	8138.97
432.979	8779.98
433.187	8696.02
433.394	8745.17
433.601	9382.09
433.808	9367.75
434.016	9314.5
434.223	9910.46
434.43	10315.96
434.637	10201.27
434.844	10854.58
435.052	11028.65
435.259	10918.06
435.466	10985.65
435.673	11051.18
435.88	11583.65
436.087	12155.04
436.294	12292.25
436.501	12087.45
436.708	12220.57
436.915	12642.45
437.122	13209.74
437.329	13252.75
437.537	13541.51
437.743	13846.66
437.95	13826.18
438.157	14680.18
438.364	14723.19
438.571	15046.77
438.778	14975.09
438.985	16457.82
439.192	15919.2
439.399	16158.81
439.606	15595.62
439.813	16711.77
440.02	17834.05
440.227	17367.12
440.433	17141.84
440.64	17840.2
440.847	17743.94
441.054	18423.87
441.261	19476.52
441.467	19136.56
441.674	19558.44
441.881	20234.27
442.088	20037.67
442.294	19845.16
442.501	20467.74
442.708	20785.18
442.914	21760.01
443.121	22691.84
443.328	21889.03
443.534	23480.3
443.741	22923.26
443.948	22456.32
444.154	24354.79
444.361	24141.8
444.568	24223.72
444.774	24344.55
444.981	24661.98
445.187	25237.46
445.394	26472.39
445.6	26249.16
445.807	28413.86
446.013	27414.45
446.22	27957.16
446.426	29292.44
446.633	29228.95
446.839	30316.42
447.046	28719.01
447.252	30502.79
447.459	30314.37
447.665	30609.28
447.871	31799.15
448.078	32929.63
448.284	31518.58
448.491	32743.27
448.697	33693.52
448.903	34064.21
449.11	34508.61
449.316	33763.15
449.522	34617.16
449.728	35422.01
449.935	35665.72
450.141	35618.61
450.347	36321.07
450.553	35376.95
450.76	35727.16
450.966	37314.33
451.172	36359.98
451.378	37463.83
451.584	36564.78
451.791	37429.02
451.997	37560.09
452.203	38192.91
452.409	38272.78
452.615	38014.74
452.821	36843.3
453.027	36325.16
453.233	37564.18
453.44	36853.54
453.646	36986.66
453.852	36953.89
454.058	37617.43
454.264	36652.84
454.47	37383.96
454.676	36534.06
454.882	37424.92
455.088	34504.52
455.294	34930.5
455.5	35684.15
455.705	35888.95
455.911	34187.08
456.117	33746.77
456.323	33132.38
456.529	31704.95
456.735	32583.52
456.941	31735.67
457.147	31641.46
457.352	30691.2
457.558	30478.21
457.764	30418.82
457.97	29558.67
458.176	29134.74
458.381	29312.92
458.587	27400.12
458.793	27563.95
458.999	26187.72
459.204	28102.57
459.41	27350.96
459.616	25554.9
459.821	25327.57
460.027	25331.67
460.233	24670.17
460.438	23701.48
460.644	23861.23
460.85	23039.99
461.055	22329.34
461.261	22521.85
461.466	21032.98
461.672	20264.99
461.878	21737.48
462.083	19812.39
462.289	19779.62
462.494	19599.4
462.7	18485.31
462.905	18108.48
463.111	18507.83
463.316	18759.74
463.522	18509.88
463.727	18708.54
463.932	18628.67
464.138	18505.79
464.343	18128.96
464.549	17823.81
464.754	18350.14
464.959	18376.76
465.165	17987.65
465.37	17289.29
465.575	17025.11
465.781	17719.37
465.986	17428.56
466.191	17066.06
466.397	16781.4
466.602	16128.1
466.807	16588.89
467.012	16525.4
467.218	16183.39
467.423	16279.64
467.628	16537.69
