Data from USB4F104151__56__11-52-26-303.txt Node

Date: Fri Mar 14 11:52:26 EDT 2025
User: louis
Spectrometer: USB4F10415
Trigger mode: 4
Integration Time (sec): 2.000000E-2
Scans to average: 1
Electric dark correction enabled: true
Nonlinearity correction enabled: false
Boxcar width: 0
XAxis mode: Wavelengths
Number of Pixels in Spectrum: 3648
>>>>>Begin Spectral Data<<<<<
178.204	-101.89
178.424	-101.89
178.644	-101.89
178.864	-24.06
179.084	-62.98
179.304	-42.5
179.524	-124.41
179.744	-7.68
179.964	37.38
180.184	12.8
180.404	14.85
180.624	-26.11
180.844	4.61
181.064	29.18
181.283	43.52
181.503	10.75
181.723	47.62
181.943	-110.08
182.163	31.23
182.383	25.09
182.602	25.09
182.822	55.81
183.042	27.14
183.262	53.76
183.482	41.47
183.701	59.9
183.921	14.85
184.141	-52.74
184.361	86.53
184.58	92.67
184.8	51.71
185.02	66.05
185.239	49.66
185.459	31.23
185.679	64
185.898	-28.16
186.118	2.56
186.338	14.85
186.557	31.23
186.777	27.14
186.997	12.8
187.216	64
187.436	53.76
187.655	43.52
187.875	94.72
188.095	90.62
188.314	82.43
188.534	57.86
188.753	55.81
188.973	96.77
189.192	45.57
189.412	41.47
189.631	41.47
189.851	14.85
190.07	37.38
190.29	53.76
190.509	16.9
190.729	43.52
190.948	90.62
191.168	45.57
191.387	14.85
191.607	90.62
191.826	39.42
192.045	31.23
192.265	59.9
192.484	8.7
192.704	51.71
192.923	-11.78
193.142	47.62
193.362	43.52
193.581	94.72
193.8	18.94
194.02	64
194.239	70.14
194.458	18.94
194.678	10.75
194.897	70.14
195.116	18.94
195.335	61.95
195.555	33.28
195.774	57.86
195.993	68.09
196.212	55.81
196.432	-1.54
196.651	-50.69
196.87	12.8
197.089	82.43
197.308	86.53
197.528	37.38
197.747	2.56
197.966	49.66
198.185	12.8
198.404	8.7
198.623	35.33
198.842	82.43
199.062	53.76
199.281	35.33
199.5	109.05
199.719	31.23
199.938	20.99
200.157	35.33
200.376	80.38
200.595	76.29
200.814	113.15
201.033	59.9
201.252	107.01
201.471	76.29
201.69	72.19
201.909	25.09
202.128	33.28
202.347	41.47
202.566	-73.21
202.785	86.53
203.004	25.09
203.223	158.21
203.442	8.7
203.661	41.47
203.879	31.23
204.098	53.76
204.317	43.52
204.536	-28.16
204.755	74.24
204.974	18.94
205.193	74.24
205.411	156.16
205.63	0.51
205.849	111.1
206.068	47.62
206.287	23.04
206.505	64
206.724	51.71
206.943	45.57
207.162	70.14
207.381	47.62
207.599	27.14
207.818	82.43
208.037	51.71
208.255	23.04
208.474	51.71
208.693	35.33
208.911	64
209.13	10.75
209.349	35.33
209.567	86.53
209.786	76.29
210.005	90.62
210.223	74.24
210.442	31.23
210.661	8.7
210.879	64
211.098	51.71
211.316	37.38
211.535	57.86
211.753	16.9
211.972	86.53
212.191	51.71
212.409	121.34
212.628	12.8
212.846	12.8
213.065	86.53
213.283	59.9
213.502	68.09
213.72	-56.83
213.938	8.7
214.157	0.51
214.375	135.68
214.594	-7.68
214.812	-40.45
215.031	2.56
215.249	4.61
215.467	68.09
215.686	14.85
215.904	98.81
216.122	66.05
216.341	68.09
216.559	20.99
216.778	-50.69
216.996	-32.26
217.214	64
217.432	25.09
217.651	6.66
217.869	86.53
218.087	70.14
218.306	51.71
218.524	102.91
218.742	41.47
218.96	68.09
219.179	23.04
219.397	-1.54
219.615	35.33
219.833	6.66
220.051	8.7
220.27	23.04
220.488	70.14
220.706	27.14
220.924	37.38
221.142	59.9
221.36	14.85
221.578	66.05
221.796	53.76
222.015	33.28
222.233	-19.97
222.451	39.42
222.669	33.28
222.887	86.53
223.105	-73.21
223.323	61.95
223.541	0.51
223.759	72.19
223.977	6.66
224.195	53.76
224.413	27.14
224.631	39.42
224.849	78.33
225.067	76.29
225.285	31.23
225.503	57.86
225.721	6.66
225.939	64
226.157	23.04
226.375	64
226.592	43.52
226.81	27.14
227.028	-42.5
227.246	86.53
227.464	29.18
227.682	49.66
227.9	82.43
228.117	-42.5
228.335	55.81
228.553	55.81
228.771	59.9
228.989	74.24
229.206	23.04
229.424	2.56
229.642	96.77
229.86	-9.73
230.077	154.11
230.295	41.47
230.513	14.85
230.731	57.86
230.948	20.99
231.166	96.77
231.384	-77.31
231.601	-24.06
231.819	43.52
232.037	74.24
232.254	41.47
232.472	-58.88
232.689	-19.97
232.907	104.96
233.125	37.38
233.342	119.29
233.56	45.57
233.777	43.52
233.995	41.47
234.213	57.86
234.43	4.61
234.648	88.57
234.865	27.14
235.083	47.62
235.3	16.9
235.518	33.28
235.735	-15.87
235.953	127.49
236.17	59.9
236.388	37.38
236.605	33.28
236.822	104.96
237.04	66.05
237.257	57.86
237.475	33.28
237.692	0.51
237.909	37.38
238.127	2.56
238.344	-36.35
238.562	113.15
238.779	53.76
238.996	53.76
239.214	111.1
239.431	72.19
239.648	10.75
239.865	10.75
240.083	53.76
240.3	53.76
240.517	-19.97
240.735	0.51
240.952	66.05
241.169	102.91
241.386	27.14
241.603	59.9
241.821	25.09
242.038	90.62
242.255	4.61
242.472	78.33
242.689	25.09
242.907	127.49
243.124	39.42
243.341	-54.78
243.558	-1.54
243.775	23.04
243.992	16.9
244.209	86.53
244.426	16.9
244.643	57.86
244.86	10.75
245.078	27.14
245.295	-3.58
245.512	-3.58
245.729	-1.54
245.946	8.7
246.163	61.95
246.38	61.95
246.597	20.99
246.814	14.85
247.031	64
247.248	61.95
247.464	104.96
247.681	29.18
247.898	-34.3
248.115	96.77
248.332	-13.82
248.549	29.18
248.766	115.2
248.983	72.19
249.2	80.38
249.417	-3.58
249.633	78.33
249.85	39.42
250.067	2.56
250.284	80.38
250.501	27.14
250.717	-1.54
250.934	-9.73
251.151	-19.97
251.368	90.62
251.585	115.2
251.801	107.01
252.018	59.9
252.235	96.77
252.451	6.66
252.668	2.56
252.885	-11.78
253.102	117.25
253.318	53.76
253.535	25.09
253.752	64
253.968	74.24
254.185	-5.63
254.401	64
254.618	18.94
254.835	92.67
255.051	4.61
255.268	64
255.484	37.38
255.701	-34.3
255.917	59.9
256.134	55.81
256.351	53.76
256.567	8.7
256.784	51.71
257	41.47
257.217	29.18
257.433	78.33
257.65	18.94
257.866	31.23
258.082	31.23
258.299	-7.68
258.515	70.14
258.732	45.57
258.948	131.58
259.165	-3.58
259.381	47.62
259.597	-38.4
259.814	80.38
260.03	70.14
260.246	57.86
260.463	74.24
260.679	84.48
260.895	39.42
261.112	27.14
261.328	49.66
261.544	16.9
261.761	70.14
261.977	20.99
262.193	33.28
262.409	31.23
262.626	39.42
262.842	88.57
263.058	39.42
263.274	18.94
263.49	88.57
263.707	51.71
263.923	33.28
264.139	51.71
264.355	82.43
264.571	78.33
264.787	82.43
265.004	31.23
265.22	-13.82
265.436	37.38
265.652	41.47
265.868	117.25
266.084	86.53
266.3	133.63
266.516	25.09
266.732	37.38
266.948	8.7
267.164	80.38
267.38	41.47
267.596	74.24
267.812	78.33
268.028	53.76
268.244	37.38
268.46	39.42
268.676	104.96
268.892	66.05
269.108	4.61
269.324	98.81
269.54	23.04
269.756	107.01
269.972	16.9
270.188	16.9
270.403	0.51
270.619	55.81
270.835	20.99
271.051	23.04
271.267	6.66
271.483	20.99
271.698	23.04
271.914	49.66
272.13	20.99
272.346	4.61
272.562	47.62
272.777	33.28
272.993	-1.54
273.209	59.9
273.425	-7.68
273.64	-13.82
273.856	90.62
274.072	23.04
274.287	6.66
274.503	39.42
274.719	88.57
274.934	100.86
275.15	82.43
275.366	47.62
275.581	8.7
275.797	-24.06
276.012	-28.16
276.228	47.62
276.444	33.28
276.659	43.52
276.875	76.29
277.09	80.38
277.306	14.85
277.521	25.09
277.737	70.14
277.952	119.29
278.168	2.56
278.383	6.66
278.599	41.47
278.814	31.23
279.03	8.7
279.245	41.47
279.461	33.28
279.676	33.28
279.892	66.05
280.107	57.86
280.322	41.47
280.538	20.99
280.753	20.99
280.969	59.9
281.184	59.9
281.399	14.85
281.615	90.62
281.83	117.25
282.045	20.99
282.26	61.95
282.476	16.9
282.691	86.53
282.906	14.85
283.122	-5.63
283.337	51.71
283.552	47.62
283.767	78.33
283.983	55.81
284.198	80.38
284.413	107.01
284.628	47.62
284.843	23.04
285.058	35.33
285.274	84.48
285.489	31.23
285.704	-7.68
285.919	41.47
286.134	70.14
286.349	72.19
286.564	64
286.779	86.53
286.995	61.95
287.21	16.9
287.425	100.86
287.64	6.66
287.855	2.56
288.07	66.05
288.285	117.25
288.5	61.95
288.715	35.33
288.93	25.09
289.145	80.38
289.36	113.15
289.575	90.62
289.79	31.23
290.004	96.77
290.219	104.96
290.434	57.86
290.649	61.95
290.864	-28.16
291.079	47.62
291.294	84.48
291.509	31.23
291.724	72.19
291.938	45.57
292.153	64
292.368	51.71
292.583	47.62
292.798	102.91
293.012	135.68
293.227	84.48
293.442	53.76
293.657	55.81
293.871	64
294.086	39.42
294.301	86.53
294.516	6.66
294.73	-5.63
294.945	70.14
295.16	41.47
295.374	6.66
295.589	74.24
295.804	10.75
296.018	84.48
296.233	53.76
296.447	111.1
296.662	20.99
296.877	109.05
297.091	31.23
297.306	-15.87
297.52	55.81
297.735	70.14
297.949	10.75
298.164	47.62
298.378	-34.3
298.593	70.14
298.807	-34.3
299.022	90.62
299.236	104.96
299.451	29.18
299.665	74.24
299.88	80.38
300.094	20.99
300.309	-42.5
300.523	76.29
300.737	84.48
300.952	33.28
301.166	78.33
301.381	37.38
301.595	29.18
301.809	25.09
302.024	-9.73
302.238	27.14
302.452	96.77
302.667	68.09
302.881	96.77
303.095	41.47
303.309	43.52
303.524	43.52
303.738	57.86
303.952	31.23
304.166	70.14
304.381	37.38
304.595	94.72
304.809	29.18
305.023	88.57
305.237	80.38
305.452	29.18
305.666	57.86
305.88	18.94
306.094	104.96
306.308	31.23
306.522	23.04
306.736	117.25
306.95	82.43
307.164	59.9
307.379	-5.63
307.593	55.81
307.807	20.99
308.021	45.57
308.235	127.49
308.449	-32.26
308.663	39.42
308.877	100.86
309.091	51.71
309.305	104.96
309.519	27.14
309.733	115.2
309.947	53.76
310.161	100.86
310.374	53.76
310.588	51.71
310.802	-62.98
311.016	27.14
311.23	-17.92
311.444	2.56
311.658	84.48
311.872	4.61
312.085	104.96
312.299	59.9
312.513	57.86
312.727	2.56
312.941	14.85
313.154	43.52
313.368	35.33
313.582	76.29
313.796	39.42
314.009	53.76
314.223	61.95
314.437	16.9
314.651	43.52
314.864	70.14
315.078	41.47
315.292	49.66
315.505	25.09
315.719	123.39
315.933	76.29
316.146	2.56
316.36	53.76
316.573	55.81
316.787	-3.58
317.001	141.82
317.214	8.7
317.428	25.09
317.641	47.62
317.855	107.01
318.068	45.57
318.282	86.53
318.495	31.23
318.709	53.76
318.922	96.77
319.136	66.05
319.349	33.28
319.563	51.71
319.776	4.61
319.99	33.28
320.203	14.85
320.417	90.62
320.63	0.51
320.843	84.48
321.057	88.57
321.27	-11.78
321.483	0.51
321.697	168.45
321.91	45.57
322.124	25.09
322.337	86.53
322.55	47.62
322.763	41.47
322.977	76.29
323.19	16.9
323.403	109.05
323.617	90.62
323.83	121.34
324.043	-7.68
324.256	64
324.469	27.14
324.683	94.72
324.896	47.62
325.109	20.99
325.322	70.14
325.535	33.28
325.748	55.81
325.962	57.86
326.175	57.86
326.388	86.53
326.601	74.24
326.814	68.09
327.027	-5.63
327.24	74.24
327.453	137.73
327.666	109.05
327.879	125.44
328.092	18.94
328.305	37.38
328.518	51.71
328.731	0.51
328.944	127.49
329.157	31.23
329.37	47.62
329.583	107.01
329.796	84.48
330.009	23.04
330.222	57.86
330.435	20.99
330.648	70.14
330.861	18.94
331.073	61.95
331.286	31.23
331.499	27.14
331.712	86.53
331.925	96.77
332.138	25.09
332.35	84.48
332.563	64
332.776	41.47
332.989	86.53
333.202	66.05
333.414	53.76
333.627	31.23
333.84	107.01
334.053	27.14
334.265	80.38
334.478	37.38
334.691	100.86
334.903	72.19
335.116	82.43
335.329	82.43
335.541	61.95
335.754	115.2
335.966	57.86
336.179	18.94
336.392	37.38
336.604	27.14
336.817	131.58
337.029	43.52
337.242	90.62
337.454	14.85
337.667	27.14
337.88	176.64
338.092	72.19
338.305	72.19
338.517	59.9
338.729	51.71
338.942	47.62
339.154	68.09
339.367	12.8
339.579	51.71
339.792	80.38
340.004	88.57
340.217	29.18
340.429	16.9
340.641	59.9
340.854	76.29
341.066	49.66
341.278	107.01
341.491	27.14
341.703	66.05
341.915	61.95
342.128	72.19
342.34	-11.78
342.552	55.81
342.764	59.9
342.977	90.62
343.189	143.87
343.401	82.43
343.613	-22.02
343.826	-42.5
344.038	70.14
344.25	121.34
344.462	47.62
344.674	2.56
344.886	64
345.099	90.62
345.311	125.44
345.523	45.57
345.735	-17.92
345.947	156.16
346.159	107.01
346.371	29.18
346.583	41.47
346.795	80.38
347.007	70.14
347.219	68.09
347.431	23.04
347.643	68.09
347.855	14.85
348.067	96.77
348.279	8.7
348.491	37.38
348.703	66.05
348.915	41.47
349.127	-3.58
349.339	-34.3
349.551	16.9
349.763	12.8
349.975	74.24
350.187	72.19
350.399	37.38
350.61	70.14
350.822	49.66
351.034	45.57
351.246	37.38
351.458	68.09
351.669	78.33
351.881	20.99
352.093	57.86
352.305	104.96
352.517	20.99
352.728	84.48
352.94	33.28
353.152	47.62
353.363	-5.63
353.575	64
353.787	72.19
353.999	20.99
354.21	123.39
354.422	10.75
354.633	51.71
354.845	80.38
355.057	68.09
355.268	49.66
355.48	64
355.692	78.33
355.903	111.1
356.115	18.94
356.326	74.24
356.538	131.58
356.749	164.35
356.961	117.25
357.172	86.53
357.384	25.09
357.595	168.45
357.807	107.01
358.018	20.99
358.23	68.09
358.441	131.58
358.653	92.67
358.864	78.33
359.075	31.23
359.287	70.14
359.498	-5.63
359.709	20.99
359.921	92.67
360.132	61.95
360.344	78.33
360.555	0.51
360.766	96.77
360.977	6.66
361.189	96.77
361.4	4.61
361.611	61.95
361.823	4.61
362.034	49.66
362.245	14.85
362.456	129.53
362.667	20.99
362.879	25.09
363.09	35.33
363.301	125.44
363.512	61.95
363.723	29.18
363.935	94.72
364.146	94.72
364.357	41.47
364.568	-11.78
364.779	78.33
364.99	94.72
365.201	53.76
365.412	86.53
365.623	18.94
365.834	61.95
366.045	-30.21
366.256	-22.02
366.467	51.71
366.678	98.81
366.889	68.09
367.1	80.38
367.311	104.96
367.522	70.14
367.733	51.71
367.944	49.66
368.155	102.91
368.366	98.81
368.577	61.95
368.788	76.29
368.999	31.23
369.209	66.05
369.42	135.68
369.631	176.64
369.842	61.95
370.053	-3.58
370.264	43.52
370.474	-15.87
370.685	18.94
370.896	59.9
371.107	61.95
371.317	39.42
371.528	41.47
371.739	96.77
371.95	102.91
372.16	12.8
372.371	29.18
372.582	94.72
372.792	107.01
373.003	35.33
373.214	33.28
373.424	150.01
373.635	41.47
373.846	68.09
374.056	107.01
374.267	115.2
374.477	47.62
374.688	-24.06
374.898	27.14
375.109	39.42
375.319	107.01
375.53	98.81
375.74	-7.68
375.951	86.53
376.161	33.28
376.372	45.57
376.582	41.47
376.793	47.62
377.003	31.23
377.214	27.14
377.424	16.9
377.635	59.9
377.845	8.7
378.055	174.59
378.266	12.8
378.476	29.18
378.686	80.38
378.897	121.34
379.107	82.43
379.317	57.86
379.528	123.39
379.738	37.38
379.948	35.33
380.158	119.29
380.369	70.14
380.579	96.77
380.789	92.67
380.999	59.9
381.21	31.23
381.42	47.62
381.63	55.81
381.84	90.62
382.05	27.14
382.261	107.01
382.471	18.94
382.681	68.09
382.891	135.68
383.101	2.56
383.311	14.85
383.521	-60.93
383.731	80.38
383.941	41.47
384.151	47.62
384.361	133.63
384.571	25.09
384.781	74.24
384.991	92.67
385.201	27.14
385.411	107.01
385.621	39.42
385.831	113.15
386.041	74.24
386.251	96.77
386.461	127.49
386.671	31.23
386.881	135.68
387.091	14.85
387.301	94.72
387.511	66.05
387.72	64
387.93	186.88
388.14	70.14
388.35	100.86
388.56	96.77
388.769	96.77
388.979	96.77
389.189	98.81
389.399	86.53
389.609	92.67
389.818	43.52
390.028	33.28
390.238	76.29
390.447	96.77
390.657	96.77
390.867	78.33
391.076	127.49
391.286	35.33
391.496	119.29
391.705	115.2
391.915	47.62
392.125	55.81
392.334	76.29
392.544	104.96
392.753	53.76
392.963	84.48
393.172	53.76
393.382	59.9
393.591	125.44
393.801	45.57
394.01	92.67
394.22	64
394.429	47.62
394.639	86.53
394.848	96.77
395.058	92.67
395.267	137.73
395.477	90.62
395.686	107.01
395.895	209.4
396.105	115.2
396.314	125.44
396.524	143.87
396.733	88.57
396.942	113.15
397.152	98.81
397.361	10.75
397.57	104.96
397.78	172.54
397.989	129.53
398.198	78.33
398.407	109.05
398.617	170.49
398.826	139.77
399.035	147.97
399.244	82.43
399.453	139.77
399.663	86.53
399.872	88.57
400.081	45.57
400.29	111.1
400.499	74.24
400.708	113.15
400.917	133.63
401.127	145.92
401.336	133.63
401.545	168.45
401.754	188.93
401.963	127.49
402.172	109.05
402.381	133.63
402.59	168.45
402.799	98.81
403.008	109.05
403.217	143.87
403.426	147.97
403.635	193.02
403.844	172.54
404.053	176.64
404.262	131.58
404.471	248.32
404.68	107.01
404.888	102.91
405.097	115.2
405.306	100.86
405.515	123.39
405.724	168.45
405.933	145.92
406.142	227.84
406.35	203.26
406.559	172.54
406.768	180.73
406.977	186.88
407.185	256.51
407.394	236.03
407.603	164.35
407.812	285.18
408.02	240.12
408.229	137.73
408.438	250.36
408.646	289.28
408.855	262.65
409.064	242.17
409.272	299.52
409.481	342.52
409.69	336.38
409.898	258.56
410.107	322.04
410.315	363
410.524	330.23
410.733	330.23
410.941	336.38
411.15	344.57
411.358	406.01
411.567	414.2
411.775	270.84
411.984	334.33
412.192	385.53
412.401	385.53
412.609	436.73
412.818	510.46
413.026	559.61
413.234	479.74
413.443	498.17
413.651	475.64
413.86	481.78
414.068	582.14
414.276	608.76
414.485	567.8
414.693	565.75
414.901	686.58
415.11	674.29
415.318	694.77
415.526	690.68
415.734	680.44
415.943	727.54
416.151	844.28
416.359	754.16
416.567	856.56
416.776	797.17
416.984	848.37
417.192	877.04
417.4	893.43
417.608	918
417.817	936.43
418.025	932.34
418.233	1067.5
418.441	1085.94
418.649	1169.9
418.857	1171.95
419.065	1190.38
419.273	1139.18
419.481	1298.92
419.689	1296.88
419.897	1290.73
420.105	1348.08
420.313	1409.51
420.521	1532.39
420.729	1544.68
420.937	1468.91
421.145	1542.63
421.353	1655.27
421.561	1708.52
421.769	1784.29
421.977	1837.54
422.185	1761.77
422.393	1968.61
422.601	2089.44
422.809	2019.81
423.017	2097.63
423.224	2109.92
423.432	2269.66
423.64	2337.24
423.848	2453.98
424.056	2509.27
424.263	2564.57
424.471	2509.27
424.679	2570.71
424.887	2826.71
425.094	2896.34
425.302	2998.74
425.51	2900.44
425.718	3023.31
425.925	3238.35
426.133	3260.88
426.341	3486.15
426.548	3584.46
426.756	3516.87
426.964	3623.37
427.171	3762.63
427.379	3916.23
427.586	3928.52
427.794	4106.69
428.001	4096.45
428.209	4381.12
428.417	4477.37
428.624	4643.26
428.832	4665.78
429.039	4688.31
429.247	4850.1
429.454	5124.53
429.662	5556.65
429.869	4985.27
430.076	5439.92
430.284	5185.97
430.491	5519.79
430.699	5816.74
430.906	5890.47
431.114	6035.88
431.321	6115.75
431.528	6457.76
431.736	6644.12
431.943	6855.06
432.15	6896.02
432.358	6728.09
432.565	7293.33
432.772	7049.62
432.979	7526.8
433.187	7737.74
433.394	7657.87
433.601	8184.2
433.808	8296.83
434.016	8352.13
434.223	8661.37
434.43	9152.88
434.637	8964.47
434.844	9640.3
435.052	9738.6
435.259	9501.04
435.466	9611.63
435.673	9605.49
435.88	10348.9
436.087	10772.83
436.294	10768.73
436.501	10617.18
436.708	10674.53
436.915	11202.9
437.122	11592.02
437.329	11686.22
437.537	12138.82
437.743	12308.8
437.95	12030.28
438.157	12751.17
438.364	13025.59
438.571	13115.7
438.778	12939.58
438.985	14254.37
439.192	13762.86
439.399	14248.23
439.606	13842.73
439.813	14805.28
440.02	15687.95
440.227	15362.33
440.433	14973.21
440.64	15847.69
440.847	15569.17
441.054	15800.59
441.261	16883.97
441.467	16697.6
441.674	17144.06
441.881	17674.48
442.088	17582.32
442.294	17617.14
442.501	17897.71
442.708	18243.82
442.914	18960.61
443.121	19921.1
443.328	19132.64
443.534	20709.57
443.741	20252.87
443.948	20017.36
444.154	21551.29
444.361	21145.79
444.568	21436.6
444.774	21471.42
444.981	21747.89
445.187	22231.21
445.394	23191.71
445.6	22716.58
445.807	25112.7
446.013	24285.33
446.22	24412.3
446.426	25448.57
446.633	25346.17
446.839	26648.68
447.046	25546.87
447.252	26472.56
447.459	26548.33
447.665	26818.66
447.871	27844.7
448.078	29069.38
448.284	27971.67
448.491	28438.61
448.697	29233.22
448.903	30210.1
449.11	30318.64
449.316	29620.28
449.522	29921.34
449.728	30951.46
449.935	31238.18
450.141	31238.18
450.347	31760.41
450.553	30806.06
450.76	31117.35
450.966	32485.39
451.172	31850.52
451.378	32786.44
451.584	32104.47
451.791	33001.48
451.997	32937.99
452.203	33202.18
452.409	33173.51
452.615	33015.82
452.821	32036.89
453.027	31846.43
453.233	33368.07
453.44	31969.3
453.646	32303.12
453.852	32436.24
454.058	33243.14
454.264	31979.54
454.47	32690.19
454.676	31463.46
454.882	32931.85
455.088	29982.77
455.294	30816.3
455.5	30859.31
455.705	31395.87
455.911	30150.71
456.117	29360.19
456.323	29325.38
456.529	27918.42
456.735	28868.68
456.941	28135.51
457.147	27670.62
457.352	26761.32
457.558	26239.09
457.764	26458.22
457.97	25731.19
458.176	25491.58
458.381	25501.82
458.587	24074.38
458.793	24309.9
458.999	23077.02
459.204	24531.08
459.41	23986.32
459.616	22433.96
459.821	22132.91
460.027	22448.3
460.233	21952.69
460.438	20818.11
460.644	20760.77
460.85	19888.34
461.055	19441.88
461.261	19763.41
461.466	18125.04
461.672	17600.76
461.878	18931.94
462.083	17334.52
462.289	17260.79
462.494	16974.08
462.7	16288.01
462.905	15862.03
463.111	16486.66
463.316	16670.98
463.522	16148.75
463.727	16242.95
463.932	16185.61
464.138	16042.25
464.343	16136.46
464.549	15474.96
464.754	16161.03
464.959	15847.69
465.165	15880.46
465.37	15173.91
465.575	14706.98
465.781	15266.07
465.986	15528.21
466.191	15110.43
466.397	14590.24
466.602	13904.17
466.807	14580
467.012	14412.07
467.218	14532.9
467.423	14264.61
467.628	14299.43
467.833	14848.29
468.038	14235.94
468.244	14217.51
468.449	14483.75
