Data from USB4F104151__49__11-51-54-006.txt Node

Date: Fri Mar 14 11:51:54 EDT 2025
User: louis
Spectrometer: USB4F10415
Trigger mode: 4
Integration Time (sec): 2.000000E-2
Scans to average: 1
Electric dark correction enabled: true
Nonlinearity correction enabled: false
Boxcar width: 0
XAxis mode: Wavelengths
Number of Pixels in Spectrum: 3648
>>>>>Begin Spectral Data<<<<<
178.204	-33.45
178.424	-33.45
178.644	-33.45
178.864	-47.79
179.084	-96.94
179.304	-80.55
179.524	-41.64
179.744	-27.31
179.964	-21.16
180.184	-12.97
180.404	25.94
180.624	-6.83
180.844	46.42
181.064	-37.55
181.283	85.33
181.503	36.18
181.723	34.13
181.943	-2.73
182.163	13.65
182.383	1.37
182.602	7.51
182.822	25.94
183.042	-0.68
183.262	-15.02
183.482	36.18
183.701	-37.55
183.921	23.89
184.141	46.42
184.361	126.29
184.58	75.09
184.8	42.32
185.02	7.51
185.239	-12.97
185.459	11.61
185.679	-6.83
185.898	15.7
186.118	58.71
186.338	-15.02
186.557	75.09
186.777	-0.68
186.997	52.56
187.216	-66.22
187.436	-0.68
187.655	13.65
187.875	38.23
188.095	38.23
188.314	1.37
188.534	-10.92
188.753	-4.78
188.973	42.32
189.192	38.23
189.412	21.85
189.631	17.75
189.851	30.04
190.07	46.42
190.29	46.42
190.509	23.89
190.729	81.24
190.948	11.61
191.168	144.72
191.387	107.86
191.607	-25.26
191.826	-17.07
192.045	-41.64
192.265	52.56
192.484	-15.02
192.704	30.04
192.923	30.04
193.142	54.61
193.362	1.37
193.581	58.71
193.8	1.37
194.02	64.85
194.239	-23.21
194.458	36.18
194.678	-31.4
194.897	-10.92
195.116	-2.73
195.335	64.85
195.555	44.37
195.774	-21.16
195.993	60.76
196.212	-41.64
196.432	-45.74
196.651	38.23
196.87	-0.68
197.089	83.28
197.308	105.81
197.528	66.9
197.747	3.41
197.966	11.61
198.185	99.67
198.404	13.65
198.623	52.56
198.842	60.76
199.062	56.66
199.281	1.37
199.5	58.71
199.719	-17.07
199.938	144.72
200.157	56.66
200.376	36.18
200.595	85.33
200.814	42.32
201.033	-27.31
201.252	109.91
201.471	23.89
201.69	30.04
201.909	38.23
202.128	-19.11
202.347	27.99
202.566	-39.59
202.785	-6.83
203.004	9.56
203.223	91.48
203.442	48.47
203.661	34.13
203.879	91.48
204.098	17.75
204.317	3.41
204.536	103.76
204.755	60.76
204.974	66.9
205.193	17.75
205.411	52.56
205.63	83.28
205.849	-0.68
206.068	19.8
206.287	-17.07
206.505	15.7
206.724	27.99
206.943	66.9
207.162	-17.07
207.381	-39.59
207.599	21.85
207.818	1.37
208.037	17.75
208.255	23.89
208.474	23.89
208.693	15.7
208.911	19.8
209.13	-27.31
209.349	83.28
209.567	19.8
209.786	-53.93
210.005	48.47
210.223	77.14
210.442	-4.78
210.661	-0.68
210.879	91.48
211.098	46.42
211.316	3.41
211.535	97.62
211.753	-17.07
211.972	21.85
212.191	58.71
212.409	11.61
212.628	-17.07
212.846	-37.55
213.065	46.42
213.283	81.24
213.502	68.95
213.72	7.51
213.938	9.56
214.157	36.18
214.375	11.61
214.594	42.32
214.812	38.23
215.031	-21.16
215.249	48.47
215.467	73.04
215.686	-4.78
215.904	27.99
216.122	52.56
216.341	50.52
216.559	42.32
216.778	-0.68
216.996	-51.88
217.214	68.95
217.432	9.56
217.651	71
217.869	36.18
218.087	21.85
218.306	25.94
218.524	17.75
218.742	11.61
218.96	52.56
219.179	-6.83
219.397	-0.68
219.615	-15.02
219.833	25.94
220.051	19.8
220.27	9.56
220.488	15.7
220.706	34.13
220.924	13.65
221.142	19.8
221.36	1.37
221.578	109.91
221.796	21.85
222.015	13.65
222.233	7.51
222.451	73.04
222.669	38.23
222.887	19.8
223.105	23.89
223.323	-10.92
223.541	-12.97
223.759	38.23
223.977	-27.31
224.195	66.9
224.413	5.46
224.631	52.56
224.849	17.75
225.067	62.8
225.285	34.13
225.503	1.37
225.721	21.85
225.939	85.33
226.157	40.28
226.375	60.76
226.592	40.28
226.81	-10.92
227.028	-10.92
227.246	54.61
227.464	-35.5
227.682	15.7
227.9	48.47
228.117	-4.78
228.335	25.94
228.553	9.56
228.771	34.13
228.989	3.41
229.206	62.8
229.424	21.85
229.642	23.89
229.86	-64.17
230.077	122.2
230.295	56.66
230.513	52.56
230.731	107.86
230.948	50.52
231.166	81.24
231.384	25.94
231.601	58.71
231.819	25.94
232.037	-6.83
232.254	-19.11
232.472	-6.83
232.689	-19.11
232.907	15.7
233.125	34.13
233.342	-29.35
233.56	3.41
233.777	71
233.995	-17.07
234.213	3.41
234.43	44.37
234.648	40.28
234.865	-62.12
235.083	62.8
235.3	-8.87
235.518	-43.69
235.735	50.52
235.953	32.08
236.17	-8.87
236.388	42.32
236.605	105.81
236.822	32.08
237.04	15.7
237.257	25.94
237.475	83.28
237.692	30.04
237.909	56.66
238.127	27.99
238.344	73.04
238.562	-37.55
238.779	-29.35
238.996	13.65
239.214	-17.07
239.431	11.61
239.648	-4.78
239.865	50.52
240.083	46.42
240.3	73.04
240.517	-8.87
240.735	54.61
240.952	34.13
241.169	77.14
241.386	-6.83
241.603	5.46
241.821	-43.69
242.038	60.76
242.255	38.23
242.472	42.32
242.689	13.65
242.907	73.04
243.124	-2.73
243.341	48.47
243.558	-37.55
243.775	9.56
243.992	32.08
244.209	50.52
244.426	101.72
244.643	-15.02
244.86	-8.87
245.078	-15.02
245.295	58.71
245.512	56.66
245.729	34.13
245.946	50.52
246.163	-49.83
246.38	46.42
246.597	75.09
246.814	58.71
247.031	93.52
247.248	-33.45
247.464	87.38
247.681	91.48
247.898	44.37
248.115	27.99
248.332	68.95
248.549	36.18
248.766	79.19
248.983	81.24
249.2	58.71
249.417	118.1
249.633	-0.68
249.85	136.53
250.067	62.8
250.284	15.7
250.501	5.46
250.717	25.94
250.934	36.18
251.151	85.33
251.368	62.8
251.585	52.56
251.801	21.85
252.018	-17.07
252.235	42.32
252.451	9.56
252.668	-39.59
252.885	23.89
253.102	23.89
253.318	81.24
253.535	17.75
253.752	23.89
253.968	-4.78
254.185	-12.97
254.401	40.28
254.618	62.8
254.835	-25.26
255.051	38.23
255.268	-6.83
255.484	56.66
255.701	50.52
255.917	40.28
256.134	34.13
256.351	13.65
256.567	-6.83
256.784	64.85
257	17.75
257.217	13.65
257.433	34.13
257.65	46.42
257.866	19.8
258.082	-6.83
258.299	-8.87
258.515	7.51
258.732	-27.31
258.948	-45.74
259.165	9.56
259.381	25.94
259.597	52.56
259.814	15.7
260.03	58.71
260.246	-0.68
260.463	54.61
260.679	103.76
260.895	68.95
261.112	-23.21
261.328	-17.07
261.544	-12.97
261.761	101.72
261.977	36.18
262.193	-29.35
262.409	34.13
262.626	17.75
262.842	-2.73
263.058	50.52
263.274	58.71
263.49	3.41
263.707	66.9
263.923	3.41
264.139	-8.87
264.355	83.28
264.571	40.28
264.787	42.32
265.004	13.65
265.22	38.23
265.436	23.89
265.652	-68.27
265.868	-53.93
266.084	32.08
266.3	71
266.516	-10.92
266.732	54.61
266.948	46.42
267.164	95.57
267.38	48.47
267.596	7.51
267.812	73.04
268.028	-4.78
268.244	5.46
268.46	21.85
268.676	32.08
268.892	50.52
269.108	-10.92
269.324	-25.26
269.54	19.8
269.756	93.52
269.972	85.33
270.188	-2.73
270.403	7.51
270.619	5.46
270.835	50.52
271.051	25.94
271.267	50.52
271.483	5.46
271.698	42.32
271.914	75.09
272.13	5.46
272.346	7.51
272.562	103.76
272.777	42.32
272.993	23.89
273.209	54.61
273.425	66.9
273.64	-2.73
273.856	52.56
274.072	71
274.287	13.65
274.503	-84.65
274.719	40.28
274.934	-0.68
275.15	27.99
275.366	5.46
275.581	1.37
275.797	-10.92
276.012	-27.31
276.228	15.7
276.444	5.46
276.659	11.61
276.875	-21.16
277.09	9.56
277.306	-29.35
277.521	46.42
277.737	62.8
277.952	-23.21
278.168	83.28
278.383	30.04
278.599	21.85
278.814	27.99
279.03	34.13
279.245	25.94
279.461	5.46
279.676	1.37
279.892	-33.45
280.107	21.85
280.322	40.28
280.538	101.72
280.753	27.99
280.969	38.23
281.184	46.42
281.399	134.48
281.615	5.46
281.83	38.23
282.045	17.75
282.26	-15.02
282.476	48.47
282.691	-31.4
282.906	71
283.122	83.28
283.337	-23.21
283.552	62.8
283.767	34.13
283.983	54.61
284.198	50.52
284.413	58.71
284.628	-0.68
284.843	-6.83
285.058	79.19
285.274	56.66
285.489	11.61
285.704	38.23
285.919	5.46
286.134	-39.59
286.349	-12.97
286.564	21.85
286.779	73.04
286.995	66.9
287.21	52.56
287.425	13.65
287.64	9.56
287.855	23.89
288.07	7.51
288.285	-10.92
288.5	120.15
288.715	50.52
288.93	42.32
289.145	9.56
289.36	42.32
289.575	-8.87
289.79	-8.87
290.004	68.95
290.219	52.56
290.434	30.04
290.649	40.28
290.864	-17.07
291.079	44.37
291.294	1.37
291.509	17.75
291.724	38.23
291.938	77.14
292.153	17.75
292.368	-6.83
292.583	27.99
292.798	46.42
293.012	-12.97
293.227	46.42
293.442	-2.73
293.657	25.94
293.871	73.04
294.086	58.71
294.301	116.05
294.516	27.99
294.73	30.04
294.945	30.04
295.16	91.48
295.374	71
295.589	30.04
295.804	-23.21
296.018	38.23
296.233	54.61
296.447	44.37
296.662	-51.88
296.877	3.41
297.091	36.18
297.306	19.8
297.52	58.71
297.735	87.38
297.949	25.94
298.164	44.37
298.378	-2.73
298.593	-23.21
298.807	-15.02
299.022	44.37
299.236	62.8
299.451	107.86
299.665	46.42
299.88	83.28
300.094	-0.68
300.309	62.8
300.523	-6.83
300.737	54.61
300.952	-6.83
301.166	-6.83
301.381	5.46
301.595	-0.68
301.809	40.28
302.024	42.32
302.238	64.85
302.452	19.8
302.667	-33.45
302.881	73.04
303.095	56.66
303.309	38.23
303.524	-37.55
303.738	25.94
303.952	-2.73
304.166	-17.07
304.381	15.7
304.595	58.71
304.809	58.71
305.023	19.8
305.237	93.52
305.452	-21.16
305.666	54.61
305.88	116.05
306.094	50.52
306.308	42.32
306.522	64.85
306.736	118.1
306.95	32.08
307.164	-17.07
307.379	38.23
307.593	-10.92
307.807	48.47
308.021	101.72
308.235	50.52
308.449	83.28
308.663	54.61
308.877	83.28
309.091	-25.26
309.305	77.14
309.519	1.37
309.733	17.75
309.947	19.8
310.161	73.04
310.374	52.56
310.588	32.08
310.802	-6.83
311.016	17.75
311.23	5.46
311.444	-27.31
311.658	21.85
311.872	-17.07
312.085	-35.5
312.299	50.52
312.513	71
312.727	54.61
312.941	68.95
313.154	5.46
313.368	13.65
313.582	25.94
313.796	97.62
314.009	44.37
314.223	40.28
314.437	54.61
314.651	32.08
314.864	-27.31
315.078	46.42
315.292	50.52
315.505	52.56
315.719	-17.07
315.933	38.23
316.146	71
316.36	5.46
316.573	93.52
316.787	38.23
317.001	42.32
317.214	77.14
317.428	44.37
317.641	-49.83
317.855	3.41
318.068	7.51
318.282	-31.4
318.495	34.13
318.709	-12.97
318.922	15.7
319.136	-19.11
319.349	124.24
319.563	21.85
319.776	36.18
319.99	-37.55
320.203	93.52
320.417	126.29
320.63	38.23
320.843	58.71
321.057	17.75
321.27	93.52
321.483	-6.83
321.697	71
321.91	73.04
322.124	30.04
322.337	34.13
322.55	17.75
322.763	77.14
322.977	64.85
323.19	7.51
323.403	34.13
323.617	34.13
323.83	124.24
324.043	25.94
324.256	-41.64
324.469	-21.16
324.683	-17.07
324.896	-15.02
325.109	-8.87
325.322	46.42
325.535	66.9
325.748	7.51
325.962	97.62
326.175	27.99
326.388	-21.16
326.601	32.08
326.814	95.57
327.027	17.75
327.24	15.7
327.453	3.41
327.666	75.09
327.879	44.37
328.092	56.66
328.305	3.41
328.518	101.72
328.731	-17.07
328.944	36.18
329.157	77.14
329.37	56.66
329.583	-19.11
329.796	68.95
330.009	-45.74
330.222	32.08
330.435	7.51
330.648	107.86
330.861	42.32
331.073	77.14
331.286	71
331.499	52.56
331.712	77.14
331.925	7.51
332.138	13.65
332.35	-0.68
332.563	-35.5
332.776	101.72
332.989	-6.83
333.202	109.91
333.414	-8.87
333.627	-4.78
333.84	60.76
334.053	54.61
334.265	-2.73
334.478	-29.35
334.691	5.46
334.903	48.47
335.116	34.13
335.329	9.56
335.541	81.24
335.754	40.28
335.966	11.61
336.179	68.95
336.392	17.75
336.604	66.9
336.817	56.66
337.029	93.52
337.242	36.18
337.454	62.8
337.667	40.28
337.88	111.96
338.092	7.51
338.305	1.37
338.517	25.94
338.729	73.04
338.942	114
339.154	-27.31
339.367	23.89
339.579	27.99
339.792	73.04
340.004	64.85
340.217	-12.97
340.429	-21.16
340.641	54.61
340.854	91.48
341.066	23.89
341.278	58.71
341.491	3.41
341.703	13.65
341.915	9.56
342.128	-2.73
342.34	40.28
342.552	-2.73
342.764	3.41
342.977	-10.92
343.189	83.28
343.401	-29.35
343.613	-17.07
343.826	36.18
344.038	30.04
344.25	122.2
344.462	38.23
344.674	15.7
344.886	54.61
345.099	-8.87
345.311	101.72
345.523	99.67
345.735	58.71
345.947	93.52
346.159	-37.55
346.371	15.7
346.583	-6.83
346.795	30.04
347.007	17.75
347.219	-29.35
347.431	-17.07
347.643	93.52
347.855	-2.73
348.067	50.52
348.279	-27.31
348.491	52.56
348.703	23.89
348.915	23.89
349.127	40.28
349.339	-37.55
349.551	5.46
349.763	161.11
349.975	93.52
350.187	-35.5
350.399	58.71
350.61	36.18
350.822	46.42
351.034	17.75
351.246	11.61
351.458	9.56
351.669	27.99
351.881	21.85
352.093	11.61
352.305	132.44
352.517	46.42
352.728	60.76
352.94	73.04
353.152	93.52
353.363	15.7
353.575	60.76
353.787	81.24
353.999	48.47
354.21	56.66
354.422	42.32
354.633	30.04
354.845	73.04
355.057	66.9
355.268	46.42
355.48	15.7
355.692	95.57
355.903	40.28
356.115	-33.45
356.326	9.56
356.538	93.52
356.749	36.18
356.961	89.43
357.172	9.56
357.384	44.37
357.595	-6.83
357.807	93.52
358.018	1.37
358.23	-21.16
358.441	62.8
358.653	30.04
358.864	64.85
359.075	-31.4
359.287	5.46
359.498	87.38
359.709	17.75
359.921	-15.02
360.132	71
360.344	42.32
360.555	50.52
360.766	44.37
360.977	25.94
361.189	91.48
361.4	13.65
361.611	66.9
361.823	91.48
362.034	-6.83
362.245	-15.02
362.456	66.9
362.667	105.81
362.879	-12.97
363.09	52.56
363.301	91.48
363.512	52.56
363.723	66.9
363.935	-2.73
364.146	73.04
364.357	7.51
364.568	60.76
364.779	64.85
364.99	66.9
365.201	60.76
365.412	97.62
365.623	5.46
365.834	105.81
366.045	52.56
366.256	36.18
366.467	30.04
366.678	3.41
366.889	105.81
367.1	62.8
367.311	25.94
367.522	32.08
367.733	138.58
367.944	146.77
368.155	17.75
368.366	95.57
368.577	68.95
368.788	87.38
368.999	42.32
369.209	50.52
369.42	103.76
369.631	118.1
369.842	136.53
370.053	38.23
370.264	46.42
370.474	46.42
370.685	15.7
370.896	54.61
371.107	71
371.317	38.23
371.528	-0.68
371.739	48.47
371.95	-29.35
372.16	107.86
372.371	64.85
372.582	93.52
372.792	50.52
373.003	38.23
373.214	66.9
373.424	132.44
373.635	68.95
373.846	97.62
374.056	101.72
374.267	-12.97
374.477	130.39
374.688	138.58
374.898	75.09
375.109	9.56
375.319	95.57
375.53	107.86
375.74	-15.02
375.951	-37.55
376.161	52.56
376.372	85.33
376.582	48.47
376.793	81.24
377.003	-4.78
377.214	73.04
377.424	54.61
377.635	101.72
377.845	50.52
378.055	42.32
378.266	-8.87
378.476	52.56
378.686	52.56
378.897	91.48
379.107	87.38
379.317	40.28
379.528	-4.78
379.738	75.09
379.948	25.94
380.158	40.28
380.369	64.85
380.579	83.28
380.789	23.89
380.999	87.38
381.21	85.33
381.42	36.18
381.63	-45.74
381.84	118.1
382.05	40.28
382.261	101.72
382.471	-0.68
382.681	77.14
382.891	91.48
383.101	97.62
383.311	68.95
383.521	3.41
383.731	36.18
383.941	77.14
384.151	89.43
384.361	-21.16
384.571	17.75
384.781	81.24
384.991	134.48
385.201	54.61
385.411	60.76
385.621	95.57
385.831	1.37
386.041	60.76
386.251	56.66
386.461	136.53
386.671	71
386.881	11.61
387.091	75.09
387.301	38.23
387.511	56.66
387.72	19.8
387.93	60.76
388.14	-78.51
388.35	19.8
388.56	64.85
388.769	-17.07
388.979	30.04
389.189	5.46
389.399	7.51
389.609	130.39
389.818	23.89
390.028	75.09
390.238	11.61
390.447	83.28
390.657	52.56
390.867	50.52
391.076	95.57
391.286	46.42
391.496	81.24
391.705	25.94
391.915	150.87
392.125	126.29
392.334	93.52
392.544	17.75
392.753	46.42
392.963	54.61
393.172	3.41
393.382	107.86
393.591	77.14
393.801	34.13
394.01	116.05
394.22	79.19
394.429	107.86
394.639	64.85
394.848	77.14
395.058	107.86
395.267	60.76
395.477	52.56
395.686	95.57
395.895	85.33
396.105	83.28
396.314	116.05
396.524	111.96
396.733	32.08
396.942	116.05
397.152	75.09
397.361	54.61
397.57	81.24
397.78	36.18
397.989	48.47
398.198	79.19
398.407	62.8
398.617	134.48
398.826	81.24
399.035	34.13
399.244	-19.11
399.453	66.9
399.663	116.05
399.872	118.1
400.081	140.63
400.29	105.81
400.499	-0.68
400.708	120.15
400.917	132.44
401.127	169.3
401.336	60.76
401.545	140.63
401.754	130.39
401.963	103.76
402.172	142.68
402.381	64.85
402.59	120.15
402.799	58.71
403.008	118.1
403.217	126.29
403.426	105.81
403.635	109.91
403.844	136.53
404.053	161.11
404.262	73.04
404.471	161.11
404.68	116.05
404.888	165.2
405.097	109.91
405.306	89.43
405.515	109.91
405.724	157.01
405.933	87.38
406.142	103.76
406.35	212.31
406.559	247.12
406.768	142.68
406.977	130.39
407.185	157.01
407.394	15.7
407.603	154.96
407.812	154.96
408.02	218.45
408.229	255.31
408.438	175.44
408.646	206.16
408.855	255.31
409.064	238.93
409.272	212.31
409.481	251.22
409.69	173.39
409.898	310.61
410.107	259.41
410.315	222.55
410.524	283.98
410.733	251.22
410.941	316.75
411.15	343.38
411.358	210.26
411.567	367.95
411.775	308.56
411.984	322.9
412.192	386.38
412.401	363.86
412.609	337.23
412.818	423.25
413.026	365.9
413.234	380.24
413.443	421.2
413.651	447.82
413.86	503.12
414.068	507.21
414.276	527.69
414.485	507.21
414.693	542.03
414.901	646.48
415.11	570.7
415.318	626
415.526	607.56
415.734	644.43
415.943	570.7
416.151	705.87
416.359	599.37
416.567	701.77
416.776	752.97
416.984	783.69
417.192	886.09
417.4	767.31
417.608	765.26
417.817	894.28
418.025	836.94
418.233	959.81
418.441	965.96
418.649	988.49
418.857	1035.59
419.065	1084.74
419.273	1090.88
419.481	1017.16
419.689	1140.04
419.897	1189.19
420.105	1240.39
420.313	1195.33
420.521	1383.74
420.729	1377.6
420.937	1486.14
421.145	1451.33
421.353	1611.07
421.561	1699.13
421.769	1606.97
421.977	1731.9
422.185	1670.46
422.393	1996.09
422.601	1819.96
422.809	1871.16
423.017	1926.46
423.224	2032.95
423.432	2094.39
423.64	2106.68
423.848	2264.37
424.056	2073.91
424.263	2528.56
424.471	2344.24
424.679	2405.68
424.887	2469.17
425.094	2606.38
425.302	2673.96
425.51	2676.01
425.718	2714.92
425.925	2835.75
426.133	2913.58
426.341	2972.97
426.548	3323.17
426.756	3261.73
426.964	3323.17
427.171	3435.81
427.379	3536.16
427.586	3702.04
427.794	3749.15
428.001	3992.86
428.209	4134.17
428.417	4087.06
428.624	4373.78
428.832	4359.44
429.039	4377.87
429.247	4255
429.454	4758.8
429.662	4904.2
429.869	4603.15
430.076	5088.52
430.284	4924.68
430.491	5188.87
430.699	5387.52
430.906	5518.59
431.114	5356.8
431.321	5707.01
431.528	5788.92
431.736	5915.9
431.943	6436.08
432.15	6173.94
432.358	6313.2
432.565	6511.86
432.772	6526.19
432.979	6802.67
433.187	7101.67
433.394	7046.38
433.601	7576.8
433.808	7703.78
434.016	7582.95
434.223	7982.3
434.43	8301.78
434.637	8051.93
434.844	8832.21
435.052	8889.55
435.259	8983.76
435.466	8877.26
435.673	8862.93
435.88	9436.36
436.087	9817.28
436.294	9653.44
436.501	9661.63
436.708	9823.42
436.915	10282.17
437.122	10683.57
437.329	10538.16
437.537	11132.08
437.743	11306.15
437.95	11107.5
438.157	11797.67
438.364	12072.09
438.571	12014.75
438.778	12051.61
438.985	13091.98
439.192	12586.13
439.399	13110.41
439.606	12801.17
439.813	13438.09
440.02	14402.68
440.227	14142.59
440.433	14195.84
440.64	14488.7
440.847	14597.24
441.054	14662.77
441.261	15567.98
441.467	15291.5
441.674	15887.46
441.881	16297.05
442.088	16524.38
442.294	16454.75
442.501	16751.7
442.708	16888.92
442.914	17626.18
443.121	18574.39
443.328	17998.91
443.534	19188.78
443.741	18418.75
443.948	18162.75
444.154	19643.43
444.361	19780.65
444.568	19813.41
444.774	19702.82
444.981	20059.17
445.187	20827.16
445.394	21212.18
445.6	21115.92
445.807	23241.71
446.013	22234.11
446.22	22643.71
446.426	23460.85
446.633	23489.52
446.839	24247.27
447.046	23606.25
447.252	24853.47
447.459	24777.69
447.665	24593.37
447.871	25959.37
448.078	26887.1
448.284	25846.73
448.491	25879.5
448.697	27186.1
448.903	27863.98
449.11	28122.02
449.316	27442.1
449.522	28257.19
449.728	28685.22
449.935	28969.88
450.141	29215.64
450.347	29346.71
450.553	28369.83
450.76	29158.3
450.966	29989.77
451.172	29608.85
451.378	30493.57
451.584	29440.92
451.791	30452.61
451.997	30331.78
452.203	30661.51
452.409	30655.36
452.615	30747.52
452.821	29557.65
453.027	29174.68
453.233	30546.82
453.44	29873.04
453.646	30124.94
453.852	29764.5
454.058	30493.57
454.264	29942.67
454.47	30202.76
454.676	29281.17
454.882	30174.09
455.088	27825.07
455.294	28095.4
455.5	28736.41
455.705	28720.03
455.911	27466.67
456.117	27444.15
456.323	26702.78
456.529	25222.1
456.735	26684.35
456.941	25736.14
457.147	25361.36
457.352	24740.83
457.558	24349.67
457.764	24480.74
457.97	24163.3
458.176	23266.29
458.381	23636.97
458.587	22500.35
458.793	22383.62
458.999	21007.38
459.204	22707.19
459.41	22051.84
459.616	20468.76
459.821	20501.53
460.027	20612.12
460.233	20053.03
460.438	19047.47
460.644	19375.15
460.85	18353.21
461.055	18203.71
461.261	18015.3
461.466	16700.5
461.672	16100.45
461.878	17439.82
462.083	16204.89
462.289	15866.98
462.494	15688.81
462.7	15064.18
462.905	14713.97
463.111	15492.2
463.316	15361.13
463.522	14908.53
463.727	15068.27
463.932	15127.66
464.138	14775.41
464.343	14830.71
464.549	14374.01
464.754	14787.7
464.959	14910.58
465.165	14636.15
465.37	14044.29
465.575	13892.74
465.781	14148.73
465.986	14273.66
466.191	13902.98
466.397	13663.36
466.602	12735.63
466.807	13368.46
467.012	13640.84
467.218	13380.75
467.423	13106.32
467.628	13259.92
467.833	13962.37
468.038	13268.11
468.244	12899.47
