Data from USB4F104151__92__11-52-58-859.txt Node

Date: Fri Mar 14 11:52:58 EDT 2025
User: louis
Spectrometer: USB4F10415
Trigger mode: 4
Integration Time (sec): 2.000000E-2
Scans to average: 1
Electric dark correction enabled: true
Nonlinearity correction enabled: false
Boxcar width: 0
XAxis mode: Wavelengths
Number of Pixels in Spectrum: 3648
>>>>>Begin Spectral Data<<<<<
178.204	-159.57
178.424	-159.57
178.644	-159.57
178.864	-110.42
179.084	-28.5
179.304	-5.97
179.524	26.79
179.744	-55.12
179.964	26.79
180.184	20.65
180.404	61.61
180.624	14.51
180.844	-3.93
181.064	-69.46
181.283	26.79
181.503	-44.88
181.723	2.22
181.943	10.41
182.163	53.42
182.383	34.99
182.602	102.57
182.822	80.04
183.042	63.66
183.262	22.7
183.482	-69.46
183.701	73.9
183.921	20.65
184.141	24.75
184.361	45.23
184.58	28.84
184.8	30.89
185.02	12.46
185.239	96.43
185.459	-12.12
185.679	57.51
185.898	-5.97
186.118	71.85
186.338	2.22
186.557	-10.07
186.777	-12.12
186.997	-10.07
187.216	10.41
187.436	51.37
187.655	12.46
187.875	30.89
188.095	57.51
188.314	30.89
188.534	-1.88
188.753	26.79
188.973	8.36
189.192	10.41
189.412	43.18
189.631	30.89
189.851	28.84
190.07	114.86
190.29	-44.88
190.509	-30.55
190.729	0.17
190.948	84.14
191.168	51.37
191.387	73.9
191.607	0.17
191.826	80.04
192.045	-20.31
192.265	88.23
192.484	49.32
192.704	18.6
192.923	-69.46
193.142	80.04
193.362	20.65
193.581	59.56
193.8	14.51
194.02	34.99
194.239	4.27
194.458	-3.93
194.678	14.51
194.897	94.38
195.116	71.85
195.335	41.13
195.555	92.33
195.774	39.08
195.993	34.99
196.212	-46.93
196.432	65.71
196.651	-10.07
196.87	47.27
197.089	30.89
197.308	-44.88
197.528	39.08
197.747	-1.88
197.966	51.37
198.185	108.71
198.404	16.55
198.623	8.36
198.842	2.22
199.062	65.71
199.281	108.71
199.5	32.94
199.719	32.94
199.938	41.13
200.157	16.55
200.376	69.8
200.595	-18.26
200.814	28.84
201.033	39.08
201.252	133.29
201.471	16.55
201.69	100.52
201.909	106.67
202.128	71.85
202.347	4.27
202.566	-16.21
202.785	-22.36
203.004	100.52
203.223	104.62
203.442	65.71
203.661	-42.84
203.879	41.13
204.098	47.27
204.317	-40.79
204.536	45.23
204.755	104.62
204.974	92.33
205.193	30.89
205.411	88.23
205.63	32.94
205.849	61.61
206.068	12.46
206.287	-14.17
206.505	51.37
206.724	75.95
206.943	106.67
207.162	65.71
207.381	16.55
207.599	-12.12
207.818	75.95
208.037	-51.03
208.255	45.23
208.474	4.27
208.693	8.36
208.911	30.89
209.13	51.37
209.349	34.99
209.567	39.08
209.786	24.75
210.005	63.66
210.223	84.14
210.442	12.46
210.661	55.47
210.879	-12.12
211.098	37.03
211.316	24.75
211.535	20.65
211.753	4.27
211.972	45.23
212.191	26.79
212.409	-30.55
212.628	37.03
212.846	39.08
213.065	-53.08
213.283	59.56
213.502	24.75
213.72	49.32
213.938	14.51
214.157	24.75
214.375	47.27
214.594	63.66
214.812	4.27
215.031	88.23
215.249	2.22
215.467	41.13
215.686	32.94
215.904	49.32
216.122	77.99
216.341	153.77
216.559	18.6
216.778	137.38
216.996	55.47
217.214	80.04
217.432	-32.6
217.651	-14.17
217.869	28.84
218.087	-48.98
218.306	57.51
218.524	63.66
218.742	8.36
218.96	57.51
219.179	34.99
219.397	45.23
219.615	32.94
219.833	59.56
220.051	-10.07
220.27	-22.36
220.488	30.89
220.706	41.13
220.924	22.7
221.142	63.66
221.36	-32.6
221.578	2.22
221.796	43.18
222.015	24.75
222.233	-16.21
222.451	88.23
222.669	26.79
222.887	90.28
223.105	0.17
223.323	20.65
223.541	61.61
223.759	65.71
223.977	39.08
224.195	10.41
224.413	61.61
224.631	92.33
224.849	73.9
225.067	16.55
225.285	92.33
225.503	-16.21
225.721	-65.36
225.939	45.23
226.157	22.7
226.375	2.22
226.592	-14.17
226.81	26.79
227.028	10.41
227.246	51.37
227.464	84.14
227.682	34.99
227.9	88.23
228.117	20.65
228.335	75.95
228.553	57.51
228.771	-44.88
228.989	96.43
229.206	-18.26
229.424	63.66
229.642	6.31
229.86	0.17
230.077	8.36
230.295	45.23
230.513	-1.88
230.731	47.27
230.948	71.85
231.166	34.99
231.384	6.31
231.601	51.37
231.819	139.43
232.037	-22.36
232.254	47.27
232.472	37.03
232.689	57.51
232.907	28.84
233.125	16.55
233.342	63.66
233.56	0.17
233.777	59.56
233.995	47.27
234.213	55.47
234.43	104.62
234.648	-18.26
234.865	26.79
235.083	41.13
235.3	43.18
235.518	20.65
235.735	92.33
235.953	45.23
236.17	24.75
236.388	49.32
236.605	12.46
236.822	75.95
237.04	57.51
237.257	8.36
237.475	-40.79
237.692	34.99
237.909	2.22
238.127	10.41
238.344	108.71
238.562	90.28
238.779	-1.88
238.996	-18.26
239.214	39.08
239.431	28.84
239.648	6.31
239.865	67.75
240.083	-48.98
240.3	37.03
240.517	34.99
240.735	43.18
240.952	39.08
241.169	39.08
241.386	51.37
241.603	-48.98
241.821	26.79
242.038	59.56
242.255	63.66
242.472	73.9
242.689	63.66
242.907	104.62
243.124	24.75
243.341	53.42
243.558	-34.64
243.775	-40.79
243.992	69.8
244.209	26.79
244.426	75.95
244.643	55.47
244.86	43.18
245.078	4.27
245.295	43.18
245.512	57.51
245.729	92.33
245.946	90.28
246.163	51.37
246.38	-79.7
246.597	14.51
246.814	2.22
247.031	133.29
247.248	65.71
247.464	59.56
247.681	14.51
247.898	65.71
248.115	-16.21
248.332	28.84
248.549	53.42
248.766	88.23
248.983	39.08
249.2	-32.6
249.417	-1.88
249.633	24.75
249.85	77.99
250.067	16.55
250.284	59.56
250.501	55.47
250.717	34.99
250.934	-57.17
251.151	43.18
251.368	-8.02
251.585	71.85
251.801	43.18
252.018	63.66
252.235	43.18
252.451	-5.97
252.668	-30.55
252.885	8.36
253.102	73.9
253.318	96.43
253.535	0.17
253.752	22.7
253.968	0.17
254.185	45.23
254.401	34.99
254.618	77.99
254.835	39.08
255.051	69.8
255.268	67.75
255.484	43.18
255.701	34.99
255.917	80.04
256.134	26.79
256.351	14.51
256.567	51.37
256.784	59.56
257	53.42
257.217	16.55
257.433	49.32
257.65	10.41
257.866	96.43
258.082	30.89
258.299	43.18
258.515	80.04
258.732	-1.88
258.948	10.41
259.165	86.19
259.381	114.86
259.597	20.65
259.814	24.75
260.03	43.18
260.246	10.41
260.463	61.61
260.679	41.13
260.895	4.27
261.112	32.94
261.328	8.36
261.544	10.41
261.761	14.51
261.977	32.94
262.193	55.47
262.409	65.71
262.626	92.33
262.842	84.14
263.058	-10.07
263.274	61.61
263.49	6.31
263.707	8.36
263.923	53.42
264.139	84.14
264.355	45.23
264.571	125.1
264.787	10.41
265.004	51.37
265.22	37.03
265.436	67.75
265.652	49.32
265.868	69.8
266.084	-20.31
266.3	10.41
266.516	16.55
266.732	53.42
266.948	-51.03
267.164	24.75
267.38	14.51
267.596	-10.07
267.812	147.62
268.028	71.85
268.244	49.32
268.46	41.13
268.676	57.51
268.892	16.55
269.108	51.37
269.324	22.7
269.54	37.03
269.756	86.19
269.972	-40.79
270.188	69.8
270.403	26.79
270.619	53.42
270.835	22.7
271.051	-12.12
271.267	26.79
271.483	-3.93
271.698	125.1
271.914	49.32
272.13	47.27
272.346	-69.46
272.562	2.22
272.777	98.47
272.993	41.13
273.209	4.27
273.425	55.47
273.64	18.6
273.856	34.99
274.072	37.03
274.287	67.75
274.503	53.42
274.719	10.41
274.934	43.18
275.15	-5.97
275.366	37.03
275.581	4.27
275.797	65.71
276.012	-16.21
276.228	16.55
276.444	49.32
276.659	-3.93
276.875	28.84
277.09	0.17
277.306	20.65
277.521	4.27
277.737	63.66
277.952	69.8
278.168	77.99
278.383	-14.17
278.599	-26.45
278.814	94.38
279.03	26.79
279.245	104.62
279.461	34.99
279.676	12.46
279.892	-8.02
280.107	39.08
280.322	-1.88
280.538	84.14
280.753	8.36
280.969	26.79
281.184	-30.55
281.399	51.37
281.615	0.17
281.83	18.6
282.045	22.7
282.26	24.75
282.476	14.51
282.691	-3.93
282.906	-8.02
283.122	71.85
283.337	-5.97
283.552	94.38
283.767	100.52
283.983	30.89
284.198	57.51
284.413	65.71
284.628	-38.74
284.843	12.46
285.058	45.23
285.274	32.94
285.489	0.17
285.704	55.47
285.919	77.99
286.134	2.22
286.349	43.18
286.564	84.14
286.779	108.71
286.995	43.18
287.21	34.99
287.425	77.99
287.64	53.42
287.855	-46.93
288.07	18.6
288.285	73.9
288.5	-1.88
288.715	61.61
288.93	-5.97
289.145	30.89
289.36	75.95
289.575	-48.98
289.79	-14.17
290.004	30.89
290.219	98.47
290.434	69.8
290.649	-40.79
290.864	127.14
291.079	39.08
291.294	108.71
291.509	-24.4
291.724	39.08
291.938	10.41
292.153	84.14
292.368	77.99
292.583	86.19
292.798	34.99
293.012	-8.02
293.227	-44.88
293.442	43.18
293.657	118.95
293.871	116.9
294.086	43.18
294.301	67.75
294.516	53.42
294.73	8.36
294.945	51.37
295.16	30.89
295.374	125.1
295.589	-8.02
295.804	12.46
296.018	49.32
296.233	-10.07
296.447	49.32
296.662	14.51
296.877	-26.45
297.091	129.19
297.306	51.37
297.52	16.55
297.735	57.51
297.949	94.38
298.164	24.75
298.378	84.14
298.593	53.42
298.807	34.99
299.022	51.37
299.236	43.18
299.451	-36.69
299.665	47.27
299.88	106.67
300.094	45.23
300.309	-26.45
300.523	71.85
300.737	26.79
300.952	2.22
301.166	123.05
301.381	16.55
301.595	90.28
301.809	55.47
302.024	-24.4
302.238	24.75
302.452	26.79
302.667	-18.26
302.881	30.89
303.095	6.31
303.309	53.42
303.524	24.75
303.738	63.66
303.952	12.46
304.166	43.18
304.381	4.27
304.595	30.89
304.809	12.46
305.023	53.42
305.237	73.9
305.452	22.7
305.666	22.7
305.88	-3.93
306.094	61.61
306.308	28.84
306.522	63.66
306.736	32.94
306.95	55.47
307.164	37.03
307.379	67.75
307.593	59.56
307.807	45.23
308.021	59.56
308.235	77.99
308.449	-8.02
308.663	-16.21
308.877	-18.26
309.091	55.47
309.305	34.99
309.519	-16.21
309.733	92.33
309.947	16.55
310.161	80.04
310.374	53.42
310.588	59.56
310.802	-36.69
311.016	88.23
311.23	57.51
311.444	37.03
311.658	-22.36
311.872	57.51
312.085	88.23
312.299	34.99
312.513	-61.27
312.727	112.81
312.941	14.51
313.154	96.43
313.368	88.23
313.582	59.56
313.796	34.99
314.009	73.9
314.223	47.27
314.437	39.08
314.651	22.7
314.864	53.42
315.078	-10.07
315.292	22.7
315.505	92.33
315.719	112.81
315.933	84.14
316.146	24.75
316.36	61.61
316.573	26.79
316.787	20.65
317.001	59.56
317.214	20.65
317.428	49.32
317.641	55.47
317.855	26.79
318.068	-3.93
318.282	51.37
318.495	43.18
318.709	-1.88
318.922	16.55
319.136	92.33
319.349	53.42
319.563	39.08
319.776	94.38
319.99	26.79
320.203	67.75
320.417	53.42
320.63	28.84
320.843	77.99
321.057	12.46
321.27	26.79
321.483	39.08
321.697	67.75
321.91	51.37
322.124	63.66
322.337	53.42
322.55	41.13
322.763	65.71
322.977	75.95
323.19	37.03
323.403	49.32
323.617	26.79
323.83	77.99
324.043	51.37
324.256	84.14
324.469	37.03
324.683	-1.88
324.896	43.18
325.109	55.47
325.322	30.89
325.535	37.03
325.748	55.47
325.962	55.47
326.175	41.13
326.388	8.36
326.601	88.23
326.814	-14.17
327.027	96.43
327.24	82.09
327.453	-5.97
327.666	63.66
327.879	43.18
328.092	116.9
328.305	37.03
328.518	75.95
328.731	104.62
328.944	51.37
329.157	61.61
329.37	43.18
329.583	127.14
329.796	80.04
330.009	14.51
330.222	86.19
330.435	4.27
330.648	51.37
330.861	59.56
331.073	82.09
331.286	94.38
331.499	125.1
331.712	-20.31
331.925	94.38
332.138	30.89
332.35	51.37
332.563	30.89
332.776	30.89
332.989	59.56
333.202	116.9
333.414	-8.02
333.627	57.51
333.84	22.7
334.053	43.18
334.265	82.09
334.478	75.95
334.691	69.8
334.903	20.65
335.116	30.89
335.329	106.67
335.541	75.95
335.754	114.86
335.966	0.17
336.179	20.65
336.392	-30.55
336.604	-32.6
336.817	-14.17
337.029	24.75
337.242	30.89
337.454	69.8
337.667	69.8
337.88	37.03
338.092	88.23
338.305	82.09
338.517	51.37
338.729	98.47
338.942	75.95
339.154	96.43
339.367	49.32
339.579	145.58
339.792	39.08
340.004	121
340.217	-71.51
340.429	96.43
340.641	86.19
340.854	73.9
341.066	61.61
341.278	-46.93
341.491	39.08
341.703	59.56
341.915	6.31
342.128	61.61
342.34	61.61
342.552	6.31
342.764	24.75
342.977	-8.02
343.189	88.23
343.401	26.79
343.613	24.75
343.826	43.18
344.038	57.51
344.25	69.8
344.462	49.32
344.674	98.47
344.886	-22.36
345.099	32.94
345.311	-12.12
345.523	75.95
345.735	-1.88
345.947	34.99
346.159	47.27
346.371	88.23
346.583	-1.88
346.795	61.61
347.007	69.8
347.219	53.42
347.431	-22.36
347.643	55.47
347.855	71.85
348.067	92.33
348.279	47.27
348.491	24.75
348.703	12.46
348.915	88.23
349.127	125.1
349.339	77.99
349.551	84.14
349.763	49.32
349.975	-10.07
350.187	88.23
350.399	151.72
350.61	102.57
350.822	55.47
351.034	73.9
351.246	-1.88
351.458	51.37
351.669	45.23
351.881	63.66
352.093	55.47
352.305	-10.07
352.517	98.47
352.728	127.14
352.94	45.23
353.152	63.66
353.363	-24.4
353.575	-24.4
353.787	82.09
353.999	57.51
354.21	77.99
354.422	28.84
354.633	20.65
354.845	59.56
355.057	65.71
355.268	51.37
355.48	32.94
355.692	84.14
355.903	-1.88
356.115	18.6
356.326	37.03
356.538	94.38
356.749	82.09
356.961	65.71
357.172	-3.93
357.384	55.47
357.595	98.47
357.807	77.99
358.018	106.67
358.23	57.51
358.441	121
358.653	18.6
358.864	30.89
359.075	2.22
359.287	41.13
359.498	-28.5
359.709	14.51
359.921	59.56
360.132	71.85
360.344	67.75
360.555	104.62
360.766	114.86
360.977	-22.36
361.189	92.33
361.4	65.71
361.611	28.84
361.823	92.33
362.034	43.18
362.245	28.84
362.456	65.71
362.667	47.27
362.879	8.36
363.09	34.99
363.301	71.85
363.512	65.71
363.723	69.8
363.935	121
364.146	75.95
364.357	39.08
364.568	104.62
364.779	18.6
364.99	98.47
365.201	6.31
365.412	59.56
365.623	104.62
365.834	20.65
366.045	30.89
366.256	65.71
366.467	104.62
366.678	63.66
366.889	88.23
367.1	-44.88
367.311	32.94
367.522	47.27
367.733	43.18
367.944	69.8
368.155	37.03
368.366	71.85
368.577	47.27
368.788	129.19
368.999	37.03
369.209	75.95
369.42	37.03
369.631	157.86
369.842	82.09
370.053	47.27
370.264	59.56
370.474	77.99
370.685	8.36
370.896	110.76
371.107	61.61
371.317	43.18
371.528	39.08
371.739	133.29
371.95	59.56
372.16	47.27
372.371	24.75
372.582	63.66
372.792	63.66
373.003	73.9
373.214	84.14
373.424	63.66
373.635	37.03
373.846	77.99
374.056	59.56
374.267	37.03
374.477	63.66
374.688	49.32
374.898	77.99
375.109	59.56
375.319	43.18
375.53	6.31
375.74	51.37
375.951	86.19
376.161	65.71
376.372	14.51
376.582	53.42
376.793	80.04
377.003	-28.5
377.214	-20.31
377.424	41.13
377.635	73.9
377.845	-38.74
378.055	65.71
378.266	28.84
378.476	57.51
378.686	26.79
378.897	47.27
379.107	75.95
379.317	98.47
379.528	24.75
379.738	121
379.948	80.04
380.158	18.6
380.369	34.99
380.579	-10.07
380.789	26.79
380.999	41.13
381.21	39.08
381.42	127.14
381.63	69.8
381.84	88.23
382.05	65.71
382.261	67.75
382.471	43.18
382.681	-38.74
382.891	139.43
383.101	102.57
383.311	34.99
383.521	53.42
383.731	55.47
383.941	77.99
384.151	-18.26
384.361	53.42
384.571	84.14
384.781	43.18
384.991	59.56
385.201	4.27
385.411	71.85
385.621	47.27
385.831	112.81
386.041	82.09
386.251	112.81
386.461	34.99
386.671	67.75
386.881	16.55
387.091	-10.07
387.301	118.95
387.511	20.65
387.72	55.47
387.93	41.13
388.14	53.42
388.35	61.61
388.56	88.23
388.769	94.38
388.979	86.19
389.189	26.79
389.399	51.37
389.609	77.99
389.818	43.18
390.028	106.67
390.238	28.84
390.447	73.9
390.657	108.71
390.867	18.6
391.076	88.23
391.286	139.43
391.496	80.04
391.705	92.33
391.915	71.85
392.125	49.32
392.334	59.56
392.544	67.75
392.753	100.52
392.963	55.47
393.172	125.1
393.382	16.55
393.591	161.96
393.801	75.95
394.01	71.85
394.22	16.55
394.429	37.03
394.639	10.41
394.848	92.33
395.058	98.47
395.267	98.47
395.477	59.56
395.686	141.48
395.895	100.52
396.105	164.01
396.314	86.19
396.524	102.57
396.733	63.66
396.942	86.19
397.152	51.37
397.361	100.52
397.57	92.33
397.78	14.51
397.989	71.85
398.198	188.58
398.407	88.23
398.617	47.27
398.826	67.75
399.035	137.38
399.244	118.95
399.453	112.81
399.663	77.99
399.872	129.19
400.081	86.19
400.29	125.1
400.499	73.9
400.708	67.75
400.917	178.34
401.127	127.14
401.336	65.71
401.545	174.25
401.754	104.62
401.963	96.43
402.172	135.34
402.381	116.9
402.59	127.14
402.799	114.86
403.008	164.01
403.217	69.8
403.426	147.62
403.635	63.66
403.844	104.62
404.053	168.1
404.262	108.71
404.471	157.86
404.68	153.77
404.888	141.48
405.097	215.21
405.306	104.62
405.515	104.62
405.724	176.3
405.933	178.34
406.142	141.48
406.35	166.06
406.559	172.2
406.768	131.24
406.977	227.5
407.185	184.49
407.394	188.58
407.603	196.78
407.812	290.98
408.02	215.21
408.229	223.4
408.438	200.87
408.646	188.58
408.855	188.58
409.064	221.35
409.272	233.64
409.481	268.45
409.69	295.08
409.898	196.78
410.107	286.89
410.315	282.79
410.524	268.45
410.733	391.33
410.941	256.17
411.15	393.38
411.358	342.18
411.567	329.89
411.775	387.24
411.984	454.82
412.192	415.91
412.401	458.92
412.609	450.72
412.818	512.16
413.026	403.62
413.234	399.52
413.443	424.1
413.651	475.3
413.86	546.98
414.068	577.7
414.276	587.94
414.485	577.7
414.693	491.68
414.901	647.33
415.11	671.9
415.318	632.99
415.526	602.27
415.734	661.66
415.943	649.38
416.151	802.97
416.359	698.53
416.567	700.58
416.776	764.06
416.984	790.69
417.192	891.04
417.4	815.26
417.608	809.12
417.817	911.52
418.025	970.91
418.233	1087.64
418.441	1081.5
418.649	999.58
418.857	1214.62
419.065	1177.75
419.273	1044.63
419.481	1214.62
419.689	1220.76
419.897	1259.67
420.105	1392.79
420.313	1376.41
420.521	1458.32
420.729	1511.57
420.937	1601.68
421.145	1564.82
421.353	1654.93
421.561	1591.44
421.769	1593.49
421.977	1902.73
422.185	1796.24
422.393	1816.72
422.601	1927.31
422.809	1960.08
423.017	1953.93
423.224	2173.07
423.432	2130.06
423.64	2150.54
423.848	2330.76
424.056	2343.05
424.263	2592.9
424.471	2494.6
424.679	2429.06
424.887	2607.23
425.094	2822.27
425.302	2738.3
425.51	2992.25
425.718	3076.22
425.925	2949.25
426.133	3000.44
426.341	3238.01
426.548	3399.8
426.756	3444.85
426.964	3453.05
427.171	3670.13
427.379	3745.91
427.586	3868.78
427.794	3827.82
428.001	4171.88
428.209	4397.16
428.417	4239.47
428.624	4491.37
428.832	4532.33
429.039	4454.5
429.247	4616.29
429.454	4816.99
429.662	5294.17
429.869	4931.68
430.076	5285.98
430.284	5054.56
430.491	5267.55
430.699	5494.87
430.906	5609.56
431.114	5701.72
431.321	5972.05
431.528	5972.05
431.736	6463.56
431.943	6617.16
432.15	6477.9
432.358	6488.14
432.565	6905.92
432.772	7008.32
432.979	7366.71
433.187	7342.14
433.394	7432.25
433.601	8009.78
433.808	7987.25
434.016	8095.79
434.223	8263.72
434.43	8708.13
434.637	8550.44
434.844	9207.84
435.052	9343
435.259	9136.16
435.466	9490.46
435.673	9150.5
435.88	9875.48
436.087	10336.27
436.294	10436.62
436.501	10231.82
436.708	10348.56
436.915	10651.66
437.122	11167.74
437.329	11098.11
437.537	11470.84
437.743	11902.97
437.95	11634.68
438.157	12206.06
438.364	12613.61
438.571	12386.29
438.778	12875.75
438.985	13885.4
439.192	13258.72
439.399	13682.65
439.606	13484
439.813	14446.54
440.02	15019.97
440.227	14829.51
440.433	14600.14
440.64	15095.75
440.847	14876.62
441.054	15364.03
441.261	16496.56
441.467	15990.71
441.674	16680.88
441.881	17108.9
442.088	17178.53
442.294	16879.53
442.501	17211.3
442.708	17794.97
442.914	18624.4
443.121	19232.65
443.328	18794.38
443.534	20275.06
443.741	19369.86
443.948	19236.74
444.154	20522.87
444.361	20584.3
444.568	20510.58
444.774	20529.01
444.981	20938.6
445.187	21460.84
445.394	22628.18
445.6	22032.22
445.807	23856.96
446.013	23222.09
446.22	23811.9
446.426	24553.27
446.633	24966.96
446.839	25753.38
447.046	24467.25
447.252	25911.07
447.459	25780
447.665	25982.75
447.871	26842.9
448.078	28176.12
448.284	26949.39
448.491	27504.39
448.697	28964.59
448.903	29263.6
449.11	29472.49
449.316	28915.44
449.522	29544.17
449.728	30095.07
449.935	30277.34
450.141	30234.33
450.347	31336.14
450.553	29800.16
450.76	30340.83
450.966	31360.72
451.172	30858.96
451.378	31837.89
451.584	31200.97
451.791	31749.83
451.997	31477.45
452.203	32661.18
452.409	32612.03
452.615	32505.53
452.821	31014.61
453.027	30916.31
453.233	32417.47
453.44	31237.84
453.646	31551.18
453.852	31772.36
454.058	32177.86
454.264	31221.45
454.47	31809.22
454.676	31231.69
454.882	32206.53
455.088	29388.52
455.294	29781.73
455.5	30273.24
455.705	30594.78
455.911	29372.14
456.117	28776.18
456.323	28495.61
456.529	26935.06
456.735	27975.42
456.941	27365.13
457.147	26816.27
457.352	26136.35
457.558	25583.4
457.764	25913.12
457.97	25136.94
458.176	24522.55
458.381	24893.23
458.587	23613.25
458.793	23820.1
458.999	22654.8
459.204	23934.78
459.41	23428.93
459.616	21811.04
459.821	21737.31
460.027	21698.4
460.233	21303.14
460.438	20361.08
460.644	20461.43
460.85	19619.71
461.055	19287.94
461.261	19165.06
461.466	18112.41
461.672	17160.1
461.878	18378.64
462.083	17201.06
462.289	16752.56
462.494	16768.94
462.7	15939.51
462.905	15898.55
463.111	16314.29
463.316	15947.7
463.522	15736.76
463.727	15648.7
463.932	15937.46
464.138	15779.77
464.343	15675.32
464.549	15157.19
464.754	15826.87
464.959	15558.59
465.165	15650.75
465.37	14817.22
465.575	14497.74
465.781	14970.82
465.986	15206.34
466.191	14589.9
466.397	14464.97
466.602	13500.38
466.807	14182.35
467.012	14039
467.218	14106.58
467.423	13844.44
467.628	13877.21
