Data from USB4F104151__95__11-53-01-147.txt Node

Date: Fri Mar 14 11:53:01 EDT 2025
User: louis
Spectrometer: USB4F10415
Trigger mode: 4
Integration Time (sec): 2.000000E-2
Scans to average: 1
Electric dark correction enabled: true
Nonlinearity correction enabled: false
Boxcar width: 0
XAxis mode: Wavelengths
Number of Pixels in Spectrum: 3648
>>>>>Begin Spectral Data<<<<<
178.204	-43.35
178.424	-43.35
178.644	-43.35
178.864	-106.84
179.084	-69.97
179.304	9.9
179.524	34.47
179.744	-18.77
179.964	38.57
180.184	9.9
180.404	24.23
180.624	22.19
180.844	-98.64
181.064	3.75
181.283	-6.49
181.503	24.23
181.723	-43.35
181.943	-26.96
182.163	16.04
182.383	18.09
182.602	40.62
182.822	57
183.042	38.57
183.262	13.99
183.482	5.8
183.701	26.28
183.921	32.43
184.141	1.71
184.361	81.58
184.58	-22.87
184.8	-18.77
185.02	-24.92
185.239	61.1
185.459	3.75
185.679	48.81
185.898	28.33
186.118	30.38
186.338	-37.2
186.557	24.23
186.777	-29.01
186.997	-12.63
187.216	-22.87
187.436	11.95
187.655	-37.2
187.875	65.19
188.095	-33.11
188.314	16.04
188.534	-10.58
188.753	24.23
188.973	18.09
189.192	67.24
189.412	-4.44
189.631	-2.39
189.851	28.33
190.07	63.15
190.29	-43.35
190.509	16.04
190.729	-49.49
190.948	61.1
191.168	151.21
191.387	-2.39
191.607	-18.77
191.826	59.05
192.045	-2.39
192.265	22.19
192.484	-24.92
192.704	16.04
192.923	-37.2
193.142	57
193.362	-45.4
193.581	63.15
193.8	52.91
194.02	36.52
194.239	-47.44
194.458	83.63
194.678	-41.3
194.897	44.71
195.116	69.29
195.335	-14.68
195.555	54.95
195.774	54.95
195.993	57
196.212	-4.44
196.432	20.14
196.651	42.67
196.87	9.9
197.089	13.99
197.308	18.09
197.528	-10.58
197.747	34.47
197.966	3.75
198.185	73.39
198.404	-10.58
198.623	36.52
198.842	61.1
199.062	-31.06
199.281	-31.06
199.5	67.24
199.719	-18.77
199.938	36.52
200.157	11.95
200.376	50.86
200.595	59.05
200.814	-53.59
201.033	65.19
201.252	42.67
201.471	-37.2
201.69	87.72
201.909	42.67
202.128	20.14
202.347	69.29
202.566	28.33
202.785	46.76
203.004	1.71
203.223	48.81
203.442	-22.87
203.661	20.14
203.879	-35.16
204.098	5.8
204.317	-16.73
204.536	32.43
204.755	-0.34
204.974	-6.49
205.193	-2.39
205.411	65.19
205.63	34.47
205.849	63.15
206.068	-31.06
206.287	1.71
206.505	16.04
206.724	22.19
206.943	26.28
207.162	-6.49
207.381	-2.39
207.599	-49.49
207.818	40.62
208.037	-78.16
208.255	28.33
208.474	11.95
208.693	5.8
208.911	44.71
209.13	67.24
209.349	13.99
209.567	24.23
209.786	81.58
210.005	-18.77
210.223	3.75
210.442	20.14
210.661	22.19
210.879	-53.59
211.098	61.1
211.316	-4.44
211.535	73.39
211.753	50.86
211.972	57
212.191	-12.63
212.409	1.71
212.628	-22.87
212.846	-33.11
213.065	-26.96
213.283	52.91
213.502	32.43
213.72	5.8
213.938	26.28
214.157	9.9
214.375	16.04
214.594	26.28
214.812	46.76
215.031	61.1
215.249	13.99
215.467	-31.06
215.686	34.47
215.904	46.76
216.122	-37.2
216.341	143.02
216.559	24.23
216.778	-8.53
216.996	22.19
217.214	-14.68
217.432	63.15
217.651	67.24
217.869	85.67
218.087	3.75
218.306	-20.82
218.524	67.24
218.742	-16.73
218.96	85.67
219.179	-37.2
219.397	69.29
219.615	30.38
219.833	-35.16
220.051	59.05
220.27	52.91
220.488	32.43
220.706	75.43
220.924	42.67
221.142	-86.36
221.36	-10.58
221.578	-29.01
221.796	-29.01
222.015	22.19
222.233	7.85
222.451	71.34
222.669	7.85
222.887	61.1
223.105	-65.88
223.323	59.05
223.541	3.75
223.759	-24.92
223.977	5.8
224.195	-8.53
224.413	46.76
224.631	73.39
224.849	61.1
225.067	69.29
225.285	-33.11
225.503	-16.73
225.721	-22.87
225.939	36.52
226.157	34.47
226.375	36.52
226.592	5.8
226.81	40.62
227.028	18.09
227.246	9.9
227.464	-53.59
227.682	18.09
227.9	42.67
228.117	-2.39
228.335	3.75
228.553	65.19
228.771	44.71
228.989	28.33
229.206	32.43
229.424	22.19
229.642	-6.49
229.86	11.95
230.077	20.14
230.295	-20.82
230.513	-2.39
230.731	61.1
230.948	38.57
231.166	24.23
231.384	67.24
231.601	18.09
231.819	28.33
232.037	-63.83
232.254	24.23
232.472	5.8
232.689	-24.92
232.907	38.57
233.125	-6.49
233.342	34.47
233.56	16.04
233.777	13.99
233.995	16.04
234.213	32.43
234.43	-2.39
234.648	-31.06
234.865	-45.4
235.083	22.19
235.3	52.91
235.518	5.8
235.735	85.67
235.953	36.52
236.17	-4.44
236.388	-10.58
236.605	61.1
236.822	52.91
237.04	7.85
237.257	18.09
237.475	-18.77
237.692	-18.77
237.909	-78.16
238.127	-26.96
238.344	40.62
238.562	110.25
238.779	52.91
238.996	71.34
239.214	-41.3
239.431	59.05
239.648	52.91
239.865	-29.01
240.083	13.99
240.3	-2.39
240.517	11.95
240.735	54.95
240.952	71.34
241.169	97.96
241.386	-26.96
241.603	-55.64
241.821	-47.44
242.038	40.62
242.255	71.34
242.472	20.14
242.689	28.33
242.907	-8.53
243.124	83.63
243.341	18.09
243.558	-67.92
243.775	-20.82
243.992	1.71
244.209	108.2
244.426	7.85
244.643	-22.87
244.86	32.43
245.078	13.99
245.295	-12.63
245.512	18.09
245.729	-33.11
245.946	32.43
246.163	-4.44
246.38	40.62
246.597	24.23
246.814	71.34
247.031	-53.59
247.248	-2.39
247.464	-12.63
247.681	-4.44
247.898	73.39
248.115	32.43
248.332	-49.49
248.549	65.19
248.766	5.8
248.983	38.57
249.2	73.39
249.417	9.9
249.633	38.57
249.85	77.48
250.067	-18.77
250.284	61.1
250.501	83.63
250.717	20.14
250.934	106.15
251.151	40.62
251.368	81.58
251.585	-24.92
251.801	28.33
252.018	-6.49
252.235	-4.44
252.451	20.14
252.668	-8.53
252.885	46.76
253.102	87.72
253.318	36.52
253.535	38.57
253.752	-16.73
253.968	1.71
254.185	18.09
254.401	22.19
254.618	-22.87
254.835	-0.34
255.051	20.14
255.268	36.52
255.484	-6.49
255.701	100.01
255.917	11.95
256.134	-10.58
256.351	87.72
256.567	38.57
256.784	61.1
257	-31.06
257.217	20.14
257.433	32.43
257.65	97.96
257.866	104.11
258.082	-26.96
258.299	-16.73
258.515	3.75
258.732	-65.88
258.948	36.52
259.165	-24.92
259.381	-69.97
259.597	52.91
259.814	7.85
260.03	79.53
260.246	32.43
260.463	42.67
260.679	130.73
260.895	32.43
261.112	32.43
261.328	13.99
261.544	16.04
261.761	91.82
261.977	30.38
262.193	24.23
262.409	-20.82
262.626	32.43
262.842	77.48
263.058	69.29
263.274	30.38
263.49	73.39
263.707	44.71
263.923	18.09
264.139	-49.49
264.355	61.1
264.571	38.57
264.787	34.47
265.004	1.71
265.22	-0.34
265.436	61.1
265.652	-4.44
265.868	71.34
266.084	46.76
266.3	13.99
266.516	-22.87
266.732	5.8
266.948	9.9
267.164	-61.78
267.38	151.21
267.596	-6.49
267.812	-24.92
268.028	5.8
268.244	20.14
268.46	67.24
268.676	40.62
268.892	71.34
269.108	20.14
269.324	46.76
269.54	7.85
269.756	28.33
269.972	7.85
270.188	63.15
270.403	-12.63
270.619	102.06
270.835	28.33
271.051	34.47
271.267	73.39
271.483	20.14
271.698	34.47
271.914	42.67
272.13	46.76
272.346	-2.39
272.562	59.05
272.777	-18.77
272.993	38.57
273.209	-49.49
273.425	-4.44
273.64	18.09
273.856	11.95
274.072	7.85
274.287	-41.3
274.503	63.15
274.719	-4.44
274.934	28.33
275.15	-20.82
275.366	46.76
275.581	22.19
275.797	-24.92
276.012	26.28
276.228	112.3
276.444	36.52
276.659	-4.44
276.875	-8.53
277.09	5.8
277.306	16.04
277.521	48.81
277.737	13.99
277.952	73.39
278.168	26.28
278.383	32.43
278.599	18.09
278.814	61.1
279.03	18.09
279.245	30.38
279.461	-12.63
279.676	-0.34
279.892	36.52
280.107	32.43
280.322	20.14
280.538	57
280.753	40.62
280.969	42.67
281.184	59.05
281.399	9.9
281.615	48.81
281.83	81.58
282.045	-33.11
282.26	36.52
282.476	5.8
282.691	44.71
282.906	30.38
283.122	34.47
283.337	38.57
283.552	3.75
283.767	-14.68
283.983	65.19
284.198	32.43
284.413	54.95
284.628	-0.34
284.843	11.95
285.058	65.19
285.274	5.8
285.489	-31.06
285.704	54.95
285.919	102.06
286.134	42.67
286.349	3.75
286.564	-6.49
286.779	-0.34
286.995	-12.63
287.21	-4.44
287.425	13.99
287.64	77.48
287.855	7.85
288.07	9.9
288.285	46.76
288.5	1.71
288.715	38.57
288.93	-43.35
289.145	-8.53
289.36	67.24
289.575	75.43
289.79	75.43
290.004	16.04
290.219	3.75
290.434	26.28
290.649	1.71
290.864	13.99
291.079	44.71
291.294	-0.34
291.509	75.43
291.724	9.9
291.938	48.81
292.153	-18.77
292.368	-41.3
292.583	-41.3
292.798	57
293.012	75.43
293.227	13.99
293.442	-6.49
293.657	59.05
293.871	-10.58
294.086	-4.44
294.301	73.39
294.516	26.28
294.73	18.09
294.945	-31.06
295.16	36.52
295.374	71.34
295.589	24.23
295.804	-57.68
296.018	16.04
296.233	97.96
296.447	130.73
296.662	102.06
296.877	18.09
297.091	67.24
297.306	30.38
297.52	-10.58
297.735	26.28
297.949	20.14
298.164	20.14
298.378	11.95
298.593	16.04
298.807	30.38
299.022	-39.25
299.236	57
299.451	3.75
299.665	46.76
299.88	46.76
300.094	30.38
300.309	20.14
300.523	61.1
300.737	-59.73
300.952	-49.49
301.166	52.91
301.381	77.48
301.595	26.28
301.809	-4.44
302.024	71.34
302.238	28.33
302.452	77.48
302.667	65.19
302.881	1.71
303.095	-22.87
303.309	-31.06
303.524	-61.78
303.738	-14.68
303.952	-4.44
304.166	83.63
304.381	36.52
304.595	77.48
304.809	-4.44
305.023	42.67
305.237	-57.68
305.452	-6.49
305.666	-18.77
305.88	3.75
306.094	110.25
306.308	28.33
306.522	87.72
306.736	69.29
306.95	54.95
307.164	-0.34
307.379	34.47
307.593	54.95
307.807	69.29
308.021	32.43
308.235	38.57
308.449	18.09
308.663	13.99
308.877	57
309.091	104.11
309.305	126.63
309.519	75.43
309.733	-20.82
309.947	-16.73
310.161	65.19
310.374	79.53
310.588	32.43
310.802	61.1
311.016	22.19
311.23	9.9
311.444	11.95
311.658	24.23
311.872	44.71
312.085	28.33
312.299	-24.92
312.513	95.91
312.727	48.81
312.941	-8.53
313.154	18.09
313.368	16.04
313.582	50.86
313.796	38.57
314.009	-20.82
314.223	-20.82
314.437	69.29
314.651	57
314.864	11.95
315.078	-24.92
315.292	20.14
315.505	32.43
315.719	28.33
315.933	42.67
316.146	13.99
316.36	-14.68
316.573	9.9
316.787	61.1
317.001	-10.58
317.214	-10.58
317.428	-35.16
317.641	46.76
317.855	-20.82
318.068	16.04
318.282	5.8
318.495	3.75
318.709	65.19
318.922	7.85
319.136	71.34
319.349	73.39
319.563	-4.44
319.776	30.38
319.99	38.57
320.203	32.43
320.417	46.76
320.63	-10.58
320.843	-16.73
321.057	87.72
321.27	-45.4
321.483	-37.2
321.697	-6.49
321.91	-2.39
322.124	36.52
322.337	13.99
322.55	40.62
322.763	46.76
322.977	-10.58
323.19	36.52
323.403	26.28
323.617	63.15
323.83	40.62
324.043	-33.11
324.256	61.1
324.469	52.91
324.683	42.67
324.896	-4.44
325.109	-14.68
325.322	5.8
325.535	85.67
325.748	20.14
325.962	-31.06
326.175	85.67
326.388	69.29
326.601	167.59
326.814	-12.63
327.027	40.62
327.24	-24.92
327.453	26.28
327.666	-16.73
327.879	52.91
328.092	32.43
328.305	-8.53
328.518	34.47
328.731	40.62
328.944	42.67
329.157	-8.53
329.37	48.81
329.583	73.39
329.796	44.71
330.009	-37.2
330.222	-0.34
330.435	40.62
330.648	97.96
330.861	32.43
331.073	67.24
331.286	-18.77
331.499	22.19
331.712	-0.34
331.925	-31.06
332.138	16.04
332.35	46.76
332.563	18.09
332.776	52.91
332.989	24.23
333.202	61.1
333.414	7.85
333.627	48.81
333.84	65.19
334.053	42.67
334.265	73.39
334.478	-43.35
334.691	9.9
334.903	81.58
335.116	30.38
335.329	40.62
335.541	42.67
335.754	75.43
335.966	-10.58
336.179	11.95
336.392	3.75
336.604	-6.49
336.817	-6.49
337.029	28.33
337.242	34.47
337.454	95.91
337.667	-18.77
337.88	9.9
338.092	75.43
338.305	38.57
338.517	9.9
338.729	77.48
338.942	100.01
339.154	1.71
339.367	16.04
339.579	38.57
339.792	28.33
340.004	151.21
340.217	-26.96
340.429	30.38
340.641	24.23
340.854	22.19
341.066	95.91
341.278	36.52
341.491	120.49
341.703	-10.58
341.915	54.95
342.128	75.43
342.34	22.19
342.552	20.14
342.764	38.57
342.977	79.53
343.189	30.38
343.401	3.75
343.613	20.14
343.826	13.99
344.038	-72.02
344.25	32.43
344.462	63.15
344.674	-24.92
344.886	48.81
345.099	54.95
345.311	20.14
345.523	54.95
345.735	-2.39
345.947	32.43
346.159	61.1
346.371	-18.77
346.583	89.77
346.795	59.05
347.007	93.87
347.219	73.39
347.431	-35.16
347.643	75.43
347.855	-53.59
348.067	32.43
348.279	13.99
348.491	-104.79
348.703	-8.53
348.915	-4.44
349.127	-100.69
349.339	85.67
349.551	69.29
349.763	24.23
349.975	42.67
350.187	34.47
350.399	9.9
350.61	44.71
350.822	50.86
351.034	20.14
351.246	85.67
351.458	93.87
351.669	38.57
351.881	32.43
352.093	91.82
352.305	44.71
352.517	38.57
352.728	134.82
352.94	36.52
353.152	1.71
353.363	22.19
353.575	67.24
353.787	87.72
353.999	40.62
354.21	61.1
354.422	52.91
354.633	1.71
354.845	46.76
355.057	34.47
355.268	67.24
355.48	52.91
355.692	-24.92
355.903	40.62
356.115	-24.92
356.326	-0.34
356.538	50.86
356.749	36.52
356.961	61.1
357.172	100.01
357.384	46.76
357.595	65.19
357.807	16.04
358.018	18.09
358.23	130.73
358.441	63.15
358.653	28.33
358.864	20.14
359.075	-4.44
359.287	-37.2
359.498	61.1
359.709	89.77
359.921	112.3
360.132	50.86
360.344	50.86
360.555	-33.11
360.766	16.04
360.977	24.23
361.189	-29.01
361.4	28.33
361.611	73.39
361.823	-6.49
362.034	75.43
362.245	42.67
362.456	11.95
362.667	100.01
362.879	32.43
363.09	-8.53
363.301	20.14
363.512	-22.87
363.723	-24.92
363.935	1.71
364.146	3.75
364.357	13.99
364.568	13.99
364.779	85.67
364.99	32.43
365.201	22.19
365.412	61.1
365.623	77.48
365.834	85.67
366.045	34.47
366.256	59.05
366.467	24.23
366.678	16.04
366.889	7.85
367.1	38.57
367.311	3.75
367.522	16.04
367.733	-4.44
367.944	59.05
368.155	38.57
368.366	102.06
368.577	46.76
368.788	26.28
368.999	65.19
369.209	-14.68
369.42	81.58
369.631	104.11
369.842	-0.34
370.053	71.34
370.264	81.58
370.474	32.43
370.685	-10.58
370.896	50.86
371.107	124.58
371.317	59.05
371.528	95.91
371.739	63.15
371.95	28.33
372.16	3.75
372.371	50.86
372.582	71.34
372.792	-0.34
373.003	52.91
373.214	26.28
373.424	104.11
373.635	54.95
373.846	102.06
374.056	-31.06
374.267	61.1
374.477	-22.87
374.688	13.99
374.898	-6.49
375.109	85.67
375.319	69.29
375.53	79.53
375.74	18.09
375.951	40.62
376.161	61.1
376.372	5.8
376.582	28.33
376.793	63.15
377.003	-26.96
377.214	61.1
377.424	26.28
377.635	71.34
377.845	9.9
378.055	95.91
378.266	40.62
378.476	85.67
378.686	11.95
378.897	79.53
379.107	52.91
379.317	87.72
379.528	11.95
379.738	69.29
379.948	-43.35
380.158	93.87
380.369	54.95
380.579	26.28
380.789	26.28
380.999	93.87
381.21	40.62
381.42	73.39
381.63	32.43
381.84	87.72
382.05	-31.06
382.261	46.76
382.471	32.43
382.681	44.71
382.891	48.81
383.101	106.15
383.311	9.9
383.521	38.57
383.731	38.57
383.941	65.19
384.151	16.04
384.361	-16.73
384.571	44.71
384.781	40.62
384.991	81.58
385.201	26.28
385.411	71.34
385.621	18.09
385.831	16.04
386.041	71.34
386.251	44.71
386.461	83.63
386.671	24.23
386.881	91.82
387.091	77.48
387.301	108.2
387.511	-31.06
387.72	-0.34
387.93	118.44
388.14	7.85
388.35	20.14
388.56	-63.83
388.769	34.47
388.979	26.28
389.189	42.67
389.399	102.06
389.609	-8.53
389.818	28.33
390.028	77.48
390.238	40.62
390.447	24.23
390.657	69.29
390.867	75.43
391.076	13.99
391.286	-6.49
391.496	36.52
391.705	13.99
391.915	120.49
392.125	5.8
392.334	11.95
392.544	69.29
392.753	40.62
392.963	-37.2
393.172	73.39
393.382	-55.64
393.591	69.29
393.801	32.43
394.01	50.86
394.22	52.91
394.429	36.52
394.639	11.95
394.848	65.19
395.058	38.57
395.267	5.8
395.477	93.87
395.686	79.53
395.895	87.72
396.105	112.3
396.314	-6.49
396.524	50.86
396.733	13.99
396.942	73.39
397.152	106.15
397.361	87.72
397.57	44.71
397.78	130.73
397.989	67.24
398.198	89.77
398.407	67.24
398.617	28.33
398.826	112.3
399.035	50.86
399.244	73.39
399.453	32.43
399.663	83.63
399.872	81.58
400.081	104.11
400.29	65.19
400.499	71.34
400.708	38.57
400.917	50.86
401.127	18.09
401.336	69.29
401.545	132.78
401.754	73.39
401.963	124.58
402.172	110.25
402.381	87.72
402.59	114.34
402.799	63.15
403.008	75.43
403.217	112.3
403.426	46.76
403.635	57
403.844	116.39
404.053	77.48
404.262	89.77
404.471	151.21
404.68	128.68
404.888	75.43
405.097	106.15
405.306	132.78
405.515	83.63
405.724	104.11
405.933	134.82
406.142	192.17
406.35	61.1
406.559	130.73
406.768	229.03
406.977	155.3
407.185	85.67
407.394	126.63
407.603	132.78
407.812	143.02
408.02	186.02
408.229	28.33
408.438	130.73
408.646	104.11
408.855	173.74
409.064	231.08
409.272	196.26
409.481	153.26
409.69	157.35
409.898	104.11
410.107	202.41
410.315	229.03
410.524	265.89
410.733	163.5
410.941	212.65
411.15	196.26
411.358	239.27
411.567	224.94
411.775	253.61
411.984	243.37
412.192	261.8
412.401	304.81
412.609	380.58
412.818	300.71
413.026	345.77
413.234	347.81
413.443	300.71
413.651	411.3
413.86	310.95
414.068	460.45
414.276	401.06
414.485	411.3
414.693	460.45
414.901	470.69
415.11	497.32
415.318	442.02
415.526	501.41
415.734	558.75
415.943	581.28
416.151	616.1
416.359	544.42
416.567	607.91
416.776	595.62
416.984	679.58
417.192	730.78
417.4	714.4
417.608	609.95
417.817	720.54
418.025	777.89
418.233	808.61
418.441	861.85
418.649	851.61
418.857	898.72
419.065	894.62
419.273	898.72
419.481	999.07
419.689	1021.6
419.897	984.73
420.105	1070.75
420.313	1103.51
420.521	1146.52
420.729	1187.48
420.937	1214.1
421.145	1242.78
421.353	1306.26
421.561	1398.42
421.769	1308.31
421.977	1379.99
422.185	1363.61
422.393	1517.2
422.601	1543.83
422.809	1554.07
423.017	1586.83
423.224	1668.75
423.432	1754.77
423.64	1689.23
423.848	1912.46
424.056	1810.06
424.263	1863.31
424.471	1912.46
424.679	1908.37
424.887	2119.31
425.094	2193.03
425.302	2299.53
425.51	2188.94
425.718	2375.3
425.925	2383.49
426.133	2477.7
426.341	2610.82
426.548	2610.82
426.756	2666.11
426.964	2686.59
427.171	2922.11
427.379	2895.49
427.586	3032.7
427.794	3034.75
428.001	3180.15
428.209	3460.73
428.417	3292.79
428.624	3583.6
428.832	3542.64
429.039	3595.89
429.247	3538.55
429.454	3761.78
429.662	4175.47
429.869	3808.88
430.076	4038.25
430.284	3989.1
430.491	4202.09
430.699	4419.18
430.906	4402.79
431.114	4499.05
431.321	4556.39
431.528	4865.63
431.736	5107.29
431.943	5158.49
432.15	5049.95
432.358	5305.95
432.565	5537.37
432.772	5504.6
432.979	5627.48
433.187	5949.01
433.394	5772.88
433.601	6227.53
433.808	6172.24
434.016	6180.43
434.223	6413.9
434.43	7011.9
434.637	6645.32
434.844	7409.21
435.052	7315
435.259	7114.3
435.466	7374.39
435.673	7300.67
435.88	7720.5
436.087	8044.08
436.294	8334.89
436.501	8101.42
436.708	8132.14
436.915	8351.28
437.122	8771.11
437.329	8664.61
437.537	9059.87
437.743	9137.7
437.95	9070.11
438.157	9664.02
438.364	10053.14
438.571	9807.38
438.778	9754.13
438.985	11003.39
439.192	10587.66
439.399	10841.61
439.606	10513.93
439.813	11218.43
440.02	11693.56
440.227	11476.48
440.433	11345.41
440.64	11634.17
440.847	11789.81
441.054	11828.73
441.261	13030.88
441.467	12815.85
441.674	13272.54
441.881	13313.5
442.088	13530.59
442.294	13256.16
442.501	13682.14
442.708	14007.76
442.914	14583.24
443.121	15029.7
443.328	14530
443.534	15738.3
443.741	15293.89
443.948	15246.79
444.154	16225.72
444.361	16047.54
444.568	16223.67
444.774	16045.49
444.981	16571.82
445.187	16999.85
445.394	17786.27
445.6	17055.14
445.807	18779.53
446.013	18255.25
446.22	18560.4
446.426	19502.47
446.633	19488.13
446.839	20190.58
447.046	19262.85
447.252	20204.92
447.459	20426.1
447.665	20204.92
447.871	21206.38
448.078	22308.18
448.284	20841.84
448.491	21630.3
448.697	22627.67
448.903	22785.36
449.11	23180.62
449.316	22836.56
449.522	23313.73
449.728	23545.16
449.935	23696.71
450.141	24020.28
450.347	24565.04
450.553	23696.71
450.76	24077.63
450.966	24892.72
451.172	24319.29
451.378	25201.96
451.584	24630.58
451.791	25328.94
451.997	25457.96
452.203	25863.46
452.409	25623.84
452.615	25654.56
452.821	24513.84
453.027	24200.51
453.233	25582.88
453.44	24528.18
453.646	24868.14
453.852	25097.52
454.058	25384.23
454.264	24442.17
454.47	24972.59
454.676	24677.68
454.882	25591.08
455.088	23237.96
455.294	23661.89
455.5	24036.67
455.705	24331.58
455.911	23455.04
456.117	22981.96
456.323	22383.96
456.529	21470.56
456.735	22467.92
456.941	21742.94
457.147	21237.09
457.352	20706.67
457.558	20487.54
457.764	20086.14
457.97	20192.63
458.176	19574.14
458.381	19899.77
458.587	18591.12
458.793	18705.81
458.999	17841.56
459.204	19015.05
459.41	18664.85
459.616	17403.3
459.821	17309.09
460.027	17196.45
460.233	17096.1
460.438	16432.56
460.644	16416.18
460.85	15521.21
461.055	15275.46
461.261	15087.04
461.466	14204.37
461.672	13592.03
461.878	14816.71
462.083	13698.52
462.289	13417.95
462.494	13358.56
462.7	12428.78
462.905	12332.53
463.111	12742.12
463.316	12772.84
463.522	12525.04
463.727	12727.78
463.932	12400.11
464.138	12355.05
464.343	12361.2
464.549	12090.87
464.754	12396.01
464.959	12314.09
465.165	12355.05
465.37	11658.74
465.575	11421.18
465.781	11783.67
465.986	11888.12
466.191	11562.49
466.397	11318.78
466.602	10571.27
466.807	11136.51
467.012	11214.34
467.218	10901
467.423	10765.83
467.628	10788.36
467.833	11609.59
468.038	11185.66
468.244	10786.31
