Data from USB4F104151__68__11-52-36-601.txt Node

Date: Fri Mar 14 11:52:36 EDT 2025
User: louis
Spectrometer: USB4F10415
Trigger mode: 4
Integration Time (sec): 2.000000E-2
Scans to average: 1
Electric dark correction enabled: true
Nonlinearity correction enabled: false
Boxcar width: 0
XAxis mode: Wavelengths
Number of Pixels in Spectrum: 3648
>>>>>Begin Spectral Data<<<<<
178.204	-70.14
178.424	-70.14
178.644	-70.14
178.864	-72.19
179.084	-156.16
179.304	7.68
179.524	1.54
179.744	-39.42
179.964	56.83
180.184	-6.66
180.404	17.92
180.624	-45.57
180.844	-18.94
181.064	-35.33
181.283	28.16
181.503	-4.61
181.723	38.4
181.943	-23.04
182.163	120.32
182.383	34.3
182.602	44.54
182.822	114.17
183.042	50.69
183.262	28.16
183.482	52.74
183.701	97.79
183.921	-37.38
184.141	36.35
184.361	-43.52
184.58	13.82
184.8	-31.23
185.02	-23.04
185.239	-35.33
185.459	-6.66
185.679	54.78
185.898	26.11
186.118	-0.51
186.338	58.88
186.557	48.64
186.777	9.73
186.997	56.83
187.216	-66.05
187.436	101.89
187.655	28.16
187.875	44.54
188.095	36.35
188.314	62.98
188.534	50.69
188.753	28.16
188.973	19.97
189.192	50.69
189.412	-10.75
189.631	52.74
189.851	-25.09
190.07	56.83
190.29	34.3
190.509	-16.9
190.729	48.64
190.948	17.92
191.168	89.6
191.387	7.68
191.607	-25.09
191.826	42.5
192.045	30.21
192.265	-4.61
192.484	44.54
192.704	-4.61
192.923	36.35
193.142	65.02
193.362	-37.38
193.581	138.75
193.8	22.02
194.02	71.17
194.239	52.74
194.458	79.36
194.678	44.54
194.897	11.78
195.116	19.97
195.335	-12.8
195.555	19.97
195.774	22.02
195.993	40.45
196.212	-4.61
196.432	-12.8
196.651	-23.04
196.87	48.64
197.089	87.55
197.308	15.87
197.528	-8.7
197.747	30.21
197.966	67.07
198.185	85.5
198.404	44.54
198.623	-8.7
198.842	56.83
199.062	71.17
199.281	71.17
199.5	58.88
199.719	105.98
199.938	83.45
200.157	50.69
200.376	36.35
200.595	44.54
200.814	54.78
201.033	34.3
201.252	-37.38
201.471	1.54
201.69	-4.61
201.909	1.54
202.128	-4.61
202.347	36.35
202.566	-2.56
202.785	67.07
203.004	15.87
203.223	65.02
203.442	-18.94
203.661	7.68
203.879	99.84
204.098	17.92
204.317	-2.56
204.536	52.74
204.755	56.83
204.974	110.08
205.193	67.07
205.411	67.07
205.63	48.64
205.849	40.45
206.068	-6.66
206.287	62.98
206.505	56.83
206.724	-41.47
206.943	34.3
207.162	65.02
207.381	3.58
207.599	9.73
207.818	-10.75
208.037	7.68
208.255	9.73
208.474	-12.8
208.693	52.74
208.911	48.64
209.13	3.58
209.349	34.3
209.567	-0.51
209.786	46.59
210.005	-18.94
210.223	52.74
210.442	-12.8
210.661	22.02
210.879	-29.18
211.098	46.59
211.316	60.93
211.535	7.68
211.753	50.69
211.972	17.92
212.191	30.21
212.409	48.64
212.628	38.4
212.846	-0.51
213.065	112.13
213.283	97.79
213.502	67.07
213.72	58.88
213.938	17.92
214.157	73.21
214.375	52.74
214.594	-53.76
214.812	17.92
215.031	-14.85
215.249	24.06
215.467	-2.56
215.686	58.88
215.904	-18.94
216.122	-10.75
216.341	9.73
216.559	54.78
216.778	87.55
216.996	48.64
217.214	36.35
217.432	36.35
217.651	46.59
217.869	7.68
218.087	24.06
218.306	-27.14
218.524	11.78
218.742	-0.51
218.96	11.78
219.179	32.26
219.397	24.06
219.615	108.03
219.833	19.97
220.051	40.45
220.27	81.41
220.488	56.83
220.706	60.93
220.924	5.63
221.142	-18.94
221.36	13.82
221.578	75.26
221.796	15.87
222.015	77.31
222.233	17.92
222.451	52.74
222.669	-25.09
222.887	85.5
223.105	65.02
223.323	50.69
223.541	-25.09
223.759	48.64
223.977	-10.75
224.195	103.93
224.413	54.78
224.631	13.82
224.849	85.5
225.067	44.54
225.285	81.41
225.503	91.65
225.721	-4.61
225.939	-2.56
226.157	54.78
226.375	42.5
226.592	28.16
226.81	26.11
227.028	91.65
227.246	52.74
227.464	81.41
227.682	44.54
227.9	87.55
228.117	26.11
228.335	40.45
228.553	11.78
228.771	-53.76
228.989	58.88
229.206	50.69
229.424	7.68
229.642	56.83
229.86	62.98
230.077	5.63
230.295	22.02
230.513	50.69
230.731	79.36
230.948	58.88
231.166	65.02
231.384	30.21
231.601	-20.99
231.819	11.78
232.037	26.11
232.254	7.68
232.472	44.54
232.689	118.27
232.907	24.06
233.125	83.45
233.342	91.65
233.56	34.3
233.777	-27.14
233.995	13.82
234.213	134.65
234.43	1.54
234.648	105.98
234.865	11.78
235.083	13.82
235.3	-47.62
235.518	83.45
235.735	85.5
235.953	38.4
236.17	42.5
236.388	-12.8
236.605	40.45
236.822	69.12
237.04	-0.51
237.257	48.64
237.475	11.78
237.692	30.21
237.909	-27.14
238.127	81.41
238.344	32.26
238.562	-12.8
238.779	40.45
238.996	7.68
239.214	-16.9
239.431	34.3
239.648	56.83
239.865	99.84
240.083	38.4
240.3	15.87
240.517	17.92
240.735	-25.09
240.952	50.69
241.169	91.65
241.386	-10.75
241.603	-8.7
241.821	15.87
242.038	26.11
242.255	71.17
242.472	60.93
242.689	42.5
242.907	99.84
243.124	62.98
243.341	1.54
243.558	19.97
243.775	-29.18
243.992	-47.62
244.209	69.12
244.426	134.65
244.643	34.3
244.86	-6.66
245.078	-2.56
245.295	-6.66
245.512	60.93
245.729	5.63
245.946	11.78
246.163	15.87
246.38	-49.66
246.597	44.54
246.814	62.98
247.031	73.21
247.248	28.16
247.464	110.08
247.681	52.74
247.898	44.54
248.115	93.69
248.332	26.11
248.549	38.4
248.766	65.02
248.983	30.21
249.2	28.16
249.417	15.87
249.633	-41.47
249.85	62.98
250.067	46.59
250.284	69.12
250.501	79.36
250.717	62.98
250.934	-18.94
251.151	-10.75
251.368	42.5
251.585	81.41
251.801	50.69
252.018	19.97
252.235	65.02
252.451	19.97
252.668	36.35
252.885	-2.56
253.102	52.74
253.318	108.03
253.535	54.78
253.752	-6.66
253.968	15.87
254.185	-25.09
254.401	17.92
254.618	19.97
254.835	-12.8
255.051	73.21
255.268	24.06
255.484	-29.18
255.701	44.54
255.917	50.69
256.134	-33.28
256.351	71.17
256.567	52.74
256.784	-12.8
257	17.92
257.217	-12.8
257.433	93.69
257.65	28.16
257.866	54.78
258.082	3.58
258.299	22.02
258.515	30.21
258.732	-14.85
258.948	-12.8
259.165	32.26
259.381	65.02
259.597	32.26
259.814	124.41
260.03	19.97
260.246	-29.18
260.463	128.51
260.679	32.26
260.895	54.78
261.112	91.65
261.328	-8.7
261.544	30.21
261.761	97.79
261.977	-18.94
262.193	32.26
262.409	52.74
262.626	79.36
262.842	56.83
263.058	1.54
263.274	28.16
263.49	99.84
263.707	40.45
263.923	30.21
264.139	-43.52
264.355	19.97
264.571	81.41
264.787	108.03
265.004	42.5
265.22	38.4
265.436	-12.8
265.652	7.68
265.868	89.6
266.084	65.02
266.3	42.5
266.516	26.11
266.732	65.02
266.948	42.5
267.164	60.93
267.38	-8.7
267.596	58.88
267.812	73.21
268.028	-4.61
268.244	-6.66
268.46	-6.66
268.676	56.83
268.892	40.45
269.108	32.26
269.324	5.63
269.54	-20.99
269.756	46.59
269.972	22.02
270.188	81.41
270.403	7.68
270.619	28.16
270.835	122.37
271.051	56.83
271.267	22.02
271.483	-20.99
271.698	19.97
271.914	38.4
272.13	13.82
272.346	15.87
272.562	46.59
272.777	60.93
272.993	-33.28
273.209	13.82
273.425	58.88
273.64	30.21
273.856	-18.94
274.072	40.45
274.287	-43.52
274.503	36.35
274.719	5.63
274.934	-2.56
275.15	-0.51
275.366	-18.94
275.581	13.82
275.797	56.83
276.012	13.82
276.228	62.98
276.444	9.73
276.659	5.63
276.875	-66.05
277.09	67.07
277.306	-18.94
277.521	69.12
277.737	1.54
277.952	56.83
278.168	3.58
278.383	19.97
278.599	65.02
278.814	38.4
279.03	60.93
279.245	44.54
279.461	-0.51
279.676	40.45
279.892	11.78
280.107	-31.23
280.322	19.97
280.538	67.07
280.753	22.02
280.969	73.21
281.184	36.35
281.399	44.54
281.615	58.88
281.83	48.64
282.045	-0.51
282.26	-68.09
282.476	9.73
282.691	79.36
282.906	71.17
283.122	65.02
283.337	17.92
283.552	24.06
283.767	19.97
283.983	36.35
284.198	-43.52
284.413	52.74
284.628	15.87
284.843	50.69
285.058	69.12
285.274	-12.8
285.489	3.58
285.704	-53.76
285.919	46.59
286.134	17.92
286.349	-23.04
286.564	7.68
286.779	62.98
286.995	60.93
287.21	36.35
287.425	60.93
287.64	22.02
287.855	75.26
288.07	34.3
288.285	60.93
288.5	38.4
288.715	69.12
288.93	97.79
289.145	32.26
289.36	75.26
289.575	85.5
289.79	-43.52
290.004	30.21
290.219	-20.99
290.434	38.4
290.649	65.02
290.864	24.06
291.079	1.54
291.294	42.5
291.509	32.26
291.724	-6.66
291.938	7.68
292.153	38.4
292.368	-41.47
292.583	75.26
292.798	36.35
293.012	101.89
293.227	44.54
293.442	54.78
293.657	120.32
293.871	38.4
294.086	75.26
294.301	126.46
294.516	83.45
294.73	-8.7
294.945	3.58
295.16	30.21
295.374	85.5
295.589	60.93
295.804	3.58
296.018	32.26
296.233	48.64
296.447	7.68
296.662	-35.33
296.877	62.98
297.091	-8.7
297.306	42.5
297.52	30.21
297.735	40.45
297.949	71.17
298.164	73.21
298.378	122.37
298.593	58.88
298.807	44.54
299.022	46.59
299.236	50.69
299.451	28.16
299.665	56.83
299.88	-6.66
300.094	54.78
300.309	9.73
300.523	19.97
300.737	24.06
300.952	52.74
301.166	42.5
301.381	-23.04
301.595	44.54
301.809	52.74
302.024	28.16
302.238	13.82
302.452	99.84
302.667	-72.19
302.881	24.06
303.095	73.21
303.309	38.4
303.524	42.5
303.738	26.11
303.952	44.54
304.166	71.17
304.381	-27.14
304.595	50.69
304.809	44.54
305.023	-4.61
305.237	44.54
305.452	103.93
305.666	65.02
305.88	60.93
306.094	52.74
306.308	48.64
306.522	140.8
306.736	46.59
306.95	62.98
307.164	77.31
307.379	-8.7
307.593	9.73
307.807	71.17
308.021	95.74
308.235	42.5
308.449	-14.85
308.663	44.54
308.877	56.83
309.091	52.74
309.305	-55.81
309.519	7.68
309.733	69.12
309.947	36.35
310.161	83.45
310.374	42.5
310.588	73.21
310.802	-37.38
311.016	34.3
311.23	77.31
311.444	-20.99
311.658	93.69
311.872	48.64
312.085	77.31
312.299	56.83
312.513	17.92
312.727	30.21
312.941	7.68
313.154	126.46
313.368	26.11
313.582	65.02
313.796	71.17
314.009	93.69
314.223	38.4
314.437	87.55
314.651	-0.51
314.864	54.78
315.078	38.4
315.292	58.88
315.505	46.59
315.719	65.02
315.933	87.55
316.146	40.45
316.36	42.5
316.573	103.93
316.787	24.06
317.001	62.98
317.214	28.16
317.428	75.26
317.641	42.5
317.855	38.4
318.068	9.73
318.282	-18.94
318.495	103.93
318.709	11.78
318.922	52.74
319.136	42.5
319.349	71.17
319.563	101.89
319.776	95.74
319.99	-25.09
320.203	-20.99
320.417	75.26
320.63	62.98
320.843	19.97
321.057	89.6
321.27	99.84
321.483	73.21
321.697	40.45
321.91	-0.51
322.124	71.17
322.337	99.84
322.55	-45.57
322.763	60.93
322.977	124.41
323.19	-76.29
323.403	60.93
323.617	112.13
323.83	87.55
324.043	-14.85
324.256	9.73
324.469	38.4
324.683	60.93
324.896	17.92
325.109	58.88
325.322	3.58
325.535	85.5
325.748	44.54
325.962	24.06
326.175	-10.75
326.388	69.12
326.601	-25.09
326.814	48.64
327.027	28.16
327.24	140.8
327.453	99.84
327.666	56.83
327.879	24.06
328.092	83.45
328.305	19.97
328.518	26.11
328.731	-8.7
328.944	101.89
329.157	52.74
329.37	44.54
329.583	87.55
329.796	93.69
330.009	-12.8
330.222	30.21
330.435	50.69
330.648	52.74
330.861	-16.9
331.073	58.88
331.286	24.06
331.499	52.74
331.712	-20.99
331.925	32.26
332.138	-0.51
332.35	50.69
332.563	40.45
332.776	44.54
332.989	30.21
333.202	40.45
333.414	60.93
333.627	15.87
333.84	60.93
334.053	46.59
334.265	79.36
334.478	19.97
334.691	7.68
334.903	52.74
335.116	-23.04
335.329	32.26
335.541	44.54
335.754	1.54
335.966	-0.51
336.179	15.87
336.392	30.21
336.604	32.26
336.817	60.93
337.029	46.59
337.242	124.41
337.454	114.17
337.667	36.35
337.88	112.13
338.092	103.93
338.305	44.54
338.517	-12.8
338.729	50.69
338.942	73.21
339.154	-0.51
339.367	40.45
339.579	56.83
339.792	60.93
340.004	60.93
340.217	110.08
340.429	30.21
340.641	42.5
340.854	48.64
341.066	26.11
341.278	15.87
341.491	124.41
341.703	75.26
341.915	105.98
342.128	34.3
342.34	44.54
342.552	114.17
342.764	-45.57
342.977	-39.42
343.189	44.54
343.401	38.4
343.613	-16.9
343.826	73.21
344.038	83.45
344.25	28.16
344.462	1.54
344.674	-4.61
344.886	-8.7
345.099	46.59
345.311	52.74
345.523	17.92
345.735	-27.14
345.947	69.12
346.159	-4.61
346.371	71.17
346.583	-0.51
346.795	56.83
347.007	48.64
347.219	48.64
347.431	38.4
347.643	112.13
347.855	56.83
348.067	116.22
348.279	85.5
348.491	50.69
348.703	65.02
348.915	56.83
349.127	7.68
349.339	71.17
349.551	-39.42
349.763	24.06
349.975	67.07
350.187	118.27
350.399	58.88
350.61	110.08
350.822	19.97
351.034	30.21
351.246	42.5
351.458	56.83
351.669	56.83
351.881	69.12
352.093	19.97
352.305	114.17
352.517	1.54
352.728	38.4
352.94	54.78
353.152	81.41
353.363	17.92
353.575	52.74
353.787	62.98
353.999	26.11
354.21	91.65
354.422	15.87
354.633	26.11
354.845	32.26
355.057	44.54
355.268	40.45
355.48	93.69
355.692	32.26
355.903	87.55
356.115	30.21
356.326	1.54
356.538	79.36
356.749	-4.61
356.961	89.6
357.172	32.26
357.384	93.69
357.595	77.31
357.807	52.74
358.018	28.16
358.23	44.54
358.441	77.31
358.653	132.61
358.864	30.21
359.075	38.4
359.287	5.63
359.498	60.93
359.709	32.26
359.921	67.07
360.132	65.02
360.344	-37.38
360.555	77.31
360.766	69.12
360.977	50.69
361.189	103.93
361.4	52.74
361.611	-14.85
361.823	24.06
362.034	24.06
362.245	-33.28
362.456	126.46
362.667	48.64
362.879	1.54
363.09	50.69
363.301	77.31
363.512	19.97
363.723	95.74
363.935	54.78
364.146	79.36
364.357	32.26
364.568	50.69
364.779	-18.94
364.99	93.69
365.201	67.07
365.412	126.46
365.623	28.16
365.834	36.35
366.045	36.35
366.256	87.55
366.467	83.45
366.678	50.69
366.889	95.74
367.1	19.97
367.311	124.41
367.522	77.31
367.733	77.31
367.944	36.35
368.155	69.12
368.366	50.69
368.577	40.45
368.788	79.36
368.999	-57.86
369.209	93.69
369.42	105.98
369.631	99.84
369.842	32.26
370.053	42.5
370.264	60.93
370.474	87.55
370.685	67.07
370.896	15.87
371.107	65.02
371.317	62.98
371.528	46.59
371.739	79.36
371.95	97.79
372.16	65.02
372.371	32.26
372.582	50.69
372.792	93.69
373.003	65.02
373.214	87.55
373.424	-8.7
373.635	48.64
373.846	71.17
374.056	91.65
374.267	54.78
374.477	32.26
374.688	38.4
374.898	103.93
375.109	67.07
375.319	73.21
375.53	95.74
375.74	26.11
375.951	11.78
376.161	67.07
376.372	91.65
376.582	-23.04
376.793	81.41
377.003	34.3
377.214	83.45
377.424	52.74
377.635	79.36
377.845	11.78
378.055	108.03
378.266	26.11
378.476	81.41
378.686	-12.8
378.897	67.07
379.107	62.98
379.317	48.64
379.528	69.12
379.738	93.69
379.948	34.3
380.158	62.98
380.369	-4.61
380.579	77.31
380.789	73.21
380.999	97.79
381.21	19.97
381.42	62.98
381.63	83.45
381.84	46.59
382.05	65.02
382.261	44.54
382.471	77.31
382.681	-2.56
382.891	79.36
383.101	3.58
383.311	24.06
383.521	44.54
383.731	38.4
383.941	83.45
384.151	48.64
384.361	-6.66
384.571	5.63
384.781	15.87
384.991	87.55
385.201	95.74
385.411	126.46
385.621	71.17
385.831	73.21
386.041	28.16
386.251	128.51
386.461	62.98
386.671	11.78
386.881	89.6
387.091	95.74
387.301	56.83
387.511	103.93
387.72	67.07
387.93	87.55
388.14	112.13
388.35	11.78
388.56	108.03
388.769	79.36
388.979	114.17
389.189	22.02
389.399	36.35
389.609	19.97
389.818	108.03
390.028	50.69
390.238	19.97
390.447	-25.09
390.657	89.6
390.867	89.6
391.076	93.69
391.286	34.3
391.496	62.98
391.705	95.74
391.915	200.19
392.125	71.17
392.334	48.64
392.544	73.21
392.753	95.74
392.963	69.12
393.172	42.5
393.382	65.02
393.591	67.07
393.801	114.17
394.01	116.22
394.22	146.94
394.429	122.37
394.639	130.56
394.848	101.89
395.058	124.41
395.267	126.46
395.477	108.03
395.686	144.89
395.895	138.75
396.105	122.37
396.314	62.98
396.524	136.7
396.733	65.02
396.942	108.03
397.152	101.89
397.361	34.3
397.57	116.22
397.78	118.27
397.989	19.97
398.198	116.22
398.407	112.13
398.617	122.37
398.826	120.32
399.035	69.12
399.244	103.93
399.453	112.13
399.663	130.56
399.872	83.45
400.081	134.65
400.29	93.69
400.499	105.98
400.708	122.37
400.917	99.84
401.127	169.47
401.336	126.46
401.545	222.72
401.754	163.33
401.963	91.65
402.172	165.37
402.381	79.36
402.59	97.79
402.799	89.6
403.008	140.8
403.217	146.94
403.426	120.32
403.635	165.37
403.844	206.33
404.053	157.18
404.262	206.33
404.471	120.32
404.68	161.28
404.888	175.61
405.097	120.32
405.306	161.28
405.515	212.48
405.724	118.27
405.933	222.72
406.142	259.58
406.35	138.75
406.559	235
406.768	159.23
406.977	249.34
407.185	187.9
407.394	257.53
407.603	210.43
407.812	192
408.02	237.05
408.229	224.76
408.438	290.3
408.646	239.1
408.855	196.09
409.064	318.97
409.272	333.31
409.481	316.92
409.69	321.02
409.898	345.59
410.107	437.75
410.315	402.94
410.524	443.9
410.733	357.88
410.941	366.07
411.15	394.75
411.358	441.85
411.567	423.42
411.775	443.9
411.984	427.51
412.192	429.56
412.401	493.05
412.609	536.06
412.818	546.3
413.026	491
413.234	460.28
413.443	634.36
413.651	548.34
413.86	617.97
414.068	685.56
414.276	622.07
414.485	654.84
414.693	730.61
414.901	816.63
415.11	777.72
415.318	757.24
415.526	689.65
415.734	816.63
415.943	804.34
416.151	910.83
416.359	943.6
416.567	947.7
416.776	1009.14
416.984	1086.96
417.192	1134.06
417.4	1168.88
417.608	1068.53
417.817	1267.18
418.025	1224.17
418.233	1281.52
418.441	1295.85
418.649	1367.53
418.857	1351.15
419.065	1402.35
419.273	1433.07
419.481	1496.55
419.689	1625.58
419.897	1664.49
420.105	1736.17
420.313	1646.05
420.521	1801.7
420.729	1848.8
420.937	1863.14
421.145	2063.84
421.353	1947.11
421.561	2047.46
421.769	2246.11
421.977	2229.73
422.185	2235.87
422.393	2323.93
422.601	2438.62
422.809	2491.87
423.017	2536.92
423.224	2768.34
423.432	2854.36
423.64	2721.24
423.848	3165.65
424.056	2930.13
424.263	2997.71
424.471	3188.18
424.679	3241.42
424.887	3337.68
425.094	3515.85
425.302	3579.34
425.51	3638.73
425.718	3796.42
425.925	3870.15
426.133	3847.62
426.341	3962.31
426.548	4259.26
426.756	4390.33
426.964	4478.4
427.171	4736.44
427.379	4816.31
427.586	4818.36
427.794	5035.44
428.001	5264.82
428.209	5457.32
428.417	5432.75
428.624	5860.77
428.832	5807.53
429.039	5858.73
429.247	5741.99
429.454	6133.15
429.662	6788.5
429.869	6423.97
430.076	6712.73
430.284	6536.6
430.491	6722.97
430.699	7331.22
430.906	7226.77
431.114	7224.72
431.321	7626.12
431.528	7839.11
431.736	8301.95
431.943	8658.3
432.15	8281.47
432.358	8629.63
432.565	8955.26
432.772	8865.14
432.979	9229.68
433.187	9350.51
433.394	9577.84
433.601	10165.6
433.808	10030.44
434.016	10167.65
434.223	10677.6
434.43	11335
434.637	10941.79
434.844	11681.1
435.052	11846.99
435.259	11832.65
435.466	11838.8
435.673	11726.16
435.88	12664.13
436.087	13260.09
436.294	13186.36
436.501	12897.6
436.708	13112.63
436.915	13544.75
437.122	14282.02
437.329	14284.07
437.537	14871.84
437.743	14845.21
437.95	14732.58
438.157	15697.17
438.364	16004.36
438.571	16164.11
438.778	16194.82
438.985	17593.59
439.192	16989.44
439.399	17466.61
439.606	17288.44
439.813	17970.41
440.02	19281.11
440.227	19074.27
440.433	18732.26
440.64	19518.68
440.847	19399.9
441.054	19700.95
441.261	20714.69
441.467	20505.8
441.674	21179.58
441.881	21994.67
442.088	21931.19
442.294	21599.41
442.501	22351.02
442.708	22779.04
442.914	23407.77
443.121	24239.25
443.328	24241.29
443.534	25777.27
443.741	24775.81
443.948	24511.63
444.154	26446.96
444.361	26059.89
444.568	26207.34
444.774	26498.16
444.981	26756.2
445.187	27374.69
445.394	28582.99
445.6	28177.49
445.807	30903.34
446.013	29469.76
446.22	29994.04
446.426	31525.92
446.633	31396.9
446.839	32523.28
447.046	31452.19
447.252	32910.35
447.459	32885.77
447.665	32949.26
447.871	34178.04
448.078	35818.46
448.284	33766.4
448.491	35126.25
448.697	36473.81
448.903	37200.84
449.11	37047.24
449.316	36420.56
449.522	37153.74
449.728	38398.9
449.935	38513.59
450.141	38364.09
450.347	39140.27
450.553	37968.83
450.76	38448.05
450.966	39676.83
451.172	39631.78
451.378	40178.59
451.584	39648.16
451.791	40565.65
451.997	40428.44
452.203	41044.88
452.409	40686.48
452.615	40756.11
452.821	39187.37
453.027	38949.81
453.233	41077.65
453.44	39531.43
453.646	40043.42
453.852	40416.15
454.058	40960.91
454.264	39537.57
454.47	40737.68
454.676	39533.48
454.882	40723.35
455.088	37168.07
455.294	37938.11
455.5	38417.33
455.705	38792.11
455.911	37170.12
456.117	36369.37
456.323	36006.87
456.529	33940.47
456.735	35724.25
456.941	34878.44
457.147	34268.15
457.352	33313.8
457.558	32562.19
457.764	32789.52
457.97	31835.16
458.176	31728.67
458.381	31376.42
458.587	29948.98
458.793	30317.62
458.999	28183.63
459.204	30528.56
459.41	29580.35
459.616	27771.99
459.821	27878.49
460.027	27659.35
460.233	26807.4
460.438	25631.86
460.644	26133.62
460.85	24749.19
461.055	24769.67
461.261	24405.13
461.466	22340.78
461.672	22123.69
461.878	23501.98
462.083	21994.67
462.289	21636.28
462.494	21443.77
462.7	20006.09
462.905	19756.24
463.111	20499.66
463.316	20706.5
463.522	19885.26
463.727	20188.36
463.932	20118.73
464.138	19829.97
464.343	19551.45
464.549	19059.93
464.754	20012.24
464.959	19862.74
465.165	19633.36
465.37	18545.89
465.575	18515.17
465.781	19262.68
465.986	18912.48
466.191	18627.81
466.397	18035.95
466.602	17231.1
466.807	17988.85
467.012	17810.67
467.218	18013.42
467.423	17747.19
467.628	17702.13
