Data from USB4F104151__36__11-51-43-348.txt Node

Date: Fri Mar 14 11:51:43 EDT 2025
User: louis
Spectrometer: USB4F10415
Trigger mode: 4
Integration Time (sec): 2.000000E-2
Scans to average: 1
Electric dark correction enabled: true
Nonlinearity correction enabled: false
Boxcar width: 0
XAxis mode: Wavelengths
Number of Pixels in Spectrum: 3648
>>>>>Begin Spectral Data<<<<<
178.204	-105.13
178.424	-105.13
178.644	-105.13
178.864	-70.31
179.084	-23.21
179.304	-0.68
179.524	-19.11
179.744	-39.59
179.964	97.62
180.184	-64.17
180.404	-8.87
180.624	77.14
180.844	58.71
181.064	-96.94
181.283	-0.68
181.503	21.85
181.723	-25.26
181.943	-17.07
182.163	27.99
182.383	-8.87
182.602	56.66
182.822	-19.11
183.042	3.41
183.262	-41.64
183.482	36.18
183.701	-6.83
183.921	-0.68
184.141	-8.87
184.361	34.13
184.58	15.7
184.8	-4.78
185.02	-31.4
185.239	-33.45
185.459	17.75
185.679	-23.21
185.898	-23.21
186.118	-47.79
186.338	19.8
186.557	11.61
186.777	19.8
186.997	-27.31
187.216	-41.64
187.436	142.68
187.655	-78.51
187.875	83.28
188.095	-12.97
188.314	23.89
188.534	1.37
188.753	-10.92
188.973	48.47
189.192	-0.68
189.412	-23.21
189.631	-2.73
189.851	23.89
190.07	-33.45
190.29	-31.4
190.509	85.33
190.729	54.61
190.948	13.65
191.168	15.7
191.387	79.19
191.607	3.41
191.826	19.8
192.045	40.28
192.265	-23.21
192.484	-68.27
192.704	38.23
192.923	-41.64
193.142	38.23
193.362	52.56
193.581	56.66
193.8	-21.16
194.02	23.89
194.239	52.56
194.458	7.51
194.678	23.89
194.897	25.94
195.116	-2.73
195.335	3.41
195.555	52.56
195.774	50.52
195.993	42.32
196.212	62.8
196.432	-10.92
196.651	36.18
196.87	66.9
197.089	21.85
197.308	11.61
197.528	19.8
197.747	-58.03
197.966	30.04
198.185	-53.93
198.404	-33.45
198.623	30.04
198.842	11.61
199.062	-15.02
199.281	48.47
199.5	40.28
199.719	19.8
199.938	50.52
200.157	-6.83
200.376	48.47
200.595	50.52
200.814	25.94
201.033	-37.55
201.252	-27.31
201.471	5.46
201.69	-8.87
201.909	-35.5
202.128	-39.59
202.347	38.23
202.566	-15.02
202.785	9.56
203.004	30.04
203.223	81.24
203.442	15.7
203.661	-45.74
203.879	-62.12
204.098	32.08
204.317	30.04
204.536	-66.22
204.755	34.13
204.974	-29.35
205.193	-43.69
205.411	77.14
205.63	23.89
205.849	-27.31
206.068	32.08
206.287	21.85
206.505	-8.87
206.724	-51.88
206.943	7.51
207.162	-4.78
207.381	-53.93
207.599	56.66
207.818	17.75
208.037	32.08
208.255	-25.26
208.474	23.89
208.693	-17.07
208.911	17.75
209.13	23.89
209.349	27.99
209.567	81.24
209.786	91.48
210.005	7.51
210.223	-41.64
210.442	-27.31
210.661	23.89
210.879	15.7
211.098	38.23
211.316	-29.35
211.535	44.37
211.753	34.13
211.972	42.32
212.191	-39.59
212.409	87.38
212.628	56.66
212.846	-19.11
213.065	-12.97
213.283	64.85
213.502	-78.51
213.72	27.99
213.938	64.85
214.157	48.47
214.375	17.75
214.594	-15.02
214.812	81.24
215.031	83.28
215.249	19.8
215.467	-25.26
215.686	-2.73
215.904	5.46
216.122	21.85
216.341	7.51
216.559	-12.97
216.778	36.18
216.996	-72.36
217.214	-47.79
217.432	30.04
217.651	36.18
217.869	44.37
218.087	-15.02
218.306	25.94
218.524	17.75
218.742	-10.92
218.96	5.46
219.179	-35.5
219.397	9.56
219.615	23.89
219.833	-31.4
220.051	34.13
220.27	-0.68
220.488	19.8
220.706	56.66
220.924	-41.64
221.142	60.76
221.36	-15.02
221.578	21.85
221.796	-0.68
222.015	17.75
222.233	42.32
222.451	27.99
222.669	-76.46
222.887	48.47
223.105	40.28
223.323	48.47
223.541	-2.73
223.759	-8.87
223.977	30.04
224.195	-33.45
224.413	-10.92
224.631	23.89
224.849	-27.31
225.067	19.8
225.285	-4.78
225.503	-17.07
225.721	36.18
225.939	91.48
226.157	-68.27
226.375	44.37
226.592	19.8
226.81	19.8
227.028	64.85
227.246	122.2
227.464	-33.45
227.682	38.23
227.9	56.66
228.117	17.75
228.335	-25.26
228.553	-37.55
228.771	15.7
228.989	36.18
229.206	19.8
229.424	1.37
229.642	9.56
229.86	38.23
230.077	40.28
230.295	-39.59
230.513	15.7
230.731	36.18
230.948	40.28
231.166	132.44
231.384	30.04
231.601	-4.78
231.819	34.13
232.037	97.62
232.254	17.75
232.472	34.13
232.689	5.46
232.907	60.76
233.125	48.47
233.342	-55.98
233.56	11.61
233.777	36.18
233.995	-12.97
234.213	38.23
234.43	44.37
234.648	38.23
234.865	5.46
235.083	68.95
235.3	95.57
235.518	15.7
235.735	-29.35
235.953	23.89
236.17	-4.78
236.388	48.47
236.605	-27.31
236.822	-10.92
237.04	7.51
237.257	97.62
237.475	5.46
237.692	40.28
237.909	77.14
238.127	81.24
238.344	9.56
238.562	71
238.779	-10.92
238.996	-21.16
239.214	17.75
239.431	99.67
239.648	-45.74
239.865	75.09
240.083	-21.16
240.3	-23.21
240.517	-29.35
240.735	15.7
240.952	7.51
241.169	58.71
241.386	91.48
241.603	42.32
241.821	-23.21
242.038	118.1
242.255	42.32
242.472	-19.11
242.689	15.7
242.907	42.32
243.124	-6.83
243.341	9.56
243.558	-2.73
243.775	54.61
243.992	-17.07
244.209	17.75
244.426	30.04
244.643	44.37
244.86	-10.92
245.078	44.37
245.295	42.32
245.512	3.41
245.729	7.51
245.946	-21.16
246.163	-31.4
246.38	3.41
246.597	-39.59
246.814	32.08
247.031	21.85
247.248	-0.68
247.464	3.41
247.681	27.99
247.898	1.37
248.115	19.8
248.332	15.7
248.549	7.51
248.766	62.8
248.983	34.13
249.2	27.99
249.417	-2.73
249.633	-12.97
249.85	23.89
250.067	-8.87
250.284	58.71
250.501	-35.5
250.717	77.14
250.934	-6.83
251.151	66.9
251.368	38.23
251.585	66.9
251.801	42.32
252.018	46.42
252.235	30.04
252.451	30.04
252.668	7.51
252.885	-17.07
253.102	54.61
253.318	-41.64
253.535	44.37
253.752	27.99
253.968	68.95
254.185	-58.03
254.401	-41.64
254.618	-27.31
254.835	-29.35
255.051	79.19
255.268	27.99
255.484	46.42
255.701	52.56
255.917	40.28
256.134	-66.22
256.351	-12.97
256.567	-53.93
256.784	19.8
257	11.61
257.217	38.23
257.433	64.85
257.65	36.18
257.866	13.65
258.082	-6.83
258.299	32.08
258.515	40.28
258.732	-94.89
258.948	44.37
259.165	54.61
259.381	75.09
259.597	93.52
259.814	32.08
260.03	-35.5
260.246	30.04
260.463	46.42
260.679	9.56
260.895	101.72
261.112	30.04
261.328	27.99
261.544	48.47
261.761	44.37
261.977	148.82
262.193	-12.97
262.409	85.33
262.626	-25.26
262.842	56.66
263.058	68.95
263.274	54.61
263.49	30.04
263.707	44.37
263.923	89.43
264.139	36.18
264.355	-39.59
264.571	95.57
264.787	19.8
265.004	42.32
265.22	5.46
265.436	-8.87
265.652	-47.79
265.868	25.94
266.084	38.23
266.3	50.52
266.516	23.89
266.732	36.18
266.948	-8.87
267.164	40.28
267.38	21.85
267.596	58.71
267.812	21.85
268.028	7.51
268.244	-15.02
268.46	-4.78
268.676	25.94
268.892	-86.7
269.108	1.37
269.324	50.52
269.54	-10.92
269.756	9.56
269.972	-17.07
270.188	83.28
270.403	-35.5
270.619	44.37
270.835	32.08
271.051	52.56
271.267	13.65
271.483	5.46
271.698	9.56
271.914	-19.11
272.13	48.47
272.346	19.8
272.562	32.08
272.777	52.56
272.993	36.18
273.209	105.81
273.425	-19.11
273.64	21.85
273.856	-6.83
274.072	-55.98
274.287	27.99
274.503	54.61
274.719	13.65
274.934	99.67
275.15	11.61
275.366	3.41
275.581	54.61
275.797	-6.83
276.012	7.51
276.228	38.23
276.444	27.99
276.659	21.85
276.875	-8.87
277.09	27.99
277.306	-2.73
277.521	-12.97
277.737	11.61
277.952	60.76
278.168	-31.4
278.383	15.7
278.599	62.8
278.814	75.09
279.03	30.04
279.245	54.61
279.461	7.51
279.676	-43.69
279.892	64.85
280.107	23.89
280.322	19.8
280.538	42.32
280.753	21.85
280.969	-33.45
281.184	5.46
281.399	-8.87
281.615	13.65
281.83	27.99
282.045	19.8
282.26	-39.59
282.476	64.85
282.691	68.95
282.906	19.8
283.122	9.56
283.337	-0.68
283.552	93.52
283.767	50.52
283.983	25.94
284.198	40.28
284.413	27.99
284.628	-8.87
284.843	5.46
285.058	50.52
285.274	32.08
285.489	40.28
285.704	38.23
285.919	-8.87
286.134	-23.21
286.349	-58.03
286.564	38.23
286.779	-4.78
286.995	-29.35
287.21	1.37
287.425	3.41
287.64	-35.5
287.855	99.67
288.07	-0.68
288.285	15.7
288.5	-2.73
288.715	40.28
288.93	-74.41
289.145	25.94
289.36	77.14
289.575	19.8
289.79	77.14
290.004	87.38
290.219	56.66
290.434	-4.78
290.649	-27.31
290.864	44.37
291.079	40.28
291.294	1.37
291.509	-45.74
291.724	-12.97
291.938	-12.97
292.153	48.47
292.368	126.29
292.583	19.8
292.798	9.56
293.012	62.8
293.227	23.89
293.442	23.89
293.657	25.94
293.871	3.41
294.086	66.9
294.301	73.04
294.516	79.19
294.73	42.32
294.945	-103.08
295.16	19.8
295.374	52.56
295.589	15.7
295.804	19.8
296.018	-2.73
296.233	73.04
296.447	-8.87
296.662	60.76
296.877	107.86
297.091	46.42
297.306	-8.87
297.52	-27.31
297.735	73.04
297.949	32.08
298.164	-21.16
298.378	-37.55
298.593	9.56
298.807	91.48
299.022	77.14
299.236	-12.97
299.451	40.28
299.665	-47.79
299.88	42.32
300.094	79.19
300.309	13.65
300.523	19.8
300.737	27.99
300.952	50.52
301.166	13.65
301.381	15.7
301.595	89.43
301.809	-8.87
302.024	-12.97
302.238	38.23
302.452	9.56
302.667	-49.83
302.881	38.23
303.095	64.85
303.309	-23.21
303.524	-12.97
303.738	-17.07
303.952	87.38
304.166	71
304.381	19.8
304.595	34.13
304.809	-12.97
305.023	27.99
305.237	42.32
305.452	-15.02
305.666	-19.11
305.88	13.65
306.094	19.8
306.308	-33.45
306.522	23.89
306.736	87.38
306.95	17.75
307.164	19.8
307.379	-47.79
307.593	52.56
307.807	83.28
308.021	68.95
308.235	50.52
308.449	38.23
308.663	-12.97
308.877	-6.83
309.091	40.28
309.305	19.8
309.519	-43.69
309.733	5.46
309.947	-0.68
310.161	50.52
310.374	44.37
310.588	75.09
310.802	48.47
311.016	36.18
311.23	64.85
311.444	11.61
311.658	38.23
311.872	99.67
312.085	52.56
312.299	7.51
312.513	1.37
312.727	5.46
312.941	13.65
313.154	25.94
313.368	-12.97
313.582	-2.73
313.796	44.37
314.009	36.18
314.223	73.04
314.437	27.99
314.651	-21.16
314.864	19.8
315.078	30.04
315.292	-10.92
315.505	-37.55
315.719	66.9
315.933	7.51
316.146	-0.68
316.36	32.08
316.573	105.81
316.787	13.65
317.001	5.46
317.214	-23.21
317.428	-4.78
317.641	-35.5
317.855	-8.87
318.068	40.28
318.282	5.46
318.495	-4.78
318.709	-35.5
318.922	-41.64
319.136	-10.92
319.349	93.52
319.563	7.51
319.776	13.65
319.99	-8.87
320.203	77.14
320.417	56.66
320.63	3.41
320.843	71
321.057	15.7
321.27	71
321.483	-8.87
321.697	75.09
321.91	-2.73
322.124	36.18
322.337	19.8
322.55	-0.68
322.763	81.24
322.977	-12.97
323.19	3.41
323.403	30.04
323.617	27.99
323.83	60.76
324.043	-33.45
324.256	64.85
324.469	-25.26
324.683	140.63
324.896	-35.5
325.109	-10.92
325.322	-0.68
325.535	122.2
325.748	17.75
325.962	54.61
326.175	40.28
326.388	30.04
326.601	-2.73
326.814	38.23
327.027	44.37
327.24	7.51
327.453	-33.45
327.666	40.28
327.879	15.7
328.092	52.56
328.305	36.18
328.518	-29.35
328.731	-19.11
328.944	40.28
329.157	38.23
329.37	15.7
329.583	32.08
329.796	58.71
330.009	-35.5
330.222	56.66
330.435	1.37
330.648	23.89
330.861	30.04
331.073	48.47
331.286	68.95
331.499	64.85
331.712	-66.22
331.925	36.18
332.138	21.85
332.35	107.86
332.563	40.28
332.776	54.61
332.989	25.94
333.202	30.04
333.414	-17.07
333.627	56.66
333.84	40.28
334.053	50.52
334.265	77.14
334.478	79.19
334.691	-8.87
334.903	11.61
335.116	7.51
335.329	52.56
335.541	54.61
335.754	71
335.966	5.46
336.179	38.23
336.392	95.57
336.604	-51.88
336.817	25.94
337.029	87.38
337.242	40.28
337.454	81.24
337.667	-37.55
337.88	-2.73
338.092	42.32
338.305	71
338.517	-43.69
338.729	21.85
338.942	-2.73
339.154	-2.73
339.367	3.41
339.579	9.56
339.792	-4.78
340.004	42.32
340.217	-66.22
340.429	30.04
340.641	-47.79
340.854	66.9
341.066	30.04
341.278	95.57
341.491	-6.83
341.703	-8.87
341.915	-25.26
342.128	54.61
342.34	85.33
342.552	17.75
342.764	32.08
342.977	58.71
343.189	62.8
343.401	1.37
343.613	30.04
343.826	81.24
344.038	-39.59
344.25	-66.22
344.462	5.46
344.674	-37.55
344.886	15.7
345.099	32.08
345.311	13.65
345.523	54.61
345.735	46.42
345.947	58.71
346.159	11.61
346.371	-21.16
346.583	111.96
346.795	30.04
347.007	64.85
347.219	-15.02
347.431	107.86
347.643	-8.87
347.855	-21.16
348.067	15.7
348.279	-35.5
348.491	36.18
348.703	60.76
348.915	89.43
349.127	15.7
349.339	91.48
349.551	44.37
349.763	79.19
349.975	-23.21
350.187	48.47
350.399	44.37
350.61	52.56
350.822	58.71
351.034	-2.73
351.246	30.04
351.458	56.66
351.669	77.14
351.881	23.89
352.093	81.24
352.305	77.14
352.517	23.89
352.728	36.18
352.94	25.94
353.152	85.33
353.363	56.66
353.575	68.95
353.787	38.23
353.999	25.94
354.21	60.76
354.422	25.94
354.633	-27.31
354.845	-37.55
355.057	-4.78
355.268	50.52
355.48	52.56
355.692	-35.5
355.903	9.56
356.115	1.37
356.326	56.66
356.538	58.71
356.749	7.51
356.961	40.28
357.172	-4.78
357.384	83.28
357.595	64.85
357.807	66.9
358.018	64.85
358.23	64.85
358.441	91.48
358.653	7.51
358.864	-43.69
359.075	91.48
359.287	73.04
359.498	40.28
359.709	-37.55
359.921	50.52
360.132	99.67
360.344	50.52
360.555	-41.64
360.766	42.32
360.977	27.99
361.189	81.24
361.4	27.99
361.611	23.89
361.823	101.72
362.034	3.41
362.245	-17.07
362.456	54.61
362.667	15.7
362.879	-17.07
363.09	52.56
363.301	58.71
363.512	56.66
363.723	36.18
363.935	32.08
364.146	58.71
364.357	89.43
364.568	-31.4
364.779	1.37
364.99	3.41
365.201	7.51
365.412	15.7
365.623	5.46
365.834	23.89
366.045	-35.5
366.256	34.13
366.467	15.7
366.678	11.61
366.889	13.65
367.1	30.04
367.311	52.56
367.522	-10.92
367.733	5.46
367.944	40.28
368.155	68.95
368.366	73.04
368.577	44.37
368.788	64.85
368.999	7.51
369.209	34.13
369.42	118.1
369.631	46.42
369.842	114
370.053	-2.73
370.264	-2.73
370.474	40.28
370.685	25.94
370.896	36.18
371.107	48.47
371.317	30.04
371.528	3.41
371.739	46.42
371.95	60.76
372.16	25.94
372.371	-51.88
372.582	62.8
372.792	-25.26
373.003	71
373.214	-27.31
373.424	9.56
373.635	89.43
373.846	93.52
374.056	5.46
374.267	25.94
374.477	81.24
374.688	54.61
374.898	60.76
375.109	15.7
375.319	56.66
375.53	128.34
375.74	89.43
375.951	36.18
376.161	62.8
376.372	48.47
376.582	15.7
376.793	64.85
377.003	25.94
377.214	11.61
377.424	5.46
377.635	25.94
377.845	58.71
378.055	17.75
378.266	15.7
378.476	17.75
378.686	-6.83
378.897	109.91
379.107	46.42
379.317	9.56
379.528	-6.83
379.738	103.76
379.948	-10.92
380.158	89.43
380.369	-2.73
380.579	103.76
380.789	40.28
380.999	89.43
381.21	42.32
381.42	77.14
381.63	44.37
381.84	56.66
382.05	60.76
382.261	99.67
382.471	52.56
382.681	36.18
382.891	42.32
383.101	46.42
383.311	-51.88
383.521	60.76
383.731	-8.87
383.941	62.8
384.151	13.65
384.361	42.32
384.571	64.85
384.781	23.89
384.991	89.43
385.201	60.76
385.411	34.13
385.621	46.42
385.831	54.61
386.041	30.04
386.251	54.61
386.461	32.08
386.671	-0.68
386.881	38.23
387.091	66.9
387.301	83.28
387.511	91.48
387.72	62.8
387.93	23.89
388.14	-29.35
388.35	62.8
388.56	114
388.769	99.67
388.979	103.76
389.189	-19.11
389.399	13.65
389.609	38.23
389.818	83.28
390.028	42.32
390.238	11.61
390.447	-4.78
390.657	62.8
390.867	38.23
391.076	32.08
391.286	64.85
391.496	5.46
391.705	15.7
391.915	105.81
392.125	46.42
392.334	11.61
392.544	58.71
392.753	25.94
392.963	17.75
393.172	60.76
393.382	75.09
393.591	189.78
393.801	25.94
394.01	71
394.22	83.28
394.429	56.66
394.639	54.61
394.848	105.81
395.058	101.72
395.267	17.75
395.477	75.09
395.686	73.04
395.895	42.32
396.105	191.83
396.314	25.94
396.524	40.28
396.733	81.24
396.942	126.29
397.152	38.23
397.361	126.29
397.57	34.13
397.78	140.63
397.989	105.81
398.198	165.2
398.407	56.66
398.617	79.19
398.826	118.1
399.035	52.56
399.244	93.52
399.453	93.52
399.663	99.67
399.872	42.32
400.081	105.81
400.29	73.04
400.499	116.05
400.708	79.19
400.917	62.8
401.127	124.24
401.336	99.67
401.545	93.52
401.754	122.2
401.963	62.8
402.172	38.23
402.381	50.52
402.59	91.48
402.799	154.96
403.008	161.11
403.217	111.96
403.426	134.48
403.635	89.43
403.844	103.76
404.053	126.29
404.262	120.15
404.471	71
404.68	179.54
404.888	95.57
405.097	85.33
405.306	136.53
405.515	165.2
405.724	177.49
405.933	140.63
406.142	154.96
406.35	161.11
406.559	179.54
406.768	138.58
406.977	144.72
407.185	193.87
407.394	204.11
407.603	181.59
407.812	204.11
408.02	202.07
408.229	222.55
408.438	197.97
408.646	228.69
408.855	175.44
409.064	212.31
409.272	179.54
409.481	154.96
409.69	204.11
409.898	255.31
410.107	189.78
410.315	267.6
410.524	245.07
410.733	261.46
410.941	283.99
411.15	324.94
411.358	210.26
411.567	345.42
411.775	345.42
411.984	408.91
412.192	335.18
412.401	415.06
412.609	494.93
412.818	472.4
413.026	443.73
413.234	474.45
413.443	470.35
413.651	456.01
413.86	519.5
414.068	566.6
414.276	562.51
414.485	531.79
414.693	564.56
414.901	662.86
415.11	621.9
415.318	671.05
415.526	712.01
415.734	726.35
415.943	675.15
416.151	742.73
416.359	800.07
416.567	902.47
416.776	785.74
416.984	906.57
417.192	910.66
417.4	857.42
417.608	871.75
417.817	957.77
418.025	1004.87
418.233	1037.64
418.441	1060.17
418.649	1047.88
418.857	1047.88
419.065	1176.9
419.273	1119.56
419.481	1187.14
419.689	1375.55
419.897	1375.55
420.105	1348.93
420.313	1463.62
420.521	1584.45
420.729	1486.14
420.937	1596.73
421.145	1637.69
421.353	1596.73
421.561	1733.95
421.769	1774.91
421.977	1871.16
422.185	1781.05
422.393	1998.13
422.601	2059.57
422.809	2180.4
423.017	1942.84
423.224	2096.44
423.432	2176.31
423.64	2301.23
423.848	2479.41
424.056	2489.65
424.263	2635.05
424.471	2516.27
424.679	2606.38
424.887	2809.13
425.094	2942.25
425.302	2882.86
425.51	2886.95
425.718	3097.89
425.925	3157.29
426.133	3239.2
426.341	3403.04
426.548	3654.94
426.756	3540.26
426.964	3513.63
427.171	3867.93
427.379	3829.02
427.586	4039.96
427.794	4117.78
428.001	4351.25
428.209	4506.9
428.417	4320.53
428.624	4597.01
428.832	4750.6
429.039	4613.39
429.247	4723.98
429.454	5197.06
429.662	5514.5
429.869	5166.34
430.076	5551.36
430.284	5393.67
430.491	5614.85
430.699	5856.51
430.906	5991.67
431.114	5893.37
431.321	6055.16
431.528	6423.8
431.736	6730.99
431.943	6923.5
432.15	6751.47
432.358	6943.98
432.565	7402.72
432.772	7404.77
432.979	7744.74
433.187	7726.3
433.394	7916.76
433.601	8457.43
433.808	8303.83
434.016	8408.28
434.223	8844.49
434.43	9229.51
434.637	8901.84
434.844	9487.56
435.052	9551.04
435.259	9848
435.466	9940.16
435.673	9718.98
435.88	10374.33
436.087	11068.59
436.294	10794.16
436.501	10431.67
436.708	10767.54
436.915	11199.66
437.122	11652.26
437.329	11852.96
437.537	12117.15
437.743	12285.08
437.95	12000.41
438.157	12811.41
438.364	13513.86
438.571	13040.78
438.778	13212.81
438.985	14693.49
439.192	14081.15
439.399	14302.33
439.606	14206.08
439.813	14656.63
440.02	16010.34
440.227	15432.81
440.433	15320.17
440.64	15670.37
440.847	15688.81
441.054	16362.59
441.261	17370.19
441.467	16876.63
441.674	17374.28
441.881	18105.41
442.088	17865.8
442.294	18039.87
442.501	18388.03
442.708	18857.01
442.914	19414.06
443.121	20061.22
443.328	19594.28
443.534	20825.11
443.741	20124.71
443.948	20136.99
444.154	21619.72
444.361	21509.13
444.568	21523.47
444.774	21865.48
444.981	22019.08
445.187	22520.83
445.394	23700.46
445.6	23415.79
445.807	25422.8
446.013	24044.52
446.22	24685.53
446.426	25582.54
446.633	25897.93
446.839	26579.9
447.046	25713.61
447.252	27007.93
447.459	26885.05
447.665	27063.22
447.871	28251.05
448.078	29434.77
448.284	28316.58
448.491	28887.96
448.697	30043.02
448.903	30688.13
449.11	30628.74
449.316	30065.55
449.522	30577.54
449.728	31294.33
449.935	31347.58
450.141	31507.32
450.347	32592.74
450.553	31554.42
450.76	31853.42
450.966	32760.67
451.172	32428.9
451.378	33114.97
451.584	32349.03
451.791	33207.13
451.997	33225.56
452.203	33975.12
452.409	33704.79
452.615	33729.36
452.821	32232.3
453.027	32086.89
453.233	33825.62
453.44	32461.67
453.646	32783.2
453.852	33215.32
454.058	33483.61
454.264	32232.3
454.47	33006.43
454.676	31777.65
454.882	33160.03
455.088	30724.99
455.294	30905.21
455.5	31130.49
455.705	31834.99
455.911	30235.53
456.117	29858.7
456.323	29369.24
456.529	27935.66
456.735	29072.28
456.941	28662.69
457.147	28156.84
457.352	26989.5
457.558	26532.8
457.764	26895.29
457.97	26354.63
458.176	25885.64
458.381	25838.54
458.587	24329.19
458.793	24384.48
458.999	23264.24
459.204	25115.61
459.41	23911.4
459.616	22336.51
459.821	22639.61
460.027	22221.83
460.233	21845
460.438	21077.01
460.644	21120.02
460.85	20274.21
461.055	20032.55
461.261	19883.05
461.466	18414.65
461.672	17779.78
461.878	19074.1
462.083	17783.88
462.289	17534.03
462.494	17390.67
462.7	16340.06
462.905	15963.23
463.111	16591.96
463.316	16600.15
463.522	16082.02
463.727	16323.68
463.932	16362.59
464.138	16409.69
464.343	16401.5
464.549	15516.78
464.754	16102.5
464.959	16221.28
465.165	15914.08
465.37	15350.89
465.575	15236.2
465.781	15682.66
465.986	15766.63
466.191	15250.54
466.397	14736.5
466.602	14199.93
466.807	14361.72
467.012	14652.53
467.218	14630.01
467.423	14453.88
467.628	14451.83
467.833	15023.22
468.038	14427.26
