Data from USB4F104151__87__11-52-54-999.txt Node

Date: Fri Mar 14 11:52:54 EDT 2025
User: louis
Spectrometer: USB4F10415
Trigger mode: 4
Integration Time (sec): 2.000000E-2
Scans to average: 1
Electric dark correction enabled: true
Nonlinearity correction enabled: false
Boxcar width: 0
XAxis mode: Wavelengths
Number of Pixels in Spectrum: 3648
>>>>>Begin Spectral Data<<<<<
178.204	-76.46
178.424	-76.46
178.644	-76.46
178.864	-88.75
179.084	-51.88
179.304	-29.35
179.524	-25.26
179.744	48.47
179.964	54.61
180.184	-12.97
180.404	-19.11
180.624	13.65
180.844	44.37
181.064	-25.26
181.283	7.51
181.503	-55.98
181.723	-0.68
181.943	-72.36
182.163	36.18
182.383	11.61
182.602	-6.83
182.822	99.67
183.042	54.61
183.262	77.14
183.482	83.28
183.701	9.56
183.921	-39.59
184.141	62.8
184.361	-12.97
184.58	50.52
184.8	9.56
185.02	-8.87
185.239	62.8
185.459	1.37
185.679	36.18
185.898	-0.68
186.118	40.28
186.338	21.85
186.557	3.41
186.777	77.14
186.997	93.52
187.216	-2.73
187.436	109.91
187.655	17.75
187.875	-25.26
188.095	105.81
188.314	27.99
188.534	50.52
188.753	95.57
188.973	79.19
189.192	103.76
189.412	1.37
189.631	48.47
189.851	66.9
190.07	11.61
190.29	36.18
190.509	-29.35
190.729	-27.31
190.948	48.47
191.168	122.2
191.387	38.23
191.607	7.51
191.826	30.04
192.045	-49.83
192.265	54.61
192.484	34.13
192.704	17.75
192.923	-23.21
193.142	83.28
193.362	79.19
193.581	66.9
193.8	-0.68
194.02	-6.83
194.239	79.19
194.458	19.8
194.678	11.61
194.897	66.9
195.116	25.94
195.335	3.41
195.555	54.61
195.774	-29.35
195.993	46.42
196.212	36.18
196.432	87.38
196.651	25.94
196.87	66.9
197.089	34.13
197.308	40.28
197.528	60.76
197.747	46.42
197.966	19.8
198.185	134.48
198.404	38.23
198.623	48.47
198.842	46.42
199.062	83.28
199.281	54.61
199.5	-10.92
199.719	-2.73
199.938	64.85
200.157	48.47
200.376	58.71
200.595	15.7
200.814	46.42
201.033	1.37
201.252	79.19
201.471	27.99
201.69	66.9
201.909	83.28
202.128	48.47
202.347	13.65
202.566	83.28
202.785	13.65
203.004	21.85
203.223	38.23
203.442	27.99
203.661	-45.74
203.879	62.8
204.098	21.85
204.317	60.76
204.536	62.8
204.755	19.8
204.974	11.61
205.193	27.99
205.411	114
205.63	52.56
205.849	42.32
206.068	-21.16
206.287	68.95
206.505	-2.73
206.724	-8.87
206.943	38.23
207.162	-29.35
207.381	42.32
207.599	56.66
207.818	1.37
208.037	77.14
208.255	21.85
208.474	134.48
208.693	23.89
208.911	52.56
209.13	75.09
209.349	60.76
209.567	105.81
209.786	25.94
210.005	97.62
210.223	40.28
210.442	11.61
210.661	71
210.879	27.99
211.098	3.41
211.316	-17.07
211.535	58.71
211.753	19.8
211.972	34.13
212.191	68.95
212.409	52.56
212.628	52.56
212.846	-27.31
213.065	81.24
213.283	87.38
213.502	25.94
213.72	9.56
213.938	23.89
214.157	66.9
214.375	83.28
214.594	36.18
214.812	21.85
215.031	-2.73
215.249	32.08
215.467	1.37
215.686	13.65
215.904	85.33
216.122	15.7
216.341	60.76
216.559	9.56
216.778	95.57
216.996	101.72
217.214	40.28
217.432	-27.31
217.651	89.43
217.869	60.76
218.087	58.71
218.306	83.28
218.524	-2.73
218.742	64.85
218.96	11.61
219.179	50.52
219.397	-12.97
219.615	56.66
219.833	17.75
220.051	15.7
220.27	11.61
220.488	58.71
220.706	75.09
220.924	-15.02
221.142	62.8
221.36	11.61
221.578	56.66
221.796	-10.92
222.015	36.18
222.233	27.99
222.451	30.04
222.669	68.95
222.887	34.13
223.105	13.65
223.323	62.8
223.541	-27.31
223.759	32.08
223.977	-17.07
224.195	93.52
224.413	48.47
224.631	56.66
224.849	50.52
225.067	13.65
225.285	5.46
225.503	-10.92
225.721	-29.35
225.939	58.71
226.157	5.46
226.375	93.52
226.592	30.04
226.81	21.85
227.028	5.46
227.246	77.14
227.464	83.28
227.682	48.47
227.9	58.71
228.117	46.42
228.335	83.28
228.553	42.32
228.771	32.08
228.989	64.85
229.206	73.04
229.424	25.94
229.642	23.89
229.86	89.43
230.077	62.8
230.295	36.18
230.513	48.47
230.731	25.94
230.948	81.24
231.166	50.52
231.384	46.42
231.601	68.95
231.819	-8.87
232.037	30.04
232.254	-19.11
232.472	42.32
232.689	-41.64
232.907	73.04
233.125	40.28
233.342	62.8
233.56	73.04
233.777	25.94
233.995	34.13
234.213	58.71
234.43	62.8
234.648	9.56
234.865	7.51
235.083	46.42
235.3	60.76
235.518	87.38
235.735	25.94
235.953	3.41
236.17	46.42
236.388	13.65
236.605	60.76
236.822	15.7
237.04	89.43
237.257	25.94
237.475	75.09
237.692	58.71
237.909	52.56
238.127	44.37
238.344	77.14
238.562	122.2
238.779	36.18
238.996	95.57
239.214	-23.21
239.431	87.38
239.648	11.61
239.865	19.8
240.083	-4.78
240.3	62.8
240.517	5.46
240.735	11.61
240.952	30.04
241.169	9.56
241.386	19.8
241.603	103.76
241.821	-70.31
242.038	103.76
242.255	48.47
242.472	-43.69
242.689	7.51
242.907	107.86
243.124	73.04
243.341	46.42
243.558	89.43
243.775	-29.35
243.992	56.66
244.209	13.65
244.426	77.14
244.643	-2.73
244.86	58.71
245.078	73.04
245.295	36.18
245.512	7.51
245.729	9.56
245.946	42.32
246.163	-12.97
246.38	1.37
246.597	34.13
246.814	128.34
247.031	71
247.248	58.71
247.464	77.14
247.681	44.37
247.898	46.42
248.115	101.72
248.332	13.65
248.549	17.75
248.766	66.9
248.983	21.85
249.2	25.94
249.417	36.18
249.633	7.51
249.85	73.04
250.067	79.19
250.284	101.72
250.501	58.71
250.717	58.71
250.934	34.13
251.151	-17.07
251.368	-27.31
251.585	87.38
251.801	23.89
252.018	21.85
252.235	40.28
252.451	40.28
252.668	-8.87
252.885	9.56
253.102	-10.92
253.318	30.04
253.535	-12.97
253.752	7.51
253.968	68.95
254.185	62.8
254.401	89.43
254.618	68.95
254.835	-39.59
255.051	54.61
255.268	15.7
255.484	40.28
255.701	32.08
255.917	-8.87
256.134	-15.02
256.351	7.51
256.567	-8.87
256.784	118.1
257	56.66
257.217	21.85
257.433	68.95
257.65	48.47
257.866	27.99
258.082	-47.79
258.299	50.52
258.515	23.89
258.732	7.51
258.948	13.65
259.165	36.18
259.381	36.18
259.597	66.9
259.814	23.89
260.03	5.46
260.246	-41.64
260.463	116.05
260.679	-19.11
260.895	71
261.112	60.76
261.328	44.37
261.544	93.52
261.761	105.81
261.977	68.95
262.193	52.56
262.409	91.48
262.626	-8.87
262.842	66.9
263.058	122.2
263.274	111.96
263.49	32.08
263.707	46.42
263.923	17.75
264.139	58.71
264.355	5.46
264.571	148.82
264.787	23.89
265.004	34.13
265.22	52.56
265.436	81.24
265.652	27.99
265.868	48.47
266.084	23.89
266.3	40.28
266.516	62.8
266.732	58.71
266.948	-43.69
267.164	34.13
267.38	126.29
267.596	7.51
267.812	85.33
268.028	73.04
268.244	30.04
268.46	27.99
268.676	-68.27
268.892	62.8
269.108	19.8
269.324	130.39
269.54	89.43
269.756	1.37
269.972	48.47
270.188	-31.4
270.403	40.28
270.619	7.51
270.835	50.52
271.051	3.41
271.267	48.47
271.483	5.46
271.698	15.7
271.914	13.65
272.13	60.76
272.346	89.43
272.562	21.85
272.777	38.23
272.993	1.37
273.209	68.95
273.425	116.05
273.64	52.56
273.856	146.77
274.072	46.42
274.287	25.94
274.503	13.65
274.719	44.37
274.934	42.32
275.15	36.18
275.366	19.8
275.581	-19.11
275.797	27.99
276.012	36.18
276.228	-6.83
276.444	-27.31
276.659	87.38
276.875	62.8
277.09	-6.83
277.306	19.8
277.521	81.24
277.737	-2.73
277.952	46.42
278.168	-2.73
278.383	75.09
278.599	66.9
278.814	-35.5
279.03	38.23
279.245	-4.78
279.461	32.08
279.676	-17.07
279.892	-45.74
280.107	11.61
280.322	17.75
280.538	60.76
280.753	116.05
280.969	40.28
281.184	17.75
281.399	95.57
281.615	-12.97
281.83	60.76
282.045	-4.78
282.26	13.65
282.476	36.18
282.691	-31.4
282.906	60.76
283.122	-8.87
283.337	-6.83
283.552	68.95
283.767	-51.88
283.983	64.85
284.198	7.51
284.413	54.61
284.628	30.04
284.843	93.52
285.058	25.94
285.274	46.42
285.489	73.04
285.704	191.83
285.919	1.37
286.134	46.42
286.349	21.85
286.564	25.94
286.779	87.38
286.995	21.85
287.21	3.41
287.425	23.89
287.64	42.32
287.855	52.56
288.07	38.23
288.285	58.71
288.5	-4.78
288.715	79.19
288.93	56.66
289.145	71
289.36	93.52
289.575	32.08
289.79	-17.07
290.004	27.99
290.219	54.61
290.434	103.76
290.649	30.04
290.864	-8.87
291.079	68.95
291.294	54.61
291.509	30.04
291.724	30.04
291.938	-47.79
292.153	52.56
292.368	19.8
292.583	34.13
292.798	97.62
293.012	66.9
293.227	75.09
293.442	93.52
293.657	87.38
293.871	66.9
294.086	83.28
294.301	77.14
294.516	73.04
294.73	27.99
294.945	25.94
295.16	36.18
295.374	36.18
295.589	111.96
295.804	3.41
296.018	5.46
296.233	75.09
296.447	44.37
296.662	68.95
296.877	64.85
297.091	48.47
297.306	71
297.52	58.71
297.735	97.62
297.949	27.99
298.164	77.14
298.378	62.8
298.593	38.23
298.807	-6.83
299.022	75.09
299.236	107.86
299.451	85.33
299.665	21.85
299.88	23.89
300.094	89.43
300.309	62.8
300.523	52.56
300.737	83.28
300.952	32.08
301.166	7.51
301.381	48.47
301.595	58.71
301.809	38.23
302.024	11.61
302.238	11.61
302.452	118.1
302.667	27.99
302.881	109.91
303.095	52.56
303.309	81.24
303.524	1.37
303.738	83.28
303.952	71
304.166	62.8
304.381	32.08
304.595	101.72
304.809	-12.97
305.023	17.75
305.237	64.85
305.452	11.61
305.666	27.99
305.88	36.18
306.094	-17.07
306.308	60.76
306.522	66.9
306.736	5.46
306.95	34.13
307.164	42.32
307.379	54.61
307.593	144.72
307.807	79.19
308.021	5.46
308.235	103.76
308.449	-27.31
308.663	7.51
308.877	103.76
309.091	79.19
309.305	-2.73
309.519	32.08
309.733	107.86
309.947	36.18
310.161	83.28
310.374	85.33
310.588	23.89
310.802	30.04
311.016	60.76
311.23	-21.16
311.444	81.24
311.658	21.85
311.872	48.47
312.085	97.62
312.299	89.43
312.513	34.13
312.727	5.46
312.941	5.46
313.154	87.38
313.368	7.51
313.582	75.09
313.796	50.52
314.009	27.99
314.223	93.52
314.437	79.19
314.651	25.94
314.864	7.51
315.078	19.8
315.292	15.7
315.505	9.56
315.719	111.96
315.933	34.13
316.146	99.67
316.36	64.85
316.573	-0.68
316.787	48.47
317.001	93.52
317.214	44.37
317.428	95.57
317.641	-29.35
317.855	93.52
318.068	-53.93
318.282	71
318.495	50.52
318.709	58.71
318.922	60.76
319.136	111.96
319.349	38.23
319.563	9.56
319.776	40.28
319.99	1.37
320.203	-0.68
320.417	27.99
320.63	75.09
320.843	77.14
321.057	-33.45
321.27	-19.11
321.483	79.19
321.697	89.43
321.91	56.66
322.124	25.94
322.337	36.18
322.55	66.9
322.763	11.61
322.977	95.57
323.19	-0.68
323.403	91.48
323.617	71
323.83	85.33
324.043	-31.4
324.256	52.56
324.469	5.46
324.683	120.15
324.896	34.13
325.109	42.32
325.322	5.46
325.535	101.72
325.748	87.38
325.962	-0.68
326.175	77.14
326.388	46.42
326.601	42.32
326.814	71
327.027	34.13
327.24	122.2
327.453	87.38
327.666	44.37
327.879	87.38
328.092	97.62
328.305	52.56
328.518	56.66
328.731	-31.4
328.944	-31.4
329.157	77.14
329.37	3.41
329.583	103.76
329.796	87.38
330.009	25.94
330.222	54.61
330.435	54.61
330.648	38.23
330.861	122.2
331.073	83.28
331.286	109.91
331.499	62.8
331.712	-53.93
331.925	13.65
332.138	13.65
332.35	7.51
332.563	-21.16
332.776	159.06
332.989	-10.92
333.202	44.37
333.414	71
333.627	27.99
333.84	17.75
334.053	-8.87
334.265	42.32
334.478	60.76
334.691	71
334.903	17.75
335.116	42.32
335.329	11.61
335.541	81.24
335.754	101.72
335.966	48.47
336.179	89.43
336.392	60.76
336.604	68.95
336.817	83.28
337.029	68.95
337.242	30.04
337.454	81.24
337.667	56.66
337.88	77.14
338.092	64.85
338.305	81.24
338.517	5.46
338.729	89.43
338.942	46.42
339.154	75.09
339.367	81.24
339.579	130.39
339.792	-10.92
340.004	52.56
340.217	54.61
340.429	140.63
340.641	9.56
340.854	52.56
341.066	3.41
341.278	105.81
341.491	75.09
341.703	79.19
341.915	36.18
342.128	38.23
342.34	75.09
342.552	52.56
342.764	38.23
342.977	-10.92
343.189	91.48
343.401	62.8
343.613	-2.73
343.826	5.46
344.038	-23.21
344.25	30.04
344.462	-15.02
344.674	89.43
344.886	66.9
345.099	85.33
345.311	58.71
345.523	56.66
345.735	-43.69
345.947	1.37
346.159	1.37
346.371	40.28
346.583	93.52
346.795	71
347.007	50.52
347.219	89.43
347.431	1.37
347.643	126.29
347.855	56.66
348.067	56.66
348.279	1.37
348.491	21.85
348.703	83.28
348.915	42.32
349.127	13.65
349.339	60.76
349.551	-21.16
349.763	36.18
349.975	97.62
350.187	175.44
350.399	60.76
350.61	-0.68
350.822	81.24
351.034	11.61
351.246	73.04
351.458	60.76
351.669	89.43
351.881	58.71
352.093	122.2
352.305	19.8
352.517	32.08
352.728	48.47
352.94	52.56
353.152	77.14
353.363	62.8
353.575	73.04
353.787	109.91
353.999	3.41
354.21	126.29
354.422	89.43
354.633	-47.79
354.845	40.28
355.057	23.89
355.268	36.18
355.48	25.94
355.692	52.56
355.903	93.52
356.115	60.76
356.326	36.18
356.538	91.48
356.749	62.8
356.961	111.96
357.172	81.24
357.384	9.56
357.595	116.05
357.807	111.96
358.018	23.89
358.23	105.81
358.441	87.38
358.653	83.28
358.864	68.95
359.075	56.66
359.287	-6.83
359.498	89.43
359.709	89.43
359.921	40.28
360.132	15.7
360.344	-6.83
360.555	17.75
360.766	64.85
360.977	107.86
361.189	83.28
361.4	-10.92
361.611	144.72
361.823	-17.07
362.034	79.19
362.245	-10.92
362.456	62.8
362.667	79.19
362.879	81.24
363.09	83.28
363.301	66.9
363.512	48.47
363.723	13.65
363.935	64.85
364.146	91.48
364.357	-6.83
364.568	48.47
364.779	54.61
364.99	60.76
365.201	-12.97
365.412	91.48
365.623	21.85
365.834	19.8
366.045	62.8
366.256	27.99
366.467	21.85
366.678	103.76
366.889	9.56
367.1	40.28
367.311	99.67
367.522	75.09
367.733	13.65
367.944	1.37
368.155	79.19
368.366	64.85
368.577	79.19
368.788	124.24
368.999	83.28
369.209	75.09
369.42	120.15
369.631	107.86
369.842	87.38
370.053	-8.87
370.264	97.62
370.474	73.04
370.685	15.7
370.896	91.48
371.107	128.34
371.317	105.81
371.528	50.52
371.739	140.63
371.95	118.1
372.16	23.89
372.371	58.71
372.582	64.85
372.792	79.19
373.003	111.96
373.214	64.85
373.424	79.19
373.635	-35.5
373.846	62.8
374.056	30.04
374.267	66.9
374.477	93.52
374.688	54.61
374.898	87.38
375.109	118.1
375.319	101.72
375.53	64.85
375.74	48.47
375.951	97.62
376.161	13.65
376.372	52.56
376.582	77.14
376.793	56.66
377.003	-2.73
377.214	58.71
377.424	30.04
377.635	68.95
377.845	64.85
378.055	73.04
378.266	7.51
378.476	60.76
378.686	89.43
378.897	83.28
379.107	136.53
379.317	56.66
379.528	54.61
379.738	46.42
379.948	23.89
380.158	85.33
380.369	105.81
380.579	56.66
380.789	79.19
380.999	58.71
381.21	9.56
381.42	116.05
381.63	19.8
381.84	93.52
382.05	132.44
382.261	58.71
382.471	77.14
382.681	85.33
382.891	91.48
383.101	79.19
383.311	-4.78
383.521	3.41
383.731	34.13
383.941	107.86
384.151	56.66
384.361	54.61
384.571	46.42
384.781	71
384.991	85.33
385.201	95.57
385.411	75.09
385.621	48.47
385.831	103.76
386.041	34.13
386.251	1.37
386.461	124.24
386.671	50.52
386.881	87.38
387.091	15.7
387.301	122.2
387.511	71
387.72	99.67
387.93	87.38
388.14	-0.68
388.35	36.18
388.56	97.62
388.769	134.48
388.979	3.41
389.189	44.37
389.399	48.47
389.609	114
389.818	44.37
390.028	68.95
390.238	11.61
390.447	71
390.657	101.72
390.867	73.04
391.076	30.04
391.286	128.34
391.496	97.62
391.705	132.44
391.915	144.72
392.125	62.8
392.334	159.06
392.544	111.96
392.753	124.24
392.963	83.28
393.172	71
393.382	19.8
393.591	109.91
393.801	30.04
394.01	152.92
394.22	68.95
394.429	118.1
394.639	46.42
394.848	79.19
395.058	54.61
395.267	87.38
395.477	73.04
395.686	103.76
395.895	140.63
396.105	161.11
396.314	66.9
396.524	5.46
396.733	89.43
396.942	140.63
397.152	107.86
397.361	128.34
397.57	124.24
397.78	52.56
397.989	73.04
398.198	159.06
398.407	73.04
398.617	48.47
398.826	60.76
399.035	128.34
399.244	56.66
399.453	165.2
399.663	202.07
399.872	71
400.081	32.08
400.29	89.43
400.499	134.48
400.708	62.8
400.917	116.05
401.127	107.86
401.336	50.52
401.545	138.58
401.754	93.52
401.963	146.77
402.172	103.76
402.381	130.39
402.59	157.01
402.799	200.02
403.008	103.76
403.217	87.38
403.426	187.73
403.635	68.95
403.844	50.52
404.053	109.91
404.262	87.38
404.471	140.63
404.68	122.2
404.888	204.11
405.097	130.39
405.306	173.39
405.515	187.73
405.724	191.83
405.933	161.11
406.142	214.35
406.35	138.58
406.559	114
406.768	183.63
406.977	269.65
407.185	204.11
407.394	189.78
407.603	179.54
407.812	157.01
408.02	238.93
408.229	181.59
408.438	197.97
408.646	146.77
408.855	220.5
409.064	243.03
409.272	331.09
409.481	273.75
409.69	191.83
409.898	275.79
410.107	304.46
410.315	240.98
410.524	283.99
410.733	290.13
410.941	232.79
411.15	314.7
411.358	365.9
411.567	441.68
411.775	374.1
411.984	423.25
412.192	404.82
412.401	445.77
412.609	480.59
412.818	462.16
413.026	458.06
413.234	451.92
413.443	458.06
413.651	462.16
413.86	449.87
414.068	552.27
414.276	523.6
414.485	570.7
414.693	574.8
414.901	652.62
415.11	550.22
415.318	691.53
415.526	732.49
415.734	660.81
415.943	623.95
416.151	701.77
416.359	652.62
416.567	793.93
416.776	740.68
416.984	871.75
417.192	750.92
417.4	820.55
417.608	691.53
417.817	847.18
418.025	875.85
418.233	982.34
418.441	906.57
418.649	1041.73
418.857	1031.49
419.065	1142.08
419.273	1068.36
419.481	1185.09
419.689	1248.58
419.897	1307.97
420.105	1385.79
420.313	1350.98
420.521	1332.55
420.729	1387.84
420.937	1434.94
421.145	1480
421.353	1539.39
421.561	1639.74
421.769	1664.32
421.977	1836.35
422.185	1711.42
422.393	1838.39
422.601	1903.93
422.809	2002.23
423.017	1959.22
423.224	2090.29
423.432	2078.01
423.64	2149.68
423.848	2315.57
424.056	2336.05
424.263	2481.46
424.471	2377.01
424.679	2497.84
424.887	2594.09
425.094	2661.68
425.302	2751.79
425.51	2872.62
425.718	2946.34
425.925	2981.16
426.133	3028.26
426.341	3216.68
426.548	3263.78
426.756	3335.46
426.964	3419.43
427.171	3501.34
427.379	3603.74
427.586	3634.46
427.794	3716.38
428.001	3872.03
428.209	4109.59
428.417	4070.68
428.624	4410.64
428.832	4244.76
429.039	4521.23
429.247	4597.01
429.454	4715.79
429.662	5184.77
429.869	4799.76
430.076	5266.69
430.284	4959.5
430.491	5172.49
430.699	5543.17
430.906	5354.76
431.114	5643.52
431.321	5721.34
431.528	5887.23
431.736	6266.1
431.943	6534.39
432.15	6311.16
432.358	6481.14
432.565	6761.71
432.772	6745.33
432.979	7154.92
433.187	7249.13
433.394	7333.09
433.601	7826.65
433.808	7853.28
434.016	7730.4
434.223	8174.81
434.43	8658.13
434.637	8352.98
434.844	8930.51
435.052	9028.81
435.259	9100.49
435.466	9006.28
435.673	8989.9
435.88	9532.61
436.087	10104
436.294	10187.96
436.501	9809.09
436.708	10060.99
436.915	10308.79
437.122	10863.79
437.329	10769.58
437.537	11175.08
437.743	11394.22
437.95	11132.08
438.157	11889.82
438.364	12350.62
438.571	12078.24
438.778	12422.3
438.985	13624.45
439.192	12811.41
439.399	13249.68
439.606	13161.61
439.813	13823.11
440.02	14650.49
440.227	14552.18
440.433	14144.64
440.64	14750.84
440.847	14513.27
441.054	14873.71
441.261	16194.65
441.467	15813.73
441.674	16165.98
441.881	16630.87
442.088	16628.82
442.294	16632.92
442.501	16825.43
442.708	17083.47
442.914	17894.47
443.121	18814.01
443.328	18414.65
443.534	19579.95
443.741	19065.91
443.948	18902.07
444.154	19868.71
444.361	20339.74
444.568	20392.99
444.774	19993.64
444.981	20331.55
445.187	21023.76
445.394	21943.3
445.6	21971.97
445.807	23768.04
446.013	22750.2
446.22	23106.55
446.426	24013.8
446.633	24351.71
446.839	24941.53
447.046	23950.31
447.252	25521.1
447.459	25367.51
447.665	25330.64
447.871	26565.57
448.078	27679.66
448.284	26440.64
448.491	27020.22
448.697	28263.33
448.903	28685.22
449.11	28617.63
449.316	28228.52
449.522	28961.69
449.728	29543.31
449.935	29770.64
450.141	29684.62
450.347	30481.28
450.553	29164.44
450.76	29993.87
450.966	30749.57
451.172	30448.52
451.378	31179.64
451.584	30880.64
451.791	31554.42
451.997	31251.32
452.203	32086.89
452.409	31695.73
452.615	31898.48
452.821	30825.34
453.027	30270.34
453.233	31902.57
453.44	30835.58
453.646	31005.56
453.852	31126.39
454.058	31959.92
454.264	30913.41
454.47	31189.88
454.676	30702.46
454.882	31619.95
455.088	28730.27
455.294	29326.23
455.5	29748.11
455.705	30620.55
455.911	29033.37
456.117	28097.45
456.323	28400.55
456.529	26528.7
456.735	27761.58
456.941	26805.18
457.147	26760.12
457.352	26147.78
457.558	25551.82
457.764	25576.4
457.97	24925.14
458.176	24433.63
458.381	24454.11
458.587	23600.11
458.793	23389.17
458.999	22197.25
459.204	23929.83
459.41	22989.81
459.616	21617.68
459.821	21533.71
460.027	21781.51
460.233	21163.03
460.438	20294.69
460.644	20241.44
460.85	19352.62
461.055	18983.99
461.261	18893.88
461.466	17466.44
461.672	17015.89
461.878	18431.04
462.083	16921.68
462.289	16354.4
462.494	16518.23
462.7	15688.81
462.905	15404.14
463.111	16006.24
463.316	16100.45
463.522	15731.81
463.727	15692.9
463.932	15486.06
464.138	15223.92
464.343	15608.94
464.549	14959.73
464.754	15541.35
464.959	15322.22
465.165	15406.19
465.37	14642.29
465.575	14423.16
465.781	14765.17
465.986	14908.53
466.191	14509.18
466.397	14150.78
466.602	13395.08
466.807	13837.44
467.012	13976.7
467.218	13765.76
467.423	13728.9
467.628	13819.01
467.833	14369.91
468.038	14034.05
468.244	13704.32
468.449	14101.63
468.654	13450.38
