Data from USB4F104151__45__11-51-49-467.txt Node

Date: Fri Mar 14 11:51:49 EDT 2025
User: louis
Spectrometer: USB4F10415
Trigger mode: 4
Integration Time (sec): 2.000000E-2
Scans to average: 1
Electric dark correction enabled: true
Nonlinearity correction enabled: false
Boxcar width: 0
XAxis mode: Wavelengths
Number of Pixels in Spectrum: 3648
>>>>>Begin Spectral Data<<<<<
178.204	-95.23
178.424	-95.23
178.644	-95.23
178.864	-97.28
179.084	-115.71
179.304	-3.07
179.524	-39.94
179.744	1.02
179.964	-31.74
180.184	82.94
180.404	-5.12
180.624	-17.41
180.844	50.18
181.064	-25.6
181.283	-23.55
181.503	23.55
181.723	-11.26
181.943	33.79
182.163	70.65
182.383	-1.02
182.602	41.98
182.822	-21.5
183.042	-1.02
183.262	-3.07
183.482	48.13
183.701	11.26
183.921	9.22
184.141	7.17
184.361	9.22
184.58	7.17
184.8	37.89
185.02	27.65
185.239	128
185.459	-17.41
185.679	5.12
185.898	-39.94
186.118	70.65
186.338	29.7
186.557	44.03
186.777	35.84
186.997	70.65
187.216	-78.85
187.436	39.94
187.655	66.56
187.875	52.22
188.095	-11.26
188.314	21.5
188.534	84.99
188.753	-23.55
188.973	87.04
189.192	23.55
189.412	-60.42
189.631	27.65
189.851	25.6
190.07	7.17
190.29	-46.08
190.509	13.31
190.729	70.65
190.948	60.42
191.168	113.66
191.387	21.5
191.607	-60.42
191.826	29.7
192.045	-5.12
192.265	-5.12
192.484	-15.36
192.704	58.37
192.923	-7.17
193.142	41.98
193.362	29.7
193.581	46.08
193.8	-15.36
194.02	33.79
194.239	54.27
194.458	1.02
194.678	-5.12
194.897	68.61
195.116	33.79
195.335	27.65
195.555	56.32
195.774	31.74
195.993	29.7
196.212	54.27
196.432	-37.89
196.651	-29.7
196.87	60.42
197.089	56.32
197.308	66.56
197.528	7.17
197.747	-74.75
197.966	3.07
198.185	107.52
198.404	31.74
198.623	1.02
198.842	84.99
199.062	23.55
199.281	50.18
199.5	-17.41
199.719	82.94
199.938	121.85
200.157	105.47
200.376	37.89
200.595	72.7
200.814	97.28
201.033	93.18
201.252	58.37
201.471	13.31
201.69	29.7
201.909	25.6
202.128	39.94
202.347	-17.41
202.566	-1.02
202.785	39.94
203.004	23.55
203.223	23.55
203.442	54.27
203.661	44.03
203.879	7.17
204.098	80.89
204.317	33.79
204.536	89.09
204.755	105.47
204.974	74.75
205.193	23.55
205.411	72.7
205.63	-41.98
205.849	80.89
206.068	17.41
206.287	9.22
206.505	-29.7
206.724	33.79
206.943	15.36
207.162	64.51
207.381	23.55
207.599	66.56
207.818	7.17
208.037	-15.36
208.255	-15.36
208.474	52.22
208.693	-15.36
208.911	-1.02
209.13	25.6
209.349	23.55
209.567	35.84
209.786	64.51
210.005	7.17
210.223	33.79
210.442	-11.26
210.661	46.08
210.879	31.74
211.098	13.31
211.316	31.74
211.535	56.32
211.753	-17.41
211.972	44.03
212.191	37.89
212.409	15.36
212.628	62.46
212.846	-41.98
213.065	46.08
213.283	78.85
213.502	-3.07
213.72	-13.31
213.938	3.07
214.157	13.31
214.375	-31.74
214.594	9.22
214.812	23.55
215.031	35.84
215.249	35.84
215.467	46.08
215.686	-27.65
215.904	37.89
216.122	62.46
216.341	39.94
216.559	35.84
216.778	-15.36
216.996	19.46
217.214	56.32
217.432	58.37
217.651	-70.65
217.869	31.74
218.087	46.08
218.306	113.66
218.524	58.37
218.742	-23.55
218.96	25.6
219.179	66.56
219.397	80.89
219.615	113.66
219.833	-29.7
220.051	-17.41
220.27	31.74
220.488	70.65
220.706	15.36
220.924	41.98
221.142	56.32
221.36	-9.22
221.578	41.98
221.796	1.02
222.015	19.46
222.233	113.66
222.451	95.23
222.669	-7.17
222.887	68.61
223.105	19.46
223.323	-9.22
223.541	-41.98
223.759	23.55
223.977	91.13
224.195	54.27
224.413	37.89
224.631	5.12
224.849	9.22
225.067	37.89
225.285	-7.17
225.503	-15.36
225.721	-13.31
225.939	33.79
226.157	74.75
226.375	17.41
226.592	19.46
226.81	44.03
227.028	-44.03
227.246	62.46
227.464	62.46
227.682	44.03
227.9	-15.36
228.117	89.09
228.335	-5.12
228.553	-35.84
228.771	23.55
228.989	95.23
229.206	99.33
229.424	-13.31
229.642	19.46
229.86	-41.98
230.077	87.04
230.295	3.07
230.513	7.17
230.731	105.47
230.948	125.95
231.166	62.46
231.384	21.5
231.601	-23.55
231.819	15.36
232.037	48.13
232.254	-15.36
232.472	64.51
232.689	27.65
232.907	27.65
233.125	52.22
233.342	21.5
233.56	21.5
233.777	3.07
233.995	1.02
234.213	48.13
234.43	7.17
234.648	7.17
234.865	48.13
235.083	52.22
235.3	54.27
235.518	66.56
235.735	-5.12
235.953	66.56
236.17	1.02
236.388	54.27
236.605	105.47
236.822	21.5
237.04	80.89
237.257	27.65
237.475	29.7
237.692	23.55
237.909	87.04
238.127	-1.02
238.344	11.26
238.562	46.08
238.779	35.84
238.996	-52.22
239.214	19.46
239.431	25.6
239.648	-1.02
239.865	13.31
240.083	74.75
240.3	-37.89
240.517	3.07
240.735	121.85
240.952	93.18
241.169	68.61
241.386	-13.31
241.603	7.17
241.821	-21.5
242.038	15.36
242.255	31.74
242.472	50.18
242.689	-11.26
242.907	95.23
243.124	41.98
243.341	27.65
243.558	7.17
243.775	41.98
243.992	-13.31
244.209	5.12
244.426	84.99
244.643	97.28
244.86	-44.03
245.078	74.75
245.295	84.99
245.512	-21.5
245.729	23.55
245.946	46.08
246.163	80.89
246.38	23.55
246.597	56.32
246.814	-19.46
247.031	17.41
247.248	-37.89
247.464	31.74
247.681	-21.5
247.898	29.7
248.115	87.04
248.332	48.13
248.549	-7.17
248.766	35.84
248.983	50.18
249.2	62.46
249.417	54.27
249.633	66.56
249.85	76.8
250.067	-5.12
250.284	25.6
250.501	41.98
250.717	109.57
250.934	-7.17
251.151	-21.5
251.368	-31.74
251.585	9.22
251.801	76.8
252.018	76.8
252.235	48.13
252.451	19.46
252.668	11.26
252.885	97.28
253.102	39.94
253.318	46.08
253.535	52.22
253.752	35.84
253.968	31.74
254.185	46.08
254.401	17.41
254.618	41.98
254.835	5.12
255.051	-33.79
255.268	27.65
255.484	15.36
255.701	25.6
255.917	134.14
256.134	13.31
256.351	7.17
256.567	31.74
256.784	68.61
257	29.7
257.217	52.22
257.433	101.37
257.65	48.13
257.866	35.84
258.082	21.5
258.299	15.36
258.515	33.79
258.732	17.41
258.948	9.22
259.165	52.22
259.381	7.17
259.597	70.65
259.814	33.79
260.03	41.98
260.246	27.65
260.463	7.17
260.679	44.03
260.895	11.26
261.112	54.27
261.328	-1.02
261.544	-35.84
261.761	109.57
261.977	-11.26
262.193	-37.89
262.409	44.03
262.626	27.65
262.842	-48.13
263.058	29.7
263.274	78.85
263.49	-27.65
263.707	66.56
263.923	48.13
264.139	-7.17
264.355	50.18
264.571	125.95
264.787	89.09
265.004	82.94
265.22	56.32
265.436	-7.17
265.652	50.18
265.868	23.55
266.084	-46.08
266.3	-21.5
266.516	19.46
266.732	37.89
266.948	1.02
267.164	5.12
267.38	-1.02
267.596	1.02
267.812	37.89
268.028	64.51
268.244	-3.07
268.46	11.26
268.676	109.57
268.892	44.03
269.108	-5.12
269.324	78.85
269.54	-31.74
269.756	33.79
269.972	15.36
270.188	66.56
270.403	50.18
270.619	15.36
270.835	-31.74
271.051	15.36
271.267	-5.12
271.483	17.41
271.698	87.04
271.914	37.89
272.13	-7.17
272.346	1.02
272.562	60.42
272.777	95.23
272.993	78.85
273.209	27.65
273.425	9.22
273.64	-11.26
273.856	84.99
274.072	50.18
274.287	58.37
274.503	50.18
274.719	25.6
274.934	-48.13
275.15	-37.89
275.366	132.09
275.581	72.7
275.797	-5.12
276.012	54.27
276.228	1.02
276.444	31.74
276.659	82.94
276.875	15.36
277.09	103.42
277.306	74.75
277.521	64.51
277.737	-13.31
277.952	48.13
278.168	11.26
278.383	7.17
278.599	56.32
278.814	60.42
279.03	-37.89
279.245	87.04
279.461	19.46
279.676	56.32
279.892	33.79
280.107	-39.94
280.322	-9.22
280.538	-25.6
280.753	5.12
280.969	123.9
281.184	-39.94
281.399	-11.26
281.615	19.46
281.83	78.85
282.045	3.07
282.26	25.6
282.476	-27.65
282.691	97.28
282.906	13.31
283.122	-15.36
283.337	-35.84
283.552	-3.07
283.767	-35.84
283.983	52.22
284.198	21.5
284.413	9.22
284.628	-50.18
284.843	62.46
285.058	-39.94
285.274	76.8
285.489	78.85
285.704	87.04
285.919	-9.22
286.134	64.51
286.349	-37.89
286.564	19.46
286.779	25.6
286.995	1.02
287.21	-29.7
287.425	11.26
287.64	-7.17
287.855	7.17
288.07	25.6
288.285	91.13
288.5	23.55
288.715	21.5
288.93	-52.22
289.145	-13.31
289.36	41.98
289.575	48.13
289.79	39.94
290.004	84.99
290.219	72.7
290.434	17.41
290.649	-29.7
290.864	7.17
291.079	66.56
291.294	89.09
291.509	-15.36
291.724	52.22
291.938	-54.27
292.153	21.5
292.368	13.31
292.583	11.26
292.798	50.18
293.012	21.5
293.227	17.41
293.442	64.51
293.657	-7.17
293.871	68.61
294.086	64.51
294.301	13.31
294.516	46.08
294.73	66.56
294.945	13.31
295.16	23.55
295.374	82.94
295.589	52.22
295.804	70.65
296.018	19.46
296.233	29.7
296.447	72.7
296.662	-5.12
296.877	62.46
297.091	142.33
297.306	33.79
297.52	66.56
297.735	21.5
297.949	50.18
298.164	31.74
298.378	76.8
298.593	7.17
298.807	-56.32
299.022	25.6
299.236	111.61
299.451	78.85
299.665	56.32
299.88	19.46
300.094	15.36
300.309	15.36
300.523	48.13
300.737	56.32
300.952	105.47
301.166	54.27
301.381	44.03
301.595	39.94
301.809	-23.55
302.024	-23.55
302.238	-9.22
302.452	37.89
302.667	-13.31
302.881	44.03
303.095	78.85
303.309	13.31
303.524	21.5
303.738	56.32
303.952	-13.31
304.166	15.36
304.381	-50.18
304.595	21.5
304.809	-80.89
305.023	74.75
305.237	29.7
305.452	64.51
305.666	87.04
305.88	68.61
306.094	37.89
306.308	52.22
306.522	97.28
306.736	89.09
306.95	76.8
307.164	37.89
307.379	39.94
307.593	13.31
307.807	19.46
308.021	35.84
308.235	35.84
308.449	-3.07
308.663	50.18
308.877	46.08
309.091	44.03
309.305	84.99
309.519	7.17
309.733	84.99
309.947	1.02
310.161	66.56
310.374	58.37
310.588	50.18
310.802	-93.18
311.016	13.31
311.23	5.12
311.444	87.04
311.658	46.08
311.872	27.65
312.085	72.7
312.299	5.12
312.513	23.55
312.727	66.56
312.941	103.42
313.154	31.74
313.368	19.46
313.582	62.46
313.796	107.52
314.009	-84.99
314.223	9.22
314.437	35.84
314.651	72.7
314.864	19.46
315.078	62.46
315.292	46.08
315.505	17.41
315.719	82.94
315.933	-3.07
316.146	-50.18
316.36	25.6
316.573	64.51
316.787	56.32
317.001	82.94
317.214	-19.46
317.428	93.18
317.641	3.07
317.855	27.65
318.068	15.36
318.282	15.36
318.495	13.31
318.709	41.98
318.922	5.12
319.136	56.32
319.349	41.98
319.563	78.85
319.776	11.26
319.99	23.55
320.203	-19.46
320.417	44.03
320.63	15.36
320.843	105.47
321.057	7.17
321.27	48.13
321.483	103.42
321.697	168.96
321.91	-11.26
322.124	78.85
322.337	58.37
322.55	25.6
322.763	68.61
322.977	9.22
323.19	23.55
323.403	68.61
323.617	13.31
323.83	-7.17
324.043	-1.02
324.256	25.6
324.469	-31.74
324.683	109.57
324.896	23.55
325.109	17.41
325.322	-21.5
325.535	115.71
325.748	58.37
325.962	31.74
326.175	-9.22
326.388	29.7
326.601	82.94
326.814	33.79
327.027	17.41
327.24	25.6
327.453	21.5
327.666	64.51
327.879	125.95
328.092	60.42
328.305	-3.07
328.518	56.32
328.731	76.8
328.944	7.17
329.157	13.31
329.37	52.22
329.583	80.89
329.796	52.22
330.009	68.61
330.222	35.84
330.435	107.52
330.648	91.13
330.861	-35.84
331.073	72.7
331.286	54.27
331.499	72.7
331.712	17.41
331.925	35.84
332.138	-11.26
332.35	72.7
332.563	-13.31
332.776	31.74
332.989	58.37
333.202	56.32
333.414	5.12
333.627	35.84
333.84	-50.18
334.053	76.8
334.265	-19.46
334.478	39.94
334.691	11.26
334.903	35.84
335.116	52.22
335.329	-35.84
335.541	76.8
335.754	70.65
335.966	5.12
336.179	78.85
336.392	21.5
336.604	29.7
336.817	91.13
337.029	41.98
337.242	54.27
337.454	80.89
337.667	84.99
337.88	52.22
338.092	-5.12
338.305	41.98
338.517	66.56
338.729	91.13
338.942	128
339.154	-19.46
339.367	-21.5
339.579	-17.41
339.792	-11.26
340.004	56.32
340.217	15.36
340.429	29.7
340.641	-23.55
340.854	17.41
341.066	3.07
341.278	-15.36
341.491	31.74
341.703	70.65
341.915	37.89
342.128	70.65
342.34	-15.36
342.552	84.99
342.764	29.7
342.977	31.74
343.189	-21.5
343.401	62.46
343.613	17.41
343.826	76.8
344.038	21.5
344.25	66.56
344.462	52.22
344.674	62.46
344.886	115.71
345.099	91.13
345.311	-35.84
345.523	66.56
345.735	39.94
345.947	7.17
346.159	50.18
346.371	48.13
346.583	-31.74
346.795	54.27
347.007	46.08
347.219	119.81
347.431	52.22
347.643	78.85
347.855	95.23
348.067	29.7
348.279	-17.41
348.491	-7.17
348.703	48.13
348.915	54.27
349.127	-11.26
349.339	9.22
349.551	46.08
349.763	58.37
349.975	3.07
350.187	89.09
350.399	-1.02
350.61	39.94
350.822	37.89
351.034	56.32
351.246	31.74
351.458	33.79
351.669	33.79
351.881	93.18
352.093	-3.07
352.305	27.65
352.517	60.42
352.728	29.7
352.94	54.27
353.152	107.52
353.363	-35.84
353.575	119.81
353.787	154.62
353.999	15.36
354.21	72.7
354.422	121.85
354.633	3.07
354.845	113.66
355.057	89.09
355.268	35.84
355.48	21.5
355.692	-48.13
355.903	1.02
356.115	41.98
356.326	25.6
356.538	44.03
356.749	35.84
356.961	54.27
357.172	29.7
357.384	78.85
357.595	70.65
357.807	-48.13
358.018	23.55
358.23	37.89
358.441	62.46
358.653	19.46
358.864	-25.6
359.075	84.99
359.287	25.6
359.498	64.51
359.709	50.18
359.921	39.94
360.132	15.36
360.344	44.03
360.555	-62.46
360.766	164.86
360.977	-33.79
361.189	15.36
361.4	93.18
361.611	60.42
361.823	64.51
362.034	82.94
362.245	-62.46
362.456	3.07
362.667	54.27
362.879	11.26
363.09	23.55
363.301	56.32
363.512	39.94
363.723	27.65
363.935	74.75
364.146	1.02
364.357	95.23
364.568	46.08
364.779	46.08
364.99	84.99
365.201	41.98
365.412	97.28
365.623	19.46
365.834	50.18
366.045	50.18
366.256	56.32
366.467	33.79
366.678	-5.12
366.889	74.75
367.1	7.17
367.311	78.85
367.522	15.36
367.733	93.18
367.944	62.46
368.155	-11.26
368.366	15.36
368.577	84.99
368.788	64.51
368.999	78.85
369.209	13.31
369.42	101.37
369.631	130.05
369.842	117.76
370.053	-1.02
370.264	66.56
370.474	60.42
370.685	5.12
370.896	1.02
371.107	62.46
371.317	35.84
371.528	25.6
371.739	31.74
371.95	21.5
372.16	84.99
372.371	-13.31
372.582	68.61
372.792	58.37
373.003	91.13
373.214	39.94
373.424	140.29
373.635	3.07
373.846	58.37
374.056	80.89
374.267	97.28
374.477	62.46
374.688	37.89
374.898	21.5
375.109	9.22
375.319	-3.07
375.53	111.61
375.74	1.02
375.951	115.71
376.161	60.42
376.372	48.13
376.582	23.55
376.793	99.33
377.003	54.27
377.214	-13.31
377.424	25.6
377.635	54.27
377.845	66.56
378.055	56.32
378.266	48.13
378.476	19.46
378.686	107.52
378.897	60.42
379.107	37.89
379.317	-21.5
379.528	31.74
379.738	-5.12
379.948	31.74
380.158	41.98
380.369	89.09
380.579	35.84
380.789	66.56
380.999	-9.22
381.21	101.37
381.42	132.09
381.63	39.94
381.84	78.85
382.05	101.37
382.261	13.31
382.471	82.94
382.681	7.17
382.891	62.46
383.101	82.94
383.311	68.61
383.521	72.7
383.731	70.65
383.941	25.6
384.151	46.08
384.361	25.6
384.571	15.36
384.781	136.19
384.991	37.89
385.201	87.04
385.411	128
385.621	54.27
385.831	31.74
386.041	62.46
386.251	48.13
386.461	107.52
386.671	-15.36
386.881	74.75
387.091	46.08
387.301	54.27
387.511	70.65
387.72	66.56
387.93	72.7
388.14	37.89
388.35	41.98
388.56	44.03
388.769	140.29
388.979	52.22
389.189	-7.17
389.399	76.8
389.609	58.37
389.818	48.13
390.028	15.36
390.238	5.12
390.447	37.89
390.657	48.13
390.867	35.84
391.076	142.33
391.286	5.12
391.496	76.8
391.705	134.14
391.915	99.33
392.125	-7.17
392.334	66.56
392.544	52.22
392.753	60.42
392.963	19.46
393.172	50.18
393.382	78.85
393.591	115.71
393.801	52.22
394.01	64.51
394.22	72.7
394.429	76.8
394.639	52.22
394.848	82.94
395.058	52.22
395.267	123.9
395.477	29.7
395.686	64.51
395.895	117.76
396.105	101.37
396.314	23.55
396.524	27.65
396.733	125.95
396.942	68.61
397.152	136.19
397.361	136.19
397.57	128
397.78	62.46
397.989	33.79
398.198	93.18
398.407	82.94
398.617	56.32
398.826	70.65
399.035	130.05
399.244	66.56
399.453	91.13
399.663	148.48
399.872	103.42
400.081	46.08
400.29	117.76
400.499	64.51
400.708	95.23
400.917	78.85
401.127	15.36
401.336	62.46
401.545	119.81
401.754	70.65
401.963	64.51
402.172	84.99
402.381	115.71
402.59	78.85
402.799	115.71
403.008	130.05
403.217	62.46
403.426	84.99
403.635	99.33
403.844	64.51
404.053	74.75
404.262	144.38
404.471	68.61
404.68	113.66
404.888	144.38
405.097	224.25
405.306	144.38
405.515	138.24
405.724	107.52
405.933	160.77
406.142	70.65
406.35	99.33
406.559	119.81
406.768	148.48
406.977	152.57
407.185	113.66
407.394	175.1
407.603	175.1
407.812	177.15
408.02	164.86
408.229	181.25
408.438	123.9
408.646	224.25
408.855	197.63
409.064	173.05
409.272	232.44
409.481	211.96
409.69	207.87
409.898	248.83
410.107	216.06
410.315	281.6
410.524	189.44
410.733	277.5
410.941	340.99
411.15	326.65
411.358	328.7
411.567	361.47
411.775	332.79
411.984	359.42
412.192	343.03
412.401	320.51
412.609	390.14
412.818	330.75
413.026	404.47
413.234	445.43
413.443	408.57
413.651	470.01
413.86	435.19
414.068	422.91
414.276	433.15
414.485	490.49
414.693	500.73
414.901	576.5
415.11	539.64
415.318	582.65
415.526	541.69
415.734	609.27
415.943	642.04
416.151	631.8
416.359	654.33
416.567	697.33
416.776	726
416.984	760.82
417.192	775.16
417.4	771.06
417.608	787.44
417.817	756.72
418.025	844.79
418.233	877.55
418.441	963.57
418.649	1010.67
418.857	1020.91
419.065	994.29
419.273	932.85
419.481	988.14
419.689	1088.5
419.897	1162.22
420.105	1250.28
420.313	1205.23
420.521	1244.14
420.729	1285.1
420.937	1385.45
421.145	1373.16
421.353	1444.84
421.561	1584.1
421.769	1627.11
421.977	1641.45
422.185	1590.25
422.393	1776.61
422.601	1829.86
422.809	1803.24
423.017	1842.15
423.224	2010.08
423.432	1991.65
423.64	1938.4
423.848	2192.35
424.056	2102.24
424.263	2239.45
424.471	2276.32
424.679	2399.2
424.887	2474.97
425.094	2501.59
425.302	2503.64
425.51	2581.46
425.718	2624.47
425.925	2675.67
426.133	2773.97
426.341	2929.62
426.548	3032.02
426.756	3015.63
426.964	3105.74
427.171	3320.78
427.379	3447.76
427.586	3509.19
427.794	3552.2
428.001	3636.17
428.209	3859.4
428.417	3779.53
428.624	4127.68
428.832	4094.91
429.039	4068.29
429.247	4113.35
429.454	4338.62
429.662	4834.23
429.869	4563.9
430.076	4823.99
430.284	4641.72
430.491	4848.57
430.699	5340.08
430.906	5092.27
431.114	5262.26
431.321	5231.54
431.528	5606.31
431.736	5833.64
431.943	6030.24
432.15	6073.25
432.358	6063.01
432.565	6370.21
432.772	6339.49
432.979	6689.69
433.187	6618.01
433.394	6863.77
433.601	7189.39
433.808	7295.89
434.016	7093.14
434.223	7674.76
434.43	8039.3
434.637	7822.22
434.844	8401.79
435.052	8612.73
435.259	8299.39
435.466	8518.53
435.673	8504.19
435.88	8807.29
436.087	9382.77
436.294	9497.46
436.501	9157.49
436.708	9218.93
436.915	9933.67
437.122	10263.4
437.329	10249.06
437.537	10603.36
437.743	10601.31
437.95	10519.39
438.157	11049.82
438.364	11402.07
438.571	11438.93
438.778	11754.32
438.985	12768.06
439.192	12256.07
439.399	12737.34
439.606	12299.08
439.813	12993.34
440.02	13951.79
440.227	13460.27
440.433	13374.26
440.64	13792.05
440.847	13775.66
441.054	13937.45
441.261	15348.5
441.467	14791.45
441.674	15106.84
441.881	15649.55
442.088	15614.74
442.294	15364.89
442.501	15958.8
442.708	16403.21
442.914	16714.5
443.121	17650.42
443.328	17298.17
443.534	18361.06
443.741	17752.82
443.948	17623.8
444.154	19057.37
444.361	18600.68
444.568	18821.86
444.774	18948.83
444.981	19436.25
445.187	19813.07
445.394	20691.65
445.6	20323.02
445.807	22155.95
446.013	21678.77
446.22	21861.04
446.426	22401.71
446.633	22495.91
446.839	23745.17
447.046	22516.39
447.252	24003.22
447.459	23988.88
447.665	23829.14
447.871	25096.83
448.078	26155.63
448.284	25012.87
448.491	24914.56
448.697	26421.87
448.903	26860.13
449.11	27122.27
449.316	26708.58
449.522	27169.38
449.728	28133.97
449.935	28101.2
450.141	27961.94
450.347	28801.61
450.553	27701.85
450.76	28144.21
450.966	29278.79
451.172	28707.4
451.378	29313.6
451.584	28873.29
451.791	29829.69
451.997	29430.33
452.203	29901.37
452.409	30100.02
452.615	30044.73
452.821	28828.23
453.027	28281.42
453.233	30222.9
453.44	29082.18
453.646	29436.48
453.852	29520.45
454.058	29764.15
454.264	29176.39
454.47	29766.2
454.676	28904.01
454.882	30241.33
455.088	26917.48
455.294	27802.2
455.5	27871.83
455.705	28549.71
455.911	27396.7
456.117	26962.53
456.323	26475.12
456.529	25199.23
456.735	26133.11
456.941	25651.83
457.147	25041.54
457.352	24152.72
457.558	23917.2
457.764	24128.14
457.97	23866
458.176	23204.51
458.381	23083.68
458.587	22092.46
458.793	21928.63
458.999	20806.34
459.204	22495.91
459.41	21883.57
459.616	20234.96
459.821	20331.21
460.027	20204.24
460.233	19983.06
460.438	18887.39
460.644	19129.05
460.85	18082.54
461.055	17652.47
461.261	17824.5
461.466	16562.95
461.672	16192.26
461.878	17220.35
462.083	16153.35
462.289	15944.46
462.494	15733.52
462.7	14887.71
462.905	14672.67
463.111	14986.01
463.316	14789.41
463.522	14926.62
463.727	14805.79
463.932	14773.02
464.138	14410.53
464.343	14549.79
464.549	14301.99
464.754	14709.54
464.959	14682.91
465.165	14555.94
465.37	13935.4
465.575	13486.9
465.781	14062.38
465.986	13986.6
466.191	13591.34
466.397	13263.67
466.602	12739.39
466.807	13173.56
467.012	13390.64
467.218	13347.64
467.423	13177.65
467.628	13157.18
467.833	13624.11
468.038	13140.79
468.244	12657.47
