Data from USB4F104151__29__11-51-34-429.txt Node

Date: Fri Mar 14 11:51:34 EDT 2025
User: louis
Spectrometer: USB4F10415
Trigger mode: 4
Integration Time (sec): 2.000000E-2
Scans to average: 1
Electric dark correction enabled: true
Nonlinearity correction enabled: false
Boxcar width: 0
XAxis mode: Wavelengths
Number of Pixels in Spectrum: 3648
>>>>>Begin Spectral Data<<<<<
178.204	-73.21
178.424	-73.21
178.644	-73.21
178.864	-36.35
179.084	-46.59
179.304	-30.21
179.524	57.86
179.744	-7.68
179.964	-30.21
180.184	-11.78
180.404	12.8
180.624	-50.69
180.844	-17.92
181.064	-3.58
181.283	14.85
181.503	10.75
181.723	55.81
181.943	-19.97
182.163	49.66
182.383	23.04
182.602	-13.82
182.822	47.62
183.042	31.23
183.262	25.09
183.482	43.52
183.701	35.33
183.921	66.05
184.141	-30.21
184.361	18.94
184.58	31.23
184.8	64
185.02	23.04
185.239	119.29
185.459	12.8
185.679	-89.6
185.898	-22.02
186.118	76.29
186.338	16.9
186.557	51.71
186.777	16.9
186.997	45.57
187.216	84.48
187.436	137.73
187.655	41.47
187.875	37.38
188.095	-46.59
188.314	55.81
188.534	66.05
188.753	10.75
188.973	57.86
189.192	16.9
189.412	86.53
189.631	68.09
189.851	20.99
190.07	57.86
190.29	-30.21
190.509	35.33
190.729	70.14
190.948	68.09
191.168	88.57
191.387	78.33
191.607	96.77
191.826	72.19
192.045	57.86
192.265	25.09
192.484	33.28
192.704	27.14
192.923	33.28
193.142	49.66
193.362	64
193.581	10.75
193.8	51.71
194.02	57.86
194.239	-5.63
194.458	74.24
194.678	20.99
194.897	45.57
195.116	-48.64
195.335	0.51
195.555	0.51
195.774	2.56
195.993	82.43
196.212	23.04
196.432	-34.3
196.651	25.09
196.87	-24.06
197.089	45.57
197.308	31.23
197.528	70.14
197.747	37.38
197.966	94.72
198.185	74.24
198.404	47.62
198.623	8.7
198.842	4.61
199.062	10.75
199.281	78.33
199.5	74.24
199.719	25.09
199.938	98.81
200.157	39.42
200.376	100.86
200.595	109.05
200.814	4.61
201.033	20.99
201.252	70.14
201.471	10.75
201.69	86.53
201.909	104.96
202.128	35.33
202.347	96.77
202.566	131.58
202.785	61.95
203.004	23.04
203.223	68.09
203.442	10.75
203.661	-22.02
203.879	39.42
204.098	16.9
204.317	35.33
204.536	123.39
204.755	8.7
204.974	41.47
205.193	25.09
205.411	47.62
205.63	47.62
205.849	14.85
206.068	125.44
206.287	66.05
206.505	-5.63
206.724	4.61
206.943	35.33
207.162	-28.16
207.381	47.62
207.599	-3.58
207.818	64
208.037	47.62
208.255	64
208.474	51.71
208.693	0.51
208.911	2.56
209.13	-9.73
209.349	41.47
209.567	76.29
209.786	27.14
210.005	-9.73
210.223	6.66
210.442	59.9
210.661	61.95
210.879	-19.97
211.098	129.53
211.316	123.39
211.535	66.05
211.753	6.66
211.972	129.53
212.191	35.33
212.409	8.7
212.628	94.72
212.846	37.38
213.065	20.99
213.283	43.52
213.502	55.81
213.72	78.33
213.938	25.09
214.157	-40.45
214.375	53.76
214.594	23.04
214.812	29.18
215.031	10.75
215.249	68.09
215.467	121.34
215.686	4.61
215.904	-22.02
216.122	111.1
216.341	66.05
216.559	6.66
216.778	51.71
216.996	61.95
217.214	59.9
217.432	31.23
217.651	-17.92
217.869	14.85
218.087	31.23
218.306	-52.74
218.524	-19.97
218.742	37.38
218.96	-34.3
219.179	-26.11
219.397	-15.87
219.615	8.7
219.833	66.05
220.051	-13.82
220.27	90.62
220.488	109.05
220.706	43.52
220.924	-1.54
221.142	47.62
221.36	66.05
221.578	12.8
221.796	76.29
222.015	49.66
222.233	20.99
222.451	92.67
222.669	-9.73
222.887	125.44
223.105	-50.69
223.323	94.72
223.541	33.28
223.759	82.43
223.977	-36.35
224.195	31.23
224.413	39.42
224.631	-9.73
224.849	55.81
225.067	39.42
225.285	29.18
225.503	68.09
225.721	29.18
225.939	68.09
226.157	20.99
226.375	82.43
226.592	-17.92
226.81	47.62
227.028	61.95
227.246	14.85
227.464	49.66
227.682	0.51
227.9	-17.92
228.117	90.62
228.335	90.62
228.553	-17.92
228.771	-24.06
228.989	86.53
229.206	129.53
229.424	98.81
229.642	-75.26
229.86	88.57
230.077	-3.58
230.295	35.33
230.513	8.7
230.731	55.81
230.948	119.29
231.166	117.25
231.384	49.66
231.601	6.66
231.819	31.23
232.037	37.38
232.254	-11.78
232.472	10.75
232.689	80.38
232.907	68.09
233.125	57.86
233.342	-50.69
233.56	80.38
233.777	115.2
233.995	39.42
234.213	-7.68
234.43	57.86
234.648	-15.87
234.865	16.9
235.083	31.23
235.3	-13.82
235.518	61.95
235.735	64
235.953	2.56
236.17	76.29
236.388	-9.73
236.605	68.09
236.822	41.47
237.04	-22.02
237.257	33.28
237.475	-9.73
237.692	-3.58
237.909	68.09
238.127	25.09
238.344	33.28
238.562	25.09
238.779	59.9
238.996	76.29
239.214	-1.54
239.431	80.38
239.648	43.52
239.865	-1.54
240.083	70.14
240.3	61.95
240.517	86.53
240.735	-5.63
240.952	49.66
241.169	84.48
241.386	55.81
241.603	109.05
241.821	6.66
242.038	90.62
242.255	39.42
242.472	57.86
242.689	33.28
242.907	131.58
243.124	55.81
243.341	-42.5
243.558	31.23
243.775	18.94
243.992	-15.87
244.209	20.99
244.426	94.72
244.643	35.33
244.86	53.76
245.078	70.14
245.295	12.8
245.512	18.94
245.729	47.62
245.946	70.14
246.163	57.86
246.38	61.95
246.597	0.51
246.814	33.28
247.031	-36.35
247.248	100.86
247.464	16.9
247.681	29.18
247.898	115.2
248.115	53.76
248.332	10.75
248.549	80.38
248.766	10.75
248.983	53.76
249.2	10.75
249.417	41.47
249.633	16.9
249.85	4.61
250.067	59.9
250.284	78.33
250.501	41.47
250.717	68.09
250.934	35.33
251.151	31.23
251.368	51.71
251.585	84.48
251.801	20.99
252.018	-5.63
252.235	68.09
252.451	23.04
252.668	96.77
252.885	33.28
253.102	18.94
253.318	55.81
253.535	10.75
253.752	80.38
253.968	90.62
254.185	25.09
254.401	53.76
254.618	14.85
254.835	53.76
255.051	61.95
255.268	49.66
255.484	31.23
255.701	66.05
255.917	47.62
256.134	53.76
256.351	8.7
256.567	2.56
256.784	84.48
257	31.23
257.217	45.57
257.433	-3.58
257.65	-24.06
257.866	76.29
258.082	2.56
258.299	-1.54
258.515	72.19
258.732	45.57
258.948	18.94
259.165	2.56
259.381	2.56
259.597	-38.4
259.814	-17.92
260.03	35.33
260.246	49.66
260.463	16.9
260.679	0.51
260.895	29.18
261.112	8.7
261.328	10.75
261.544	39.42
261.761	84.48
261.977	70.14
262.193	-38.4
262.409	-13.82
262.626	51.71
262.842	64
263.058	-15.87
263.274	64
263.49	57.86
263.707	31.23
263.923	39.42
264.139	43.52
264.355	66.05
264.571	23.04
264.787	0.51
265.004	80.38
265.22	0.51
265.436	39.42
265.652	27.14
265.868	96.77
266.084	27.14
266.3	23.04
266.516	-48.64
266.732	57.86
266.948	39.42
267.164	49.66
267.38	-9.73
267.596	-34.3
267.812	49.66
268.028	-24.06
268.244	-11.78
268.46	51.71
268.676	25.09
268.892	80.38
269.108	-3.58
269.324	33.28
269.54	29.18
269.756	33.28
269.972	45.57
270.188	12.8
270.403	14.85
270.619	109.05
270.835	96.77
271.051	25.09
271.267	86.53
271.483	20.99
271.698	-36.35
271.914	59.9
272.13	49.66
272.346	-42.5
272.562	27.14
272.777	102.91
272.993	43.52
273.209	78.33
273.425	20.99
273.64	41.47
273.856	90.62
274.072	45.57
274.287	14.85
274.503	70.14
274.719	53.76
274.934	45.57
275.15	29.18
275.366	53.76
275.581	39.42
275.797	127.49
276.012	29.18
276.228	59.9
276.444	90.62
276.659	59.9
276.875	104.96
277.09	-60.93
277.306	4.61
277.521	84.48
277.737	49.66
277.952	61.95
278.168	43.52
278.383	86.53
278.599	47.62
278.814	-5.63
279.03	102.91
279.245	102.91
279.461	-36.35
279.676	10.75
279.892	10.75
280.107	33.28
280.322	27.14
280.538	6.66
280.753	35.33
280.969	-13.82
281.184	61.95
281.399	-56.83
281.615	25.09
281.83	68.09
282.045	25.09
282.26	-1.54
282.476	-44.54
282.691	107.01
282.906	70.14
283.122	51.71
283.337	88.57
283.552	59.9
283.767	47.62
283.983	31.23
284.198	23.04
284.413	47.62
284.628	-17.92
284.843	96.77
285.058	43.52
285.274	-26.11
285.489	-34.3
285.704	92.67
285.919	-17.92
286.134	29.18
286.349	-1.54
286.564	43.52
286.779	72.19
286.995	57.86
287.21	16.9
287.425	80.38
287.64	8.7
287.855	76.29
288.07	10.75
288.285	76.29
288.5	49.66
288.715	104.96
288.93	143.87
289.145	37.38
289.36	16.9
289.575	-24.06
289.79	49.66
290.004	45.57
290.219	35.33
290.434	39.42
290.649	90.62
290.864	111.1
291.079	18.94
291.294	72.19
291.509	107.01
291.724	35.33
291.938	90.62
292.153	-22.02
292.368	4.61
292.583	-13.82
292.798	109.05
293.012	90.62
293.227	72.19
293.442	-11.78
293.657	35.33
293.871	61.95
294.086	96.77
294.301	72.19
294.516	119.29
294.73	88.57
294.945	-11.78
295.16	49.66
295.374	45.57
295.589	29.18
295.804	12.8
296.018	66.05
296.233	45.57
296.447	72.19
296.662	64
296.877	82.43
297.091	-15.87
297.306	45.57
297.52	16.9
297.735	61.95
297.949	94.72
298.164	64
298.378	90.62
298.593	43.52
298.807	109.05
299.022	39.42
299.236	64
299.451	76.29
299.665	27.14
299.88	59.9
300.094	129.53
300.309	18.94
300.523	94.72
300.737	18.94
300.952	14.85
301.166	-5.63
301.381	104.96
301.595	39.42
301.809	68.09
302.024	70.14
302.238	0.51
302.452	96.77
302.667	66.05
302.881	68.09
303.095	129.53
303.309	100.86
303.524	10.75
303.738	98.81
303.952	25.09
304.166	80.38
304.381	-15.87
304.595	100.86
304.809	64
305.023	41.47
305.237	-46.59
305.452	31.23
305.666	102.91
305.88	33.28
306.094	78.33
306.308	111.1
306.522	84.48
306.736	84.48
306.95	53.76
307.164	64
307.379	-24.06
307.593	96.77
307.807	29.18
308.021	70.14
308.235	61.95
308.449	96.77
308.663	2.56
308.877	80.38
309.091	43.52
309.305	20.99
309.519	-28.16
309.733	72.19
309.947	18.94
310.161	64
310.374	74.24
310.588	2.56
310.802	37.38
311.016	70.14
311.23	14.85
311.444	-5.63
311.658	84.48
311.872	78.33
312.085	35.33
312.299	82.43
312.513	86.53
312.727	92.67
312.941	-38.4
313.154	115.2
313.368	51.71
313.582	57.86
313.796	78.33
314.009	121.34
314.223	55.81
314.437	53.76
314.651	57.86
314.864	80.38
315.078	14.85
315.292	57.86
315.505	55.81
315.719	10.75
315.933	49.66
316.146	-34.3
316.36	14.85
316.573	64
316.787	113.15
317.001	78.33
317.214	16.9
317.428	-46.59
317.641	66.05
317.855	98.81
318.068	4.61
318.282	51.71
318.495	80.38
318.709	27.14
318.922	33.28
319.136	14.85
319.349	82.43
319.563	18.94
319.776	-50.69
319.99	20.99
320.203	90.62
320.417	74.24
320.63	8.7
320.843	72.19
321.057	35.33
321.27	31.23
321.483	33.28
321.697	113.15
321.91	23.04
322.124	80.38
322.337	88.57
322.55	35.33
322.763	-38.4
322.977	55.81
323.19	123.39
323.403	47.62
323.617	-36.35
323.83	129.53
324.043	66.05
324.256	27.14
324.469	31.23
324.683	43.52
324.896	123.39
325.109	43.52
325.322	109.05
325.535	74.24
325.748	78.33
325.962	88.57
326.175	20.99
326.388	133.63
326.601	68.09
326.814	27.14
327.027	23.04
327.24	55.81
327.453	-30.21
327.666	4.61
327.879	57.86
328.092	31.23
328.305	41.47
328.518	31.23
328.731	41.47
328.944	33.28
329.157	16.9
329.37	35.33
329.583	57.86
329.796	147.97
330.009	47.62
330.222	12.8
330.435	64
330.648	94.72
330.861	6.66
331.073	18.94
331.286	49.66
331.499	47.62
331.712	55.81
331.925	-95.74
332.138	82.43
332.35	61.95
332.563	53.76
332.776	127.49
332.989	-46.59
333.202	70.14
333.414	35.33
333.627	-15.87
333.84	14.85
334.053	117.25
334.265	57.86
334.478	47.62
334.691	135.68
334.903	43.52
335.116	0.51
335.329	23.04
335.541	49.66
335.754	61.95
335.966	6.66
336.179	88.57
336.392	98.81
336.604	76.29
336.817	49.66
337.029	35.33
337.242	80.38
337.454	55.81
337.667	57.86
337.88	88.57
338.092	-11.78
338.305	59.9
338.517	82.43
338.729	80.38
338.942	64
339.154	66.05
339.367	27.14
339.579	41.47
339.792	-7.68
340.004	129.53
340.217	47.62
340.429	70.14
340.641	-30.21
340.854	68.09
341.066	61.95
341.278	6.66
341.491	127.49
341.703	96.77
341.915	27.14
342.128	41.47
342.34	18.94
342.552	66.05
342.764	64
342.977	49.66
343.189	86.53
343.401	100.86
343.613	-7.68
343.826	49.66
344.038	78.33
344.25	45.57
344.462	-26.11
344.674	57.86
344.886	8.7
345.099	47.62
345.311	72.19
345.523	41.47
345.735	33.28
345.947	70.14
346.159	68.09
346.371	25.09
346.583	64
346.795	135.68
347.007	10.75
347.219	152.06
347.431	61.95
347.643	61.95
347.855	41.47
348.067	158.21
348.279	100.86
348.491	96.77
348.703	61.95
348.915	37.38
349.127	74.24
349.339	29.18
349.551	82.43
349.763	10.75
349.975	70.14
350.187	72.19
350.399	16.9
350.61	76.29
350.822	68.09
351.034	102.91
351.246	-3.58
351.458	104.96
351.669	72.19
351.881	45.57
352.093	76.29
352.305	72.19
352.517	41.47
352.728	74.24
352.94	72.19
353.152	96.77
353.363	25.09
353.575	125.44
353.787	53.76
353.999	64
354.21	66.05
354.422	-13.82
354.633	66.05
354.845	18.94
355.057	123.39
355.268	100.86
355.48	49.66
355.692	98.81
355.903	18.94
356.115	41.47
356.326	43.52
356.538	174.59
356.749	53.76
356.961	57.86
357.172	51.71
357.384	2.56
357.595	156.16
357.807	20.99
358.018	-9.73
358.23	35.33
358.441	74.24
358.653	98.81
358.864	64
359.075	129.53
359.287	25.09
359.498	68.09
359.709	-34.3
359.921	98.81
360.132	35.33
360.344	59.9
360.555	68.09
360.766	141.82
360.977	76.29
361.189	45.57
361.4	59.9
361.611	121.34
361.823	66.05
362.034	-1.54
362.245	-77.31
362.456	39.42
362.667	37.38
362.879	39.42
363.09	8.7
363.301	92.67
363.512	41.47
363.723	57.86
363.935	29.18
364.146	-17.92
364.357	25.09
364.568	61.95
364.779	94.72
364.99	41.47
365.201	43.52
365.412	123.39
365.623	41.47
365.834	147.97
366.045	47.62
366.256	162.3
366.467	51.71
366.678	94.72
366.889	72.19
367.1	25.09
367.311	27.14
367.522	51.71
367.733	29.18
367.944	49.66
368.155	27.14
368.366	72.19
368.577	96.77
368.788	72.19
368.999	45.57
369.209	66.05
369.42	20.99
369.631	78.33
369.842	104.96
370.053	53.76
370.264	82.43
370.474	20.99
370.685	55.81
370.896	84.48
371.107	55.81
371.317	88.57
371.528	20.99
371.739	47.62
371.95	109.05
372.16	64
372.371	-19.97
372.582	12.8
372.792	156.16
373.003	53.76
373.214	10.75
373.424	8.7
373.635	10.75
373.846	129.53
374.056	76.29
374.267	31.23
374.477	43.52
374.688	64
374.898	143.87
375.109	33.28
375.319	74.24
375.53	59.9
375.74	66.05
375.951	55.81
376.161	94.72
376.372	61.95
376.582	33.28
376.793	47.62
377.003	31.23
377.214	59.9
377.424	98.81
377.635	96.77
377.845	53.76
378.055	152.06
378.266	68.09
378.476	135.68
378.686	47.62
378.897	51.71
379.107	68.09
379.317	139.77
379.528	39.42
379.738	8.7
379.948	68.09
380.158	104.96
380.369	6.66
380.579	84.48
380.789	47.62
380.999	92.67
381.21	70.14
381.42	59.9
381.63	39.42
381.84	100.86
382.05	139.77
382.261	94.72
382.471	121.34
382.681	84.48
382.891	121.34
383.101	78.33
383.311	82.43
383.521	133.63
383.731	31.23
383.941	70.14
384.151	78.33
384.361	-1.54
384.571	6.66
384.781	76.29
384.991	119.29
385.201	8.7
385.411	131.58
385.621	64
385.831	59.9
386.041	29.18
386.251	47.62
386.461	119.29
386.671	70.14
386.881	84.48
387.091	74.24
387.301	53.76
387.511	117.25
387.72	102.91
387.93	61.95
388.14	90.62
388.35	104.96
388.56	125.44
388.769	92.67
388.979	113.15
389.189	104.96
389.399	98.81
389.609	10.75
389.818	145.92
390.028	39.42
390.238	109.05
390.447	129.53
390.657	35.33
390.867	70.14
391.076	53.76
391.286	76.29
391.496	47.62
391.705	98.81
391.915	119.29
392.125	109.05
392.334	139.77
392.544	127.49
392.753	68.09
392.963	49.66
393.172	10.75
393.382	39.42
393.591	111.1
393.801	-22.02
394.01	88.57
394.22	90.62
394.429	139.77
394.639	64
394.848	135.68
395.058	137.73
395.267	43.52
395.477	156.16
395.686	96.77
395.895	150.01
396.105	84.48
396.314	123.39
396.524	154.11
396.733	33.28
396.942	150.01
397.152	55.81
397.361	145.92
397.57	55.81
397.78	84.48
397.989	111.1
398.198	184.83
398.407	109.05
398.617	64
398.826	12.8
399.035	94.72
399.244	117.25
399.453	96.77
399.663	70.14
399.872	166.4
400.081	125.44
400.29	121.34
400.499	102.91
400.708	35.33
400.917	123.39
401.127	109.05
401.336	115.2
401.545	109.05
401.754	178.69
401.963	111.1
402.172	55.81
402.381	82.43
402.59	90.62
402.799	88.57
403.008	143.87
403.217	107.01
403.426	180.73
403.635	164.35
403.844	111.1
404.053	96.77
404.262	172.54
404.471	147.97
404.68	45.57
404.888	172.54
405.097	178.69
405.306	197.12
405.515	129.53
405.724	147.97
405.933	242.17
406.142	141.82
406.35	221.69
406.559	139.77
406.768	229.88
406.977	231.93
407.185	268.8
407.394	244.22
407.603	207.36
407.812	281.08
408.02	287.23
408.229	270.84
408.438	246.27
408.646	281.08
408.855	252.41
409.064	238.08
409.272	242.17
409.481	313.85
409.69	260.6
409.898	285.18
410.107	315.9
410.315	330.23
410.524	295.42
410.733	354.81
410.941	305.66
411.15	348.67
411.358	477.69
411.567	492.02
411.775	391.67
411.984	422.39
412.192	457.21
412.401	463.35
412.609	469.5
412.818	500.22
413.026	494.07
413.234	492.02
413.443	578.04
413.651	561.66
413.86	545.27
414.068	530.94
414.276	641.53
414.485	561.66
414.693	743.92
414.901	733.68
415.11	776.69
415.318	700.92
415.526	797.17
415.734	809.46
415.943	801.27
416.151	860.66
416.359	809.46
416.567	907.76
416.776	967.15
416.984	1020.4
417.192	948.72
417.4	1057.26
417.608	993.78
417.817	1083.89
418.025	1018.35
418.233	1239.53
418.441	1194.48
418.649	1149.42
418.857	1264.11
419.065	1313.26
419.273	1194.48
419.481	1350.12
419.689	1454.57
419.897	1481.19
420.105	1487.34
420.313	1520.1
420.521	1556.97
420.729	1677.8
420.937	1720.81
421.145	1755.62
421.353	1819.11
421.561	1948.13
421.769	1937.89
421.977	2050.53
422.185	2105.82
422.393	2073.06
422.601	2161.12
422.809	2275.81
423.017	2267.61
423.224	2372.06
423.432	2511.32
423.64	2527.71
423.848	2795.99
424.056	2550.23
424.263	2916.82
424.471	2712.02
424.679	2869.72
424.887	3150.29
425.094	3154.38
425.302	3082.7
425.51	3398.09
425.718	3406.28
425.925	3453.39
426.133	3643.85
426.341	3686.86
426.548	4016.58
426.756	3926.47
426.964	3920.32
427.171	4252.1
427.379	4297.15
427.586	4454.84
427.794	4387.26
428.001	4891.06
428.209	4989.36
428.417	4798.9
428.624	4901.3
428.832	5194.16
429.039	5140.91
429.247	5058.99
429.454	5689.77
429.662	5841.32
429.869	5562.8
430.076	5921.19
430.284	5884.33
430.491	6044.07
430.699	6410.65
430.906	6367.65
431.114	6486.43
431.321	6807.96
431.528	6969.75
431.736	7301.52
431.943	7709.07
432.15	7471.5
432.358	7571.85
432.565	8003.97
432.772	7917.96
432.979	8640.89
433.187	8515.97
433.394	8636.8
433.601	9064.82
433.808	9304.43
434.016	8909.18
434.223	9429.36
434.43	9953.64
434.637	9820.52
434.844	10539.36
435.052	10574.17
435.259	10488.16
435.466	10594.65
435.673	10664.29
435.88	11266.39
436.087	11796.81
436.294	11805
436.501	11563.34
436.708	11911.5
436.915	12265.8
437.122	13091.13
437.329	12663.1
437.537	13320.5
437.743	13543.73
437.95	13173.05
438.157	14100.78
438.364	14586.15
438.571	14561.57
438.778	14369.06
438.985	15845.65
439.192	15124.76
439.399	15708.43
439.606	15358.23
439.813	16457.99
440.02	17099
440.227	16904.45
440.433	16849.15
440.64	17445.11
440.847	17408.25
441.054	18020.59
441.261	18677.99
441.467	18850.02
441.674	18989.28
441.881	19546.33
442.088	19626.2
442.294	19468.5
442.501	19980.5
442.708	20746.44
442.914	21143.74
443.121	22374.57
443.328	21283
443.534	22974.63
443.741	22542.5
443.948	22331.56
444.154	23722.13
444.361	23492.76
444.568	23656.6
444.774	23691.41
444.981	23953.55
445.187	24729.73
445.394	25749.62
445.6	25710.71
445.807	28115.03
446.013	26769.51
446.22	26974.31
446.426	28262.48
446.633	28528.72
446.839	29448.25
447.046	28141.65
447.252	30099.51
447.459	29939.77
447.665	29775.93
447.871	31367.2
448.078	32577.55
448.284	31060.01
448.491	31780.89
448.697	32923.66
448.903	33718.27
449.11	33619.97
449.316	33292.29
449.522	33757.18
449.728	34785.26
449.935	34940.91
450.141	35006.44
450.347	35598.3
450.553	34734.06
450.76	35004.39
450.966	36286.42
451.172	35669.98
451.378	36798.41
451.584	36038.62
451.791	36773.84
451.997	36501.46
452.203	37437.38
452.409	37543.88
452.615	37156.81
452.821	35588.06
453.027	35729.37
453.233	37558.21
453.44	36057.05
453.646	36523.99
453.852	36403.16
454.058	37224.39
454.264	35596.26
454.47	36767.69
454.676	35971.04
454.882	37169.1
455.088	33638.4
455.294	34201.59
455.5	34953.19
455.705	35229.67
455.911	33976.31
456.117	32884.75
456.323	32806.92
456.529	31021.09
456.735	32200.72
456.941	31330.34
457.147	31043.62
457.352	30464.05
457.558	30165.04
457.764	29941.82
457.97	29247.55
458.176	28784.71
458.381	28602.44
458.587	27095.14
458.793	27357.28
458.999	26439.79
459.204	27725.91
459.41	27021.41
459.616	25168
459.821	24957.06
460.027	25135.23
460.233	24656.01
460.438	23345.31
460.644	24062.1
460.85	22741.16
461.055	22268.08
461.261	22200.49
461.466	20660.42
461.672	20277.45
461.878	21326.01
462.083	20246.73
462.289	19564.76
462.494	19366.1
462.7	18696.42
462.905	18221.29
463.111	18645.22
463.316	18819.3
463.522	18442.47
463.727	18409.7
463.932	17987.82
464.138	18264.3
464.343	18368.74
464.549	17606.9
464.754	18125.04
464.959	18118.89
465.165	17785.07
465.37	17232.12
465.575	16597.25
465.781	17398.01
465.986	17434.87
466.191	17027.32
466.397	16570.63
466.602	15847.69
466.807	16376.07
467.012	16142.6
467.218	16316.68
467.423	16017.68
467.628	16326.92
467.833	16834.82
468.038	16169.23
