Data from USB4F104151__61__11-52-31-482.txt Node

Date: Fri Mar 14 11:52:31 EDT 2025
User: louis
Spectrometer: USB4F10415
Trigger mode: 4
Integration Time (sec): 2.000000E-2
Scans to average: 1
Electric dark correction enabled: true
Nonlinearity correction enabled: false
Boxcar width: 0
XAxis mode: Wavelengths
Number of Pixels in Spectrum: 3648
>>>>>Begin Spectral Data<<<<<
178.204	-51.88
178.424	-51.88
178.644	-51.88
178.864	-86.7
179.084	-86.7
179.304	44.37
179.524	7.51
179.744	-27.31
179.964	-19.11
180.184	-29.35
180.404	-15.02
180.624	-10.92
180.844	1.37
181.064	62.8
181.283	-58.03
181.503	15.7
181.723	27.99
181.943	56.66
182.163	58.71
182.383	-21.16
182.602	7.51
182.822	89.43
183.042	46.42
183.262	30.04
183.482	95.57
183.701	9.56
183.921	23.89
184.141	-8.87
184.361	-23.21
184.58	44.37
184.8	15.7
185.02	-4.78
185.239	118.1
185.459	42.32
185.679	97.62
185.898	-12.97
186.118	23.89
186.338	50.52
186.557	7.51
186.777	-23.21
186.997	95.57
187.216	9.56
187.436	64.85
187.655	95.57
187.875	66.9
188.095	42.32
188.314	87.38
188.534	68.95
188.753	19.8
188.973	75.09
189.192	-15.02
189.412	50.52
189.631	21.85
189.851	30.04
190.07	21.85
190.29	-105.13
190.509	32.08
190.729	-10.92
190.948	68.95
191.168	77.14
191.387	73.04
191.607	126.29
191.826	34.13
192.045	23.89
192.265	17.75
192.484	40.28
192.704	17.75
192.923	32.08
193.142	128.34
193.362	44.37
193.581	60.76
193.8	50.52
194.02	-25.26
194.239	-2.73
194.458	56.66
194.678	-17.07
194.897	-62.12
195.116	46.42
195.335	25.94
195.555	66.9
195.774	7.51
195.993	44.37
196.212	1.37
196.432	36.18
196.651	54.61
196.87	48.47
197.089	58.71
197.308	60.76
197.528	11.61
197.747	68.95
197.966	54.61
198.185	23.89
198.404	81.24
198.623	79.19
198.842	54.61
199.062	62.8
199.281	103.76
199.5	17.75
199.719	5.46
199.938	93.52
200.157	-12.97
200.376	-6.83
200.595	54.61
200.814	-19.11
201.033	7.51
201.252	17.75
201.471	15.7
201.69	23.89
201.909	15.7
202.128	-4.78
202.347	44.37
202.566	25.94
202.785	1.37
203.004	95.57
203.223	60.76
203.442	99.67
203.661	-29.35
203.879	42.32
204.098	99.67
204.317	-19.11
204.536	83.28
204.755	-0.68
204.974	27.99
205.193	66.9
205.411	71
205.63	87.38
205.849	101.72
206.068	-0.68
206.287	-66.22
206.505	5.46
206.724	1.37
206.943	17.75
207.162	15.7
207.381	58.71
207.599	-19.11
207.818	-23.21
208.037	23.89
208.255	-35.5
208.474	38.23
208.693	56.66
208.911	15.7
209.13	130.39
209.349	32.08
209.567	11.61
209.786	144.72
210.005	5.46
210.223	68.95
210.442	-15.02
210.661	-10.92
210.879	-10.92
211.098	60.76
211.316	73.04
211.535	7.51
211.753	-15.02
211.972	64.85
212.191	-2.73
212.409	32.08
212.628	36.18
212.846	-4.78
213.065	97.62
213.283	13.65
213.502	-15.02
213.72	9.56
213.938	54.61
214.157	48.47
214.375	19.8
214.594	1.37
214.812	103.76
215.031	-4.78
215.249	3.41
215.467	-25.26
215.686	38.23
215.904	107.86
216.122	5.46
216.341	-4.78
216.559	27.99
216.778	9.56
216.996	50.52
217.214	32.08
217.432	124.24
217.651	87.38
217.869	-60.07
218.087	27.99
218.306	75.09
218.524	83.28
218.742	17.75
218.96	54.61
219.179	79.19
219.397	19.8
219.615	48.47
219.833	54.61
220.051	36.18
220.27	42.32
220.488	40.28
220.706	68.95
220.924	34.13
221.142	54.61
221.36	19.8
221.578	64.85
221.796	-33.45
222.015	64.85
222.233	27.99
222.451	9.56
222.669	-66.22
222.887	19.8
223.105	50.52
223.323	40.28
223.541	44.37
223.759	91.48
223.977	-17.07
224.195	38.23
224.413	44.37
224.631	32.08
224.849	-0.68
225.067	54.61
225.285	87.38
225.503	23.89
225.721	17.75
225.939	34.13
226.157	13.65
226.375	36.18
226.592	7.51
226.81	15.7
227.028	50.52
227.246	79.19
227.464	21.85
227.682	46.42
227.9	38.23
228.117	60.76
228.335	13.65
228.553	62.8
228.771	-19.11
228.989	48.47
229.206	-0.68
229.424	25.94
229.642	36.18
229.86	21.85
230.077	134.48
230.295	36.18
230.513	56.66
230.731	15.7
230.948	27.99
231.166	64.85
231.384	-29.35
231.601	56.66
231.819	95.57
232.037	1.37
232.254	-0.68
232.472	40.28
232.689	-2.73
232.907	75.09
233.125	21.85
233.342	36.18
233.56	77.14
233.777	71
233.995	27.99
234.213	40.28
234.43	62.8
234.648	83.28
234.865	71
235.083	17.75
235.3	34.13
235.518	60.76
235.735	40.28
235.953	77.14
236.17	66.9
236.388	60.76
236.605	-27.31
236.822	81.24
237.04	56.66
237.257	34.13
237.475	-19.11
237.692	56.66
237.909	15.7
238.127	-29.35
238.344	23.89
238.562	85.33
238.779	5.46
238.996	-19.11
239.214	-12.97
239.431	66.9
239.648	-33.45
239.865	83.28
240.083	30.04
240.3	44.37
240.517	73.04
240.735	19.8
240.952	138.58
241.169	54.61
241.386	-12.97
241.603	-19.11
241.821	89.43
242.038	11.61
242.255	87.38
242.472	15.7
242.689	-4.78
242.907	81.24
243.124	83.28
243.341	54.61
243.558	36.18
243.775	40.28
243.992	52.56
244.209	-2.73
244.426	85.33
244.643	23.89
244.86	-6.83
245.078	15.7
245.295	42.32
245.512	68.95
245.729	13.65
245.946	52.56
246.163	23.89
246.38	68.95
246.597	-15.02
246.814	99.67
247.031	81.24
247.248	81.24
247.464	79.19
247.681	-12.97
247.898	30.04
248.115	-19.11
248.332	-6.83
248.549	5.46
248.766	25.94
248.983	1.37
249.2	17.75
249.417	87.38
249.633	48.47
249.85	-8.87
250.067	7.51
250.284	54.61
250.501	25.94
250.717	64.85
250.934	77.14
251.151	-12.97
251.368	44.37
251.585	89.43
251.801	54.61
252.018	13.65
252.235	32.08
252.451	-2.73
252.668	-23.21
252.885	9.56
253.102	15.7
253.318	-10.92
253.535	85.33
253.752	132.44
253.968	-53.93
254.185	50.52
254.401	73.04
254.618	30.04
254.835	7.51
255.051	46.42
255.268	83.28
255.484	-41.64
255.701	87.38
255.917	71
256.134	79.19
256.351	13.65
256.567	-12.97
256.784	120.15
257	7.51
257.217	13.65
257.433	97.62
257.65	42.32
257.866	-19.11
258.082	71
258.299	52.56
258.515	77.14
258.732	11.61
258.948	-25.26
259.165	68.95
259.381	77.14
259.597	42.32
259.814	87.38
260.03	21.85
260.246	48.47
260.463	46.42
260.679	48.47
260.895	15.7
261.112	36.18
261.328	-4.78
261.544	-55.98
261.761	107.86
261.977	15.7
262.193	40.28
262.409	34.13
262.626	-29.35
262.842	109.91
263.058	32.08
263.274	48.47
263.49	30.04
263.707	15.7
263.923	99.67
264.139	32.08
264.355	56.66
264.571	-21.16
264.787	-6.83
265.004	25.94
265.22	-2.73
265.436	62.8
265.652	7.51
265.868	46.42
266.084	-21.16
266.3	17.75
266.516	56.66
266.732	40.28
266.948	27.99
267.164	36.18
267.38	73.04
267.596	-25.26
267.812	54.61
268.028	75.09
268.244	-27.31
268.46	38.23
268.676	36.18
268.892	40.28
269.108	75.09
269.324	62.8
269.54	-19.11
269.756	126.29
269.972	93.52
270.188	-8.87
270.403	19.8
270.619	40.28
270.835	58.71
271.051	-2.73
271.267	13.65
271.483	7.51
271.698	91.48
271.914	44.37
272.13	-12.97
272.346	30.04
272.562	34.13
272.777	7.51
272.993	-0.68
273.209	9.56
273.425	64.85
273.64	1.37
273.856	81.24
274.072	-27.31
274.287	23.89
274.503	-51.88
274.719	52.56
274.934	36.18
275.15	34.13
275.366	23.89
275.581	13.65
275.797	52.56
276.012	71
276.228	17.75
276.444	11.61
276.659	68.95
276.875	13.65
277.09	27.99
277.306	81.24
277.521	91.48
277.737	83.28
277.952	73.04
278.168	-23.21
278.383	15.7
278.599	-15.02
278.814	42.32
279.03	-31.4
279.245	91.48
279.461	68.95
279.676	81.24
279.892	-15.02
280.107	25.94
280.322	50.52
280.538	30.04
280.753	48.47
280.969	7.51
281.184	36.18
281.399	48.47
281.615	85.33
281.83	36.18
282.045	60.76
282.26	-29.35
282.476	48.47
282.691	120.15
282.906	62.8
283.122	38.23
283.337	23.89
283.552	44.37
283.767	13.65
283.983	73.04
284.198	1.37
284.413	7.51
284.628	-15.02
284.843	68.95
285.058	-19.11
285.274	46.42
285.489	21.85
285.704	87.38
285.919	36.18
286.134	60.76
286.349	36.18
286.564	77.14
286.779	54.61
286.995	5.46
287.21	-17.07
287.425	107.86
287.64	38.23
287.855	56.66
288.07	23.89
288.285	44.37
288.5	134.48
288.715	40.28
288.93	52.56
289.145	144.72
289.36	87.38
289.575	36.18
289.79	13.65
290.004	81.24
290.219	42.32
290.434	54.61
290.649	32.08
290.864	13.65
291.079	42.32
291.294	40.28
291.509	89.43
291.724	9.56
291.938	-33.45
292.153	34.13
292.368	73.04
292.583	27.99
292.798	36.18
293.012	25.94
293.227	-78.51
293.442	60.76
293.657	13.65
293.871	85.33
294.086	83.28
294.301	-4.78
294.516	103.76
294.73	40.28
294.945	15.7
295.16	46.42
295.374	32.08
295.589	111.96
295.804	-15.02
296.018	83.28
296.233	73.04
296.447	44.37
296.662	11.61
296.877	25.94
297.091	116.05
297.306	30.04
297.52	42.32
297.735	85.33
297.949	-23.21
298.164	71
298.378	25.94
298.593	25.94
298.807	-12.97
299.022	32.08
299.236	19.8
299.451	71
299.665	3.41
299.88	19.8
300.094	71
300.309	46.42
300.523	-27.31
300.737	32.08
300.952	17.75
301.166	21.85
301.381	71
301.595	17.75
301.809	30.04
302.024	40.28
302.238	27.99
302.452	17.75
302.667	44.37
302.881	81.24
303.095	52.56
303.309	17.75
303.524	40.28
303.738	77.14
303.952	11.61
304.166	-4.78
304.381	30.04
304.595	138.58
304.809	118.1
305.023	52.56
305.237	99.67
305.452	36.18
305.666	-21.16
305.88	7.51
306.094	52.56
306.308	44.37
306.522	68.95
306.736	122.2
306.95	81.24
307.164	56.66
307.379	-12.97
307.593	161.11
307.807	56.66
308.021	23.89
308.235	40.28
308.449	25.94
308.663	73.04
308.877	23.89
309.091	42.32
309.305	91.48
309.519	-4.78
309.733	107.86
309.947	15.7
310.161	-10.92
310.374	79.19
310.588	-2.73
310.802	68.95
311.016	44.37
311.23	-35.5
311.444	25.94
311.658	19.8
311.872	116.05
312.085	107.86
312.299	13.65
312.513	54.61
312.727	9.56
312.941	-19.11
313.154	91.48
313.368	-4.78
313.582	68.95
313.796	30.04
314.009	50.52
314.223	32.08
314.437	-12.97
314.651	11.61
314.864	42.32
315.078	68.95
315.292	68.95
315.505	-4.78
315.719	56.66
315.933	58.71
316.146	50.52
316.36	34.13
316.573	17.75
316.787	81.24
317.001	58.71
317.214	36.18
317.428	-25.26
317.641	9.56
317.855	15.7
318.068	93.52
318.282	91.48
318.495	17.75
318.709	30.04
318.922	21.85
319.136	95.57
319.349	56.66
319.563	-29.35
319.776	93.52
319.99	13.65
320.203	-6.83
320.417	58.71
320.63	103.76
320.843	101.72
321.057	68.95
321.27	62.8
321.483	77.14
321.697	25.94
321.91	109.91
322.124	19.8
322.337	101.72
322.55	17.75
322.763	17.75
322.977	23.89
323.19	48.47
323.403	77.14
323.617	40.28
323.83	109.91
324.043	54.61
324.256	40.28
324.469	77.14
324.683	-19.11
324.896	68.95
325.109	66.9
325.322	73.04
325.535	89.43
325.748	75.09
325.962	81.24
326.175	73.04
326.388	89.43
326.601	15.7
326.814	13.65
327.027	42.32
327.24	48.47
327.453	-10.92
327.666	52.56
327.879	25.94
328.092	77.14
328.305	83.28
328.518	21.85
328.731	5.46
328.944	54.61
329.157	68.95
329.37	103.76
329.583	48.47
329.796	103.76
330.009	-8.87
330.222	56.66
330.435	7.51
330.648	15.7
330.861	19.8
331.073	-21.16
331.286	93.52
331.499	-10.92
331.712	97.62
331.925	85.33
332.138	1.37
332.35	50.52
332.563	93.52
332.776	73.04
332.989	-15.02
333.202	-12.97
333.414	50.52
333.627	19.8
333.84	21.85
334.053	52.56
334.265	46.42
334.478	25.94
334.691	46.42
334.903	15.7
335.116	42.32
335.329	44.37
335.541	77.14
335.754	79.19
335.966	-0.68
336.179	85.33
336.392	83.28
336.604	34.13
336.817	46.42
337.029	32.08
337.242	7.51
337.454	42.32
337.667	52.56
337.88	62.8
338.092	19.8
338.305	105.81
338.517	62.8
338.729	93.52
338.942	73.04
339.154	15.7
339.367	32.08
339.579	120.15
339.792	15.7
340.004	-17.07
340.217	81.24
340.429	56.66
340.641	23.89
340.854	-33.45
341.066	-17.07
341.278	27.99
341.491	83.28
341.703	25.94
341.915	36.18
342.128	73.04
342.34	-19.11
342.552	60.76
342.764	87.38
342.977	62.8
343.189	7.51
343.401	114
343.613	17.75
343.826	93.52
344.038	13.65
344.25	5.46
344.462	27.99
344.674	30.04
344.886	40.28
345.099	62.8
345.311	50.52
345.523	34.13
345.735	1.37
345.947	122.2
346.159	-15.02
346.371	58.71
346.583	-31.4
346.795	38.23
347.007	62.8
347.219	62.8
347.431	-12.97
347.643	114
347.855	38.23
348.067	-8.87
348.279	77.14
348.491	46.42
348.703	7.51
348.915	79.19
349.127	62.8
349.339	-25.26
349.551	79.19
349.763	44.37
349.975	3.41
350.187	83.28
350.399	23.89
350.61	32.08
350.822	77.14
351.034	19.8
351.246	32.08
351.458	32.08
351.669	83.28
351.881	66.9
352.093	44.37
352.305	109.91
352.517	46.42
352.728	62.8
352.94	30.04
353.152	32.08
353.363	21.85
353.575	32.08
353.787	40.28
353.999	56.66
354.21	118.1
354.422	27.99
354.633	27.99
354.845	60.76
355.057	107.86
355.268	13.65
355.48	71
355.692	66.9
355.903	17.75
356.115	60.76
356.326	1.37
356.538	64.85
356.749	77.14
356.961	128.34
357.172	-4.78
357.384	50.52
357.595	77.14
357.807	40.28
358.018	36.18
358.23	52.56
358.441	89.43
358.653	13.65
358.864	52.56
359.075	38.23
359.287	34.13
359.498	97.62
359.709	32.08
359.921	13.65
360.132	9.56
360.344	114
360.555	48.47
360.766	38.23
360.977	32.08
361.189	85.33
361.4	42.32
361.611	7.51
361.823	34.13
362.034	105.81
362.245	52.56
362.456	62.8
362.667	48.47
362.879	130.39
363.09	85.33
363.301	27.99
363.512	54.61
363.723	101.72
363.935	-25.26
364.146	71
364.357	42.32
364.568	66.9
364.779	21.85
364.99	75.09
365.201	124.24
365.412	118.1
365.623	19.8
365.834	79.19
366.045	52.56
366.256	-0.68
366.467	77.14
366.678	66.9
366.889	25.94
367.1	48.47
367.311	32.08
367.522	66.9
367.733	58.71
367.944	68.95
368.155	75.09
368.366	154.96
368.577	66.9
368.788	99.67
368.999	87.38
369.209	85.33
369.42	93.52
369.631	126.29
369.842	44.37
370.053	56.66
370.264	42.32
370.474	21.85
370.685	99.67
370.896	27.99
371.107	109.91
371.317	36.18
371.528	21.85
371.739	87.38
371.95	52.56
372.16	122.2
372.371	77.14
372.582	58.71
372.792	1.37
373.003	122.2
373.214	5.46
373.424	54.61
373.635	71
373.846	144.72
374.056	97.62
374.267	64.85
374.477	54.61
374.688	46.42
374.898	25.94
375.109	118.1
375.319	62.8
375.53	46.42
375.74	17.75
375.951	99.67
376.161	44.37
376.372	40.28
376.582	25.94
376.793	21.85
377.003	15.7
377.214	44.37
377.424	21.85
377.635	71
377.845	40.28
378.055	85.33
378.266	77.14
378.476	116.05
378.686	58.71
378.897	-15.02
379.107	60.76
379.317	-2.73
379.528	71
379.738	71
379.948	19.8
380.158	83.28
380.369	60.76
380.579	15.7
380.789	71
380.999	75.09
381.21	34.13
381.42	85.33
381.63	56.66
381.84	144.72
382.05	122.2
382.261	44.37
382.471	58.71
382.681	77.14
382.891	64.85
383.101	42.32
383.311	36.18
383.521	93.52
383.731	73.04
383.941	48.47
384.151	32.08
384.361	54.61
384.571	15.7
384.781	97.62
384.991	132.44
385.201	27.99
385.411	44.37
385.621	48.47
385.831	124.24
386.041	68.95
386.251	-2.73
386.461	95.57
386.671	101.72
386.881	122.2
387.091	85.33
387.301	126.29
387.511	17.75
387.72	56.66
387.93	38.23
388.14	32.08
388.35	103.76
388.56	68.95
388.769	91.48
388.979	38.23
389.189	101.72
389.399	38.23
389.609	99.67
389.818	154.96
390.028	99.67
390.238	99.67
390.447	42.32
390.657	3.41
390.867	50.52
391.076	81.24
391.286	66.9
391.496	64.85
391.705	66.9
391.915	146.77
392.125	60.76
392.334	120.15
392.544	42.32
392.753	62.8
392.963	89.43
393.172	93.52
393.382	52.56
393.591	52.56
393.801	120.15
394.01	64.85
394.22	77.14
394.429	50.52
394.639	73.04
394.848	109.91
395.058	87.38
395.267	32.08
395.477	99.67
395.686	73.04
395.895	68.95
396.105	144.72
396.314	64.85
396.524	165.2
396.733	58.71
396.942	109.91
397.152	167.25
397.361	91.48
397.57	114
397.78	87.38
397.989	44.37
398.198	140.63
398.407	38.23
398.617	99.67
398.826	109.91
399.035	75.09
399.244	83.28
399.453	64.85
399.663	77.14
399.872	107.86
400.081	89.43
400.29	85.33
400.499	191.83
400.708	144.72
400.917	64.85
401.127	161.11
401.336	93.52
401.545	208.21
401.754	210.26
401.963	154.96
402.172	64.85
402.381	144.72
402.59	111.96
402.799	175.44
403.008	128.34
403.217	48.47
403.426	146.77
403.635	42.32
403.844	171.35
404.053	197.97
404.262	36.18
404.471	154.96
404.68	148.82
404.888	208.21
405.097	148.82
405.306	161.11
405.515	189.78
405.724	226.64
405.933	193.87
406.142	226.64
406.35	187.73
406.559	202.07
406.768	269.65
406.977	286.03
407.185	173.39
407.394	208.21
407.603	154.96
407.812	253.27
408.02	240.98
408.229	281.94
408.438	195.92
408.646	296.27
408.855	337.23
409.064	197.97
409.272	329.04
409.481	269.65
409.69	277.84
409.898	361.81
410.107	306.51
410.315	353.62
410.524	363.86
410.733	316.75
410.941	388.43
411.15	453.97
411.358	380.24
411.567	503.12
411.775	365.9
411.984	406.86
412.192	472.4
412.401	525.65
412.609	519.5
412.818	531.79
413.026	468.3
413.234	570.7
413.443	578.89
413.651	587.08
413.86	605.52
414.068	628.04
414.276	693.58
414.485	650.57
414.693	644.43
414.901	752.97
415.11	695.63
415.318	744.78
415.526	867.66
415.734	804.17
415.943	861.51
416.151	871.75
416.359	804.17
416.567	925
416.776	994.63
416.984	1017.16
417.192	1023.3
417.4	1082.69
417.608	1056.07
417.817	1213.76
418.025	1156.42
418.233	1264.96
418.441	1181
418.649	1275.2
418.857	1396.03
419.065	1383.74
419.273	1332.55
419.481	1518.91
419.689	1533.25
419.897	1617.21
420.105	1598.78
420.313	1633.6
420.521	1631.55
420.729	1779
420.937	1883.45
421.145	1873.21
421.353	1901.88
421.561	2053.43
421.769	2106.68
421.977	2155.83
422.185	2084.15
422.393	2297.14
422.601	2426.16
422.809	2434.35
423.017	2489.65
423.224	2567.47
423.432	2614.57
423.64	2639.15
423.848	2905.39
424.056	2813.23
424.263	2995.5
424.471	2848.04
424.679	3134.76
424.887	3202.34
425.094	3310.88
425.302	3444
425.51	3495.2
425.718	3636.51
425.925	3673.37
426.133	3912.99
426.341	4019.48
426.548	4199.7
426.756	4142.36
426.964	4267.28
427.171	4629.77
427.379	4470.03
427.586	4697.36
427.794	4873.48
428.001	5022.98
428.209	5328.13
428.417	5035.27
428.624	5555.46
428.832	5498.11
429.039	5563.65
429.247	5625.09
429.454	6012.15
429.662	6460.66
429.869	6006.01
430.076	6446.32
430.284	6251.77
430.491	6515.95
430.699	6976.75
430.906	6860.01
431.114	7091.43
431.321	7329
431.528	7439.59
431.736	7851.23
431.943	8219.86
432.15	7963.87
432.358	8121.56
432.565	8684.75
432.772	8592.59
432.979	8907.98
433.187	8991.95
433.394	9252.04
433.601	9770.18
433.808	10020.03
434.016	9718.98
434.223	10128.57
434.43	10820.78
434.637	10423.48
434.844	11115.69
435.052	11439.27
435.259	11322.54
435.466	11654.31
435.673	11400.36
435.88	12205.21
436.087	12446.87
436.294	12682.39
436.501	12547.22
436.708	12717.2
436.915	13010.06
437.122	13603.97
437.329	13716.61
437.537	14122.11
437.743	14568.57
437.95	14306.43
438.157	15113.33
438.364	15574.12
438.571	15250.54
438.778	15756.39
438.985	17251.41
439.192	16329.82
439.399	17036.37
439.606	16528.47
439.813	17652.81
440.02	18422.84
440.227	18138.18
440.433	17863.75
440.64	18609.21
440.847	18269.25
441.054	19047.47
441.261	19924.01
441.467	19921.96
441.674	20550.68
441.881	21115.92
442.088	21048.34
442.294	20892.69
442.501	21640.2
442.708	21888.01
442.914	22668.28
443.121	23972.84
443.328	23092.21
443.534	24722.4
443.741	24038.37
443.948	23790.57
444.154	25277.4
444.361	25164.76
444.568	25461.71
444.774	25291.73
444.981	25637.84
445.187	26317.76
445.394	27775.92
445.6	27222.97
445.807	29713.3
446.013	28355.49
446.22	29080.47
446.426	30331.78
446.633	30231.43
446.839	31441.78
447.046	30376.84
447.252	31830.9
447.459	32297.83
447.665	31619.95
447.871	33424.22
448.078	34763.59
448.284	32818.02
448.491	33788.75
448.697	34956.1
448.903	35674.93
449.11	36270.89
449.316	35304.25
449.522	36098.86
449.728	36805.41
449.935	37061.41
450.141	37202.72
450.347	37909.27
450.553	36942.63
450.76	37071.65
450.966	38865.67
451.172	38425.35
451.378	38945.54
451.584	38157.07
451.791	39006.98
451.997	38886.15
452.203	39705.34
452.409	39686.9
452.615	39392
452.821	38003.47
453.027	37958.42
453.233	39478.01
453.44	38255.37
453.646	38734.6
453.852	38888.2
454.058	39545.59
454.264	38171.41
454.47	39058.18
454.676	37993.23
454.882	39760.63
455.088	36150.06
455.294	36414.25
455.5	37071.65
455.705	37524.25
455.911	35799.86
456.117	35683.12
456.323	34954.05
456.529	33346.39
456.735	34216.78
456.941	33674.07
457.147	32889.7
457.352	31925.1
457.558	31499.12
457.764	31708.02
457.97	30919.55
458.176	30497.67
458.381	30428.04
458.587	28820.38
458.793	28877.72
458.999	27474.87
459.204	29408.15
459.41	28631.97
459.616	26602.43
459.821	26282.95
460.027	26633.15
460.233	26106.82
460.438	24828.89
460.644	25228.24
460.85	24058.85
461.055	23366.64
461.261	23647.21
461.466	21791.75
461.672	21187.6
461.878	22584.32
462.083	20974.61
462.289	20792.34
462.494	20513.82
462.7	19266.61
462.905	19145.78
463.111	19571.75
463.316	20075.56
463.522	19526.7
463.727	19184.69
463.932	19190.83
464.138	19166.26
464.343	19246.13
464.549	18517.05
464.754	19418.16
464.959	19033.14
465.165	18932.79
465.37	18023.49
465.575	17720.39
465.781	18662.46
465.986	18621.5
466.191	17740.87
466.397	17790.02
466.602	16933.97
466.807	17298.51
467.012	17235.02
467.218	17022.03
467.423	16958.55
467.628	16878.68
467.833	17804.36
468.038	16979.03
468.244	16634.97
468.449	17435.72
