Data from USB4F104151__82__11-52-50-099.txt Node

Date: Fri Mar 14 11:52:50 EDT 2025
User: louis
Spectrometer: USB4F10415
Trigger mode: 4
Integration Time (sec): 2.000000E-2
Scans to average: 1
Electric dark correction enabled: true
Nonlinearity correction enabled: false
Boxcar width: 0
XAxis mode: Wavelengths
Number of Pixels in Spectrum: 3648
>>>>>Begin Spectral Data<<<<<
178.204	-4.78
178.424	-4.78
178.644	-4.78
178.864	-86.7
179.084	-23.21
179.304	-12.97
179.524	-41.64
179.744	15.7
179.964	1.37
180.184	3.41
180.404	62.8
180.624	9.56
180.844	17.75
181.064	15.7
181.283	-60.07
181.503	-17.07
181.723	5.46
181.943	1.37
182.163	-2.73
182.383	38.23
182.602	52.56
182.822	60.76
183.042	42.32
183.262	23.89
183.482	5.46
183.701	-4.78
183.921	-17.07
184.141	-43.69
184.361	44.37
184.58	-8.87
184.8	5.46
185.02	-6.83
185.239	-53.93
185.459	-17.07
185.679	-33.45
185.898	-86.7
186.118	32.08
186.338	23.89
186.557	71
186.777	13.65
186.997	30.04
187.216	25.94
187.436	81.24
187.655	81.24
187.875	81.24
188.095	25.94
188.314	68.95
188.534	58.71
188.753	62.8
188.973	1.37
189.192	62.8
189.412	32.08
189.631	23.89
189.851	21.84
190.07	103.76
190.29	68.95
190.509	56.66
190.729	-0.68
190.948	21.84
191.168	120.15
191.387	56.66
191.607	60.76
191.826	11.61
192.045	13.65
192.265	97.62
192.484	-51.88
192.704	25.94
192.923	-4.78
193.142	83.28
193.362	3.41
193.581	101.72
193.8	64.85
194.02	83.28
194.239	68.95
194.458	54.61
194.678	75.09
194.897	97.62
195.116	13.65
195.335	64.85
195.555	85.33
195.774	3.41
195.993	32.08
196.212	-12.97
196.432	15.7
196.651	-2.73
196.87	75.09
197.089	58.71
197.308	50.52
197.528	21.84
197.747	-29.35
197.966	111.96
198.185	42.32
198.404	23.89
198.623	13.65
198.842	79.19
199.062	58.71
199.281	60.76
199.5	21.84
199.719	17.75
199.938	58.71
200.157	83.28
200.376	89.43
200.595	111.96
200.814	44.37
201.033	36.18
201.252	-25.26
201.471	17.75
201.69	58.71
201.909	32.08
202.128	48.47
202.347	58.71
202.566	7.51
202.785	7.51
203.004	-8.87
203.223	48.47
203.442	30.04
203.661	13.65
203.879	42.32
204.098	48.47
204.317	60.76
204.536	87.38
204.755	11.61
204.974	7.51
205.193	66.9
205.411	89.43
205.63	71
205.849	42.32
206.068	3.41
206.287	11.61
206.505	60.76
206.724	60.76
206.943	-0.68
207.162	25.94
207.381	-12.97
207.599	32.08
207.818	81.24
208.037	30.04
208.255	-12.97
208.474	71
208.693	58.71
208.911	36.18
209.13	38.23
209.349	71
209.567	48.47
209.786	42.32
210.005	58.71
210.223	81.24
210.442	-10.92
210.661	-2.73
210.879	15.7
211.098	-4.78
211.316	58.71
211.535	68.95
211.753	66.9
211.972	32.08
212.191	50.52
212.409	48.47
212.628	60.76
212.846	-0.68
213.065	79.19
213.283	62.8
213.502	48.47
213.72	-25.26
213.938	-17.07
214.157	79.19
214.375	60.76
214.594	23.89
214.812	68.95
215.031	48.47
215.249	50.52
215.467	-6.83
215.686	79.19
215.904	1.37
216.122	-2.73
216.341	79.19
216.559	-25.26
216.778	52.56
216.996	21.84
217.214	25.94
217.432	50.52
217.651	40.28
217.869	40.28
218.087	54.61
218.306	36.18
218.524	71
218.742	-41.64
218.96	87.38
219.179	-8.87
219.397	38.23
219.615	77.14
219.833	-62.12
220.051	9.56
220.27	-2.73
220.488	54.61
220.706	21.84
220.924	7.51
221.142	50.52
221.36	-47.79
221.578	46.42
221.796	15.7
222.015	56.66
222.233	5.46
222.451	64.85
222.669	23.89
222.887	91.48
223.105	-23.21
223.323	-4.78
223.541	13.65
223.759	128.34
223.977	34.13
224.195	89.43
224.413	3.41
224.631	15.7
224.849	56.66
225.067	38.23
225.285	32.08
225.503	52.56
225.721	-10.92
225.939	7.51
226.157	-41.64
226.375	42.32
226.592	66.9
226.81	38.23
227.028	30.04
227.246	1.37
227.464	46.42
227.682	42.32
227.9	42.32
228.117	64.85
228.335	58.71
228.553	17.75
228.771	-23.21
228.989	21.84
229.206	60.76
229.424	66.9
229.642	19.8
229.86	34.13
230.077	-6.83
230.295	-0.68
230.513	52.56
230.731	9.56
230.948	36.18
231.166	60.76
231.384	58.71
231.601	42.32
231.819	1.37
232.037	15.7
232.254	77.14
232.472	34.13
232.689	52.56
232.907	73.04
233.125	54.61
233.342	58.71
233.56	7.51
233.777	75.09
233.995	-21.16
234.213	85.33
234.43	91.48
234.648	-21.16
234.865	19.8
235.083	25.94
235.3	64.85
235.518	15.7
235.735	75.09
235.953	103.76
236.17	17.75
236.388	114
236.605	48.47
236.822	7.51
237.04	48.47
237.257	38.23
237.475	56.66
237.692	56.66
237.909	-37.55
238.127	116.05
238.344	71
238.562	19.8
238.779	5.46
238.996	30.04
239.214	75.09
239.431	-19.11
239.648	73.04
239.865	95.57
240.083	17.75
240.3	36.18
240.517	-12.97
240.735	-17.07
240.952	97.62
241.169	62.8
241.386	73.04
241.603	89.43
241.821	56.66
242.038	48.47
242.255	40.28
242.472	58.71
242.689	77.14
242.907	64.85
243.124	56.66
243.341	-12.97
243.558	32.08
243.775	32.08
243.992	17.75
244.209	-4.78
244.426	114
244.643	75.09
244.86	30.04
245.078	19.8
245.295	132.44
245.512	-15.02
245.729	46.42
245.946	62.8
246.163	48.47
246.38	54.61
246.597	19.8
246.814	-58.03
247.031	64.85
247.248	87.38
247.464	-21.16
247.681	-19.11
247.898	79.19
248.115	21.84
248.332	-6.83
248.549	19.8
248.766	40.28
248.983	-6.83
249.2	95.57
249.417	17.75
249.633	40.28
249.85	21.84
250.067	3.41
250.284	56.66
250.501	64.85
250.717	77.14
250.934	42.32
251.151	87.38
251.368	77.14
251.585	91.48
251.801	34.13
252.018	40.28
252.235	73.04
252.451	-21.16
252.668	30.04
252.885	62.8
253.102	38.23
253.318	62.8
253.535	44.37
253.752	48.47
253.968	50.52
254.185	23.89
254.401	9.56
254.618	27.99
254.835	50.52
255.051	124.24
255.268	11.61
255.484	44.37
255.701	77.14
255.917	-15.02
256.134	-4.78
256.351	95.57
256.567	42.32
256.784	87.38
257	60.76
257.217	42.32
257.433	50.52
257.65	42.32
257.866	83.28
258.082	-17.07
258.299	114
258.515	66.9
258.732	40.28
258.948	-35.5
259.165	77.14
259.381	-12.97
259.597	-12.97
259.814	19.8
260.03	-0.68
260.246	36.18
260.463	58.71
260.679	27.99
260.895	13.65
261.112	68.95
261.328	48.47
261.544	-12.97
261.761	38.23
261.977	32.08
262.193	46.42
262.409	27.99
262.626	38.23
262.842	5.46
263.058	-47.79
263.274	9.56
263.49	97.62
263.707	64.85
263.923	7.51
264.139	77.14
264.355	62.8
264.571	56.66
264.787	68.95
265.004	13.65
265.22	40.28
265.436	3.41
265.652	42.32
265.868	-31.4
266.084	-10.92
266.3	11.61
266.516	-12.97
266.732	27.99
266.948	44.37
267.164	44.37
267.38	7.51
267.596	34.13
267.812	101.72
268.028	77.14
268.244	54.61
268.46	62.8
268.676	44.37
268.892	85.33
269.108	-31.4
269.324	71
269.54	93.52
269.756	52.56
269.972	52.56
270.188	-4.78
270.403	48.47
270.619	-2.73
270.835	32.08
271.051	7.51
271.267	9.56
271.483	32.08
271.698	30.04
271.914	-4.78
272.13	44.37
272.346	48.47
272.562	-8.87
272.777	48.47
272.993	75.09
273.209	91.48
273.425	91.48
273.64	-8.87
273.856	109.91
274.072	23.89
274.287	58.71
274.503	-8.87
274.719	46.42
274.934	25.94
275.15	38.23
275.366	40.28
275.581	9.56
275.797	105.81
276.012	118.1
276.228	25.94
276.444	19.8
276.659	93.52
276.875	17.75
277.09	25.94
277.306	5.46
277.521	-10.92
277.737	95.57
277.952	46.42
278.168	7.51
278.383	32.08
278.599	-4.78
278.814	19.8
279.03	-10.92
279.245	66.9
279.461	60.76
279.676	64.85
279.892	27.99
280.107	44.37
280.322	13.65
280.538	118.1
280.753	48.47
280.969	-23.21
281.184	3.41
281.399	52.56
281.615	-8.87
281.83	56.66
282.045	48.47
282.26	87.38
282.476	27.99
282.691	21.84
282.906	3.41
283.122	21.84
283.337	13.65
283.552	13.65
283.767	-31.4
283.983	124.24
284.198	105.81
284.413	7.51
284.628	68.95
284.843	81.24
285.058	32.08
285.274	17.75
285.489	25.94
285.704	42.32
285.919	58.71
286.134	-23.21
286.349	81.24
286.564	38.23
286.779	25.94
286.995	46.42
287.21	91.48
287.425	101.72
287.64	89.43
287.855	-33.45
288.07	-8.87
288.285	136.53
288.5	83.28
288.715	64.85
288.93	-2.73
289.145	1.37
289.36	118.1
289.575	42.32
289.79	75.09
290.004	42.32
290.219	5.46
290.434	64.85
290.649	15.7
290.864	140.63
291.079	46.42
291.294	85.33
291.509	58.71
291.724	40.28
291.938	48.47
292.153	17.75
292.368	-4.78
292.583	60.76
292.798	44.37
293.012	83.28
293.227	66.9
293.442	32.08
293.657	-19.11
293.871	34.13
294.086	73.04
294.301	27.99
294.516	48.47
294.73	79.19
294.945	19.8
295.16	44.37
295.374	46.42
295.589	30.04
295.804	25.94
296.018	5.46
296.233	105.81
296.447	60.76
296.662	-4.78
296.877	-6.83
297.091	50.52
297.306	75.09
297.52	11.61
297.735	64.85
297.949	77.14
298.164	46.42
298.378	7.51
298.593	50.52
298.807	-6.83
299.022	85.33
299.236	85.33
299.451	40.28
299.665	36.18
299.88	85.33
300.094	30.04
300.309	62.8
300.523	7.51
300.737	64.85
300.952	7.51
301.166	1.37
301.381	21.84
301.595	91.48
301.809	-12.97
302.024	32.08
302.238	-2.73
302.452	9.56
302.667	40.28
302.881	99.67
303.095	85.33
303.309	75.09
303.524	54.61
303.738	27.99
303.952	32.08
304.166	-2.73
304.381	50.52
304.595	48.47
304.809	-94.89
305.023	77.14
305.237	44.37
305.452	44.37
305.666	-4.78
305.88	91.48
306.094	46.42
306.308	17.75
306.522	32.08
306.736	-0.68
306.95	58.71
307.164	60.76
307.379	32.08
307.593	40.28
307.807	62.8
308.021	32.08
308.235	62.8
308.449	1.37
308.663	19.8
308.877	34.13
309.091	-39.59
309.305	48.47
309.519	9.56
309.733	42.32
309.947	34.13
310.161	32.08
310.374	87.38
310.588	118.1
310.802	32.08
311.016	77.14
311.23	46.42
311.444	21.84
311.658	52.56
311.872	42.32
312.085	99.67
312.299	64.85
312.513	181.59
312.727	64.85
312.941	-25.26
313.154	109.91
313.368	50.52
313.582	124.24
313.796	-10.92
314.009	9.56
314.223	91.48
314.437	56.66
314.651	40.28
314.864	54.61
315.078	99.67
315.292	5.46
315.505	1.37
315.719	46.42
315.933	52.56
316.146	48.47
316.36	30.04
316.573	44.37
316.787	19.8
317.001	-8.87
317.214	68.95
317.428	13.65
317.641	27.99
317.855	50.52
318.068	60.76
318.282	107.86
318.495	50.52
318.709	148.82
318.922	32.08
319.136	48.47
319.349	42.32
319.563	52.56
319.776	40.28
319.99	79.19
320.203	60.76
320.417	-25.26
320.63	81.24
320.843	7.51
321.057	85.33
321.27	40.28
321.483	17.75
321.697	58.71
321.91	-0.68
322.124	46.42
322.337	68.95
322.55	60.76
322.763	140.63
322.977	-0.68
323.19	19.8
323.403	87.38
323.617	64.85
323.83	52.56
324.043	46.42
324.256	-33.45
324.469	13.65
324.683	30.04
324.896	36.18
325.109	44.37
325.322	13.65
325.535	44.37
325.748	91.48
325.962	87.38
326.175	27.99
326.388	77.14
326.601	32.08
326.814	38.23
327.027	11.61
327.24	62.8
327.453	7.51
327.666	99.67
327.879	66.9
328.092	5.46
328.305	34.13
328.518	97.62
328.731	-19.11
328.944	38.23
329.157	17.75
329.37	71
329.583	73.04
329.796	42.32
330.009	-15.02
330.222	60.76
330.435	46.42
330.648	60.76
330.861	-17.07
331.073	79.19
331.286	36.18
331.499	48.47
331.712	-15.02
331.925	73.04
332.138	23.89
332.35	11.61
332.563	38.23
332.776	81.24
332.989	42.32
333.202	13.65
333.414	36.18
333.627	34.13
333.84	81.24
334.053	107.86
334.265	56.66
334.478	81.24
334.691	27.99
334.903	62.8
335.116	105.81
335.329	89.43
335.541	83.28
335.754	30.04
335.966	19.8
336.179	97.62
336.392	3.41
336.604	48.47
336.817	87.38
337.029	9.56
337.242	46.42
337.454	38.23
337.667	32.08
337.88	-12.97
338.092	9.56
338.305	83.28
338.517	25.94
338.729	89.43
338.942	38.23
339.154	46.42
339.367	77.14
339.579	30.04
339.792	-27.31
340.004	83.28
340.217	-4.78
340.429	46.42
340.641	97.62
340.854	68.95
341.066	19.8
341.278	17.75
341.491	52.56
341.703	68.95
341.915	23.89
342.128	114
342.34	99.67
342.552	15.7
342.764	38.23
342.977	85.33
343.189	68.95
343.401	56.66
343.613	-6.83
343.826	32.08
344.038	48.47
344.25	107.86
344.462	21.84
344.674	-21.16
344.886	81.24
345.099	75.09
345.311	27.99
345.523	48.47
345.735	62.8
345.947	44.37
346.159	40.28
346.371	107.86
346.583	73.04
346.795	34.13
347.007	36.18
347.219	27.99
347.431	87.38
347.643	48.47
347.855	58.71
348.067	79.19
348.279	15.7
348.491	64.85
348.703	66.9
348.915	13.65
349.127	54.61
349.339	9.56
349.551	85.33
349.763	64.85
349.975	109.91
350.187	114
350.399	36.18
350.61	107.86
350.822	38.23
351.034	136.53
351.246	77.14
351.458	46.42
351.669	93.52
351.881	42.32
352.093	64.85
352.305	75.09
352.517	36.18
352.728	107.86
352.94	58.71
353.152	56.66
353.363	68.95
353.575	50.52
353.787	54.61
353.999	93.52
354.21	122.2
354.422	-2.73
354.633	-6.83
354.845	66.9
355.057	52.56
355.268	32.08
355.48	38.23
355.692	-2.73
355.903	122.2
356.115	11.61
356.326	81.24
356.538	68.95
356.749	48.47
356.961	54.61
357.172	77.14
357.384	40.28
357.595	54.61
357.807	1.37
358.018	89.43
358.23	48.47
358.441	105.81
358.653	7.51
358.864	44.37
359.075	140.63
359.287	32.08
359.498	60.76
359.709	42.32
359.921	148.82
360.132	30.04
360.344	111.96
360.555	91.48
360.766	81.24
360.977	19.8
361.189	21.84
361.4	46.42
361.611	32.08
361.823	85.33
362.034	42.32
362.245	-21.16
362.456	38.23
362.667	-17.07
362.879	62.8
363.09	91.48
363.301	44.37
363.512	7.51
363.723	38.23
363.935	-21.16
364.146	36.18
364.357	50.52
364.568	46.42
364.779	25.94
364.99	99.67
365.201	68.95
365.412	89.43
365.623	42.32
365.834	81.24
366.045	64.85
366.256	97.62
366.467	40.28
366.678	32.08
366.889	58.71
367.1	5.46
367.311	-19.11
367.522	5.46
367.733	9.56
367.944	-74.41
368.155	83.28
368.366	87.38
368.577	52.56
368.788	42.32
368.999	5.46
369.209	62.8
369.42	-31.4
369.631	36.18
369.842	17.75
370.053	17.75
370.264	66.9
370.474	50.52
370.685	46.42
370.896	46.42
371.107	91.48
371.317	23.89
371.528	75.09
371.739	54.61
371.95	62.8
372.16	-47.79
372.371	-62.12
372.582	114
372.792	58.71
373.003	5.46
373.214	81.24
373.424	66.9
373.635	40.28
373.846	122.2
374.056	83.28
374.267	54.61
374.477	81.24
374.688	60.76
374.898	-23.21
375.109	130.39
375.319	42.32
375.53	97.62
375.74	23.89
375.951	25.94
376.161	13.65
376.372	89.43
376.582	54.61
376.793	77.14
377.003	75.09
377.214	-10.92
377.424	99.67
377.635	81.24
377.845	27.99
378.055	85.33
378.266	25.94
378.476	118.1
378.686	42.32
378.897	128.34
379.107	71
379.317	32.08
379.528	-0.68
379.738	81.24
379.948	-80.55
380.158	21.84
380.369	64.85
380.579	-25.26
380.789	50.52
380.999	64.85
381.21	46.42
381.42	103.76
381.63	99.67
381.84	27.99
382.05	-19.11
382.261	68.95
382.471	99.67
382.681	40.28
382.891	79.19
383.101	99.67
383.311	103.76
383.521	54.61
383.731	50.52
383.941	89.43
384.151	91.48
384.361	34.13
384.571	44.37
384.781	120.15
384.991	52.56
385.201	56.66
385.411	85.33
385.621	44.37
385.831	44.37
386.041	19.8
386.251	77.14
386.461	122.2
386.671	101.72
386.881	109.91
387.091	23.89
387.301	30.04
387.511	38.23
387.72	83.28
387.93	-17.07
388.14	7.51
388.35	25.94
388.56	15.7
388.769	38.23
388.979	77.14
389.189	48.47
389.399	83.28
389.609	52.56
389.818	79.19
390.028	124.24
390.238	64.85
390.447	52.56
390.657	36.18
390.867	68.95
391.076	36.18
391.286	56.66
391.496	87.38
391.705	44.37
391.915	134.48
392.125	30.04
392.334	103.76
392.544	50.52
392.753	77.14
392.963	36.18
393.172	42.32
393.382	34.13
393.591	75.09
393.801	122.2
394.01	27.99
394.22	89.43
394.429	81.24
394.639	13.65
394.848	81.24
395.058	130.39
395.267	97.62
395.477	111.96
395.686	73.04
395.895	105.81
396.105	66.9
396.314	54.61
396.524	95.57
396.733	128.34
396.942	93.52
397.152	134.48
397.361	93.52
397.57	64.85
397.78	111.96
397.989	101.72
398.198	130.39
398.407	95.57
398.617	5.46
398.826	81.24
399.035	97.62
399.244	193.87
399.453	1.37
399.663	62.8
399.872	120.15
400.081	103.76
400.29	99.67
400.499	62.8
400.708	120.15
400.917	126.29
401.127	124.24
401.336	44.37
401.545	195.92
401.754	97.62
401.963	148.82
402.172	159.06
402.381	17.75
402.59	7.51
402.799	50.52
403.008	93.52
403.217	140.63
403.426	83.28
403.635	124.24
403.844	27.99
404.053	40.28
404.262	87.38
404.471	177.49
404.68	167.25
404.888	130.39
405.097	140.63
405.306	185.68
405.515	122.2
405.724	202.07
405.933	187.73
406.142	171.35
406.35	79.19
406.559	114
406.768	234.83
406.977	134.48
407.185	107.86
407.394	111.96
407.603	91.48
407.812	132.44
408.02	218.45
408.229	169.3
408.438	169.3
408.646	206.16
408.855	230.74
409.064	169.3
409.272	224.59
409.481	261.46
409.69	253.27
409.898	197.97
410.107	261.46
410.315	228.69
410.524	230.74
410.733	222.55
410.941	206.16
411.15	255.31
411.358	238.93
411.567	326.99
411.775	318.8
411.984	286.03
412.192	388.43
412.401	283.98
412.609	388.43
412.818	337.23
413.026	413.01
413.234	324.94
413.443	394.58
413.651	367.95
413.86	408.91
414.068	419.15
414.276	472.4
414.485	396.62
414.693	466.25
414.901	499.02
415.11	496.97
415.318	529.74
415.526	501.07
415.734	593.23
415.943	568.65
416.151	617.8
416.359	671.05
416.567	658.76
416.776	605.52
416.984	742.73
417.192	773.45
417.4	703.82
417.608	701.77
417.817	791.88
418.025	738.63
418.233	787.79
418.441	879.94
418.649	773.45
418.857	884.04
419.065	937.29
419.273	1006.92
419.481	1004.87
419.689	968.01
419.897	1086.79
420.105	1193.28
420.313	1156.42
420.521	1215.81
420.729	1140.04
420.937	1195.33
421.145	1289.54
421.353	1389.89
421.561	1408.32
421.769	1406.27
421.977	1500.48
422.185	1426.75
422.393	1609.02
422.601	1676.6
422.809	1623.36
423.017	1756.47
423.224	1766.71
423.432	1822.01
423.64	1768.76
423.848	1922.36
424.056	1934.65
424.263	2039.09
424.471	2155.83
424.679	2112.82
424.887	2256.18
425.094	2227.51
425.302	2325.81
425.51	2321.71
425.718	2329.91
425.925	2506.03
426.133	2526.51
426.341	2673.96
426.548	2776.36
426.756	2739.5
426.964	2913.58
427.171	3073.32
427.379	3145
427.586	3188
427.794	3190.05
428.001	3482.91
428.209	3548.45
428.417	3472.67
428.624	3607.84
428.832	3734.81
429.039	3665.18
429.247	3755.29
429.454	4068.63
429.662	4328.72
429.869	3923.23
430.076	4183.32
430.284	4218.13
430.491	4412.69
430.699	4746.51
430.906	4605.2
431.114	4656.4
431.321	4953.35
431.528	4943.11
431.736	5385.48
431.943	5457.15
432.15	5330.18
432.358	5487.87
432.565	5735.68
432.772	5567.74
432.979	5965.05
433.187	6077.69
433.394	6051.06
433.601	6466.8
433.808	6548.72
434.016	6542.58
434.223	6864.11
434.43	7232.74
434.637	7034.09
434.844	7349.48
435.052	7660.77
435.259	7652.58
435.466	7552.23
435.673	7599.33
435.88	8107.23
436.087	8611.03
436.294	8600.79
436.501	8389.85
436.708	8664.27
436.915	8592.59
437.122	9123.02
437.329	9170.12
437.537	9403.59
437.743	9397.45
437.95	9467.08
438.157	10013.88
438.364	10382.52
438.571	10179.77
438.778	10532.02
438.985	11189.42
439.192	10607.8
439.399	11050.16
439.606	11054.25
439.813	11570.34
440.02	12278.94
440.227	12082.33
440.433	11855.01
440.64	12389.53
440.847	12158.11
441.054	12442.78
441.261	13266.06
441.467	13114.51
441.674	13403.27
441.881	14218.36
442.088	13855.87
442.294	13810.82
442.501	14195.84
442.708	14666.87
442.914	15230.06
443.121	15846.5
443.328	15447.15
443.534	16551
443.741	15879.27
443.948	15588.46
444.154	16659.54
444.361	16819.28
444.568	16856.15
444.774	16829.52
444.981	16811.09
445.187	17724.49
445.394	18299.97
445.6	18060.35
445.807	19563.56
446.013	18797.62
446.22	19061.81
446.426	20046.88
446.633	20182.05
446.839	21074.96
447.046	20280.35
447.252	20999.19
447.459	20980.76
447.665	21148.69
447.871	22027.27
448.078	22977.53
448.284	21914.63
448.491	22680.57
448.697	23462.9
448.903	23657.45
449.11	23915.5
449.316	23260.15
449.522	23895.02
449.728	24599.52
449.935	24458.21
450.141	24677.34
450.347	25129.94
450.553	24253.41
450.76	25076.69
450.966	25654.22
451.172	25598.93
451.378	26020.81
451.584	25541.58
451.791	26106.82
451.997	25981.9
452.203	26680.25
452.409	26373.06
452.615	26072.01
452.821	25187.28
453.027	25297.88
453.233	26209.22
453.44	25463.76
453.646	25805.77
453.852	25670.61
454.058	26381.25
454.264	25281.49
454.47	25863.11
454.676	25195.48
454.882	26045.38
455.088	23858.15
455.294	24419.3
455.5	24486.88
455.705	24878.04
455.911	23657.45
456.117	23735.28
456.323	23266.29
456.529	22084.61
456.735	22930.42
456.941	22199.3
457.147	21961.73
457.352	21226.51
457.558	20880.41
457.764	21009.43
457.97	20722.71
458.176	20120.61
458.381	20132.9
458.587	19153.97
458.793	19176.5
458.999	17976.39
459.204	19541.04
459.41	18748.47
459.616	17671.24
459.821	17882.18
460.027	17773.64
460.233	17243.21
460.438	16395.36
460.644	16716.89
460.85	15846.5
461.055	15479.91
461.261	15670.37
461.466	14507.13
461.672	13917.31
461.878	15299.69
462.083	13847.68
462.289	13677.7
462.494	13644.93
462.7	13018.25
462.905	12719.25
463.111	13251.72
463.316	13141.13
463.522	12774.55
463.727	12895.38
463.932	12842.13
464.138	12809.36
464.343	12706.96
464.549	12344.47
464.754	12741.78
464.959	12666
465.165	12493.97
465.37	12127.39
465.575	11775.14
465.781	12258.46
465.986	12027.04
466.191	11850.91
466.397	11816.1
466.602	10906.8
466.807	11369.64
467.012	11461.8
467.218	11508.9
467.423	11381.93
467.628	11404.46
467.833	11906.21
468.038	11127.98
468.244	11050.16
468.449	11541.67
468.654	10988.72
468.859	10996.91
469.064	11011.25
