Data from USB4F104151__77__11-52-44-268.txt Node

Date: Fri Mar 14 11:52:44 EDT 2025
User: louis
Spectrometer: USB4F10415
Trigger mode: 4
Integration Time (sec): 2.000000E-2
Scans to average: 1
Electric dark correction enabled: true
Nonlinearity correction enabled: false
Boxcar width: 0
XAxis mode: Wavelengths
Number of Pixels in Spectrum: 3648
>>>>>Begin Spectral Data<<<<<
178.204	-70.14
178.424	-70.14
178.644	-70.14
178.864	-4.61
179.084	-57.86
179.304	-20.99
179.524	30.21
179.744	13.82
179.964	-6.66
180.184	-20.99
180.404	-16.9
180.624	48.64
180.844	-4.61
181.064	-39.42
181.283	9.73
181.503	-23.04
181.723	30.21
181.943	-35.33
182.163	52.74
182.383	13.82
182.602	19.97
182.822	17.92
183.042	52.74
183.262	1.54
183.482	-4.61
183.701	15.87
183.921	3.58
184.141	34.3
184.361	9.73
184.58	77.31
184.8	13.82
185.02	-2.56
185.239	60.93
185.459	65.02
185.679	26.11
185.898	75.26
186.118	13.82
186.338	42.5
186.557	73.21
186.777	-20.99
186.997	5.63
187.216	36.35
187.436	65.02
187.655	34.3
187.875	36.35
188.095	91.65
188.314	32.26
188.534	46.59
188.753	89.6
188.973	105.98
189.192	77.31
189.412	11.78
189.631	44.54
189.851	-4.61
190.07	58.88
190.29	46.59
190.509	-23.04
190.729	-68.09
190.948	24.06
191.168	65.02
191.387	124.41
191.607	7.68
191.826	24.06
192.045	54.78
192.265	-14.85
192.484	110.08
192.704	40.45
192.923	75.26
193.142	85.5
193.362	77.31
193.581	-8.7
193.8	89.6
194.02	24.06
194.239	3.58
194.458	58.88
194.678	-4.61
194.897	-47.62
195.116	17.92
195.335	5.63
195.555	-27.14
195.774	54.78
195.993	38.4
196.212	38.4
196.432	-55.81
196.651	73.21
196.87	69.12
197.089	24.06
197.308	3.58
197.528	7.68
197.747	73.21
197.966	-25.09
198.185	-8.7
198.404	15.87
198.623	34.3
198.842	44.54
199.062	50.69
199.281	30.21
199.5	13.82
199.719	28.16
199.938	75.26
200.157	97.79
200.376	30.21
200.595	44.54
200.814	24.06
201.033	15.87
201.252	-12.8
201.471	22.02
201.69	54.78
201.909	26.11
202.128	65.02
202.347	7.68
202.566	50.69
202.785	83.45
203.004	65.02
203.223	69.12
203.442	-10.75
203.661	13.82
203.879	-20.99
204.098	46.59
204.317	13.82
204.536	36.35
204.755	3.58
204.974	11.78
205.193	19.97
205.411	52.74
205.63	-6.66
205.849	15.87
206.068	34.3
206.287	15.87
206.505	-6.66
206.724	24.06
206.943	46.59
207.162	7.68
207.381	30.21
207.599	-18.94
207.818	30.21
208.037	13.82
208.255	44.54
208.474	-10.75
208.693	56.83
208.911	-59.9
209.13	24.06
209.349	30.21
209.567	17.92
209.786	89.6
210.005	-31.23
210.223	5.63
210.442	58.88
210.661	75.26
210.879	32.26
211.098	-20.99
211.316	36.35
211.535	26.11
211.753	24.06
211.972	42.5
212.191	19.97
212.409	-20.99
212.628	28.16
212.846	9.73
213.065	36.35
213.283	44.54
213.502	52.74
213.72	75.26
213.938	38.4
214.157	7.68
214.375	-0.51
214.594	11.78
214.812	28.16
215.031	24.06
215.249	46.59
215.467	28.16
215.686	-10.75
215.904	79.36
216.122	-10.75
216.341	65.02
216.559	108.03
216.778	32.26
216.996	19.97
217.214	1.54
217.432	9.73
217.651	26.11
217.869	34.3
218.087	26.11
218.306	54.78
218.524	54.78
218.742	-29.18
218.96	54.78
219.179	-20.99
219.397	73.21
219.615	46.59
219.833	-8.7
220.051	19.97
220.27	79.36
220.488	-27.14
220.706	30.21
220.924	-18.94
221.142	44.54
221.36	9.73
221.578	108.03
221.796	-29.18
222.015	-4.61
222.233	42.5
222.451	101.89
222.669	73.21
222.887	17.92
223.105	-14.85
223.323	73.21
223.541	-29.18
223.759	91.65
223.977	9.73
224.195	91.65
224.413	103.93
224.631	56.83
224.849	13.82
225.067	85.5
225.285	34.3
225.503	56.83
225.721	-25.09
225.939	-23.04
226.157	28.16
226.375	85.5
226.592	-35.33
226.81	19.97
227.028	93.69
227.246	93.69
227.464	71.17
227.682	-10.75
227.9	62.98
228.117	-14.85
228.335	11.78
228.553	9.73
228.771	30.21
228.989	58.88
229.206	62.98
229.424	32.26
229.642	-10.75
229.86	5.63
230.077	87.55
230.295	54.78
230.513	30.21
230.731	50.69
230.948	-8.7
231.166	69.12
231.384	79.36
231.601	52.74
231.819	50.69
232.037	50.69
232.254	28.16
232.472	-4.61
232.689	-0.51
232.907	87.55
233.125	46.59
233.342	56.83
233.56	26.11
233.777	-12.8
233.995	38.4
234.213	91.65
234.43	58.88
234.648	9.73
234.865	19.97
235.083	13.82
235.3	69.12
235.518	-2.56
235.735	65.02
235.953	-6.66
236.17	7.68
236.388	15.87
236.605	-8.7
236.822	30.21
237.04	87.55
237.257	-0.51
237.475	-8.7
237.692	56.83
237.909	1.54
238.127	81.41
238.344	11.78
238.562	71.17
238.779	52.74
238.996	-4.61
239.214	13.82
239.431	60.93
239.648	30.21
239.865	36.35
240.083	17.92
240.3	-12.8
240.517	56.83
240.735	73.21
240.952	9.73
241.169	48.64
241.386	-8.7
241.603	58.88
241.821	-37.38
242.038	65.02
242.255	-33.28
242.472	22.02
242.689	1.54
242.907	1.54
243.124	3.58
243.341	75.26
243.558	30.21
243.775	50.69
243.992	11.78
244.209	32.26
244.426	116.22
244.643	19.97
244.86	9.73
245.078	62.98
245.295	1.54
245.512	69.12
245.729	32.26
245.946	30.21
246.163	28.16
246.38	-16.9
246.597	40.45
246.814	-16.9
247.031	54.78
247.248	30.21
247.464	-23.04
247.681	101.89
247.898	77.31
248.115	52.74
248.332	-68.09
248.549	40.45
248.766	36.35
248.983	11.78
249.2	7.68
249.417	48.64
249.633	-2.56
249.85	38.4
250.067	36.35
250.284	58.88
250.501	30.21
250.717	34.3
250.934	-10.75
251.151	48.64
251.368	-43.52
251.585	65.02
251.801	60.93
252.018	52.74
252.235	77.31
252.451	36.35
252.668	-70.14
252.885	79.36
253.102	42.5
253.318	5.63
253.535	17.92
253.752	54.78
253.968	-47.62
254.185	3.58
254.401	44.54
254.618	40.45
254.835	52.74
255.051	15.87
255.268	-41.47
255.484	62.98
255.701	-14.85
255.917	34.3
256.134	-41.47
256.351	-68.09
256.567	5.63
256.784	28.16
257	-37.38
257.217	13.82
257.433	44.54
257.65	-18.94
257.866	128.51
258.082	44.54
258.299	-39.42
258.515	11.78
258.732	28.16
258.948	-2.56
259.165	38.4
259.381	50.69
259.597	36.35
259.814	50.69
260.03	38.4
260.246	85.5
260.463	122.37
260.679	79.36
260.895	93.69
261.112	65.02
261.328	28.16
261.544	79.36
261.761	32.26
261.977	75.26
262.193	3.58
262.409	-2.56
262.626	79.36
262.842	17.92
263.058	15.87
263.274	108.03
263.49	28.16
263.707	26.11
263.923	67.07
264.139	38.4
264.355	44.54
264.571	28.16
264.787	9.73
265.004	7.68
265.22	48.64
265.436	11.78
265.652	13.82
265.868	130.56
266.084	81.41
266.3	42.5
266.516	1.54
266.732	13.82
266.948	40.45
267.164	58.88
267.38	26.11
267.596	114.17
267.812	30.21
268.028	30.21
268.244	26.11
268.46	-33.28
268.676	69.12
268.892	-4.61
269.108	9.73
269.324	3.58
269.54	17.92
269.756	71.17
269.972	-27.14
270.188	7.68
270.403	-55.81
270.619	62.98
270.835	-4.61
271.051	38.4
271.267	-23.04
271.483	-18.94
271.698	1.54
271.914	5.63
272.13	58.88
272.346	30.21
272.562	-31.23
272.777	9.73
272.993	-6.66
273.209	24.06
273.425	9.73
273.64	-2.56
273.856	17.92
274.072	-49.66
274.287	44.54
274.503	19.97
274.719	36.35
274.934	46.59
275.15	11.78
275.366	50.69
275.581	19.97
275.797	71.17
276.012	34.3
276.228	65.02
276.444	67.07
276.659	24.06
276.875	-29.18
277.09	65.02
277.306	11.78
277.521	58.88
277.737	69.12
277.952	1.54
278.168	5.63
278.383	5.63
278.599	56.83
278.814	36.35
279.03	95.74
279.245	-10.75
279.461	42.5
279.676	67.07
279.892	38.4
280.107	75.26
280.322	-10.75
280.538	19.97
280.753	17.92
280.969	-14.85
281.184	26.11
281.399	105.98
281.615	34.3
281.83	58.88
282.045	-20.99
282.26	22.02
282.476	108.03
282.691	30.21
282.906	36.35
283.122	54.78
283.337	17.92
283.552	87.55
283.767	73.21
283.983	93.69
284.198	-8.7
284.413	108.03
284.628	69.12
284.843	9.73
285.058	42.5
285.274	65.02
285.489	42.5
285.704	15.87
285.919	38.4
286.134	93.69
286.349	30.21
286.564	13.82
286.779	40.45
286.995	15.87
287.21	7.68
287.425	26.11
287.64	-33.28
287.855	26.11
288.07	15.87
288.285	71.17
288.5	73.21
288.715	5.63
288.93	62.98
289.145	24.06
289.36	58.88
289.575	24.06
289.79	79.36
290.004	34.3
290.219	60.93
290.434	-14.85
290.649	1.54
290.864	79.36
291.079	30.21
291.294	5.63
291.509	19.97
291.724	50.69
291.938	77.31
292.153	19.97
292.368	28.16
292.583	38.4
292.798	105.98
293.012	99.84
293.227	1.54
293.442	73.21
293.657	118.27
293.871	44.54
294.086	95.74
294.301	56.83
294.516	-41.47
294.73	-16.9
294.945	44.54
295.16	32.26
295.374	-0.51
295.589	52.74
295.804	60.93
296.018	46.59
296.233	77.31
296.447	30.21
296.662	3.58
296.877	73.21
297.091	79.36
297.306	-14.85
297.52	-29.18
297.735	116.22
297.949	-14.85
298.164	22.02
298.378	38.4
298.593	-27.14
298.807	9.73
299.022	52.74
299.236	112.13
299.451	42.5
299.665	91.65
299.88	38.4
300.094	73.21
300.309	7.68
300.523	36.35
300.737	46.59
300.952	87.55
301.166	9.73
301.381	-6.66
301.595	34.3
301.809	42.5
302.024	93.69
302.238	7.68
302.452	101.89
302.667	11.78
302.881	101.89
303.095	65.02
303.309	75.26
303.524	30.21
303.738	13.82
303.952	44.54
304.166	130.56
304.381	36.35
304.595	36.35
304.809	99.84
305.023	38.4
305.237	42.5
305.452	91.65
305.666	17.92
305.88	3.58
306.094	30.21
306.308	67.07
306.522	77.31
306.736	34.3
306.95	95.74
307.164	52.74
307.379	9.73
307.593	15.87
307.807	71.17
308.021	-4.61
308.235	91.65
308.449	19.97
308.663	42.5
308.877	103.93
309.091	1.54
309.305	89.6
309.519	-23.04
309.733	73.21
309.947	-33.28
310.161	-55.81
310.374	9.73
310.588	42.5
310.802	60.93
311.016	3.58
311.23	36.35
311.444	-4.61
311.658	138.75
311.872	34.3
312.085	105.98
312.299	65.02
312.513	81.41
312.727	36.35
312.941	42.5
313.154	11.78
313.368	48.64
313.582	36.35
313.796	56.83
314.009	79.36
314.223	50.69
314.437	-31.23
314.651	79.36
314.864	-8.7
315.078	56.83
315.292	65.02
315.505	34.3
315.719	130.56
315.933	58.88
316.146	62.98
316.36	-12.8
316.573	89.6
316.787	34.3
317.001	32.26
317.214	-45.57
317.428	9.73
317.641	79.36
317.855	-0.51
318.068	44.54
318.282	5.63
318.495	-8.7
318.709	32.26
318.922	93.69
319.136	40.45
319.349	-8.7
319.563	38.4
319.776	40.45
319.99	73.21
320.203	65.02
320.417	-18.94
320.63	62.98
320.843	-0.51
321.057	60.93
321.27	56.83
321.483	71.17
321.697	54.78
321.91	36.35
322.124	71.17
322.337	114.17
322.55	24.06
322.763	60.93
322.977	17.92
323.19	7.68
323.403	40.45
323.617	99.84
323.83	71.17
324.043	34.3
324.256	46.59
324.469	62.98
324.683	93.69
324.896	52.74
325.109	60.93
325.322	62.98
325.535	130.56
325.748	71.17
325.962	56.83
326.175	19.97
326.388	75.26
326.601	36.35
326.814	1.54
327.027	-18.94
327.24	42.5
327.453	28.16
327.666	50.69
327.879	65.02
328.092	-4.61
328.305	30.21
328.518	42.5
328.731	13.82
328.944	69.12
329.157	69.12
329.37	22.02
329.583	83.45
329.796	-16.9
330.009	52.74
330.222	58.88
330.435	38.4
330.648	73.21
330.861	-4.61
331.073	91.65
331.286	73.21
331.499	32.26
331.712	17.92
331.925	-10.75
332.138	28.16
332.35	44.54
332.563	-2.56
332.776	71.17
332.989	-29.18
333.202	46.59
333.414	71.17
333.627	95.74
333.84	-12.8
334.053	81.41
334.265	120.32
334.478	77.31
334.691	9.73
334.903	93.69
335.116	-14.85
335.329	-10.75
335.541	-33.28
335.754	38.4
335.966	-57.86
336.179	9.73
336.392	22.02
336.604	-2.56
336.817	-41.47
337.029	-6.66
337.242	67.07
337.454	89.6
337.667	97.79
337.88	105.98
338.092	97.79
338.305	52.74
338.517	-49.66
338.729	103.93
338.942	89.6
339.154	15.87
339.367	-10.75
339.579	32.26
339.792	101.89
340.004	91.65
340.217	-8.7
340.429	1.54
340.641	24.06
340.854	-16.9
341.066	65.02
341.278	40.45
341.491	50.69
341.703	38.4
341.915	46.59
342.128	91.65
342.34	26.11
342.552	-14.85
342.764	67.07
342.977	15.87
343.189	91.65
343.401	9.73
343.613	-35.33
343.826	71.17
344.038	50.69
344.25	91.65
344.462	58.88
344.674	52.74
344.886	79.36
345.099	50.69
345.311	36.35
345.523	40.45
345.735	-23.04
345.947	11.78
346.159	58.88
346.371	-6.66
346.583	71.17
346.795	85.5
347.007	-27.14
347.219	71.17
347.431	50.69
347.643	22.02
347.855	36.35
348.067	-16.9
348.279	1.54
348.491	48.64
348.703	67.07
348.915	46.59
349.127	52.74
349.339	77.31
349.551	-8.7
349.763	17.92
349.975	5.63
350.187	48.64
350.399	71.17
350.61	65.02
350.822	19.97
351.034	32.26
351.246	34.3
351.458	101.89
351.669	73.21
351.881	-20.99
352.093	46.59
352.305	87.55
352.517	62.98
352.728	112.13
352.94	91.65
353.152	22.02
353.363	-20.99
353.575	40.45
353.787	99.84
353.999	-2.56
354.21	38.4
354.422	65.02
354.633	1.54
354.845	52.74
355.057	83.45
355.268	34.3
355.48	73.21
355.692	34.3
355.903	46.59
356.115	30.21
356.326	-20.99
356.538	40.45
356.749	30.21
356.961	87.55
357.172	-8.7
357.384	17.92
357.595	87.55
357.807	77.31
358.018	19.97
358.23	22.02
358.441	13.82
358.653	44.54
358.864	-27.14
359.075	19.97
359.287	60.93
359.498	1.54
359.709	28.16
359.921	75.26
360.132	17.92
360.344	67.07
360.555	42.5
360.766	13.82
360.977	-43.52
361.189	87.55
361.4	26.11
361.611	69.12
361.823	75.26
362.034	114.17
362.245	-23.04
362.456	105.98
362.667	52.74
362.879	93.69
363.09	3.58
363.301	67.07
363.512	7.68
363.723	71.17
363.935	46.59
364.146	69.12
364.357	7.68
364.568	93.69
364.779	17.92
364.99	54.78
365.201	26.11
365.412	144.89
365.623	32.26
365.834	3.58
366.045	3.58
366.256	50.69
366.467	26.11
366.678	50.69
366.889	58.88
367.1	-57.86
367.311	11.78
367.522	19.97
367.733	65.02
367.944	-23.04
368.155	13.82
368.366	26.11
368.577	60.93
368.788	56.83
368.999	54.78
369.209	48.64
369.42	132.61
369.631	101.89
369.842	73.21
370.053	24.06
370.264	52.74
370.474	71.17
370.685	-20.99
370.896	1.54
371.107	83.45
371.317	83.45
371.528	34.3
371.739	81.41
371.95	24.06
372.16	42.5
372.371	3.58
372.582	1.54
372.792	-6.66
373.003	26.11
373.214	89.6
373.424	46.59
373.635	60.93
373.846	13.82
374.056	48.64
374.267	128.51
374.477	34.3
374.688	77.31
374.898	28.16
375.109	50.69
375.319	71.17
375.53	146.94
375.74	60.93
375.951	62.98
376.161	89.6
376.372	9.73
376.582	17.92
376.793	46.59
377.003	58.88
377.214	75.26
377.424	22.02
377.635	97.79
377.845	58.88
378.055	124.41
378.266	40.45
378.476	-20.99
378.686	17.92
378.897	85.5
379.107	108.03
379.317	3.58
379.528	-12.8
379.738	85.5
379.948	9.73
380.158	24.06
380.369	17.92
380.579	50.69
380.789	-16.9
380.999	3.58
381.21	93.69
381.42	91.65
381.63	58.88
381.84	91.65
382.05	126.46
382.261	3.58
382.471	32.26
382.681	-10.75
382.891	69.12
383.101	42.5
383.311	1.54
383.521	9.73
383.731	79.36
383.941	89.6
384.151	40.45
384.361	62.98
384.571	60.93
384.781	91.65
384.991	17.92
385.201	89.6
385.411	95.74
385.621	40.45
385.831	54.78
386.041	103.93
386.251	-8.7
386.461	15.87
386.671	120.32
386.881	30.21
387.091	71.17
387.301	144.89
387.511	5.63
387.72	50.69
387.93	97.79
388.14	11.78
388.35	97.79
388.56	7.68
388.769	52.74
388.979	58.88
389.189	5.63
389.399	36.35
389.609	73.21
389.818	91.65
390.028	19.97
390.238	48.64
390.447	50.69
390.657	128.51
390.867	-8.7
391.076	62.98
391.286	87.55
391.496	67.07
391.705	85.5
391.915	91.65
392.125	89.6
392.334	101.89
392.544	-31.23
392.753	81.41
392.963	38.4
393.172	46.59
393.382	105.98
393.591	116.22
393.801	26.11
394.01	97.79
394.22	116.22
394.429	75.26
394.639	38.4
394.848	58.88
395.058	46.59
395.267	91.65
395.477	112.13
395.686	91.65
395.895	85.5
396.105	128.51
396.314	69.12
396.524	103.93
396.733	69.12
396.942	87.55
397.152	79.36
397.361	142.85
397.57	93.69
397.78	46.59
397.989	50.69
398.198	144.89
398.407	67.07
398.617	48.64
398.826	112.13
399.035	24.06
399.244	79.36
399.453	48.64
399.663	58.88
399.872	40.45
400.081	108.03
400.29	116.22
400.499	118.27
400.708	146.94
400.917	91.65
401.127	148.99
401.336	42.5
401.545	153.09
401.754	67.07
401.963	159.23
402.172	148.99
402.381	124.41
402.59	171.52
402.799	116.22
403.008	204.28
403.217	81.41
403.426	140.8
403.635	36.35
403.844	114.17
404.053	116.22
404.262	116.22
404.471	105.98
404.68	93.69
404.888	157.18
405.097	177.66
405.306	159.23
405.515	155.13
405.724	189.95
405.933	108.03
406.142	157.18
406.35	116.22
406.559	138.75
406.768	202.24
406.977	173.57
407.185	181.76
407.394	214.52
407.603	175.61
407.812	255.48
408.02	245.24
408.229	194.05
408.438	169.47
408.646	245.24
408.855	194.05
409.064	263.68
409.272	275.96
409.481	269.82
409.69	243.2
409.898	206.33
410.107	228.86
410.315	220.67
410.524	359.93
410.733	327.16
410.941	353.79
411.15	306.68
411.358	312.83
411.567	407.03
411.775	337.4
411.984	304.64
412.192	306.68
412.401	384.51
412.609	404.99
412.818	407.03
413.026	394.75
413.234	509.43
413.443	493.05
413.651	476.66
413.86	531.96
414.068	521.72
414.276	503.29
414.485	527.86
414.693	542.2
414.901	603.64
415.11	607.73
415.318	544.25
415.526	728.56
415.734	554.49
415.943	640.5
416.151	630.26
416.359	708.09
416.567	747
416.776	732.66
416.984	810.48
417.192	787.96
417.4	878.07
417.608	722.42
417.817	871.92
418.025	865.78
418.233	1097.2
418.441	980.47
418.649	974.32
418.857	1068.53
419.065	1129.97
419.273	1074.67
419.481	1189.36
419.689	1156.59
419.897	1330.67
420.105	1236.46
420.313	1302
420.521	1394.15
420.729	1287.66
420.937	1383.91
421.145	1455.59
421.353	1594.86
421.561	1584.62
421.769	1551.85
421.977	1746.41
422.185	1701.35
422.393	1746.41
422.601	1912.29
422.809	1799.65
423.017	1877.48
423.224	1990.11
423.432	2137.57
423.64	2094.56
423.848	2336.22
424.056	2162.14
424.263	2362.84
424.471	2487.77
424.679	2446.81
424.887	2659.8
425.094	2741.72
425.302	2651.61
425.51	2635.22
425.718	2801.11
425.925	2944.47
426.133	3083.73
426.341	3194.32
426.548	3294.67
426.756	3257.81
426.964	3153.36
427.171	3487.18
427.379	3503.56
427.586	3685.83
427.794	3821
428.001	4007.36
428.209	4091.33
428.417	4013.51
428.624	4240.83
428.832	4337.09
429.039	4140.48
429.247	4115.91
429.454	4744.63
429.662	5014.96
429.869	4808.12
430.076	5004.72
430.284	4842.93
430.491	5076.4
430.699	5391.79
430.906	5402.03
431.114	5604.78
431.321	5735.85
431.528	5707.18
431.736	6159.78
431.943	6552.99
432.15	6196.64
432.358	6452.64
432.565	6598.04
432.772	6772.12
432.979	7009.69
433.187	7421.33
433.394	7177.62
433.601	7566.73
433.808	7603.6
434.016	7705.99
434.223	7937.41
434.43	8408.45
434.637	8244.61
434.844	8834.43
435.052	8926.58
435.259	8895.86
435.466	8871.29
435.673	8895.86
435.88	9624.94
436.087	9784.68
436.294	9977.19
436.501	9610.61
436.708	9979.24
436.915	10374.5
437.122	10814.81
437.329	10646.88
437.537	11001.18
437.743	11197.78
437.95	11035.99
438.157	11746.64
438.364	12096.84
438.571	11994.44
438.778	12444.99
438.985	13346.1
439.192	12641.6
439.399	13217.08
439.606	13043
439.813	13827.37
440.02	14673.18
440.227	14351.65
440.433	14472.48
440.64	14507.3
440.847	14325.03
441.054	14994.72
441.261	15813.9
441.467	15652.11
441.674	16069.9
441.881	16672
442.088	16520.45
442.294	16223.5
442.501	17022.2
442.708	17165.56
442.914	18111.72
443.121	18697.44
443.328	18156.78
443.534	19420.38
443.741	19139.8
443.948	18631.91
444.154	20280.52
444.361	19739.86
444.568	19989.71
444.774	20165.84
444.981	20382.92
445.187	20835.52
445.394	21757.11
445.6	21480.63
445.807	23506.07
446.013	22496.42
446.22	22975.65
446.426	23788.69
446.633	24181.9
446.839	24876.16
447.046	23944.34
447.252	25080.96
447.459	25461.88
447.665	25451.64
447.871	26481.77
448.078	27827.29
448.284	26051.7
448.491	26938.47
448.697	27728.98
448.903	28462.16
449.11	28456.01
449.316	28071
449.522	28570.7
449.728	29350.98
449.935	29639.74
450.141	29314.11
450.347	30344.24
450.553	29230.15
450.76	29588.54
450.966	30708.78
451.172	30358.58
451.378	31239.2
451.584	30497.84
451.791	31521.82
451.997	30962.73
452.203	32076.82
452.409	32152.6
452.615	31394.85
452.821	30393.39
453.027	30258.23
453.233	31726.62
453.44	30381.1
453.646	31038.5
453.852	30911.53
454.058	31603.74
454.264	30723.12
454.47	31339.55
454.676	30268.47
454.882	31456.29
455.088	28652.62
455.294	29662.27
455.5	29959.22
455.705	30080.05
455.911	29082.69
456.117	28486.73
456.323	27880.53
456.529	26741.86
456.735	27616.35
456.941	27173.99
457.147	26541.16
457.352	25613.43
457.558	25652.34
457.764	25613.43
457.97	24951.94
458.176	24466.57
458.381	24521.87
458.587	23641.24
458.793	23200.93
458.999	22203.57
459.204	23616.66
459.41	23151.77
459.616	21753.01
459.821	21675.19
460.027	21871.79
460.233	20999.36
460.438	19932.37
460.644	20677.83
460.85	18957.53
461.055	18906.34
461.261	19076.32
461.466	17601.78
461.672	16831.74
461.878	18271.47
462.083	17036.54
462.289	16600.32
462.494	16588.03
462.7	15818
462.905	15336.73
463.111	15934.73
463.316	16225.54
463.522	15545.62
463.727	15869.2
463.932	15772.94
464.138	15590.67
464.343	15721.74
464.549	15000.86
464.754	15629.59
464.959	15318.29
465.165	15467.8
465.37	14591.27
465.575	14468.39
465.781	14779.68
465.986	14873.89
466.191	14429.48
466.397	14200.1
466.602	13503.79
466.807	13970.73
467.012	14288.17
467.218	13978.92
467.423	13763.89
467.628	13761.84
467.833	14548.26
468.038	13688.11
468.244	13440.31
468.449	14116.14
468.654	13466.93
468.859	13321.52
