Data from USB4F104151__22__11-51-27-709.txt Node

Date: Fri Mar 14 11:51:27 EDT 2025
User: louis
Spectrometer: USB4F10415
Trigger mode: 4
Integration Time (sec): 2.000000E-2
Scans to average: 1
Electric dark correction enabled: true
Nonlinearity correction enabled: false
Boxcar width: 0
XAxis mode: Wavelengths
Number of Pixels in Spectrum: 3648
>>>>>Begin Spectral Data<<<<<
178.204	-89.43
178.424	-89.43
178.644	-89.43
178.864	-89.43
179.084	-48.47
179.304	29.35
179.524	53.93
179.744	-3.41
179.964	-30.04
180.184	25.26
180.404	33.45
180.624	-9.56
180.844	33.45
181.064	-85.33
181.283	-19.8
181.503	-23.89
181.723	-3.41
181.943	-40.28
182.163	17.07
182.383	0.68
182.602	78.51
182.822	37.55
183.042	-7.51
183.262	41.64
183.482	4.78
183.701	6.83
183.921	27.31
184.141	-79.19
184.361	103.08
184.58	131.75
184.8	43.69
185.02	-40.28
185.239	12.97
185.459	-44.37
185.679	43.69
185.898	-13.65
186.118	15.02
186.338	6.83
186.557	-17.75
186.777	31.4
186.997	70.31
187.216	-5.46
187.436	12.97
187.655	12.97
187.875	-17.75
188.095	25.26
188.314	-58.71
188.534	62.12
188.753	53.93
188.973	58.03
189.192	35.5
189.412	31.4
189.631	15.02
189.851	-5.46
190.07	45.74
190.29	6.83
190.509	84.65
190.729	41.64
190.948	-23.89
191.168	119.46
191.387	76.46
191.607	86.7
191.826	-9.56
192.045	-42.32
192.265	17.07
192.484	10.92
192.704	6.83
192.923	2.73
193.142	117.42
193.362	29.35
193.581	51.88
193.8	82.6
194.02	47.79
194.239	60.07
194.458	29.35
194.678	39.59
194.897	10.92
195.116	8.87
195.335	47.79
195.555	49.83
195.774	-7.51
195.993	8.87
196.212	49.83
196.432	47.79
196.651	-36.18
196.87	94.89
197.089	96.94
197.308	68.27
197.528	8.87
197.747	55.98
197.966	53.93
198.185	-15.7
198.404	-17.75
198.623	-44.37
198.842	94.89
199.062	72.36
199.281	101.03
199.5	55.98
199.719	70.31
199.938	25.26
200.157	47.79
200.376	41.64
200.595	45.74
200.814	43.69
201.033	-9.56
201.252	84.65
201.471	2.73
201.69	92.84
201.909	6.83
202.128	-7.51
202.347	27.31
202.566	45.74
202.785	-13.65
203.004	25.26
203.223	31.4
203.442	15.02
203.661	-34.13
203.879	-30.04
204.098	19.11
204.317	41.64
204.536	72.36
204.755	0.68
204.974	72.36
205.193	-15.7
205.411	43.69
205.63	47.79
205.849	-23.89
206.068	37.55
206.287	19.11
206.505	-25.94
206.724	-11.61
206.943	92.84
207.162	12.97
207.381	41.64
207.599	6.83
207.818	68.27
208.037	127.66
208.255	25.26
208.474	29.35
208.693	80.55
208.911	49.83
209.13	35.5
209.349	88.75
209.567	27.31
209.786	92.84
210.005	35.5
210.223	12.97
210.442	27.31
210.661	68.27
210.879	-32.08
211.098	0.68
211.316	-56.66
211.535	43.69
211.753	74.41
211.972	0.68
212.191	-25.94
212.409	68.27
212.628	-40.28
212.846	-1.37
213.065	-3.41
213.283	43.69
213.502	-9.56
213.72	92.84
213.938	-25.94
214.157	-17.75
214.375	33.45
214.594	37.55
214.812	64.17
215.031	53.93
215.249	53.93
215.467	45.74
215.686	15.02
215.904	92.84
216.122	27.31
216.341	92.84
216.559	31.4
216.778	25.26
216.996	21.16
217.214	43.69
217.432	2.73
217.651	-5.46
217.869	60.07
218.087	29.35
218.306	53.93
218.524	76.46
218.742	55.98
218.96	80.55
219.179	21.16
219.397	-58.71
219.615	49.83
219.833	43.69
220.051	8.87
220.27	101.03
220.488	49.83
220.706	25.26
220.924	-19.8
221.142	19.11
221.36	98.99
221.578	41.64
221.796	31.4
222.015	62.12
222.233	82.6
222.451	-19.8
222.669	15.02
222.887	66.22
223.105	0.68
223.323	64.17
223.541	-9.56
223.759	-52.56
223.977	21.16
224.195	66.22
224.413	37.55
224.631	-15.7
224.849	68.27
225.067	139.94
225.285	4.78
225.503	141.99
225.721	-48.47
225.939	10.92
226.157	10.92
226.375	150.18
226.592	31.4
226.81	53.93
227.028	66.22
227.246	53.93
227.464	64.17
227.682	37.55
227.9	2.73
228.117	113.32
228.335	47.79
228.553	74.41
228.771	35.5
228.989	12.97
229.206	94.89
229.424	31.4
229.642	37.55
229.86	4.78
230.077	98.99
230.295	2.73
230.513	88.75
230.731	47.79
230.948	19.11
231.166	8.87
231.384	10.92
231.601	8.87
231.819	-17.75
232.037	43.69
232.254	4.78
232.472	21.16
232.689	12.97
232.907	58.03
233.125	0.68
233.342	-7.51
233.56	-58.71
233.777	41.64
233.995	-27.99
234.213	101.03
234.43	49.83
234.648	43.69
234.865	39.59
235.083	4.78
235.3	-11.61
235.518	29.35
235.735	-38.23
235.953	125.61
236.17	-42.32
236.388	12.97
236.605	10.92
236.822	121.51
237.04	17.07
237.257	-3.41
237.475	-40.28
237.692	105.13
237.909	10.92
238.127	12.97
238.344	-1.37
238.562	27.31
238.779	-19.8
238.996	-3.41
239.214	23.21
239.431	-17.75
239.648	33.45
239.865	58.03
240.083	62.12
240.3	113.32
240.517	-11.61
240.735	60.07
240.952	55.98
241.169	98.99
241.386	60.07
241.603	82.6
241.821	-52.56
242.038	29.35
242.255	31.4
242.472	-3.41
242.689	21.16
242.907	8.87
243.124	-3.41
243.341	-73.04
243.558	47.79
243.775	-42.32
243.992	0.68
244.209	-3.41
244.426	53.93
244.643	119.46
244.86	53.93
245.078	-11.61
245.295	29.35
245.512	53.93
245.729	74.41
245.946	84.65
246.163	58.03
246.38	8.87
246.597	35.5
246.814	45.74
247.031	41.64
247.248	-3.41
247.464	25.26
247.681	-1.37
247.898	70.31
248.115	66.22
248.332	-11.61
248.549	92.84
248.766	62.12
248.983	-66.9
249.2	45.74
249.417	109.23
249.633	-3.41
249.85	92.84
250.067	35.5
250.284	23.21
250.501	49.83
250.717	62.12
250.934	-23.89
251.151	-23.89
251.368	96.94
251.585	41.64
251.801	6.83
252.018	-21.84
252.235	94.89
252.451	53.93
252.668	39.59
252.885	66.22
253.102	15.02
253.318	33.45
253.535	45.74
253.752	47.79
253.968	8.87
254.185	-21.84
254.401	23.21
254.618	33.45
254.835	45.74
255.051	39.59
255.268	10.92
255.484	6.83
255.701	109.23
255.917	10.92
256.134	-83.28
256.351	39.59
256.567	70.31
256.784	29.35
257	39.59
257.217	51.88
257.433	33.45
257.65	25.26
257.866	29.35
258.082	74.41
258.299	17.07
258.515	12.97
258.732	76.46
258.948	-58.71
259.165	-17.75
259.381	86.7
259.597	0.68
259.814	23.21
260.03	-46.42
260.246	-42.32
260.463	-27.99
260.679	76.46
260.895	4.78
261.112	19.11
261.328	-13.65
261.544	2.73
261.761	10.92
261.977	60.07
262.193	10.92
262.409	-7.51
262.626	88.75
262.842	43.69
263.058	64.17
263.274	64.17
263.49	21.16
263.707	146.09
263.923	19.11
264.139	-23.89
264.355	33.45
264.571	94.89
264.787	41.64
265.004	-15.7
265.22	29.35
265.436	19.11
265.652	49.83
265.868	96.94
266.084	-23.89
266.3	-5.46
266.516	21.16
266.732	53.93
266.948	-7.51
267.164	17.07
267.38	-3.41
267.596	0.68
267.812	68.27
268.028	66.22
268.244	-40.28
268.46	123.56
268.676	-1.37
268.892	82.6
269.108	-36.18
269.324	55.98
269.54	37.55
269.756	29.35
269.972	-58.71
270.188	45.74
270.403	25.26
270.619	-13.65
270.835	6.83
271.051	68.27
271.267	49.83
271.483	4.78
271.698	-23.89
271.914	41.64
272.13	41.64
272.346	19.11
272.562	15.02
272.777	-54.61
272.993	-27.99
273.209	19.11
273.425	19.11
273.64	10.92
273.856	-3.41
274.072	62.12
274.287	15.02
274.503	55.98
274.719	105.13
274.934	74.41
275.15	-5.46
275.366	58.03
275.581	8.87
275.797	53.93
276.012	-25.94
276.228	2.73
276.444	-9.56
276.659	43.69
276.875	47.79
277.09	123.56
277.306	51.88
277.521	45.74
277.737	-58.71
277.952	37.55
278.168	37.55
278.383	55.98
278.599	-21.84
278.814	12.97
279.03	-25.94
279.245	78.51
279.461	43.69
279.676	8.87
279.892	-13.65
280.107	25.26
280.322	17.07
280.538	-27.99
280.753	162.47
280.969	39.59
281.184	10.92
281.399	17.07
281.615	15.02
281.83	43.69
282.045	-5.46
282.26	55.98
282.476	-34.13
282.691	62.12
282.906	41.64
283.122	35.5
283.337	43.69
283.552	92.84
283.767	72.36
283.983	43.69
284.198	-17.75
284.413	70.31
284.628	-21.84
284.843	15.02
285.058	33.45
285.274	-3.41
285.489	74.41
285.704	17.07
285.919	64.17
286.134	53.93
286.349	15.02
286.564	19.11
286.779	8.87
286.995	-3.41
287.21	55.98
287.425	-11.61
287.64	25.26
287.855	35.5
288.07	41.64
288.285	-7.51
288.5	82.6
288.715	-34.13
288.93	66.22
289.145	35.5
289.36	31.4
289.575	53.93
289.79	53.93
290.004	-38.23
290.219	-7.51
290.434	15.02
290.649	-66.9
290.864	29.35
291.079	45.74
291.294	70.31
291.509	-44.37
291.724	74.41
291.938	37.55
292.153	4.78
292.368	-48.47
292.583	33.45
292.798	92.84
293.012	98.99
293.227	23.21
293.442	43.69
293.657	92.84
293.871	23.21
294.086	66.22
294.301	96.94
294.516	53.93
294.73	21.16
294.945	-40.28
295.16	31.4
295.374	64.17
295.589	-30.04
295.804	6.83
296.018	10.92
296.233	39.59
296.447	43.69
296.662	4.78
296.877	-50.52
297.091	15.02
297.306	58.03
297.52	-5.46
297.735	51.88
297.949	66.22
298.164	4.78
298.378	68.27
298.593	41.64
298.807	27.31
299.022	115.37
299.236	49.83
299.451	39.59
299.665	41.64
299.88	43.69
300.094	137.9
300.309	-32.08
300.523	-25.94
300.737	35.5
300.952	76.46
301.166	21.16
301.381	21.16
301.595	33.45
301.809	68.27
302.024	49.83
302.238	-11.61
302.452	55.98
302.667	58.03
302.881	25.26
303.095	29.35
303.309	25.26
303.524	19.11
303.738	-15.7
303.952	19.11
304.166	92.84
304.381	4.78
304.595	78.51
304.809	29.35
305.023	35.5
305.237	2.73
305.452	49.83
305.666	-9.56
305.88	25.26
306.094	27.31
306.308	27.31
306.522	74.41
306.736	8.87
306.95	2.73
307.164	-32.08
307.379	-11.61
307.593	68.27
307.807	60.07
308.021	21.16
308.235	15.02
308.449	8.87
308.663	-62.8
308.877	43.69
309.091	15.02
309.305	80.55
309.519	-40.28
309.733	62.12
309.947	-30.04
310.161	23.21
310.374	25.26
310.588	82.6
310.802	35.5
311.016	17.07
311.23	43.69
311.444	21.16
311.658	43.69
311.872	12.97
312.085	41.64
312.299	4.78
312.513	103.08
312.727	98.99
312.941	-25.94
313.154	117.42
313.368	-52.56
313.582	12.97
313.796	-27.99
314.009	25.26
314.223	37.55
314.437	43.69
314.651	68.27
314.864	-5.46
315.078	62.12
315.292	15.02
315.505	29.35
315.719	17.07
315.933	8.87
316.146	-23.89
316.36	27.31
316.573	80.55
316.787	-1.37
317.001	62.12
317.214	21.16
317.428	68.27
317.641	62.12
317.855	33.45
318.068	0.68
318.282	-38.23
318.495	121.51
318.709	66.22
318.922	-3.41
319.136	68.27
319.349	70.31
319.563	62.12
319.776	62.12
319.99	17.07
320.203	123.56
320.417	62.12
320.63	-21.84
320.843	98.99
321.057	19.11
321.27	74.41
321.483	0.68
321.697	23.21
321.91	68.27
322.124	96.94
322.337	80.55
322.55	60.07
322.763	19.11
322.977	15.02
323.19	47.79
323.403	6.83
323.617	80.55
323.83	135.85
324.043	105.13
324.256	60.07
324.469	15.02
324.683	78.51
324.896	-46.42
325.109	23.21
325.322	-30.04
325.535	139.94
325.748	12.97
325.962	10.92
326.175	-13.65
326.388	96.94
326.601	31.4
326.814	49.83
327.027	31.4
327.24	113.32
327.453	0.68
327.666	-40.28
327.879	92.84
328.092	12.97
328.305	43.69
328.518	12.97
328.731	47.79
328.944	94.89
329.157	72.36
329.37	74.41
329.583	8.87
329.796	55.98
330.009	-23.89
330.222	86.7
330.435	92.84
330.648	-9.56
330.861	111.27
331.073	88.75
331.286	51.88
331.499	17.07
331.712	6.83
331.925	0.68
332.138	-3.41
332.35	76.46
332.563	4.78
332.776	66.22
332.989	-27.99
333.202	-23.89
333.414	-13.65
333.627	49.83
333.84	49.83
334.053	45.74
334.265	37.55
334.478	33.45
334.691	39.59
334.903	51.88
335.116	-21.84
335.329	62.12
335.541	33.45
335.754	98.99
335.966	39.59
336.179	31.4
336.392	-40.28
336.604	19.11
336.817	47.79
337.029	-21.84
337.242	25.26
337.454	94.89
337.667	-1.37
337.88	19.11
338.092	70.31
338.305	45.74
338.517	-19.8
338.729	29.35
338.942	37.55
339.154	-3.41
339.367	47.79
339.579	6.83
339.792	4.78
340.004	27.31
340.217	-68.95
340.429	92.84
340.641	45.74
340.854	29.35
341.066	35.5
341.278	86.7
341.491	37.55
341.703	64.17
341.915	-34.13
342.128	17.07
342.34	31.4
342.552	-34.13
342.764	21.16
342.977	78.51
343.189	78.51
343.401	35.5
343.613	55.98
343.826	25.26
344.038	17.07
344.25	74.41
344.462	17.07
344.674	41.64
344.886	45.74
345.099	58.03
345.311	-7.51
345.523	15.02
345.735	0.68
345.947	27.31
346.159	15.02
346.371	58.03
346.583	10.92
346.795	123.56
347.007	55.98
347.219	0.68
347.431	8.87
347.643	4.78
347.855	39.59
348.067	66.22
348.279	-17.75
348.491	92.84
348.703	84.65
348.915	25.26
349.127	15.02
349.339	17.07
349.551	58.03
349.763	41.64
349.975	47.79
350.187	-23.89
350.399	58.03
350.61	39.59
350.822	78.51
351.034	86.7
351.246	49.83
351.458	62.12
351.669	8.87
351.881	23.21
352.093	37.55
352.305	96.94
352.517	10.92
352.728	37.55
352.94	19.11
353.152	-17.75
353.363	51.88
353.575	70.31
353.787	17.07
353.999	12.97
354.21	29.35
354.422	84.65
354.633	101.03
354.845	17.07
355.057	15.02
355.268	39.59
355.48	-50.52
355.692	60.07
355.903	39.59
356.115	90.79
356.326	2.73
356.538	33.45
356.749	58.03
356.961	51.88
357.172	12.97
357.384	-34.13
357.595	113.32
357.807	60.07
358.018	23.21
358.23	84.65
358.441	-13.65
358.653	66.22
358.864	29.35
359.075	8.87
359.287	12.97
359.498	90.79
359.709	47.79
359.921	33.45
360.132	-42.32
360.344	76.46
360.555	12.97
360.766	66.22
360.977	64.17
361.189	98.99
361.4	25.26
361.611	21.16
361.823	39.59
362.034	15.02
362.245	23.21
362.456	41.64
362.667	39.59
362.879	37.55
363.09	51.88
363.301	49.83
363.512	-32.08
363.723	12.97
363.935	-19.8
364.146	72.36
364.357	58.03
364.568	51.88
364.779	-66.9
364.99	103.08
365.201	33.45
365.412	6.83
365.623	-11.61
365.834	60.07
366.045	37.55
366.256	27.31
366.467	47.79
366.678	47.79
366.889	8.87
367.1	47.79
367.311	49.83
367.522	60.07
367.733	-27.99
367.944	62.12
368.155	72.36
368.366	82.6
368.577	-81.24
368.788	92.84
368.999	62.12
369.209	51.88
369.42	15.02
369.631	39.59
369.842	90.79
370.053	72.36
370.264	60.07
370.474	51.88
370.685	33.45
370.896	72.36
371.107	84.65
371.317	19.11
371.528	29.35
371.739	62.12
371.95	62.12
372.16	164.52
372.371	4.78
372.582	-1.37
372.792	-9.56
373.003	35.5
373.214	41.64
373.424	92.84
373.635	-7.51
373.846	51.88
374.056	25.26
374.267	68.27
374.477	43.69
374.688	68.27
374.898	23.21
375.109	60.07
375.319	35.5
375.53	121.51
375.74	49.83
375.951	74.41
376.161	0.68
376.372	39.59
376.582	84.65
376.793	101.03
377.003	27.31
377.214	84.65
377.424	15.02
377.635	78.51
377.845	101.03
378.055	74.41
378.266	82.6
378.476	58.03
378.686	-13.65
378.897	47.79
379.107	62.12
379.317	113.32
379.528	-17.75
379.738	62.12
379.948	68.27
380.158	74.41
380.369	76.46
380.579	10.92
380.789	41.64
380.999	74.41
381.21	45.74
381.42	98.99
381.63	47.79
381.84	127.66
382.05	0.68
382.261	-19.8
382.471	10.92
382.681	45.74
382.891	-17.75
383.101	47.79
383.311	35.5
383.521	-38.23
383.731	72.36
383.941	76.46
384.151	88.75
384.361	49.83
384.571	84.65
384.781	119.46
384.991	98.99
385.201	101.03
385.411	64.17
385.621	37.55
385.831	58.03
386.041	2.73
386.251	15.02
386.461	53.93
386.671	135.85
386.881	33.45
387.091	55.98
387.301	107.18
387.511	49.83
387.72	109.23
387.93	21.16
388.14	27.31
388.35	10.92
388.56	25.26
388.769	2.73
388.979	19.11
389.189	-3.41
389.399	-5.46
389.609	64.17
389.818	33.45
390.028	109.23
390.238	0.68
390.447	60.07
390.657	107.18
390.867	35.5
391.076	-1.37
391.286	47.79
391.496	82.6
391.705	6.83
391.915	84.65
392.125	49.83
392.334	62.12
392.544	70.31
392.753	55.98
392.963	53.93
393.172	68.27
393.382	133.8
393.591	70.31
393.801	47.79
394.01	58.03
394.22	17.07
394.429	117.42
394.639	55.98
394.848	55.98
395.058	107.18
395.267	39.59
395.477	2.73
395.686	29.35
395.895	107.18
396.105	98.99
396.314	90.79
396.524	80.55
396.733	70.31
396.942	58.03
397.152	82.6
397.361	41.64
397.57	86.7
397.78	66.22
397.989	86.7
398.198	139.94
398.407	35.5
398.617	58.03
398.826	60.07
399.035	109.23
399.244	133.8
399.453	109.23
399.663	86.7
399.872	64.17
400.081	82.6
400.29	78.51
400.499	84.65
400.708	119.46
400.917	96.94
401.127	78.51
401.336	76.46
401.545	115.37
401.754	80.55
401.963	121.51
402.172	123.56
402.381	35.5
402.59	35.5
402.799	162.47
403.008	156.33
403.217	76.46
403.426	31.4
403.635	164.52
403.844	90.79
404.053	94.89
404.262	90.79
404.471	105.13
404.68	182.95
404.888	113.32
405.097	96.94
405.306	141.99
405.515	88.75
405.724	154.28
405.933	180.9
406.142	201.38
406.35	256.68
406.559	213.67
406.768	125.61
406.977	182.95
407.185	180.9
407.394	228.01
407.603	144.04
407.812	197.29
408.02	137.9
408.229	154.28
408.438	195.24
408.646	174.76
408.855	205.48
409.064	242.34
409.272	273.06
409.481	209.58
409.69	244.39
409.898	234.15
410.107	271.01
410.315	271.01
410.524	283.3
410.733	303.78
410.941	307.88
411.15	309.93
411.358	361.13
411.567	340.65
411.775	254.63
411.984	375.46
412.192	412.32
412.401	338.6
412.609	381.6
412.818	434.85
413.026	455.33
413.234	395.94
413.443	475.81
413.651	406.18
413.86	465.57
414.068	578.21
414.276	418.47
414.485	510.63
414.693	580.26
414.901	580.26
415.11	543.39
415.318	510.63
415.526	549.54
415.734	647.84
415.943	682.66
416.151	701.09
416.359	645.79
416.567	653.98
416.776	694.94
416.984	727.71
417.192	772.77
417.4	795.29
417.608	832.16
417.817	862.88
418.025	848.54
418.233	920.22
418.441	973.47
418.649	1036.95
418.857	989.85
419.065	1092.25
419.273	1018.52
419.481	1075.87
419.689	1102.49
419.897	1311.38
420.105	1172.12
420.313	1307.29
420.521	1342.1
420.729	1372.82
420.937	1450.64
421.145	1442.45
421.353	1462.93
421.561	1516.18
421.769	1544.85
421.977	1706.64
422.185	1682.07
422.393	1755.79
422.601	1876.62
422.809	1827.47
423.017	1868.43
423.224	1858.19
423.432	2097.8
423.64	2122.38
423.848	2226.82
424.056	2189.96
424.263	2359.94
424.471	2368.13
424.679	2474.63
424.887	2615.94
425.094	2558.6
425.302	2562.69
425.51	2710.15
425.718	2804.35
425.925	2876.03
426.133	2935.42
426.341	3046.01
426.548	3261.05
426.756	3328.63
426.964	3263.1
427.171	3439.22
427.379	3629.68
427.586	3463.8
427.794	3668.59
428.001	3977.84
428.209	4018.8
428.417	3983.98
428.624	4194.92
428.832	4262.51
429.039	4182.63
429.247	4156.01
429.454	4649.57
429.662	5022.3
429.869	4678.24
430.076	4991.58
430.284	4815.46
430.491	5122.65
430.699	5435.99
430.906	5450.33
431.114	5331.55
431.321	5616.21
431.528	5663.32
431.736	6167.12
431.943	6345.29
432.15	6163.02
432.358	6216.27
432.565	6642.25
432.772	6488.65
432.979	6943.3
433.187	7070.27
433.394	7123.52
433.601	7696.95
433.808	7498.3
434.016	7674.42
434.223	7789.11
434.43	8397.35
434.637	8202.8
434.844	8464.94
435.052	8884.77
435.259	8804.9
435.466	8933.92
435.673	8837.67
435.88	9298.46
436.087	9783.83
436.294	9845.27
436.501	9548.31
436.708	9726.49
436.915	10017.3
437.122	10543.63
437.329	10504.71
437.537	11041.28
437.743	11201.02
437.95	11026.95
438.157	11547.13
438.364	11895.29
438.571	12091.89
438.778	11747.83
438.985	13201.89
439.192	12571.11
439.399	12915.17
439.606	12757.48
439.813	13498.84
440.02	14123.48
440.227	13877.72
440.433	14070.23
440.64	14340.56
440.847	14154.19
441.054	14567.88
441.261	15458.75
441.467	15522.24
441.674	15585.72
441.881	16398.77
442.088	16181.68
442.294	16062.9
442.501	16544.17
442.708	16918.95
442.914	17289.63
443.121	18078.1
443.328	17746.33
443.534	18909.58
443.741	18461.07
443.948	18381.2
444.154	19712.38
444.361	19321.22
444.568	19376.51
444.774	19466.63
444.981	20019.58
445.187	20486.51
445.394	21088.62
445.6	20689.26
445.807	23279.94
446.013	22151.51
446.22	22290.77
446.426	23144.78
446.633	23439.68
446.839	24443.19
447.046	23413.06
447.252	24695.09
447.459	24516.92
447.665	24588.6
447.871	25588
448.078	26896.66
448.284	25291.05
448.491	26005.79
448.697	27095.31
448.903	27613.45
449.11	27822.34
449.316	27146.51
449.522	27595.01
449.728	28676.34
449.935	28369.15
450.141	28485.88
450.347	29223.15
450.553	28426.49
450.76	28750.07
450.966	29669.61
451.172	29346.03
451.378	30163.17
451.584	29298.92
451.791	30226.65
451.997	30077.15
452.203	30406.87
452.409	30550.23
452.615	30087.39
452.821	29014.26
453.027	29067.5
453.233	30666.97
453.44	29466.86
453.646	29638.89
453.852	29941.99
454.058	30853.33
454.264	29253.87
454.47	29968.61
454.676	29192.43
454.882	30292.19
455.088	27582.73
455.294	28117.25
455.5	28530.94
455.705	28700.92
455.911	27582.73
456.117	27044.11
456.323	26386.71
456.529	25043.24
456.735	26521.88
456.941	26003.74
457.147	25145.64
457.352	24437.05
457.558	24252.73
457.764	24363.32
457.97	24107.32
458.176	23447.88
458.381	23216.46
458.587	22313.3
458.793	22018.39
458.999	21346.66
459.204	22548.82
459.41	21875.04
459.616	20466.03
459.821	20320.63
460.027	20283.77
460.233	20181.37
460.438	18997.64
460.644	19208.58
460.85	18155.93
461.055	18196.88
461.261	18094.49
461.466	16708.01
461.672	16060.85
461.878	17598.88
462.083	16318.9
462.289	16075.19
462.494	15808.95
462.7	15233.47
462.905	14459.34
463.111	15159.75
463.316	15190.47
463.522	14961.09
463.727	15045.06
463.932	14903.75
464.138	14567.88
464.343	14666.19
464.549	14406.09
464.754	14811.59
464.959	14504.4
465.165	14469.58
465.37	13933.01
465.575	13689.31
465.781	14125.52
465.986	14287.31
466.191	13816.28
466.397	13531.61
466.602	12796.39
466.807	13224.42
467.012	13482.46
467.218	13179.36
467.423	13044.2
467.628	13007.33
