Data from USB4F104151__41__11-51-47-667.txt Node

Date: Fri Mar 14 11:51:47 EDT 2025
User: louis
Spectrometer: USB4F10415
Trigger mode: 4
Integration Time (sec): 2.000000E-2
Scans to average: 1
Electric dark correction enabled: true
Nonlinearity correction enabled: false
Boxcar width: 0
XAxis mode: Wavelengths
Number of Pixels in Spectrum: 3648
>>>>>Begin Spectral Data<<<<<
178.204	-76.29
178.424	-76.29
178.644	-76.29
178.864	-127.49
179.084	-53.76
179.304	24.06
179.524	17.92
179.744	-23.04
179.964	-29.18
180.184	-4.61
180.404	34.3
180.624	-37.38
180.844	19.97
181.064	5.63
181.283	19.97
181.503	-49.66
181.723	22.02
181.943	5.63
182.163	30.21
182.383	-20.99
182.602	22.02
182.822	7.68
183.042	7.68
183.262	-78.33
183.482	-43.52
183.701	-57.86
183.921	-0.51
184.141	-33.28
184.361	85.5
184.58	-33.28
184.8	-43.52
185.02	11.78
185.239	81.41
185.459	48.64
185.679	89.6
185.898	-31.23
186.118	36.35
186.338	50.69
186.557	-51.71
186.777	1.54
186.997	-18.94
187.216	-16.9
187.436	36.35
187.655	7.68
187.875	48.64
188.095	3.58
188.314	11.78
188.534	-12.8
188.753	65.02
188.973	30.21
189.192	-4.61
189.412	48.64
189.631	-20.99
189.851	11.78
190.07	91.65
190.29	-49.66
190.509	83.45
190.729	-70.14
190.948	38.4
191.168	62.98
191.387	65.02
191.607	-23.04
191.826	-16.9
192.045	60.93
192.265	-2.56
192.484	-29.18
192.704	38.4
192.923	-14.85
193.142	56.83
193.362	34.3
193.581	75.26
193.8	44.54
194.02	22.02
194.239	15.87
194.458	-33.28
194.678	-45.57
194.897	-4.61
195.116	67.07
195.335	69.12
195.555	-35.33
195.774	-2.56
195.993	38.4
196.212	65.02
196.432	-10.75
196.651	50.69
196.87	-16.9
197.089	1.54
197.308	65.02
197.528	71.17
197.747	32.26
197.966	-55.81
198.185	77.31
198.404	-55.81
198.623	36.35
198.842	46.59
199.062	75.26
199.281	81.41
199.5	17.92
199.719	34.3
199.938	-27.14
200.157	46.59
200.376	48.64
200.595	26.11
200.814	-6.66
201.033	32.26
201.252	15.87
201.471	7.68
201.69	-4.61
201.909	-41.47
202.128	69.12
202.347	17.92
202.566	58.88
202.785	13.82
203.004	19.97
203.223	65.02
203.442	-4.61
203.661	-23.04
203.879	15.87
204.098	-35.33
204.317	5.63
204.536	40.45
204.755	17.92
204.974	81.41
205.193	34.3
205.411	103.93
205.63	67.07
205.849	48.64
206.068	48.64
206.287	-27.14
206.505	3.58
206.724	-23.04
206.943	-6.66
207.162	26.11
207.381	-8.7
207.599	-51.71
207.818	-16.9
208.037	54.78
208.255	-43.52
208.474	-25.09
208.693	67.07
208.911	-29.18
209.13	-47.62
209.349	-29.18
209.567	26.11
209.786	11.78
210.005	50.69
210.223	52.74
210.442	-49.66
210.661	1.54
210.879	-45.57
211.098	-4.61
211.316	-12.8
211.535	19.97
211.753	-10.75
211.972	67.07
212.191	56.83
212.409	-14.85
212.628	-20.99
212.846	-33.28
213.065	3.58
213.283	28.16
213.502	69.12
213.72	40.45
213.938	-18.94
214.157	-47.62
214.375	3.58
214.594	-12.8
214.812	71.17
215.031	34.3
215.249	-8.7
215.467	15.87
215.686	69.12
215.904	48.64
216.122	-18.94
216.341	85.5
216.559	-4.61
216.778	26.11
216.996	44.54
217.214	52.74
217.432	-16.9
217.651	46.59
217.869	-47.62
218.087	9.73
218.306	-31.23
218.524	-61.95
218.742	-2.56
218.96	32.26
219.179	11.78
219.397	5.63
219.615	9.73
219.833	-25.09
220.051	19.97
220.27	73.21
220.488	28.16
220.706	-10.75
220.924	36.35
221.142	-53.76
221.36	-64
221.578	60.93
221.796	-4.61
222.015	-27.14
222.233	-14.85
222.451	60.93
222.669	-2.56
222.887	85.5
223.105	-8.7
223.323	-16.9
223.541	-18.94
223.759	1.54
223.977	-25.09
224.195	13.82
224.413	34.3
224.631	-49.66
224.849	1.54
225.067	65.02
225.285	-61.95
225.503	11.78
225.721	32.26
225.939	44.54
226.157	-35.33
226.375	24.06
226.592	-27.14
226.81	3.58
227.028	62.98
227.246	-8.7
227.464	38.4
227.682	11.78
227.9	-70.14
228.117	3.58
228.335	-31.23
228.553	48.64
228.771	5.63
228.989	-27.14
229.206	24.06
229.424	-14.85
229.642	-49.66
229.86	-25.09
230.077	15.87
230.295	22.02
230.513	73.21
230.731	48.64
230.948	52.74
231.166	79.36
231.384	79.36
231.601	1.54
231.819	46.59
232.037	-45.57
232.254	-8.7
232.472	9.73
232.689	24.06
232.907	19.97
233.125	-4.61
233.342	24.06
233.56	13.82
233.777	-29.18
233.995	36.35
234.213	97.79
234.43	-115.2
234.648	-33.28
234.865	36.35
235.083	73.21
235.3	9.73
235.518	46.59
235.735	97.79
235.953	1.54
236.17	50.69
236.388	-25.09
236.605	3.58
236.822	-41.47
237.04	19.97
237.257	-37.38
237.475	-8.7
237.692	38.4
237.909	-0.51
238.127	77.31
238.344	-2.56
238.562	11.78
238.779	-41.47
238.996	48.64
239.214	34.3
239.431	15.87
239.648	1.54
239.865	-64
240.083	32.26
240.3	30.21
240.517	-2.56
240.735	17.92
240.952	62.98
241.169	93.69
241.386	38.4
241.603	-0.51
241.821	48.64
242.038	46.59
242.255	50.69
242.472	17.92
242.689	-25.09
242.907	15.87
243.124	28.16
243.341	40.45
243.558	-72.19
243.775	-6.66
243.992	24.06
244.209	17.92
244.426	40.45
244.643	32.26
244.86	28.16
245.078	-31.23
245.295	7.68
245.512	-12.8
245.729	-12.8
245.946	-18.94
246.163	11.78
246.38	3.58
246.597	11.78
246.814	13.82
247.031	-6.66
247.248	-37.38
247.464	40.45
247.681	48.64
247.898	26.11
248.115	19.97
248.332	-0.51
248.549	75.26
248.766	89.6
248.983	46.59
249.2	1.54
249.417	-20.99
249.633	22.02
249.85	28.16
250.067	60.93
250.284	1.54
250.501	-2.56
250.717	15.87
250.934	-82.43
251.151	-57.86
251.368	32.26
251.585	56.83
251.801	71.17
252.018	40.45
252.235	28.16
252.451	-39.42
252.668	-0.51
252.885	22.02
253.102	-37.38
253.318	-12.8
253.535	-55.81
253.752	13.82
253.968	-16.9
254.185	79.36
254.401	7.68
254.618	40.45
254.835	99.84
255.051	87.55
255.268	38.4
255.484	56.83
255.701	36.35
255.917	50.69
256.134	42.5
256.351	15.87
256.567	-18.94
256.784	-31.23
257	15.87
257.217	26.11
257.433	-2.56
257.65	-16.9
257.866	140.8
258.082	-49.66
258.299	-45.57
258.515	32.26
258.732	-14.85
258.948	-2.56
259.165	11.78
259.381	77.31
259.597	-51.71
259.814	-18.94
260.03	50.69
260.246	83.45
260.463	22.02
260.679	-18.94
260.895	-47.62
261.112	89.6
261.328	-2.56
261.544	17.92
261.761	132.61
261.977	32.26
262.193	50.69
262.409	-78.33
262.626	24.06
262.842	17.92
263.058	-66.05
263.274	19.97
263.49	28.16
263.707	-25.09
263.923	50.69
264.139	-29.18
264.355	-4.61
264.571	67.07
264.787	9.73
265.004	19.97
265.22	32.26
265.436	-25.09
265.652	71.17
265.868	11.78
266.084	7.68
266.3	1.54
266.516	24.06
266.732	46.59
266.948	-49.66
267.164	38.4
267.38	50.69
267.596	56.83
267.812	77.31
268.028	54.78
268.244	-25.09
268.46	44.54
268.676	-33.28
268.892	54.78
269.108	-2.56
269.324	7.68
269.54	-8.7
269.756	30.21
269.972	-41.47
270.188	11.78
270.403	52.74
270.619	11.78
270.835	-55.81
271.051	7.68
271.267	28.16
271.483	-41.47
271.698	17.92
271.914	87.55
272.13	62.98
272.346	24.06
272.562	-0.51
272.777	46.59
272.993	50.69
273.209	-37.38
273.425	50.69
273.64	-0.51
273.856	-6.66
274.072	-0.51
274.287	-6.66
274.503	50.69
274.719	97.79
274.934	5.63
275.15	-29.18
275.366	89.6
275.581	-51.71
275.797	-14.85
276.012	3.58
276.228	50.69
276.444	36.35
276.659	36.35
276.875	3.58
277.09	52.74
277.306	-8.7
277.521	-53.76
277.737	-59.9
277.952	-18.94
278.168	22.02
278.383	67.07
278.599	-8.7
278.814	-2.56
279.03	60.93
279.245	30.21
279.461	-8.7
279.676	60.93
279.892	-41.47
280.107	87.55
280.322	-2.56
280.538	15.87
280.753	15.87
280.969	52.74
281.184	19.97
281.399	144.89
281.615	-0.51
281.83	-55.81
282.045	-29.18
282.26	40.45
282.476	-53.76
282.691	67.07
282.906	65.02
283.122	-49.66
283.337	-18.94
283.552	-70.14
283.767	-59.9
283.983	40.45
284.198	-29.18
284.413	124.41
284.628	34.3
284.843	7.68
285.058	83.45
285.274	28.16
285.489	28.16
285.704	93.69
285.919	-8.7
286.134	15.87
286.349	19.97
286.564	50.69
286.779	67.07
286.995	-20.99
287.21	-47.62
287.425	99.84
287.64	-12.8
287.855	26.11
288.07	42.5
288.285	-39.42
288.5	44.54
288.715	40.45
288.93	1.54
289.145	52.74
289.36	38.4
289.575	5.63
289.79	-20.99
290.004	-6.66
290.219	-55.81
290.434	56.83
290.649	9.73
290.864	83.45
291.079	50.69
291.294	28.16
291.509	50.69
291.724	40.45
291.938	19.97
292.153	19.97
292.368	103.93
292.583	73.21
292.798	7.68
293.012	-12.8
293.227	58.88
293.442	-0.51
293.657	22.02
293.871	17.92
294.086	-64
294.301	69.12
294.516	-8.7
294.73	112.13
294.945	-23.04
295.16	-49.66
295.374	38.4
295.589	85.5
295.804	28.16
296.018	7.68
296.233	17.92
296.447	85.5
296.662	42.5
296.877	87.55
297.091	9.73
297.306	22.02
297.52	9.73
297.735	9.73
297.949	-41.47
298.164	19.97
298.378	-0.51
298.593	58.88
298.807	-37.38
299.022	22.02
299.236	-4.61
299.451	60.93
299.665	24.06
299.88	19.97
300.094	-43.52
300.309	-31.23
300.523	-14.85
300.737	-66.05
300.952	46.59
301.166	7.68
301.381	-80.38
301.595	26.11
301.809	71.17
302.024	26.11
302.238	15.87
302.452	34.3
302.667	-31.23
302.881	-31.23
303.095	11.78
303.309	24.06
303.524	-55.81
303.738	-20.99
303.952	-20.99
304.166	13.82
304.381	-8.7
304.595	67.07
304.809	-29.18
305.023	1.54
305.237	-12.8
305.452	32.26
305.666	-33.28
305.88	28.16
306.094	3.58
306.308	36.35
306.522	15.87
306.736	17.92
306.95	13.82
307.164	5.63
307.379	-33.28
307.593	5.63
307.807	87.55
308.021	48.64
308.235	85.5
308.449	-18.94
308.663	65.02
308.877	89.6
309.091	-45.57
309.305	13.82
309.519	-16.9
309.733	32.26
309.947	-8.7
310.161	-27.14
310.374	-4.61
310.588	60.93
310.802	-39.42
311.016	-43.52
311.23	24.06
311.444	-33.28
311.658	-41.47
311.872	36.35
312.085	-64
312.299	13.82
312.513	15.87
312.727	-23.04
312.941	-0.51
313.154	69.12
313.368	34.3
313.582	40.45
313.796	-2.56
314.009	7.68
314.223	91.65
314.437	17.92
314.651	7.68
314.864	52.74
315.078	79.36
315.292	-10.75
315.505	65.02
315.719	36.35
315.933	52.74
316.146	28.16
316.36	-31.23
316.573	108.03
316.787	15.87
317.001	5.63
317.214	-6.66
317.428	69.12
317.641	-18.94
317.855	11.78
318.068	-6.66
318.282	28.16
318.495	9.73
318.709	34.3
318.922	44.54
319.136	17.92
319.349	48.64
319.563	-35.33
319.776	-96.77
319.99	3.58
320.203	13.82
320.417	28.16
320.63	44.54
320.843	38.4
321.057	-33.28
321.27	60.93
321.483	-70.14
321.697	67.07
321.91	19.97
322.124	24.06
322.337	-4.61
322.55	-18.94
322.763	67.07
322.977	7.68
323.19	19.97
323.403	9.73
323.617	-33.28
323.83	101.89
324.043	58.88
324.256	-8.7
324.469	110.08
324.683	54.78
324.896	9.73
325.109	48.64
325.322	-10.75
325.535	58.88
325.748	34.3
325.962	-43.52
326.175	5.63
326.388	81.41
326.601	85.5
326.814	-23.04
327.027	69.12
327.24	56.83
327.453	50.69
327.666	44.54
327.879	58.88
328.092	50.69
328.305	30.21
328.518	-14.85
328.731	40.45
328.944	52.74
329.157	75.26
329.37	-0.51
329.583	32.26
329.796	34.3
330.009	-12.8
330.222	17.92
330.435	-90.62
330.648	7.68
330.861	-10.75
331.073	7.68
331.286	56.83
331.499	-49.66
331.712	-8.7
331.925	36.35
332.138	13.82
332.35	40.45
332.563	7.68
332.776	38.4
332.989	58.88
333.202	-41.47
333.414	54.78
333.627	-47.62
333.84	-53.76
334.053	77.31
334.265	9.73
334.478	5.63
334.691	85.5
334.903	-8.7
335.116	-37.38
335.329	11.78
335.541	34.3
335.754	-23.04
335.966	50.69
336.179	-25.09
336.392	-25.09
336.604	5.63
336.817	38.4
337.029	15.87
337.242	13.82
337.454	116.22
337.667	34.3
337.88	101.89
338.092	56.83
338.305	32.26
338.517	50.69
338.729	32.26
338.942	9.73
339.154	1.54
339.367	1.54
339.579	36.35
339.792	95.74
340.004	-23.04
340.217	34.3
340.429	54.78
340.641	5.63
340.854	-25.09
341.066	5.63
341.278	60.93
341.491	65.02
341.703	11.78
341.915	-31.23
342.128	38.4
342.34	-10.75
342.552	56.83
342.764	30.21
342.977	26.11
343.189	-57.86
343.401	40.45
343.613	1.54
343.826	28.16
344.038	-14.85
344.25	62.98
344.462	-29.18
344.674	79.36
344.886	85.5
345.099	93.69
345.311	67.07
345.523	-8.7
345.735	3.58
345.947	-12.8
346.159	36.35
346.371	83.45
346.583	-23.04
346.795	19.97
347.007	38.4
347.219	77.31
347.431	22.02
347.643	17.92
347.855	24.06
348.067	48.64
348.279	52.74
348.491	3.58
348.703	69.12
348.915	-4.61
349.127	7.68
349.339	138.75
349.551	11.78
349.763	26.11
349.975	11.78
350.187	36.35
350.399	46.59
350.61	13.82
350.822	52.74
351.034	13.82
351.246	62.98
351.458	34.3
351.669	13.82
351.881	40.45
352.093	58.88
352.305	48.64
352.517	-8.7
352.728	108.03
352.94	24.06
353.152	26.11
353.363	-23.04
353.575	50.69
353.787	-12.8
353.999	5.63
354.21	54.78
354.422	40.45
354.633	40.45
354.845	34.3
355.057	15.87
355.268	17.92
355.48	93.69
355.692	-2.56
355.903	52.74
356.115	46.59
356.326	13.82
356.538	108.03
356.749	11.78
356.961	93.69
357.172	56.83
357.384	-6.66
357.595	75.26
357.807	-12.8
358.018	69.12
358.23	26.11
358.441	38.4
358.653	67.07
358.864	-4.61
359.075	34.3
359.287	44.54
359.498	69.12
359.709	13.82
359.921	42.5
360.132	17.92
360.344	24.06
360.555	17.92
360.766	-39.42
360.977	-10.75
361.189	28.16
361.4	50.69
361.611	15.87
361.823	5.63
362.034	40.45
362.245	-55.81
362.456	38.4
362.667	-10.75
362.879	-27.14
363.09	-10.75
363.301	13.82
363.512	15.87
363.723	-31.23
363.935	28.16
364.146	108.03
364.357	42.5
364.568	42.5
364.779	-2.56
364.99	52.74
365.201	30.21
365.412	126.46
365.623	67.07
365.834	99.84
366.045	11.78
366.256	120.32
366.467	-41.47
366.678	22.02
366.889	-18.94
367.1	-23.04
367.311	5.63
367.522	87.55
367.733	65.02
367.944	42.5
368.155	3.58
368.366	83.45
368.577	-20.99
368.788	46.59
368.999	83.45
369.209	44.54
369.42	52.74
369.631	52.74
369.842	42.5
370.053	48.64
370.264	48.64
370.474	87.55
370.685	112.13
370.896	85.5
371.107	93.69
371.317	3.58
371.528	-6.66
371.739	26.11
371.95	75.26
372.16	60.93
372.371	40.45
372.582	85.5
372.792	101.89
373.003	58.88
373.214	93.69
373.424	-20.99
373.635	62.98
373.846	56.83
374.056	-31.23
374.267	69.12
374.477	69.12
374.688	36.35
374.898	36.35
375.109	110.08
375.319	19.97
375.53	128.51
375.74	28.16
375.951	1.54
376.161	89.6
376.372	58.88
376.582	-12.8
376.793	19.97
377.003	7.68
377.214	34.3
377.424	69.12
377.635	32.26
377.845	-29.18
378.055	28.16
378.266	36.35
378.476	19.97
378.686	34.3
378.897	-29.18
379.107	-8.7
379.317	19.97
379.528	24.06
379.738	85.5
379.948	50.69
380.158	85.5
380.369	13.82
380.579	32.26
380.789	105.98
380.999	32.26
381.21	56.83
381.42	75.26
381.63	-0.51
381.84	62.98
382.05	52.74
382.261	67.07
382.471	-20.99
382.681	34.3
382.891	13.82
383.101	71.17
383.311	9.73
383.521	17.92
383.731	28.16
383.941	89.6
384.151	-25.09
384.361	26.11
384.571	83.45
384.781	34.3
384.991	42.5
385.201	71.17
385.411	85.5
385.621	-76.29
385.831	118.27
386.041	30.21
386.251	-4.61
386.461	7.68
386.671	67.07
386.881	30.21
387.091	1.54
387.301	22.02
387.511	38.4
387.72	67.07
387.93	56.83
388.14	28.16
388.35	62.98
388.56	-39.42
388.769	69.12
388.979	60.93
389.189	60.93
389.399	67.07
389.609	71.17
389.818	81.41
390.028	83.45
390.238	-37.38
390.447	13.82
390.657	87.55
390.867	19.97
391.076	-82.43
391.286	112.13
391.496	38.4
391.705	24.06
391.915	75.26
392.125	26.11
392.334	77.31
392.544	65.02
392.753	30.21
392.963	58.88
393.172	58.88
393.382	15.87
393.591	112.13
393.801	67.07
394.01	101.89
394.22	34.3
394.429	34.3
394.639	89.6
394.848	36.35
395.058	101.89
395.267	40.45
395.477	81.41
395.686	24.06
395.895	40.45
396.105	108.03
396.314	50.69
396.524	-12.8
396.733	30.21
396.942	142.85
397.152	101.89
397.361	140.8
397.57	85.5
397.78	62.98
397.989	85.5
398.198	114.17
398.407	161.28
398.617	62.98
398.826	81.41
399.035	91.65
399.244	19.97
399.453	30.21
399.663	77.31
399.872	144.89
400.081	101.89
400.29	97.79
400.499	58.88
400.708	114.17
400.917	30.21
401.127	93.69
401.336	11.78
401.545	75.26
401.754	44.54
401.963	97.79
402.172	52.74
402.381	146.94
402.59	81.41
402.799	87.55
403.008	118.27
403.217	171.52
403.426	95.74
403.635	71.17
403.844	175.61
404.053	177.66
404.262	83.45
404.471	95.74
404.68	67.07
404.888	134.65
405.097	73.21
405.306	81.41
405.515	79.36
405.724	73.21
405.933	108.03
406.142	91.65
406.35	196.09
406.559	161.28
406.768	155.13
406.977	181.76
407.185	167.42
407.394	151.04
407.603	97.79
407.812	179.71
408.02	257.53
408.229	179.71
408.438	194.05
408.646	218.62
408.855	208.38
409.064	179.71
409.272	175.61
409.481	220.67
409.69	196.09
409.898	196.09
410.107	218.62
410.315	280.06
410.524	148.99
410.733	249.34
410.941	245.24
411.15	314.88
411.358	271.87
411.567	339.45
411.775	294.4
411.984	302.59
412.192	361.98
412.401	327.16
412.609	390.65
412.818	361.98
413.026	333.31
413.234	460.28
413.443	364.03
413.651	402.94
413.86	407.03
414.068	478.71
414.276	488.95
414.485	486.9
414.693	509.43
414.901	527.86
415.11	611.83
415.318	538.1
415.526	546.3
415.734	587.26
415.943	626.17
416.151	591.35
416.359	607.73
416.567	654.84
416.776	632.31
416.984	706.04
417.192	775.67
417.4	867.83
417.608	779.76
417.817	824.82
418.025	828.92
418.233	900.59
418.441	949.75
418.649	867.83
418.857	1015.28
419.065	998.9
419.273	888.31
419.481	1015.28
419.689	1132.01
419.897	1168.88
420.105	1230.32
420.313	1314.28
420.521	1220.08
420.729	1349.1
420.937	1308.14
421.145	1367.53
421.353	1437.16
421.561	1537.51
421.769	1461.74
421.977	1664.49
422.185	1490.41
422.393	1670.63
422.601	1732.07
422.809	1785.32
423.017	1809.89
423.224	1936.87
423.432	1955.3
423.64	1863.14
423.848	2061.79
424.056	2076.13
424.263	2186.72
424.471	2282.97
424.679	2303.45
424.887	2455
425.094	2518.49
425.302	2534.87
425.51	2661.85
425.718	2831.83
425.925	2643.42
426.133	2713.05
426.341	2883.03
426.548	3046.87
426.756	3020.24
426.964	3073.49
427.171	3368.4
427.379	3347.92
427.586	3448.27
427.794	3544.52
428.001	3696.07
428.209	3937.73
428.417	3825.09
428.624	4107.71
428.832	4058.56
429.039	4076.99
429.247	4081.09
429.454	4548.03
429.662	4625.85
429.869	4406.72
430.076	4777.4
430.284	4574.65
430.491	4681.14
430.699	4986.29
430.906	5062.07
431.114	5352.88
431.321	5385.65
431.528	5447.08
431.736	5805.48
431.943	6045.09
432.15	5834.15
432.358	5887.4
432.565	6407.58
432.772	6079.91
432.979	6698.39
433.187	6763.93
433.394	6745.5
433.601	7050.64
433.808	7200.15
434.016	7067.03
434.223	7538.06
434.43	8013.19
434.637	7900.55
434.844	8277.38
435.052	8553.85
435.259	8592.76
435.466	8543.61
435.673	8428.93
435.88	9137.52
436.087	9610.61
436.294	9495.92
436.501	9217.4
436.708	9317.75
436.915	9581.93
437.122	10155.37
437.329	10278.24
437.537	10427.74
437.743	10591.58
437.95	10562.91
438.157	11165.01
438.364	11517.26
438.571	11416.91
438.778	11488.59
438.985	12793.15
439.192	12127.56
439.399	12469.57
439.606	12293.44
439.813	13088.06
440.02	13837.61
440.227	13313.33
440.433	13409.59
440.64	13831.47
440.847	13819.18
441.054	13714.73
441.261	15043.87
441.467	14894.36
441.674	15029.53
441.881	15684.88
442.088	15404.31
442.294	15441.17
442.501	15707.41
442.708	16131.34
442.914	16850.17
443.121	17569.01
443.328	17181.95
443.534	18453.73
443.741	17911.02
443.948	17566.96
444.154	18963.68
444.361	18744.55
444.568	18642.15
444.774	18830.56
444.981	19238.11
445.187	19584.21
445.394	20569.29
445.6	20045.01
445.807	22258.86
446.013	21556.41
446.22	22185.13
446.426	22629.54
446.633	22703.27
446.839	23825.56
447.046	22791.33
447.252	23792.79
447.459	23633.05
447.665	24196.24
447.871	24718.47
448.078	25746.55
448.284	24517.77
448.491	25371.77
448.697	26522.73
448.903	26684.52
449.11	27212.9
449.316	26907.75
449.522	26909.8
449.728	28101.72
449.935	27858.01
450.141	28124.24
450.347	28603.47
450.553	27839.58
450.76	28079.19
450.966	28945.48
451.172	28714.06
451.378	29453.37
451.584	28718.15
451.791	29901.88
451.997	29715.51
452.203	30295.09
452.409	29797.43
452.615	30155.83
452.821	28734.54
453.027	28707.91
453.233	30155.83
453.44	29023.3
453.646	29357.12
453.852	29301.82
454.058	29834.3
454.264	28937.29
454.47	29516.86
454.676	29074.5
454.882	29666.36
455.088	27487.32
455.294	27868.25
455.5	27970.65
455.705	28230.74
455.911	27004
456.117	26477.68
456.323	26381.42
456.529	25099.39
456.735	26207.34
456.941	25451.64
457.147	25105.54
457.352	24470.67
457.558	24112.27
457.764	23964.82
457.97	23682.2
458.176	22914.21
458.381	23307.42
458.587	21855.41
458.793	22111.41
458.999	20782.27
459.204	22353.07
459.41	21619.89
459.616	20094.16
459.821	20059.34
460.027	20169.93
460.233	19789.01
460.438	19016.93
460.644	19143.9
460.85	18017.52
461.055	17890.54
461.261	18089.2
461.466	16526.6
461.672	16053.52
461.878	17138.94
462.083	16127.24
462.289	15838.48
462.494	15312.15
462.7	14810.4
462.905	14454.05
463.111	15166.74
463.316	15009.05
463.522	14648.61
463.727	14755.1
463.932	14726.43
464.138	14714.14
464.343	14708
464.549	14386.47
464.754	14695.71
464.959	14384.42
465.165	14443.81
465.37	13907.24
465.575	13204.79
465.781	14222.63
465.986	13968.68
466.191	13720.88
466.397	13335.86
466.602	12846.4
466.807	13016.38
467.012	13147.45
467.218	13245.75
467.423	12801.34
467.628	12852.54
467.833	13483.31
