Data from USB4F104151__39__11-51-44-727.txt Node

Date: Fri Mar 14 11:51:44 EDT 2025
User: louis
Spectrometer: USB4F10415
Trigger mode: 4
Integration Time (sec): 2.000000E-2
Scans to average: 1
Electric dark correction enabled: true
Nonlinearity correction enabled: false
Boxcar width: 0
XAxis mode: Wavelengths
Number of Pixels in Spectrum: 3648
>>>>>Begin Spectral Data<<<<<
178.204	-102.4
178.424	-102.4
178.644	-102.4
178.864	-167.93
179.084	-139.26
179.304	26.62
179.524	-6.14
179.744	45.06
179.964	49.15
180.184	32.77
180.404	-77.82
180.624	40.96
180.844	18.43
181.064	-75.77
181.283	14.34
181.503	-57.34
181.723	-10.24
181.943	-26.62
182.163	-45.06
182.383	24.58
182.602	-71.68
182.822	18.43
183.042	12.29
183.262	-4.1
183.482	30.72
183.701	-26.62
183.921	-2.05
184.141	-2.05
184.361	49.15
184.58	-14.34
184.8	-98.3
185.02	-53.25
185.239	-10.24
185.459	-65.53
185.679	-2.05
185.898	-43.01
186.118	2.05
186.338	34.82
186.557	4.1
186.777	-30.72
186.997	-63.49
187.216	-26.62
187.436	67.58
187.655	12.29
187.875	20.48
188.095	0
188.314	106.49
188.534	-10.24
188.753	-49.15
188.973	22.53
189.192	18.43
189.412	57.34
189.631	-65.53
189.851	-20.48
190.07	-4.1
190.29	-36.86
190.509	-40.96
190.729	61.44
190.948	16.38
191.168	47.1
191.387	59.39
191.607	14.34
191.826	49.15
192.045	-2.05
192.265	10.24
192.484	2.05
192.704	86.01
192.923	-26.62
193.142	45.06
193.362	-22.53
193.581	22.53
193.8	24.58
194.02	24.58
194.239	20.48
194.458	43.01
194.678	10.24
194.897	22.53
195.116	12.29
195.335	-32.77
195.555	-26.62
195.774	-49.15
195.993	-16.38
196.212	18.43
196.432	-38.91
196.651	-47.1
196.87	-49.15
197.089	4.1
197.308	10.24
197.528	-4.1
197.747	-28.67
197.966	0
198.185	94.21
198.404	32.77
198.623	63.49
198.842	2.05
199.062	-2.05
199.281	-26.62
199.5	16.38
199.719	2.05
199.938	-22.53
200.157	-18.43
200.376	45.06
200.595	-4.1
200.814	-32.77
201.033	38.91
201.252	67.58
201.471	4.1
201.69	-14.34
201.909	90.11
202.128	63.49
202.347	-16.38
202.566	-12.29
202.785	-59.39
203.004	-40.96
203.223	-36.86
203.442	-59.39
203.661	-16.38
203.879	-30.72
204.098	-32.77
204.317	28.67
204.536	-12.29
204.755	49.15
204.974	49.15
205.193	-26.62
205.411	40.96
205.63	22.53
205.849	-34.82
206.068	4.1
206.287	-16.38
206.505	20.48
206.724	8.19
206.943	-77.82
207.162	-65.53
207.381	49.15
207.599	-6.14
207.818	-16.38
208.037	-47.1
208.255	-20.48
208.474	-14.34
208.693	6.14
208.911	38.91
209.13	18.43
209.349	-53.25
209.567	10.24
209.786	0
210.005	-10.24
210.223	6.14
210.442	-47.1
210.661	32.77
210.879	8.19
211.098	0
211.316	-81.92
211.535	30.72
211.753	14.34
211.972	-16.38
212.191	-69.63
212.409	6.14
212.628	-18.43
212.846	-14.34
213.065	-90.11
213.283	-2.05
213.502	-16.38
213.72	10.24
213.938	20.48
214.157	24.58
214.375	16.38
214.594	53.25
214.812	26.62
215.031	38.91
215.249	6.14
215.467	38.91
215.686	83.97
215.904	0
216.122	-45.06
216.341	18.43
216.559	12.29
216.778	0
216.996	22.53
217.214	32.77
217.432	32.77
217.651	-47.1
217.869	-14.34
218.087	-12.29
218.306	-28.67
218.524	-45.06
218.742	-38.91
218.96	10.24
219.179	6.14
219.397	12.29
219.615	30.72
219.833	-53.25
220.051	-59.39
220.27	69.63
220.488	14.34
220.706	77.82
220.924	88.06
221.142	47.1
221.36	-28.67
221.578	-8.19
221.796	-65.53
222.015	-2.05
222.233	-63.49
222.451	8.19
222.669	4.1
222.887	-24.58
223.105	-67.58
223.323	28.67
223.541	-38.91
223.759	-2.05
223.977	40.96
224.195	28.67
224.413	49.15
224.631	-6.14
224.849	-22.53
225.067	32.77
225.285	-12.29
225.503	28.67
225.721	24.58
225.939	28.67
226.157	8.19
226.375	86.01
226.592	-24.58
226.81	0
227.028	63.49
227.246	-10.24
227.464	10.24
227.682	24.58
227.9	-34.82
228.117	-61.44
228.335	18.43
228.553	47.1
228.771	-59.39
228.989	6.14
229.206	-22.53
229.424	28.67
229.642	-12.29
229.86	-22.53
230.077	8.19
230.295	-65.53
230.513	14.34
230.731	20.48
230.948	-22.53
231.166	26.62
231.384	0
231.601	0
231.819	36.86
232.037	-71.68
232.254	-20.48
232.472	34.82
232.689	-4.1
232.907	4.1
233.125	-49.15
233.342	-61.44
233.56	30.72
233.777	-20.48
233.995	16.38
234.213	8.19
234.43	-59.39
234.648	-61.44
234.865	-102.4
235.083	-34.82
235.3	-2.05
235.518	14.34
235.735	22.53
235.953	67.58
236.17	-28.67
236.388	-73.73
236.605	6.14
236.822	-10.24
237.04	24.58
237.257	34.82
237.475	36.86
237.692	-45.06
237.909	-24.58
238.127	8.19
238.344	2.05
238.562	0
238.779	-36.86
238.996	10.24
239.214	10.24
239.431	38.91
239.648	-4.1
239.865	30.72
240.083	30.72
240.3	8.19
240.517	-36.86
240.735	-43.01
240.952	45.06
241.169	34.82
241.386	18.43
241.603	-43.01
241.821	-20.48
242.038	26.62
242.255	6.14
242.472	-2.05
242.689	43.01
242.907	55.3
243.124	-38.91
243.341	-4.1
243.558	-57.34
243.775	-18.43
243.992	-45.06
244.209	6.14
244.426	24.58
244.643	38.91
244.86	-18.43
245.078	-6.14
245.295	-18.43
245.512	83.97
245.729	4.1
245.946	63.49
246.163	-16.38
246.38	-38.91
246.597	-45.06
246.814	-16.38
247.031	2.05
247.248	53.25
247.464	43.01
247.681	8.19
247.898	-16.38
248.115	30.72
248.332	-22.53
248.549	0
248.766	75.77
248.983	47.1
249.2	22.53
249.417	-24.58
249.633	38.91
249.85	18.43
250.067	47.1
250.284	14.34
250.501	12.29
250.717	-45.06
250.934	-16.38
251.151	16.38
251.368	6.14
251.585	92.16
251.801	-18.43
252.018	-55.3
252.235	28.67
252.451	-43.01
252.668	67.58
252.885	92.16
253.102	-6.14
253.318	-55.3
253.535	-2.05
253.752	65.54
253.968	-18.43
254.185	28.67
254.401	83.97
254.618	-57.34
254.835	6.14
255.051	32.77
255.268	43.01
255.484	51.2
255.701	-4.1
255.917	-38.91
256.134	-57.34
256.351	34.82
256.567	-2.05
256.784	-8.19
257	53.25
257.217	65.54
257.433	6.14
257.65	-4.1
257.866	-59.39
258.082	-22.53
258.299	57.34
258.515	26.62
258.732	36.86
258.948	18.43
259.165	6.14
259.381	-28.67
259.597	-38.91
259.814	6.14
260.03	-20.48
260.246	0
260.463	-26.62
260.679	22.53
260.895	-22.53
261.112	-10.24
261.328	14.34
261.544	-61.44
261.761	83.97
261.977	30.72
262.193	26.62
262.409	-24.58
262.626	-61.44
262.842	-51.2
263.058	14.34
263.274	4.1
263.49	81.92
263.707	26.62
263.923	-2.05
264.139	-32.77
264.355	63.49
264.571	-18.43
264.787	92.16
265.004	83.97
265.22	8.19
265.436	51.2
265.652	30.72
265.868	-4.1
266.084	30.72
266.3	12.29
266.516	-6.14
266.732	-14.34
266.948	-47.1
267.164	-51.2
267.38	-2.05
267.596	32.77
267.812	10.24
268.028	77.82
268.244	-40.96
268.46	-14.34
268.676	-16.38
268.892	-22.53
269.108	-61.44
269.324	-59.39
269.54	-71.68
269.756	61.44
269.972	2.05
270.188	-12.29
270.403	-2.05
270.619	10.24
270.835	16.38
271.051	-18.43
271.267	-26.62
271.483	77.82
271.698	-18.43
271.914	36.86
272.13	24.58
272.346	-63.49
272.562	34.82
272.777	59.39
272.993	-10.24
273.209	-32.77
273.425	22.53
273.64	-106.49
273.856	28.67
274.072	-63.49
274.287	-67.58
274.503	40.96
274.719	-2.05
274.934	43.01
275.15	-53.25
275.366	18.43
275.581	-16.38
275.797	51.2
276.012	-24.58
276.228	-12.29
276.444	2.05
276.659	43.01
276.875	-14.34
277.09	6.14
277.306	-8.19
277.521	43.01
277.737	-12.29
277.952	45.06
278.168	40.96
278.383	36.86
278.599	32.77
278.814	-34.82
279.03	-12.29
279.245	32.77
279.461	32.77
279.676	-18.43
279.892	34.82
280.107	-20.48
280.322	-22.53
280.538	4.1
280.753	-6.14
280.969	22.53
281.184	-32.77
281.399	34.82
281.615	120.83
281.83	-30.72
282.045	-30.72
282.26	-20.48
282.476	96.25
282.691	0
282.906	53.25
283.122	-16.38
283.337	63.49
283.552	75.77
283.767	-61.44
283.983	-28.67
284.198	4.1
284.413	30.72
284.628	-10.24
284.843	16.38
285.058	-61.44
285.274	-67.58
285.489	-45.06
285.704	47.1
285.919	-106.49
286.134	-43.01
286.349	2.05
286.564	57.34
286.779	2.05
286.995	-12.29
287.21	-26.62
287.425	14.34
287.64	-16.38
287.855	12.29
288.07	-47.1
288.285	-18.43
288.5	14.34
288.715	67.58
288.93	92.16
289.145	-20.48
289.36	36.86
289.575	-47.1
289.79	14.34
290.004	-22.53
290.219	-22.53
290.434	32.77
290.649	-69.63
290.864	45.06
291.079	65.54
291.294	-55.3
291.509	-4.1
291.724	0
291.938	10.24
292.153	81.92
292.368	10.24
292.583	20.48
292.798	43.01
293.012	88.06
293.227	-22.53
293.442	-38.91
293.657	-57.34
293.871	38.91
294.086	-10.24
294.301	47.1
294.516	100.35
294.73	24.58
294.945	0
295.16	-24.58
295.374	-20.48
295.589	-45.06
295.804	-30.72
296.018	53.25
296.233	-4.1
296.447	10.24
296.662	-26.62
296.877	18.43
297.091	-8.19
297.306	-110.59
297.52	-36.86
297.735	40.96
297.949	8.19
298.164	8.19
298.378	-30.72
298.593	-12.29
298.807	-32.77
299.022	32.77
299.236	20.48
299.451	32.77
299.665	38.91
299.88	24.58
300.094	30.72
300.309	40.96
300.523	28.67
300.737	-53.25
300.952	36.86
301.166	57.34
301.381	-38.91
301.595	6.14
301.809	-8.19
302.024	-14.34
302.238	-63.49
302.452	-6.14
302.667	8.19
302.881	2.05
303.095	-65.53
303.309	22.53
303.524	-100.35
303.738	-22.53
303.952	-32.77
304.166	26.62
304.381	-51.2
304.595	77.82
304.809	-86.01
305.023	67.58
305.237	-6.14
305.452	-30.72
305.666	14.34
305.88	12.29
306.094	36.86
306.308	6.14
306.522	10.24
306.736	0
306.95	-40.96
307.164	16.38
307.379	-43.01
307.593	94.21
307.807	-38.91
308.021	-20.48
308.235	30.72
308.449	18.43
308.663	-40.96
308.877	118.78
309.091	6.14
309.305	8.19
309.519	-53.25
309.733	-6.14
309.947	67.58
310.161	-59.39
310.374	-18.43
310.588	61.44
310.802	14.34
311.016	67.58
311.23	32.77
311.444	83.97
311.658	-28.67
311.872	-16.38
312.085	45.06
312.299	36.86
312.513	75.77
312.727	-18.43
312.941	-22.53
313.154	90.11
313.368	-45.06
313.582	73.73
313.796	16.38
314.009	49.15
314.223	-2.05
314.437	22.53
314.651	-6.14
314.864	-18.43
315.078	12.29
315.292	-110.59
315.505	-4.1
315.719	18.43
315.933	-47.1
316.146	-6.14
316.36	4.1
316.573	0
316.787	30.72
317.001	-71.68
317.214	49.15
317.428	2.05
317.641	6.14
317.855	10.24
318.068	20.48
318.282	-4.1
318.495	98.3
318.709	-45.06
318.922	26.62
319.136	-100.35
319.349	-8.19
319.563	12.29
319.776	-30.72
319.99	-22.53
320.203	16.38
320.417	-12.29
320.63	-2.05
320.843	30.72
321.057	47.1
321.27	14.34
321.483	4.1
321.697	34.82
321.91	57.34
322.124	22.53
322.337	12.29
322.55	-24.58
322.763	-10.24
322.977	-16.38
323.19	-57.34
323.403	-12.29
323.617	-36.86
323.83	67.58
324.043	75.77
324.256	-36.86
324.469	-49.15
324.683	49.15
324.896	-59.39
325.109	73.73
325.322	-34.82
325.535	26.62
325.748	-75.77
325.962	18.43
326.175	69.63
326.388	26.62
326.601	30.72
326.814	32.77
327.027	32.77
327.24	67.58
327.453	2.05
327.666	0
327.879	18.43
328.092	14.34
328.305	36.86
328.518	30.72
328.731	-47.1
328.944	-6.14
329.157	30.72
329.37	-18.43
329.583	75.77
329.796	53.25
330.009	20.48
330.222	-18.43
330.435	4.1
330.648	69.63
330.861	12.29
331.073	20.48
331.286	-8.19
331.499	-2.05
331.712	16.38
331.925	-59.39
332.138	-14.34
332.35	55.3
332.563	8.19
332.776	6.14
332.989	-2.05
333.202	14.34
333.414	38.91
333.627	4.1
333.84	45.06
334.053	16.38
334.265	-32.77
334.478	-79.87
334.691	49.15
334.903	-14.34
335.116	24.58
335.329	22.53
335.541	-12.29
335.754	12.29
335.966	-49.15
336.179	28.67
336.392	-96.25
336.604	-8.19
336.817	49.15
337.029	34.82
337.242	6.14
337.454	0
337.667	-2.05
337.88	4.1
338.092	-22.53
338.305	36.86
338.517	-2.05
338.729	10.24
338.942	86.01
339.154	22.53
339.367	-34.82
339.579	-51.2
339.792	22.53
340.004	34.82
340.217	14.34
340.429	83.97
340.641	-18.43
340.854	-14.34
341.066	2.05
341.278	34.82
341.491	73.73
341.703	83.97
341.915	6.14
342.128	63.49
342.34	-34.82
342.552	-38.91
342.764	6.14
342.977	18.43
343.189	6.14
343.401	88.06
343.613	-51.2
343.826	-2.05
344.038	34.82
344.25	30.72
344.462	-45.06
344.674	45.06
344.886	22.53
345.099	61.44
345.311	-40.96
345.523	-28.67
345.735	6.14
345.947	-6.14
346.159	-22.53
346.371	-8.19
346.583	47.1
346.795	77.82
347.007	18.43
347.219	20.48
347.431	-36.86
347.643	24.58
347.855	-6.14
348.067	28.67
348.279	-38.91
348.491	73.73
348.703	22.53
348.915	4.1
349.127	2.05
349.339	63.49
349.551	55.3
349.763	-20.48
349.975	96.25
350.187	49.15
350.399	47.1
350.61	14.34
350.822	0
351.034	67.58
351.246	-8.19
351.458	51.2
351.669	36.86
351.881	-24.58
352.093	8.19
352.305	83.97
352.517	26.62
352.728	47.1
352.94	34.82
353.152	59.39
353.363	14.34
353.575	47.1
353.787	67.58
353.999	16.38
354.21	22.53
354.422	-16.38
354.633	-6.14
354.845	24.58
355.057	34.82
355.268	-6.14
355.48	-8.19
355.692	-81.92
355.903	-30.72
356.115	51.2
356.326	0
356.538	24.58
356.749	51.2
356.961	114.69
357.172	49.15
357.384	-28.67
357.595	98.3
357.807	-4.1
358.018	10.24
358.23	10.24
358.441	22.53
358.653	4.1
358.864	-18.43
359.075	16.38
359.287	20.48
359.498	-22.53
359.709	-4.1
359.921	32.77
360.132	40.96
360.344	69.63
360.555	-20.48
360.766	36.86
360.977	-43.01
361.189	45.06
361.4	-16.38
361.611	6.14
361.823	73.73
362.034	18.43
362.245	-18.43
362.456	69.63
362.667	16.38
362.879	28.67
363.09	28.67
363.301	-16.38
363.512	34.82
363.723	24.58
363.935	55.3
364.146	92.16
364.357	-26.62
364.568	16.38
364.779	55.3
364.99	24.58
365.201	-86.01
365.412	16.38
365.623	4.1
365.834	-20.48
366.045	-32.77
366.256	40.96
366.467	-28.67
366.678	14.34
366.889	32.77
367.1	-6.14
367.311	63.49
367.522	8.19
367.733	67.58
367.944	8.19
368.155	45.06
368.366	110.59
368.577	-40.96
368.788	47.1
368.999	-24.58
369.209	-49.15
369.42	178.17
369.631	47.1
369.842	88.06
370.053	-20.48
370.264	63.49
370.474	65.54
370.685	53.25
370.896	-2.05
371.107	2.05
371.317	-22.53
371.528	6.14
371.739	-45.06
371.95	0
372.16	28.67
372.371	81.92
372.582	75.77
372.792	0
373.003	36.86
373.214	26.62
373.424	90.11
373.635	51.2
373.846	34.82
374.056	-28.67
374.267	71.68
374.477	-90.11
374.688	24.58
374.898	34.82
375.109	-14.34
375.319	73.73
375.53	55.3
375.74	6.14
375.951	14.34
376.161	55.3
376.372	59.39
376.582	32.77
376.793	-20.48
377.003	-20.48
377.214	-12.29
377.424	38.91
377.635	20.48
377.845	75.77
378.055	40.96
378.266	-20.48
378.476	-22.53
378.686	4.1
378.897	24.58
379.107	22.53
379.317	4.1
379.528	-49.15
379.738	12.29
379.948	45.06
380.158	32.77
380.369	24.58
380.579	22.53
380.789	86.01
380.999	75.77
381.21	-26.62
381.42	67.58
381.63	75.77
381.84	2.05
382.05	12.29
382.261	-4.1
382.471	77.82
382.681	-88.06
382.891	34.82
383.101	28.67
383.311	-10.24
383.521	2.05
383.731	-10.24
383.941	59.39
384.151	40.96
384.361	79.87
384.571	81.92
384.781	92.16
384.991	75.77
385.201	12.29
385.411	30.72
385.621	73.73
385.831	14.34
386.041	55.3
386.251	-34.82
386.461	40.96
386.671	26.62
386.881	-10.24
387.091	14.34
387.301	-22.53
387.511	38.91
387.72	36.86
387.93	61.44
388.14	4.1
388.35	10.24
388.56	8.19
388.769	-73.73
388.979	90.11
389.189	-53.25
389.399	-36.86
389.609	-4.1
389.818	94.21
390.028	-34.82
390.238	10.24
390.447	-24.58
390.657	69.63
390.867	24.58
391.076	90.11
391.286	73.73
391.496	118.78
391.705	69.63
391.915	69.63
392.125	65.54
392.334	-36.86
392.544	75.77
392.753	6.14
392.963	-12.29
393.172	79.87
393.382	45.06
393.591	-6.14
393.801	53.25
394.01	67.58
394.22	81.92
394.429	59.39
394.639	10.24
394.848	34.82
395.058	77.82
395.267	51.2
395.477	59.39
395.686	77.82
395.895	40.96
396.105	69.63
396.314	108.54
396.524	98.3
396.733	47.1
396.942	45.06
397.152	61.44
397.361	96.25
397.57	40.96
397.78	102.4
397.989	124.93
398.198	12.29
398.407	-6.14
398.617	88.06
398.826	65.54
399.035	108.54
399.244	28.67
399.453	51.2
399.663	67.58
399.872	104.45
400.081	102.4
400.29	167.93
400.499	104.45
400.708	77.82
400.917	79.87
401.127	131.07
401.336	65.54
401.545	118.78
401.754	22.53
401.963	116.73
402.172	83.97
402.381	92.16
402.59	63.49
402.799	108.54
403.008	59.39
403.217	163.84
403.426	120.83
403.635	51.2
403.844	63.49
404.053	102.4
404.262	169.98
404.471	108.54
404.68	137.21
404.888	180.22
405.097	88.06
405.306	124.93
405.515	157.69
405.724	65.54
405.933	217.08
406.142	143.36
406.35	137.21
406.559	151.55
406.768	188.41
406.977	178.17
407.185	137.21
407.394	163.84
407.603	131.07
407.812	172.03
408.02	190.46
408.229	143.36
408.438	137.21
408.646	182.27
408.855	145.41
409.064	249.85
409.272	247.8
409.481	233.47
409.69	231.42
409.898	219.13
410.107	268.28
410.315	307.2
410.524	227.32
410.733	284.67
410.941	348.15
411.15	315.39
411.358	382.97
411.567	325.63
411.775	333.82
411.984	305.15
412.192	417.79
412.401	368.63
412.609	425.98
412.818	428.03
413.026	452.6
413.234	475.13
413.443	458.75
413.651	411.64
413.86	491.51
414.068	528.38
414.276	522.23
414.485	567.29
414.693	636.92
414.901	634.87
415.11	610.29
415.318	595.96
415.526	643.06
415.734	641.01
415.943	673.78
416.151	827.38
416.359	722.93
416.567	706.55
416.776	737.27
416.984	831.48
417.192	978.93
417.4	845.81
417.608	854
417.817	946.16
418.025	960.5
418.233	950.26
418.441	993.26
418.649	1091.57
418.857	1105.9
419.065	1183.73
419.273	1183.73
419.481	1122.29
419.689	1271.79
419.897	1388.52
420.105	1322.99
420.313	1441.77
420.521	1406.95
420.729	1486.83
420.937	1538.02
421.145	1589.22
421.353	1691.62
421.561	1705.96
421.769	1693.67
421.977	1951.71
422.185	1810.4
422.393	2007.01
422.601	1986.53
422.809	2119.65
423.017	2117.6
423.224	2140.13
423.432	2222.05
423.64	2299.87
423.848	2461.66
424.056	2336.73
424.263	2516.95
424.471	2648.02
424.679	2547.67
424.887	2719.7
425.094	2856.92
425.302	2977.75
425.51	3063.76
425.718	3114.96
425.925	3186.64
426.133	3164.11
426.341	3469.26
426.548	3583.95
426.756	3590.09
426.964	3651.53
427.171	3760.07
427.379	3966.92
427.586	3928
427.794	3975.11
428.001	4315.07
428.209	4323.26
428.417	4351.93
428.624	4739
428.832	4786.1
429.039	4745.14
429.247	4630.46
429.454	5101.49
429.662	5478.32
429.869	5115.83
430.076	5496.75
430.284	5357.49
430.491	5576.62
430.699	5877.67
430.906	6018.98
431.114	5869.48
431.321	6287.26
431.528	6277.02
431.736	6571.93
431.943	7018.39
432.15	6725.53
432.358	7008.15
432.565	7157.65
432.772	7268.24
432.979	7587.72
433.187	7663.5
433.394	7649.16
433.601	8392.58
433.808	8460.16
434.016	8230.79
434.223	8531.84
434.43	9152.37
434.637	9035.64
434.844	9434.99
435.052	9482.1
435.259	9553.77
435.466	9789.29
435.673	9680.75
435.88	10329.95
436.087	10936.15
436.294	10856.28
436.501	10579.81
436.708	10921.82
436.915	11267.92
437.122	11845.45
437.329	11452.24
437.537	12136.26
437.743	12238.66
437.95	12302.15
438.157	12805.95
438.364	13174.58
438.571	13451.06
438.778	13406
438.985	14444.32
439.192	13934.38
439.399	14495.52
439.606	14038.83
439.813	15114.01
440.02	15841.04
440.227	15427.35
440.433	15324.95
440.64	15927.05
440.847	15851.28
441.054	16084.75
441.261	17090.3
441.467	17055.48
441.674	17299.19
441.881	18181.87
442.088	17954.54
442.294	17704.69
442.501	18314.98
442.708	18695.91
442.914	19255
443.121	20264.65
443.328	19920.59
443.534	21102.27
443.741	20405.96
443.948	20188.88
444.154	21630.65
444.361	21491.38
444.568	21851.83
444.774	21630.65
444.981	21739.19
445.187	22881.95
445.394	23465.63
445.6	23031.46
445.807	25419.39
446.013	24217.23
446.22	24848
446.426	25685.62
446.633	26093.17
446.839	26904.17
447.046	25738.87
447.252	27225.7
447.459	27102.82
447.665	27031.14
447.871	28460.62
448.078	29609.53
448.284	27919.96
448.491	28870.22
448.697	30172.72
448.903	30477.87
449.11	30443.06
449.316	30459.44
449.522	30729.77
449.728	31475.23
449.935	31419.94
450.141	31854.11
450.347	32318.99
450.553	31608.35
450.76	31686.17
450.966	33142.28
451.172	32433.68
451.378	33220.1
451.584	32198.16
451.791	33254.92
451.997	33127.94
452.203	33826.3
452.409	34033.14
452.615	33783.29
452.821	32456.21
453.027	32044.57
453.233	33895.93
453.44	32247.32
453.646	32763.4
453.852	32919.05
454.058	33578.5
454.264	32718.35
454.47	33228.29
454.676	32308.75
454.882	33375.75
455.088	29982.26
455.294	31014.44
455.5	31276.58
455.705	31811.1
455.911	30494.25
456.117	29734.46
456.323	29441.6
456.529	28190.29
456.735	29011.53
456.941	28462.67
457.147	28157.52
457.352	27084.39
457.558	26625.64
457.764	27051.62
457.97	26134.13
458.176	25757.3
458.381	25718.39
458.587	24344.2
458.793	24481.42
458.999	23092.9
459.204	24891.01
459.41	24080.02
459.616	22394.54
459.821	22650.53
460.027	22814.37
460.233	22169.26
460.438	21102.27
460.644	21257.92
460.85	20012.75
461.055	19885.78
461.261	19723.99
461.466	18409.19
461.672	17790.7
461.878	19066.59
462.083	17786.61
462.289	17436.41
462.494	17362.68
462.7	16566.02
462.905	15929.1
463.111	16801.54
463.316	17035
463.522	16185.1
463.727	16604.93
463.932	16396.04
464.138	16318.21
464.343	16230.15
464.549	15789.84
464.754	16283.4
464.959	16117.51
465.165	16400.13
465.37	15345.43
465.575	14878.49
465.781	15642.39
465.986	15752.98
466.191	15367.96
466.397	14802.72
466.602	14026.54
466.807	14755.61
467.012	14429.99
467.218	14296.87
467.423	14423.84
