Data from USB4F104151__34__11-51-39-748.txt Node

Date: Fri Mar 14 11:51:39 EDT 2025
User: louis
Spectrometer: USB4F10415
Trigger mode: 4
Integration Time (sec): 2.000000E-2
Scans to average: 1
Electric dark correction enabled: true
Nonlinearity correction enabled: false
Boxcar width: 0
XAxis mode: Wavelengths
Number of Pixels in Spectrum: 3648
>>>>>Begin Spectral Data<<<<<
178.204	-49.32
178.424	-49.32
178.644	-49.32
178.864	-49.32
179.084	-75.95
179.304	55.12
179.524	20.31
179.744	-69.8
179.964	14.17
180.184	22.36
180.404	8.02
180.624	-10.41
180.844	-43.18
181.064	-37.03
181.283	42.84
181.503	-65.71
181.723	63.32
181.943	-49.32
182.163	32.6
182.383	22.36
182.602	85.84
182.822	-22.7
183.042	55.12
183.262	-18.6
183.482	16.21
183.701	-26.79
183.921	8.02
184.141	-18.6
184.361	-6.31
184.58	14.17
184.8	-37.03
185.02	-14.51
185.239	-0.17
185.459	32.6
185.679	1.88
185.898	-32.94
186.118	40.79
186.338	-4.27
186.557	22.36
186.777	75.6
186.997	55.12
187.216	20.31
187.436	106.32
187.655	22.36
187.875	73.56
188.095	-22.7
188.314	22.36
188.534	-6.31
188.753	-10.41
188.973	85.84
189.192	-18.6
189.412	1.88
189.631	-18.6
189.851	38.74
190.07	12.12
190.29	-32.94
190.509	-39.08
190.729	-34.99
190.948	-2.22
191.168	112.47
191.387	10.07
191.607	-8.36
191.826	-26.79
192.045	5.97
192.265	-26.79
192.484	98.13
192.704	20.31
192.923	5.97
193.142	38.74
193.362	5.97
193.581	44.88
193.8	22.36
194.02	118.61
194.239	85.84
194.458	30.55
194.678	12.12
194.897	-6.31
195.116	57.17
195.335	94.04
195.555	3.93
195.774	59.22
195.993	36.69
196.212	18.26
196.432	12.12
196.651	38.74
196.87	8.02
197.089	22.36
197.308	20.31
197.528	110.42
197.747	-20.65
197.966	-16.55
198.185	20.31
198.404	18.26
198.623	-28.84
198.842	73.56
199.062	38.74
199.281	40.79
199.5	32.6
199.719	26.45
199.938	28.5
200.157	85.84
200.376	59.22
200.595	96.08
200.814	-8.36
201.033	83.8
201.252	36.69
201.471	-57.51
201.69	-6.31
201.909	-2.22
202.128	91.99
202.347	5.97
202.566	24.4
202.785	-43.18
203.004	5.97
203.223	46.93
203.442	-51.37
203.661	44.88
203.879	38.74
204.098	12.12
204.317	-41.13
204.536	61.27
204.755	-26.79
204.974	69.46
205.193	36.69
205.411	98.13
205.63	51.03
205.849	-0.17
206.068	67.41
206.287	-14.51
206.505	67.41
206.724	91.99
206.943	-16.55
207.162	32.6
207.381	42.84
207.599	5.97
207.818	-6.31
208.037	-6.31
208.255	30.55
208.474	44.88
208.693	20.31
208.911	-61.61
209.13	65.36
209.349	-37.03
209.567	-18.6
209.786	28.5
210.005	-6.31
210.223	-63.66
210.442	16.21
210.661	22.36
210.879	51.03
211.098	-43.18
211.316	20.31
211.535	71.51
211.753	-82.09
211.972	12.12
212.191	42.84
212.409	1.88
212.628	57.17
212.846	-0.17
213.065	-12.46
213.283	75.6
213.502	-28.84
213.72	34.64
213.938	59.22
214.157	22.36
214.375	48.98
214.594	-18.6
214.812	-8.36
215.031	8.02
215.249	55.12
215.467	-24.75
215.686	14.17
215.904	71.51
216.122	42.84
216.341	-37.03
216.559	22.36
216.778	34.64
216.996	75.6
217.214	3.93
217.432	32.6
217.651	108.37
217.869	-20.65
218.087	77.65
218.306	14.17
218.524	-10.41
218.742	34.64
218.96	89.94
219.179	38.74
219.397	48.98
219.615	59.22
219.833	14.17
220.051	48.98
220.27	110.42
220.488	69.46
220.706	57.17
220.924	36.69
221.142	8.02
221.36	24.4
221.578	79.7
221.796	1.88
222.015	59.22
222.233	32.6
222.451	18.26
222.669	3.93
222.887	53.08
223.105	-34.99
223.323	53.08
223.541	5.97
223.759	42.84
223.977	38.74
224.195	40.79
224.413	-30.89
224.631	-8.36
224.849	38.74
225.067	48.98
225.285	75.6
225.503	24.4
225.721	-2.22
225.939	10.07
226.157	108.37
226.375	14.17
226.592	-4.27
226.81	20.31
227.028	22.36
227.246	34.64
227.464	16.21
227.682	67.41
227.9	91.99
228.117	-26.79
228.335	57.17
228.553	40.79
228.771	24.4
228.989	65.36
229.206	55.12
229.424	34.64
229.642	-53.42
229.86	44.88
230.077	51.03
230.295	-4.27
230.513	83.8
230.731	83.8
230.948	-8.36
231.166	85.84
231.384	24.4
231.601	79.7
231.819	98.13
232.037	-14.51
232.254	-32.94
232.472	10.07
232.689	22.36
232.907	26.45
233.125	108.37
233.342	69.46
233.56	-32.94
233.777	-26.79
233.995	34.64
234.213	102.23
234.43	61.27
234.648	36.69
234.865	51.03
235.083	28.5
235.3	24.4
235.518	32.6
235.735	116.56
235.953	18.26
236.17	51.03
236.388	71.51
236.605	5.97
236.822	20.31
237.04	48.98
237.257	51.03
237.475	22.36
237.692	180.05
237.909	5.97
238.127	-2.22
238.344	-28.84
238.562	83.8
238.779	16.21
238.996	-8.36
239.214	53.08
239.431	46.93
239.648	44.88
239.865	77.65
240.083	100.18
240.3	73.56
240.517	3.93
240.735	18.26
240.952	145.24
241.169	57.17
241.386	75.6
241.603	96.08
241.821	16.21
242.038	5.97
242.255	10.07
242.472	20.31
242.689	61.27
242.907	38.74
243.124	32.6
243.341	122.71
243.558	34.64
243.775	40.79
243.992	12.12
244.209	51.03
244.426	-32.94
244.643	-12.46
244.86	-51.37
245.078	46.93
245.295	71.51
245.512	24.4
245.729	34.64
245.946	12.12
246.163	26.45
246.38	65.36
246.597	-37.03
246.814	28.5
247.031	-8.36
247.248	53.08
247.464	-30.89
247.681	91.99
247.898	46.93
248.115	-4.27
248.332	-22.7
248.549	18.26
248.766	40.79
248.983	55.12
249.2	38.74
249.417	96.08
249.633	5.97
249.85	-37.03
250.067	32.6
250.284	85.84
250.501	77.65
250.717	53.08
250.934	44.88
251.151	-18.6
251.368	5.97
251.585	-10.41
251.801	77.65
252.018	48.98
252.235	59.22
252.451	40.79
252.668	-65.71
252.885	30.55
253.102	18.26
253.318	42.84
253.535	5.97
253.752	79.7
253.968	8.02
254.185	20.31
254.401	-2.22
254.618	69.46
254.835	46.93
255.051	106.32
255.268	59.22
255.484	14.17
255.701	34.64
255.917	-2.22
256.134	-24.75
256.351	55.12
256.567	10.07
256.784	102.23
257	36.69
257.217	96.08
257.433	34.64
257.65	-12.46
257.866	14.17
258.082	32.6
258.299	-16.55
258.515	-26.79
258.732	38.74
258.948	1.88
259.165	87.89
259.381	32.6
259.597	8.02
259.814	22.36
260.03	8.02
260.246	-4.27
260.463	61.27
260.679	32.6
260.895	12.12
261.112	12.12
261.328	-10.41
261.544	46.93
261.761	81.75
261.977	69.46
262.193	-41.13
262.409	38.74
262.626	1.88
262.842	94.04
263.058	34.64
263.274	102.23
263.49	22.36
263.707	-4.27
263.923	46.93
264.139	-12.46
264.355	20.31
264.571	51.03
264.787	81.75
265.004	36.69
265.22	-61.61
265.436	57.17
265.652	40.79
265.868	14.17
266.084	8.02
266.3	10.07
266.516	-12.46
266.732	-0.17
266.948	12.12
267.164	38.74
267.38	63.32
267.596	-37.03
267.812	114.52
268.028	38.74
268.244	-14.51
268.46	26.45
268.676	-37.03
268.892	69.46
269.108	8.02
269.324	-10.41
269.54	73.56
269.756	44.88
269.972	98.13
270.188	53.08
270.403	32.6
270.619	22.36
270.835	-16.55
271.051	77.65
271.267	53.08
271.483	16.21
271.698	55.12
271.914	38.74
272.13	-14.51
272.346	63.32
272.562	57.17
272.777	61.27
272.993	36.69
273.209	10.07
273.425	26.45
273.64	48.98
273.856	-57.51
274.072	53.08
274.287	-2.22
274.503	16.21
274.719	40.79
274.934	65.36
275.15	5.97
275.366	-10.41
275.581	-16.55
275.797	14.17
276.012	32.6
276.228	-32.94
276.444	-12.46
276.659	5.97
276.875	16.21
277.09	65.36
277.306	-6.31
277.521	18.26
277.737	-43.18
277.952	55.12
278.168	38.74
278.383	-26.79
278.599	57.17
278.814	18.26
279.03	26.45
279.245	36.69
279.461	75.6
279.676	46.93
279.892	-0.17
280.107	34.64
280.322	122.71
280.538	67.41
280.753	-20.65
280.969	3.93
281.184	48.98
281.399	32.6
281.615	73.56
281.83	57.17
282.045	-10.41
282.26	48.98
282.476	-24.75
282.691	100.18
282.906	-45.23
283.122	24.4
283.337	30.55
283.552	79.7
283.767	14.17
283.983	61.27
284.198	44.88
284.413	89.94
284.628	-14.51
284.843	46.93
285.058	118.61
285.274	98.13
285.489	-51.37
285.704	38.74
285.919	-18.6
286.134	12.12
286.349	5.97
286.564	61.27
286.779	26.45
286.995	61.27
287.21	-30.89
287.425	51.03
287.64	42.84
287.855	12.12
288.07	-6.31
288.285	104.28
288.5	51.03
288.715	16.21
288.93	51.03
289.145	40.79
289.36	65.36
289.575	40.79
289.79	34.64
290.004	-14.51
290.219	22.36
290.434	124.76
290.649	34.64
290.864	106.32
291.079	57.17
291.294	32.6
291.509	-57.51
291.724	63.32
291.938	-20.65
292.153	110.42
292.368	3.93
292.583	55.12
292.798	5.97
293.012	94.04
293.227	10.07
293.442	38.74
293.657	87.89
293.871	71.51
294.086	-4.27
294.301	81.75
294.516	63.32
294.73	53.08
294.945	-18.6
295.16	28.5
295.374	-47.27
295.589	130.9
295.804	12.12
296.018	85.84
296.233	83.8
296.447	46.93
296.662	51.03
296.877	94.04
297.091	30.55
297.306	24.4
297.52	-0.17
297.735	46.93
297.949	10.07
298.164	28.5
298.378	83.8
298.593	-0.17
298.807	63.32
299.022	8.02
299.236	53.08
299.451	14.17
299.665	57.17
299.88	24.4
300.094	16.21
300.309	55.12
300.523	53.08
300.737	73.56
300.952	-0.17
301.166	5.97
301.381	-28.84
301.595	51.03
301.809	57.17
302.024	-14.51
302.238	53.08
302.452	96.08
302.667	20.31
302.881	-4.27
303.095	5.97
303.309	-32.94
303.524	91.99
303.738	42.84
303.952	22.36
304.166	51.03
304.381	28.5
304.595	16.21
304.809	28.5
305.023	44.88
305.237	32.6
305.452	104.28
305.666	-30.89
305.88	10.07
306.094	16.21
306.308	75.6
306.522	5.97
306.736	85.84
306.95	83.8
307.164	75.6
307.379	34.64
307.593	85.84
307.807	30.55
308.021	5.97
308.235	53.08
308.449	-37.03
308.663	-10.41
308.877	83.8
309.091	51.03
309.305	48.98
309.519	34.64
309.733	5.97
309.947	-18.6
310.161	89.94
310.374	-10.41
310.588	112.47
310.802	65.36
311.016	81.75
311.23	44.88
311.444	20.31
311.658	87.89
311.872	83.8
312.085	55.12
312.299	12.12
312.513	63.32
312.727	59.22
312.941	77.65
313.154	16.21
313.368	128.85
313.582	18.26
313.796	67.41
314.009	42.84
314.223	8.02
314.437	3.93
314.651	-22.7
314.864	59.22
315.078	48.98
315.292	3.93
315.505	48.98
315.719	38.74
315.933	44.88
316.146	20.31
316.36	-2.22
316.573	59.22
316.787	157.52
317.001	26.45
317.214	26.45
317.428	67.41
317.641	26.45
317.855	91.99
318.068	57.17
318.282	20.31
318.495	20.31
318.709	22.36
318.922	-18.6
319.136	128.85
319.349	98.13
319.563	20.31
319.776	3.93
319.99	73.56
320.203	40.79
320.417	28.5
320.63	18.26
320.843	122.71
321.057	-43.18
321.27	-6.31
321.483	69.46
321.697	67.41
321.91	12.12
322.124	36.69
322.337	48.98
322.55	38.74
322.763	-6.31
322.977	5.97
323.19	12.12
323.403	89.94
323.617	87.89
323.83	20.31
324.043	96.08
324.256	104.28
324.469	44.88
324.683	16.21
324.896	106.32
325.109	-4.27
325.322	34.64
325.535	132.95
325.748	20.31
325.962	22.36
326.175	3.93
326.388	61.27
326.601	98.13
326.814	16.21
327.027	102.23
327.24	102.23
327.453	40.79
327.666	34.64
327.879	102.23
328.092	38.74
328.305	-4.27
328.518	28.5
328.731	5.97
328.944	63.32
329.157	73.56
329.37	20.31
329.583	42.84
329.796	63.32
330.009	-10.41
330.222	-22.7
330.435	12.12
330.648	53.08
330.861	44.88
331.073	34.64
331.286	-37.03
331.499	79.7
331.712	51.03
331.925	26.45
332.138	38.74
332.35	57.17
332.563	-43.18
332.776	63.32
332.989	63.32
333.202	20.31
333.414	48.98
333.627	-8.36
333.84	51.03
334.053	8.02
334.265	48.98
334.478	94.04
334.691	-24.75
334.903	28.5
335.116	8.02
335.329	22.36
335.541	63.32
335.754	57.17
335.966	-10.41
336.179	51.03
336.392	3.93
336.604	110.42
336.817	42.84
337.029	69.46
337.242	98.13
337.454	67.41
337.667	-6.31
337.88	51.03
338.092	36.69
338.305	40.79
338.517	59.22
338.729	73.56
338.942	67.41
339.154	28.5
339.367	40.79
339.579	91.99
339.792	-32.94
340.004	-0.17
340.217	5.97
340.429	122.71
340.641	63.32
340.854	5.97
341.066	1.88
341.278	48.98
341.491	-0.17
341.703	26.45
341.915	75.6
342.128	87.89
342.34	-4.27
342.552	-0.17
342.764	55.12
342.977	20.31
343.189	22.36
343.401	96.08
343.613	-20.65
343.826	14.17
344.038	-6.31
344.25	48.98
344.462	-14.51
344.674	-24.75
344.886	18.26
345.099	28.5
345.311	106.32
345.523	-4.27
345.735	71.51
345.947	67.41
346.159	55.12
346.371	42.84
346.583	22.36
346.795	42.84
347.007	85.84
347.219	-22.7
347.431	5.97
347.643	69.46
347.855	16.21
348.067	89.94
348.279	28.5
348.491	40.79
348.703	38.74
348.915	10.07
349.127	16.21
349.339	42.84
349.551	-49.32
349.763	42.84
349.975	44.88
350.187	67.41
350.399	22.36
350.61	51.03
350.822	18.26
351.034	77.65
351.246	83.8
351.458	63.32
351.669	44.88
351.881	85.84
352.093	59.22
352.305	153.43
352.517	91.99
352.728	61.27
352.94	55.12
353.152	67.41
353.363	28.5
353.575	42.84
353.787	57.17
353.999	38.74
354.21	77.65
354.422	8.02
354.633	1.88
354.845	-16.55
355.057	110.42
355.268	24.4
355.48	46.93
355.692	85.84
355.903	10.07
356.115	34.64
356.326	-30.89
356.538	48.98
356.749	75.6
356.961	59.22
357.172	77.65
357.384	55.12
357.595	91.99
357.807	55.12
358.018	75.6
358.23	46.93
358.441	63.32
358.653	24.4
358.864	65.36
359.075	118.61
359.287	32.6
359.498	96.08
359.709	-10.41
359.921	28.5
360.132	51.03
360.344	30.55
360.555	8.02
360.766	8.02
360.977	38.74
361.189	124.76
361.4	16.21
361.611	53.08
361.823	10.07
362.034	5.97
362.245	5.97
362.456	16.21
362.667	73.56
362.879	36.69
363.09	28.5
363.301	12.12
363.512	59.22
363.723	81.75
363.935	51.03
364.146	102.23
364.357	83.8
364.568	5.97
364.779	-16.55
364.99	102.23
365.201	-24.75
365.412	1.88
365.623	28.5
365.834	44.88
366.045	36.69
366.256	20.31
366.467	59.22
366.678	81.75
366.889	10.07
367.1	59.22
367.311	61.27
367.522	77.65
367.733	10.07
367.944	77.65
368.155	79.7
368.366	20.31
368.577	79.7
368.788	147.28
368.999	32.6
369.209	18.26
369.42	151.38
369.631	96.08
369.842	87.89
370.053	24.4
370.264	59.22
370.474	83.8
370.685	36.69
370.896	44.88
371.107	71.51
371.317	91.99
371.528	40.79
371.739	-6.31
371.95	57.17
372.16	32.6
372.371	89.94
372.582	-4.27
372.792	67.41
373.003	73.56
373.214	61.27
373.424	83.8
373.635	-20.65
373.846	132.95
374.056	22.36
374.267	120.66
374.477	40.79
374.688	38.74
374.898	55.12
375.109	46.93
375.319	106.32
375.53	87.89
375.74	73.56
375.951	53.08
376.161	75.6
376.372	83.8
376.582	81.75
376.793	44.88
377.003	51.03
377.214	18.26
377.424	-12.46
377.635	36.69
377.845	87.89
378.055	120.66
378.266	91.99
378.476	40.79
378.686	38.74
378.897	89.94
379.107	112.47
379.317	46.93
379.528	26.45
379.738	55.12
379.948	28.5
380.158	61.27
380.369	36.69
380.579	85.84
380.789	46.93
380.999	79.7
381.21	65.36
381.42	108.37
381.63	10.07
381.84	112.47
382.05	71.51
382.261	55.12
382.471	38.74
382.681	98.13
382.891	67.41
383.101	87.89
383.311	57.17
383.521	24.4
383.731	55.12
383.941	120.66
384.151	51.03
384.361	5.97
384.571	110.42
384.781	1.88
384.991	-4.27
385.201	100.18
385.411	-16.55
385.621	-65.71
385.831	79.7
386.041	12.12
386.251	-0.17
386.461	165.71
386.671	48.98
386.881	36.69
387.091	34.64
387.301	161.62
387.511	16.21
387.72	-6.31
387.93	128.85
388.14	118.61
388.35	87.89
388.56	-14.51
388.769	44.88
388.979	44.88
389.189	89.94
389.399	91.99
389.609	114.52
389.818	83.8
390.028	81.75
390.238	102.23
390.447	106.32
390.657	67.41
390.867	38.74
391.076	126.8
391.286	14.17
391.496	-10.41
391.705	55.12
391.915	112.47
392.125	57.17
392.334	85.84
392.544	110.42
392.753	12.12
392.963	104.28
393.172	57.17
393.382	77.65
393.591	157.52
393.801	44.88
394.01	178
394.22	85.84
394.429	120.66
394.639	120.66
394.848	18.26
395.058	77.65
395.267	91.99
395.477	63.32
395.686	130.9
395.895	155.47
396.105	149.33
396.314	137.04
396.524	132.95
396.733	85.84
396.942	96.08
397.152	128.85
397.361	81.75
397.57	128.85
397.78	120.66
397.989	110.42
398.198	75.6
398.407	51.03
398.617	153.43
398.826	120.66
399.035	89.94
399.244	130.9
399.453	59.22
399.663	34.64
399.872	147.28
400.081	126.8
400.29	120.66
400.499	180.05
400.708	139.09
400.917	120.66
401.127	153.43
401.336	89.94
401.545	169.81
401.754	141.14
401.963	137.04
402.172	104.28
402.381	116.56
402.59	104.28
402.799	169.81
403.008	137.04
403.217	124.76
403.426	128.85
403.635	51.03
403.844	147.28
404.053	104.28
404.262	100.18
404.471	180.05
404.68	180.05
404.888	175.95
405.097	206.67
405.306	186.19
405.515	251.73
405.724	102.23
405.933	190.29
406.142	169.81
406.35	247.63
406.559	249.68
406.768	143.19
406.977	280.4
407.185	178
407.394	190.29
407.603	223.06
407.812	175.95
408.02	264.02
408.229	280.4
408.438	302.93
408.646	212.82
408.855	288.59
409.064	268.11
409.272	259.92
409.481	352.08
409.69	218.96
409.898	276.31
410.107	380.75
410.315	366.42
410.524	321.36
410.733	423.76
410.941	417.61
411.15	444.24
411.358	343.89
411.567	429.9
411.775	417.61
411.984	317.26
412.192	444.24
412.401	491.34
412.609	458.57
412.818	454.48
413.026	477.01
413.234	511.82
413.443	509.77
413.651	587.6
413.86	614.22
414.068	655.18
414.276	646.99
414.485	692.04
414.693	685.9
414.901	702.28
415.11	763.72
415.318	681.8
415.526	767.82
415.734	798.54
415.943	874.31
416.151	884.55
416.359	882.5
416.567	888.65
416.776	964.42
416.984	986.95
417.192	956.23
417.4	982.85
417.608	993.09
417.817	1128.26
418.025	1062.73
418.233	1210.18
418.441	1021.77
418.649	1324.87
418.857	1253.19
419.065	1429.31
419.273	1339.2
419.481	1294.15
419.689	1535.81
419.897	1521.47
420.105	1599.29
420.313	1576.77
420.521	1693.5
420.729	1605.44
420.937	1763.13
421.145	1857.34
421.353	1896.25
421.561	2076.47
421.769	2002.74
421.977	2135.86
422.185	2096.95
422.393	2301.75
422.601	2449.2
422.809	2404.14
423.017	2502.45
423.224	2590.51
423.432	2535.21
423.64	2658.09
423.848	2836.27
424.056	2805.55
424.263	2983.72
424.471	2942.76
424.679	3098.41
424.887	3223.33
425.094	3227.43
425.302	3256.1
425.51	3358.5
425.718	3477.28
425.925	3448.61
426.133	3553.06
426.341	3886.87
426.548	4097.81
426.756	4075.29
426.964	4224.79
427.171	4247.32
427.379	4505.36
427.586	4558.61
427.794	4744.97
428.001	4937.48
428.209	5093.13
428.417	4966.15
428.624	5412.61
428.832	5408.51
429.039	5295.88
429.247	5433.09
429.454	5834.49
429.662	6153.98
429.869	5977.85
430.076	6229.75
430.284	5930.75
430.491	6444.79
430.699	6647.54
430.906	6692.59
431.114	6756.08
431.321	6903.53
431.528	7034.6
431.736	7757.53
431.943	7968.48
432.15	7818.97
432.358	7778.01
432.565	8099.55
432.772	8324.82
432.979	8664.79
433.187	8689.36
433.394	9017.04
433.601	9488.07
433.808	9410.25
434.016	9504.45
434.223	9684.67
434.43	10372.79
434.637	10133.18
434.844	10770.1
435.052	11022
435.259	10841.78
435.466	11142.83
435.673	10927.79
435.88	11728.55
436.087	12189.34
436.294	12371.61
436.501	12031.65
436.708	12439.19
436.915	12590.74
437.122	13280.91
437.329	13164.17
437.537	13819.52
437.743	14003.84
437.95	13549.19
438.157	14589.56
438.364	15173.23
438.571	14820.98
438.778	15136.37
438.985	16588.38
439.192	15709.8
439.399	16139.87
439.606	15953.51
439.813	16658.01
440.02	17716.81
440.227	17501.77
440.433	17348.17
440.64	18099.78
440.847	17729.09
441.054	18142.78
441.261	19424.81
441.467	19066.42
441.674	19775.02
441.881	20321.82
442.088	20299.3
442.294	20200.99
442.501	21065.24
442.708	21161.49
442.914	21978.63
443.121	22750.71
443.328	22236.67
443.534	24022.5
443.741	23057.91
443.948	22859.26
444.154	24567.26
444.361	24292.83
444.568	24567.26
444.774	24622.56
444.981	24767.96
445.187	25681.36
445.394	26654.14
445.6	26308.04
445.807	28767.65
446.013	27452.85
446.22	28003.75
446.426	29193.62
446.633	29310.36
446.839	30688.64
447.046	28880.28
447.252	30619.01
447.459	30864.77
447.665	30553.48
447.871	31964.53
448.078	33254.75
448.284	31821.17
448.491	32796
448.697	33899.86
448.903	34682.18
449.11	34764.1
449.316	34288.97
449.522	34655.56
449.728	35812.66
449.935	35972.4
450.141	35503.42
450.347	36318.51
450.553	35724.6
450.76	35999.02
450.966	37246.24
451.172	36941.09
451.378	37831.96
451.584	36793.64
451.791	37686.55
451.997	37661.97
452.203	38518.03
452.409	38188.3
452.615	38358.28
452.821	36799.78
453.027	36541.74
453.233	38384.91
453.44	36939.04
453.646	37231.9
453.852	37455.13
454.058	38085.9
454.264	36752.68
454.47	37782.8
454.676	36883.75
454.882	37594.39
455.088	34848.07
455.294	35261.76
455.5	35865.91
455.705	36109.61
455.911	34557.25
456.117	33842.51
456.323	33414.49
456.529	31825.26
456.735	33549.65
456.941	32664.93
457.147	31628.66
457.352	31049.08
457.558	30612.87
457.764	30602.63
457.97	30107.02
458.176	29224.34
458.381	29353.37
458.587	27960.75
458.793	27839.92
458.999	26611.14
459.204	28380.58
459.41	27520.43
459.616	25898.44
459.821	25994.7
460.027	25652.69
460.233	25177.56
460.438	24143.33
460.644	24282.59
460.85	23295.47
461.055	22588.92
461.261	22584.83
461.466	21050.9
461.672	20508.19
461.878	21898.76
462.083	20569.63
462.289	20065.83
462.494	19846.69
462.7	19050.03
462.905	18437.69
463.111	19050.03
463.316	19260.98
463.522	18720.31
463.727	18970.16
463.932	18687.54
464.138	18245.18
464.343	18660.92
464.549	17905.22
464.754	18642.49
464.959	18691.64
465.165	18345.53
465.37	17688.14
465.575	16944.72
465.781	17903.17
465.986	17964.61
466.191	17243.73
466.397	16987.73
466.602	15961.7
466.807	16705.11
467.012	16770.65
467.218	16559.7
467.423	16293.47
467.628	16483.93
