Data from USB4F104151__11__11-51-11-271.txt Node

Date: Fri Mar 14 11:51:11 EDT 2025
User: louis
Spectrometer: USB4F10415
Trigger mode: 4
Integration Time (sec): 2.000000E-2
Scans to average: 1
Electric dark correction enabled: true
Nonlinearity correction enabled: false
Boxcar width: 0
XAxis mode: Wavelengths
Number of Pixels in Spectrum: 3648
>>>>>Begin Spectral Data<<<<<
178.204	-127.66
178.424	-127.66
178.644	-127.66
178.864	-101.03
179.084	-84.65
179.304	15.7
179.524	48.47
179.744	-15.02
179.964	50.52
180.184	-45.74
180.404	11.61
180.624	7.51
180.844	-25.26
181.064	-4.78
181.283	-15.02
181.503	-33.45
181.723	5.46
181.943	-80.55
182.163	3.41
182.383	-17.07
182.602	36.18
182.822	-23.21
183.042	75.09
183.262	13.65
183.482	-29.35
183.701	42.32
183.921	-12.97
184.141	5.46
184.361	56.66
184.58	15.7
184.8	-8.87
185.02	-15.02
185.239	-4.78
185.459	-25.26
185.679	62.8
185.898	-6.83
186.118	48.47
186.338	38.23
186.557	95.57
186.777	5.46
186.997	11.61
187.216	13.65
187.436	36.18
187.655	15.7
187.875	93.52
188.095	68.95
188.314	48.47
188.534	-31.4
188.753	-27.31
188.973	71
189.192	1.37
189.412	48.47
189.631	-8.87
189.851	-43.69
190.07	103.76
190.29	34.13
190.509	-43.69
190.729	9.56
190.948	52.56
191.168	36.18
191.387	68.95
191.607	-12.97
191.826	19.8
192.045	1.37
192.265	32.08
192.484	-27.31
192.704	50.52
192.923	-23.21
193.142	5.46
193.362	66.9
193.581	21.85
193.8	99.67
194.02	60.76
194.239	-45.74
194.458	50.52
194.678	-49.83
194.897	13.65
195.116	34.13
195.335	-4.78
195.555	32.08
195.774	17.75
195.993	34.13
196.212	5.46
196.432	32.08
196.651	5.46
196.87	-21.16
197.089	58.71
197.308	3.41
197.528	-21.16
197.747	23.89
197.966	15.7
198.185	77.14
198.404	40.28
198.623	73.04
198.842	97.62
199.062	23.89
199.281	144.72
199.5	5.46
199.719	83.28
199.938	-15.02
200.157	48.47
200.376	-49.83
200.595	56.66
200.814	73.04
201.033	52.56
201.252	27.99
201.471	11.61
201.69	58.71
201.909	36.18
202.128	54.61
202.347	60.76
202.566	42.32
202.785	48.47
203.004	34.13
203.223	114
203.442	21.85
203.661	11.61
203.879	15.7
204.098	107.86
204.317	7.51
204.536	5.46
204.755	34.13
204.974	44.37
205.193	7.51
205.411	91.48
205.63	9.56
205.849	15.7
206.068	126.29
206.287	11.61
206.505	40.28
206.724	46.42
206.943	25.94
207.162	-21.16
207.381	-27.31
207.599	-66.22
207.818	48.47
208.037	64.85
208.255	46.42
208.474	30.04
208.693	-49.83
208.911	-21.16
209.13	89.43
209.349	19.8
209.567	-58.03
209.786	75.09
210.005	56.66
210.223	-45.74
210.442	9.56
210.661	77.14
210.879	-29.35
211.098	-12.97
211.316	-17.07
211.535	23.89
211.753	-0.68
211.972	25.94
212.191	1.37
212.409	19.8
212.628	87.38
212.846	1.37
213.065	9.56
213.283	101.72
213.502	27.99
213.72	5.46
213.938	46.42
214.157	-8.87
214.375	42.32
214.594	-4.78
214.812	50.52
215.031	-21.16
215.249	17.75
215.467	-4.78
215.686	81.24
215.904	25.94
216.122	-6.83
216.341	93.52
216.559	30.04
216.778	27.99
216.996	38.23
217.214	32.08
217.432	13.65
217.651	5.46
217.869	50.52
218.087	101.72
218.306	-29.35
218.524	66.9
218.742	-8.87
218.96	17.75
219.179	-39.59
219.397	54.61
219.615	36.18
219.833	50.52
220.051	27.99
220.27	77.14
220.488	13.65
220.706	-0.68
220.924	1.37
221.142	-33.45
221.36	-8.87
221.578	60.76
221.796	56.66
222.015	-6.83
222.233	83.28
222.451	50.52
222.669	9.56
222.887	60.76
223.105	-39.59
223.323	36.18
223.541	-2.73
223.759	71
223.977	38.23
224.195	60.76
224.413	48.47
224.631	-10.92
224.849	48.47
225.067	34.13
225.285	77.14
225.503	5.46
225.721	-43.69
225.939	54.61
226.157	19.8
226.375	150.87
226.592	71
226.81	79.19
227.028	89.43
227.246	128.34
227.464	-4.78
227.682	-23.21
227.9	5.46
228.117	50.52
228.335	11.61
228.553	23.89
228.771	3.41
228.989	64.85
229.206	48.47
229.424	3.41
229.642	111.96
229.86	17.75
230.077	42.32
230.295	46.42
230.513	23.89
230.731	9.56
230.948	25.94
231.166	146.77
231.384	-55.98
231.601	56.66
231.819	79.19
232.037	34.13
232.254	19.8
232.472	58.71
232.689	-4.78
232.907	7.51
233.125	83.28
233.342	-19.11
233.56	-37.55
233.777	-10.92
233.995	32.08
234.213	7.51
234.43	58.71
234.648	-37.55
234.865	27.99
235.083	60.76
235.3	-31.4
235.518	-19.11
235.735	50.52
235.953	56.66
236.17	-10.92
236.388	-62.12
236.605	66.9
236.822	54.61
237.04	5.46
237.257	38.23
237.475	-29.35
237.692	87.38
237.909	30.04
238.127	3.41
238.344	68.95
238.562	-43.69
238.779	-10.92
238.996	109.91
239.214	-2.73
239.431	23.89
239.648	-6.83
239.865	25.94
240.083	48.47
240.3	-62.12
240.517	-41.64
240.735	-27.31
240.952	52.56
241.169	-10.92
241.386	77.14
241.603	64.85
241.821	17.75
242.038	58.71
242.255	-15.02
242.472	-12.97
242.689	66.9
242.907	34.13
243.124	3.41
243.341	36.18
243.558	-19.11
243.775	54.61
243.992	38.23
244.209	9.56
244.426	66.9
244.643	101.72
244.86	-37.55
245.078	11.61
245.295	62.8
245.512	-10.92
245.729	50.52
245.946	5.46
246.163	56.66
246.38	54.61
246.597	21.85
246.814	-23.21
247.031	44.37
247.248	85.33
247.464	-12.97
247.681	17.75
247.898	-25.26
248.115	-25.26
248.332	62.8
248.549	34.13
248.766	38.23
248.983	13.65
249.2	46.42
249.417	-12.97
249.633	1.37
249.85	-6.83
250.067	-62.12
250.284	87.38
250.501	-55.98
250.717	56.66
250.934	-17.07
251.151	77.14
251.368	71
251.585	5.46
251.801	5.46
252.018	-2.73
252.235	126.29
252.451	83.28
252.668	-0.68
252.885	73.04
253.102	21.85
253.318	3.41
253.535	30.04
253.752	-4.78
253.968	21.85
254.185	7.51
254.401	73.04
254.618	64.85
254.835	48.47
255.051	83.28
255.268	48.47
255.484	68.95
255.701	79.19
255.917	50.52
256.134	32.08
256.351	81.24
256.567	-8.87
256.784	17.75
257	-0.68
257.217	38.23
257.433	40.28
257.65	-49.83
257.866	9.56
258.082	64.85
258.299	11.61
258.515	11.61
258.732	40.28
258.948	-6.83
259.165	1.37
259.381	5.46
259.597	23.89
259.814	68.95
260.03	17.75
260.246	58.71
260.463	-33.45
260.679	34.13
260.895	38.23
261.112	58.71
261.328	-39.59
261.544	13.65
261.761	54.61
261.977	-60.07
262.193	13.65
262.409	54.61
262.626	-8.87
262.842	38.23
263.058	66.9
263.274	17.75
263.49	25.94
263.707	32.08
263.923	38.23
264.139	-10.92
264.355	75.09
264.571	101.72
264.787	17.75
265.004	-43.69
265.22	-27.31
265.436	34.13
265.652	46.42
265.868	52.56
266.084	1.37
266.3	48.47
266.516	-29.35
266.732	-68.27
266.948	42.32
267.164	48.47
267.38	-21.16
267.596	23.89
267.812	148.82
268.028	-0.68
268.244	-6.83
268.46	5.46
268.676	38.23
268.892	34.13
269.108	5.46
269.324	32.08
269.54	-25.26
269.756	68.95
269.972	107.86
270.188	3.41
270.403	-53.93
270.619	7.51
270.835	-41.64
271.051	-70.31
271.267	30.04
271.483	17.75
271.698	56.66
271.914	5.46
272.13	-27.31
272.346	7.51
272.562	17.75
272.777	56.66
272.993	5.46
273.209	58.71
273.425	38.23
273.64	48.47
273.856	71
274.072	-17.07
274.287	50.52
274.503	-2.73
274.719	5.46
274.934	7.51
275.15	-31.4
275.366	54.61
275.581	25.94
275.797	56.66
276.012	-58.03
276.228	1.37
276.444	34.13
276.659	50.52
276.875	64.85
277.09	64.85
277.306	48.47
277.521	38.23
277.737	9.56
277.952	19.8
278.168	5.46
278.383	34.13
278.599	-72.36
278.814	27.99
279.03	15.7
279.245	-10.92
279.461	17.75
279.676	-23.21
279.892	-12.97
280.107	66.9
280.322	32.08
280.538	50.52
280.753	15.7
280.969	60.76
281.184	-31.4
281.399	5.46
281.615	-12.97
281.83	62.8
282.045	73.04
282.26	-55.98
282.476	19.8
282.691	38.23
282.906	93.52
283.122	48.47
283.337	64.85
283.552	-17.07
283.767	75.09
283.983	44.37
284.198	60.76
284.413	27.99
284.628	1.37
284.843	87.38
285.058	52.56
285.274	68.95
285.489	75.09
285.704	50.52
285.919	7.51
286.134	48.47
286.349	83.28
286.564	58.71
286.779	17.75
286.995	3.41
287.21	-27.31
287.425	1.37
287.64	11.61
287.855	48.47
288.07	-2.73
288.285	42.32
288.5	50.52
288.715	-10.92
288.93	42.32
289.145	32.08
289.36	36.18
289.575	32.08
289.79	58.71
290.004	54.61
290.219	-33.45
290.434	17.75
290.649	71
290.864	58.71
291.079	-6.83
291.294	-55.98
291.509	66.9
291.724	3.41
291.938	75.09
292.153	32.08
292.368	64.85
292.583	-4.78
292.798	21.85
293.012	7.51
293.227	3.41
293.442	48.47
293.657	11.61
293.871	9.56
294.086	38.23
294.301	38.23
294.516	52.56
294.73	17.75
294.945	30.04
295.16	15.7
295.374	38.23
295.589	-8.87
295.804	36.18
296.018	30.04
296.233	-23.21
296.447	66.9
296.662	-15.02
296.877	50.52
297.091	62.8
297.306	-6.83
297.52	58.71
297.735	-0.68
297.949	17.75
298.164	152.91
298.378	95.57
298.593	11.61
298.807	85.33
299.022	7.51
299.236	60.76
299.451	44.37
299.665	-4.78
299.88	89.43
300.094	109.91
300.309	-45.74
300.523	-10.92
300.737	5.46
300.952	42.32
301.166	15.7
301.381	-4.78
301.595	-15.02
301.809	60.76
302.024	3.41
302.238	1.37
302.452	111.96
302.667	27.99
302.881	36.18
303.095	42.32
303.309	19.8
303.524	1.37
303.738	-53.93
303.952	3.41
304.166	25.94
304.381	23.89
304.595	73.04
304.809	-55.98
305.023	15.7
305.237	19.8
305.452	56.66
305.666	54.61
305.88	68.95
306.094	5.46
306.308	5.46
306.522	75.09
306.736	91.48
306.95	50.52
307.164	71
307.379	-12.97
307.593	32.08
307.807	116.05
308.021	21.85
308.235	-17.07
308.449	25.94
308.663	-17.07
308.877	77.14
309.091	-35.5
309.305	38.23
309.519	11.61
309.733	44.37
309.947	-10.92
310.161	52.56
310.374	42.32
310.588	23.89
310.802	-45.74
311.016	30.04
311.23	77.14
311.444	15.7
311.658	64.85
311.872	19.8
312.085	36.18
312.299	66.9
312.513	91.48
312.727	40.28
312.941	52.56
313.154	-4.78
313.368	13.65
313.582	38.23
313.796	-6.83
314.009	25.94
314.223	3.41
314.437	56.66
314.651	-12.97
314.864	5.46
315.078	58.71
315.292	46.42
315.505	48.47
315.719	27.99
315.933	77.14
316.146	-6.83
316.36	9.56
316.573	52.56
316.787	7.51
317.001	71
317.214	-17.07
317.428	40.28
317.641	-17.07
317.855	77.14
318.068	-10.92
318.282	36.18
318.495	81.24
318.709	-4.78
318.922	-6.83
319.136	60.76
319.349	-15.02
319.563	17.75
319.776	11.61
319.99	-10.92
320.203	75.09
320.417	-0.68
320.63	23.89
320.843	85.33
321.057	19.8
321.27	54.61
321.483	32.08
321.697	17.75
321.91	25.94
322.124	50.52
322.337	101.72
322.55	36.18
322.763	7.51
322.977	17.75
323.19	1.37
323.403	-2.73
323.617	23.89
323.83	83.28
324.043	54.61
324.256	42.32
324.469	-39.59
324.683	71
324.896	48.47
325.109	48.47
325.322	-33.45
325.535	21.85
325.748	-17.07
325.962	21.85
326.175	56.66
326.388	25.94
326.601	46.42
326.814	79.19
327.027	-21.16
327.24	60.76
327.453	3.41
327.666	58.71
327.879	-8.87
328.092	1.37
328.305	30.04
328.518	-4.78
328.731	25.94
328.944	1.37
329.157	-37.55
329.37	42.32
329.583	52.56
329.796	62.8
330.009	48.47
330.222	-4.78
330.435	-33.45
330.648	42.32
330.861	34.13
331.073	83.28
331.286	116.05
331.499	83.28
331.712	-17.07
331.925	17.75
332.138	-68.27
332.35	-2.73
332.563	32.08
332.776	120.15
332.989	-12.97
333.202	81.24
333.414	66.9
333.627	21.85
333.84	7.51
334.053	-8.87
334.265	17.75
334.478	-17.07
334.691	73.04
334.903	13.65
335.116	-4.78
335.329	-23.21
335.541	-15.02
335.754	73.04
335.966	3.41
336.179	-21.16
336.392	75.09
336.604	13.65
336.817	83.28
337.029	21.85
337.242	48.47
337.454	50.52
337.667	30.04
337.88	48.47
338.092	-10.92
338.305	32.08
338.517	62.8
338.729	-17.07
338.942	97.62
339.154	-2.73
339.367	15.7
339.579	36.18
339.792	95.57
340.004	54.61
340.217	36.18
340.429	21.85
340.641	71
340.854	-8.87
341.066	21.85
341.278	9.56
341.491	68.95
341.703	40.28
341.915	-23.21
342.128	-15.02
342.34	40.28
342.552	99.67
342.764	56.66
342.977	91.48
343.189	-35.5
343.401	75.09
343.613	-45.74
343.826	21.85
344.038	32.08
344.25	3.41
344.462	-39.59
344.674	68.95
344.886	38.23
345.099	60.76
345.311	-78.51
345.523	60.76
345.735	23.89
345.947	30.04
346.159	25.94
346.371	30.04
346.583	-6.83
346.795	58.71
347.007	25.94
347.219	68.95
347.431	21.85
347.643	38.23
347.855	85.33
348.067	56.66
348.279	-29.35
348.491	19.8
348.703	50.52
348.915	19.8
349.127	21.85
349.339	19.8
349.551	79.19
349.763	-35.5
349.975	7.51
350.187	25.94
350.399	9.56
350.61	83.28
350.822	64.85
351.034	79.19
351.246	-4.78
351.458	30.04
351.669	-15.02
351.881	99.67
352.093	36.18
352.305	48.47
352.517	95.57
352.728	25.94
352.94	66.9
353.152	7.51
353.363	62.8
353.575	83.28
353.787	-25.26
353.999	46.42
354.21	44.37
354.422	93.52
354.633	21.85
354.845	81.24
355.057	-6.83
355.268	-0.68
355.48	62.8
355.692	21.85
355.903	48.47
356.115	40.28
356.326	-25.26
356.538	-6.83
356.749	32.08
356.961	77.14
357.172	62.8
357.384	25.94
357.595	89.43
357.807	19.8
358.018	25.94
358.23	1.37
358.441	38.23
358.653	-2.73
358.864	11.61
359.075	54.61
359.287	-55.98
359.498	42.32
359.709	34.13
359.921	11.61
360.132	27.99
360.344	58.71
360.555	15.7
360.766	93.52
360.977	-23.21
361.189	71
361.4	19.8
361.611	48.47
361.823	54.61
362.034	-12.97
362.245	-6.83
362.456	23.89
362.667	50.52
362.879	25.94
363.09	109.91
363.301	56.66
363.512	-55.98
363.723	-23.21
363.935	13.65
364.146	71
364.357	21.85
364.568	50.52
364.779	-17.07
364.99	13.65
365.201	48.47
365.412	99.67
365.623	-29.35
365.834	38.23
366.045	15.7
366.256	79.19
366.467	52.56
366.678	3.41
366.889	73.04
367.1	-43.69
367.311	-19.11
367.522	-10.92
367.733	23.89
367.944	107.86
368.155	-88.75
368.366	81.24
368.577	56.66
368.788	91.48
368.999	54.61
369.209	44.37
369.42	46.42
369.631	68.95
369.842	-23.21
370.053	32.08
370.264	-0.68
370.474	32.08
370.685	-33.45
370.896	81.24
371.107	91.48
371.317	34.13
371.528	23.89
371.739	81.24
371.95	-6.83
372.16	-19.11
372.371	-17.07
372.582	81.24
372.792	32.08
373.003	-10.92
373.214	40.28
373.424	17.75
373.635	60.76
373.846	109.91
374.056	38.23
374.267	1.37
374.477	40.28
374.688	-6.83
374.898	30.04
375.109	93.52
375.319	34.13
375.53	25.94
375.74	48.47
375.951	-2.73
376.161	62.8
376.372	38.23
376.582	40.28
376.793	56.66
377.003	-4.78
377.214	48.47
377.424	48.47
377.635	25.94
377.845	52.56
378.055	30.04
378.266	46.42
378.476	11.61
378.686	32.08
378.897	54.61
379.107	-19.11
379.317	54.61
379.528	19.8
379.738	9.56
379.948	19.8
380.158	89.43
380.369	-19.11
380.579	62.8
380.789	50.52
380.999	48.47
381.21	44.37
381.42	25.94
381.63	64.85
381.84	-4.78
382.05	50.52
382.261	17.75
382.471	93.52
382.681	40.28
382.891	101.72
383.101	19.8
383.311	44.37
383.521	-27.31
383.731	54.61
383.941	66.9
384.151	89.43
384.361	7.51
384.571	36.18
384.781	23.89
384.991	17.75
385.201	101.72
385.411	-25.26
385.621	-0.68
385.831	-8.87
386.041	56.66
386.251	-31.4
386.461	-8.87
386.671	1.37
386.881	40.28
387.091	34.13
387.301	1.37
387.511	-2.73
387.72	91.48
387.93	25.94
388.14	25.94
388.35	19.8
388.56	91.48
388.769	21.85
388.979	11.61
389.189	11.61
389.399	27.99
389.609	-6.83
389.818	11.61
390.028	25.94
390.238	101.72
390.447	66.9
390.657	107.86
390.867	87.38
391.076	32.08
391.286	17.75
391.496	44.37
391.705	62.8
391.915	81.24
392.125	46.42
392.334	62.8
392.544	75.09
392.753	46.42
392.963	103.76
393.172	56.66
393.382	38.23
393.591	111.96
393.801	75.09
394.01	77.14
394.22	48.47
394.429	9.56
394.639	83.28
394.848	64.85
395.058	68.95
395.267	89.43
395.477	56.66
395.686	23.89
395.895	75.09
396.105	66.9
396.314	81.24
396.524	89.43
396.733	42.32
396.942	89.43
397.152	107.86
397.361	66.9
397.57	91.48
397.78	-0.68
397.989	71
398.198	52.56
398.407	83.28
398.617	77.14
398.826	60.76
399.035	-17.07
399.244	30.04
399.453	120.15
399.663	87.38
399.872	81.24
400.081	42.32
400.29	46.42
400.499	54.61
400.708	136.53
400.917	159.06
401.127	32.08
401.336	38.23
401.545	126.29
401.754	97.62
401.963	44.37
402.172	-29.35
402.381	60.76
402.59	116.05
402.799	114
403.008	15.7
403.217	132.44
403.426	23.89
403.635	30.04
403.844	120.15
404.053	105.81
404.262	60.76
404.471	122.2
404.68	95.57
404.888	163.15
405.097	138.58
405.306	114
405.515	122.2
405.724	165.2
405.933	175.44
406.142	142.68
406.35	124.24
406.559	132.44
406.768	81.24
406.977	183.63
407.185	169.3
407.394	173.39
407.603	173.39
407.812	142.68
408.02	206.16
408.229	132.44
408.438	124.24
408.646	122.2
408.855	142.68
409.064	183.63
409.272	111.96
409.481	218.45
409.69	101.72
409.898	183.63
410.107	173.39
410.315	195.92
410.524	204.11
410.733	322.9
410.941	234.83
411.15	245.07
411.358	253.27
411.567	236.88
411.775	281.94
411.984	300.37
412.192	339.28
412.401	314.7
412.609	326.99
412.818	433.49
413.026	415.05
413.234	380.24
413.443	355.66
413.651	347.47
413.86	513.36
414.068	372.05
414.276	417.1
414.485	382.29
414.693	439.63
414.901	437.58
415.11	480.59
415.318	451.92
415.526	517.45
415.734	470.35
415.943	511.31
416.151	566.6
416.359	525.65
416.567	654.67
416.776	593.23
416.984	621.9
417.192	695.63
417.4	666.96
417.608	693.58
417.817	642.38
418.025	673.1
418.233	804.17
418.441	832.84
418.649	738.63
418.857	836.94
419.065	879.94
419.273	859.46
419.481	849.22
419.689	951.62
419.897	1097.03
420.105	976.2
420.313	1123.65
420.521	1070.4
420.729	1023.3
420.937	1160.52
421.145	1246.53
421.353	1228.1
421.561	1287.49
421.769	1281.35
421.977	1465.66
422.185	1353.02
422.393	1410.37
422.601	1500.48
422.809	1432.9
423.017	1535.29
423.224	1504.57
423.432	1602.88
423.64	1668.41
423.848	1789.24
424.056	1797.43
424.263	1881.4
424.471	1883.45
424.679	1953.08
424.887	2123.06
425.094	2145.59
425.302	2225.46
425.51	2190.64
425.718	2354.48
425.925	2256.18
426.133	2391.34
426.341	2581.81
426.548	2719.02
426.756	2637.1
426.964	2647.34
427.171	2821.42
427.379	2884.91
427.586	2727.21
427.794	3013.93
428.001	3095.85
428.209	3300.64
428.417	3335.46
428.624	3403.04
428.832	3441.95
429.039	3339.55
429.247	3419.43
429.454	3800.35
429.662	3994.9
429.869	3761.44
430.076	3974.42
430.284	3898.65
430.491	3988.76
430.699	4347.15
430.906	4238.61
431.114	4541.71
431.321	4640.01
431.528	4627.73
431.736	4857.1
431.943	5123.34
432.15	4945.16
432.358	5027.08
432.565	5272.84
432.772	5516.55
432.979	5633.28
433.187	5571.84
433.394	5690.62
433.601	6145.27
433.808	6241.53
434.016	6075.64
434.223	6315.25
434.43	6812.91
434.637	6477.04
434.844	6974.7
435.052	7073
435.259	7167.21
435.466	7064.81
435.673	7171.3
435.88	7478.5
436.087	7863.52
436.294	7879.9
436.501	7783.65
436.708	7904.48
436.915	8148.19
437.122	8434.9
437.329	8543.44
437.537	8791.25
437.743	8744.14
437.95	8738
438.157	9505.99
438.364	9678.02
438.571	9508.04
438.778	9714.88
438.985	10609.84
439.192	10325.18
439.399	10464.44
439.606	10302.65
439.813	10728.63
440.02	11351.21
440.227	11293.86
440.433	11189.42
440.64	11594.92
440.847	11459.75
441.054	11951.26
441.261	12594.33
441.467	12283.03
441.674	12772.5
441.881	13094.03
442.088	13182.09
442.294	13096.08
442.501	13493.38
442.708	13591.69
442.914	14165.12
443.121	14730.36
443.328	14337.15
443.534	15215.73
443.741	14914.67
443.948	14789.75
444.154	15901.79
444.361	15842.4
444.568	15791.2
444.774	15596.65
444.981	15944.8
445.187	16450.65
445.394	17101.9
445.6	16796.76
445.807	18299.97
446.013	17970.24
446.22	18158.66
446.426	18930.74
446.633	18846.77
446.839	19612.71
447.046	18596.92
447.252	19895.33
447.459	19790.89
447.665	19801.13
447.871	20716.57
448.078	21363.73
448.284	20370.46
448.491	21142.55
448.697	21892.1
448.903	22090.76
449.11	22182.91
449.316	22080.52
449.522	22406.14
449.728	23063.54
449.935	23260.15
450.141	23043.06
450.347	23761.9
450.553	22664.19
450.76	23325.68
450.966	23880.68
451.172	23722.99
451.378	24392.67
451.584	23700.46
451.791	24413.15
451.997	24142.82
452.203	24810.46
452.409	24955.86
452.615	24312.8
452.821	23878.63
453.027	23194.61
453.233	24894.43
453.44	23700.46
453.646	24167.4
453.852	23852.01
454.058	24460.26
454.264	23573.49
454.47	23968.74
454.676	23837.67
454.882	24089.57
455.088	22045.7
455.294	22483.97
455.5	22752.25
455.705	22866.94
455.911	22164.48
456.117	21642.25
456.323	21300.24
456.529	20362.27
456.735	21308.43
456.941	20675.61
457.147	20466.72
457.352	19848.23
457.558	19475.5
457.764	19395.63
457.97	19033.14
458.176	18664.5
458.381	18592.83
458.587	17675.34
458.793	17812.55
458.999	16718.93
459.204	18201.66
459.41	17591.37
459.616	16512.09
459.821	16538.71
460.027	16403.55
460.233	15975.52
460.438	15449.19
460.644	15498.34
460.85	14716.02
461.055	14376.06
461.261	14455.93
461.466	13376.65
461.672	13057.17
461.878	13847.68
462.083	13016.21
462.289	12743.83
462.494	12612.76
462.7	12014.75
462.905	11783.33
463.111	12141.72
463.316	12219.55
463.522	12078.24
463.727	12065.95
463.932	11994.27
464.138	11801.76
464.343	11732.13
464.549	11422.89
464.754	11734.18
464.959	11701.41
465.165	11787.43
465.37	11097.26
465.575	11101.36
465.781	11476.13
465.986	11424.93
466.191	11132.08
466.397	10704.05
466.602	10151.1
466.807	10599.6
467.012	10800.3
467.218	10505.4
467.423	10343.61
467.628	10396.85
467.833	10900.65
468.038	10718.39
468.244	10278.07
468.449	10671.28
468.654	10241.21
468.859	10382.52
