Data from USB4F104151__31__11-51-38-328.txt Node

Date: Fri Mar 14 11:51:38 EDT 2025
User: louis
Spectrometer: USB4F10415
Trigger mode: 4
Integration Time (sec): 2.000000E-2
Scans to average: 1
Electric dark correction enabled: true
Nonlinearity correction enabled: false
Boxcar width: 0
XAxis mode: Wavelengths
Number of Pixels in Spectrum: 3648
>>>>>Begin Spectral Data<<<<<
178.204	-152.06
178.424	-152.06
178.644	-152.06
178.864	-104.96
179.084	-94.72
179.304	11.78
179.524	-70.14
179.744	48.64
179.964	-31.23
180.184	-84.48
180.404	46.59
180.624	-84.48
180.844	-37.38
181.064	83.45
181.283	44.54
181.503	52.74
181.723	19.97
181.943	-27.14
182.163	28.16
182.383	-10.75
182.602	73.21
182.822	13.82
183.042	9.73
183.262	46.59
183.482	19.97
183.701	-16.9
183.921	-6.66
184.141	-16.9
184.361	56.83
184.58	-49.66
184.8	-45.57
185.02	-45.57
185.239	26.11
185.459	46.59
185.679	99.84
185.898	-6.66
186.118	-57.86
186.338	-18.94
186.557	-55.81
186.777	-18.94
186.997	-23.04
187.216	-27.14
187.436	11.78
187.655	7.68
187.875	19.97
188.095	-2.56
188.314	26.11
188.534	56.83
188.753	-12.8
188.973	-14.85
189.192	-0.51
189.412	44.54
189.631	24.06
189.851	-37.38
190.07	52.74
190.29	-41.47
190.509	-0.51
190.729	44.54
190.948	13.82
191.168	105.98
191.387	36.35
191.607	1.54
191.826	36.35
192.045	30.21
192.265	17.92
192.484	34.3
192.704	13.82
192.923	-41.47
193.142	58.88
193.362	5.63
193.581	69.12
193.8	-66.05
194.02	22.02
194.239	-8.7
194.458	24.06
194.678	17.92
194.897	-37.38
195.116	13.82
195.335	60.93
195.555	1.54
195.774	-6.66
195.993	19.97
196.212	-20.99
196.432	-27.14
196.651	62.98
196.87	-8.7
197.089	34.3
197.308	50.69
197.528	5.63
197.747	42.5
197.966	26.11
198.185	34.3
198.404	42.5
198.623	-10.75
198.842	30.21
199.062	-2.56
199.281	36.35
199.5	-27.14
199.719	-31.23
199.938	28.16
200.157	42.5
200.376	-18.94
200.595	15.87
200.814	-27.14
201.033	40.45
201.252	-20.99
201.471	-25.09
201.69	36.35
201.909	7.68
202.128	7.68
202.347	40.45
202.566	-10.75
202.785	40.45
203.004	-25.09
203.223	13.82
203.442	9.73
203.661	36.35
203.879	95.74
204.098	30.21
204.317	3.58
204.536	79.36
204.755	65.02
204.974	-47.62
205.193	32.26
205.411	46.59
205.63	40.45
205.849	79.36
206.068	1.54
206.287	3.58
206.505	26.11
206.724	-6.66
206.943	-4.61
207.162	1.54
207.381	7.68
207.599	-18.94
207.818	19.97
208.037	3.58
208.255	-25.09
208.474	-41.47
208.693	-35.33
208.911	-16.9
209.13	-74.24
209.349	93.69
209.567	1.54
209.786	30.21
210.005	42.5
210.223	-12.8
210.442	-14.85
210.661	5.63
210.879	-10.75
211.098	-35.33
211.316	22.02
211.535	17.92
211.753	60.93
211.972	19.97
212.191	-20.99
212.409	-37.38
212.628	-70.14
212.846	-31.23
213.065	3.58
213.283	1.54
213.502	-4.61
213.72	52.74
213.938	-2.56
214.157	48.64
214.375	-6.66
214.594	-23.04
214.812	-0.51
215.031	60.93
215.249	-4.61
215.467	3.58
215.686	24.06
215.904	-0.51
216.122	9.73
216.341	28.16
216.559	-27.14
216.778	19.97
216.996	62.98
217.214	62.98
217.432	-12.8
217.651	1.54
217.869	15.87
218.087	13.82
218.306	32.26
218.524	1.54
218.742	93.69
218.96	36.35
219.179	-74.24
219.397	-12.8
219.615	44.54
219.833	17.92
220.051	65.02
220.27	69.12
220.488	69.12
220.706	5.63
220.924	-14.85
221.142	56.83
221.36	1.54
221.578	-6.66
221.796	13.82
222.015	-37.38
222.233	28.16
222.451	24.06
222.669	22.02
222.887	65.02
223.105	32.26
223.323	81.41
223.541	15.87
223.759	28.16
223.977	15.87
224.195	48.64
224.413	-27.14
224.631	-6.66
224.849	26.11
225.067	110.08
225.285	-14.85
225.503	-6.66
225.721	34.3
225.939	9.73
226.157	54.78
226.375	1.54
226.592	-14.85
226.81	11.78
227.028	32.26
227.246	3.58
227.464	75.26
227.682	17.92
227.9	56.83
228.117	38.4
228.335	-31.23
228.553	-4.61
228.771	-57.86
228.989	52.74
229.206	-2.56
229.424	5.63
229.642	56.83
229.86	56.83
230.077	-59.9
230.295	-47.62
230.513	36.35
230.731	58.88
230.948	42.5
231.166	-25.09
231.384	28.16
231.601	38.4
231.819	26.11
232.037	-8.7
232.254	-31.23
232.472	-4.61
232.689	28.16
232.907	58.88
233.125	34.3
233.342	42.5
233.56	26.11
233.777	3.58
233.995	54.78
234.213	44.54
234.43	5.63
234.648	28.16
234.865	54.78
235.083	5.63
235.3	28.16
235.518	-33.28
235.735	32.26
235.953	28.16
236.17	11.78
236.388	65.02
236.605	11.78
236.822	28.16
237.04	77.31
237.257	-0.51
237.475	1.54
237.692	34.3
237.909	69.12
238.127	-41.47
238.344	81.41
238.562	-6.66
238.779	48.64
238.996	22.02
239.214	1.54
239.431	7.68
239.648	26.11
239.865	62.98
240.083	-14.85
240.3	-39.42
240.517	-23.04
240.735	-0.51
240.952	-39.42
241.169	9.73
241.386	30.21
241.603	-35.33
241.821	15.87
242.038	-25.09
242.255	-2.56
242.472	-12.8
242.689	-23.04
242.907	42.5
243.124	34.3
243.341	-6.66
243.558	1.54
243.775	-23.04
243.992	-10.75
244.209	-6.66
244.426	48.64
244.643	38.4
244.86	-82.43
245.078	83.45
245.295	48.64
245.512	77.31
245.729	-57.86
245.946	34.3
246.163	-23.04
246.38	67.07
246.597	30.21
246.814	17.92
247.031	3.58
247.248	73.21
247.464	-76.29
247.681	52.74
247.898	34.3
248.115	48.64
248.332	-66.05
248.549	-16.9
248.766	3.58
248.983	38.4
249.2	3.58
249.417	26.11
249.633	3.58
249.85	85.5
250.067	-33.28
250.284	93.69
250.501	-14.85
250.717	-37.38
250.934	-35.33
251.151	-0.51
251.368	7.68
251.585	-20.99
251.801	42.5
252.018	-2.56
252.235	-12.8
252.451	32.26
252.668	-29.18
252.885	5.63
253.102	-18.94
253.318	-20.99
253.535	34.3
253.752	36.35
253.968	13.82
254.185	-12.8
254.401	24.06
254.618	-35.33
254.835	-2.56
255.051	-14.85
255.268	19.97
255.484	69.12
255.701	-41.47
255.917	15.87
256.134	56.83
256.351	-41.47
256.567	95.74
256.784	48.64
257	19.97
257.217	30.21
257.433	24.06
257.65	1.54
257.866	-0.51
258.082	-27.14
258.299	-2.56
258.515	54.78
258.732	36.35
258.948	17.92
259.165	28.16
259.381	-4.61
259.597	-35.33
259.814	50.69
260.03	44.54
260.246	-20.99
260.463	17.92
260.679	28.16
260.895	-23.04
261.112	17.92
261.328	-29.18
261.544	-37.38
261.761	32.26
261.977	-6.66
262.193	-49.66
262.409	-29.18
262.626	40.45
262.842	-0.51
263.058	-8.7
263.274	17.92
263.49	-10.75
263.707	-31.23
263.923	32.26
264.139	9.73
264.355	13.82
264.571	52.74
264.787	3.58
265.004	22.02
265.22	-25.09
265.436	-23.04
265.652	36.35
265.868	-20.99
266.084	34.3
266.3	-10.75
266.516	-0.51
266.732	36.35
266.948	40.45
267.164	-14.85
267.38	85.5
267.596	32.26
267.812	-47.62
268.028	3.58
268.244	-18.94
268.46	44.54
268.676	48.64
268.892	69.12
269.108	11.78
269.324	-78.33
269.54	24.06
269.756	-8.7
269.972	17.92
270.188	13.82
270.403	-14.85
270.619	3.58
270.835	3.58
271.051	36.35
271.267	-45.57
271.483	-18.94
271.698	50.69
271.914	48.64
272.13	101.89
272.346	67.07
272.562	24.06
272.777	1.54
272.993	-35.33
273.209	-10.75
273.425	1.54
273.64	-29.18
273.856	30.21
274.072	32.26
274.287	-70.14
274.503	5.63
274.719	24.06
274.934	17.92
275.15	28.16
275.366	-4.61
275.581	-39.42
275.797	1.54
276.012	15.87
276.228	19.97
276.444	-41.47
276.659	73.21
276.875	24.06
277.09	28.16
277.306	-18.94
277.521	15.87
277.737	19.97
277.952	73.21
278.168	32.26
278.383	42.5
278.599	50.69
278.814	28.16
279.03	-6.66
279.245	83.45
279.461	15.87
279.676	1.54
279.892	-57.86
280.107	-6.66
280.322	-49.66
280.538	60.93
280.753	-51.71
280.969	26.11
281.184	-6.66
281.399	-4.61
281.615	-55.81
281.83	3.58
282.045	-4.61
282.26	-51.71
282.476	-16.9
282.691	-16.9
282.906	-51.71
283.122	15.87
283.337	-37.38
283.552	71.17
283.767	40.45
283.983	-6.66
284.198	22.02
284.413	93.69
284.628	19.97
284.843	7.68
285.058	58.88
285.274	62.98
285.489	11.78
285.704	-2.56
285.919	36.35
286.134	-4.61
286.349	67.07
286.564	-12.8
286.779	108.03
286.995	30.21
287.21	7.68
287.425	-41.47
287.64	24.06
287.855	32.26
288.07	15.87
288.285	81.41
288.5	40.45
288.715	-16.9
288.93	-2.56
289.145	3.58
289.36	24.06
289.575	-16.9
289.79	1.54
290.004	-14.85
290.219	32.26
290.434	30.21
290.649	52.74
290.864	22.02
291.079	28.16
291.294	-4.61
291.509	38.4
291.724	-14.85
291.938	81.41
292.153	-6.66
292.368	28.16
292.583	11.78
292.798	32.26
293.012	26.11
293.227	-39.42
293.442	46.59
293.657	62.98
293.871	95.74
294.086	15.87
294.301	32.26
294.516	32.26
294.73	-2.56
294.945	-35.33
295.16	32.26
295.374	44.54
295.589	32.26
295.804	34.3
296.018	-64
296.233	24.06
296.447	7.68
296.662	-59.9
296.877	-18.94
297.091	44.54
297.306	-4.61
297.52	-43.52
297.735	17.92
297.949	15.87
298.164	-10.75
298.378	-2.56
298.593	83.45
298.807	46.59
299.022	60.93
299.236	-43.52
299.451	60.93
299.665	-12.8
299.88	-20.99
300.094	38.4
300.309	-59.9
300.523	34.3
300.737	9.73
300.952	-82.43
301.166	34.3
301.381	42.5
301.595	32.26
301.809	-2.56
302.024	-41.47
302.238	42.5
302.452	5.63
302.667	-6.66
302.881	40.45
303.095	-31.23
303.309	77.31
303.524	-35.33
303.738	1.54
303.952	-25.09
304.166	77.31
304.381	-61.95
304.595	65.02
304.809	79.36
305.023	15.87
305.237	-8.7
305.452	15.87
305.666	-27.14
305.88	5.63
306.094	22.02
306.308	7.68
306.522	77.31
306.736	24.06
306.95	22.02
307.164	-6.66
307.379	3.58
307.593	-25.09
307.807	24.06
308.021	22.02
308.235	75.26
308.449	77.31
308.663	-57.86
308.877	11.78
309.091	24.06
309.305	-20.99
309.519	-37.38
309.733	89.6
309.947	52.74
310.161	-8.7
310.374	85.5
310.588	38.4
310.802	-57.86
311.016	36.35
311.23	110.08
311.444	26.11
311.658	-27.14
311.872	52.74
312.085	36.35
312.299	3.58
312.513	62.98
312.727	22.02
312.941	24.06
313.154	11.78
313.368	-4.61
313.582	77.31
313.796	62.98
314.009	7.68
314.223	101.89
314.437	13.82
314.651	32.26
314.864	-53.76
315.078	-66.05
315.292	-53.76
315.505	-43.52
315.719	7.68
315.933	38.4
316.146	-66.05
316.36	34.3
316.573	38.4
316.787	22.02
317.001	52.74
317.214	-33.28
317.428	13.82
317.641	-29.18
317.855	42.5
318.068	54.78
318.282	11.78
318.495	17.92
318.709	34.3
318.922	-8.7
319.136	79.36
319.349	62.98
319.563	1.54
319.776	73.21
319.99	-29.18
320.203	19.97
320.417	89.6
320.63	-20.99
320.843	52.74
321.057	24.06
321.27	22.02
321.483	-10.75
321.697	42.5
321.91	30.21
322.124	-86.53
322.337	44.54
322.55	-70.14
322.763	-0.51
322.977	-25.09
323.19	-20.99
323.403	-23.04
323.617	-41.47
323.83	34.3
324.043	28.16
324.256	62.98
324.469	-23.04
324.683	28.16
324.896	19.97
325.109	-27.14
325.322	3.58
325.535	38.4
325.748	28.16
325.962	42.5
326.175	19.97
326.388	26.11
326.601	65.02
326.814	42.5
327.027	19.97
327.24	30.21
327.453	24.06
327.666	46.59
327.879	-0.51
328.092	44.54
328.305	-12.8
328.518	-2.56
328.731	-41.47
328.944	-8.7
329.157	-29.18
329.37	28.16
329.583	5.63
329.796	13.82
330.009	-41.47
330.222	5.63
330.435	32.26
330.648	79.36
330.861	-12.8
331.073	-14.85
331.286	-12.8
331.499	-18.94
331.712	-18.94
331.925	46.59
332.138	30.21
332.35	69.12
332.563	-35.33
332.776	19.97
332.989	-55.81
333.202	19.97
333.414	-16.9
333.627	-29.18
333.84	5.63
334.053	52.74
334.265	32.26
334.478	-16.9
334.691	7.68
334.903	24.06
335.116	19.97
335.329	26.11
335.541	48.64
335.754	71.17
335.966	46.59
336.179	24.06
336.392	46.59
336.604	-2.56
336.817	-16.9
337.029	7.68
337.242	28.16
337.454	9.73
337.667	-2.56
337.88	3.58
338.092	48.64
338.305	-4.61
338.517	-10.75
338.729	65.02
338.942	-20.99
339.154	69.12
339.367	28.16
339.579	1.54
339.792	-51.71
340.004	-2.56
340.217	-29.18
340.429	44.54
340.641	-66.05
340.854	3.58
341.066	-6.66
341.278	44.54
341.491	-33.28
341.703	9.73
341.915	-37.38
342.128	81.41
342.34	42.5
342.552	-12.8
342.764	34.3
342.977	91.65
343.189	-57.86
343.401	77.31
343.613	-53.76
343.826	34.3
344.038	-16.9
344.25	19.97
344.462	38.4
344.674	24.06
344.886	-43.52
345.099	15.87
345.311	48.64
345.523	-20.99
345.735	75.26
345.947	58.88
346.159	-12.8
346.371	-41.47
346.583	-35.33
346.795	30.21
347.007	-6.66
347.219	95.74
347.431	50.69
347.643	22.02
347.855	15.87
348.067	40.45
348.279	97.79
348.491	79.36
348.703	-25.09
348.915	-18.94
349.127	-14.85
349.339	56.83
349.551	-92.67
349.763	34.3
349.975	-20.99
350.187	34.3
350.399	-16.9
350.61	26.11
350.822	79.36
351.034	40.45
351.246	-45.57
351.458	50.69
351.669	-14.85
351.881	-59.9
352.093	56.83
352.305	42.5
352.517	75.26
352.728	52.74
352.94	48.64
353.152	38.4
353.363	13.82
353.575	54.78
353.787	97.79
353.999	101.89
354.21	7.68
354.422	-20.99
354.633	-84.48
354.845	52.74
355.057	48.64
355.268	36.35
355.48	85.5
355.692	34.3
355.903	54.78
356.115	-8.7
356.326	-66.05
356.538	81.41
356.749	-43.52
356.961	-41.47
357.172	60.93
357.384	1.54
357.595	79.36
357.807	112.13
358.018	24.06
358.23	32.26
358.441	60.93
358.653	71.17
358.864	-29.18
359.075	15.87
359.287	44.54
359.498	60.93
359.709	34.3
359.921	44.54
360.132	69.12
360.344	-25.09
360.555	48.64
360.766	-6.66
360.977	24.06
361.189	124.41
361.4	3.58
361.611	-45.57
361.823	52.74
362.034	44.54
362.245	-35.33
362.456	36.35
362.667	-0.51
362.879	26.11
363.09	11.78
363.301	30.21
363.512	101.89
363.723	93.69
363.935	48.64
364.146	3.58
364.357	-10.75
364.568	52.74
364.779	34.3
364.99	28.16
365.201	54.78
365.412	99.84
365.623	19.97
365.834	95.74
366.045	-8.7
366.256	71.17
366.467	38.4
366.678	5.63
366.889	-35.33
367.1	-16.9
367.311	50.69
367.522	58.88
367.733	28.16
367.944	7.68
368.155	9.73
368.366	75.26
368.577	79.36
368.788	40.45
368.999	-8.7
369.209	40.45
369.42	52.74
369.631	52.74
369.842	81.41
370.053	9.73
370.264	93.69
370.474	32.26
370.685	56.83
370.896	67.07
371.107	-0.51
371.317	24.06
371.528	52.74
371.739	69.12
371.95	24.06
372.16	15.87
372.371	5.63
372.582	36.35
372.792	-41.47
373.003	54.78
373.214	50.69
373.424	118.27
373.635	40.45
373.846	42.5
374.056	-10.75
374.267	-20.99
374.477	42.5
374.688	17.92
374.898	67.07
375.109	-18.94
375.319	-20.99
375.53	46.59
375.74	13.82
375.951	34.3
376.161	87.55
376.372	89.6
376.582	-14.85
376.793	9.73
377.003	13.82
377.214	75.26
377.424	24.06
377.635	65.02
377.845	81.41
378.055	58.88
378.266	5.63
378.476	24.06
378.686	69.12
378.897	-2.56
379.107	110.08
379.317	-2.56
379.528	17.92
379.738	-2.56
379.948	103.93
380.158	81.41
380.369	44.54
380.579	32.26
380.789	-10.75
380.999	34.3
381.21	22.02
381.42	62.98
381.63	50.69
381.84	36.35
382.05	44.54
382.261	36.35
382.471	34.3
382.681	46.59
382.891	75.26
383.101	54.78
383.311	-12.8
383.521	-4.61
383.731	7.68
383.941	79.36
384.151	17.92
384.361	89.6
384.571	28.16
384.781	11.78
384.991	85.5
385.201	85.5
385.411	11.78
385.621	-18.94
385.831	-10.75
386.041	83.45
386.251	46.59
386.461	15.87
386.671	60.93
386.881	5.63
387.091	24.06
387.301	89.6
387.511	15.87
387.72	91.65
387.93	132.61
388.14	30.21
388.35	36.35
388.56	83.45
388.769	32.26
388.979	15.87
389.189	-45.57
389.399	30.21
389.609	32.26
389.818	-29.18
390.028	89.6
390.238	101.89
390.447	5.63
390.657	28.16
390.867	36.35
391.076	34.3
391.286	-23.04
391.496	87.55
391.705	22.02
391.915	69.12
392.125	136.7
392.334	89.6
392.544	148.99
392.753	32.26
392.963	58.88
393.172	40.45
393.382	112.13
393.591	130.56
393.801	71.17
394.01	69.12
394.22	62.98
394.429	67.07
394.639	65.02
394.848	60.93
395.058	114.17
395.267	54.78
395.477	153.09
395.686	110.08
395.895	95.74
396.105	124.41
396.314	67.07
396.524	140.8
396.733	50.69
396.942	93.69
397.152	128.51
397.361	46.59
397.57	32.26
397.78	54.78
397.989	97.79
398.198	140.8
398.407	122.37
398.617	130.56
398.826	128.51
399.035	130.56
399.244	71.17
399.453	128.51
399.663	48.64
399.872	134.65
400.081	79.36
400.29	138.75
400.499	62.98
400.708	60.93
400.917	73.21
401.127	73.21
401.336	114.17
401.545	126.46
401.754	138.75
401.963	91.65
402.172	159.23
402.381	124.41
402.59	136.7
402.799	91.65
403.008	122.37
403.217	163.33
403.426	97.79
403.635	95.74
403.844	130.56
404.053	105.98
404.262	69.12
404.471	140.8
404.68	189.95
404.888	112.13
405.097	112.13
405.306	245.24
405.515	187.9
405.724	200.19
405.933	97.79
406.142	224.76
406.35	122.37
406.559	167.42
406.768	89.6
406.977	204.28
407.185	134.65
407.394	179.71
407.603	183.81
407.812	237.05
408.02	187.9
408.229	271.87
408.438	259.58
408.646	192
408.855	200.19
409.064	232.96
409.272	202.24
409.481	292.35
409.69	296.44
409.898	212.48
410.107	302.59
410.315	321.02
410.524	347.64
410.733	300.54
410.941	292.35
411.15	310.78
411.358	361.98
411.567	386.55
411.775	417.27
411.984	384.51
412.192	458.23
412.401	335.35
412.609	505.34
412.818	495.1
413.026	538.1
413.234	579.06
413.443	544.25
413.651	574.97
413.86	497.14
414.068	630.26
414.276	626.17
414.485	570.87
414.693	714.23
414.901	595.45
415.11	663.03
415.318	697.85
415.526	763.38
415.734	706.04
415.943	802.29
416.151	851.44
416.359	830.96
416.567	822.77
416.776	843.25
416.984	904.69
417.192	988.66
417.4	888.31
417.608	908.79
417.817	970.23
418.025	1060.34
418.233	1177.07
418.441	1187.31
418.649	1117.68
418.857	1367.53
419.065	1322.48
419.273	1213.93
419.481	1416.68
419.689	1527.27
419.897	1519.08
420.105	1578.47
420.313	1510.89
420.521	1557.99
420.729	1639.91
420.937	1658.34
421.145	1760.74
421.353	1895.91
421.561	1902.05
421.769	2018.79
421.977	2053.6
422.185	2080.22
422.393	2244.06
422.601	2356.7
422.809	2473.43
423.017	2252.25
423.224	2536.92
423.432	2594.26
423.64	2551.26
423.848	2737.62
424.056	2754.01
424.263	2934.23
424.471	2913.75
424.679	3055.06
424.887	3251.66
425.094	3200.46
425.302	3268.05
425.51	3333.58
425.718	3569.1
425.925	3493.32
426.133	3685.83
426.341	3775.94
426.548	4167.1
426.756	3933.64
426.964	3990.98
427.171	4384.19
427.379	4419
427.586	4488.64
427.794	4773.3
428.001	4982.2
428.209	5027.25
428.417	5045.68
428.624	5375.41
428.832	5393.84
429.039	5477.8
429.247	5295.54
429.454	5805.48
429.662	6315.42
429.869	5633.45
430.076	6198.69
430.284	6088.1
430.491	6112.67
430.699	6751.64
430.906	6669.72
431.114	6626.71
431.321	7073.17
431.528	7128.47
431.736	7638.41
431.943	8002.95
432.15	7751.05
432.358	7884.17
432.565	8293.76
432.772	8017.29
432.979	8535.42
433.187	8750.46
433.394	8703.36
433.601	9432.43
433.808	9401.71
434.016	9452.91
434.223	9796.97
434.43	10530.14
434.637	10134.89
434.844	10835.29
435.052	11152.73
435.259	10888.54
435.466	11240.79
435.673	11038.04
435.88	11547.98
436.087	12227.91
436.294	12189
436.501	11838.8
436.708	12277.06
436.915	12561.73
437.122	13270.33
437.329	13348.15
437.537	13675.82
437.743	13858.09
437.95	13792.56
438.157	14495.01
438.364	15078.68
438.571	15037.72
438.778	14988.57
438.985	16522.5
439.192	15967.5
439.399	16203.02
439.606	16012.56
439.813	16948.48
440.02	17849.58
440.227	17589.49
440.433	17325.3
440.64	18111.72
440.847	17935.6
441.054	18427.11
441.261	19395.8
441.467	19115.23
441.674	20034.77
441.881	20288.71
442.088	20477.13
442.294	20131.02
442.501	20733.12
442.708	21169.34
442.914	21882.03
443.121	22946.98
443.328	22000.82
443.534	23661.72
443.741	23262.37
443.948	22654.12
444.154	24808.58
444.361	24355.98
444.568	24511.63
444.774	24566.92
444.981	25085.06
445.187	25558.14
445.394	26629.23
445.6	26590.31
445.807	28699.72
446.013	27921.49
446.22	27784.28
446.426	29299.78
446.633	29688.89
446.839	30391.34
447.046	28984.39
447.252	30866.47
447.459	30733.36
447.665	31081.51
447.871	32171.03
448.078	33954.81
448.284	31872.03
448.491	32486.42
448.697	34032.63
448.903	34671.6
449.11	34317.3
449.316	33895.42
449.522	34808.81
449.728	35525.6
449.935	35754.97
450.141	35761.12
450.347	36520.91
450.553	35365.86
450.76	35949.53
450.966	36916.17
451.172	36940.75
451.378	37575.62
451.584	36805.58
451.791	37962.68
451.997	38093.75
452.203	38230.97
452.409	38781.87
452.615	38183.87
452.821	36733.9
453.027	36408.28
453.233	38286.26
453.44	37102.54
453.646	37004.24
453.852	37252.04
454.058	38122.43
454.264	36729.81
454.47	37882.81
454.676	36920.27
454.882	37815.23
455.088	34317.3
455.294	35455.97
455.5	35918.81
455.705	36129.75
455.911	34788.33
456.117	33893.37
456.323	33698.81
456.529	31728.67
456.735	33203.21
456.941	32150.55
457.147	32085.01
457.352	30811.18
457.558	30585.9
457.764	30626.86
457.97	29862.97
458.176	29086.79
458.381	29449.28
458.587	27761.75
458.793	27702.36
458.999	26631.27
459.204	28384.33
459.41	27622.49
459.616	25644.15
459.821	25889.91
460.027	25482.36
460.233	25209.98
460.438	24159.38
460.644	24593.54
460.85	23092.38
461.055	22641.83
461.261	22693.03
461.466	21091.52
461.672	20178.12
461.878	22017.2
462.083	20253.9
462.289	19903.7
462.494	19877.07
462.7	19029.21
462.905	18408.68
463.111	18830.56
463.316	19031.26
463.522	18719.97
463.727	18689.25
463.932	18576.61
464.138	18617.57
464.343	18547.94
464.549	18038
464.754	18582.76
464.959	18439.4
465.165	18412.78
465.37	17618.16
465.575	17274.1
465.781	17892.59
465.986	17749.23
466.191	17030.4
466.397	16928
466.602	16213.26
466.807	16588.03
467.012	16790.78
467.218	16426.25
467.423	16170.25
