Data from USB4F104151__69__11-52-36-861.txt Node

Date: Fri Mar 14 11:52:36 EDT 2025
User: louis
Spectrometer: USB4F10415
Trigger mode: 4
Integration Time (sec): 2.000000E-2
Scans to average: 1
Electric dark correction enabled: true
Nonlinearity correction enabled: false
Boxcar width: 0
XAxis mode: Wavelengths
Number of Pixels in Spectrum: 3648
>>>>>Begin Spectral Data<<<<<
178.204	-62.63
178.424	-62.63
178.644	-62.63
178.864	-144.55
179.084	-62.63
179.304	-60.59
179.524	-9.39
179.744	7
179.964	54.1
180.184	-33.96
180.404	-25.77
180.624	29.52
180.844	23.38
181.064	-15.53
181.283	23.38
181.503	2.9
181.723	4.95
181.943	-5.29
182.163	-5.29
182.383	-62.63
182.602	80.72
182.822	80.72
183.042	7
183.262	9.05
183.482	-5.29
183.701	33.62
183.921	2.9
184.141	33.62
184.361	19.29
184.58	-11.43
184.8	2.9
185.02	-1.19
185.239	68.44
185.459	17.24
185.679	-9.39
185.898	9.05
186.118	62.29
186.338	64.34
186.557	-15.53
186.777	15.19
186.997	-70.83
187.216	4.95
187.436	-3.24
187.655	-11.43
187.875	88.92
188.095	56.15
188.314	54.1
188.534	13.14
188.753	66.39
188.973	90.96
189.192	54.1
189.412	76.63
189.631	0.85
189.851	0.85
190.07	80.72
190.29	-23.72
190.509	35.67
190.729	-17.58
190.948	-13.48
191.168	74.58
191.387	119.64
191.607	-44.2
191.826	52.05
192.045	15.19
192.265	31.57
192.484	64.34
192.704	2.9
192.923	15.19
193.142	27.48
193.362	-11.43
193.581	4.95
193.8	-13.48
194.02	-1.19
194.239	-36.01
194.458	-11.43
194.678	56.15
194.897	21.33
195.116	70.48
195.335	45.91
195.555	-19.63
195.774	2.9
195.993	88.92
196.212	29.52
196.432	27.48
196.651	47.96
196.87	-29.87
197.089	25.43
197.308	76.63
197.528	41.81
197.747	54.1
197.966	11.09
198.185	33.62
198.404	39.76
198.623	64.34
198.842	60.24
199.062	-7.34
199.281	-5.29
199.5	52.05
199.719	4.95
199.938	37.72
200.157	54.1
200.376	-13.48
200.595	39.76
200.814	-1.19
201.033	-1.19
201.252	-36.01
201.471	2.9
201.69	45.91
201.909	33.62
202.128	76.63
202.347	68.44
202.566	-5.29
202.785	17.24
203.004	11.09
203.223	95.06
203.442	-23.72
203.661	-17.58
203.879	4.95
204.098	29.52
204.317	37.72
204.536	39.76
204.755	62.29
204.974	13.14
205.193	-1.19
205.411	58.2
205.63	21.33
205.849	-40.11
206.068	-29.87
206.287	47.96
206.505	93.01
206.724	17.24
206.943	4.95
207.162	33.62
207.381	4.95
207.599	2.9
207.818	-19.63
208.037	58.2
208.255	-44.2
208.474	-36.01
208.693	74.58
208.911	45.91
209.13	4.95
209.349	45.91
209.567	39.76
209.786	-50.35
210.005	93.01
210.223	23.38
210.442	0.85
210.661	62.29
210.879	-21.67
211.098	60.24
211.316	-3.24
211.535	82.77
211.753	15.19
211.972	-17.58
212.191	-40.11
212.409	72.53
212.628	9.05
212.846	7
213.065	56.15
213.283	78.68
213.502	35.67
213.72	78.68
213.938	35.67
214.157	15.19
214.375	45.91
214.594	-1.19
214.812	41.81
215.031	-3.24
215.249	11.09
215.467	-13.48
215.686	13.14
215.904	66.39
216.122	37.72
216.341	72.53
216.559	66.39
216.778	37.72
216.996	58.2
217.214	-25.77
217.432	29.52
217.651	39.76
217.869	-60.59
218.087	21.33
218.306	-3.24
218.524	13.14
218.742	-9.39
218.96	127.83
219.179	-21.67
219.397	19.29
219.615	93.01
219.833	23.38
220.051	9.05
220.27	39.76
220.488	95.06
220.706	62.29
220.924	-5.29
221.142	47.96
221.36	47.96
221.578	7
221.796	9.05
222.015	25.43
222.233	39.76
222.451	68.44
222.669	9.05
222.887	37.72
223.105	-23.72
223.323	-36.01
223.541	35.67
223.759	52.05
223.977	68.44
224.195	-3.24
224.413	21.33
224.631	21.33
224.849	23.38
225.067	84.82
225.285	-33.96
225.503	33.62
225.721	-9.39
225.939	82.77
226.157	50
226.375	11.09
226.592	19.29
226.81	29.52
227.028	-15.53
227.246	-23.72
227.464	-15.53
227.682	86.87
227.9	-52.39
228.117	74.58
228.335	45.91
228.553	7
228.771	47.96
228.989	25.43
229.206	25.43
229.424	72.53
229.642	-33.96
229.86	19.29
230.077	52.05
230.295	74.58
230.513	-40.11
230.731	21.33
230.948	2.9
231.166	52.05
231.384	9.05
231.601	15.19
231.819	15.19
232.037	64.34
232.254	-11.43
232.472	21.33
232.689	-3.24
232.907	31.57
233.125	70.48
233.342	31.57
233.56	-40.11
233.777	68.44
233.995	70.48
234.213	72.53
234.43	29.52
234.648	19.29
234.865	-3.24
235.083	17.24
235.3	-21.67
235.518	4.95
235.735	58.2
235.953	35.67
236.17	-68.78
236.388	37.72
236.605	72.53
236.822	60.24
237.04	-70.83
237.257	31.57
237.475	0.85
237.692	70.48
237.909	23.38
238.127	60.24
238.344	-3.24
238.562	-33.96
238.779	31.57
238.996	39.76
239.214	35.67
239.431	43.86
239.648	9.05
239.865	58.2
240.083	45.91
240.3	7
240.517	11.09
240.735	-29.87
240.952	68.44
241.169	84.82
241.386	45.91
241.603	11.09
241.821	35.67
242.038	70.48
242.255	21.33
242.472	43.86
242.689	82.77
242.907	-31.91
243.124	-54.44
243.341	35.67
243.558	7
243.775	21.33
243.992	-72.87
244.209	31.57
244.426	-17.58
244.643	-5.29
244.86	0.85
245.078	31.57
245.295	0.85
245.512	86.87
245.729	-19.63
245.946	45.91
246.163	43.86
246.38	88.92
246.597	-5.29
246.814	58.2
247.031	-48.3
247.248	33.62
247.464	74.58
247.681	72.53
247.898	74.58
248.115	39.76
248.332	-3.24
248.549	19.29
248.766	43.86
248.983	99.16
249.2	25.43
249.417	27.48
249.633	27.48
249.85	45.91
250.067	-89.26
250.284	23.38
250.501	78.68
250.717	90.96
250.934	7
251.151	-74.92
251.368	0.85
251.585	-11.43
251.801	21.33
252.018	13.14
252.235	11.09
252.451	19.29
252.668	-44.2
252.885	39.76
253.102	15.19
253.318	37.72
253.535	-29.87
253.752	-33.96
253.968	4.95
254.185	39.76
254.401	72.53
254.618	25.43
254.835	-17.58
255.051	0.85
255.268	17.24
255.484	105.3
255.701	-46.25
255.917	-3.24
256.134	101.2
256.351	84.82
256.567	-13.48
256.784	-13.48
257	19.29
257.217	82.77
257.433	29.52
257.65	-15.53
257.866	25.43
258.082	4.95
258.299	60.24
258.515	33.62
258.732	39.76
258.948	11.09
259.165	41.81
259.381	56.15
259.597	-15.53
259.814	90.96
260.03	19.29
260.246	4.95
260.463	17.24
260.679	74.58
260.895	25.43
261.112	52.05
261.328	62.29
261.544	39.76
261.761	7
261.977	68.44
262.193	47.96
262.409	52.05
262.626	43.86
262.842	-9.39
263.058	15.19
263.274	64.34
263.49	4.95
263.707	60.24
263.923	125.78
264.139	-13.48
264.355	123.73
264.571	39.76
264.787	-5.29
265.004	-7.34
265.22	7
265.436	-7.34
265.652	-21.67
265.868	11.09
266.084	37.72
266.3	58.2
266.516	78.68
266.732	111.44
266.948	62.29
267.164	-1.19
267.38	31.57
267.596	2.9
267.812	58.2
268.028	13.14
268.244	-29.87
268.46	52.05
268.676	17.24
268.892	80.72
269.108	-52.39
269.324	54.1
269.54	19.29
269.756	-13.48
269.972	15.19
270.188	72.53
270.403	-27.82
270.619	72.53
270.835	47.96
271.051	-40.11
271.267	-52.39
271.483	90.96
271.698	64.34
271.914	80.72
272.13	54.1
272.346	15.19
272.562	19.29
272.777	31.57
272.993	-40.11
273.209	107.35
273.425	2.9
273.64	39.76
273.856	-9.39
274.072	-7.34
274.287	35.67
274.503	35.67
274.719	70.48
274.934	31.57
275.15	4.95
275.366	35.67
275.581	19.29
275.797	29.52
276.012	9.05
276.228	41.81
276.444	23.38
276.659	90.96
276.875	4.95
277.09	41.81
277.306	60.24
277.521	11.09
277.737	58.2
277.952	21.33
278.168	19.29
278.383	-64.68
278.599	78.68
278.814	-27.82
279.03	-15.53
279.245	86.87
279.461	97.11
279.676	72.53
279.892	-21.67
280.107	37.72
280.322	-7.34
280.538	62.29
280.753	-50.35
280.969	50
281.184	41.81
281.399	47.96
281.615	9.05
281.83	68.44
282.045	50
282.26	-40.11
282.476	25.43
282.691	60.24
282.906	-13.48
283.122	27.48
283.337	88.92
283.552	86.87
283.767	27.48
283.983	68.44
284.198	119.64
284.413	56.15
284.628	-48.3
284.843	58.2
285.058	4.95
285.274	84.82
285.489	17.24
285.704	-44.2
285.919	37.72
286.134	41.81
286.349	-13.48
286.564	52.05
286.779	41.81
286.995	21.33
287.21	-83.11
287.425	52.05
287.64	23.38
287.855	-13.48
288.07	-25.77
288.285	43.86
288.5	43.86
288.715	97.11
288.93	7
289.145	45.91
289.36	142.16
289.575	13.14
289.79	-23.72
290.004	4.95
290.219	84.82
290.434	-3.24
290.649	-33.96
290.864	-81.07
291.079	58.2
291.294	7
291.509	0.85
291.724	-1.19
291.938	47.96
292.153	7
292.368	-5.29
292.583	101.2
292.798	50
293.012	78.68
293.227	15.19
293.442	35.67
293.657	52.05
293.871	0.85
294.086	76.63
294.301	39.76
294.516	39.76
294.73	70.48
294.945	17.24
295.16	0.85
295.374	39.76
295.589	9.05
295.804	-87.21
296.018	35.67
296.233	54.1
296.447	-27.82
296.662	-31.91
296.877	33.62
297.091	-23.72
297.306	21.33
297.52	64.34
297.735	62.29
297.949	35.67
298.164	88.92
298.378	101.2
298.593	45.91
298.807	52.05
299.022	-17.58
299.236	76.63
299.451	43.86
299.665	39.76
299.88	0.85
300.094	60.24
300.309	45.91
300.523	21.33
300.737	43.86
300.952	62.29
301.166	23.38
301.381	31.57
301.595	31.57
301.809	-19.63
302.024	58.2
302.238	52.05
302.452	95.06
302.667	93.01
302.881	-3.24
303.095	64.34
303.309	121.68
303.524	33.62
303.738	29.52
303.952	-50.35
304.166	-11.43
304.381	7
304.595	68.44
304.809	-36.01
305.023	45.91
305.237	0.85
305.452	9.05
305.666	99.16
305.88	103.25
306.094	21.33
306.308	27.48
306.522	-27.82
306.736	11.09
306.95	9.05
307.164	29.52
307.379	19.29
307.593	62.29
307.807	123.73
308.021	-11.43
308.235	41.81
308.449	11.09
308.663	31.57
308.877	131.92
309.091	43.86
309.305	45.91
309.519	15.19
309.733	15.19
309.947	58.2
310.161	19.29
310.374	-52.39
310.588	31.57
310.802	13.14
311.016	56.15
311.23	-21.67
311.444	25.43
311.658	47.96
311.872	35.67
312.085	66.39
312.299	66.39
312.513	-11.43
312.727	47.96
312.941	37.72
313.154	27.48
313.368	-21.67
313.582	33.62
313.796	19.29
314.009	39.76
314.223	62.29
314.437	101.2
314.651	54.1
314.864	35.67
315.078	11.09
315.292	-50.35
315.505	21.33
315.719	39.76
315.933	66.39
316.146	-40.11
316.36	56.15
316.573	58.2
316.787	64.34
317.001	66.39
317.214	-3.24
317.428	15.19
317.641	4.95
317.855	90.96
318.068	70.48
318.282	23.38
318.495	11.09
318.709	70.48
318.922	19.29
319.136	95.06
319.349	45.91
319.563	90.96
319.776	2.9
319.99	54.1
320.203	72.53
320.417	56.15
320.63	-3.24
320.843	45.91
321.057	52.05
321.27	74.58
321.483	27.48
321.697	11.09
321.91	11.09
322.124	156.5
322.337	0.85
322.55	11.09
322.763	56.15
322.977	21.33
323.19	-56.49
323.403	-13.48
323.617	52.05
323.83	125.78
324.043	0.85
324.256	90.96
324.469	-23.72
324.683	88.92
324.896	62.29
325.109	-29.87
325.322	7
325.535	50
325.748	86.87
325.962	84.82
326.175	0.85
326.388	-64.68
326.601	31.57
326.814	-17.58
327.027	-9.39
327.24	105.3
327.453	-19.63
327.666	76.63
327.879	64.34
328.092	47.96
328.305	66.39
328.518	-9.39
328.731	52.05
328.944	31.57
329.157	68.44
329.37	43.86
329.583	117.59
329.796	127.83
330.009	-60.59
330.222	58.2
330.435	88.92
330.648	23.38
330.861	-7.34
331.073	-5.29
331.286	23.38
331.499	45.91
331.712	82.77
331.925	25.43
332.138	37.72
332.35	90.96
332.563	54.1
332.776	23.38
332.989	7
333.202	-5.29
333.414	60.24
333.627	68.44
333.84	25.43
334.053	68.44
334.265	-9.39
334.478	19.29
334.691	2.9
334.903	68.44
335.116	9.05
335.329	64.34
335.541	43.86
335.754	11.09
335.966	7
336.179	21.33
336.392	39.76
336.604	-27.82
336.817	148.31
337.029	25.43
337.242	33.62
337.454	45.91
337.667	19.29
337.88	29.52
338.092	-38.06
338.305	93.01
338.517	7
338.729	23.38
338.942	-38.06
339.154	54.1
339.367	27.48
339.579	-33.96
339.792	76.63
340.004	95.06
340.217	-5.29
340.429	45.91
340.641	88.92
340.854	2.9
341.066	-7.34
341.278	29.52
341.491	39.76
341.703	31.57
341.915	15.19
342.128	82.77
342.34	45.91
342.552	47.96
342.764	-50.35
342.977	0.85
343.189	7
343.401	41.81
343.613	17.24
343.826	103.25
344.038	-5.29
344.25	7
344.462	-3.24
344.674	13.14
344.886	56.15
345.099	68.44
345.311	82.77
345.523	29.52
345.735	9.05
345.947	103.25
346.159	70.48
346.371	54.1
346.583	109.4
346.795	76.63
347.007	31.57
347.219	95.06
347.431	-58.54
347.643	19.29
347.855	23.38
348.067	66.39
348.279	17.24
348.491	29.52
348.703	64.34
348.915	35.67
349.127	37.72
349.339	56.15
349.551	-11.43
349.763	7
349.975	82.77
350.187	99.16
350.399	82.77
350.61	11.09
350.822	-1.19
351.034	109.4
351.246	-15.53
351.458	74.58
351.669	113.49
351.881	72.53
352.093	111.44
352.305	90.96
352.517	66.39
352.728	80.72
352.94	76.63
353.152	47.96
353.363	-70.83
353.575	15.19
353.787	78.68
353.999	68.44
354.21	60.24
354.422	58.2
354.633	64.34
354.845	78.68
355.057	23.38
355.268	140.12
355.48	78.68
355.692	47.96
355.903	35.67
356.115	60.24
356.326	-13.48
356.538	80.72
356.749	37.72
356.961	150.36
357.172	29.52
357.384	70.48
357.595	107.35
357.807	27.48
358.018	78.68
358.23	47.96
358.441	70.48
358.653	76.63
358.864	0.85
359.075	37.72
359.287	39.76
359.498	146.26
359.709	78.68
359.921	-13.48
360.132	-5.29
360.344	39.76
360.555	88.92
360.766	117.59
360.977	33.62
361.189	70.48
361.4	62.29
361.611	31.57
361.823	31.57
362.034	27.48
362.245	45.91
362.456	115.54
362.667	58.2
362.879	29.52
363.09	27.48
363.301	72.53
363.512	35.67
363.723	99.16
363.935	43.86
364.146	80.72
364.357	0.85
364.568	39.76
364.779	90.96
364.99	117.59
365.201	15.19
365.412	33.62
365.623	19.29
365.834	97.11
366.045	84.82
366.256	45.91
366.467	68.44
366.678	33.62
366.889	37.72
367.1	90.96
367.311	72.53
367.522	-5.29
367.733	62.29
367.944	15.19
368.155	-11.43
368.366	-11.43
368.577	97.11
368.788	56.15
368.999	76.63
369.209	80.72
369.42	74.58
369.631	52.05
369.842	74.58
370.053	21.33
370.264	52.05
370.474	50
370.685	19.29
370.896	19.29
371.107	90.96
371.317	133.97
371.528	41.81
371.739	39.76
371.95	17.24
372.16	47.96
372.371	41.81
372.582	68.44
372.792	62.29
373.003	43.86
373.214	17.24
373.424	45.91
373.635	33.62
373.846	72.53
374.056	-7.34
374.267	52.05
374.477	7
374.688	-31.91
374.898	0.85
375.109	9.05
375.319	80.72
375.53	23.38
375.74	47.96
375.951	43.86
376.161	56.15
376.372	95.06
376.582	138.07
376.793	13.14
377.003	58.2
377.214	54.1
377.424	88.92
377.635	62.29
377.845	-15.53
378.055	93.01
378.266	-46.25
378.476	0.85
378.686	11.09
378.897	68.44
379.107	56.15
379.317	56.15
379.528	58.2
379.738	76.63
379.948	64.34
380.158	21.33
380.369	88.92
380.579	43.86
380.789	50
380.999	66.39
381.21	107.35
381.42	93.01
381.63	146.26
381.84	70.48
382.05	174.93
382.261	93.01
382.471	17.24
382.681	17.24
382.891	13.14
383.101	97.11
383.311	15.19
383.521	9.05
383.731	86.87
383.941	95.06
384.151	70.48
384.361	13.14
384.571	70.48
384.781	31.57
384.991	101.2
385.201	68.44
385.411	23.38
385.621	115.54
385.831	78.68
386.041	78.68
386.251	45.91
386.461	150.36
386.671	2.9
386.881	60.24
387.091	52.05
387.301	109.4
387.511	21.33
387.72	21.33
387.93	119.64
388.14	-17.58
388.35	74.58
388.56	62.29
388.769	80.72
388.979	4.95
389.189	52.05
389.399	142.16
389.609	101.2
389.818	166.74
390.028	23.38
390.238	52.05
390.447	54.1
390.657	82.77
390.867	80.72
391.076	29.52
391.286	60.24
391.496	64.34
391.705	35.67
391.915	101.2
392.125	43.86
392.334	-1.19
392.544	74.58
392.753	15.19
392.963	54.1
393.172	-15.53
393.382	19.29
393.591	164.69
393.801	62.29
394.01	117.59
394.22	47.96
394.429	95.06
394.639	82.77
394.848	105.3
395.058	19.29
395.267	41.81
395.477	86.87
395.686	52.05
395.895	140.12
396.105	136.02
396.314	41.81
396.524	64.34
396.733	39.76
396.942	162.64
397.152	107.35
397.361	154.45
397.57	80.72
397.78	99.16
397.989	45.91
398.198	168.79
398.407	107.35
398.617	68.44
398.826	80.72
399.035	103.25
399.244	68.44
399.453	113.49
399.663	86.87
399.872	103.25
400.081	133.97
400.29	86.87
400.499	90.96
400.708	119.64
400.917	133.97
401.127	82.77
401.336	90.96
401.545	230.23
401.754	201.55
401.963	127.83
402.172	140.12
402.381	86.87
402.59	70.48
402.799	84.82
403.008	154.45
403.217	183.12
403.426	111.44
403.635	160.59
403.844	113.49
404.053	160.59
404.262	144.21
404.471	119.64
404.68	191.31
404.888	187.22
405.097	146.26
405.306	187.22
405.515	172.88
405.724	205.65
405.933	127.83
406.142	203.6
406.35	211.79
406.559	189.27
406.768	179.03
406.977	336.72
407.185	322.38
407.394	267.09
407.603	244.56
407.812	265.04
408.02	277.33
408.229	234.32
408.438	185.17
408.646	271.19
408.855	203.6
409.064	310.1
409.272	256.85
409.481	359.25
409.69	318.29
409.898	344.91
410.107	344.91
410.315	367.44
410.524	381.78
410.733	361.3
410.941	385.87
411.15	422.73
411.358	404.3
411.567	418.64
411.775	318.29
411.984	392.02
412.192	490.32
412.401	533.33
412.609	555.85
412.818	582.48
413.026	668.49
413.234	562
413.443	555.85
413.651	584.52
413.86	547.66
414.068	555.85
414.276	674.64
414.485	613.2
414.693	650.06
414.901	760.65
415.11	846.66
415.318	836.42
415.526	807.75
415.734	893.77
415.943	908.1
416.151	949.06
416.359	990.02
416.567	981.83
416.776	1008.45
416.984	1059.65
417.192	1045.32
417.4	1092.42
417.608	1121.09
417.817	1186.63
418.025	1301.31
418.233	1248.07
418.441	1221.44
418.649	1354.56
418.857	1356.61
419.065	1491.77
419.273	1454.91
419.481	1526.59
419.689	1563.45
419.897	1561.41
420.105	1719.1
420.313	1667.9
420.521	1893.18
420.729	1762.11
420.937	1915.7
421.145	1895.22
421.353	2097.97
421.561	2087.73
421.769	2147.12
421.977	2259.76
422.185	2231.09
422.393	2394.93
422.601	2564.91
422.809	2519.85
423.017	2538.29
423.224	2728.75
423.432	2718.51
423.64	2771.76
423.848	3046.18
424.056	2925.35
424.263	3246.88
424.471	3226.4
424.679	3162.92
424.887	3425.06
425.094	3580.7
425.302	3509.02
425.51	3646.24
425.718	3779.36
425.925	3918.62
426.133	3922.71
426.341	4152.09
426.548	4414.23
426.756	4471.57
426.964	4371.22
427.171	4719.37
427.379	4815.63
427.586	4842.25
427.794	5032.71
428.001	5247.75
428.209	5413.63
428.417	5344
428.624	5872.38
428.832	5735.17
429.039	5847.8
429.247	5790.46
429.454	6281.97
429.662	6836.97
429.869	6398.71
430.076	6896.36
430.284	6619.89
430.491	6949.61
430.699	7334.63
430.906	7221.99
431.114	7414.5
431.321	7709.41
431.528	7787.23
431.736	8252.12
431.943	8809.17
432.15	8323.8
432.358	8542.93
432.565	8995.53
432.772	8973
432.979	9415.37
433.187	9626.31
433.394	9448.13
433.601	10140.35
433.808	10263.22
434.016	10095.29
434.223	10721.97
434.43	11481.77
434.637	11123.37
434.844	11723.43
435.052	11926.18
435.259	11883.17
435.466	12071.58
435.673	11934.37
435.88	12763.79
436.087	13525.64
436.294	13490.82
436.501	12944.02
436.708	13267.59
436.915	13879.94
437.122	14443.13
437.329	14422.65
437.537	14766.71
437.743	15151.73
437.95	14912.11
438.157	15800.93
438.364	16349.79
438.571	16353.88
438.778	16607.83
438.985	17934.92
439.192	17418.83
439.399	17746.5
439.606	17113.68
439.813	18432.57
440.02	19327.53
440.227	19008.05
440.433	18772.53
440.64	19485.23
440.847	19386.93
441.054	19808.81
441.261	21084.69
441.467	20990.49
441.674	21295.63
441.881	21971.46
442.088	22043.14
442.294	21832.2
442.501	22434.3
442.708	22874.62
442.914	23638.51
443.121	24809.95
443.328	23761.39
443.534	25768.4
443.741	25076.18
443.948	24693.21
444.154	26390.98
444.361	26159.56
444.568	26233.29
444.774	26503.62
444.981	26968.51
445.187	27726.25
445.394	28856.73
445.6	28363.17
445.807	31465.85
446.013	29706.64
446.22	30380.42
446.426	31644.02
446.633	31443.32
446.839	32737.63
447.046	31445.37
447.252	32889.18
447.459	33534.29
447.665	33110.36
447.871	34715.97
448.078	36075.82
448.284	34646.34
448.491	35354.94
448.697	36512.04
448.903	36981.03
449.11	37490.97
449.316	36696.36
449.522	37630.23
449.728	38535.43
449.935	39053.57
450.141	38678.79
450.347	39606.52
450.553	38492.43
450.76	38514.95
450.966	40552.68
451.172	39721.21
451.378	40497.39
451.584	39725.3
451.791	40622.31
451.997	40616.17
452.203	41494.75
452.409	41349.34
452.615	40945.89
452.821	39809.27
453.027	39643.38
453.233	41228.51
453.44	39581.95
453.646	39966.96
453.852	40737
454.058	41191.65
454.264	39768.31
454.47	40724.71
454.676	39702.78
454.882	40859.88
455.088	37779.73
455.294	38330.64
455.5	38625.54
455.705	39059.71
455.911	37396.76
456.117	36770.08
456.323	35918.13
456.529	34500.93
456.735	36055.34
456.941	35062.08
457.147	34357.58
457.352	33392.98
457.558	33106.27
457.764	33065.31
457.97	32498.02
458.176	32070
458.381	32168.3
458.587	30345.61
458.793	30466.44
458.999	29114.78
459.204	30935.42
459.41	29811.09
459.616	27673.01
459.821	28045.74
460.027	28088.74
460.233	27599.28
460.438	26044.87
460.644	26425.79
460.85	25100.76
461.055	24406.5
461.261	24711.64
461.466	22868.47
461.672	22067.72
461.878	23667.18
462.083	22235.65
462.289	21639.69
462.494	21568.01
462.7	20574.75
462.905	19782.18
463.111	20742.68
463.316	20843.03
463.522	19982.88
463.727	20533.79
463.932	20249.12
464.138	20154.91
464.343	20310.56
464.549	19536.43
464.754	20025.89
464.959	19933.73
465.165	19841.57
465.37	19309.1
465.575	18633.27
465.781	19188.27
465.986	19286.58
466.191	18494.01
466.397	18262.59
466.602	17420.88
466.807	17912.39
467.012	18080.32
467.218	18192.96
467.423	17713.74
467.628	17752.65
467.833	18418.24
468.038	17926.72
468.244	17261.13
468.449	17889.86
