Data from USB4F104151__88__11-52-55-439.txt Node

Date: Fri Mar 14 11:52:55 EDT 2025
User: louis
Spectrometer: USB4F10415
Trigger mode: 4
Integration Time (sec): 2.000000E-2
Scans to average: 1
Electric dark correction enabled: true
Nonlinearity correction enabled: false
Boxcar width: 0
XAxis mode: Wavelengths
Number of Pixels in Spectrum: 3648
>>>>>Begin Spectral Data<<<<<
178.204	-103.76
178.424	-103.76
178.644	-103.76
178.864	-81.24
179.084	-42.32
179.304	-42.32
179.524	-3.41
179.744	-27.99
179.964	49.83
180.184	-7.51
180.404	17.07
180.624	-44.37
180.844	45.74
181.064	-5.46
181.283	25.26
181.503	-19.8
181.723	12.97
181.943	53.93
182.163	55.98
182.383	43.69
182.602	49.83
182.822	17.07
183.042	55.98
183.262	58.03
183.482	25.26
183.701	82.6
183.921	23.21
184.141	43.69
184.361	15.02
184.58	-7.51
184.8	135.85
185.02	-3.41
185.239	21.16
185.459	-13.65
185.679	39.59
185.898	-17.75
186.118	35.5
186.338	-23.89
186.557	154.28
186.777	33.45
186.997	21.16
187.216	92.84
187.436	53.93
187.655	53.93
187.875	25.26
188.095	-46.42
188.314	58.03
188.534	-11.61
188.753	17.07
188.973	-60.76
189.192	82.6
189.412	-32.08
189.631	10.92
189.851	35.5
190.07	74.41
190.29	-23.89
190.509	-13.65
190.729	21.16
190.948	43.69
191.168	92.84
191.387	72.36
191.607	-7.51
191.826	-11.61
192.045	6.83
192.265	47.79
192.484	37.55
192.704	66.22
192.923	2.73
193.142	98.99
193.362	62.12
193.581	47.79
193.8	0.68
194.02	37.55
194.239	51.88
194.458	53.93
194.678	45.74
194.897	10.92
195.116	-7.51
195.335	51.88
195.555	84.65
195.774	58.03
195.993	-7.51
196.212	53.93
196.432	35.5
196.651	37.55
196.87	15.02
197.089	45.74
197.308	64.17
197.528	76.46
197.747	-36.18
197.966	4.78
198.185	23.21
198.404	17.07
198.623	-19.8
198.842	4.78
199.062	0.68
199.281	82.6
199.5	37.55
199.719	49.83
199.938	58.03
200.157	27.31
200.376	76.46
200.595	12.97
200.814	-5.46
201.033	-36.18
201.252	-52.56
201.471	86.7
201.69	15.02
201.909	35.5
202.128	29.35
202.347	45.74
202.566	27.31
202.785	58.03
203.004	-27.99
203.223	115.37
203.442	35.5
203.661	-15.7
203.879	0.68
204.098	55.98
204.317	4.78
204.536	41.64
204.755	58.03
204.974	86.7
205.193	19.11
205.411	31.4
205.63	4.78
205.849	51.88
206.068	17.07
206.287	82.6
206.505	-30.04
206.724	12.97
206.943	64.17
207.162	2.73
207.381	55.98
207.599	-23.89
207.818	37.55
208.037	70.31
208.255	53.93
208.474	12.97
208.693	10.92
208.911	-27.99
209.13	27.31
209.349	21.16
209.567	58.03
209.786	109.22
210.005	55.98
210.223	12.97
210.442	21.16
210.661	90.79
210.879	33.45
211.098	-44.37
211.316	39.59
211.535	33.45
211.753	70.31
211.972	47.79
212.191	58.03
212.409	-25.94
212.628	-9.56
212.846	66.22
213.065	-17.75
213.283	17.07
213.502	4.78
213.72	121.51
213.938	27.31
214.157	37.55
214.375	66.22
214.594	35.5
214.812	37.55
215.031	31.4
215.249	-48.47
215.467	43.69
215.686	41.64
215.904	103.08
216.122	51.88
216.341	78.51
216.559	82.6
216.778	-38.23
216.996	80.55
217.214	-3.41
217.432	58.03
217.651	-25.94
217.869	-40.28
218.087	66.22
218.306	4.78
218.524	21.16
218.742	15.02
218.96	-3.41
219.179	15.02
219.397	27.31
219.615	72.36
219.833	111.27
220.051	27.31
220.27	76.46
220.488	94.89
220.706	49.83
220.924	8.87
221.142	82.6
221.36	8.87
221.578	49.83
221.796	19.11
222.015	86.7
222.233	19.11
222.451	0.68
222.669	33.45
222.887	74.41
223.105	4.78
223.323	62.12
223.541	-75.09
223.759	19.11
223.977	27.31
224.195	45.74
224.413	29.35
224.631	23.21
224.849	41.64
225.067	64.17
225.285	4.78
225.503	-40.28
225.721	10.92
225.939	84.65
226.157	-9.56
226.375	47.79
226.592	0.68
226.81	55.98
227.028	-17.75
227.246	62.12
227.464	53.93
227.682	-19.8
227.9	-21.85
228.117	-15.7
228.335	64.17
228.553	74.41
228.771	-5.46
228.989	58.03
229.206	43.69
229.424	-3.41
229.642	62.12
229.86	6.83
230.077	94.89
230.295	15.02
230.513	68.27
230.731	78.51
230.948	27.31
231.166	90.79
231.384	-32.08
231.601	25.26
231.819	17.07
232.037	60.07
232.254	47.79
232.472	43.69
232.689	-27.99
232.907	21.16
233.125	39.59
233.342	12.97
233.56	23.21
233.777	94.89
233.995	0.68
234.213	37.55
234.43	35.5
234.648	96.94
234.865	47.79
235.083	-1.37
235.3	55.98
235.518	55.98
235.735	84.65
235.953	144.04
236.17	0.68
236.388	15.02
236.605	41.64
236.822	107.18
237.04	41.64
237.257	6.83
237.475	25.26
237.692	31.4
237.909	-1.37
238.127	41.64
238.344	47.79
238.562	70.31
238.779	4.78
238.996	-1.37
239.214	19.11
239.431	76.46
239.648	8.87
239.865	33.45
240.083	37.55
240.3	74.41
240.517	60.07
240.735	37.55
240.952	-44.37
241.169	47.79
241.386	23.21
241.603	0.68
241.821	41.64
242.038	113.32
242.255	21.16
242.472	21.16
242.689	51.88
242.907	47.79
243.124	-11.61
243.341	43.69
243.558	-11.61
243.775	-42.32
243.992	-56.66
244.209	41.64
244.426	-9.56
244.643	86.7
244.86	53.93
245.078	27.31
245.295	72.36
245.512	-17.75
245.729	37.55
245.946	41.64
246.163	96.94
246.38	21.16
246.597	15.02
246.814	10.92
247.031	64.17
247.248	41.64
247.464	2.73
247.681	-50.52
247.898	6.83
248.115	0.68
248.332	12.97
248.549	15.02
248.766	94.89
248.983	53.93
249.2	-13.65
249.417	19.11
249.633	29.35
249.85	37.55
250.067	6.83
250.284	84.65
250.501	6.83
250.717	82.6
250.934	-15.7
251.151	-3.41
251.368	10.92
251.585	84.65
251.801	-34.13
252.018	45.74
252.235	60.07
252.451	35.5
252.668	4.78
252.885	86.7
253.102	49.83
253.318	21.16
253.535	0.68
253.752	43.69
253.968	-17.75
254.185	23.21
254.401	-81.24
254.618	6.83
254.835	37.55
255.051	53.93
255.268	29.35
255.484	60.07
255.701	19.11
255.917	0.68
256.134	49.83
256.351	-3.41
256.567	6.83
256.784	39.59
257	-60.76
257.217	84.65
257.433	10.92
257.65	74.41
257.866	58.03
258.082	29.35
258.299	41.64
258.515	109.22
258.732	-17.75
258.948	6.83
259.165	43.69
259.381	15.02
259.597	49.83
259.814	33.45
260.03	39.59
260.246	-42.32
260.463	31.4
260.679	-13.65
260.895	68.27
261.112	29.35
261.328	21.16
261.544	66.22
261.761	62.12
261.977	27.31
262.193	2.73
262.409	31.4
262.626	121.51
262.842	37.55
263.058	15.02
263.274	70.31
263.49	-15.7
263.707	-1.37
263.923	29.35
264.139	53.93
264.355	29.35
264.571	12.97
264.787	90.79
265.004	33.45
265.22	12.97
265.436	15.02
265.652	60.07
265.868	2.73
266.084	41.64
266.3	-5.46
266.516	-30.04
266.732	-27.99
266.948	70.31
267.164	29.35
267.38	66.22
267.596	58.03
267.812	119.46
268.028	27.31
268.244	-32.08
268.46	-3.41
268.676	15.02
268.892	60.07
269.108	64.17
269.324	47.79
269.54	17.07
269.756	35.5
269.972	51.88
270.188	23.21
270.403	21.16
270.619	-11.61
270.835	76.46
271.051	37.55
271.267	-15.7
271.483	117.42
271.698	76.46
271.914	109.22
272.13	41.64
272.346	31.4
272.562	0.68
272.777	6.83
272.993	35.5
273.209	35.5
273.425	90.79
273.64	29.35
273.856	29.35
274.072	29.35
274.287	25.26
274.503	6.83
274.719	111.27
274.934	51.88
275.15	-32.08
275.366	-27.99
275.581	72.36
275.797	62.12
276.012	8.87
276.228	35.5
276.444	39.59
276.659	109.22
276.875	-11.61
277.09	8.87
277.306	41.64
277.521	49.83
277.737	62.12
277.952	62.12
278.168	37.55
278.383	94.89
278.599	29.35
278.814	88.75
279.03	51.88
279.245	96.94
279.461	31.4
279.676	21.16
279.892	58.03
280.107	12.97
280.322	-17.75
280.538	82.6
280.753	-27.99
280.969	-9.56
281.184	29.35
281.399	21.16
281.615	37.55
281.83	-34.13
282.045	-89.43
282.26	49.83
282.476	76.46
282.691	70.31
282.906	68.27
283.122	72.36
283.337	41.64
283.552	55.98
283.767	33.45
283.983	33.45
284.198	47.79
284.413	66.22
284.628	10.92
284.843	29.35
285.058	-23.89
285.274	27.31
285.489	21.16
285.704	94.89
285.919	0.68
286.134	-15.7
286.349	-32.08
286.564	43.69
286.779	33.45
286.995	58.03
287.21	8.87
287.425	47.79
287.64	19.11
287.855	39.59
288.07	4.78
288.285	47.79
288.5	39.59
288.715	-1.37
288.93	-32.08
289.145	-77.14
289.36	68.27
289.575	10.92
289.79	35.5
290.004	51.88
290.219	58.03
290.434	-36.18
290.649	39.59
290.864	29.35
291.079	12.97
291.294	41.64
291.509	15.02
291.724	105.13
291.938	10.92
292.153	6.83
292.368	-32.08
292.583	111.27
292.798	39.59
293.012	15.02
293.227	84.65
293.442	64.17
293.657	68.27
293.871	21.16
294.086	64.17
294.301	-11.61
294.516	103.08
294.73	39.59
294.945	23.21
295.16	-9.56
295.374	55.98
295.589	88.75
295.804	123.56
296.018	105.13
296.233	64.17
296.447	27.31
296.662	-1.37
296.877	10.92
297.091	66.22
297.306	96.94
297.52	-13.65
297.735	10.92
297.949	-3.41
298.164	37.55
298.378	66.22
298.593	-30.04
298.807	23.21
299.022	4.78
299.236	-17.75
299.451	101.03
299.665	72.36
299.88	27.31
300.094	37.55
300.309	12.97
300.523	160.42
300.737	88.75
300.952	-7.51
301.166	39.59
301.381	6.83
301.595	10.92
301.809	39.59
302.024	84.65
302.238	25.26
302.452	123.56
302.667	19.11
302.881	72.36
303.095	15.02
303.309	86.7
303.524	23.21
303.738	82.6
303.952	0.68
304.166	78.51
304.381	53.93
304.595	68.27
304.809	23.21
305.023	43.69
305.237	-36.18
305.452	31.4
305.666	35.5
305.88	-23.89
306.094	109.22
306.308	45.74
306.522	101.03
306.736	86.7
306.95	33.45
307.164	21.16
307.379	39.59
307.593	55.98
307.807	51.88
308.021	66.22
308.235	51.88
308.449	-30.04
308.663	55.98
308.877	60.07
309.091	12.97
309.305	-17.75
309.519	12.97
309.733	58.03
309.947	21.16
310.161	58.03
310.374	4.78
310.588	68.27
310.802	43.69
311.016	51.88
311.23	94.89
311.444	74.41
311.658	98.99
311.872	117.42
312.085	74.41
312.299	2.73
312.513	66.22
312.727	-3.41
312.941	45.74
313.154	-11.61
313.368	23.21
313.582	4.78
313.796	80.55
314.009	39.59
314.223	172.71
314.437	39.59
314.651	49.83
314.864	-36.18
315.078	51.88
315.292	-11.61
315.505	8.87
315.719	53.93
315.933	55.98
316.146	25.26
316.36	103.08
316.573	78.51
316.787	27.31
317.001	51.88
317.214	41.64
317.428	4.78
317.641	-32.08
317.855	90.79
318.068	74.41
318.282	29.35
318.495	10.92
318.709	35.5
318.922	12.97
319.136	70.31
319.349	0.68
319.563	10.92
319.776	45.74
319.99	-3.41
320.203	-50.52
320.417	47.79
320.63	94.89
320.843	76.46
321.057	53.93
321.27	-50.52
321.483	45.74
321.697	80.55
321.91	53.93
322.124	49.83
322.337	43.69
322.55	19.11
322.763	-58.71
322.977	8.87
323.19	-13.65
323.403	82.6
323.617	23.21
323.83	41.64
324.043	107.18
324.256	17.07
324.469	84.65
324.683	66.22
324.896	-15.7
325.109	76.46
325.322	10.92
325.535	90.79
325.748	121.51
325.962	74.41
326.175	8.87
326.388	86.7
326.601	47.79
326.814	33.45
327.027	15.02
327.24	90.79
327.453	-40.28
327.666	-48.47
327.879	-11.61
328.092	51.88
328.305	55.98
328.518	15.02
328.731	66.22
328.944	64.17
329.157	23.21
329.37	19.11
329.583	58.03
329.796	-15.7
330.009	43.69
330.222	51.88
330.435	-1.37
330.648	55.98
330.861	64.17
331.073	64.17
331.286	23.21
331.499	21.16
331.712	31.4
331.925	35.5
332.138	64.17
332.35	72.36
332.563	-15.7
332.776	66.22
332.989	4.78
333.202	86.7
333.414	4.78
333.627	119.46
333.84	-30.04
334.053	35.5
334.265	25.26
334.478	74.41
334.691	-13.65
334.903	37.55
335.116	92.84
335.329	127.66
335.541	-11.61
335.754	51.88
335.966	-48.47
336.179	129.7
336.392	31.4
336.604	-21.85
336.817	-15.7
337.029	41.64
337.242	2.73
337.454	27.31
337.667	-5.46
337.88	15.02
338.092	17.07
338.305	-7.51
338.517	-27.99
338.729	68.27
338.942	58.03
339.154	27.31
339.367	-23.89
339.579	33.45
339.792	41.64
340.004	109.22
340.217	29.35
340.429	53.93
340.641	-46.42
340.854	41.64
341.066	0.68
341.278	76.46
341.491	66.22
341.703	90.79
341.915	47.79
342.128	72.36
342.34	6.83
342.552	-11.61
342.764	31.4
342.977	80.55
343.189	-17.75
343.401	117.42
343.613	70.31
343.826	8.87
344.038	-30.04
344.25	0.68
344.462	-68.95
344.674	25.26
344.886	72.36
345.099	-5.46
345.311	-42.32
345.523	17.07
345.735	-36.18
345.947	17.07
346.159	107.18
346.371	47.79
346.583	17.07
346.795	58.03
347.007	17.07
347.219	62.12
347.431	68.27
347.643	68.27
347.855	41.64
348.067	72.36
348.279	19.11
348.491	45.74
348.703	82.6
348.915	53.93
349.127	64.17
349.339	21.16
349.551	6.83
349.763	-9.56
349.975	-36.18
350.187	29.35
350.399	98.99
350.61	70.31
350.822	25.26
351.034	21.16
351.246	129.7
351.458	37.55
351.669	12.97
351.881	60.07
352.093	41.64
352.305	23.21
352.517	64.17
352.728	101.03
352.94	-9.56
353.152	80.55
353.363	55.98
353.575	41.64
353.787	15.02
353.999	84.65
354.21	92.84
354.422	33.45
354.633	-11.61
354.845	45.74
355.057	109.22
355.268	49.83
355.48	37.55
355.692	-27.99
355.903	25.26
356.115	17.07
356.326	0.68
356.538	33.45
356.749	2.73
356.961	70.31
357.172	2.73
357.384	17.07
357.595	72.36
357.807	74.41
358.018	90.79
358.23	86.7
358.441	-1.37
358.653	33.45
358.864	37.55
359.075	60.07
359.287	125.61
359.498	86.7
359.709	146.09
359.921	92.84
360.132	29.35
360.344	35.5
360.555	-30.04
360.766	60.07
360.977	35.5
361.189	80.55
361.4	21.16
361.611	62.12
361.823	51.88
362.034	53.93
362.245	12.97
362.456	129.7
362.667	15.02
362.879	-62.8
363.09	2.73
363.301	90.79
363.512	35.5
363.723	-9.56
363.935	-44.37
364.146	-46.42
364.357	12.97
364.568	64.17
364.779	41.64
364.99	51.88
365.201	-17.75
365.412	4.78
365.623	33.45
365.834	92.84
366.045	-17.75
366.256	55.98
366.467	94.89
366.678	37.55
366.889	70.31
367.1	47.79
367.311	33.45
367.522	35.5
367.733	8.87
367.944	119.46
368.155	113.32
368.366	23.21
368.577	35.5
368.788	6.83
368.999	25.26
369.209	-3.41
369.42	41.64
369.631	80.55
369.842	129.7
370.053	23.21
370.264	49.83
370.474	25.26
370.685	76.46
370.896	55.98
371.107	29.35
371.317	49.83
371.528	8.87
371.739	53.93
371.95	70.31
372.16	-3.41
372.371	-1.37
372.582	113.32
372.792	-9.56
373.003	55.98
373.214	66.22
373.424	33.45
373.635	29.35
373.846	101.03
374.056	2.73
374.267	-7.51
374.477	31.4
374.688	10.92
374.898	-15.7
375.109	113.32
375.319	23.21
375.53	-23.89
375.74	10.92
375.951	76.46
376.161	55.98
376.372	82.6
376.582	76.46
376.793	115.37
377.003	4.78
377.214	39.59
377.424	62.12
377.635	84.65
377.845	-15.7
378.055	47.79
378.266	12.97
378.476	98.99
378.686	6.83
378.897	90.79
379.107	82.6
379.317	88.75
379.528	27.31
379.738	21.16
379.948	76.46
380.158	55.98
380.369	-40.28
380.579	58.03
380.789	84.65
380.999	94.89
381.21	62.12
381.42	113.32
381.63	109.22
381.84	68.27
382.05	39.59
382.261	105.13
382.471	19.11
382.681	115.37
382.891	37.55
383.101	23.21
383.311	45.74
383.521	2.73
383.731	25.26
383.941	-42.32
384.151	51.88
384.361	92.84
384.571	37.55
384.781	27.31
384.991	68.27
385.201	64.17
385.411	55.98
385.621	92.84
385.831	72.36
386.041	51.88
386.251	0.68
386.461	35.5
386.671	68.27
386.881	15.02
387.091	-13.65
387.301	37.55
387.511	-19.8
387.72	117.42
387.93	101.03
388.14	66.22
388.35	68.27
388.56	76.46
388.769	15.02
388.979	49.83
389.189	109.22
389.399	68.27
389.609	60.07
389.818	23.21
390.028	-9.56
390.238	78.51
390.447	-1.37
390.657	68.27
390.867	51.88
391.076	10.92
391.286	64.17
391.496	33.45
391.705	37.55
391.915	125.61
392.125	8.87
392.334	72.36
392.544	80.55
392.753	51.88
392.963	43.69
393.172	98.99
393.382	15.02
393.591	113.32
393.801	103.08
394.01	127.66
394.22	88.75
394.429	62.12
394.639	96.94
394.848	129.7
395.058	55.98
395.267	109.22
395.477	117.42
395.686	105.13
395.895	131.75
396.105	88.75
396.314	166.57
396.524	82.6
396.733	47.79
396.942	94.89
397.152	45.74
397.361	127.66
397.57	49.83
397.78	74.41
397.989	105.13
398.198	195.24
398.407	90.79
398.617	113.32
398.826	103.08
399.035	72.36
399.244	37.55
399.453	125.61
399.663	193.19
399.872	162.47
400.081	84.65
400.29	127.66
400.499	129.7
400.708	123.56
400.917	74.41
401.127	92.84
401.336	82.6
401.545	90.79
401.754	141.99
401.963	111.27
402.172	144.04
402.381	86.7
402.59	146.09
402.799	154.28
403.008	146.09
403.217	129.7
403.426	156.33
403.635	92.84
403.844	90.79
404.053	33.45
404.262	115.37
404.471	168.62
404.68	152.23
404.888	164.52
405.097	162.47
405.306	96.94
405.515	154.28
405.724	129.7
405.933	178.86
406.142	146.09
406.35	162.47
406.559	178.86
406.768	185
406.977	121.51
407.185	96.94
407.394	156.33
407.603	154.28
407.812	197.29
408.02	182.95
408.229	215.72
408.438	187.05
408.646	199.34
408.855	225.96
409.064	156.33
409.272	271.01
409.481	314.02
409.69	256.68
409.898	148.14
410.107	260.77
410.315	203.43
410.524	307.88
410.733	295.59
410.941	271.01
411.15	346.79
411.358	305.83
411.567	316.07
411.775	289.45
411.984	381.6
412.192	385.7
412.401	400.04
412.609	397.99
412.818	436.9
413.026	416.42
413.234	481.96
413.443	432.8
413.651	408.23
413.86	443.04
414.068	498.34
414.276	559.78
414.485	492.2
414.693	512.67
414.901	529.06
415.11	580.26
415.318	600.74
415.526	637.6
415.734	660.13
415.943	670.37
416.151	754.34
416.359	725.66
416.567	649.89
416.776	752.29
416.984	828.06
417.192	834.21
417.4	866.97
417.608	873.12
417.817	932.51
418.025	895.64
418.233	1010.33
418.441	977.56
418.649	1012.38
418.857	1102.49
419.065	1092.25
419.273	1098.39
419.481	1170.07
419.689	1211.03
419.897	1313.43
420.105	1237.66
420.313	1360.53
420.521	1366.68
420.729	1528.47
420.937	1403.54
421.145	1493.65
421.353	1565.33
421.561	1630.87
421.769	1598.1
421.977	1677.97
422.185	1684.11
422.393	1878.67
422.601	1845.9
422.809	1895.05
423.017	1893.01
423.224	2003.6
423.432	2085.51
423.64	2013.84
423.848	2179.72
424.056	2288.26
424.263	2392.71
424.471	2470.53
424.679	2470.53
424.887	2521.73
425.094	2617.99
425.302	2622.08
425.51	2761.34
425.718	2790.02
425.925	2779.78
426.133	2994.81
426.341	3066.49
426.548	3172.99
426.756	3218.04
426.964	3373.69
427.171	3549.81
427.379	3656.31
427.586	3752.56
427.794	3803.76
428.001	4004.46
428.209	4178.54
428.417	4104.81
428.624	4321.9
428.832	4446.82
429.039	4409.96
429.247	4467.3
429.454	4891.23
429.662	5065.31
429.869	4823.65
430.076	5108.32
430.284	4946.53
430.491	5124.7
430.699	5569.11
430.906	5573.21
431.114	5634.64
431.321	5773.91
431.528	5950.03
431.736	6177.36
431.943	6548.04
432.15	6382.15
432.358	6320.71
432.565	6695.49
432.772	6738.5
432.979	7080.51
433.187	7268.92
433.394	7256.64
433.601	7815.73
433.808	7494.2
434.016	7705.14
434.223	7967.28
434.43	8569.38
434.637	8432.17
434.844	8866.34
435.052	8985.12
435.259	8993.31
435.466	9069.09
435.673	9110.05
435.88	9681.43
436.087	10123.79
436.294	10017.3
436.501	9869.84
436.708	9998.87
436.915	10174.99
437.122	10879.49
437.329	10777.09
437.537	11174.4
437.743	11551.23
437.95	11350.53
438.157	11762.17
438.364	12247.54
438.571	12192.24
438.778	12315.12
438.985	13361.63
439.192	12890.6
439.399	13414.88
439.606	13177.31
439.813	14008.79
440.02	14547.4
440.227	14576.08
440.433	14275.02
440.64	14549.45
440.847	14399.95
441.054	15026.63
441.261	15890.87
441.467	15712.7
441.674	15946.17
441.881	16757.16
442.088	16798.12
442.294	16495.02
442.501	16832.94
442.708	17635.74
442.914	17998.23
443.121	18717.07
443.328	18325.91
443.534	19425.67
443.741	18712.97
443.948	18782.6
444.154	20119.93
444.361	19820.92
444.568	20072.82
444.774	20111.74
444.981	20552.05
445.187	21029.23
445.394	21694.82
445.6	21774.69
445.807	23609.67
446.013	22534.48
446.22	23003.47
446.426	23910.72
446.633	24385.85
446.839	24959.28
447.046	23920.96
447.252	25325.86
447.459	25229.61
447.665	25329.96
447.871	26339.61
448.078	27357.45
448.284	26339.61
448.491	26777.87
448.697	28035.33
448.903	28481.78
449.11	28647.67
449.316	27973.89
449.522	28672.25
449.728	29649.13
449.935	29468.9
450.141	29726.95
450.347	30306.52
450.553	29182.19
450.76	30050.53
450.966	30755.03
451.172	30370.01
451.378	31367.37
451.584	30216.41
451.791	31357.13
451.997	31402.19
452.203	32059.59
452.409	31838.4
452.615	31572.17
452.821	30423.26
453.027	30312.67
453.233	31746.25
453.44	30748.89
453.646	31226.06
453.852	31283.41
454.058	31588.55
454.264	30558.42
454.47	31406.28
454.676	30628.06
454.882	31590.6
455.088	28946.67
455.294	29255.92
455.5	29645.03
455.705	30089.44
455.911	28860.66
456.117	28446.97
456.323	28090.62
456.529	26562.84
456.735	27672.84
456.941	26986.77
457.147	26583.32
457.352	25757.99
457.558	25368.87
457.764	25266.47
457.97	25143.59
458.176	24330.55
458.381	24690.99
458.587	23525.7
458.793	23214.41
458.999	21872.99
459.204	23839.04
459.41	23060.81
459.616	21537.12
459.821	21614.94
460.027	21375.33
460.233	21123.43
460.438	20078.97
460.644	20203.89
460.85	19288.45
461.055	18950.54
461.261	18776.46
461.466	17564.06
461.672	17017.25
461.878	18139.54
462.083	17113.51
462.289	16636.33
462.494	16443.82
462.7	15958.46
462.905	15419.84
463.111	15899.06
463.316	15927.74
463.522	15692.22
463.727	15929.78
463.932	15425.98
464.138	15450.56
464.343	15612.35
464.549	15065.54
464.754	15475.13
464.959	15368.64
465.165	15385.02
465.37	14594.51
465.575	14346.7
465.781	14875.08
465.986	14903.75
466.191	14619.08
466.397	14244.31
466.602	13367.77
466.807	13898.2
467.012	13904.34
467.218	14070.23
467.423	13685.21
467.628	13609.43
