Data from USB4F104151__97__11-53-02-038.txt Node

Date: Fri Mar 14 11:53:02 EDT 2025
User: louis
Spectrometer: USB4F10415
Trigger mode: 4
Integration Time (sec): 2.000000E-2
Scans to average: 1
Electric dark correction enabled: true
Nonlinearity correction enabled: false
Boxcar width: 0
XAxis mode: Wavelengths
Number of Pixels in Spectrum: 3648
>>>>>Begin Spectral Data<<<<<
178.204	-38.4
178.424	-38.4
178.644	-38.4
178.864	-91.65
179.084	-120.32
179.304	-60.93
179.524	43.52
179.744	-22.02
179.964	20.99
180.184	-34.3
180.404	4.61
180.624	-71.17
180.844	18.94
181.064	6.66
181.283	43.52
181.503	31.23
181.723	18.94
181.943	-65.02
182.163	27.14
182.383	-65.02
182.602	16.9
182.822	72.19
183.042	-9.73
183.262	55.81
183.482	-28.16
183.701	23.04
183.921	53.76
184.141	-79.36
184.361	84.48
184.58	-30.21
184.8	86.53
185.02	-36.35
185.239	61.95
185.459	-79.36
185.679	10.75
185.898	-9.73
186.118	33.28
186.338	31.23
186.557	59.9
186.777	-28.16
186.997	70.14
187.216	-11.78
187.436	109.05
187.655	14.85
187.875	18.94
188.095	20.99
188.314	29.18
188.534	-7.68
188.753	-36.35
188.973	41.47
189.192	-9.73
189.412	12.8
189.631	-58.88
189.851	35.33
190.07	86.53
190.29	31.23
190.509	8.7
190.729	20.99
190.948	-26.11
191.168	74.24
191.387	61.95
191.607	57.86
191.826	84.48
192.045	72.19
192.265	-9.73
192.484	-3.58
192.704	-34.3
192.923	64
193.142	68.09
193.362	8.7
193.581	6.66
193.8	45.57
194.02	82.43
194.239	-42.5
194.458	0.51
194.678	-17.92
194.897	8.7
195.116	16.9
195.335	-32.26
195.555	6.66
195.774	12.8
195.993	33.28
196.212	-13.82
196.432	16.9
196.651	14.85
196.87	-42.5
197.089	29.18
197.308	-73.21
197.528	43.52
197.747	72.19
197.966	12.8
198.185	33.28
198.404	20.99
198.623	33.28
198.842	-7.68
199.062	-50.69
199.281	76.29
199.5	-38.4
199.719	53.76
199.938	-34.3
200.157	119.29
200.376	-32.26
200.595	2.56
200.814	20.99
201.033	55.81
201.252	68.09
201.471	-36.35
201.69	35.33
201.909	33.28
202.128	-75.26
202.347	27.14
202.566	49.66
202.785	4.61
203.004	-58.88
203.223	82.43
203.442	18.94
203.661	29.18
203.879	43.52
204.098	76.29
204.317	57.86
204.536	16.9
204.755	-5.63
204.974	53.76
205.193	-69.12
205.411	25.09
205.63	-73.21
205.849	14.85
206.068	-13.82
206.287	72.19
206.505	16.9
206.724	16.9
206.943	-34.3
207.162	-7.68
207.381	64
207.599	18.94
207.818	-5.63
208.037	23.04
208.255	-13.82
208.474	4.61
208.693	-15.87
208.911	53.76
209.13	47.62
209.349	-11.78
209.567	14.85
209.786	41.47
210.005	39.42
210.223	47.62
210.442	-22.02
210.661	31.23
210.879	74.24
211.098	33.28
211.316	4.61
211.535	10.75
211.753	-15.87
211.972	10.75
212.191	37.38
212.409	43.52
212.628	84.48
212.846	-19.97
213.065	29.18
213.283	8.7
213.502	33.28
213.72	39.42
213.938	-7.68
214.157	27.14
214.375	4.61
214.594	55.81
214.812	2.56
215.031	-34.3
215.249	49.66
215.467	14.85
215.686	35.33
215.904	-9.73
216.122	-44.54
216.341	86.53
216.559	-1.54
216.778	94.72
216.996	-15.87
217.214	64
217.432	-17.92
217.651	39.42
217.869	-32.26
218.087	92.67
218.306	64
218.524	76.29
218.742	55.81
218.96	25.09
219.179	2.56
219.397	-1.54
219.615	74.24
219.833	41.47
220.051	-1.54
220.27	12.8
220.488	23.04
220.706	-36.35
220.924	-71.17
221.142	92.67
221.36	4.61
221.578	-30.21
221.796	-17.92
222.015	94.72
222.233	37.38
222.451	92.67
222.669	-56.83
222.887	43.52
223.105	66.05
223.323	-1.54
223.541	31.23
223.759	102.91
223.977	35.33
224.195	61.95
224.413	68.09
224.631	-11.78
224.849	16.9
225.067	41.47
225.285	49.66
225.503	16.9
225.721	18.94
225.939	41.47
226.157	59.9
226.375	90.62
226.592	25.09
226.81	16.9
227.028	-15.87
227.246	12.8
227.464	-9.73
227.682	16.9
227.9	16.9
228.117	33.28
228.335	14.85
228.553	35.33
228.771	12.8
228.989	100.86
229.206	10.75
229.424	-15.87
229.642	25.09
229.86	29.18
230.077	35.33
230.295	8.7
230.513	14.85
230.731	23.04
230.948	-13.82
231.166	59.9
231.384	41.47
231.601	8.7
231.819	8.7
232.037	-3.58
232.254	41.47
232.472	16.9
232.689	-15.87
232.907	-1.54
233.125	-5.63
233.342	35.33
233.56	-48.64
233.777	78.33
233.995	51.71
234.213	53.76
234.43	2.56
234.648	29.18
234.865	4.61
235.083	-15.87
235.3	8.7
235.518	59.9
235.735	98.81
235.953	6.66
236.17	16.9
236.388	-34.3
236.605	68.09
236.822	8.7
237.04	31.23
237.257	66.05
237.475	16.9
237.692	76.29
237.909	51.71
238.127	8.7
238.344	43.52
238.562	90.62
238.779	-7.68
238.996	-15.87
239.214	25.09
239.431	43.52
239.648	88.57
239.865	20.99
240.083	96.77
240.3	-3.58
240.517	-19.97
240.735	0.51
240.952	31.23
241.169	-15.87
241.386	12.8
241.603	47.62
241.821	-22.02
242.038	74.24
242.255	68.09
242.472	51.71
242.689	61.95
242.907	102.91
243.124	31.23
243.341	20.99
243.558	88.57
243.775	61.95
243.992	-13.82
244.209	-1.54
244.426	92.67
244.643	-1.54
244.86	8.7
245.078	14.85
245.295	59.9
245.512	-15.87
245.729	18.94
245.946	59.9
246.163	-24.06
246.38	12.8
246.597	-7.68
246.814	74.24
247.031	-30.21
247.248	10.75
247.464	-36.35
247.681	61.95
247.898	31.23
248.115	57.86
248.332	2.56
248.549	35.33
248.766	115.2
248.983	0.51
249.2	-17.92
249.417	-1.54
249.633	6.66
249.85	37.38
250.067	10.75
250.284	35.33
250.501	41.47
250.717	-17.92
250.934	-9.73
251.151	-3.58
251.368	12.8
251.585	25.09
251.801	76.29
252.018	53.76
252.235	16.9
252.451	16.9
252.668	-7.68
252.885	10.75
253.102	43.52
253.318	29.18
253.535	-17.92
253.752	-67.07
253.968	-32.26
254.185	43.52
254.401	-42.5
254.618	35.33
254.835	2.56
255.051	33.28
255.268	55.81
255.484	-71.17
255.701	23.04
255.917	57.86
256.134	-11.78
256.351	-15.87
256.567	-60.93
256.784	-5.63
257	-40.45
257.217	80.38
257.433	0.51
257.65	35.33
257.866	64
258.082	47.62
258.299	16.9
258.515	78.33
258.732	-24.06
258.948	0.51
259.165	-30.21
259.381	41.47
259.597	35.33
259.814	61.95
260.03	55.81
260.246	12.8
260.463	10.75
260.679	49.66
260.895	27.14
261.112	-1.54
261.328	-89.6
261.544	14.85
261.761	121.34
261.977	-11.78
262.193	27.14
262.409	16.9
262.626	39.42
262.842	23.04
263.058	-32.26
263.274	41.47
263.49	-58.88
263.707	-17.92
263.923	-17.92
264.139	-56.83
264.355	-9.73
264.571	-62.98
264.787	57.86
265.004	27.14
265.22	78.33
265.436	-42.5
265.652	14.85
265.868	29.18
266.084	14.85
266.3	-3.58
266.516	4.61
266.732	80.38
266.948	18.94
267.164	10.75
267.38	98.81
267.596	86.53
267.812	53.76
268.028	-7.68
268.244	64
268.46	104.96
268.676	-5.63
268.892	41.47
269.108	41.47
269.324	6.66
269.54	2.56
269.756	70.14
269.972	-11.78
270.188	-54.78
270.403	27.14
270.619	45.57
270.835	43.52
271.051	-26.11
271.267	-46.59
271.483	-13.82
271.698	16.9
271.914	10.75
272.13	4.61
272.346	51.71
272.562	-30.21
272.777	20.99
272.993	25.09
273.209	-50.69
273.425	-1.54
273.64	39.42
273.856	6.66
274.072	-15.87
274.287	-7.68
274.503	16.9
274.719	29.18
274.934	18.94
275.15	-44.54
275.366	14.85
275.581	-7.68
275.797	66.05
276.012	59.9
276.228	92.67
276.444	10.75
276.659	16.9
276.875	16.9
277.09	53.76
277.306	45.57
277.521	-3.58
277.737	6.66
277.952	10.75
278.168	12.8
278.383	2.56
278.599	29.18
278.814	49.66
279.03	-22.02
279.245	39.42
279.461	-38.4
279.676	-3.58
279.892	35.33
280.107	-24.06
280.322	61.95
280.538	43.52
280.753	88.57
280.969	-79.36
281.184	-32.26
281.399	-34.3
281.615	45.57
281.83	27.14
282.045	-1.54
282.26	8.7
282.476	25.09
282.691	0.51
282.906	25.09
283.122	-24.06
283.337	33.28
283.552	29.18
283.767	-3.58
283.983	53.76
284.198	-52.74
284.413	18.94
284.628	2.56
284.843	41.47
285.058	16.9
285.274	-9.73
285.489	-50.69
285.704	53.76
285.919	31.23
286.134	51.71
286.349	57.86
286.564	16.9
286.779	45.57
286.995	18.94
287.21	59.9
287.425	43.52
287.64	33.28
287.855	-40.45
288.07	45.57
288.285	-38.4
288.5	64
288.715	6.66
288.93	-13.82
289.145	23.04
289.36	-9.73
289.575	-38.4
289.79	0.51
290.004	74.24
290.219	-5.63
290.434	47.62
290.649	-22.02
290.864	53.76
291.079	20.99
291.294	-3.58
291.509	43.52
291.724	57.86
291.938	-5.63
292.153	20.99
292.368	47.62
292.583	-11.78
292.798	72.19
293.012	12.8
293.227	12.8
293.442	66.05
293.657	53.76
293.871	41.47
294.086	35.33
294.301	88.57
294.516	117.25
294.73	47.62
294.945	27.14
295.16	39.42
295.374	-19.97
295.589	20.99
295.804	8.7
296.018	-26.11
296.233	33.28
296.447	39.42
296.662	39.42
296.877	14.85
297.091	8.7
297.306	20.99
297.52	-17.92
297.735	-7.68
297.949	2.56
298.164	-3.58
298.378	74.24
298.593	76.29
298.807	-13.82
299.022	-9.73
299.236	104.96
299.451	39.42
299.665	6.66
299.88	31.23
300.094	-26.11
300.309	18.94
300.523	-65.02
300.737	12.8
300.952	23.04
301.166	66.05
301.381	-3.58
301.595	31.23
301.809	14.85
302.024	45.57
302.238	-42.5
302.452	64
302.667	43.52
302.881	39.42
303.095	70.14
303.309	14.85
303.524	47.62
303.738	-5.63
303.952	-3.58
304.166	23.04
304.381	12.8
304.595	98.81
304.809	4.61
305.023	31.23
305.237	70.14
305.452	6.66
305.666	51.71
305.88	-24.06
306.094	72.19
306.308	74.24
306.522	68.09
306.736	41.47
306.95	0.51
307.164	74.24
307.379	23.04
307.593	35.33
307.807	72.19
308.021	-17.92
308.235	49.66
308.449	37.38
308.663	6.66
308.877	94.72
309.091	-17.92
309.305	43.52
309.519	-17.92
309.733	10.75
309.947	-69.12
310.161	70.14
310.374	10.75
310.588	31.23
310.802	-24.06
311.016	109.05
311.23	18.94
311.444	57.86
311.658	39.42
311.872	68.09
312.085	16.9
312.299	64
312.513	31.23
312.727	29.18
312.941	8.7
313.154	-15.87
313.368	-32.26
313.582	74.24
313.796	-36.35
314.009	-7.68
314.223	-13.82
314.437	-17.92
314.651	90.62
314.864	-11.78
315.078	2.56
315.292	-36.35
315.505	49.66
315.719	14.85
315.933	8.7
316.146	25.09
316.36	-32.26
316.573	16.9
316.787	88.57
317.001	-24.06
317.214	25.09
317.428	35.33
317.641	43.52
317.855	49.66
318.068	16.9
318.282	41.47
318.495	84.48
318.709	2.56
318.922	27.14
319.136	141.82
319.349	2.56
319.563	-1.54
319.776	16.9
319.99	-11.78
320.203	-24.06
320.417	12.8
320.63	25.09
320.843	43.52
321.057	37.38
321.27	78.33
321.483	66.05
321.697	104.96
321.91	35.33
322.124	76.29
322.337	76.29
322.55	-22.02
322.763	-13.82
322.977	61.95
323.19	-9.73
323.403	10.75
323.617	37.38
323.83	53.76
324.043	33.28
324.256	-62.98
324.469	-28.16
324.683	33.28
324.896	39.42
325.109	59.9
325.322	-48.64
325.535	39.42
325.748	23.04
325.962	0.51
326.175	-11.78
326.388	-9.73
326.601	-38.4
326.814	45.57
327.027	43.52
327.24	47.62
327.453	12.8
327.666	23.04
327.879	18.94
328.092	51.71
328.305	117.25
328.518	8.7
328.731	51.71
328.944	47.62
329.157	53.76
329.37	39.42
329.583	18.94
329.796	-5.63
330.009	37.38
330.222	68.09
330.435	14.85
330.648	35.33
330.861	39.42
331.073	8.7
331.286	61.95
331.499	-7.68
331.712	18.94
331.925	-5.63
332.138	-44.54
332.35	57.86
332.563	-60.93
332.776	76.29
332.989	-54.78
333.202	25.09
333.414	39.42
333.627	12.8
333.84	0.51
334.053	84.48
334.265	-19.97
334.478	-30.21
334.691	-44.54
334.903	59.9
335.116	-42.5
335.329	51.71
335.541	64
335.754	-11.78
335.966	8.7
336.179	72.19
336.392	20.99
336.604	12.8
336.817	-17.92
337.029	92.67
337.242	-5.63
337.454	41.47
337.667	47.62
337.88	53.76
338.092	88.57
338.305	-13.82
338.517	16.9
338.729	43.52
338.942	41.47
339.154	88.57
339.367	2.56
339.579	-5.63
339.792	8.7
340.004	12.8
340.217	-30.21
340.429	14.85
340.641	10.75
340.854	0.51
341.066	53.76
341.278	82.43
341.491	18.94
341.703	-17.92
341.915	8.7
342.128	27.14
342.34	14.85
342.552	37.38
342.764	68.09
342.977	49.66
343.189	80.38
343.401	-1.54
343.613	39.42
343.826	41.47
344.038	-32.26
344.25	10.75
344.462	-5.63
344.674	-22.02
344.886	39.42
345.099	59.9
345.311	-77.31
345.523	-17.92
345.735	0.51
345.947	31.23
346.159	-11.78
346.371	37.38
346.583	-17.92
346.795	84.48
347.007	35.33
347.219	-19.97
347.431	-7.68
347.643	61.95
347.855	16.9
348.067	18.94
348.279	47.62
348.491	55.81
348.703	64
348.915	14.85
349.127	66.05
349.339	-34.3
349.551	-36.35
349.763	-38.4
349.975	8.7
350.187	86.53
350.399	-3.58
350.61	-11.78
350.822	51.71
351.034	-28.16
351.246	18.94
351.458	-13.82
351.669	10.75
351.881	66.05
352.093	57.86
352.305	25.09
352.517	35.33
352.728	-28.16
352.94	51.71
353.152	31.23
353.363	20.99
353.575	12.8
353.787	25.09
353.999	72.19
354.21	154.11
354.422	-1.54
354.633	20.99
354.845	-3.58
355.057	2.56
355.268	6.66
355.48	59.9
355.692	-40.45
355.903	20.99
356.115	43.52
356.326	-26.11
356.538	-11.78
356.749	23.04
356.961	59.9
357.172	2.56
357.384	6.66
357.595	111.1
357.807	43.52
358.018	-17.92
358.23	37.38
358.441	57.86
358.653	61.95
358.864	53.76
359.075	86.53
359.287	74.24
359.498	74.24
359.709	125.44
359.921	74.24
360.132	-22.02
360.344	23.04
360.555	4.61
360.766	68.09
360.977	-22.02
361.189	66.05
361.4	29.18
361.611	66.05
361.823	18.94
362.034	23.04
362.245	23.04
362.456	43.52
362.667	68.09
362.879	41.47
363.09	53.76
363.301	4.61
363.512	29.18
363.723	-26.11
363.935	35.33
364.146	10.75
364.357	20.99
364.568	100.86
364.779	14.85
364.99	31.23
365.201	-15.87
365.412	72.19
365.623	47.62
365.834	-24.06
366.045	25.09
366.256	37.38
366.467	37.38
366.678	66.05
366.889	6.66
367.1	8.7
367.311	0.51
367.522	4.61
367.733	55.81
367.944	29.18
368.155	47.62
368.366	68.09
368.577	27.14
368.788	-5.63
368.999	-1.54
369.209	41.47
369.42	57.86
369.631	33.28
369.842	6.66
370.053	45.57
370.264	4.61
370.474	4.61
370.685	27.14
370.896	-17.92
371.107	6.66
371.317	57.86
371.528	12.8
371.739	55.81
371.95	-1.54
372.16	82.43
372.371	29.18
372.582	37.38
372.792	59.9
373.003	70.14
373.214	49.66
373.424	121.34
373.635	88.57
373.846	45.57
374.056	-17.92
374.267	-1.54
374.477	23.04
374.688	-7.68
374.898	31.23
375.109	74.24
375.319	25.09
375.53	86.53
375.74	-9.73
375.951	-24.06
376.161	64
376.372	10.75
376.582	-36.35
376.793	39.42
377.003	59.9
377.214	39.42
377.424	-22.02
377.635	-40.45
377.845	47.62
378.055	43.52
378.266	72.19
378.476	53.76
378.686	55.81
378.897	70.14
379.107	74.24
379.317	86.53
379.528	-30.21
379.738	76.29
379.948	47.62
380.158	-3.58
380.369	0.51
380.579	123.39
380.789	33.28
380.999	18.94
381.21	16.9
381.42	78.33
381.63	-24.06
381.84	68.09
382.05	119.29
382.261	104.96
382.471	16.9
382.681	123.39
382.891	59.9
383.101	68.09
383.311	16.9
383.521	115.2
383.731	-62.98
383.941	59.9
384.151	84.48
384.361	29.18
384.571	-5.63
384.781	61.95
384.991	78.33
385.201	74.24
385.411	68.09
385.621	-19.97
385.831	-30.21
386.041	-15.87
386.251	92.67
386.461	29.18
386.671	-26.11
386.881	51.71
387.091	55.81
387.301	80.38
387.511	45.57
387.72	35.33
387.93	57.86
388.14	6.66
388.35	10.75
388.56	37.38
388.769	-3.58
388.979	35.33
389.189	-3.58
389.399	47.62
389.609	-24.06
389.818	47.62
390.028	80.38
390.238	57.86
390.447	45.57
390.657	25.09
390.867	47.62
391.076	2.56
391.286	129.53
391.496	70.14
391.705	107.01
391.915	98.81
392.125	39.42
392.334	102.91
392.544	47.62
392.753	37.38
392.963	12.8
393.172	59.9
393.382	8.7
393.591	57.86
393.801	53.76
394.01	68.09
394.22	131.58
394.429	109.05
394.639	76.29
394.848	113.15
395.058	74.24
395.267	31.23
395.477	39.42
395.686	86.53
395.895	96.77
396.105	135.68
396.314	-9.73
396.524	41.47
396.733	27.14
396.942	143.87
397.152	6.66
397.361	76.29
397.57	72.19
397.78	27.14
397.989	49.66
398.198	111.1
398.407	27.14
398.617	55.81
398.826	16.9
399.035	74.24
399.244	76.29
399.453	82.43
399.663	68.09
399.872	139.77
400.081	84.48
400.29	135.68
400.499	88.57
400.708	133.63
400.917	68.09
401.127	25.09
401.336	59.9
401.545	104.96
401.754	74.24
401.963	98.81
402.172	76.29
402.381	33.28
402.59	135.68
402.799	12.8
403.008	145.92
403.217	141.82
403.426	45.57
403.635	104.96
403.844	82.43
404.053	100.86
404.262	68.09
404.471	92.67
404.68	53.76
404.888	139.77
405.097	98.81
405.306	102.91
405.515	45.57
405.724	131.58
405.933	111.1
406.142	104.96
406.35	170.49
406.559	162.3
406.768	143.87
406.977	113.15
407.185	104.96
407.394	94.72
407.603	119.29
407.812	254.46
408.02	104.96
408.229	188.93
408.438	137.73
408.646	184.83
408.855	203.26
409.064	145.92
409.272	209.4
409.481	205.31
409.69	221.69
409.898	168.45
410.107	217.6
410.315	217.6
410.524	252.41
410.733	221.69
410.941	199.16
411.15	285.18
411.358	293.37
411.567	293.37
411.775	246.27
411.984	195.07
412.192	276.99
412.401	242.17
412.609	266.75
412.818	348.67
413.026	332.28
413.234	303.61
413.443	285.18
413.651	410.11
413.86	399.87
414.068	434.68
414.276	436.73
414.485	416.25
414.693	434.68
414.901	424.44
415.11	420.35
415.318	559.61
415.526	489.98
415.734	518.65
415.943	530.94
416.151	555.51
416.359	569.85
416.567	602.61
416.776	625.14
416.984	582.14
417.192	641.53
417.4	664.05
417.608	635.38
417.817	672.25
418.025	797.17
418.233	760.31
418.441	748.02
418.649	807.41
418.857	807.41
419.065	956.91
419.273	860.66
419.481	840.18
419.689	1020.4
419.897	1034.74
420.105	993.78
420.313	999.92
420.521	1157.61
420.729	1085.94
420.937	1188.33
421.145	1274.35
421.353	1350.12
421.561	1325.55
421.769	1311.21
421.977	1438.19
422.185	1382.89
422.393	1530.34
422.601	1642.98
422.809	1567.21
423.017	1569.26
423.224	1702.37
423.432	1729
423.64	1753.57
423.848	1847.78
424.056	1765.86
424.263	2013.67
424.471	1919.46
424.679	2093.54
424.887	2021.86
425.094	2116.06
425.302	2200.03
425.51	2316.76
425.718	2300.38
425.925	2351.58
426.133	2544.09
426.341	2601.43
426.548	2716.12
426.756	2558.42
426.964	2750.93
427.171	2783.7
427.379	3035.6
427.586	2961.87
427.794	3109.33
428.001	3234.25
428.209	3416.52
428.417	3430.86
428.624	3588.55
428.832	3680.71
429.039	3553.74
429.247	3537.35
429.454	3865.03
429.662	4110.79
429.869	3908.04
430.076	4217.28
430.284	3916.23
430.491	4141.5
430.699	4448.7
430.906	4350.4
431.114	4594.11
431.321	4479.42
431.528	4741.56
431.736	4997.56
431.943	5337.52
432.15	5099.95
432.358	5206.45
432.565	5519.79
432.772	5511.6
432.979	5720.49
433.187	5974.44
433.394	5831.08
433.601	6427.04
433.808	6209.95
434.016	6166.95
434.223	6453.66
434.43	6613.4
434.637	6777.24
434.844	7188.88
435.052	7285.14
435.259	7256.47
435.466	7328.14
435.673	7156.11
435.88	7842.18
436.087	7967.11
436.294	8380.8
436.501	8012.17
436.708	8161.67
436.915	8462.72
437.122	8739.19
437.329	8810.87
437.537	8974.71
437.743	9271.67
437.95	9113.97
438.157	9642.35
438.364	9943.4
438.571	9894.25
438.778	10006.89
438.985	11039.06
439.192	10289.51
439.399	10877.27
439.606	10400.1
439.813	11116.89
440.02	11710.8
440.227	11725.13
440.433	11497.81
440.64	11884.87
440.847	11743.56
441.054	12058.95
441.261	12958.01
441.467	12765.5
441.674	12945.72
441.881	13670.7
442.088	13349.17
442.294	13261.11
442.501	13586.74
442.708	14182.7
442.914	14428.45
443.121	15362.33
443.328	14651.68
443.534	15683.86
443.741	15419.67
443.948	15120.67
444.154	16214.28
444.361	15976.72
444.568	16306.44
444.774	16265.48
444.981	16595.2
445.187	16853.25
445.394	17627.38
445.6	17273.08
445.807	19130.59
446.013	18338.02
446.22	18866.4
446.426	19290.33
446.633	19661.01
446.839	20234.44
447.046	19691.73
447.252	20383.94
447.459	20238.54
447.665	20412.62
447.871	21096.64
448.078	22137.01
448.284	20877.51
448.491	21571.77
448.697	22692.01
448.903	23015.58
449.11	23101.6
449.316	22544.55
449.522	23234.72
449.728	23730.33
449.935	24164.5
450.141	23845.01
450.347	24782.98
450.553	23642.26
450.76	23969.94
450.966	24998.02
451.172	24576.14
451.378	25211.01
451.584	24547.47
451.791	25667.7
451.997	25073.79
452.203	25761.91
452.409	25581.69
452.615	25329.79
452.821	24543.37
453.027	24303.76
453.233	25415.8
453.44	24432.78
453.646	24979.59
453.852	25122.94
454.058	25630.84
454.264	24680.58
454.47	25110.66
454.676	24924.29
454.882	25524.35
455.088	23201.95
455.294	23920.79
455.5	23824.53
455.705	24270.99
455.911	23324.83
456.117	22833.32
456.323	22745.25
456.529	21221.56
456.735	22241.45
456.941	21872.82
457.147	21395.64
457.352	20760.77
457.558	20490.44
457.764	20590.79
457.97	20007.12
458.176	19648.72
458.381	19704.02
458.587	18569.44
458.793	18749.67
458.999	17914.09
459.204	18917.6
459.41	18645.22
459.616	17273.08
459.821	17520.88
460.027	17056
460.233	16754.94
460.438	16142.6
460.644	16363.78
460.85	15706.38
461.055	15374.61
461.261	15378.71
461.466	13961.51
461.672	13756.72
461.878	14600.48
462.083	13556.02
462.289	13390.13
462.494	13373.75
462.7	12650.81
462.905	12261.7
463.111	12976.44
463.316	12968.25
463.522	12542.27
463.727	12677.44
463.932	12435.78
464.138	12233.03
464.343	12476.74
464.549	11981.13
464.754	12489.03
464.959	12505.41
465.165	12196.17
465.37	11815.24
465.575	11506
465.781	11944.27
465.986	12024.14
466.191	11436.37
466.397	11432.27
466.602	10936.67
466.807	11309.4
467.012	11211.09
467.218	10828.12
467.423	11026.78
467.628	11088.21
467.833	11483.47
468.038	11032.92
468.244	10731.87
468.449	11188.57
468.654	10639.71
468.859	10680.67
