Data from USB4F104151__91__11-52-58-359.txt Node

Date: Fri Mar 14 11:52:58 EDT 2025
User: louis
Spectrometer: USB4F10415
Trigger mode: 4
Integration Time (sec): 2.000000E-2
Scans to average: 1
Electric dark correction enabled: true
Nonlinearity correction enabled: false
Boxcar width: 0
XAxis mode: Wavelengths
Number of Pixels in Spectrum: 3648
>>>>>Begin Spectral Data<<<<<
178.204	-96.94
178.424	-96.94
178.644	-96.94
178.864	-60.07
179.084	-131.75
179.304	27.99
179.524	-31.4
179.744	-45.74
179.964	-58.03
180.184	44.37
180.404	-17.07
180.624	75.09
180.844	21.85
181.064	-47.79
181.283	7.51
181.503	-31.4
181.723	54.61
181.943	-90.79
182.163	-23.21
182.383	21.85
182.602	52.56
182.822	68.95
183.042	44.37
183.262	9.56
183.482	46.42
183.701	81.24
183.921	62.8
184.141	21.85
184.361	3.41
184.58	-10.92
184.8	42.32
185.02	-58.03
185.239	-0.68
185.459	17.75
185.679	21.85
185.898	-23.21
186.118	71
186.338	36.18
186.557	-10.92
186.777	-25.26
186.997	-17.07
187.216	50.52
187.436	42.32
187.655	38.23
187.875	97.62
188.095	11.61
188.314	38.23
188.534	89.43
188.753	17.75
188.973	68.95
189.192	27.99
189.412	21.85
189.631	3.41
189.851	15.7
190.07	38.23
190.29	-6.83
190.509	81.24
190.729	-6.83
190.948	1.37
191.168	87.38
191.387	3.41
191.607	-10.92
191.826	9.56
192.045	23.89
192.265	17.75
192.484	-41.64
192.704	-23.21
192.923	32.08
193.142	77.14
193.362	99.67
193.581	3.41
193.8	38.23
194.02	21.85
194.239	15.7
194.458	17.75
194.678	-10.92
194.897	122.2
195.116	34.13
195.335	42.32
195.555	75.09
195.774	17.75
195.993	44.37
196.212	50.52
196.432	40.28
196.651	48.47
196.87	73.04
197.089	50.52
197.308	21.85
197.528	-10.92
197.747	-4.78
197.966	-4.78
198.185	-23.21
198.404	54.61
198.623	58.71
198.842	68.95
199.062	-4.78
199.281	38.23
199.5	64.85
199.719	75.09
199.938	7.51
200.157	54.61
200.376	-15.02
200.595	-19.11
200.814	-31.4
201.033	58.71
201.252	42.32
201.471	3.41
201.69	105.81
201.909	93.52
202.128	103.76
202.347	38.23
202.566	89.43
202.785	68.95
203.004	-0.68
203.223	77.14
203.442	25.94
203.661	54.61
203.879	60.76
204.098	23.89
204.317	66.9
204.536	-6.83
204.755	-25.26
204.974	44.37
205.193	40.28
205.411	15.7
205.63	116.05
205.849	91.48
206.068	-43.69
206.287	34.13
206.505	15.7
206.724	1.37
206.943	-6.83
207.162	68.95
207.381	1.37
207.599	25.94
207.818	38.23
208.037	36.18
208.255	54.61
208.474	27.99
208.693	36.18
208.911	9.56
209.13	36.18
209.349	13.65
209.567	-39.59
209.786	56.66
210.005	-0.68
210.223	30.04
210.442	25.94
210.661	85.33
210.879	56.66
211.098	42.32
211.316	27.99
211.535	56.66
211.753	-37.55
211.972	-2.73
212.191	54.61
212.409	54.61
212.628	48.47
212.846	68.95
213.065	-0.68
213.283	-17.07
213.502	17.75
213.72	-6.83
213.938	3.41
214.157	32.08
214.375	23.89
214.594	-37.55
214.812	5.46
215.031	19.8
215.249	5.46
215.467	-2.73
215.686	40.28
215.904	15.7
216.122	91.48
216.341	38.23
216.559	42.32
216.778	71
216.996	5.46
217.214	44.37
217.432	48.47
217.651	15.7
217.869	17.75
218.087	-33.45
218.306	13.65
218.524	62.8
218.742	46.42
218.96	9.56
219.179	56.66
219.397	71
219.615	85.33
219.833	118.1
220.051	-64.17
220.27	64.85
220.488	136.53
220.706	-19.11
220.924	19.8
221.142	1.37
221.36	9.56
221.578	11.61
221.796	50.52
222.015	32.08
222.233	52.56
222.451	73.04
222.669	9.56
222.887	91.48
223.105	46.42
223.323	3.41
223.541	5.46
223.759	19.8
223.977	27.99
224.195	71
224.413	64.85
224.631	91.48
224.849	27.99
225.067	25.94
225.285	32.08
225.503	101.72
225.721	-51.88
225.939	44.37
226.157	52.56
226.375	42.32
226.592	-23.21
226.81	38.23
227.028	60.76
227.246	71
227.464	21.85
227.682	79.19
227.9	5.46
228.117	85.33
228.335	68.95
228.553	30.04
228.771	15.7
228.989	58.71
229.206	68.95
229.424	38.23
229.642	3.41
229.86	-10.92
230.077	-0.68
230.295	48.47
230.513	81.24
230.731	30.04
230.948	19.8
231.166	46.42
231.384	32.08
231.601	111.96
231.819	25.94
232.037	38.23
232.254	1.37
232.472	-51.88
232.689	9.56
232.907	89.43
233.125	34.13
233.342	-64.17
233.56	5.46
233.777	36.18
233.995	77.14
234.213	109.91
234.43	124.24
234.648	-66.22
234.865	32.08
235.083	64.85
235.3	-10.92
235.518	21.85
235.735	58.71
235.953	97.62
236.17	30.04
236.388	42.32
236.605	17.75
236.822	30.04
237.04	27.99
237.257	17.75
237.475	-15.02
237.692	48.47
237.909	21.85
238.127	85.33
238.344	-10.92
238.562	-58.03
238.779	19.8
238.996	34.13
239.214	5.46
239.431	81.24
239.648	46.42
239.865	42.32
240.083	19.8
240.3	-43.69
240.517	-23.21
240.735	52.56
240.952	36.18
241.169	66.9
241.386	15.7
241.603	62.8
241.821	-10.92
242.038	34.13
242.255	93.52
242.472	34.13
242.689	44.37
242.907	95.57
243.124	62.8
243.341	-31.4
243.558	50.52
243.775	19.8
243.992	-31.4
244.209	114
244.426	56.66
244.643	23.89
244.86	11.61
245.078	25.94
245.295	54.61
245.512	27.99
245.729	-25.26
245.946	13.65
246.163	52.56
246.38	27.99
246.597	68.95
246.814	15.7
247.031	19.8
247.248	71
247.464	27.99
247.681	5.46
247.898	-10.92
248.115	64.85
248.332	-27.31
248.549	52.56
248.766	91.48
248.983	38.23
249.2	85.33
249.417	71
249.633	15.7
249.85	58.71
250.067	-51.88
250.284	38.23
250.501	85.33
250.717	34.13
250.934	9.56
251.151	42.32
251.368	-21.16
251.585	52.56
251.801	9.56
252.018	-29.35
252.235	38.23
252.451	64.85
252.668	48.47
252.885	75.09
253.102	81.24
253.318	-33.45
253.535	21.85
253.752	25.94
253.968	21.85
254.185	32.08
254.401	42.32
254.618	44.37
254.835	13.65
255.051	99.67
255.268	62.8
255.484	40.28
255.701	25.94
255.917	99.67
256.134	91.48
256.351	66.9
256.567	-8.87
256.784	50.52
257	15.7
257.217	56.66
257.433	68.95
257.65	27.99
257.866	79.19
258.082	-19.11
258.299	36.18
258.515	-2.73
258.732	44.37
258.948	23.89
259.165	68.95
259.381	-12.97
259.597	81.24
259.814	-43.69
260.03	5.46
260.246	58.71
260.463	-23.21
260.679	95.57
260.895	23.89
261.112	-4.78
261.328	40.28
261.544	19.8
261.761	120.15
261.977	17.75
262.193	-2.73
262.409	5.46
262.626	56.66
262.842	89.43
263.058	-0.68
263.274	25.94
263.49	-6.83
263.707	44.37
263.923	25.94
264.139	52.56
264.355	50.52
264.571	85.33
264.787	42.32
265.004	-0.68
265.22	44.37
265.436	-43.69
265.652	23.89
265.868	17.75
266.084	-8.87
266.3	17.75
266.516	40.28
266.732	52.56
266.948	-27.31
267.164	11.61
267.38	1.37
267.596	136.53
267.812	25.94
268.028	48.47
268.244	-6.83
268.46	66.9
268.676	15.7
268.892	13.65
269.108	21.85
269.324	36.18
269.54	27.99
269.756	62.8
269.972	40.28
270.188	-8.87
270.403	-21.16
270.619	56.66
270.835	23.89
271.051	58.71
271.267	7.51
271.483	103.76
271.698	58.71
271.914	34.13
272.13	40.28
272.346	-2.73
272.562	99.67
272.777	1.37
272.993	-23.21
273.209	25.94
273.425	11.61
273.64	66.9
273.856	56.66
274.072	21.85
274.287	-35.5
274.503	81.24
274.719	32.08
274.934	44.37
275.15	9.56
275.366	13.65
275.581	19.8
275.797	44.37
276.012	48.47
276.228	64.85
276.444	25.94
276.659	87.38
276.875	48.47
277.09	83.28
277.306	85.33
277.521	77.14
277.737	81.24
277.952	118.1
278.168	62.8
278.383	42.32
278.599	-47.79
278.814	34.13
279.03	68.95
279.245	30.04
279.461	40.28
279.676	56.66
279.892	1.37
280.107	-25.26
280.322	109.91
280.538	21.85
280.753	30.04
280.969	13.65
281.184	19.8
281.399	21.85
281.615	-12.97
281.83	77.14
282.045	-43.69
282.26	15.7
282.476	36.18
282.691	64.85
282.906	60.76
283.122	25.94
283.337	56.66
283.552	21.85
283.767	60.76
283.983	116.05
284.198	-2.73
284.413	-6.83
284.628	48.47
284.843	44.37
285.058	34.13
285.274	27.99
285.489	52.56
285.704	19.8
285.919	5.46
286.134	9.56
286.349	71
286.564	54.61
286.779	11.61
286.995	17.75
287.21	-15.02
287.425	54.61
287.64	27.99
287.855	77.14
288.07	66.9
288.285	36.18
288.5	7.51
288.715	77.14
288.93	36.18
289.145	-8.87
289.36	5.46
289.575	46.42
289.79	21.85
290.004	52.56
290.219	42.32
290.434	56.66
290.649	-45.74
290.864	124.24
291.079	60.76
291.294	25.94
291.509	44.37
291.724	79.19
291.938	68.95
292.153	71
292.368	13.65
292.583	60.76
292.798	-0.68
293.012	89.43
293.227	21.85
293.442	64.85
293.657	44.37
293.871	101.72
294.086	-41.64
294.301	34.13
294.516	30.04
294.73	56.66
294.945	-4.78
295.16	25.94
295.374	40.28
295.589	50.52
295.804	-10.92
296.018	-0.68
296.233	60.76
296.447	-15.02
296.662	25.94
296.877	87.38
297.091	17.75
297.306	120.15
297.52	-2.73
297.735	79.19
297.949	77.14
298.164	73.04
298.378	58.71
298.593	109.91
298.807	34.13
299.022	-35.5
299.236	66.9
299.451	-37.55
299.665	34.13
299.88	32.08
300.094	38.23
300.309	-0.68
300.523	44.37
300.737	81.24
300.952	13.65
301.166	118.1
301.381	30.04
301.595	-84.65
301.809	13.65
302.024	23.89
302.238	64.85
302.452	30.04
302.667	-8.87
302.881	111.96
303.095	38.23
303.309	50.52
303.524	77.14
303.738	-51.88
303.952	50.52
304.166	81.24
304.381	91.48
304.595	40.28
304.809	60.76
305.023	89.43
305.237	-12.97
305.452	-4.78
305.666	46.42
305.88	-15.02
306.094	54.61
306.308	15.7
306.522	83.28
306.736	62.8
306.95	23.89
307.164	32.08
307.379	25.94
307.593	62.8
307.807	64.85
308.021	34.13
308.235	58.71
308.449	15.7
308.663	30.04
308.877	17.75
309.091	40.28
309.305	17.75
309.519	7.51
309.733	-2.73
309.947	44.37
310.161	5.46
310.374	42.32
310.588	83.28
310.802	21.85
311.016	58.71
311.23	17.75
311.444	13.65
311.658	38.23
311.872	54.61
312.085	73.04
312.299	75.09
312.513	-15.02
312.727	42.32
312.941	-0.68
313.154	46.42
313.368	5.46
313.582	89.43
313.796	71
314.009	56.66
314.223	1.37
314.437	13.65
314.651	48.47
314.864	77.14
315.078	64.85
315.292	21.85
315.505	48.47
315.719	40.28
315.933	36.18
316.146	7.51
316.36	5.46
316.573	68.95
316.787	42.32
317.001	25.94
317.214	-21.16
317.428	52.56
317.641	17.75
317.855	42.32
318.068	-25.26
318.282	-10.92
318.495	46.42
318.709	11.61
318.922	40.28
319.136	23.89
319.349	34.13
319.563	120.15
319.776	-6.83
319.99	36.18
320.203	32.08
320.417	-8.87
320.63	116.05
320.843	120.15
321.057	87.38
321.27	116.05
321.483	11.61
321.697	46.42
321.91	79.19
322.124	116.05
322.337	5.46
322.55	44.37
322.763	-19.11
322.977	-25.26
323.19	-2.73
323.403	73.04
323.617	-53.93
323.83	36.18
324.043	52.56
324.256	85.33
324.469	23.89
324.683	105.81
324.896	5.46
325.109	56.66
325.322	56.66
325.535	68.95
325.748	-2.73
325.962	46.42
326.175	60.76
326.388	54.61
326.601	27.99
326.814	25.94
327.027	85.33
327.24	1.37
327.453	-2.73
327.666	52.56
327.879	40.28
328.092	50.52
328.305	32.08
328.518	42.32
328.731	52.56
328.944	46.42
329.157	17.75
329.37	7.51
329.583	48.47
329.796	93.52
330.009	42.32
330.222	19.8
330.435	75.09
330.648	79.19
330.861	30.04
331.073	54.61
331.286	7.51
331.499	44.37
331.712	58.71
331.925	25.94
332.138	23.89
332.35	120.15
332.563	56.66
332.776	50.52
332.989	17.75
333.202	15.7
333.414	91.48
333.627	38.23
333.84	-27.31
334.053	124.24
334.265	-2.73
334.478	-62.12
334.691	-27.31
334.903	85.33
335.116	38.23
335.329	30.04
335.541	27.99
335.754	118.1
335.966	-0.68
336.179	3.41
336.392	-37.55
336.604	54.61
336.817	32.08
337.029	42.32
337.242	99.67
337.454	97.62
337.667	93.52
337.88	83.28
338.092	83.28
338.305	48.47
338.517	38.23
338.729	25.94
338.942	3.41
339.154	15.7
339.367	1.37
339.579	101.72
339.792	-2.73
340.004	52.56
340.217	54.61
340.429	85.33
340.641	13.65
340.854	-60.07
341.066	97.62
341.278	91.48
341.491	40.28
341.703	-25.26
341.915	40.28
342.128	130.39
342.34	-15.02
342.552	9.56
342.764	54.61
342.977	89.43
343.189	-27.31
343.401	60.76
343.613	15.7
343.826	58.71
344.038	75.09
344.25	1.37
344.462	19.8
344.674	107.86
344.886	38.23
345.099	68.95
345.311	89.43
345.523	-6.83
345.735	36.18
345.947	71
346.159	44.37
346.371	-92.84
346.583	21.85
346.795	64.85
347.007	48.47
347.219	42.32
347.431	99.67
347.643	66.9
347.855	-53.93
348.067	56.66
348.279	64.85
348.491	83.28
348.703	56.66
348.915	13.65
349.127	75.09
349.339	56.66
349.551	-55.98
349.763	73.04
349.975	-17.07
350.187	79.19
350.399	68.95
350.61	50.52
350.822	54.61
351.034	44.37
351.246	5.46
351.458	64.85
351.669	66.9
351.881	27.99
352.093	60.76
352.305	95.57
352.517	-29.35
352.728	87.38
352.94	5.46
353.152	42.32
353.363	50.52
353.575	64.85
353.787	97.62
353.999	60.76
354.21	71
354.422	11.61
354.633	-49.83
354.845	-4.78
355.057	79.19
355.268	97.62
355.48	40.28
355.692	75.09
355.903	32.08
356.115	58.71
356.326	19.8
356.538	38.23
356.749	32.08
356.961	75.09
357.172	99.67
357.384	23.89
357.595	48.47
357.807	17.75
358.018	17.75
358.23	73.04
358.441	-31.4
358.653	42.32
358.864	30.04
359.075	30.04
359.287	25.94
359.498	21.85
359.709	-0.68
359.921	89.43
360.132	109.91
360.344	11.61
360.555	62.8
360.766	46.42
360.977	46.42
361.189	56.66
361.4	48.47
361.611	150.87
361.823	38.23
362.034	44.37
362.245	25.94
362.456	34.13
362.667	111.96
362.879	34.13
363.09	38.23
363.301	48.47
363.512	1.37
363.723	32.08
363.935	3.41
364.146	118.1
364.357	15.7
364.568	120.15
364.779	68.95
364.99	81.24
365.201	-39.59
365.412	25.94
365.623	-29.35
365.834	68.95
366.045	81.24
366.256	64.85
366.467	73.04
366.678	93.52
366.889	40.28
367.1	73.04
367.311	95.57
367.522	91.48
367.733	60.76
367.944	52.56
368.155	58.71
368.366	11.61
368.577	71
368.788	99.67
368.999	19.8
369.209	109.91
369.42	103.76
369.631	54.61
369.842	44.37
370.053	60.76
370.264	81.24
370.474	87.38
370.685	109.91
370.896	19.8
371.107	38.23
371.317	71
371.528	50.52
371.739	54.61
371.95	99.67
372.16	11.61
372.371	42.32
372.582	-12.97
372.792	52.56
373.003	17.75
373.214	46.42
373.424	118.1
373.635	40.28
373.846	-10.92
374.056	68.95
374.267	32.08
374.477	79.19
374.688	48.47
374.898	32.08
375.109	34.13
375.319	95.57
375.53	85.33
375.74	50.52
375.951	-0.68
376.161	-0.68
376.372	64.85
376.582	58.71
376.793	-6.83
377.003	58.71
377.214	103.76
377.424	40.28
377.635	68.95
377.845	89.43
378.055	11.61
378.266	34.13
378.476	-0.68
378.686	71
378.897	87.38
379.107	128.34
379.317	40.28
379.528	101.72
379.738	144.72
379.948	19.8
380.158	66.9
380.369	62.8
380.579	17.75
380.789	64.85
380.999	50.52
381.21	154.96
381.42	93.52
381.63	-6.83
381.84	109.91
382.05	38.23
382.261	46.42
382.471	38.23
382.681	7.51
382.891	107.86
383.101	40.28
383.311	79.19
383.521	42.32
383.731	66.9
383.941	85.33
384.151	64.85
384.361	75.09
384.571	101.72
384.781	64.85
384.991	142.68
385.201	77.14
385.411	73.04
385.621	73.04
385.831	11.61
386.041	-4.78
386.251	36.18
386.461	-12.97
386.671	56.66
386.881	46.42
387.091	40.28
387.301	27.99
387.511	75.09
387.72	27.99
387.93	66.9
388.14	25.94
388.35	50.52
388.56	58.71
388.769	58.71
388.979	97.62
389.189	50.52
389.399	46.42
389.609	25.94
389.818	144.72
390.028	48.47
390.238	46.42
390.447	73.04
390.657	105.81
390.867	21.85
391.076	85.33
391.286	-31.4
391.496	66.9
391.705	66.9
391.915	126.29
392.125	120.15
392.334	48.47
392.544	19.8
392.753	50.52
392.963	62.8
393.172	140.63
393.382	56.66
393.591	54.61
393.801	52.56
394.01	71
394.22	107.86
394.429	75.09
394.639	15.7
394.848	109.91
395.058	140.63
395.267	50.52
395.477	124.24
395.686	91.48
395.895	120.15
396.105	64.85
396.314	38.23
396.524	64.85
396.733	62.8
396.942	91.48
397.152	75.09
397.361	60.76
397.57	91.48
397.78	54.61
397.989	140.63
398.198	142.68
398.407	109.91
398.617	56.66
398.826	124.24
399.035	60.76
399.244	150.87
399.453	109.91
399.663	118.1
399.872	136.53
400.081	89.43
400.29	130.39
400.499	99.67
400.708	191.83
400.917	142.68
401.127	87.38
401.336	91.48
401.545	91.48
401.754	165.2
401.963	148.82
402.172	175.44
402.381	44.37
402.59	89.43
402.799	130.39
403.008	62.8
403.217	142.68
403.426	71
403.635	116.05
403.844	144.72
404.053	171.35
404.262	128.34
404.471	173.39
404.68	83.28
404.888	91.48
405.097	124.24
405.306	136.53
405.515	95.57
405.724	152.92
405.933	148.82
406.142	257.36
406.35	171.35
406.559	120.15
406.768	183.63
406.977	183.63
407.185	128.34
407.394	202.07
407.603	218.45
407.812	191.83
408.02	185.68
408.229	222.55
408.438	234.83
408.646	161.11
408.855	224.59
409.064	312.66
409.272	259.41
409.481	263.51
409.69	318.8
409.898	290.13
410.107	290.13
410.315	351.57
410.524	263.51
410.733	306.51
410.941	257.36
411.15	304.46
411.358	257.36
411.567	443.73
411.775	355.66
411.984	308.56
412.192	468.3
412.401	394.58
412.609	431.44
412.818	398.67
413.026	415.06
413.234	439.63
413.443	435.53
413.651	441.68
413.86	499.02
414.068	582.99
414.276	546.13
414.485	496.97
414.693	646.48
414.901	617.8
415.11	511.31
415.318	691.53
415.526	685.39
415.734	728.39
415.943	664.91
416.151	781.64
416.359	685.39
416.567	787.79
416.776	781.64
416.984	920.9
417.192	841.03
417.4	873.8
417.608	894.28
417.817	865.61
418.025	963.91
418.233	1017.16
418.441	1047.88
418.649	1090.88
418.857	1140.04
419.065	1183.04
419.273	1066.31
419.481	1146.18
419.689	1273.15
419.897	1334.59
420.105	1379.65
420.313	1361.22
420.521	1574.21
420.729	1502.53
420.937	1523.01
421.145	1551.68
421.353	1570.11
421.561	1688.89
421.769	1789.24
421.977	1877.3
422.185	1832.25
422.393	1873.21
422.601	1983.8
422.809	1875.26
423.017	2022.71
423.224	2018.61
423.432	2157.88
423.64	2184.5
423.848	2413.87
424.056	2338.1
424.263	2649.39
424.471	2460.98
424.679	2577.71
424.887	2581.81
425.094	2614.57
425.302	2731.31
425.51	2929.96
425.718	2934.06
425.925	2950.44
426.133	3114.28
426.341	3241.25
426.548	3331.36
426.756	3392.8
426.964	3591.45
427.171	3644.7
427.379	3765.53
427.586	3689.76
427.794	3839.26
428.001	4021.53
428.209	4252.95
428.417	4236.56
428.624	4490.51
428.832	4482.32
429.039	4517.14
429.247	4476.18
429.454	4812.04
429.662	5158.15
429.869	4887.82
430.076	5420.29
430.284	5195.01
430.491	5233.93
430.699	5694.72
430.906	5715.2
431.114	5551.36
431.321	5805.31
431.528	6114.55
431.736	6448.37
431.943	6814.96
432.15	6444.27
432.358	6421.75
432.565	6855.92
432.772	6892.78
432.979	7208.17
433.187	7353.57
433.394	7597.28
433.601	7834.85
433.808	8000.73
434.016	8154.33
434.223	8340.69
434.43	8867.02
434.637	8492.24
434.844	9217.22
435.052	9401.54
435.259	9182.41
435.466	9354.44
435.673	9303.24
435.88	10030.27
436.087	10486.97
436.294	10443.96
436.501	10194.11
436.708	10327.22
436.915	10691.76
437.122	11158.7
437.329	11183.27
437.537	11338.92
437.743	11556.01
437.95	11492.52
438.157	11945.12
438.364	12559.51
438.571	12375.19
438.778	12858.51
438.985	13960.32
439.192	13182.09
439.399	13845.63
439.606	13493.38
439.813	14171.26
440.02	15322.22
440.227	14689.4
440.433	14486.65
440.64	15156.33
440.847	14791.8
441.054	15492.2
441.261	16389.21
441.467	16006.24
441.674	16618.58
441.881	17134.67
442.088	17335.37
442.294	16880.72
442.501	17505.35
442.708	17904.71
442.914	18527.29
443.121	19158.06
443.328	18869.3
443.534	20233.25
443.741	19463.21
443.948	19262.51
444.154	20511.77
444.361	20460.57
444.568	20571.16
444.774	20583.45
444.981	20808.73
445.187	21597.2
445.394	22184.96
445.6	22170.63
445.807	24511.46
446.013	23237.62
446.22	23720.94
446.426	24499.17
446.633	25076.69
446.839	25709.52
447.046	24497.12
447.252	26043.34
447.459	26264.52
447.665	25820.11
447.871	26907.58
448.078	28339.11
448.284	26803.13
448.491	27558.83
448.697	28535.71
448.903	28797.85
449.11	29264.79
449.316	28947.36
449.522	29574.03
449.728	29934.48
449.935	30106.51
450.141	30036.87
450.347	30946.17
450.553	29926.28
450.76	30645.12
450.966	31110.01
451.172	31081.34
451.378	31789.94
451.584	31513.46
451.791	32217.96
451.997	31763.31
452.203	32695.14
452.409	32795.49
452.615	32668.51
452.821	30942.08
453.027	30456.71
453.233	32562.02
453.44	30976.89
453.646	31495.03
453.852	31949.68
454.058	32359.27
454.264	31085.43
454.47	31519.6
454.676	31097.72
454.882	31961.97
455.088	29084.57
455.294	29862.8
455.5	30182.28
455.705	30606.21
455.911	29473.68
456.117	29021.08
456.323	28298.15
456.529	26758.08
456.735	28208.04
456.941	27014.07
457.147	27104.18
457.352	26067.91
457.558	26041.29
457.764	25897.93
457.97	25531.34
458.176	24888.28
458.381	24652.77
458.587	23735.28
458.793	23755.75
458.999	22623.23
459.204	24060.9
459.41	23022.58
459.616	21675.02
459.821	21652.49
460.027	21885.96
460.233	21353.49
460.438	20349.98
460.644	20427.81
460.85	19549.23
461.055	19416.11
461.261	19166.26
461.466	17869.89
461.672	17011.79
461.878	18373.69
462.083	17153.1
462.289	17003.6
462.494	16749.65
462.7	16186.46
462.905	15508.58
463.111	16143.45
463.316	16368.73
463.522	15731.81
463.727	15864.93
463.932	15793.25
464.138	15889.51
464.343	15928.42
464.549	15178.86
464.754	15596.65
464.959	15662.18
465.165	15598.7
465.37	14673.01
465.575	14574.71
465.781	14967.92
465.986	15322.22
466.191	14814.32
466.397	14283.9
466.602	13513.86
466.807	14113.92
467.012	14068.86
467.218	14294.14
467.423	14115.97
467.628	13866.11
467.833	14539.9
468.038	13847.68
468.244	13630.6
468.449	13931.65
