Data from USB4F104151__27__11-51-33-314.txt Node

Date: Fri Mar 14 11:51:33 EDT 2025
User: louis
Spectrometer: USB4F10415
Trigger mode: 4
Integration Time (sec): 2.000000E-2
Scans to average: 1
Electric dark correction enabled: true
Nonlinearity correction enabled: false
Boxcar width: 0
XAxis mode: Wavelengths
Number of Pixels in Spectrum: 3648
>>>>>Begin Spectral Data<<<<<
178.204	-50.52
178.424	-50.52
178.644	-50.52
178.864	-107.86
179.084	-97.62
179.304	-9.56
179.524	-66.9
179.744	-7.51
179.964	25.26
180.184	23.21
180.404	45.74
180.624	-19.8
180.844	66.22
181.064	-11.61
181.283	-64.85
181.503	-30.04
181.723	49.83
181.943	-75.09
182.163	15.02
182.383	-3.41
182.602	17.07
182.822	19.11
183.042	53.93
183.262	35.5
183.482	55.98
183.701	-1.37
183.921	27.31
184.141	43.69
184.361	49.83
184.58	21.16
184.8	80.55
185.02	12.97
185.239	4.78
185.459	-27.99
185.679	53.93
185.898	-5.46
186.118	31.4
186.338	-23.89
186.557	39.59
186.777	45.74
186.997	35.5
187.216	-40.28
187.436	62.12
187.655	-7.51
187.875	31.4
188.095	-62.8
188.314	43.69
188.534	84.65
188.753	-19.8
188.973	47.79
189.192	37.55
189.412	0.68
189.631	131.75
189.851	80.55
190.07	25.26
190.29	4.78
190.509	58.03
190.729	-25.94
190.948	70.31
191.168	113.32
191.387	76.46
191.607	31.4
191.826	-5.46
192.045	64.17
192.265	137.9
192.484	68.27
192.704	-1.37
192.923	25.26
193.142	6.83
193.362	12.97
193.581	62.12
193.8	41.64
194.02	-15.7
194.239	-13.65
194.458	49.83
194.678	27.31
194.897	78.51
195.116	60.07
195.335	80.55
195.555	12.97
195.774	23.21
195.993	-1.37
196.212	8.87
196.432	47.79
196.651	41.64
196.87	-13.65
197.089	8.87
197.308	47.79
197.528	51.88
197.747	43.69
197.966	45.74
198.185	31.4
198.404	27.31
198.623	82.6
198.842	33.45
199.062	10.92
199.281	66.22
199.5	49.83
199.719	0.68
199.938	37.55
200.157	88.75
200.376	53.93
200.595	51.88
200.814	25.26
201.033	64.17
201.252	25.26
201.471	-62.8
201.69	92.84
201.909	29.35
202.128	80.55
202.347	35.5
202.566	45.74
202.785	2.73
203.004	49.83
203.223	64.17
203.442	86.7
203.661	-1.37
203.879	-9.56
204.098	55.98
204.317	2.73
204.536	35.5
204.755	64.17
204.974	43.69
205.193	10.92
205.411	72.36
205.63	25.26
205.849	31.4
206.068	0.68
206.287	86.7
206.505	92.84
206.724	66.22
206.943	39.59
207.162	49.83
207.381	-17.75
207.599	84.65
207.818	21.16
208.037	-17.75
208.255	27.31
208.474	31.4
208.693	51.88
208.911	135.85
209.13	-60.76
209.349	12.97
209.567	94.89
209.786	4.78
210.005	129.7
210.223	25.26
210.442	-9.56
210.661	80.55
210.879	-40.28
211.098	-5.46
211.316	72.36
211.535	53.93
211.753	2.73
211.972	-15.7
212.191	-11.61
212.409	-25.94
212.628	-23.89
212.846	25.26
213.065	74.41
213.283	98.99
213.502	-5.46
213.72	33.45
213.938	74.41
214.157	29.35
214.375	78.51
214.594	29.35
214.812	25.26
215.031	23.21
215.249	-32.08
215.467	-68.95
215.686	-27.99
215.904	-46.42
216.122	53.93
216.341	-15.7
216.559	-1.37
216.778	21.16
216.996	62.12
217.214	-27.99
217.432	49.83
217.651	-3.41
217.869	31.4
218.087	-23.89
218.306	-46.42
218.524	53.93
218.742	-21.84
218.96	4.78
219.179	47.79
219.397	21.16
219.615	64.17
219.833	53.93
220.051	27.31
220.27	49.83
220.488	-13.65
220.706	-40.28
220.924	-15.7
221.142	-21.84
221.36	21.16
221.578	8.87
221.796	-34.13
222.015	47.79
222.233	-5.46
222.451	17.07
222.669	-15.7
222.887	49.83
223.105	-3.41
223.323	-27.99
223.541	39.59
223.759	53.93
223.977	31.4
224.195	23.21
224.413	62.12
224.631	-32.08
224.849	64.17
225.067	35.5
225.285	72.36
225.503	0.68
225.721	-44.37
225.939	-21.84
226.157	33.45
226.375	78.51
226.592	0.68
226.81	29.35
227.028	25.26
227.246	25.26
227.464	-58.71
227.682	62.12
227.9	35.5
228.117	0.68
228.335	78.51
228.553	-19.8
228.771	21.16
228.989	8.87
229.206	62.12
229.424	43.69
229.642	-15.7
229.86	-7.51
230.077	27.31
230.295	17.07
230.513	47.79
230.731	21.16
230.948	90.79
231.166	-13.65
231.384	-5.46
231.601	37.55
231.819	-1.37
232.037	53.93
232.254	35.5
232.472	29.35
232.689	-9.56
232.907	86.7
233.125	4.78
233.342	-5.46
233.56	33.45
233.777	21.16
233.995	33.45
234.213	86.7
234.43	64.17
234.648	47.79
234.865	76.46
235.083	72.36
235.3	86.7
235.518	-9.56
235.735	62.12
235.953	60.07
236.17	19.11
236.388	33.45
236.605	74.41
236.822	45.74
237.04	25.26
237.257	-5.46
237.475	12.97
237.692	49.83
237.909	66.22
238.127	25.26
238.344	55.98
238.562	-21.84
238.779	27.31
238.996	-13.65
239.214	0.68
239.431	39.59
239.648	53.93
239.865	78.51
240.083	-23.89
240.3	-11.61
240.517	-15.7
240.735	-27.99
240.952	123.56
241.169	47.79
241.386	31.4
241.603	55.98
241.821	45.74
242.038	90.79
242.255	-15.7
242.472	39.59
242.689	76.46
242.907	66.22
243.124	-30.04
243.341	2.73
243.558	19.11
243.775	53.93
243.992	53.93
244.209	15.02
244.426	-17.75
244.643	41.64
244.86	23.21
245.078	8.87
245.295	47.79
245.512	29.35
245.729	29.35
245.946	-54.61
246.163	2.73
246.38	49.83
246.597	-34.13
246.814	80.55
247.031	101.03
247.248	-7.51
247.464	33.45
247.681	53.93
247.898	-46.42
248.115	47.79
248.332	17.07
248.549	70.31
248.766	68.27
248.983	45.74
249.2	23.21
249.417	64.17
249.633	53.93
249.85	82.6
250.067	-19.8
250.284	72.36
250.501	60.07
250.717	-11.61
250.934	-15.7
251.151	68.27
251.368	25.26
251.585	45.74
251.801	15.02
252.018	-13.65
252.235	66.22
252.451	-32.08
252.668	68.27
252.885	45.74
253.102	53.93
253.318	45.74
253.535	-38.23
253.752	-27.99
253.968	2.73
254.185	45.74
254.401	19.11
254.618	88.75
254.835	-7.51
255.051	45.74
255.268	39.59
255.484	70.31
255.701	37.55
255.917	-11.61
256.134	35.5
256.351	53.93
256.567	-40.28
256.784	-1.37
257	10.92
257.217	-7.51
257.433	70.31
257.65	43.69
257.866	-1.37
258.082	-7.51
258.299	21.16
258.515	64.17
258.732	0.68
258.948	66.22
259.165	0.68
259.381	25.26
259.597	8.87
259.814	47.79
260.03	-50.52
260.246	2.73
260.463	49.83
260.679	86.7
260.895	64.17
261.112	66.22
261.328	39.59
261.544	25.26
261.761	25.26
261.977	33.45
262.193	35.5
262.409	8.87
262.626	31.4
262.842	29.35
263.058	33.45
263.274	84.65
263.49	17.07
263.707	33.45
263.923	19.11
264.139	27.31
264.355	62.12
264.571	88.75
264.787	41.64
265.004	8.87
265.22	29.35
265.436	62.12
265.652	62.12
265.868	72.36
266.084	-23.89
266.3	-1.37
266.516	-9.56
266.732	43.69
266.948	-25.94
267.164	-15.7
267.38	78.51
267.596	27.31
267.812	78.51
268.028	31.4
268.244	4.78
268.46	4.78
268.676	31.4
268.892	-27.99
269.108	39.59
269.324	-7.51
269.54	17.07
269.756	47.79
269.972	-23.89
270.188	2.73
270.403	-11.61
270.619	-21.84
270.835	-11.61
271.051	86.7
271.267	-23.89
271.483	21.16
271.698	90.79
271.914	70.31
272.13	-9.56
272.346	-17.75
272.562	-9.56
272.777	76.46
272.993	53.93
273.209	2.73
273.425	41.64
273.64	29.35
273.856	39.59
274.072	49.83
274.287	19.11
274.503	29.35
274.719	23.21
274.934	76.46
275.15	-9.56
275.366	72.36
275.581	49.83
275.797	33.45
276.012	53.93
276.228	29.35
276.444	4.78
276.659	60.07
276.875	-17.75
277.09	10.92
277.306	25.26
277.521	21.16
277.737	51.88
277.952	27.31
278.168	-38.23
278.383	78.51
278.599	35.5
278.814	10.92
279.03	51.88
279.245	41.64
279.461	53.93
279.676	21.16
279.892	-9.56
280.107	76.46
280.322	-19.8
280.538	39.59
280.753	33.45
280.969	37.55
281.184	31.4
281.399	68.27
281.615	41.64
281.83	105.13
282.045	17.07
282.26	33.45
282.476	-9.56
282.691	29.35
282.906	-15.7
283.122	4.78
283.337	41.64
283.552	60.07
283.767	2.73
283.983	-42.32
284.198	37.55
284.413	0.68
284.628	4.78
284.843	82.6
285.058	0.68
285.274	-1.37
285.489	88.75
285.704	21.16
285.919	-13.65
286.134	-15.7
286.349	21.16
286.564	94.89
286.779	31.4
286.995	39.59
287.21	8.87
287.425	80.55
287.64	4.78
287.855	33.45
288.07	51.88
288.285	-46.42
288.5	94.89
288.715	33.45
288.93	21.16
289.145	-23.89
289.36	115.37
289.575	29.35
289.79	66.22
290.004	-25.94
290.219	-15.7
290.434	-25.94
290.649	23.21
290.864	10.92
291.079	-3.41
291.294	12.97
291.509	80.55
291.724	115.37
291.938	-3.41
292.153	29.35
292.368	25.26
292.583	43.69
292.798	62.12
293.012	45.74
293.227	-1.37
293.442	55.98
293.657	37.55
293.871	129.7
294.086	64.17
294.301	62.12
294.516	94.89
294.73	27.31
294.945	58.03
295.16	80.55
295.374	76.46
295.589	-27.99
295.804	78.51
296.018	92.84
296.233	62.12
296.447	33.45
296.662	-25.94
296.877	-5.46
297.091	70.31
297.306	25.26
297.52	43.69
297.735	117.42
297.949	15.02
298.164	-44.37
298.378	-1.37
298.593	80.55
298.807	8.87
299.022	60.07
299.236	66.22
299.451	25.26
299.665	43.69
299.88	19.11
300.094	-25.94
300.309	105.13
300.523	17.07
300.737	-21.84
300.952	66.22
301.166	90.79
301.381	25.26
301.595	4.78
301.809	29.35
302.024	68.27
302.238	-1.37
302.452	62.12
302.667	4.78
302.881	78.51
303.095	109.23
303.309	39.59
303.524	58.03
303.738	-93.52
303.952	6.83
304.166	64.17
304.381	12.97
304.595	49.83
304.809	15.02
305.023	21.16
305.237	2.73
305.452	27.31
305.666	160.42
305.88	21.16
306.094	41.64
306.308	41.64
306.522	45.74
306.736	6.83
306.95	39.59
307.164	31.4
307.379	-9.56
307.593	45.74
307.807	74.41
308.021	115.37
308.235	4.78
308.449	25.26
308.663	23.21
308.877	113.32
309.091	58.03
309.305	49.83
309.519	-38.23
309.733	62.12
309.947	58.03
310.161	84.65
310.374	41.64
310.588	53.93
310.802	-38.23
311.016	-38.23
311.23	23.21
311.444	0.68
311.658	58.03
311.872	45.74
312.085	39.59
312.299	68.27
312.513	68.27
312.727	21.16
312.941	2.73
313.154	82.6
313.368	70.31
313.582	17.07
313.796	53.93
314.009	35.5
314.223	12.97
314.437	76.46
314.651	129.7
314.864	82.6
315.078	17.07
315.292	8.87
315.505	23.21
315.719	109.23
315.933	23.21
316.146	-15.7
316.36	-30.04
316.573	129.7
316.787	-3.41
317.001	10.92
317.214	-38.23
317.428	92.84
317.641	41.64
317.855	-1.37
318.068	58.03
318.282	72.36
318.495	64.17
318.709	101.03
318.922	72.36
319.136	101.03
319.349	64.17
319.563	37.55
319.776	29.35
319.99	31.4
320.203	119.46
320.417	45.74
320.63	10.92
320.843	80.55
321.057	33.45
321.27	0.68
321.483	60.07
321.697	45.74
321.91	64.17
322.124	45.74
322.337	25.26
322.55	82.6
322.763	19.11
322.977	2.73
323.19	-1.37
323.403	68.27
323.617	27.31
323.83	80.55
324.043	37.55
324.256	98.99
324.469	62.12
324.683	55.98
324.896	19.11
325.109	-7.51
325.322	-19.8
325.535	105.13
325.748	119.46
325.962	62.12
326.175	37.55
326.388	-21.84
326.601	76.46
326.814	-19.8
327.027	-23.89
327.24	12.97
327.453	-13.65
327.666	33.45
327.879	10.92
328.092	74.41
328.305	119.46
328.518	-34.13
328.731	62.12
328.944	82.6
329.157	90.79
329.37	49.83
329.583	27.31
329.796	88.75
330.009	37.55
330.222	68.27
330.435	17.07
330.648	64.17
330.861	72.36
331.073	0.68
331.286	82.6
331.499	17.07
331.712	-5.46
331.925	45.74
332.138	33.45
332.35	19.11
332.563	-52.56
332.776	86.7
332.989	25.26
333.202	27.31
333.414	33.45
333.627	96.94
333.84	8.87
334.053	47.79
334.265	90.79
334.478	-13.65
334.691	58.03
334.903	-38.23
335.116	10.92
335.329	0.68
335.541	49.83
335.754	51.88
335.966	15.02
336.179	129.7
336.392	-5.46
336.604	58.03
336.817	90.79
337.029	27.31
337.242	2.73
337.454	74.41
337.667	-5.46
337.88	88.75
338.092	58.03
338.305	-11.61
338.517	-15.7
338.729	45.74
338.942	58.03
339.154	43.69
339.367	-27.99
339.579	117.42
339.792	4.78
340.004	41.64
340.217	23.21
340.429	78.51
340.641	68.27
340.854	10.92
341.066	127.66
341.278	78.51
341.491	-27.99
341.703	74.41
341.915	86.7
342.128	78.51
342.34	45.74
342.552	41.64
342.764	58.03
342.977	76.46
343.189	51.88
343.401	105.13
343.613	49.83
343.826	43.69
344.038	49.83
344.25	12.97
344.462	-54.61
344.674	43.69
344.886	47.79
345.099	45.74
345.311	12.97
345.523	84.65
345.735	33.45
345.947	58.03
346.159	119.46
346.371	115.37
346.583	17.07
346.795	74.41
347.007	64.17
347.219	66.22
347.431	-44.37
347.643	98.99
347.855	55.98
348.067	35.5
348.279	33.45
348.491	-62.8
348.703	29.35
348.915	64.17
349.127	39.59
349.339	123.56
349.551	78.51
349.763	94.89
349.975	8.87
350.187	72.36
350.399	115.37
350.61	68.27
350.822	64.17
351.034	76.46
351.246	33.45
351.458	76.46
351.669	80.55
351.881	31.4
352.093	72.36
352.305	55.98
352.517	105.13
352.728	101.03
352.94	21.16
353.152	45.74
353.363	55.98
353.575	-19.8
353.787	121.51
353.999	-5.46
354.21	66.22
354.422	41.64
354.633	47.79
354.845	80.55
355.057	-25.94
355.268	4.78
355.48	41.64
355.692	62.12
355.903	10.92
356.115	15.02
356.326	43.69
356.538	62.12
356.749	17.07
356.961	64.17
357.172	23.21
357.384	-13.65
357.595	29.35
357.807	45.74
358.018	49.83
358.23	86.7
358.441	55.98
358.653	86.7
358.864	70.31
359.075	2.73
359.287	64.17
359.498	92.84
359.709	35.5
359.921	21.16
360.132	45.74
360.344	-36.18
360.555	39.59
360.766	58.03
360.977	86.7
361.189	53.93
361.4	76.46
361.611	45.74
361.823	66.22
362.034	64.17
362.245	10.92
362.456	82.6
362.667	19.11
362.879	10.92
363.09	23.21
363.301	-54.61
363.512	35.5
363.723	31.4
363.935	88.75
364.146	115.37
364.357	17.07
364.568	27.31
364.779	66.22
364.99	78.51
365.201	45.74
365.412	72.36
365.623	43.69
365.834	55.98
366.045	37.55
366.256	84.65
366.467	25.26
366.678	96.94
366.889	47.79
367.1	12.97
367.311	62.12
367.522	8.87
367.733	55.98
367.944	82.6
368.155	33.45
368.366	58.03
368.577	37.55
368.788	49.83
368.999	8.87
369.209	68.27
369.42	115.37
369.631	137.9
369.842	98.99
370.053	-7.51
370.264	47.79
370.474	27.31
370.685	51.88
370.896	37.55
371.107	10.92
371.317	-5.46
371.528	49.83
371.739	125.61
371.95	12.97
372.16	47.79
372.371	53.93
372.582	-19.8
372.792	27.31
373.003	60.07
373.214	45.74
373.424	111.27
373.635	-19.8
373.846	78.51
374.056	82.6
374.267	82.6
374.477	29.35
374.688	115.37
374.898	86.7
375.109	86.7
375.319	64.17
375.53	129.7
375.74	76.46
375.951	49.83
376.161	51.88
376.372	45.74
376.582	39.59
376.793	129.7
377.003	-5.46
377.214	15.02
377.424	55.98
377.635	27.31
377.845	80.55
378.055	84.65
378.266	70.31
378.476	131.75
378.686	43.69
378.897	37.55
379.107	41.64
379.317	113.32
379.528	33.45
379.738	-23.89
379.948	39.59
380.158	78.51
380.369	33.45
380.579	115.37
380.789	47.79
380.999	37.55
381.21	74.41
381.42	55.98
381.63	88.75
381.84	58.03
382.05	78.51
382.261	68.27
382.471	76.46
382.681	10.92
382.891	78.51
383.101	129.7
383.311	-9.56
383.521	55.98
383.731	43.69
383.941	8.87
384.151	105.13
384.361	60.07
384.571	10.92
384.781	82.6
384.991	60.07
385.201	111.27
385.411	-38.23
385.621	121.51
385.831	41.64
386.041	111.27
386.251	41.64
386.461	0.68
386.671	47.79
386.881	70.31
387.091	0.68
387.301	92.84
387.511	10.92
387.72	47.79
387.93	43.69
388.14	29.35
388.35	27.31
388.56	25.26
388.769	53.93
388.979	98.99
389.189	80.55
389.399	92.84
389.609	17.07
389.818	111.27
390.028	2.73
390.238	127.66
390.447	70.31
390.657	144.04
390.867	39.59
391.076	62.12
391.286	94.89
391.496	53.93
391.705	47.79
391.915	58.03
392.125	82.6
392.334	62.12
392.544	64.17
392.753	168.62
392.963	53.93
393.172	119.46
393.382	94.89
393.591	101.03
393.801	123.56
394.01	129.7
394.22	103.08
394.429	101.03
394.639	113.32
394.848	105.13
395.058	68.27
395.267	27.31
395.477	94.89
395.686	115.37
395.895	82.6
396.105	107.18
396.314	135.85
396.524	109.23
396.733	58.03
396.942	96.94
397.152	98.99
397.361	146.09
397.57	60.07
397.78	94.89
397.989	51.88
398.198	166.57
398.407	156.33
398.617	156.33
398.826	76.46
399.035	141.99
399.244	121.51
399.453	74.41
399.663	101.03
399.872	74.41
400.081	64.17
400.29	80.55
400.499	103.08
400.708	162.47
400.917	62.12
401.127	88.75
401.336	107.18
401.545	131.75
401.754	141.99
401.963	166.57
402.172	64.17
402.381	125.61
402.59	109.23
402.799	92.84
403.008	115.37
403.217	148.14
403.426	109.23
403.635	41.64
403.844	115.37
404.053	178.86
404.262	111.27
404.471	193.19
404.68	146.09
404.888	144.04
405.097	129.7
405.306	215.72
405.515	213.67
405.724	148.14
405.933	94.89
406.142	172.71
406.35	197.29
406.559	150.18
406.768	125.61
406.977	168.62
407.185	207.53
407.394	297.64
407.603	133.8
407.812	84.65
408.02	160.42
408.229	250.53
408.438	281.25
408.646	242.34
408.855	287.4
409.064	252.58
409.272	252.58
409.481	262.82
409.69	283.3
409.898	361.13
410.107	289.45
410.315	387.75
410.524	375.46
410.733	297.64
410.941	352.93
411.15	307.88
411.358	428.71
411.567	412.32
411.775	459.43
411.984	434.85
412.192	383.65
412.401	365.22
412.609	455.33
412.818	377.51
413.026	531.11
413.234	578.21
413.443	506.53
413.651	488.1
413.86	473.76
414.068	512.67
414.276	578.21
414.485	592.55
414.693	625.31
414.901	735.9
415.11	672.42
415.318	748.19
415.526	668.32
415.734	838.3
415.943	780.96
416.151	774.81
416.359	797.34
416.567	846.49
416.776	938.65
416.984	930.46
417.192	981.66
417.4	1028.76
417.608	1045.15
417.817	1110.68
418.025	1125.02
418.233	1192.6
418.441	1147.55
418.649	1178.26
418.857	1215.13
419.065	1315.48
419.273	1307.29
419.481	1258.14
419.689	1378.97
419.897	1415.83
420.105	1524.37
420.313	1520.28
420.521	1600.15
420.729	1626.77
420.937	1655.44
421.145	1733.26
421.353	1825.42
421.561	1899.15
421.769	1890.96
421.977	1995.4
422.185	2019.98
422.393	2251.4
422.601	2339.46
422.809	2210.44
423.017	2345.61
423.224	2437.77
423.432	2488.96
423.64	2493.06
423.848	2630.27
424.056	2574.98
424.263	2740.86
424.471	2794.11
424.679	2931.33
424.887	3052.16
425.094	3160.7
425.302	3123.84
425.51	3357.3
425.718	3385.97
425.925	3398.26
426.133	3603.06
426.341	3740.27
426.548	3861.1
426.756	3908.21
426.964	3861.1
427.171	4227.69
427.379	4293.23
427.586	4342.38
427.794	4561.51
428.001	4665.96
428.209	4883.04
428.417	4817.51
428.624	5055.07
428.832	5204.57
429.039	5208.67
429.247	5032.54
429.454	5585.49
429.662	6036.05
429.869	5614.16
430.076	6097.49
430.284	5700.18
430.491	6056.53
430.699	6359.63
430.906	6349.39
431.114	6437.45
431.321	6773.32
431.528	6949.44
431.736	7324.22
431.943	7705.14
432.15	7445.05
432.358	7807.54
432.565	7850.55
432.772	7879.22
432.979	8372.78
433.187	8473.13
433.394	8546.86
433.601	9177.63
433.808	9173.53
434.016	9171.49
434.223	9368.09
434.43	9843.22
434.637	9751.06
434.844	10424.84
435.052	10686.98
435.259	10807.81
435.466	10498.57
435.673	10723.85
435.88	11217.41
436.087	11821.56
436.294	11817.46
436.501	11643.39
436.708	11825.65
436.915	12356.08
437.122	12782.06
437.329	12816.87
437.537	13240.8
437.743	13431.26
437.95	13199.84
438.157	13957.59
438.364	14500.3
438.571	14303.7
438.778	14381.52
438.985	15868.34
439.192	15262.15
439.399	15815.1
439.606	15178.18
439.813	16126.39
440.02	17066.41
440.227	17047.97
440.433	16834.99
440.64	17168.8
440.847	17047.97
441.054	17611.17
441.261	18651.53
441.467	18526.61
441.674	18837.9
441.881	19978.62
442.088	19442.05
442.294	19528.06
442.501	19917.18
442.708	20314.48
442.914	21256.55
443.121	22104.41
443.328	21580.13
443.534	23032.14
443.741	22227.29
443.948	22049.11
444.154	23374.15
444.361	23349.57
444.568	23828.8
444.774	23542.08
444.981	23834.94
445.187	24262.97
445.394	25563.43
445.6	25538.85
445.807	27793.67
446.013	26648.85
446.22	27220.24
446.426	28528.89
446.633	28367.1
446.839	29788.39
447.046	28051.71
447.252	29800.68
447.459	29843.68
447.665	29475.05
447.871	30906.58
448.078	32282.81
448.284	30613.72
448.491	31785.16
448.697	33181.87
448.903	33325.23
449.11	33618.09
449.316	32987.32
449.522	33929.38
449.728	34322.59
449.935	34758.81
450.141	34771.1
450.347	35715.21
450.553	34545.82
450.76	34941.08
450.966	36104.32
451.172	35688.59
451.378	36561.02
451.584	35952.77
451.791	36731
451.997	36421.76
452.203	37288.05
452.409	37656.68
452.615	37345.39
452.821	35698.83
453.027	35610.76
453.233	37015.67
453.44	35801.22
453.646	36178.05
453.852	36186.24
454.058	37038.2
454.264	35885.19
454.47	36548.73
454.676	35934.34
454.882	36956.28
455.088	33654.95
455.294	34422.94
455.5	35174.55
455.705	35195.03
455.911	33450.16
456.117	32692.41
456.323	32600.25
456.529	31215.82
456.735	32463.04
456.941	31510.73
457.147	31131.86
457.352	30083.3
457.558	30132.45
457.764	29620.45
457.97	29143.28
458.176	28526.84
458.381	28602.61
458.587	26960.14
458.793	27629.83
458.999	25700.64
459.204	27570.44
459.41	26886.42
459.616	25096.49
459.821	25094.44
460.027	25129.26
460.233	24506.68
460.438	23210.31
460.644	23630.15
460.85	22464.85
461.055	21924.19
461.261	22159.7
461.466	20597.1
461.672	20040.06
461.878	21188.97
462.083	20095.35
462.289	19302.79
462.494	19153.29
462.7	18407.83
462.905	18106.77
463.111	18573.71
463.316	18428.31
463.522	17955.22
463.727	18000.28
463.932	18006.42
464.138	17990.04
464.343	18188.69
464.549	17648.03
464.754	18082.2
464.959	17842.59
465.165	18008.47
465.37	17097.13
465.575	16765.35
465.781	17420.7
465.986	17506.72
466.191	16636.33
466.397	16632.24
466.602	15731.13
466.807	16409.01
467.012	16359.86
467.218	16191.92
467.423	15966.65
467.628	16138.68
