Data from USB4F104151__96__11-53-01-618.txt Node

Date: Fri Mar 14 11:53:01 EDT 2025
User: louis
Spectrometer: USB4F10415
Trigger mode: 4
Integration Time (sec): 2.000000E-2
Scans to average: 1
Electric dark correction enabled: true
Nonlinearity correction enabled: false
Boxcar width: 0
XAxis mode: Wavelengths
Number of Pixels in Spectrum: 3648
>>>>>Begin Spectral Data<<<<<
178.204	-57
178.424	-57
178.644	-57
178.864	-50.86
179.084	-108.2
179.304	57.68
179.524	10.58
179.744	33.11
179.964	4.44
180.184	37.2
180.404	-22.19
180.624	-11.95
180.844	-3.75
181.064	-69.29
181.283	-13.99
181.503	-38.57
181.723	16.73
181.943	-34.47
182.163	94.55
182.383	26.96
182.602	59.73
182.822	53.59
183.042	37.2
183.262	20.82
183.482	20.82
183.701	22.87
183.921	-24.23
184.141	10.58
184.361	22.87
184.58	-3.75
184.8	-20.14
185.02	57.68
185.239	45.4
185.459	16.73
185.679	47.44
185.898	-1.71
186.118	65.88
186.338	39.25
186.557	31.06
186.777	-36.52
186.997	0.34
187.216	-16.04
187.436	31.06
187.655	49.49
187.875	74.07
188.095	2.39
188.314	69.97
188.534	26.96
188.753	26.96
188.973	45.4
189.192	61.78
189.412	72.02
189.631	55.64
189.851	24.92
190.07	39.25
190.29	37.2
190.509	55.64
190.729	104.79
190.948	63.83
191.168	29.01
191.387	43.35
191.607	-46.76
191.826	-50.86
192.045	18.77
192.265	-40.62
192.484	8.53
192.704	-26.28
192.923	-46.76
193.142	92.5
193.362	-13.99
193.581	65.88
193.8	35.16
194.02	18.77
194.239	65.88
194.458	-9.9
194.678	31.06
194.897	16.73
195.116	51.54
195.335	-67.24
195.555	8.53
195.774	53.59
195.993	47.44
196.212	-5.8
196.432	-40.62
196.651	41.3
196.87	-3.75
197.089	39.25
197.308	61.78
197.528	24.92
197.747	-30.38
197.966	22.87
198.185	98.64
198.404	14.68
198.623	16.73
198.842	18.77
199.062	10.58
199.281	115.03
199.5	-38.57
199.719	49.49
199.938	2.39
200.157	43.35
200.376	6.49
200.595	74.07
200.814	-9.9
201.033	-11.95
201.252	88.4
201.471	18.77
201.69	45.4
201.909	37.2
202.128	16.73
202.347	-1.71
202.566	-13.99
202.785	-11.95
203.004	-32.43
203.223	76.12
203.442	-20.14
203.661	-9.9
203.879	37.2
204.098	10.58
204.317	22.87
204.536	45.4
204.755	14.68
204.974	-9.9
205.193	10.58
205.411	43.35
205.63	-42.67
205.849	29.01
206.068	24.92
206.287	6.49
206.505	39.25
206.724	31.06
206.943	61.78
207.162	18.77
207.381	72.02
207.599	-38.57
207.818	-28.33
208.037	63.83
208.255	31.06
208.474	41.3
208.693	61.78
208.911	14.68
209.13	2.39
209.349	53.59
209.567	53.59
209.786	-24.23
210.005	35.16
210.223	-3.75
210.442	-22.19
210.661	-42.67
210.879	-22.19
211.098	0.34
211.316	61.78
211.535	16.73
211.753	-1.71
211.972	26.96
212.191	69.97
212.409	-18.09
212.628	-3.75
212.846	12.63
213.065	-1.71
213.283	20.82
213.502	-38.57
213.72	-16.04
213.938	18.77
214.157	78.16
214.375	-1.71
214.594	47.44
214.812	16.73
215.031	-22.19
215.249	-32.43
215.467	41.3
215.686	57.68
215.904	20.82
216.122	29.01
216.341	131.41
216.559	53.59
216.778	29.01
216.996	26.96
217.214	0.34
217.432	76.12
217.651	72.02
217.869	29.01
218.087	-3.75
218.306	-7.85
218.524	-20.14
218.742	29.01
218.96	12.63
219.179	65.88
219.397	24.92
219.615	29.01
219.833	43.35
220.051	-3.75
220.27	72.02
220.488	-16.04
220.706	45.4
220.924	-24.23
221.142	0.34
221.36	61.78
221.578	29.01
221.796	-24.23
222.015	14.68
222.233	37.2
222.451	47.44
222.669	-11.95
222.887	-26.28
223.105	-22.19
223.323	-30.38
223.541	61.78
223.759	110.93
223.977	33.11
224.195	88.4
224.413	49.49
224.631	14.68
224.849	-20.14
225.067	33.11
225.285	12.63
225.503	0.34
225.721	-120.49
225.939	-13.99
226.157	59.73
226.375	65.88
226.592	12.63
226.81	26.96
227.028	29.01
227.246	45.4
227.464	33.11
227.682	18.77
227.9	33.11
228.117	41.3
228.335	12.63
228.553	65.88
228.771	8.53
228.989	102.74
229.206	24.92
229.424	-20.14
229.642	-54.95
229.86	47.44
230.077	6.49
230.295	61.78
230.513	-7.85
230.731	65.88
230.948	20.82
231.166	16.73
231.384	-7.85
231.601	16.73
231.819	18.77
232.037	43.35
232.254	-26.28
232.472	39.25
232.689	-5.8
232.907	82.26
233.125	14.68
233.342	14.68
233.56	51.54
233.777	43.35
233.995	20.82
234.213	131.41
234.43	24.92
234.648	18.77
234.865	51.54
235.083	92.5
235.3	69.97
235.518	-9.9
235.735	94.55
235.953	92.5
236.17	-22.19
236.388	43.35
236.605	76.12
236.822	22.87
237.04	-7.85
237.257	41.3
237.475	55.64
237.692	10.58
237.909	-20.14
238.127	57.68
238.344	51.54
238.562	2.39
238.779	-7.85
238.996	22.87
239.214	-1.71
239.431	35.16
239.648	20.82
239.865	33.11
240.083	67.92
240.3	16.73
240.517	29.01
240.735	82.26
240.952	24.92
241.169	-9.9
241.386	72.02
241.603	4.44
241.821	67.92
242.038	65.88
242.255	-1.71
242.472	49.49
242.689	12.63
242.907	41.3
243.124	88.4
243.341	10.58
243.558	-11.95
243.775	4.44
243.992	-1.71
244.209	-16.04
244.426	49.49
244.643	51.54
244.86	43.35
245.078	74.07
245.295	29.01
245.512	0.34
245.729	10.58
245.946	4.44
246.163	115.03
246.38	53.59
246.597	16.73
246.814	20.82
247.031	55.64
247.248	-1.71
247.464	-36.52
247.681	-11.95
247.898	43.35
248.115	51.54
248.332	12.63
248.549	121.17
248.766	6.49
248.983	49.49
249.2	-7.85
249.417	18.77
249.633	0.34
249.85	-13.99
250.067	35.16
250.284	14.68
250.501	-73.39
250.717	29.01
250.934	-20.14
251.151	37.2
251.368	69.97
251.585	-46.76
251.801	10.58
252.018	-18.09
252.235	98.64
252.451	18.77
252.668	4.44
252.885	63.83
253.102	65.88
253.318	96.6
253.535	72.02
253.752	29.01
253.968	-20.14
254.185	-22.19
254.401	-16.04
254.618	-3.75
254.835	-3.75
255.051	49.49
255.268	8.53
255.484	-1.71
255.701	-22.19
255.917	26.96
256.134	20.82
256.351	78.16
256.567	-3.75
256.784	-50.86
257	43.35
257.217	20.82
257.433	-34.47
257.65	-1.71
257.866	-20.14
258.082	-32.43
258.299	-22.19
258.515	0.34
258.732	49.49
258.948	-9.9
259.165	16.73
259.381	37.2
259.597	24.92
259.814	115.03
260.03	-11.95
260.246	-32.43
260.463	22.87
260.679	24.92
260.895	-36.52
261.112	16.73
261.328	76.12
261.544	45.4
261.761	39.25
261.977	20.82
262.193	31.06
262.409	14.68
262.626	43.35
262.842	63.83
263.058	63.83
263.274	-20.14
263.49	24.92
263.707	29.01
263.923	133.46
264.139	0.34
264.355	-20.14
264.571	33.11
264.787	4.44
265.004	31.06
265.22	14.68
265.436	-24.23
265.652	-61.1
265.868	63.83
266.084	14.68
266.3	-20.14
266.516	-77.48
266.732	57.68
266.948	-20.14
267.164	24.92
267.38	14.68
267.596	80.21
267.812	121.17
268.028	33.11
268.244	47.44
268.46	-24.23
268.676	0.34
268.892	-85.67
269.108	14.68
269.324	-16.04
269.54	-24.23
269.756	-7.85
269.972	51.54
270.188	6.49
270.403	-3.75
270.619	12.63
270.835	65.88
271.051	65.88
271.267	29.01
271.483	14.68
271.698	24.92
271.914	39.25
272.13	-7.85
272.346	6.49
272.562	-11.95
272.777	94.55
272.993	43.35
273.209	-18.09
273.425	-16.04
273.64	16.73
273.856	76.12
274.072	10.58
274.287	8.53
274.503	29.01
274.719	49.49
274.934	16.73
275.15	29.01
275.366	-28.33
275.581	61.78
275.797	6.49
276.012	-16.04
276.228	26.96
276.444	-11.95
276.659	39.25
276.875	72.02
277.09	29.01
277.306	35.16
277.521	0.34
277.737	35.16
277.952	43.35
278.168	67.92
278.383	12.63
278.599	14.68
278.814	16.73
279.03	-7.85
279.245	31.06
279.461	41.3
279.676	6.49
279.892	14.68
280.107	41.3
280.322	35.16
280.538	31.06
280.753	-16.04
280.969	57.68
281.184	10.58
281.399	47.44
281.615	-1.71
281.83	-9.9
282.045	-50.86
282.26	41.3
282.476	-1.71
282.691	29.01
282.906	-48.81
283.122	24.92
283.337	35.16
283.552	14.68
283.767	43.35
283.983	20.82
284.198	20.82
284.413	4.44
284.628	-22.19
284.843	49.49
285.058	49.49
285.274	55.64
285.489	4.44
285.704	6.49
285.919	18.77
286.134	14.68
286.349	74.07
286.564	-67.24
286.779	51.54
286.995	82.26
287.21	26.96
287.425	39.25
287.64	10.58
287.855	18.77
288.07	-3.75
288.285	29.01
288.5	0.34
288.715	67.92
288.93	55.64
289.145	2.39
289.36	72.02
289.575	6.49
289.79	-1.71
290.004	69.97
290.219	39.25
290.434	24.92
290.649	33.11
290.864	37.2
291.079	69.97
291.294	-32.43
291.509	61.78
291.724	67.92
291.938	0.34
292.153	31.06
292.368	147.8
292.583	-38.57
292.798	33.11
293.012	49.49
293.227	24.92
293.442	-36.52
293.657	-11.95
293.871	74.07
294.086	31.06
294.301	102.74
294.516	84.31
294.73	84.31
294.945	-38.57
295.16	65.88
295.374	-30.38
295.589	59.73
295.804	-63.15
296.018	59.73
296.233	45.4
296.447	74.07
296.662	-38.57
296.877	0.34
297.091	31.06
297.306	51.54
297.52	-52.91
297.735	65.88
297.949	-18.09
298.164	-71.34
298.378	16.73
298.593	41.3
298.807	22.87
299.022	72.02
299.236	57.68
299.451	33.11
299.665	33.11
299.88	-5.8
300.094	8.53
300.309	6.49
300.523	4.44
300.737	4.44
300.952	31.06
301.166	57.68
301.381	16.73
301.595	45.4
301.809	84.31
302.024	-24.23
302.238	22.87
302.452	-1.71
302.667	-3.75
302.881	29.01
303.095	41.3
303.309	10.58
303.524	8.53
303.738	0.34
303.952	-20.14
304.166	26.96
304.381	-26.28
304.595	45.4
304.809	14.68
305.023	53.59
305.237	137.56
305.452	-1.71
305.666	16.73
305.88	80.21
306.094	29.01
306.308	88.4
306.522	-26.28
306.736	39.25
306.95	35.16
307.164	74.07
307.379	24.92
307.593	20.82
307.807	47.44
308.021	61.78
308.235	20.82
308.449	-11.95
308.663	63.83
308.877	96.6
309.091	-42.67
309.305	-26.28
309.519	72.02
309.733	61.78
309.947	-7.85
310.161	65.88
310.374	12.63
310.588	-26.28
310.802	-13.99
311.016	45.4
311.23	61.78
311.444	-11.95
311.658	49.49
311.872	53.59
312.085	41.3
312.299	78.16
312.513	8.53
312.727	-7.85
312.941	6.49
313.154	-18.09
313.368	29.01
313.582	84.31
313.796	47.44
314.009	112.98
314.223	102.74
314.437	20.82
314.651	43.35
314.864	-52.91
315.078	24.92
315.292	-18.09
315.505	26.96
315.719	74.07
315.933	35.16
316.146	35.16
316.36	-1.71
316.573	33.11
316.787	-38.57
317.001	26.96
317.214	-5.8
317.428	51.54
317.641	26.96
317.855	51.54
318.068	53.59
318.282	31.06
318.495	102.74
318.709	106.84
318.922	12.63
319.136	51.54
319.349	-36.52
319.563	14.68
319.776	-13.99
319.99	65.88
320.203	47.44
320.417	6.49
320.63	35.16
320.843	67.92
321.057	-46.76
321.27	8.53
321.483	94.55
321.697	112.98
321.91	51.54
322.124	-50.86
322.337	-24.23
322.55	-30.38
322.763	12.63
322.977	37.2
323.19	10.58
323.403	26.96
323.617	63.83
323.83	47.44
324.043	0.34
324.256	49.49
324.469	-5.8
324.683	84.31
324.896	45.4
325.109	65.88
325.322	-11.95
325.535	26.96
325.748	-1.71
325.962	33.11
326.175	-7.85
326.388	69.97
326.601	10.58
326.814	102.74
327.027	-5.8
327.24	10.58
327.453	12.63
327.666	33.11
327.879	24.92
328.092	43.35
328.305	26.96
328.518	24.92
328.731	-11.95
328.944	-34.47
329.157	22.87
329.37	4.44
329.583	104.79
329.796	59.73
330.009	108.88
330.222	37.2
330.435	29.01
330.648	14.68
330.861	12.63
331.073	43.35
331.286	-32.43
331.499	57.68
331.712	26.96
331.925	57.68
332.138	6.49
332.35	84.31
332.563	10.58
332.776	98.64
332.989	12.63
333.202	61.78
333.414	6.49
333.627	4.44
333.84	-28.33
334.053	-28.33
334.265	41.3
334.478	26.96
334.691	35.16
334.903	72.02
335.116	-13.99
335.329	14.68
335.541	10.58
335.754	26.96
335.966	45.4
336.179	49.49
336.392	37.2
336.604	22.87
336.817	18.77
337.029	10.58
337.242	0.34
337.454	8.53
337.667	117.08
337.88	18.77
338.092	35.16
338.305	24.92
338.517	4.44
338.729	82.26
338.942	57.68
339.154	67.92
339.367	35.16
339.579	10.58
339.792	-9.9
340.004	135.51
340.217	-18.09
340.429	29.01
340.641	39.25
340.854	39.25
341.066	61.78
341.278	72.02
341.491	39.25
341.703	127.32
341.915	8.53
342.128	-1.71
342.34	65.88
342.552	10.58
342.764	-32.43
342.977	59.73
343.189	-5.8
343.401	82.26
343.613	67.92
343.826	49.49
344.038	35.16
344.25	59.73
344.462	-26.28
344.674	100.69
344.886	-9.9
345.099	72.02
345.311	22.87
345.523	80.21
345.735	-3.75
345.947	35.16
346.159	-13.99
346.371	61.78
346.583	22.87
346.795	106.84
347.007	4.44
347.219	41.3
347.431	22.87
347.643	129.36
347.855	-69.29
348.067	-24.23
348.279	22.87
348.491	92.5
348.703	-87.72
348.915	61.78
349.127	6.49
349.339	96.6
349.551	47.44
349.763	-13.99
349.975	29.01
350.187	41.3
350.399	45.4
350.61	-11.95
350.822	2.39
351.034	35.16
351.246	-26.28
351.458	92.5
351.669	43.35
351.881	59.73
352.093	35.16
352.305	61.78
352.517	18.77
352.728	12.63
352.94	98.64
353.152	108.88
353.363	-18.09
353.575	-5.8
353.787	-5.8
353.999	53.59
354.21	53.59
354.422	0.34
354.633	39.25
354.845	47.44
355.057	55.64
355.268	37.2
355.48	-13.99
355.692	35.16
355.903	10.58
356.115	112.98
356.326	-20.14
356.538	49.49
356.749	74.07
356.961	18.77
357.172	65.88
357.384	84.31
357.595	0.34
357.807	76.12
358.018	41.3
358.23	12.63
358.441	39.25
358.653	-3.75
358.864	-13.99
359.075	59.73
359.287	49.49
359.498	76.12
359.709	-11.95
359.921	-32.43
360.132	16.73
360.344	33.11
360.555	-5.8
360.766	57.68
360.977	22.87
361.189	47.44
361.4	53.59
361.611	80.21
361.823	78.16
362.034	49.49
362.245	-20.14
362.456	47.44
362.667	51.54
362.879	112.98
363.09	57.68
363.301	51.54
363.512	59.73
363.723	26.96
363.935	39.25
364.146	51.54
364.357	61.78
364.568	26.96
364.779	69.97
364.99	20.82
365.201	35.16
365.412	45.4
365.623	112.98
365.834	-18.09
366.045	41.3
366.256	35.16
366.467	-9.9
366.678	29.01
366.889	14.68
367.1	117.08
367.311	57.68
367.522	76.12
367.733	43.35
367.944	35.16
368.155	61.78
368.366	24.92
368.577	53.59
368.788	6.49
368.999	-32.43
369.209	24.92
369.42	16.73
369.631	80.21
369.842	61.78
370.053	29.01
370.264	18.77
370.474	10.58
370.685	61.78
370.896	92.5
371.107	2.39
371.317	-50.86
371.528	39.25
371.739	55.64
371.95	-9.9
372.16	90.45
372.371	78.16
372.582	39.25
372.792	-18.09
373.003	16.73
373.214	-28.33
373.424	41.3
373.635	-20.14
373.846	20.82
374.056	65.88
374.267	94.55
374.477	18.77
374.688	24.92
374.898	16.73
375.109	45.4
375.319	-77.48
375.53	84.31
375.74	35.16
375.951	72.02
376.161	104.79
376.372	37.2
376.582	51.54
376.793	80.21
377.003	67.92
377.214	14.68
377.424	-16.04
377.635	10.58
377.845	33.11
378.055	0.34
378.266	39.25
378.476	49.49
378.686	6.49
378.897	39.25
379.107	84.31
379.317	45.4
379.528	-20.14
379.738	26.96
379.948	-11.95
380.158	123.22
380.369	53.59
380.579	26.96
380.789	16.73
380.999	69.97
381.21	115.03
381.42	80.21
381.63	-20.14
381.84	57.68
382.05	63.83
382.261	26.96
382.471	45.4
382.681	29.01
382.891	16.73
383.101	78.16
383.311	-24.23
383.521	22.87
383.731	39.25
383.941	69.97
384.151	86.36
384.361	2.39
384.571	86.36
384.781	72.02
384.991	45.4
385.201	125.27
385.411	22.87
385.621	-30.38
385.831	121.17
386.041	90.45
386.251	57.68
386.461	33.11
386.671	49.49
386.881	57.68
387.091	43.35
387.301	51.54
387.511	41.3
387.72	84.31
387.93	14.68
388.14	61.78
388.35	-3.75
388.56	20.82
388.769	78.16
388.979	108.88
389.189	-69.29
389.399	-18.09
389.609	63.83
389.818	88.4
390.028	53.59
390.238	65.88
390.447	61.78
390.657	35.16
390.867	33.11
391.076	106.84
391.286	55.64
391.496	47.44
391.705	29.01
391.915	121.17
392.125	94.55
392.334	59.73
392.544	18.77
392.753	33.11
392.963	65.88
393.172	43.35
393.382	31.06
393.591	10.58
393.801	-16.04
394.01	18.77
394.22	12.63
394.429	86.36
394.639	86.36
394.848	108.88
395.058	20.82
395.267	72.02
395.477	47.44
395.686	49.49
395.895	-5.8
396.105	106.84
396.314	53.59
396.524	35.16
396.733	8.53
396.942	72.02
397.152	18.77
397.361	63.83
397.57	86.36
397.78	45.4
397.989	18.77
398.198	129.36
398.407	98.64
398.617	160.08
398.826	47.44
399.035	98.64
399.244	69.97
399.453	90.45
399.663	49.49
399.872	57.68
400.081	86.36
400.29	41.3
400.499	94.55
400.708	112.98
400.917	82.26
401.127	82.26
401.336	86.36
401.545	84.31
401.754	121.17
401.963	98.64
402.172	90.45
402.381	84.31
402.59	92.5
402.799	47.44
403.008	63.83
403.217	84.31
403.426	151.89
403.635	108.88
403.844	84.31
404.053	37.2
404.262	57.68
404.471	35.16
404.68	162.13
404.888	92.5
405.097	168.27
405.306	86.36
405.515	164.18
405.724	115.03
405.933	108.88
406.142	26.96
406.35	127.32
406.559	76.12
406.768	184.66
406.977	141.65
407.185	145.75
407.394	176.47
407.603	90.45
407.812	176.47
408.02	215.38
408.229	215.38
408.438	94.55
408.646	164.18
408.855	143.7
409.064	192.85
409.272	192.85
409.481	244.05
409.69	133.46
409.898	246.1
410.107	242
410.315	264.53
410.524	201.04
410.733	252.24
410.941	217.43
411.15	336.21
411.358	287.06
411.567	244.05
411.775	280.91
411.984	348.5
412.192	295.25
412.401	340.3
412.609	350.54
412.818	328.02
413.026	321.87
413.234	328.02
413.443	340.3
413.651	397.65
413.86	463.18
414.068	440.65
414.276	520.53
414.485	381.26
414.693	547.15
414.901	491.85
415.11	403.79
415.318	536.91
415.526	432.46
415.734	512.33
415.943	575.82
416.151	610.64
416.359	545.1
416.567	575.82
416.776	713.03
416.984	590.16
417.192	733.51
417.4	655.69
417.608	651.6
417.817	667.98
418.025	643.4
418.233	741.71
418.441	819.53
418.649	837.96
418.857	860.49
419.065	897.35
419.273	928.07
419.481	983.37
419.689	948.55
419.897	1044.81
420.105	915.78
420.313	1091.91
420.521	1116.48
420.729	1040.71
420.937	1147.2
421.145	1089.86
421.353	1229.12
421.561	1442.11
421.769	1403.2
421.977	1517.89
422.185	1360.19
422.393	1466.69
422.601	1630.52
422.809	1569.09
423.017	1630.52
423.224	1517.89
423.432	1741.11
423.64	1759.55
423.848	1900.86
424.056	1812.79
424.263	1986.87
424.471	1988.92
424.679	1935.67
424.887	2103.61
425.094	2191.67
425.302	2232.63
425.51	2249.01
425.718	2330.93
425.925	2335.03
426.133	2462
426.341	2541.87
426.548	2732.33
426.756	2687.28
426.964	2744.62
427.171	2836.78
427.379	3019.05
427.586	2982.18
427.794	3027.24
428.001	3227.94
428.209	3279.14
428.417	3166.5
428.624	3510.56
428.832	3381.54
429.039	3539.23
429.247	3551.52
429.454	3858.71
429.662	4110.61
429.869	3909.91
430.076	4096.28
430.284	4051.22
430.491	4194.58
430.699	4409.62
430.906	4483.34
431.114	4542.74
431.321	4555.02
431.528	4815.12
431.736	5110.02
431.943	5288.2
432.15	5261.57
432.358	5288.2
432.565	5425.41
432.772	5443.84
432.979	5789.95
433.187	5939.45
433.394	5914.88
433.601	6252.79
433.808	6197.49
434.016	6332.66
434.223	6400.24
434.43	6914.28
434.637	6820.08
434.844	7069.93
435.052	7383.27
435.259	7282.92
435.466	7426.28
435.673	7213.29
435.88	7786.72
436.087	8102.11
436.294	8325.33
436.501	8028.38
436.708	8134.87
436.915	8425.68
437.122	8921.29
437.329	8845.52
437.537	9257.16
437.743	9332.93
437.95	9126.09
438.157	9715.91
438.364	9797.82
438.571	9838.78
438.778	9996.48
438.985	11051.18
439.192	10524.85
439.399	10811.57
439.606	10647.73
439.813	10942.64
440.02	11919.52
440.227	11733.15
440.433	11391.14
440.64	11790.5
440.847	11684
441.054	12259.48
441.261	12998.8
441.467	12687.51
441.674	13203.6
441.881	13437.06
442.088	13502.6
442.294	13328.52
442.501	13631.62
442.708	14162.05
442.914	14569.59
443.121	15183.98
443.328	14751.86
443.534	15487.08
443.741	15341.68
443.948	14979.18
444.154	16183.39
444.361	16107.62
444.568	16037.98
444.774	16126.05
444.981	16412.76
445.187	16898.13
445.394	17549.39
445.6	17303.63
445.807	19316.78
446.013	18235.46
446.22	18671.67
446.426	19116.08
446.633	19634.22
446.839	20041.76
447.046	19204.14
447.252	20549.66
447.459	20445.21
447.665	20254.75
447.871	21516.3
448.078	22267.91
448.284	21073.94
448.491	21555.21
448.697	22441.98
448.903	22790.14
449.11	22931.45
449.316	22566.91
449.522	23228.4
449.728	23801.83
449.935	24088.55
450.141	23719.92
450.347	24688.6
450.553	23646.19
450.76	23795.69
450.966	24909.79
451.172	24405.98
451.378	25200.6
451.584	24600.54
451.791	25081.81
451.997	25315.28
452.203	25921.48
452.409	25655.25
452.615	25612.24
452.821	24612.83
453.027	24485.86
453.233	25786.32
453.44	24461.28
453.646	25221.08
453.852	25225.17
454.058	25624.53
454.264	24780.76
454.47	25204.69
454.676	24803.29
454.882	25409.49
455.088	23447.54
455.294	23560.17
455.5	23930.86
455.705	24465.38
455.911	23271.41
456.117	22923.26
456.323	22136.84
456.529	21440.53
456.735	22444.03
456.941	21932.04
457.147	21403.66
457.352	20555.8
457.558	20441.12
457.764	20527.13
457.97	20174.88
458.176	19808.3
458.381	19468.33
458.587	18643
458.793	18825.27
458.999	17942.6
459.204	19087.41
459.41	18442.3
459.616	17119.31
459.821	17315.92
460.027	17270.86
460.233	17143.89
460.438	16189.53
460.644	16244.83
460.85	15380.59
461.055	15323.24
461.261	14893.17
461.466	14215.29
461.672	13596.81
461.878	14690.42
462.083	13588.61
462.289	13326.47
462.494	13084.81
462.7	12753.04
462.905	12499.09
463.111	12914.83
463.316	12810.39
463.522	12490.9
463.727	12423.32
463.932	12456.09
464.138	12368.02
464.343	12355.74
464.549	11995.29
464.754	12392.6
464.959	12255.39
465.165	12183.71
465.37	11616.42
465.575	11485.35
465.781	12030.11
465.986	11890.85
466.191	11276.46
466.397	11301.03
466.602	10885.3
466.807	11348.14
467.012	11057.32
467.218	11129
467.423	10930.35
467.628	11006.13
467.833	11511.97
468.038	11055.28
468.244	10768.56
