Data from USB4F104151__14__11-51-12-691.txt Node

Date: Fri Mar 14 11:51:12 EDT 2025
User: louis
Spectrometer: USB4F10415
Trigger mode: 4
Integration Time (sec): 2.000000E-2
Scans to average: 1
Electric dark correction enabled: true
Nonlinearity correction enabled: false
Boxcar width: 0
XAxis mode: Wavelengths
Number of Pixels in Spectrum: 3648
>>>>>Begin Spectral Data<<<<<
178.204	-73.56
178.424	-73.56
178.644	-73.56
178.864	14.51
179.084	-77.65
179.304	-61.27
179.524	2.22
179.744	57.51
179.964	39.08
180.184	-75.6
180.404	69.8
180.624	-26.45
180.844	18.6
181.064	0.17
181.283	-73.56
181.503	4.27
181.723	45.23
181.943	-16.21
182.163	43.18
182.383	16.55
182.602	71.85
182.822	67.75
183.042	43.18
183.262	-3.93
183.482	-1.88
183.701	32.94
183.921	61.61
184.141	0.17
184.361	53.42
184.58	57.51
184.8	53.42
185.02	10.41
185.239	86.19
185.459	-26.45
185.679	51.37
185.898	4.27
186.118	110.76
186.338	18.6
186.557	57.51
186.777	61.61
186.997	39.08
187.216	43.18
187.436	65.71
187.655	8.36
187.875	43.18
188.095	16.55
188.314	82.09
188.534	43.18
188.753	16.55
188.973	71.85
189.192	80.04
189.412	8.36
189.631	-16.21
189.851	-46.93
190.07	94.38
190.29	-55.12
190.509	59.56
190.729	-14.17
190.948	20.65
191.168	112.81
191.387	121
191.607	-26.45
191.826	57.51
192.045	88.23
192.265	37.03
192.484	-16.21
192.704	55.47
192.923	32.94
193.142	157.86
193.362	18.6
193.581	-1.88
193.8	-87.89
194.02	30.89
194.239	22.7
194.458	26.79
194.678	6.31
194.897	12.46
195.116	37.03
195.335	84.14
195.555	8.36
195.774	24.75
195.993	30.89
196.212	12.46
196.432	-38.74
196.651	-8.02
196.87	53.42
197.089	12.46
197.308	26.79
197.528	-40.79
197.747	51.37
197.966	59.56
198.185	0.17
198.404	8.36
198.623	49.32
198.842	0.17
199.062	77.99
199.281	100.52
199.5	-51.03
199.719	-24.4
199.938	51.37
200.157	-30.55
200.376	43.18
200.595	34.99
200.814	10.41
201.033	0.17
201.252	-36.69
201.471	47.27
201.69	98.47
201.909	24.75
202.128	69.8
202.347	80.04
202.566	71.85
202.785	-14.17
203.004	39.08
203.223	116.9
203.442	77.99
203.661	4.27
203.879	43.18
204.098	41.13
204.317	20.65
204.536	24.75
204.755	4.27
204.974	-16.21
205.193	59.56
205.411	43.18
205.63	30.89
205.849	39.08
206.068	-5.97
206.287	-5.97
206.505	69.8
206.724	51.37
206.943	-8.02
207.162	-16.21
207.381	32.94
207.599	4.27
207.818	84.14
208.037	80.04
208.255	43.18
208.474	32.94
208.693	65.71
208.911	63.66
209.13	39.08
209.349	30.89
209.567	45.23
209.786	63.66
210.005	-14.17
210.223	104.62
210.442	12.46
210.661	32.94
210.879	67.75
211.098	8.36
211.316	67.75
211.535	104.62
211.753	84.14
211.972	4.27
212.191	28.84
212.409	69.8
212.628	75.95
212.846	22.7
213.065	104.62
213.283	-5.97
213.502	-61.27
213.72	22.7
213.938	-1.88
214.157	75.95
214.375	-53.08
214.594	53.42
214.812	4.27
215.031	0.17
215.249	84.14
215.467	92.33
215.686	51.37
215.904	94.38
216.122	77.99
216.341	118.95
216.559	57.51
216.778	104.62
216.996	-38.74
217.214	24.75
217.432	6.31
217.651	43.18
217.869	82.09
218.087	43.18
218.306	14.51
218.524	86.19
218.742	43.18
218.96	2.22
219.179	47.27
219.397	104.62
219.615	61.61
219.833	106.67
220.051	2.22
220.27	65.71
220.488	86.19
220.706	-24.4
220.924	-24.4
221.142	16.55
221.36	59.56
221.578	-16.21
221.796	6.31
222.015	30.89
222.233	41.13
222.451	86.19
222.669	75.95
222.887	121
223.105	65.71
223.323	41.13
223.541	-59.22
223.759	94.38
223.977	49.32
224.195	86.19
224.413	45.23
224.631	43.18
224.849	57.51
225.067	121
225.285	63.66
225.503	82.09
225.721	59.56
225.939	77.99
226.157	12.46
226.375	57.51
226.592	20.65
226.81	47.27
227.028	39.08
227.246	63.66
227.464	-18.26
227.682	34.99
227.9	102.57
228.117	20.65
228.335	75.95
228.553	34.99
228.771	71.85
228.989	26.79
229.206	84.14
229.424	10.41
229.642	45.23
229.86	26.79
230.077	49.32
230.295	6.31
230.513	82.09
230.731	80.04
230.948	80.04
231.166	59.56
231.384	51.37
231.601	-3.93
231.819	55.47
232.037	-5.97
232.254	18.6
232.472	65.71
232.689	41.13
232.907	43.18
233.125	-3.93
233.342	22.7
233.56	16.55
233.777	45.23
233.995	90.28
234.213	108.71
234.43	-3.93
234.648	28.84
234.865	22.7
235.083	47.27
235.3	34.99
235.518	71.85
235.735	34.99
235.953	82.09
236.17	-3.93
236.388	-3.93
236.605	39.08
236.822	34.99
237.04	41.13
237.257	43.18
237.475	18.6
237.692	53.42
237.909	28.84
238.127	47.27
238.344	-3.93
238.562	12.46
238.779	61.61
238.996	26.79
239.214	45.23
239.431	-63.32
239.648	4.27
239.865	18.6
240.083	10.41
240.3	-5.97
240.517	34.99
240.735	32.94
240.952	18.6
241.169	-46.93
241.386	30.89
241.603	75.95
241.821	69.8
242.038	55.47
242.255	6.31
242.472	18.6
242.689	39.08
242.907	75.95
243.124	98.47
243.341	-38.74
243.558	49.32
243.775	14.51
243.992	39.08
244.209	45.23
244.426	-34.64
244.643	43.18
244.86	53.42
245.078	61.61
245.295	-24.4
245.512	96.43
245.729	28.84
245.946	10.41
246.163	-1.88
246.38	96.43
246.597	-32.6
246.814	12.46
247.031	47.27
247.248	57.51
247.464	26.79
247.681	10.41
247.898	34.99
248.115	84.14
248.332	-59.22
248.549	30.89
248.766	22.7
248.983	-1.88
249.2	49.32
249.417	28.84
249.633	39.08
249.85	34.99
250.067	-53.08
250.284	75.95
250.501	51.37
250.717	2.22
250.934	71.85
251.151	53.42
251.368	69.8
251.585	53.42
251.801	69.8
252.018	53.42
252.235	43.18
252.451	-53.08
252.668	49.32
252.885	63.66
253.102	73.9
253.318	30.89
253.535	49.32
253.752	-12.12
253.968	80.04
254.185	61.61
254.401	-24.4
254.618	110.76
254.835	16.55
255.051	80.04
255.268	28.84
255.484	32.94
255.701	20.65
255.917	63.66
256.134	26.79
256.351	-38.74
256.567	-20.31
256.784	14.51
257	-8.02
257.217	41.13
257.433	55.47
257.65	-16.21
257.866	75.95
258.082	14.51
258.299	-3.93
258.515	67.75
258.732	39.08
258.948	8.36
259.165	32.94
259.381	43.18
259.597	10.41
259.814	61.61
260.03	34.99
260.246	82.09
260.463	-10.07
260.679	41.13
260.895	6.31
261.112	67.75
261.328	24.75
261.544	96.43
261.761	94.38
261.977	75.95
262.193	-10.07
262.409	41.13
262.626	92.33
262.842	24.75
263.058	49.32
263.274	88.23
263.49	75.95
263.707	22.7
263.923	47.27
264.139	65.71
264.355	45.23
264.571	143.53
264.787	43.18
265.004	43.18
265.22	4.27
265.436	43.18
265.652	-12.12
265.868	47.27
266.084	59.56
266.3	57.51
266.516	53.42
266.732	39.08
266.948	51.37
267.164	12.46
267.38	57.51
267.596	-8.02
267.812	61.61
268.028	18.6
268.244	55.47
268.46	59.56
268.676	24.75
268.892	45.23
269.108	6.31
269.324	26.79
269.54	61.61
269.756	67.75
269.972	-34.64
270.188	12.46
270.403	16.55
270.619	28.84
270.835	-12.12
271.051	57.51
271.267	39.08
271.483	51.37
271.698	88.23
271.914	20.65
272.13	59.56
272.346	22.7
272.562	63.66
272.777	18.6
272.993	-18.26
273.209	47.27
273.425	22.7
273.64	49.32
273.856	12.46
274.072	82.09
274.287	37.03
274.503	59.56
274.719	45.23
274.934	92.33
275.15	0.17
275.366	69.8
275.581	-38.74
275.797	41.13
276.012	73.9
276.228	14.51
276.444	10.41
276.659	84.14
276.875	57.51
277.09	14.51
277.306	2.22
277.521	63.66
277.737	-10.07
277.952	-12.12
278.168	-10.07
278.383	12.46
278.599	51.37
278.814	18.6
279.03	30.89
279.245	125.1
279.461	-48.98
279.676	73.9
279.892	-20.31
280.107	22.7
280.322	116.9
280.538	20.65
280.753	10.41
280.969	2.22
281.184	53.42
281.399	98.47
281.615	16.55
281.83	39.08
282.045	22.7
282.26	24.75
282.476	45.23
282.691	57.51
282.906	10.41
283.122	51.37
283.337	24.75
283.552	6.31
283.767	65.71
283.983	84.14
284.198	174.25
284.413	63.66
284.628	61.61
284.843	-59.22
285.058	80.04
285.274	77.99
285.489	30.89
285.704	47.27
285.919	116.9
286.134	37.03
286.349	14.51
286.564	22.7
286.779	77.99
286.995	84.14
287.21	2.22
287.425	28.84
287.64	-26.45
287.855	63.66
288.07	67.75
288.285	43.18
288.5	51.37
288.715	65.71
288.93	30.89
289.145	47.27
289.36	61.61
289.575	24.75
289.79	67.75
290.004	59.56
290.219	90.28
290.434	59.56
290.649	39.08
290.864	69.8
291.079	45.23
291.294	61.61
291.509	-38.74
291.724	24.75
291.938	41.13
292.153	-14.17
292.368	-61.27
292.583	100.52
292.798	59.56
293.012	34.99
293.227	63.66
293.442	18.6
293.657	16.55
293.871	104.62
294.086	65.71
294.301	106.67
294.516	-8.02
294.73	100.52
294.945	6.31
295.16	34.99
295.374	84.14
295.589	-1.88
295.804	-22.36
296.018	20.65
296.233	75.95
296.447	-8.02
296.662	51.37
296.877	86.19
297.091	106.67
297.306	98.47
297.52	71.85
297.735	49.32
297.949	55.47
298.164	16.55
298.378	2.22
298.593	18.6
298.807	-28.5
299.022	92.33
299.236	47.27
299.451	24.75
299.665	-8.02
299.88	77.99
300.094	28.84
300.309	24.75
300.523	-38.74
300.737	14.51
300.952	82.09
301.166	41.13
301.381	0.17
301.595	6.31
301.809	6.31
302.024	75.95
302.238	26.79
302.452	71.85
302.667	75.95
302.881	45.23
303.095	71.85
303.309	24.75
303.524	63.66
303.738	6.31
303.952	59.56
304.166	-20.31
304.381	32.94
304.595	34.99
304.809	26.79
305.023	12.46
305.237	82.09
305.452	16.55
305.666	2.22
305.88	104.62
306.094	32.94
306.308	37.03
306.522	129.19
306.736	82.09
306.95	-12.12
307.164	-14.17
307.379	2.22
307.593	69.8
307.807	14.51
308.021	59.56
308.235	69.8
308.449	20.65
308.663	51.37
308.877	80.04
309.091	133.29
309.305	-3.93
309.519	-18.26
309.733	121
309.947	18.6
310.161	24.75
310.374	14.51
310.588	131.24
310.802	20.65
311.016	18.6
311.23	108.71
311.444	-24.4
311.658	55.47
311.872	45.23
312.085	77.99
312.299	77.99
312.513	80.04
312.727	-12.12
312.941	59.56
313.154	-12.12
313.368	-46.93
313.582	65.71
313.796	90.28
314.009	59.56
314.223	71.85
314.437	86.19
314.651	-12.12
314.864	-10.07
315.078	69.8
315.292	8.36
315.505	82.09
315.719	34.99
315.933	100.52
316.146	41.13
316.36	-24.4
316.573	14.51
316.787	65.71
317.001	45.23
317.214	-42.84
317.428	110.76
317.641	6.31
317.855	69.8
318.068	18.6
318.282	-8.02
318.495	110.76
318.709	106.67
318.922	98.47
319.136	43.18
319.349	47.27
319.563	28.84
319.776	55.47
319.99	-16.21
320.203	28.84
320.417	67.75
320.63	14.51
320.843	75.95
321.057	51.37
321.27	-36.69
321.483	14.51
321.697	108.71
321.91	22.7
322.124	32.94
322.337	82.09
322.55	59.56
322.763	-3.93
322.977	73.9
323.19	14.51
323.403	92.33
323.617	37.03
323.83	34.99
324.043	84.14
324.256	4.27
324.469	57.51
324.683	98.47
324.896	18.6
325.109	100.52
325.322	4.27
325.535	71.85
325.748	69.8
325.962	61.61
326.175	59.56
326.388	-1.88
326.601	63.66
326.814	155.82
327.027	24.75
327.24	41.13
327.453	-36.69
327.666	28.84
327.879	43.18
328.092	96.43
328.305	32.94
328.518	18.6
328.731	84.14
328.944	22.7
329.157	63.66
329.37	67.75
329.583	18.6
329.796	90.28
330.009	59.56
330.222	-10.07
330.435	-24.4
330.648	108.71
330.861	80.04
331.073	127.14
331.286	8.36
331.499	32.94
331.712	22.7
331.925	41.13
332.138	-1.88
332.35	49.32
332.563	-8.02
332.776	30.89
332.989	59.56
333.202	18.6
333.414	22.7
333.627	12.46
333.84	133.29
334.053	41.13
334.265	30.89
334.478	82.09
334.691	53.42
334.903	41.13
335.116	12.46
335.329	8.36
335.541	47.27
335.754	41.13
335.966	-5.97
336.179	92.33
336.392	-5.97
336.604	49.32
336.817	67.75
337.029	65.71
337.242	45.23
337.454	39.08
337.667	14.51
337.88	176.3
338.092	4.27
338.305	6.31
338.517	-75.6
338.729	4.27
338.942	84.14
339.154	12.46
339.367	34.99
339.579	49.32
339.792	-26.45
340.004	26.79
340.217	6.31
340.429	67.75
340.641	57.51
340.854	39.08
341.066	26.79
341.278	22.7
341.491	69.8
341.703	92.33
341.915	51.37
342.128	118.95
342.34	71.85
342.552	43.18
342.764	71.85
342.977	100.52
343.189	94.38
343.401	121
343.613	43.18
343.826	92.33
344.038	-22.36
344.25	98.47
344.462	-24.4
344.674	30.89
344.886	84.14
345.099	118.95
345.311	30.89
345.523	-18.26
345.735	-36.69
345.947	80.04
346.159	28.84
346.371	32.94
346.583	61.61
346.795	49.32
347.007	82.09
347.219	8.36
347.431	10.41
347.643	116.9
347.855	-18.26
348.067	92.33
348.279	10.41
348.491	88.23
348.703	30.89
348.915	102.57
349.127	16.55
349.339	47.27
349.551	73.9
349.763	59.56
349.975	75.95
350.187	77.99
350.399	63.66
350.61	-1.88
350.822	-12.12
351.034	12.46
351.246	90.28
351.458	41.13
351.669	2.22
351.881	45.23
352.093	55.47
352.305	22.7
352.517	39.08
352.728	51.37
352.94	114.86
353.152	14.51
353.363	28.84
353.575	57.51
353.787	39.08
353.999	51.37
354.21	135.34
354.422	-12.12
354.633	67.75
354.845	22.7
355.057	88.23
355.268	88.23
355.48	22.7
355.692	65.71
355.903	26.79
356.115	18.6
356.326	2.22
356.538	80.04
356.749	86.19
356.961	104.62
357.172	65.71
357.384	18.6
357.595	69.8
357.807	55.47
358.018	-5.97
358.23	98.47
358.441	14.51
358.653	112.81
358.864	-10.07
359.075	30.89
359.287	116.9
359.498	45.23
359.709	69.8
359.921	45.23
360.132	47.27
360.344	65.71
360.555	43.18
360.766	59.56
360.977	39.08
361.189	135.34
361.4	30.89
361.611	30.89
361.823	90.28
362.034	96.43
362.245	6.31
362.456	73.9
362.667	55.47
362.879	10.41
363.09	43.18
363.301	8.36
363.512	57.51
363.723	37.03
363.935	34.99
364.146	22.7
364.357	0.17
364.568	110.76
364.779	0.17
364.99	34.99
365.201	10.41
365.412	-14.17
365.623	37.03
365.834	69.8
366.045	75.95
366.256	123.05
366.467	14.51
366.678	63.66
366.889	61.61
367.1	39.08
367.311	4.27
367.522	-16.21
367.733	26.79
367.944	43.18
368.155	12.46
368.366	73.9
368.577	-10.07
368.788	82.09
368.999	12.46
369.209	45.23
369.42	65.71
369.631	39.08
369.842	-24.4
370.053	-1.88
370.264	53.42
370.474	59.56
370.685	94.38
370.896	20.65
371.107	71.85
371.317	102.57
371.528	2.22
371.739	61.61
371.95	159.91
372.16	22.7
372.371	-18.26
372.582	14.51
372.792	-5.97
373.003	-22.36
373.214	47.27
373.424	43.18
373.635	55.47
373.846	28.84
374.056	90.28
374.267	22.7
374.477	69.8
374.688	67.75
374.898	53.42
375.109	18.6
375.319	51.37
375.53	71.85
375.74	129.19
375.951	86.19
376.161	59.56
376.372	20.65
376.582	-3.93
376.793	8.36
377.003	75.95
377.214	28.84
377.424	-3.93
377.635	86.19
377.845	59.56
378.055	55.47
378.266	-1.88
378.476	90.28
378.686	102.57
378.897	71.85
379.107	106.67
379.317	84.14
379.528	65.71
379.738	104.62
379.948	-12.12
380.158	-14.17
380.369	22.7
380.579	73.9
380.789	49.32
380.999	131.24
381.21	75.95
381.42	92.33
381.63	67.75
381.84	102.57
382.05	43.18
382.261	28.84
382.471	37.03
382.681	37.03
382.891	55.47
383.101	41.13
383.311	45.23
383.521	59.56
383.731	82.09
383.941	98.47
384.151	-1.88
384.361	41.13
384.571	43.18
384.781	55.47
384.991	125.1
385.201	141.48
385.411	-3.93
385.621	65.71
385.831	30.89
386.041	18.6
386.251	82.09
386.461	20.65
386.671	61.61
386.881	135.34
387.091	43.18
387.301	32.94
387.511	59.56
387.72	43.18
387.93	118.95
388.14	22.7
388.35	80.04
388.56	121
388.769	24.75
388.979	69.8
389.189	32.94
389.399	47.27
389.609	108.71
389.818	92.33
390.028	6.31
390.238	65.71
390.447	-8.02
390.657	98.47
390.867	-30.55
391.076	75.95
391.286	61.61
391.496	88.23
391.705	61.61
391.915	108.71
392.125	75.95
392.334	61.61
392.544	67.75
392.753	4.27
392.963	102.57
393.172	90.28
393.382	-16.21
393.591	139.43
393.801	67.75
394.01	129.19
394.22	90.28
394.429	-10.07
394.639	28.84
394.848	43.18
395.058	75.95
395.267	61.61
395.477	65.71
395.686	71.85
395.895	155.82
396.105	133.29
396.314	41.13
396.524	43.18
396.733	45.23
396.942	39.08
397.152	16.55
397.361	39.08
397.57	61.61
397.78	86.19
397.989	100.52
398.198	65.71
398.407	61.61
398.617	75.95
398.826	59.56
399.035	75.95
399.244	112.81
399.453	92.33
399.663	22.7
399.872	98.47
400.081	116.9
400.29	131.24
400.499	98.47
400.708	63.66
400.917	41.13
401.127	157.86
401.336	63.66
401.545	182.44
401.754	6.31
401.963	114.86
402.172	114.86
402.381	53.42
402.59	51.37
402.799	73.9
403.008	75.95
403.217	90.28
403.426	90.28
403.635	88.23
403.844	98.47
404.053	96.43
404.262	159.91
404.471	139.43
404.68	75.95
404.888	106.67
405.097	82.09
405.306	125.1
405.515	118.95
405.724	114.86
405.933	139.43
406.142	73.9
406.35	178.34
406.559	204.97
406.768	157.86
406.977	286.89
407.185	168.1
407.394	194.73
407.603	207.02
407.812	121
408.02	110.76
408.229	184.49
408.438	170.15
408.646	215.21
408.855	243.88
409.064	200.87
409.272	227.5
409.481	245.93
409.69	256.17
409.898	229.54
410.107	247.97
410.315	241.83
410.524	225.45
410.733	252.07
410.941	264.36
411.15	250.02
411.358	286.89
411.567	282.79
411.775	286.89
411.984	227.5
412.192	307.37
412.401	270.5
412.609	348.33
412.818	346.28
413.026	362.66
413.234	389.28
413.443	333.99
413.651	405.67
413.86	317.61
414.068	374.95
414.276	460.96
414.485	438.44
414.693	467.11
414.901	473.25
415.11	540.83
415.318	436.39
415.526	440.48
415.734	518.31
415.943	518.31
416.151	614.56
416.359	600.23
416.567	616.61
416.776	635.04
416.984	643.23
417.192	716.96
417.4	698.53
417.608	676
417.817	714.91
418.025	772.25
418.233	792.73
418.441	723.1
418.649	794.78
418.857	874.65
419.065	815.26
419.273	805.02
419.481	956.57
419.689	909.47
419.897	1036.44
420.105	1063.07
420.313	1067.16
420.521	1165.46
420.729	1087.64
420.937	1126.55
421.145	1214.62
421.353	1249.43
421.561	1241.24
421.769	1284.25
421.977	1448.08
422.185	1390.74
422.393	1530
422.601	1607.83
422.809	1542.29
423.017	1501.33
423.224	1595.54
423.432	1728.66
423.64	1661.07
423.848	1820.81
424.056	1820.81
424.263	1998.99
424.471	1968.27
424.679	1978.51
424.887	2060.43
425.094	2152.59
425.302	2156.68
425.51	2336.9
425.718	2312.33
425.925	2293.9
426.133	2410.63
426.341	2474.12
426.548	2504.84
426.756	2824.32
426.964	2609.28
427.171	2865.28
427.379	2926.72
427.586	2996.35
427.794	3025.02
428.001	3156.09
428.209	3369.08
428.417	3203.19
428.624	3520.63
428.832	3356.79
429.039	3362.94
429.247	3426.42
429.454	3874.93
429.662	3987.57
429.869	3885.17
430.076	4122.73
430.284	4034.67
430.491	4085.87
430.699	4397.16
430.906	4411.5
431.114	4294.76
431.321	4540.52
431.528	4571.24
431.736	4976.73
431.943	5122.14
432.15	4892.77
432.358	5044.32
432.565	5376.09
432.772	5382.23
432.979	5552.21
433.187	5701.72
433.394	5814.35
433.601	6160.46
433.808	6369.35
434.016	6213.71
434.223	6551.62
434.43	6774.85
434.637	6781
434.844	7143.49
435.052	7245.88
435.259	7260.22
435.466	7364.67
435.673	7112.77
435.88	7671.86
436.087	7915.57
436.294	7962.67
436.501	7684.15
436.708	8058.93
436.915	8316.97
437.122	8532.01
437.329	8761.38
437.537	8894.5
437.743	9168.93
437.95	8929.31
438.157	9388.06
438.364	9838.61
438.571	9615.38
438.778	9803.8
438.985	10610.7
439.192	10311.69
439.399	10508.3
439.606	10256.4
439.813	10999.81
440.02	11579.39
440.227	11274.24
440.433	11288.57
440.64	11720.7
440.847	11634.68
441.054	12005.36
441.261	12732.39
441.467	12388.33
441.674	12586.99
441.881	13320.16
442.088	13445.09
442.294	13060.07
442.501	13406.17
442.708	13522.91
442.914	14147.54
443.121	14643.15
443.328	14448.59
443.534	15394.75
443.741	15095.75
443.948	14604.24
444.154	15765.43
444.361	15959.99
444.568	15970.23
444.774	15841.21
444.981	15996.85
445.187	16641.96
445.394	17199.01
445.6	17098.66
445.807	18565.01
446.013	18018.2
446.22	18184.09
446.426	18882.44
446.633	18919.31
446.839	19797.88
447.046	18882.44
447.252	19992.44
447.459	19933.05
447.665	19908.47
447.871	20821.87
448.078	21993.31
448.284	20352.88
448.491	21096.3
448.697	22069.08
448.903	22267.73
449.11	22384.47
449.316	22249.3
449.522	22775.63
449.728	23164.75
449.935	23261
450.141	23297.86
450.347	23971.64
450.553	22978.38
450.76	23383.88
450.966	24194.87
451.172	23897.92
451.378	24297.27
451.584	23568.2
451.791	24356.66
451.997	24428.34
452.203	24760.11
452.409	24770.35
452.615	24973.1
452.821	23807.81
453.027	23433.03
453.233	24713.01
453.44	24149.82
453.646	24088.38
453.852	24176.44
454.058	24284.98
454.264	23590.72
454.47	24381.24
454.676	23899.97
454.882	24446.77
455.088	22370.13
455.294	22708.05
455.5	23031.63
455.705	23254.86
455.911	22183.77
456.117	21917.53
456.323	21452.64
456.529	20584.3
456.735	21395.3
456.941	20946.8
457.147	20455.28
457.352	19814.27
457.558	19705.73
457.764	19675.01
457.97	19304.32
458.176	18767.76
458.381	18870.15
458.587	17934.23
458.793	18085.78
458.999	17082.28
459.204	18087.83
459.41	17493.92
459.616	16654.25
459.821	16549.81
460.027	16560.05
460.233	15957.94
460.438	15581.12
460.644	15458.24
460.85	14989.25
461.055	14446.54
461.261	14829.51
461.466	13623.26
461.672	13137.89
461.878	14163.92
462.083	12943.33
462.289	12707.82
462.494	12759.02
462.7	12283.89
462.905	11855.86
463.111	12296.18
463.316	12326.89
463.522	11991.03
463.727	12025.84
463.932	11900.92
464.138	11819
464.343	12015.6
464.549	11628.54
464.754	11892.73
464.959	11790.33
465.165	11620.35
465.37	11307.01
465.575	11046.91
465.781	11339.77
465.986	11427.84
466.191	11040.77
466.397	11008
466.602	10428.43
466.807	10788.87
467.012	10838.02
467.218	10616.84
467.423	10764.29
467.628	10618.89
467.833	11200.51
468.038	10590.22
468.244	10422.28
468.449	10737.67
468.654	10616.84
