Data from USB4F104151__5__11-51-03-851.txt Node

Date: Fri Mar 14 11:51:03 EDT 2025
User: louis
Spectrometer: USB4F10415
Trigger mode: 4
Integration Time (sec): 2.000000E-2
Scans to average: 1
Electric dark correction enabled: true
Nonlinearity correction enabled: false
Boxcar width: 0
XAxis mode: Wavelengths
Number of Pixels in Spectrum: 3648
>>>>>Begin Spectral Data<<<<<
178.204	-132.95
178.424	-132.95
178.644	-132.95
178.864	-91.99
179.084	-32.6
179.304	30.89
179.524	14.51
179.744	-14.17
179.964	6.31
180.184	8.36
180.404	16.55
180.624	-34.64
180.844	12.46
181.064	-67.41
181.283	30.89
181.503	-1.88
181.723	-1.88
181.943	-34.64
182.163	30.89
182.383	45.23
182.602	20.65
182.822	-3.93
183.042	34.99
183.262	71.85
183.482	-26.45
183.701	-73.56
183.921	-46.93
184.141	-24.4
184.361	41.13
184.58	45.23
184.8	16.55
185.02	-38.74
185.239	6.31
185.459	-18.26
185.679	0.17
185.898	2.22
186.118	39.08
186.338	32.94
186.557	69.8
186.777	0.17
186.997	0.17
187.216	55.47
187.436	34.99
187.655	30.89
187.875	45.23
188.095	-14.17
188.314	69.8
188.534	-16.21
188.753	20.65
188.973	63.66
189.192	90.28
189.412	65.71
189.631	14.51
189.851	32.94
190.07	57.51
190.29	-12.12
190.509	-10.07
190.729	-57.17
190.948	16.55
191.168	90.28
191.387	4.27
191.607	20.65
191.826	49.32
192.045	71.85
192.265	80.04
192.484	45.23
192.704	-59.22
192.923	10.41
193.142	43.18
193.362	49.32
193.581	41.13
193.8	26.79
194.02	-42.84
194.239	28.84
194.458	24.75
194.678	-16.21
194.897	-10.07
195.116	57.51
195.335	-36.69
195.555	16.55
195.774	22.7
195.993	-44.88
196.212	0.17
196.432	-30.55
196.651	47.27
196.87	-59.22
197.089	51.37
197.308	26.79
197.528	14.51
197.747	-108.37
197.966	20.65
198.185	6.31
198.404	16.55
198.623	-42.84
198.842	34.99
199.062	-3.93
199.281	10.41
199.5	-36.69
199.719	45.23
199.938	49.32
200.157	71.85
200.376	43.18
200.595	18.6
200.814	82.09
201.033	-5.97
201.252	-85.84
201.471	4.27
201.69	8.36
201.909	-18.26
202.128	-8.02
202.347	14.51
202.566	6.31
202.785	49.32
203.004	-28.5
203.223	14.51
203.442	49.32
203.661	26.79
203.879	63.66
204.098	18.6
204.317	30.89
204.536	6.31
204.755	92.33
204.974	41.13
205.193	51.37
205.411	69.8
205.63	49.32
205.849	41.13
206.068	-24.4
206.287	-1.88
206.505	34.99
206.724	-73.56
206.943	-12.12
207.162	24.75
207.381	63.66
207.599	-24.4
207.818	8.36
208.037	47.27
208.255	80.04
208.474	53.42
208.693	43.18
208.911	-12.12
209.13	41.13
209.349	-8.02
209.567	-1.88
209.786	69.8
210.005	20.65
210.223	47.27
210.442	-40.79
210.661	-3.93
210.879	20.65
211.098	-36.69
211.316	-44.88
211.535	-67.41
211.753	-8.02
211.972	41.13
212.191	-51.03
212.409	16.55
212.628	53.42
212.846	34.99
213.065	-57.17
213.283	47.27
213.502	14.51
213.72	63.66
213.938	12.46
214.157	6.31
214.375	4.27
214.594	-1.88
214.812	45.23
215.031	-10.07
215.249	32.94
215.467	34.99
215.686	55.47
215.904	-26.45
216.122	45.23
216.341	2.22
216.559	18.6
216.778	75.95
216.996	24.75
217.214	26.79
217.432	34.99
217.651	-48.98
217.869	2.22
218.087	34.99
218.306	116.9
218.524	61.61
218.742	22.7
218.96	0.17
219.179	45.23
219.397	-8.02
219.615	63.66
219.833	116.9
220.051	-44.88
220.27	39.08
220.488	69.8
220.706	65.71
220.924	6.31
221.142	53.42
221.36	2.22
221.578	53.42
221.796	0.17
222.015	14.51
222.233	92.33
222.451	16.55
222.669	22.7
222.887	-14.17
223.105	12.46
223.323	8.36
223.541	-8.02
223.759	75.95
223.977	14.51
224.195	59.56
224.413	16.55
224.631	0.17
224.849	20.65
225.067	94.38
225.285	57.51
225.503	49.32
225.721	57.51
225.939	2.22
226.157	12.46
226.375	65.71
226.592	22.7
226.81	-3.93
227.028	6.31
227.246	47.27
227.464	-20.31
227.682	32.94
227.9	49.32
228.117	-20.31
228.335	69.8
228.553	4.27
228.771	-12.12
228.989	37.03
229.206	-26.45
229.424	4.27
229.642	-28.5
229.86	8.36
230.077	-20.31
230.295	22.7
230.513	6.31
230.731	30.89
230.948	37.03
231.166	65.71
231.384	18.6
231.601	22.7
231.819	34.99
232.037	-16.21
232.254	53.42
232.472	41.13
232.689	-22.36
232.907	8.36
233.125	41.13
233.342	-34.64
233.56	-22.36
233.777	39.08
233.995	8.36
234.213	39.08
234.43	71.85
234.648	0.17
234.865	-12.12
235.083	75.95
235.3	-10.07
235.518	39.08
235.735	0.17
235.953	82.09
236.17	-8.02
236.388	4.27
236.605	30.89
236.822	10.41
237.04	-44.88
237.257	63.66
237.475	12.46
237.692	10.41
237.909	37.03
238.127	-36.69
238.344	4.27
238.562	-38.74
238.779	32.94
238.996	32.94
239.214	82.09
239.431	53.42
239.648	8.36
239.865	22.7
240.083	30.89
240.3	6.31
240.517	53.42
240.735	41.13
240.952	10.41
241.169	24.75
241.386	34.99
241.603	86.19
241.821	37.03
242.038	2.22
242.255	47.27
242.472	-48.98
242.689	2.22
242.907	45.23
243.124	14.51
243.341	-5.97
243.558	59.56
243.775	24.75
243.992	18.6
244.209	84.14
244.426	10.41
244.643	14.51
244.86	8.36
245.078	14.51
245.295	49.32
245.512	10.41
245.729	-89.94
245.946	39.08
246.163	-18.26
246.38	-1.88
246.597	-12.12
246.814	6.31
247.031	94.38
247.248	-30.55
247.464	6.31
247.681	18.6
247.898	65.71
248.115	18.6
248.332	-26.45
248.549	82.09
248.766	116.9
248.983	37.03
249.2	49.32
249.417	63.66
249.633	0.17
249.85	26.79
250.067	-1.88
250.284	49.32
250.501	-8.02
250.717	69.8
250.934	-10.07
251.151	-38.74
251.368	-12.12
251.585	-14.17
251.801	-30.55
252.018	24.75
252.235	22.7
252.451	114.86
252.668	30.89
252.885	45.23
253.102	47.27
253.318	-38.74
253.535	26.79
253.752	41.13
253.968	10.41
254.185	-1.88
254.401	28.84
254.618	-30.55
254.835	37.03
255.051	127.14
255.268	-14.17
255.484	88.23
255.701	14.51
255.917	88.23
256.134	12.46
256.351	30.89
256.567	-63.32
256.784	34.99
257	22.7
257.217	43.18
257.433	6.31
257.65	22.7
257.866	41.13
258.082	32.94
258.299	-12.12
258.515	-14.17
258.732	14.51
258.948	-3.93
259.165	-16.21
259.381	26.79
259.597	39.08
259.814	-10.07
260.03	63.66
260.246	-83.8
260.463	34.99
260.679	51.37
260.895	-32.6
261.112	4.27
261.328	55.47
261.544	-16.21
261.761	20.65
261.977	86.19
262.193	-8.02
262.409	75.95
262.626	61.61
262.842	61.61
263.058	-22.36
263.274	-26.45
263.49	57.51
263.707	43.18
263.923	-8.02
264.139	-61.27
264.355	-34.64
264.571	104.62
264.787	49.32
265.004	22.7
265.22	0.17
265.436	-8.02
265.652	-44.88
265.868	20.65
266.084	43.18
266.3	75.95
266.516	4.27
266.732	-10.07
266.948	59.56
267.164	18.6
267.38	28.84
267.596	24.75
267.812	0.17
268.028	118.95
268.244	-8.02
268.46	-69.46
268.676	32.94
268.892	0.17
269.108	43.18
269.324	41.13
269.54	22.7
269.756	102.57
269.972	-18.26
270.188	47.27
270.403	47.27
270.619	67.75
270.835	10.41
271.051	84.14
271.267	-18.26
271.483	16.55
271.698	53.42
271.914	123.05
272.13	4.27
272.346	-14.17
272.562	-5.97
272.777	39.08
272.993	-40.79
273.209	-44.88
273.425	59.56
273.64	-57.17
273.856	45.23
274.072	2.22
274.287	-40.79
274.503	110.76
274.719	32.94
274.934	24.75
275.15	63.66
275.366	-34.64
275.581	6.31
275.797	43.18
276.012	-22.36
276.228	16.55
276.444	26.79
276.659	41.13
276.875	-10.07
277.09	14.51
277.306	4.27
277.521	-16.21
277.737	49.32
277.952	-10.07
278.168	-22.36
278.383	28.84
278.599	73.9
278.814	71.85
279.03	28.84
279.245	67.75
279.461	4.27
279.676	63.66
279.892	39.08
280.107	-1.88
280.322	-69.46
280.538	-14.17
280.753	47.27
280.969	34.99
281.184	6.31
281.399	-40.79
281.615	16.55
281.83	-26.45
282.045	-40.79
282.26	63.66
282.476	41.13
282.691	32.94
282.906	34.99
283.122	6.31
283.337	-14.17
283.552	57.51
283.767	10.41
283.983	57.51
284.198	73.9
284.413	53.42
284.628	-40.79
284.843	98.47
285.058	41.13
285.274	26.79
285.489	-36.69
285.704	20.65
285.919	16.55
286.134	34.99
286.349	41.13
286.564	-30.55
286.779	102.57
286.995	8.36
287.21	10.41
287.425	73.9
287.64	75.95
287.855	61.61
288.07	26.79
288.285	2.22
288.5	41.13
288.715	51.37
288.93	18.6
289.145	16.55
289.36	22.7
289.575	37.03
289.79	65.71
290.004	51.37
290.219	10.41
290.434	34.99
290.649	-61.27
290.864	22.7
291.079	24.75
291.294	51.37
291.509	16.55
291.724	53.42
291.938	63.66
292.153	32.94
292.368	-40.79
292.583	32.94
292.798	57.51
293.012	82.09
293.227	41.13
293.442	18.6
293.657	20.65
293.871	45.23
294.086	-18.26
294.301	45.23
294.516	47.27
294.73	28.84
294.945	37.03
295.16	34.99
295.374	49.32
295.589	-5.97
295.804	-14.17
296.018	55.47
296.233	12.46
296.447	-26.45
296.662	41.13
296.877	55.47
297.091	41.13
297.306	61.61
297.52	53.42
297.735	12.46
297.949	20.65
298.164	16.55
298.378	82.09
298.593	51.37
298.807	-1.88
299.022	18.6
299.236	92.33
299.451	10.41
299.665	-5.97
299.88	6.31
300.094	-5.97
300.309	71.85
300.523	34.99
300.737	-24.4
300.952	55.47
301.166	-28.5
301.381	-26.45
301.595	0.17
301.809	63.66
302.024	22.7
302.238	37.03
302.452	53.42
302.667	53.42
302.881	51.37
303.095	90.28
303.309	39.08
303.524	51.37
303.738	41.13
303.952	-42.84
304.166	49.32
304.381	22.7
304.595	65.71
304.809	26.79
305.023	4.27
305.237	18.6
305.452	-8.02
305.666	-14.17
305.88	10.41
306.094	-14.17
306.308	16.55
306.522	10.41
306.736	-10.07
306.95	16.55
307.164	69.8
307.379	-12.12
307.593	77.99
307.807	28.84
308.021	32.94
308.235	30.89
308.449	57.51
308.663	37.03
308.877	71.85
309.091	22.7
309.305	69.8
309.519	-20.31
309.733	-46.93
309.947	-40.79
310.161	88.23
310.374	65.71
310.588	-18.26
310.802	-5.97
311.016	-44.88
311.23	-8.02
311.444	-16.21
311.658	55.47
311.872	69.8
312.085	12.46
312.299	24.75
312.513	24.75
312.727	53.42
312.941	-20.31
313.154	90.28
313.368	-18.26
313.582	32.94
313.796	32.94
314.009	16.55
314.223	75.95
314.437	-12.12
314.651	-8.02
314.864	12.46
315.078	37.03
315.292	26.79
315.505	90.28
315.719	41.13
315.933	22.7
316.146	43.18
316.36	-26.45
316.573	63.66
316.787	8.36
317.001	24.75
317.214	26.79
317.428	43.18
317.641	39.08
317.855	37.03
318.068	-5.97
318.282	61.61
318.495	51.37
318.709	-16.21
318.922	73.9
319.136	86.19
319.349	90.28
319.563	28.84
319.776	26.79
319.99	4.27
320.203	82.09
320.417	34.99
320.63	45.23
320.843	118.95
321.057	37.03
321.27	6.31
321.483	24.75
321.697	71.85
321.91	0.17
322.124	49.32
322.337	57.51
322.55	-38.74
322.763	6.31
322.977	30.89
323.19	2.22
323.403	57.51
323.617	90.28
323.83	102.57
324.043	-32.6
324.256	63.66
324.469	14.51
324.683	-3.93
324.896	75.95
325.109	37.03
325.322	-20.31
325.535	116.9
325.748	45.23
325.962	43.18
326.175	61.61
326.388	45.23
326.601	47.27
326.814	34.99
327.027	92.33
327.24	47.27
327.453	-8.02
327.666	41.13
327.879	57.51
328.092	-3.93
328.305	22.7
328.518	32.94
328.731	-34.64
328.944	53.42
329.157	88.23
329.37	34.99
329.583	53.42
329.796	12.46
330.009	45.23
330.222	59.56
330.435	18.6
330.648	41.13
330.861	8.36
331.073	0.17
331.286	28.84
331.499	22.7
331.712	8.36
331.925	41.13
332.138	-14.17
332.35	37.03
332.563	-44.88
332.776	49.32
332.989	14.51
333.202	45.23
333.414	65.71
333.627	41.13
333.84	32.94
334.053	92.33
334.265	2.22
334.478	65.71
334.691	-16.21
334.903	55.47
335.116	39.08
335.329	57.51
335.541	8.36
335.754	57.51
335.966	26.79
336.179	65.71
336.392	0.17
336.604	24.75
336.817	90.28
337.029	16.55
337.242	-20.31
337.454	71.85
337.667	-14.17
337.88	53.42
338.092	10.41
338.305	26.79
338.517	26.79
338.729	55.47
338.942	37.03
339.154	22.7
339.367	94.38
339.579	22.7
339.792	-8.02
340.004	49.32
340.217	10.41
340.429	-16.21
340.641	2.22
340.854	57.51
341.066	32.94
341.278	51.37
341.491	26.79
341.703	6.31
341.915	0.17
342.128	32.94
342.34	4.27
342.552	6.31
342.764	86.19
342.977	116.9
343.189	24.75
343.401	82.09
343.613	-65.36
343.826	-16.21
344.038	73.9
344.25	84.14
344.462	-32.6
344.674	57.51
344.886	28.84
345.099	34.99
345.311	-3.93
345.523	63.66
345.735	18.6
345.947	69.8
346.159	34.99
346.371	49.32
346.583	10.41
346.795	61.61
347.007	49.32
347.219	112.81
347.431	12.46
347.643	12.46
347.855	71.85
348.067	49.32
348.279	4.27
348.491	37.03
348.703	0.17
348.915	34.99
349.127	30.89
349.339	51.37
349.551	67.75
349.763	-5.97
349.975	47.27
350.187	30.89
350.399	34.99
350.61	-55.12
350.822	51.37
351.034	6.31
351.246	8.36
351.458	18.6
351.669	51.37
351.881	-32.6
352.093	67.75
352.305	65.71
352.517	51.37
352.728	71.85
352.94	16.55
353.152	22.7
353.363	-36.69
353.575	22.7
353.787	86.19
353.999	125.1
354.21	86.19
354.422	26.79
354.633	-32.6
354.845	-10.07
355.057	6.31
355.268	51.37
355.48	18.6
355.692	14.51
355.903	45.23
356.115	20.65
356.326	22.7
356.538	94.38
356.749	26.79
356.961	-1.88
357.172	53.42
357.384	26.79
357.595	92.33
357.807	37.03
358.018	16.55
358.23	22.7
358.441	59.56
358.653	59.56
358.864	0.17
359.075	0.17
359.287	-14.17
359.498	75.95
359.709	-44.88
359.921	24.75
360.132	2.22
360.344	30.89
360.555	71.85
360.766	-8.02
360.977	45.23
361.189	61.61
361.4	-38.74
361.611	104.62
361.823	59.56
362.034	-18.26
362.245	-14.17
362.456	55.47
362.667	43.18
362.879	22.7
363.09	30.89
363.301	30.89
363.512	61.61
363.723	121
363.935	45.23
364.146	28.84
364.357	10.41
364.568	32.94
364.779	-38.74
364.99	12.46
365.201	-20.31
365.412	22.7
365.623	-28.5
365.834	47.27
366.045	10.41
366.256	16.55
366.467	-38.74
366.678	30.89
366.889	10.41
367.1	65.71
367.311	34.99
367.522	-24.4
367.733	26.79
367.944	8.36
368.155	-14.17
368.366	96.43
368.577	10.41
368.788	77.99
368.999	28.84
369.209	20.65
369.42	94.38
369.631	114.86
369.842	59.56
370.053	86.19
370.264	69.8
370.474	-42.84
370.685	41.13
370.896	18.6
371.107	61.61
371.317	24.75
371.528	90.28
371.739	75.95
371.95	37.03
372.16	-40.79
372.371	41.13
372.582	32.94
372.792	6.31
373.003	61.61
373.214	65.71
373.424	88.23
373.635	-12.12
373.846	84.14
374.056	0.17
374.267	16.55
374.477	43.18
374.688	-38.74
374.898	82.09
375.109	26.79
375.319	69.8
375.53	110.76
375.74	10.41
375.951	22.7
376.161	8.36
376.372	30.89
376.582	82.09
376.793	10.41
377.003	34.99
377.214	55.47
377.424	39.08
377.635	67.75
377.845	32.94
378.055	55.47
378.266	-14.17
378.476	-14.17
378.686	-22.36
378.897	57.51
379.107	-8.02
379.317	71.85
379.528	-26.45
379.738	102.57
379.948	20.65
380.158	80.04
380.369	-8.02
380.579	30.89
380.789	57.51
380.999	-20.31
381.21	61.61
381.42	53.42
381.63	0.17
381.84	57.51
382.05	-26.45
382.261	80.04
382.471	4.27
382.681	86.19
382.891	26.79
383.101	98.47
383.311	12.46
383.521	43.18
383.731	26.79
383.941	22.7
384.151	71.85
384.361	-24.4
384.571	16.55
384.781	41.13
384.991	69.8
385.201	32.94
385.411	118.95
385.621	37.03
385.831	8.36
386.041	67.75
386.251	84.14
386.461	24.75
386.671	24.75
386.881	30.89
387.091	-40.79
387.301	61.61
387.511	49.32
387.72	112.81
387.93	102.57
388.14	-5.97
388.35	49.32
388.56	55.47
388.769	63.66
388.979	59.56
389.189	32.94
389.399	0.17
389.609	127.14
389.818	116.9
390.028	26.79
390.238	94.38
390.447	28.84
390.657	45.23
390.867	53.42
391.076	82.09
391.286	108.71
391.496	118.95
391.705	61.61
391.915	55.47
392.125	100.52
392.334	51.37
392.544	131.24
392.753	-10.07
392.963	43.18
393.172	2.22
393.382	49.32
393.591	82.09
393.801	104.62
394.01	125.1
394.22	110.76
394.429	96.43
394.639	86.19
394.848	112.81
395.058	51.37
395.267	63.66
395.477	104.62
395.686	125.1
395.895	8.36
396.105	98.47
396.314	61.61
396.524	73.9
396.733	77.99
396.942	114.86
397.152	65.71
397.361	112.81
397.57	94.38
397.78	118.95
397.989	88.23
398.198	127.14
398.407	59.56
398.617	88.23
398.826	47.27
399.035	92.33
399.244	98.47
399.453	125.1
399.663	80.04
399.872	84.14
400.081	88.23
400.29	127.14
400.499	37.03
400.708	90.28
400.917	75.95
401.127	80.04
401.336	80.04
401.545	82.09
401.754	125.1
401.963	92.33
402.172	45.23
402.381	100.52
402.59	155.82
402.799	123.05
403.008	147.62
403.217	127.14
403.426	164.01
403.635	49.32
403.844	88.23
404.053	106.67
404.262	123.05
404.471	139.43
404.68	143.53
404.888	98.47
405.097	145.58
405.306	174.25
405.515	127.14
405.724	129.19
405.933	112.81
406.142	139.43
406.35	168.1
406.559	123.05
406.768	198.82
406.977	276.65
407.185	180.39
407.394	137.38
407.603	141.48
407.812	186.54
408.02	213.16
408.229	252.07
408.438	155.82
408.646	207.02
408.855	264.36
409.064	233.64
409.272	155.82
409.481	270.5
409.69	196.78
409.898	247.97
410.107	274.6
410.315	278.69
410.524	250.02
410.733	233.64
410.941	329.89
411.15	327.85
411.358	293.03
411.567	403.62
411.775	352.42
411.984	344.23
412.192	372.9
412.401	387.24
412.609	415.91
412.818	389.28
413.026	393.38
413.234	385.19
413.443	487.59
413.651	403.62
413.86	366.76
414.068	471.2
414.276	520.35
414.485	491.68
414.693	542.88
414.901	624.8
415.11	561.31
415.318	540.83
415.526	614.56
415.734	606.37
415.943	753.82
416.151	819.36
416.359	651.42
416.567	716.96
416.776	676
416.984	802.97
417.192	868.51
417.4	729.25
417.608	925.85
417.817	854.17
418.025	907.42
418.233	915.61
418.441	944.28
418.649	979.1
418.857	1089.69
419.065	1173.66
419.273	1190.04
419.481	1110.17
419.689	1161.37
419.897	1245.34
420.105	1204.38
420.313	1274.01
420.521	1333.4
420.729	1341.59
420.937	1343.64
421.145	1493.14
421.353	1476.76
421.561	1691.79
421.769	1732.75
421.977	1722.51
422.185	1681.55
422.393	1816.72
422.601	1845.39
422.809	1841.29
423.017	1872.01
423.224	2097.29
423.432	2150.54
423.64	2113.67
423.848	2396.29
424.056	2199.69
424.263	2242.7
424.471	2386.05
424.679	2472.07
424.887	2629.76
425.094	2719.87
425.302	2707.59
425.51	2697.35
425.718	2906.24
425.925	2769.02
426.133	2998.4
426.341	3145.85
426.548	3209.34
426.756	3274.87
426.964	3575.92
427.171	3391.61
427.379	3559.54
427.586	3606.64
427.794	3727.47
428.001	4098.16
428.209	4145.26
428.417	3897.46
428.624	4341.86
428.832	4274.28
429.039	4296.81
429.247	4434.02
429.454	4829.28
429.662	5040.22
429.869	4823.14
430.076	5091.42
430.284	4980.83
430.491	5210.2
430.699	5320.79
430.906	5433.43
431.114	5611.61
431.321	5759.06
431.528	5818.45
431.736	6217.8
431.943	6432.84
432.15	6258.76
432.358	6488.14
432.565	6711.36
432.772	6674.5
432.979	7090.24
433.187	7239.74
433.394	7428.15
433.601	7604.28
433.808	7680.05
434.016	7551.03
434.223	7958.58
434.43	8489
434.637	8247.34
434.844	8847.4
435.052	8914.98
435.259	8951.84
435.466	8990.75
435.673	8851.49
435.88	9525.27
436.087	10041.36
436.294	10139.66
436.501	9656.34
436.708	10014.74
436.915	10291.21
437.122	10737.67
437.329	10362.89
437.537	11022.34
437.743	11317.25
437.95	11268.09
438.157	11616.25
438.364	12298.22
438.571	12068.85
438.778	12048.37
438.985	13295.58
439.192	12849.13
439.399	13297.63
439.606	12994.53
439.813	13799.38
440.02	14481.36
440.227	14239.7
440.433	13987.8
440.64	14553.04
440.847	14329.81
441.054	14964.68
441.261	15947.7
441.467	15595.45
441.674	15839.16
441.881	16707.5
442.088	16478.13
442.294	16197.56
442.501	16748.46
442.708	17084.33
442.914	17770.4
443.121	18659.21
443.328	18251.67
443.534	19263.36
443.741	18507.66
443.948	18487.18
444.154	19832.7
444.361	19763.07
444.568	19902.33
444.774	19898.24
444.981	20121.46
445.187	20817.77
445.394	21544.8
445.6	21413.73
445.807	23318.34
446.013	22335.32
446.22	22527.83
446.426	23658.31
446.633	23963.45
446.839	24614.71
447.046	23633.73
447.252	25014.06
447.459	24950.57
447.665	24784.69
447.871	25988.89
448.078	27131.66
448.284	25681.7
448.491	26476.31
448.697	27504.39
448.903	27911.94
449.11	28163.84
449.316	27195.15
449.522	28524.28
449.728	28909.3
449.935	28919.54
450.141	29196.01
450.347	29931.23
450.553	28651.25
450.76	29114.09
450.966	30189.28
451.172	29544.17
451.378	30465.75
451.584	29894.37
451.791	30701.27
451.997	30600.92
452.203	31243.98
452.409	30969.55
452.615	31047.38
452.821	29689.57
453.027	29855.46
453.233	31348.43
453.44	29800.16
453.646	30154.46
453.852	29976.29
454.058	30805.72
454.264	29658.85
454.47	30469.85
454.676	29748.96
454.882	30910.16
455.088	28086.01
455.294	28555
455.5	28980.98
455.705	28985.07
455.911	27977.47
456.117	27442.95
456.323	27459.34
456.529	25487.14
456.735	26933.01
456.941	26294.04
457.147	25835.3
457.352	24983.34
457.558	24471.35
457.764	24670
457.97	24299.32
458.176	24088.38
458.381	23813.95
458.587	22679.38
458.793	22460.24
458.999	21489.51
459.204	23074.63
459.41	22204.25
459.616	21333.86
459.821	20684.66
460.027	20750.19
460.233	20262.77
460.438	19601.28
460.644	19560.32
460.85	18775.95
461.055	18681.74
461.261	18560.91
461.466	17242.02
461.672	16621.49
461.878	17760.16
462.083	16408.5
462.289	16209.84
462.494	16048.05
462.7	15149
462.905	14989.25
463.111	15562.69
463.316	15568.83
463.522	15046.6
463.727	15099.84
463.932	15179.72
464.138	15067.08
464.343	14942.15
464.549	14559.18
464.754	15013.83
464.959	14886.86
465.165	14903.24
465.37	14284.75
465.575	13899.73
465.781	14297.04
465.986	14571.47
466.191	14157.78
466.397	13615.07
466.602	12869.61
466.807	13367.26
467.012	13617.11
467.218	13467.61
467.423	13047.78
467.628	13522.91
467.833	13826.01
468.038	13281.25
