Data from USB4F104151__17__11-51-17-470.txt Node

Date: Fri Mar 14 11:51:17 EDT 2025
User: louis
Spectrometer: USB4F10415
Trigger mode: 4
Integration Time (sec): 2.000000E-2
Scans to average: 1
Electric dark correction enabled: true
Nonlinearity correction enabled: false
Boxcar width: 0
XAxis mode: Wavelengths
Number of Pixels in Spectrum: 3648
>>>>>Begin Spectral Data<<<<<
178.204	-49.66
178.424	-49.66
178.644	-49.66
178.864	-111.1
179.084	-82.43
179.304	-4.61
179.524	-8.7
179.744	3.58
179.964	-82.43
180.184	-23.04
180.404	67.07
180.624	-25.09
180.844	5.63
181.064	24.06
181.283	34.3
181.503	-8.7
181.723	17.92
181.943	-78.33
182.163	85.5
182.383	-4.61
182.602	40.45
182.822	83.45
183.042	83.45
183.262	3.58
183.482	50.69
183.701	-35.33
183.921	52.74
184.141	-20.99
184.361	108.03
184.58	179.71
184.8	22.02
185.02	34.3
185.239	134.65
185.459	83.45
185.679	38.4
185.898	-29.18
186.118	114.17
186.338	-16.9
186.557	13.82
186.777	-18.94
186.997	32.26
187.216	3.58
187.436	65.02
187.655	-43.52
187.875	77.31
188.095	-66.05
188.314	26.11
188.534	-25.09
188.753	26.11
188.973	69.12
189.192	60.93
189.412	19.97
189.631	5.63
189.851	-25.09
190.07	54.78
190.29	36.35
190.509	-43.52
190.729	30.21
190.948	50.69
191.168	171.52
191.387	-18.94
191.607	-0.51
191.826	56.83
192.045	36.35
192.265	-23.04
192.484	3.58
192.704	-10.75
192.923	62.98
193.142	52.74
193.362	54.78
193.581	22.02
193.8	3.58
194.02	-37.38
194.239	50.69
194.458	38.4
194.678	40.45
194.897	54.78
195.116	75.26
195.335	93.69
195.555	85.5
195.774	-43.52
195.993	46.59
196.212	26.11
196.432	50.69
196.651	67.07
196.87	3.58
197.089	30.21
197.308	15.87
197.528	48.64
197.747	-39.42
197.966	38.4
198.185	62.98
198.404	34.3
198.623	-16.9
198.842	1.54
199.062	52.74
199.281	-8.7
199.5	19.97
199.719	128.51
199.938	28.16
200.157	11.78
200.376	46.59
200.595	-2.56
200.814	17.92
201.033	-10.75
201.252	28.16
201.471	56.83
201.69	52.74
201.909	44.54
202.128	-10.75
202.347	7.68
202.566	26.11
202.785	56.83
203.004	52.74
203.223	46.59
203.442	42.5
203.661	3.58
203.879	42.5
204.098	54.78
204.317	69.12
204.536	79.36
204.755	-33.28
204.974	77.31
205.193	40.45
205.411	71.17
205.63	-12.8
205.849	52.74
206.068	52.74
206.287	52.74
206.505	89.6
206.724	26.11
206.943	13.82
207.162	-14.85
207.381	67.07
207.599	40.45
207.818	-39.42
208.037	-0.51
208.255	38.4
208.474	-2.56
208.693	15.87
208.911	65.02
209.13	50.69
209.349	32.26
209.567	42.5
209.786	91.65
210.005	32.26
210.223	19.97
210.442	-6.66
210.661	-72.19
210.879	-16.9
211.098	58.88
211.316	28.16
211.535	65.02
211.753	-31.23
211.972	89.6
212.191	52.74
212.409	26.11
212.628	36.35
212.846	42.5
213.065	26.11
213.283	69.12
213.502	-23.04
213.72	34.3
213.938	71.17
214.157	38.4
214.375	7.68
214.594	-23.04
214.812	60.93
215.031	30.21
215.249	77.31
215.467	-41.47
215.686	15.87
215.904	40.45
216.122	65.02
216.341	42.5
216.559	19.97
216.778	138.75
216.996	11.78
217.214	-23.04
217.432	-31.23
217.651	17.92
217.869	67.07
218.087	-16.9
218.306	-61.95
218.524	81.41
218.742	15.87
218.96	60.93
219.179	44.54
219.397	36.35
219.615	89.6
219.833	3.58
220.051	7.68
220.27	-25.09
220.488	56.83
220.706	28.16
220.924	19.97
221.142	52.74
221.36	44.54
221.578	-29.18
221.796	34.3
222.015	24.06
222.233	-33.28
222.451	69.12
222.669	85.5
222.887	30.21
223.105	28.16
223.323	24.06
223.541	-0.51
223.759	36.35
223.977	13.82
224.195	54.78
224.413	93.69
224.631	87.55
224.849	44.54
225.067	26.11
225.285	87.55
225.503	-6.66
225.721	-12.8
225.939	71.17
226.157	50.69
226.375	114.17
226.592	30.21
226.81	67.07
227.028	54.78
227.246	93.69
227.464	60.93
227.682	36.35
227.9	-12.8
228.117	95.74
228.335	42.5
228.553	52.74
228.771	11.78
228.989	-31.23
229.206	36.35
229.424	32.26
229.642	56.83
229.86	46.59
230.077	118.27
230.295	-6.66
230.513	62.98
230.731	28.16
230.948	99.84
231.166	67.07
231.384	-16.9
231.601	42.5
231.819	67.07
232.037	15.87
232.254	-29.18
232.472	-14.85
232.689	30.21
232.907	42.5
233.125	-0.51
233.342	62.98
233.56	32.26
233.777	32.26
233.995	50.69
234.213	85.5
234.43	99.84
234.648	22.02
234.865	42.5
235.083	-2.56
235.3	40.45
235.518	50.69
235.735	24.06
235.953	17.92
236.17	73.21
236.388	50.69
236.605	24.06
236.822	103.93
237.04	85.5
237.257	-49.66
237.475	118.27
237.692	24.06
237.909	85.5
238.127	34.3
238.344	19.97
238.562	87.55
238.779	13.82
238.996	40.45
239.214	60.93
239.431	5.63
239.648	54.78
239.865	60.93
240.083	40.45
240.3	22.02
240.517	-8.7
240.735	42.5
240.952	103.93
241.169	40.45
241.386	54.78
241.603	46.59
241.821	-4.61
242.038	48.64
242.255	34.3
242.472	38.4
242.689	71.17
242.907	118.27
243.124	32.26
243.341	36.35
243.558	13.82
243.775	5.63
243.992	79.36
244.209	42.5
244.426	46.59
244.643	-0.51
244.86	38.4
245.078	22.02
245.295	1.54
245.512	71.17
245.729	15.87
245.946	11.78
246.163	22.02
246.38	48.64
246.597	22.02
246.814	15.87
247.031	-12.8
247.248	17.92
247.464	-18.94
247.681	52.74
247.898	-18.94
248.115	30.21
248.332	17.92
248.549	40.45
248.766	19.97
248.983	87.55
249.2	22.02
249.417	134.65
249.633	67.07
249.85	32.26
250.067	36.35
250.284	50.69
250.501	24.06
250.717	69.12
250.934	-6.66
251.151	81.41
251.368	-23.04
251.585	32.26
251.801	-20.99
252.018	71.17
252.235	-0.51
252.451	-2.56
252.668	62.98
252.885	81.41
253.102	62.98
253.318	-18.94
253.535	17.92
253.752	-8.7
253.968	9.73
254.185	-31.23
254.401	3.58
254.618	36.35
254.835	19.97
255.051	62.98
255.268	34.3
255.484	34.3
255.701	46.59
255.917	36.35
256.134	11.78
256.351	13.82
256.567	-2.56
256.784	-10.75
257	65.02
257.217	132.61
257.433	22.02
257.65	79.36
257.866	75.26
258.082	-0.51
258.299	1.54
258.515	26.11
258.732	22.02
258.948	26.11
259.165	65.02
259.381	58.88
259.597	13.82
259.814	-14.85
260.03	50.69
260.246	40.45
260.463	22.02
260.679	54.78
260.895	42.5
261.112	97.79
261.328	-0.51
261.544	28.16
261.761	62.98
261.977	69.12
262.193	-2.56
262.409	26.11
262.626	50.69
262.842	5.63
263.058	-0.51
263.274	58.88
263.49	-64
263.707	83.45
263.923	13.82
264.139	-64
264.355	-0.51
264.571	11.78
264.787	36.35
265.004	17.92
265.22	-14.85
265.436	15.87
265.652	11.78
265.868	73.21
266.084	-10.75
266.3	5.63
266.516	-4.61
266.732	89.6
266.948	7.68
267.164	1.54
267.38	62.98
267.596	-6.66
267.812	101.89
268.028	77.31
268.244	13.82
268.46	52.74
268.676	36.35
268.892	60.93
269.108	-10.75
269.324	56.83
269.54	44.54
269.756	22.02
269.972	-8.7
270.188	62.98
270.403	97.79
270.619	15.87
270.835	44.54
271.051	56.83
271.267	-53.76
271.483	13.82
271.698	28.16
271.914	67.07
272.13	73.21
272.346	-51.71
272.562	56.83
272.777	79.36
272.993	67.07
273.209	15.87
273.425	28.16
273.64	5.63
273.856	71.17
274.072	-25.09
274.287	32.26
274.503	7.68
274.719	-20.99
274.934	99.84
275.15	83.45
275.366	-12.8
275.581	1.54
275.797	7.68
276.012	22.02
276.228	77.31
276.444	30.21
276.659	48.64
276.875	-6.66
277.09	1.54
277.306	52.74
277.521	26.11
277.737	44.54
277.952	48.64
278.168	34.3
278.383	-25.09
278.599	38.4
278.814	24.06
279.03	-4.61
279.245	79.36
279.461	71.17
279.676	56.83
279.892	83.45
280.107	44.54
280.322	30.21
280.538	97.79
280.753	22.02
280.969	7.68
281.184	62.98
281.399	58.88
281.615	56.83
281.83	83.45
282.045	3.58
282.26	69.12
282.476	56.83
282.691	89.6
282.906	24.06
283.122	97.79
283.337	-0.51
283.552	56.83
283.767	3.58
283.983	28.16
284.198	-23.04
284.413	58.88
284.628	-29.18
284.843	-12.8
285.058	7.68
285.274	103.93
285.489	-29.18
285.704	54.78
285.919	11.78
286.134	-12.8
286.349	42.5
286.564	40.45
286.779	30.21
286.995	48.64
287.21	17.92
287.425	130.56
287.64	32.26
287.855	38.4
288.07	15.87
288.285	44.54
288.5	77.31
288.715	26.11
288.93	32.26
289.145	30.21
289.36	11.78
289.575	13.82
289.79	89.6
290.004	38.4
290.219	38.4
290.434	-6.66
290.649	1.54
290.864	91.65
291.079	-14.85
291.294	28.16
291.509	-23.04
291.724	56.83
291.938	-6.66
292.153	22.02
292.368	71.17
292.583	95.74
292.798	-61.95
293.012	62.98
293.227	-6.66
293.442	7.68
293.657	67.07
293.871	-0.51
294.086	34.3
294.301	38.4
294.516	13.82
294.73	17.92
294.945	13.82
295.16	48.64
295.374	71.17
295.589	95.74
295.804	83.45
296.018	85.5
296.233	19.97
296.447	73.21
296.662	-18.94
296.877	95.74
297.091	28.16
297.306	-68.09
297.52	48.64
297.735	89.6
297.949	36.35
298.164	50.69
298.378	99.84
298.593	50.69
298.807	-2.56
299.022	89.6
299.236	101.89
299.451	42.5
299.665	5.63
299.88	89.6
300.094	116.22
300.309	46.59
300.523	-18.94
300.737	38.4
300.952	73.21
301.166	79.36
301.381	-0.51
301.595	34.3
301.809	7.68
302.024	62.98
302.238	62.98
302.452	62.98
302.667	56.83
302.881	50.69
303.095	69.12
303.309	62.98
303.524	56.83
303.738	24.06
303.952	30.21
304.166	67.07
304.381	13.82
304.595	69.12
304.809	-20.99
305.023	95.74
305.237	19.97
305.452	46.59
305.666	114.17
305.88	30.21
306.094	46.59
306.308	95.74
306.522	15.87
306.736	3.58
306.95	42.5
307.164	-4.61
307.379	17.92
307.593	101.89
307.807	36.35
308.021	32.26
308.235	-27.14
308.449	17.92
308.663	50.69
308.877	79.36
309.091	122.37
309.305	77.31
309.519	83.45
309.733	44.54
309.947	54.78
310.161	60.93
310.374	58.88
310.588	69.12
310.802	58.88
311.016	30.21
311.23	87.55
311.444	-8.7
311.658	3.58
311.872	52.74
312.085	28.16
312.299	36.35
312.513	44.54
312.727	17.92
312.941	40.45
313.154	71.17
313.368	48.64
313.582	62.98
313.796	40.45
314.009	-20.99
314.223	56.83
314.437	69.12
314.651	34.3
314.864	13.82
315.078	-25.09
315.292	28.16
315.505	65.02
315.719	54.78
315.933	36.35
316.146	69.12
316.36	11.78
316.573	19.97
316.787	48.64
317.001	-20.99
317.214	-33.28
317.428	50.69
317.641	-90.62
317.855	-14.85
318.068	-2.56
318.282	24.06
318.495	112.13
318.709	28.16
318.922	-16.9
319.136	54.78
319.349	42.5
319.563	132.61
319.776	1.54
319.99	30.21
320.203	46.59
320.417	116.22
320.63	1.54
320.843	19.97
321.057	52.74
321.27	69.12
321.483	91.65
321.697	112.13
321.91	42.5
322.124	77.31
322.337	38.4
322.55	110.08
322.763	62.98
322.977	44.54
323.19	19.97
323.403	67.07
323.617	56.83
323.83	36.35
324.043	-57.86
324.256	103.93
324.469	19.97
324.683	50.69
324.896	60.93
325.109	42.5
325.322	93.69
325.535	110.08
325.748	22.02
325.962	48.64
326.175	19.97
326.388	99.84
326.601	60.93
326.814	-20.99
327.027	65.02
327.24	67.07
327.453	42.5
327.666	77.31
327.879	52.74
328.092	110.08
328.305	52.74
328.518	38.4
328.731	85.5
328.944	44.54
329.157	30.21
329.37	65.02
329.583	56.83
329.796	5.63
330.009	-10.75
330.222	60.93
330.435	7.68
330.648	42.5
330.861	85.5
331.073	50.69
331.286	58.88
331.499	-2.56
331.712	-66.05
331.925	17.92
332.138	34.3
332.35	38.4
332.563	13.82
332.776	26.11
332.989	50.69
333.202	40.45
333.414	65.02
333.627	73.21
333.84	-4.61
334.053	28.16
334.265	38.4
334.478	58.88
334.691	3.58
334.903	62.98
335.116	9.73
335.329	38.4
335.541	-18.94
335.754	44.54
335.966	-12.8
336.179	67.07
336.392	-18.94
336.604	62.98
336.817	62.98
337.029	65.02
337.242	69.12
337.454	-25.09
337.667	7.68
337.88	81.41
338.092	28.16
338.305	32.26
338.517	17.92
338.729	69.12
338.942	105.98
339.154	99.84
339.367	17.92
339.579	38.4
339.792	30.21
340.004	5.63
340.217	69.12
340.429	1.54
340.641	65.02
340.854	48.64
341.066	3.58
341.278	89.6
341.491	136.7
341.703	9.73
341.915	34.3
342.128	-16.9
342.34	50.69
342.552	56.83
342.764	34.3
342.977	73.21
343.189	79.36
343.401	60.93
343.613	-20.99
343.826	22.02
344.038	-10.75
344.25	122.37
344.462	36.35
344.674	42.5
344.886	89.6
345.099	13.82
345.311	50.69
345.523	-2.56
345.735	-2.56
345.947	40.45
346.159	42.5
346.371	28.16
346.583	44.54
346.795	83.45
347.007	5.63
347.219	69.12
347.431	24.06
347.643	77.31
347.855	11.78
348.067	118.27
348.279	24.06
348.491	140.8
348.703	-8.7
348.915	11.78
349.127	30.21
349.339	38.4
349.551	46.59
349.763	44.54
349.975	60.93
350.187	15.87
350.399	22.02
350.61	52.74
350.822	38.4
351.034	62.98
351.246	44.54
351.458	3.58
351.669	48.64
351.881	34.3
352.093	62.98
352.305	17.92
352.517	30.21
352.728	67.07
352.94	36.35
353.152	69.12
353.363	19.97
353.575	28.16
353.787	99.84
353.999	116.22
354.21	67.07
354.422	24.06
354.633	40.45
354.845	17.92
355.057	36.35
355.268	19.97
355.48	24.06
355.692	34.3
355.903	28.16
356.115	13.82
356.326	24.06
356.538	62.98
356.749	19.97
356.961	103.93
357.172	52.74
357.384	7.68
357.595	65.02
357.807	54.78
358.018	30.21
358.23	34.3
358.441	13.82
358.653	73.21
358.864	32.26
359.075	22.02
359.287	83.45
359.498	-18.94
359.709	108.03
359.921	38.4
360.132	73.21
360.344	81.41
360.555	95.74
360.766	24.06
360.977	95.74
361.189	81.41
361.4	42.5
361.611	34.3
361.823	50.69
362.034	110.08
362.245	15.87
362.456	97.79
362.667	46.59
362.879	99.84
363.09	-2.56
363.301	122.37
363.512	44.54
363.723	99.84
363.935	36.35
364.146	32.26
364.357	122.37
364.568	77.31
364.779	56.83
364.99	32.26
365.201	34.3
365.412	79.36
365.623	-12.8
365.834	54.78
366.045	42.5
366.256	19.97
366.467	89.6
366.678	38.4
366.889	48.64
367.1	73.21
367.311	110.08
367.522	69.12
367.733	97.79
367.944	71.17
368.155	42.5
368.366	97.79
368.577	93.69
368.788	120.32
368.999	3.58
369.209	-6.66
369.42	54.78
369.631	101.89
369.842	75.26
370.053	-20.99
370.264	34.3
370.474	48.64
370.685	48.64
370.896	50.69
371.107	73.21
371.317	65.02
371.528	28.16
371.739	71.17
371.95	46.59
372.16	44.54
372.371	71.17
372.582	65.02
372.792	-0.51
373.003	73.21
373.214	-2.56
373.424	13.82
373.635	54.78
373.846	77.31
374.056	26.11
374.267	19.97
374.477	15.87
374.688	83.45
374.898	7.68
375.109	79.36
375.319	54.78
375.53	38.4
375.74	95.74
375.951	87.55
376.161	112.13
376.372	60.93
376.582	85.5
376.793	32.26
377.003	-12.8
377.214	26.11
377.424	50.69
377.635	85.5
377.845	93.69
378.055	60.93
378.266	-4.61
378.476	122.37
378.686	-0.51
378.897	122.37
379.107	79.36
379.317	128.51
379.528	15.87
379.738	114.17
379.948	62.98
380.158	38.4
380.369	62.98
380.579	58.88
380.789	126.46
380.999	134.65
381.21	87.55
381.42	101.89
381.63	50.69
381.84	58.88
382.05	19.97
382.261	112.13
382.471	112.13
382.681	42.5
382.891	79.36
383.101	99.84
383.311	-2.56
383.521	85.5
383.731	79.36
383.941	75.26
384.151	103.93
384.361	97.79
384.571	75.26
384.781	101.89
384.991	77.31
385.201	118.27
385.411	48.64
385.621	62.98
385.831	67.07
386.041	58.88
386.251	71.17
386.461	-6.66
386.671	-20.99
386.881	56.83
387.091	7.68
387.301	26.11
387.511	67.07
387.72	69.12
387.93	36.35
388.14	85.5
388.35	-23.04
388.56	65.02
388.769	73.21
388.979	34.3
389.189	-2.56
389.399	118.27
389.609	93.69
389.818	163.33
390.028	5.63
390.238	126.46
390.447	22.02
390.657	85.5
390.867	-49.66
391.076	15.87
391.286	73.21
391.496	87.55
391.705	-10.75
391.915	48.64
392.125	108.03
392.334	69.12
392.544	93.69
392.753	163.33
392.963	67.07
393.172	38.4
393.382	56.83
393.591	69.12
393.801	73.21
394.01	89.6
394.22	116.22
394.429	1.54
394.639	114.17
394.848	118.27
395.058	91.65
395.267	46.59
395.477	54.78
395.686	108.03
395.895	81.41
396.105	140.8
396.314	122.37
396.524	112.13
396.733	28.16
396.942	132.61
397.152	140.8
397.361	95.74
397.57	91.65
397.78	69.12
397.989	173.57
398.198	105.98
398.407	67.07
398.617	75.26
398.826	126.46
399.035	124.41
399.244	71.17
399.453	153.09
399.663	103.93
399.872	79.36
400.081	97.79
400.29	105.98
400.499	116.22
400.708	108.03
400.917	122.37
401.127	167.42
401.336	65.02
401.545	134.65
401.754	157.18
401.963	146.94
402.172	97.79
402.381	124.41
402.59	112.13
402.799	165.37
403.008	153.09
403.217	85.5
403.426	144.89
403.635	179.71
403.844	140.8
404.053	171.52
404.262	175.61
404.471	198.14
404.68	214.52
404.888	200.19
405.097	171.52
405.306	85.5
405.515	161.28
405.724	93.69
405.933	271.87
406.142	157.18
406.35	163.33
406.559	208.38
406.768	214.52
406.977	132.61
407.185	142.85
407.394	294.4
407.603	183.81
407.812	259.58
408.02	212.48
408.229	253.44
408.438	206.33
408.646	288.25
408.855	224.76
409.064	214.52
409.272	257.53
409.481	400.89
409.69	267.77
409.898	247.29
410.107	335.35
410.315	351.74
410.524	310.78
410.733	323.07
410.941	407.03
411.15	466.42
411.358	484.86
411.567	376.31
411.775	359.93
411.984	435.71
412.192	445.95
412.401	513.53
412.609	433.66
412.818	456.19
413.026	525.82
413.234	564.73
413.443	517.62
413.651	552.44
413.86	570.87
414.068	615.93
414.276	581.11
414.485	712.18
414.693	648.69
414.901	693.75
415.11	716.28
415.318	685.56
415.526	812.53
415.734	839.16
415.943	847.35
416.151	814.58
416.359	929.27
416.567	839.16
416.776	982.51
416.984	896.5
417.192	1037.81
417.4	1021.42
417.608	1041.9
417.817	1029.62
418.025	1142.25
418.233	1203.69
418.441	1203.69
418.649	1242.61
418.857	1324.52
419.065	1379.82
419.273	1287.66
419.481	1504.75
419.689	1369.58
419.897	1465.83
420.105	1494.51
420.313	1635.82
420.521	1635.82
420.729	1650.15
420.937	1793.51
421.145	1816.04
421.353	1838.56
421.561	1906.15
421.769	1990.11
421.977	2094.56
422.185	2106.85
422.393	2235.87
422.601	2319.84
422.809	2383.32
423.017	2350.56
423.224	2579.93
423.432	2538.97
423.64	2518.49
423.848	2831.83
424.056	2770.39
424.263	2993.62
424.471	2907.6
424.679	2940.37
424.887	3225.04
425.094	3366.35
425.302	3257.81
425.51	3407.31
425.718	3440.08
425.925	3474.89
426.133	3737.03
426.341	3868.1
426.548	4076.99
426.756	4124.1
426.964	4163.01
427.171	4402.62
427.379	4425.15
427.586	4515.26
427.794	4748.73
428.001	4900.28
428.209	5053.87
428.417	4834.74
428.624	5330.35
428.832	5307.82
429.039	5256.62
429.247	5356.97
429.454	5805.48
429.662	6163.87
429.869	5750.18
430.076	6276.51
430.284	6139.3
430.491	6274.46
430.699	6725.02
430.906	6757.78
431.114	6641.05
431.321	7216.53
431.528	6919.57
431.736	7490.96
431.943	7832.97
432.15	7787.91
432.358	8009.09
432.565	8308.1
432.772	8217.99
432.979	8478.08
433.187	8795.51
433.394	8824.19
433.601	9694.57
433.808	9471.34
434.016	9346.42
434.223	9917.8
434.43	10491.23
434.637	10227.04
434.844	10802.52
435.052	10917.21
435.259	10859.87
435.466	11185.49
435.673	10878.3
435.88	11654.48
436.087	12297.54
436.294	12189
436.501	11902.28
436.708	12305.73
436.915	12674.37
437.122	13317.43
437.329	13196.6
437.537	13561.14
437.743	13825.33
437.95	13749.55
438.157	14341.41
438.364	14927.13
438.571	14939.42
438.778	15074.59
438.985	16459.01
439.192	15940.88
439.399	16170.25
439.606	15922.45
439.813	16737.54
440.02	17708.27
440.227	17421.56
440.433	17372.41
440.64	17923.31
440.847	17718.51
441.054	18169.07
441.261	19469.53
441.467	19311.83
441.674	19461.34
441.881	20204.75
442.088	20106.45
442.294	20008.14
442.501	20520.13
442.708	21120.19
442.914	21802.16
443.121	22807.72
443.328	22217.9
443.534	23784.6
443.741	22922.4
443.948	22746.28
444.154	24224.91
444.361	24186
444.568	24394.89
444.774	24220.81
444.981	24751.24
445.187	25377.92
445.394	26250.35
445.6	25992.31
445.807	28701.77
446.013	27204.7
446.22	28144.72
446.426	28793.93
446.633	29264.96
446.839	30135.35
447.046	29180.99
447.252	30624.81
447.459	30512.17
447.665	30063.67
447.871	31605.79
448.078	33235.97
448.284	31867.93
448.491	32408.59
448.697	33670.14
448.903	34474.99
449.11	34530.29
449.316	33977.34
449.522	34378.74
449.728	35296.23
449.935	35290.09
450.141	35369.96
450.347	36613.07
450.553	35386.34
450.76	35490.79
450.966	36768.72
451.172	36156.38
451.378	37518.28
451.584	36746.19
451.791	37391.3
451.997	37622.72
452.203	38038.46
452.409	38093.75
452.615	37962.68
452.821	36559.83
453.027	36053.98
453.233	38081.47
453.44	36807.63
453.646	37069.77
453.852	37084.11
454.058	37778.37
454.264	36404.18
454.47	37526.47
454.676	36365.27
454.882	37729.22
455.088	34571.25
455.294	34884.59
455.5	35480.55
455.705	35906.52
455.911	34251.77
456.117	33729.53
456.323	33557.5
456.529	31562.78
456.735	32896.01
456.941	31681.56
457.147	31788.06
457.352	30669.87
457.558	30329.91
457.764	30471.22
457.97	29811.77
458.176	28836.94
458.381	29246.53
458.587	27470.94
458.793	27726.94
458.999	26330.22
459.204	28269.65
459.41	27270.24
459.616	25648.25
459.821	25418.88
460.027	25484.41
460.233	24898.69
460.438	23784.6
460.644	23895.19
460.85	22887.59
461.055	22502.57
461.261	22680.74
461.466	20888.77
461.672	19956.94
461.878	21613.75
462.083	20219.08
462.289	19516.63
462.494	19801.3
462.7	18830.56
462.905	18234.6
463.111	18994.4
463.316	19123.42
463.522	18549.99
463.727	18695.39
463.932	18380.01
464.138	18119.92
464.343	18253.03
464.549	17888.5
464.754	18578.66
464.959	18449.64
465.165	18236.65
465.37	17452.28
465.575	16794.88
465.781	17634.55
465.986	17868.02
466.191	16835.84
466.397	16618.75
466.602	16020.75
466.807	16637.19
467.012	16534.79
467.218	16618.75
467.423	16475.4
467.628	16219.4
467.833	16966.91
468.038	16549.12
