Data from USB4F104151__38__11-51-44-267.txt Node

Date: Fri Mar 14 11:51:44 EDT 2025
User: louis
Spectrometer: USB4F10415
Trigger mode: 4
Integration Time (sec): 2.000000E-2
Scans to average: 1
Electric dark correction enabled: true
Nonlinearity correction enabled: false
Boxcar width: 0
XAxis mode: Wavelengths
Number of Pixels in Spectrum: 3648
>>>>>Begin Spectral Data<<<<<
178.204	-47.27
178.424	-47.27
178.644	-47.27
178.864	-32.94
179.084	-43.18
179.304	1.88
179.524	32.6
179.744	-22.7
179.964	3.93
180.184	-86.19
180.404	-49.32
180.624	36.69
180.844	48.98
181.064	-28.84
181.283	34.64
181.503	-30.89
181.723	59.22
181.943	-30.89
182.163	-0.17
182.383	30.55
182.602	-2.22
182.822	-6.31
183.042	38.74
183.262	46.93
183.482	24.4
183.701	3.93
183.921	24.4
184.141	-30.89
184.361	48.98
184.58	48.98
184.8	-4.27
185.02	24.4
185.239	3.93
185.459	118.61
185.679	53.08
185.898	18.26
186.118	57.17
186.338	96.08
186.557	85.84
186.777	22.36
186.997	48.98
187.216	48.98
187.436	61.27
187.655	28.5
187.875	1.88
188.095	77.65
188.314	30.55
188.534	42.84
188.753	3.93
188.973	26.45
189.192	20.31
189.412	-20.65
189.631	-0.17
189.851	42.84
190.07	75.6
190.29	38.74
190.509	26.45
190.729	59.22
190.948	75.6
191.168	67.41
191.387	-41.13
191.607	36.69
191.826	14.17
192.045	12.12
192.265	48.98
192.484	-12.46
192.704	5.97
192.923	44.88
193.142	61.27
193.362	57.17
193.581	30.55
193.8	63.32
194.02	63.32
194.239	-2.22
194.458	69.46
194.678	-10.41
194.897	55.12
195.116	67.41
195.335	14.17
195.555	104.28
195.774	-18.6
195.993	75.6
196.212	30.55
196.432	-37.03
196.651	57.17
196.87	22.36
197.089	53.08
197.308	98.13
197.528	22.36
197.747	8.02
197.966	8.02
198.185	77.65
198.404	10.07
198.623	42.84
198.842	-20.65
199.062	53.08
199.281	14.17
199.5	44.88
199.719	-51.37
199.938	8.02
200.157	16.21
200.376	59.22
200.595	94.04
200.814	1.88
201.033	5.97
201.252	69.46
201.471	73.56
201.69	28.5
201.909	18.26
202.128	-2.22
202.347	53.08
202.566	22.36
202.785	28.5
203.004	30.55
203.223	190.29
203.442	46.93
203.661	-6.31
203.879	32.6
204.098	30.55
204.317	14.17
204.536	73.56
204.755	14.17
204.974	73.56
205.193	38.74
205.411	128.85
205.63	28.5
205.849	87.89
206.068	26.45
206.287	-8.36
206.505	69.46
206.724	77.65
206.943	81.75
207.162	71.51
207.381	96.08
207.599	57.17
207.818	36.69
208.037	55.12
208.255	42.84
208.474	110.42
208.693	16.21
208.911	22.36
209.13	75.6
209.349	-26.79
209.567	63.32
209.786	-18.6
210.005	26.45
210.223	46.93
210.442	-26.79
210.661	108.37
210.879	24.4
211.098	24.4
211.316	42.84
211.535	32.6
211.753	40.79
211.972	-14.51
212.191	-0.17
212.409	59.22
212.628	-73.9
212.846	128.85
213.065	77.65
213.283	81.75
213.502	36.69
213.72	-12.46
213.938	73.56
214.157	10.07
214.375	22.36
214.594	40.79
214.812	16.21
215.031	42.84
215.249	38.74
215.467	26.45
215.686	-47.27
215.904	-8.36
216.122	63.32
216.341	24.4
216.559	18.26
216.778	110.42
216.996	20.31
217.214	87.89
217.432	-18.6
217.651	-12.46
217.869	36.69
218.087	28.5
218.306	28.5
218.524	75.6
218.742	-14.51
218.96	85.84
219.179	36.69
219.397	98.13
219.615	57.17
219.833	-4.27
220.051	22.36
220.27	-6.31
220.488	67.41
220.706	-2.22
220.924	32.6
221.142	34.64
221.36	30.55
221.578	3.93
221.796	48.98
222.015	61.27
222.233	26.45
222.451	8.02
222.669	36.69
222.887	114.52
223.105	-10.41
223.323	36.69
223.541	20.31
223.759	22.36
223.977	-32.94
224.195	87.89
224.413	122.71
224.631	44.88
224.849	36.69
225.067	38.74
225.285	114.52
225.503	-12.46
225.721	-16.55
225.939	53.08
226.157	75.6
226.375	44.88
226.592	40.79
226.81	44.88
227.028	48.98
227.246	65.36
227.464	48.98
227.682	157.52
227.9	10.07
228.117	10.07
228.335	24.4
228.553	83.8
228.771	36.69
228.989	94.04
229.206	16.21
229.424	96.08
229.642	51.03
229.86	36.69
230.077	40.79
230.295	28.5
230.513	71.51
230.731	87.89
230.948	102.23
231.166	114.52
231.384	69.46
231.601	53.08
231.819	28.5
232.037	65.36
232.254	46.93
232.472	81.75
232.689	44.88
232.907	38.74
233.125	-0.17
233.342	-8.36
233.56	-39.08
233.777	28.5
233.995	44.88
234.213	26.45
234.43	48.98
234.648	14.17
234.865	75.6
235.083	59.22
235.3	51.03
235.518	30.55
235.735	-2.22
235.953	51.03
236.17	-6.31
236.388	20.31
236.605	32.6
236.822	16.21
237.04	124.76
237.257	-10.41
237.475	83.8
237.692	104.28
237.909	44.88
238.127	44.88
238.344	81.75
238.562	10.07
238.779	3.93
238.996	20.31
239.214	38.74
239.431	85.84
239.648	69.46
239.865	94.04
240.083	24.4
240.3	-14.51
240.517	28.5
240.735	-2.22
240.952	63.32
241.169	32.6
241.386	32.6
241.603	46.93
241.821	48.98
242.038	75.6
242.255	61.27
242.472	51.03
242.689	3.93
242.907	61.27
243.124	-14.51
243.341	34.64
243.558	30.55
243.775	38.74
243.992	-20.65
244.209	5.97
244.426	61.27
244.643	89.94
244.86	12.12
245.078	36.69
245.295	130.9
245.512	48.98
245.729	94.04
245.946	12.12
246.163	12.12
246.38	42.84
246.597	28.5
246.814	40.79
247.031	67.41
247.248	53.08
247.464	-8.36
247.681	67.41
247.898	1.88
248.115	51.03
248.332	65.36
248.549	118.61
248.766	104.28
248.983	42.84
249.2	77.65
249.417	79.7
249.633	22.36
249.85	63.32
250.067	16.21
250.284	26.45
250.501	51.03
250.717	30.55
250.934	28.5
251.151	116.56
251.368	-12.46
251.585	61.27
251.801	77.65
252.018	32.6
252.235	85.84
252.451	24.4
252.668	30.55
252.885	30.55
253.102	57.17
253.318	77.65
253.535	-2.22
253.752	53.08
253.968	61.27
254.185	22.36
254.401	65.36
254.618	102.23
254.835	55.12
255.051	-14.51
255.268	77.65
255.484	63.32
255.701	3.93
255.917	89.94
256.134	42.84
256.351	14.17
256.567	-47.27
256.784	32.6
257	67.41
257.217	104.28
257.433	46.93
257.65	57.17
257.866	48.98
258.082	32.6
258.299	-22.7
258.515	12.12
258.732	112.47
258.948	42.84
259.165	8.02
259.381	42.84
259.597	20.31
259.814	40.79
260.03	24.4
260.246	51.03
260.463	61.27
260.679	114.52
260.895	59.22
261.112	106.32
261.328	48.98
261.544	-10.41
261.761	51.03
261.977	42.84
262.193	34.64
262.409	42.84
262.626	81.75
262.842	16.21
263.058	16.21
263.274	16.21
263.49	-39.08
263.707	69.46
263.923	-12.46
264.139	3.93
264.355	124.76
264.571	77.65
264.787	65.36
265.004	34.64
265.22	71.51
265.436	61.27
265.652	18.26
265.868	44.88
266.084	-20.65
266.3	-20.65
266.516	-18.6
266.732	14.17
266.948	28.5
267.164	22.36
267.38	10.07
267.596	1.88
267.812	1.88
268.028	83.8
268.244	104.28
268.46	73.56
268.676	67.41
268.892	-20.65
269.108	59.22
269.324	48.98
269.54	-51.37
269.756	112.47
269.972	12.12
270.188	59.22
270.403	22.36
270.619	-32.94
270.835	22.36
271.051	44.88
271.267	36.69
271.483	-8.36
271.698	94.04
271.914	89.94
272.13	67.41
272.346	61.27
272.562	63.32
272.777	22.36
272.993	98.13
273.209	57.17
273.425	36.69
273.64	20.31
273.856	63.32
274.072	20.31
274.287	51.03
274.503	69.46
274.719	65.36
274.934	12.12
275.15	8.02
275.366	126.8
275.581	22.36
275.797	89.94
276.012	46.93
276.228	14.17
276.444	57.17
276.659	77.65
276.875	1.88
277.09	8.02
277.306	1.88
277.521	65.36
277.737	38.74
277.952	94.04
278.168	116.56
278.383	48.98
278.599	36.69
278.814	57.17
279.03	-12.46
279.245	22.36
279.461	42.84
279.676	112.47
279.892	16.21
280.107	-32.94
280.322	-51.37
280.538	-20.65
280.753	-4.27
280.969	34.64
281.184	32.6
281.399	69.46
281.615	-4.27
281.83	42.84
282.045	-45.23
282.26	22.36
282.476	-6.31
282.691	-10.41
282.906	34.64
283.122	51.03
283.337	28.5
283.552	22.36
283.767	20.31
283.983	67.41
284.198	3.93
284.413	38.74
284.628	65.36
284.843	5.97
285.058	73.56
285.274	-2.22
285.489	36.69
285.704	20.31
285.919	26.45
286.134	102.23
286.349	-22.7
286.564	81.75
286.779	73.56
286.995	51.03
287.21	71.51
287.425	85.84
287.64	98.13
287.855	-4.27
288.07	28.5
288.285	59.22
288.5	85.84
288.715	53.08
288.93	16.21
289.145	57.17
289.36	81.75
289.575	73.56
289.79	59.22
290.004	-4.27
290.219	-14.51
290.434	69.46
290.649	-2.22
290.864	32.6
291.079	-6.31
291.294	3.93
291.509	8.02
291.724	32.6
291.938	10.07
292.153	44.88
292.368	28.5
292.583	73.56
292.798	59.22
293.012	128.85
293.227	5.97
293.442	40.79
293.657	-0.17
293.871	122.71
294.086	34.64
294.301	100.18
294.516	69.46
294.73	20.31
294.945	77.65
295.16	34.64
295.374	118.61
295.589	3.93
295.804	59.22
296.018	46.93
296.233	26.45
296.447	130.9
296.662	63.32
296.877	135
297.091	-4.27
297.306	63.32
297.52	77.65
297.735	46.93
297.949	36.69
298.164	-6.31
298.378	63.32
298.593	42.84
298.807	53.08
299.022	57.17
299.236	85.84
299.451	100.18
299.665	32.6
299.88	-39.08
300.094	59.22
300.309	38.74
300.523	51.03
300.737	124.76
300.952	10.07
301.166	28.5
301.381	-8.36
301.595	46.93
301.809	106.32
302.024	-18.6
302.238	75.6
302.452	63.32
302.667	20.31
302.881	71.51
303.095	-41.13
303.309	38.74
303.524	10.07
303.738	87.89
303.952	73.56
304.166	30.55
304.381	22.36
304.595	-6.31
304.809	-12.46
305.023	89.94
305.237	40.79
305.452	69.46
305.666	51.03
305.88	77.65
306.094	42.84
306.308	75.6
306.522	104.28
306.736	69.46
306.95	141.14
307.164	34.64
307.379	34.64
307.593	89.94
307.807	112.47
308.021	91.99
308.235	44.88
308.449	18.26
308.663	57.17
308.877	89.94
309.091	28.5
309.305	63.32
309.519	26.45
309.733	73.56
309.947	34.64
310.161	24.4
310.374	51.03
310.588	-18.6
310.802	59.22
311.016	53.08
311.23	69.46
311.444	57.17
311.658	57.17
311.872	118.61
312.085	38.74
312.299	73.56
312.513	30.55
312.727	-6.31
312.941	42.84
313.154	-22.7
313.368	28.5
313.582	83.8
313.796	16.21
314.009	61.27
314.223	53.08
314.437	-0.17
314.651	44.88
314.864	18.26
315.078	28.5
315.292	73.56
315.505	20.31
315.719	83.8
315.933	48.98
316.146	67.41
316.36	26.45
316.573	106.32
316.787	69.46
317.001	128.85
317.214	28.5
317.428	42.84
317.641	-2.22
317.855	20.31
318.068	36.69
318.282	38.74
318.495	96.08
318.709	5.97
318.922	46.93
319.136	57.17
319.349	69.46
319.563	51.03
319.776	44.88
319.99	12.12
320.203	42.84
320.417	75.6
320.63	85.84
320.843	87.89
321.057	73.56
321.27	46.93
321.483	32.6
321.697	-24.75
321.91	96.08
322.124	73.56
322.337	-4.27
322.55	-28.84
322.763	55.12
322.977	73.56
323.19	71.51
323.403	36.69
323.617	63.32
323.83	124.76
324.043	18.26
324.256	57.17
324.469	77.65
324.683	-2.22
324.896	48.98
325.109	73.56
325.322	26.45
325.535	122.71
325.748	128.85
325.962	65.36
326.175	24.4
326.388	104.28
326.601	102.23
326.814	-26.79
327.027	51.03
327.24	79.7
327.453	28.5
327.666	48.98
327.879	-6.31
328.092	-4.27
328.305	48.98
328.518	71.51
328.731	51.03
328.944	20.31
329.157	106.32
329.37	85.84
329.583	61.27
329.796	16.21
330.009	34.64
330.222	112.47
330.435	65.36
330.648	61.27
330.861	40.79
331.073	26.45
331.286	38.74
331.499	55.12
331.712	-12.46
331.925	24.4
332.138	108.37
332.35	69.46
332.563	22.36
332.776	124.76
332.989	-8.36
333.202	36.69
333.414	12.12
333.627	22.36
333.84	61.27
334.053	87.89
334.265	1.88
334.478	46.93
334.691	79.7
334.903	65.36
335.116	-4.27
335.329	79.7
335.541	26.45
335.754	108.37
335.966	28.5
336.179	79.7
336.392	44.88
336.604	89.94
336.817	22.36
337.029	120.66
337.242	104.28
337.454	16.21
337.667	46.93
337.88	77.65
338.092	36.69
338.305	96.08
338.517	55.12
338.729	5.97
338.942	116.56
339.154	30.55
339.367	22.36
339.579	-20.65
339.792	1.88
340.004	112.47
340.217	53.08
340.429	16.21
340.641	42.84
340.854	44.88
341.066	63.32
341.278	5.97
341.491	110.42
341.703	42.84
341.915	57.17
342.128	102.23
342.34	12.12
342.552	-8.36
342.764	63.32
342.977	53.08
343.189	42.84
343.401	157.52
343.613	-28.84
343.826	79.7
344.038	20.31
344.25	65.36
344.462	8.02
344.674	24.4
344.886	36.69
345.099	-24.75
345.311	8.02
345.523	87.89
345.735	-75.95
345.947	96.08
346.159	104.28
346.371	59.22
346.583	32.6
346.795	10.07
347.007	57.17
347.219	100.18
347.431	114.52
347.643	46.93
347.855	5.97
348.067	79.7
348.279	26.45
348.491	57.17
348.703	79.7
348.915	71.51
349.127	18.26
349.339	98.13
349.551	-16.55
349.763	55.12
349.975	51.03
350.187	87.89
350.399	65.36
350.61	108.37
350.822	77.65
351.034	108.37
351.246	-8.36
351.458	-4.27
351.669	87.89
351.881	147.28
352.093	67.41
352.305	71.51
352.517	10.07
352.728	77.65
352.94	102.23
353.152	83.8
353.363	46.93
353.575	108.37
353.787	8.02
353.999	-37.03
354.21	67.41
354.422	114.52
354.633	94.04
354.845	130.9
355.057	5.97
355.268	12.12
355.48	36.69
355.692	63.32
355.903	44.88
356.115	28.5
356.326	69.46
356.538	16.21
356.749	26.45
356.961	102.23
357.172	8.02
357.384	30.55
357.595	55.12
357.807	32.6
358.018	20.31
358.23	65.36
358.441	89.94
358.653	96.08
358.864	42.84
359.075	94.04
359.287	91.99
359.498	85.84
359.709	8.02
359.921	65.36
360.132	32.6
360.344	57.17
360.555	87.89
360.766	163.67
360.977	110.42
361.189	161.62
361.4	57.17
361.611	126.8
361.823	59.22
362.034	14.17
362.245	34.64
362.456	36.69
362.667	89.94
362.879	55.12
363.09	20.31
363.301	126.8
363.512	81.75
363.723	89.94
363.935	-6.31
364.146	75.6
364.357	12.12
364.568	65.36
364.779	34.64
364.99	57.17
365.201	53.08
365.412	135
365.623	44.88
365.834	5.97
366.045	59.22
366.256	1.88
366.467	104.28
366.678	104.28
366.889	81.75
367.1	73.56
367.311	65.36
367.522	98.13
367.733	94.04
367.944	67.41
368.155	-2.22
368.366	106.32
368.577	40.79
368.788	137.04
368.999	57.17
369.209	42.84
369.42	67.41
369.631	147.28
369.842	10.07
370.053	112.47
370.264	55.12
370.474	69.46
370.685	36.69
370.896	69.46
371.107	67.41
371.317	36.69
371.528	51.03
371.739	26.45
371.95	46.93
372.16	61.27
372.371	85.84
372.582	73.56
372.792	79.7
373.003	114.52
373.214	44.88
373.424	81.75
373.635	128.85
373.846	83.8
374.056	42.84
374.267	18.26
374.477	100.18
374.688	94.04
374.898	85.84
375.109	85.84
375.319	85.84
375.53	75.6
375.74	18.26
375.951	53.08
376.161	61.27
376.372	40.79
376.582	-30.89
376.793	14.17
377.003	63.32
377.214	77.65
377.424	89.94
377.635	32.6
377.845	44.88
378.055	155.47
378.266	61.27
378.476	-45.23
378.686	59.22
378.897	91.99
379.107	159.57
379.317	51.03
379.528	67.41
379.738	96.08
379.948	3.93
380.158	71.51
380.369	65.36
380.579	91.99
380.789	53.08
380.999	51.03
381.21	118.61
381.42	22.36
381.63	53.08
381.84	98.13
382.05	22.36
382.261	130.9
382.471	53.08
382.681	73.56
382.891	104.28
383.101	51.03
383.311	83.8
383.521	91.99
383.731	36.69
383.941	128.85
384.151	42.84
384.361	42.84
384.571	-2.22
384.781	63.32
384.991	61.27
385.201	71.51
385.411	65.36
385.621	34.64
385.831	104.28
386.041	120.66
386.251	36.69
386.461	61.27
386.671	16.21
386.881	122.71
387.091	75.6
387.301	-0.17
387.511	61.27
387.72	110.42
387.93	63.32
388.14	1.88
388.35	85.84
388.56	-6.31
388.769	38.74
388.979	30.55
389.189	53.08
389.399	79.7
389.609	85.84
389.818	122.71
390.028	100.18
390.238	51.03
390.447	34.64
390.657	114.52
390.867	77.65
391.076	77.65
391.286	65.36
391.496	114.52
391.705	65.36
391.915	87.89
392.125	-39.08
392.334	73.56
392.544	55.12
392.753	30.55
392.963	40.79
393.172	59.22
393.382	61.27
393.591	77.65
393.801	44.88
394.01	96.08
394.22	120.66
394.429	128.85
394.639	77.65
394.848	145.24
395.058	102.23
395.267	75.6
395.477	163.67
395.686	83.8
395.895	69.46
396.105	175.95
396.314	63.32
396.524	110.42
396.733	40.79
396.942	65.36
397.152	116.56
397.361	182.1
397.57	83.8
397.78	96.08
397.989	106.32
398.198	98.13
398.407	100.18
398.617	91.99
398.826	81.75
399.035	110.42
399.244	20.31
399.453	141.14
399.663	139.09
399.872	110.42
400.081	114.52
400.29	192.34
400.499	81.75
400.708	163.67
400.917	40.79
401.127	161.62
401.336	116.56
401.545	167.76
401.754	100.18
401.963	120.66
402.172	143.19
402.381	91.99
402.59	139.09
402.799	87.89
403.008	137.04
403.217	186.19
403.426	155.47
403.635	155.47
403.844	120.66
404.053	221.01
404.262	26.45
404.471	116.56
404.68	159.57
404.888	77.65
405.097	180.05
405.306	139.09
405.515	126.8
405.724	110.42
405.933	126.8
406.142	130.9
406.35	178
406.559	178
406.768	186.19
406.977	307.02
407.185	206.67
407.394	229.2
407.603	180.05
407.812	239.44
408.02	241.49
408.229	204.63
408.438	245.59
408.646	167.76
408.855	282.45
409.064	157.52
409.272	239.44
409.481	331.6
409.69	288.59
409.898	282.45
410.107	360.27
410.315	302.93
410.524	257.87
410.733	360.27
410.941	329.55
411.15	345.94
411.358	317.26
411.567	434
411.775	409.42
411.984	401.23
412.192	364.37
412.401	487.25
412.609	497.49
412.818	468.81
413.026	456.53
413.234	554.83
413.443	380.75
413.651	464.72
413.86	587.6
414.068	589.64
414.276	528.21
414.485	528.21
414.693	630.6
414.901	724.81
415.11	646.99
415.318	675.66
415.526	706.38
415.734	720.71
415.943	724.81
416.151	733
416.359	724.81
416.567	765.77
416.776	839.5
416.984	929.61
417.192	931.66
417.4	982.85
417.608	931.66
417.817	984.9
418.025	1040.2
418.233	1081.16
418.441	1040.2
418.649	1105.73
418.857	1126.21
419.065	1224.51
419.273	1240.9
419.481	1267.52
419.689	1320.77
419.897	1349.44
420.105	1376.06
420.313	1390.4
420.521	1468.22
420.729	1595.2
420.937	1652.54
421.145	1597.24
421.353	1763.13
421.561	1781.56
421.769	1789.75
421.977	1830.71
422.185	1996.6
422.393	1963.83
422.601	2039.61
422.809	2101.05
423.017	2223.92
423.224	2172.72
423.432	2369.33
423.64	2277.17
423.848	2455.34
424.056	2445.1
424.263	2617.13
424.471	2699.05
424.679	2645.8
424.887	2881.32
425.094	2899.75
425.302	2899.75
425.51	3043.11
425.718	3215.14
425.925	2996.01
426.133	3206.95
426.341	3469.09
426.548	3677.98
426.756	3565.34
426.964	3585.82
427.171	3874.59
427.379	3917.59
427.586	3972.89
427.794	4081.43
428.001	4329.24
428.209	4501.26
428.417	4400.91
428.624	4763.4
428.832	4687.63
429.039	4634.38
429.247	4570.9
429.454	5232.39
429.662	5459.71
429.869	5199.62
430.076	5459.71
430.284	5383.94
430.491	5607.17
430.699	6012.67
430.906	5996.28
431.114	6016.76
431.321	6108.92
431.528	6305.53
431.736	6831.85
431.943	7014.12
432.15	6792.94
432.358	6862.57
432.565	7356.13
432.772	7280.36
432.979	7737.06
433.187	7786.21
433.394	7864.03
433.601	8275.67
433.808	8488.66
434.016	8191.7
434.223	8900.3
434.43	9299.66
434.637	9025.23
434.844	9619.14
435.052	9922.24
435.259	9846.46
435.466	9569.99
435.673	9789.12
435.88	10559.16
436.087	10880.69
436.294	11062.96
436.501	10700.47
436.708	11046.57
436.915	11409.06
437.122	11863.71
437.329	11839.14
437.537	12011.17
437.743	12424.86
437.95	12236.44
438.157	12822.16
438.364	13264.52
438.571	13086.35
438.778	13358.73
438.985	14710.39
439.192	14139.01
439.399	14536.31
439.606	14026.37
439.813	14906.99
440.02	15666.79
440.227	15357.55
440.433	15328.88
440.64	15857.25
440.847	15816.29
441.054	16285.28
441.261	17460.81
441.467	17055.31
441.674	17210.96
441.881	18230.85
442.088	17989.19
442.294	17827.4
442.501	18265.66
442.708	18546.23
442.914	19312.17
443.121	19959.33
443.328	19738.15
443.534	20885.01
443.741	20426.27
443.948	19998.24
444.154	21757.45
444.361	21868.04
444.568	21661.19
444.774	21534.22
444.981	22058.5
445.187	22679.04
445.394	23502.32
445.6	23148.02
445.807	25505.23
446.013	24489.44
446.22	24808.92
446.426	25712.08
446.633	25796.04
446.839	26926.52
447.046	25978.31
447.252	27225.53
447.459	27084.22
447.665	26922.43
447.871	28577.19
448.078	29662.61
448.284	28284.33
448.491	28964.25
448.697	29928.84
448.903	30733.7
449.11	30428.55
449.316	29986.19
449.522	30721.41
449.728	31585.65
449.935	31778.16
450.141	31475.06
450.347	32179.56
450.553	31499.64
450.76	32109.93
450.966	33183.07
451.172	32388.46
451.378	33527.13
451.584	32666.98
451.791	33305.95
451.997	33572.18
452.203	33283.42
452.409	34334.03
452.615	33465.69
452.821	32650.6
453.027	32275.82
453.233	33910.1
453.44	33037.66
453.646	33006.94
453.852	33054.04
454.058	33881.42
454.264	32142.7
454.47	33099.1
454.676	32339.3
454.882	33387.86
455.088	30643.59
455.294	31231.35
455.5	31563.12
455.705	31774.06
455.911	30209.42
456.117	29908.36
456.323	29719.95
456.529	27856.3
456.735	29265.3
456.941	28685.73
457.147	27921.84
457.352	27155.89
457.558	26885.56
457.764	26912.19
457.97	26416.58
458.176	25648.59
458.381	26031.56
458.587	24552.93
458.793	24548.83
458.999	23350.77
459.204	24964.57
459.41	24399.33
459.616	22554.11
459.821	22681.08
460.027	22707.71
460.233	21933.57
460.438	21005.84
460.644	21329.42
460.85	20370.97
461.055	20100.64
461.261	19883.56
461.466	18648.63
461.672	17880.64
461.878	19260.98
462.083	17856.07
462.289	17276.49
462.494	17387.08
462.7	16604.76
462.905	16189.02
463.111	16770.65
463.316	17100.37
463.522	16408.15
463.727	16469.59
463.932	16391.77
464.138	16201.31
464.343	16260.7
464.549	15865.44
464.754	16608.86
464.959	16180.83
465.165	16076.38
465.37	15767.14
465.575	15101.55
465.781	15765.09
465.986	15826.53
466.191	15394.41
466.397	14872.18
466.602	14333.56
466.807	14724.72
467.012	14685.81
467.218	14716.53
467.423	14515.83
467.628	14538.36
467.833	14917.23
