Data from USB4F104151__76__11-52-43-920.txt Node

Date: Fri Mar 14 11:52:43 EDT 2025
User: louis
Spectrometer: USB4F10415
Trigger mode: 4
Integration Time (sec): 2.000000E-2
Scans to average: 1
Electric dark correction enabled: true
Nonlinearity correction enabled: false
Boxcar width: 0
XAxis mode: Wavelengths
Number of Pixels in Spectrum: 3648
>>>>>Begin Spectral Data<<<<<
178.204	-109.74
178.424	-109.74
178.644	-109.74
178.864	-81.07
179.084	-87.21
179.304	-7.34
179.524	41.81
179.744	7
179.964	-23.72
180.184	-68.78
180.404	-9.39
180.624	64.34
180.844	15.19
181.064	33.62
181.283	-15.53
181.503	-33.96
181.723	-3.24
181.943	-31.91
182.163	37.72
182.383	17.24
182.602	-46.25
182.822	64.34
183.042	-11.43
183.262	-17.58
183.482	-31.91
183.701	39.76
183.921	31.57
184.141	43.86
184.361	-1.19
184.58	9.05
184.8	-13.48
185.02	62.29
185.239	31.57
185.459	-21.67
185.679	9.05
185.898	-56.49
186.118	29.52
186.338	31.57
186.557	17.24
186.777	25.43
186.997	-17.58
187.216	-11.43
187.436	21.33
187.655	-44.2
187.875	23.38
188.095	37.72
188.314	-46.25
188.534	80.72
188.753	-3.24
188.973	13.14
189.192	39.76
189.412	-7.34
189.631	-27.82
189.851	35.67
190.07	-29.87
190.29	25.43
190.509	58.2
190.729	-25.77
190.948	-17.58
191.168	142.16
191.387	-1.19
191.607	-60.59
191.826	31.57
192.045	74.58
192.265	-21.67
192.484	29.52
192.704	21.33
192.923	39.76
193.142	25.43
193.362	-29.87
193.581	29.52
193.8	43.86
194.02	19.29
194.239	9.05
194.458	-1.19
194.678	9.05
194.897	-60.59
195.116	-9.39
195.335	-76.97
195.555	72.53
195.774	33.62
195.993	21.33
196.212	-50.35
196.432	-50.35
196.651	13.14
196.87	37.72
197.089	13.14
197.308	33.62
197.528	-15.53
197.747	17.24
197.966	54.1
198.185	64.34
198.404	37.72
198.623	2.9
198.842	-5.29
199.062	-31.91
199.281	21.33
199.5	-48.3
199.719	-1.19
199.938	62.29
200.157	-13.48
200.376	-23.72
200.595	-23.72
200.814	4.95
201.033	68.44
201.252	64.34
201.471	-31.91
201.69	-29.87
201.909	82.77
202.128	64.34
202.347	4.95
202.566	-68.78
202.785	2.9
203.004	-17.58
203.223	97.11
203.442	13.14
203.661	31.57
203.879	-33.96
204.098	82.77
204.317	-40.11
204.536	37.72
204.755	-1.19
204.974	21.33
205.193	7
205.411	15.19
205.63	17.24
205.849	-5.29
206.068	23.38
206.287	2.9
206.505	-13.48
206.724	-3.24
206.943	-1.19
207.162	33.62
207.381	35.67
207.599	-48.3
207.818	64.34
208.037	4.95
208.255	-31.91
208.474	-36.01
208.693	-33.96
208.911	7
209.13	31.57
209.349	31.57
209.567	-48.3
209.786	35.67
210.005	31.57
210.223	11.09
210.442	15.19
210.661	62.29
210.879	-48.3
211.098	43.86
211.316	-7.34
211.535	39.76
211.753	9.05
211.972	64.34
212.191	-17.58
212.409	27.48
212.628	17.24
212.846	0.85
213.065	35.67
213.283	64.34
213.502	23.38
213.72	-40.11
213.938	41.81
214.157	45.91
214.375	13.14
214.594	11.09
214.812	11.09
215.031	-31.91
215.249	0.85
215.467	-5.29
215.686	-9.39
215.904	11.09
216.122	-46.25
216.341	-25.77
216.559	-27.82
216.778	88.92
216.996	29.52
217.214	43.86
217.432	23.38
217.651	-40.11
217.869	13.14
218.087	4.95
218.306	52.05
218.524	-3.24
218.742	9.05
218.96	13.14
219.179	-31.91
219.397	35.67
219.615	43.86
219.833	0.85
220.051	-85.16
220.27	4.95
220.488	25.43
220.706	84.82
220.924	-9.39
221.142	31.57
221.36	45.91
221.578	62.29
221.796	-5.29
222.015	-29.87
222.233	-27.82
222.451	103.25
222.669	-27.82
222.887	-58.54
223.105	-25.77
223.323	68.44
223.541	4.95
223.759	41.81
223.977	62.29
224.195	29.52
224.413	-23.72
224.631	-5.29
224.849	19.29
225.067	29.52
225.285	4.95
225.503	52.05
225.721	-48.3
225.939	45.91
226.157	-17.58
226.375	-21.67
226.592	25.43
226.81	-23.72
227.028	2.9
227.246	47.96
227.464	50
227.682	15.19
227.9	45.91
228.117	7
228.335	-1.19
228.553	11.09
228.771	-23.72
228.989	29.52
229.206	-50.35
229.424	-60.59
229.642	2.9
229.86	41.81
230.077	13.14
230.295	2.9
230.513	4.95
230.731	66.39
230.948	-13.48
231.166	-17.58
231.384	-11.43
231.601	4.95
231.819	47.96
232.037	-9.39
232.254	-11.43
232.472	-7.34
232.689	-1.19
232.907	76.63
233.125	-54.44
233.342	-27.82
233.56	-68.78
233.777	-9.39
233.995	35.67
234.213	9.05
234.43	-23.72
234.648	-115.88
234.865	0.85
235.083	-9.39
235.3	-36.01
235.518	-68.78
235.735	47.96
235.953	54.1
236.17	54.1
236.388	29.52
236.605	0.85
236.822	23.38
237.04	31.57
237.257	50
237.475	13.14
237.692	37.72
237.909	31.57
238.127	15.19
238.344	-5.29
238.562	39.76
238.779	-11.43
238.996	-29.87
239.214	-15.53
239.431	56.15
239.648	-38.06
239.865	23.38
240.083	27.48
240.3	50
240.517	27.48
240.735	17.24
240.952	64.34
241.169	93.01
241.386	82.77
241.603	35.67
241.821	-13.48
242.038	27.48
242.255	19.29
242.472	-13.48
242.689	0.85
242.907	-15.53
243.124	-17.58
243.341	-7.34
243.558	-38.06
243.775	-52.39
243.992	-5.29
244.209	7
244.426	78.68
244.643	27.48
244.86	39.76
245.078	50
245.295	-21.67
245.512	60.24
245.729	9.05
245.946	0.85
246.163	54.1
246.38	56.15
246.597	52.05
246.814	0.85
247.031	47.96
247.248	2.9
247.464	0.85
247.681	-1.19
247.898	15.19
248.115	9.05
248.332	-5.29
248.549	84.82
248.766	33.62
248.983	13.14
249.2	-19.63
249.417	-44.2
249.633	-15.53
249.85	50
250.067	-13.48
250.284	27.48
250.501	-54.44
250.717	68.44
250.934	31.57
251.151	70.48
251.368	17.24
251.585	39.76
251.801	15.19
252.018	21.33
252.235	-33.96
252.451	-21.67
252.668	-5.29
252.885	76.63
253.102	-19.63
253.318	-17.58
253.535	-27.82
253.752	31.57
253.968	27.48
254.185	-27.82
254.401	39.76
254.618	17.24
254.835	31.57
255.051	13.14
255.268	39.76
255.484	31.57
255.701	37.72
255.917	7
256.134	33.62
256.351	33.62
256.567	17.24
256.784	19.29
257	-40.11
257.217	62.29
257.433	37.72
257.65	56.15
257.866	78.68
258.082	29.52
258.299	-48.3
258.515	52.05
258.732	-13.48
258.948	-5.29
259.165	39.76
259.381	9.05
259.597	-1.19
259.814	45.91
260.03	-27.82
260.246	19.29
260.463	4.95
260.679	41.81
260.895	29.52
261.112	4.95
261.328	70.48
261.544	-1.19
261.761	43.86
261.977	-70.83
262.193	52.05
262.409	-64.68
262.626	-36.01
262.842	-5.29
263.058	-40.11
263.274	119.64
263.49	23.38
263.707	45.91
263.923	2.9
264.139	62.29
264.355	31.57
264.571	21.33
264.787	37.72
265.004	41.81
265.22	54.1
265.436	68.44
265.652	-36.01
265.868	66.39
266.084	17.24
266.3	9.05
266.516	41.81
266.732	45.91
266.948	4.95
267.164	56.15
267.38	-56.49
267.596	-17.58
267.812	80.72
268.028	31.57
268.244	9.05
268.46	-7.34
268.676	11.09
268.892	4.95
269.108	47.96
269.324	-48.3
269.54	-31.91
269.756	99.16
269.972	-40.11
270.188	62.29
270.403	21.33
270.619	64.34
270.835	2.9
271.051	-17.58
271.267	-3.24
271.483	56.15
271.698	45.91
271.914	-29.87
272.13	-3.24
272.346	76.63
272.562	4.95
272.777	19.29
272.993	17.24
273.209	52.05
273.425	80.72
273.64	54.1
273.856	23.38
274.072	99.16
274.287	11.09
274.503	74.58
274.719	80.72
274.934	66.39
275.15	-27.82
275.366	66.39
275.581	-23.72
275.797	-17.58
276.012	7
276.228	21.33
276.444	-21.67
276.659	-40.11
276.875	-40.11
277.09	41.81
277.306	70.48
277.521	-1.19
277.737	52.05
277.952	9.05
278.168	27.48
278.383	15.19
278.599	15.19
278.814	58.2
279.03	56.15
279.245	50
279.461	9.05
279.676	68.44
279.892	-3.24
280.107	-13.48
280.322	15.19
280.538	68.44
280.753	-1.19
280.969	23.38
281.184	-1.19
281.399	86.87
281.615	2.9
281.83	15.19
282.045	-54.44
282.26	29.52
282.476	41.81
282.691	35.67
282.906	37.72
283.122	13.14
283.337	-9.39
283.552	123.73
283.767	25.43
283.983	27.48
284.198	64.34
284.413	-19.63
284.628	47.96
284.843	45.91
285.058	76.63
285.274	-7.34
285.489	0.85
285.704	35.67
285.919	-13.48
286.134	72.53
286.349	-9.39
286.564	74.58
286.779	-3.24
286.995	31.57
287.21	33.62
287.425	43.86
287.64	-19.63
287.855	33.62
288.07	15.19
288.285	17.24
288.5	39.76
288.715	23.38
288.93	45.91
289.145	27.48
289.36	13.14
289.575	84.82
289.79	19.29
290.004	-13.48
290.219	15.19
290.434	66.39
290.649	4.95
290.864	88.92
291.079	-1.19
291.294	-1.19
291.509	15.19
291.724	25.43
291.938	-5.29
292.153	0.85
292.368	-9.39
292.583	39.76
292.798	-9.39
293.012	9.05
293.227	-48.3
293.442	21.33
293.657	35.67
293.871	0.85
294.086	21.33
294.301	39.76
294.516	-15.53
294.73	56.15
294.945	4.95
295.16	0.85
295.374	-36.01
295.589	23.38
295.804	45.91
296.018	29.52
296.233	13.14
296.447	25.43
296.662	-36.01
296.877	50
297.091	-1.19
297.306	21.33
297.52	17.24
297.735	13.14
297.949	0.85
298.164	21.33
298.378	13.14
298.593	-13.48
298.807	39.76
299.022	25.43
299.236	11.09
299.451	-54.44
299.665	7
299.88	-5.29
300.094	-19.63
300.309	41.81
300.523	31.57
300.737	9.05
300.952	11.09
301.166	11.09
301.381	19.29
301.595	31.57
301.809	-7.34
302.024	11.09
302.238	31.57
302.452	37.72
302.667	76.63
302.881	-5.29
303.095	-19.63
303.309	23.38
303.524	0.85
303.738	90.96
303.952	-19.63
304.166	29.52
304.381	21.33
304.595	43.86
304.809	64.34
305.023	17.24
305.237	29.52
305.452	-46.25
305.666	-5.29
305.88	27.48
306.094	43.86
306.308	9.05
306.522	43.86
306.736	54.1
306.95	103.25
307.164	62.29
307.379	11.09
307.593	82.77
307.807	21.33
308.021	41.81
308.235	-29.87
308.449	-23.72
308.663	50
308.877	29.52
309.091	50
309.305	15.19
309.519	2.9
309.733	-19.63
309.947	-17.58
310.161	-19.63
310.374	62.29
310.588	111.44
310.802	-33.96
311.016	21.33
311.23	23.38
311.444	-5.29
311.658	13.14
311.872	2.9
312.085	43.86
312.299	29.52
312.513	15.19
312.727	41.81
312.941	72.53
313.154	39.76
313.368	23.38
313.582	-3.24
313.796	-3.24
314.009	119.64
314.223	56.15
314.437	23.38
314.651	21.33
314.864	-11.43
315.078	4.95
315.292	70.48
315.505	2.9
315.719	-19.63
315.933	39.76
316.146	29.52
316.36	-1.19
316.573	121.68
316.787	25.43
317.001	54.1
317.214	-33.96
317.428	2.9
317.641	78.68
317.855	-44.2
318.068	68.44
318.282	-36.01
318.495	90.96
318.709	29.52
318.922	37.72
319.136	58.2
319.349	43.86
319.563	-23.72
319.776	-23.72
319.99	-7.34
320.203	47.96
320.417	31.57
320.63	-15.53
320.843	50
321.057	-3.24
321.27	19.29
321.483	19.29
321.697	45.91
321.91	-21.67
322.124	37.72
322.337	86.87
322.55	84.82
322.763	11.09
322.977	-19.63
323.19	-5.29
323.403	-19.63
323.617	31.57
323.83	21.33
324.043	-13.48
324.256	-31.91
324.469	7
324.683	29.52
324.896	58.2
325.109	-27.82
325.322	41.81
325.535	35.67
325.748	99.16
325.962	-1.19
326.175	58.2
326.388	88.92
326.601	60.24
326.814	25.43
327.027	52.05
327.24	76.63
327.453	-52.39
327.666	4.95
327.879	19.29
328.092	58.2
328.305	37.72
328.518	27.48
328.731	-46.25
328.944	50
329.157	17.24
329.37	54.1
329.583	15.19
329.796	45.91
330.009	21.33
330.222	7
330.435	13.14
330.648	45.91
330.861	9.05
331.073	68.44
331.286	25.43
331.499	19.29
331.712	23.38
331.925	-19.63
332.138	-11.43
332.35	4.95
332.563	0.85
332.776	23.38
332.989	-21.67
333.202	15.19
333.414	-48.3
333.627	17.24
333.84	-38.06
334.053	74.58
334.265	-31.91
334.478	-9.39
334.691	-33.96
334.903	60.24
335.116	-3.24
335.329	68.44
335.541	11.09
335.754	-27.82
335.966	9.05
336.179	52.05
336.392	-83.11
336.604	-21.67
336.817	101.2
337.029	23.38
337.242	-113.83
337.454	93.01
337.667	35.67
337.88	23.38
338.092	33.62
338.305	-58.54
338.517	-1.19
338.729	56.15
338.942	7
339.154	31.57
339.367	41.81
339.579	19.29
339.792	-17.58
340.004	21.33
340.217	-46.25
340.429	60.24
340.641	-27.82
340.854	47.96
341.066	0.85
341.278	146.26
341.491	78.68
341.703	-1.19
341.915	45.91
342.128	78.68
342.34	52.05
342.552	23.38
342.764	43.86
342.977	35.67
343.189	23.38
343.401	74.58
343.613	-46.25
343.826	9.05
344.038	9.05
344.25	76.63
344.462	37.72
344.674	-25.77
344.886	35.67
345.099	39.76
345.311	33.62
345.523	39.76
345.735	64.34
345.947	-3.24
346.159	19.29
346.371	43.86
346.583	41.81
346.795	133.97
347.007	76.63
347.219	11.09
347.431	35.67
347.643	43.86
347.855	-15.53
348.067	17.24
348.279	0.85
348.491	21.33
348.703	54.1
348.915	76.63
349.127	-23.72
349.339	58.2
349.551	13.14
349.763	-23.72
349.975	-1.19
350.187	-9.39
350.399	60.24
350.61	54.1
350.822	31.57
351.034	4.95
351.246	41.81
351.458	-19.63
351.669	-3.24
351.881	-7.34
352.093	-48.3
352.305	84.82
352.517	43.86
352.728	127.83
352.94	64.34
353.152	39.76
353.363	45.91
353.575	9.05
353.787	60.24
353.999	33.62
354.21	43.86
354.422	62.29
354.633	-11.43
354.845	47.96
355.057	105.3
355.268	15.19
355.48	66.39
355.692	-23.72
355.903	2.9
356.115	0.85
356.326	43.86
356.538	62.29
356.749	50
356.961	27.48
357.172	-11.43
357.384	-50.35
357.595	47.96
357.807	-1.19
358.018	50
358.23	43.86
358.441	45.91
358.653	-11.43
358.864	64.34
359.075	-58.54
359.287	-3.24
359.498	25.43
359.709	43.86
359.921	21.33
360.132	50
360.344	-21.67
360.555	-11.43
360.766	-27.82
360.977	27.48
361.189	4.95
361.4	19.29
361.611	21.33
361.823	37.72
362.034	84.82
362.245	-36.01
362.456	50
362.667	37.72
362.879	15.19
363.09	84.82
363.301	39.76
363.512	43.86
363.723	9.05
363.935	-27.82
364.146	33.62
364.357	31.57
364.568	37.72
364.779	21.33
364.99	125.78
365.201	33.62
365.412	62.29
365.623	21.33
365.834	105.3
366.045	-5.29
366.256	17.24
366.467	-19.63
366.678	33.62
366.889	-11.43
367.1	-31.91
367.311	-3.24
367.522	7
367.733	95.06
367.944	29.52
368.155	-27.82
368.366	27.48
368.577	58.2
368.788	52.05
368.999	82.77
369.209	21.33
369.42	111.44
369.631	74.58
369.842	11.09
370.053	117.59
370.264	37.72
370.474	17.24
370.685	-17.58
370.896	105.3
371.107	21.33
371.317	74.58
371.528	33.62
371.739	74.58
371.95	76.63
372.16	43.86
372.371	7
372.582	97.11
372.792	2.9
373.003	27.48
373.214	-70.83
373.424	21.33
373.635	27.48
373.846	82.77
374.056	58.2
374.267	9.05
374.477	58.2
374.688	62.29
374.898	9.05
375.109	33.62
375.319	37.72
375.53	52.05
375.74	62.29
375.951	-17.58
376.161	43.86
376.372	45.91
376.582	39.76
376.793	99.16
377.003	64.34
377.214	31.57
377.424	-17.58
377.635	47.96
377.845	-33.96
378.055	25.43
378.266	17.24
378.476	-40.11
378.686	41.81
378.897	29.52
379.107	50
379.317	21.33
379.528	-11.43
379.738	33.62
379.948	62.29
380.158	66.39
380.369	72.53
380.579	27.48
380.789	52.05
380.999	109.4
381.21	37.72
381.42	78.68
381.63	13.14
381.84	45.91
382.05	47.96
382.261	50
382.471	15.19
382.681	60.24
382.891	7
383.101	0.85
383.311	21.33
383.521	17.24
383.731	78.68
383.941	4.95
384.151	37.72
384.361	54.1
384.571	33.62
384.781	-17.58
384.991	47.96
385.201	-3.24
385.411	62.29
385.621	86.87
385.831	41.81
386.041	45.91
386.251	23.38
386.461	17.24
386.671	78.68
386.881	60.24
387.091	-23.72
387.301	9.05
387.511	29.52
387.72	15.19
387.93	23.38
388.14	62.29
388.35	23.38
388.56	41.81
388.769	50
388.979	39.76
389.189	-56.49
389.399	0.85
389.609	82.77
389.818	64.34
390.028	21.33
390.238	-17.58
390.447	-11.43
390.657	15.19
390.867	68.44
391.076	4.95
391.286	72.53
391.496	-13.48
391.705	45.91
391.915	74.58
392.125	25.43
392.334	50
392.544	90.96
392.753	45.91
392.963	37.72
393.172	15.19
393.382	74.58
393.591	60.24
393.801	17.24
394.01	95.06
394.22	-13.48
394.429	99.16
394.639	37.72
394.848	62.29
395.058	33.62
395.267	39.76
395.477	37.72
395.686	41.81
395.895	90.96
396.105	97.11
396.314	58.2
396.524	101.2
396.733	4.95
396.942	72.53
397.152	68.44
397.361	76.63
397.57	127.83
397.78	78.68
397.989	66.39
398.198	86.87
398.407	58.2
398.617	60.24
398.826	86.87
399.035	176.98
399.244	11.09
399.453	80.72
399.663	84.82
399.872	4.95
400.081	68.44
400.29	154.45
400.499	74.58
400.708	119.64
400.917	90.96
401.127	109.4
401.336	74.58
401.545	84.82
401.754	31.57
401.963	140.12
402.172	86.87
402.381	131.92
402.59	37.72
402.799	119.64
403.008	60.24
403.217	111.44
403.426	101.2
403.635	84.82
403.844	27.48
404.053	93.01
404.262	152.4
404.471	158.55
404.68	62.29
404.888	162.64
405.097	140.12
405.306	93.01
405.515	95.06
405.724	129.88
405.933	115.54
406.142	117.59
406.35	95.06
406.559	121.68
406.768	152.4
406.977	205.65
407.185	150.36
407.394	246.61
407.603	170.83
407.812	125.78
408.02	148.31
408.229	191.31
408.438	191.31
408.646	166.74
408.855	219.99
409.064	267.09
409.272	187.22
409.481	222.03
409.69	242.51
409.898	312.14
410.107	226.13
410.315	273.23
410.524	197.46
410.733	267.09
410.941	281.43
411.15	295.76
411.358	242.51
411.567	363.34
411.775	320.34
411.984	344.91
412.192	306
412.401	349.01
412.609	402.26
412.818	381.78
413.026	342.86
413.234	357.2
413.443	441.17
413.651	455.5
413.86	512.85
414.068	557.9
414.276	488.27
414.485	402.26
414.693	572.24
414.901	598.86
415.11	566.09
415.318	541.52
415.526	621.39
415.734	574.28
415.943	600.91
416.151	668.49
416.359	592.72
416.567	652.11
416.776	787.27
416.984	746.31
417.192	785.23
417.4	736.07
417.608	848.71
417.817	883.53
418.025	785.23
418.233	1022.79
418.441	871.24
418.649	969.54
418.857	1088.32
419.065	1037.13
419.273	1094.47
419.481	1207.11
419.689	1127.24
419.897	1125.19
420.105	1215.3
420.313	1248.07
420.521	1370.94
420.729	1321.79
420.937	1350.46
421.145	1473.34
421.353	1487.68
421.561	1690.43
421.769	1594.17
421.977	1721.15
422.185	1669.95
422.393	1819.45
422.601	1866.55
422.809	1739.58
423.017	1925.94
423.224	2046.77
423.432	2044.73
423.64	1952.57
423.848	2214.71
424.056	2063.16
424.263	2304.82
424.471	2368.31
424.679	2233.14
424.887	2501.42
425.094	2560.81
425.302	2556.72
425.51	2671.4
425.718	2943.78
425.925	2800.43
426.133	2870.06
426.341	3121.96
426.548	3240.74
426.756	3156.77
426.964	3238.69
427.171	3509.02
427.379	3519.26
427.586	3695.39
427.794	3713.82
428.001	3859.23
428.209	3935
428.417	3947.29
428.624	4285.2
428.832	4399.89
429.039	4307.73
429.247	4315.92
429.454	4700.94
429.662	5042.95
429.869	4705.04
430.076	4983.56
430.284	4920.07
430.491	4961.03
430.699	5305.09
430.906	5243.65
431.114	5509.89
431.321	5565.18
431.528	5698.3
431.736	6230.77
431.943	6462.19
432.15	6161.14
432.358	6265.59
432.565	6742.77
432.772	6525.68
432.979	6959.85
433.187	7203.56
433.394	7045.87
433.601	7701.22
433.808	7693.02
434.016	7594.72
434.223	7973.6
434.43	8245.98
434.637	8434.39
434.844	8843.98
435.052	9071.31
435.259	8823.5
435.466	8954.57
435.673	8989.39
435.88	9634.5
436.087	10023.61
436.294	9970.37
436.501	9790.14
436.708	9902.78
436.915	10269.37
437.122	10803.89
437.329	10709.68
437.537	10992.3
437.743	11176.62
437.95	11213.48
438.157	11827.87
438.364	12317.34
438.571	12169.88
438.778	12270.23
438.985	13220.49
439.192	12878.48
439.399	13240.97
439.606	13027.98
439.813	13779.59
440.02	14422.65
440.227	14279.29
440.433	14080.64
440.64	14584.44
440.847	14727.8
441.054	14705.27
441.261	15999.59
441.467	15913.57
441.674	15893.09
441.881	16749.14
442.088	16693.85
442.294	16394.84
442.501	16972.37
442.708	17128.02
442.914	17844.81
443.121	18498.11
443.328	18117.18
443.534	19360.3
443.741	18860.6
443.948	18547.26
444.154	20077.09
444.361	19561
444.568	20042.28
444.774	19923.49
444.981	20159.01
445.187	20984.34
445.394	21692.94
445.6	21387.79
445.807	23591.41
446.013	22323.71
446.22	22868.47
446.426	23929.32
446.633	24017.38
446.839	24668.64
447.046	23884.26
447.252	25176.53
447.459	25414.1
447.665	25356.75
447.871	26433.99
448.078	27382.2
448.284	25887.18
448.491	26874.3
448.697	27767.21
448.903	28823.97
449.11	28774.81
449.316	28135.85
449.522	28688.8
449.728	29485.46
449.935	29712.78
450.141	29335.96
450.347	30452.1
450.553	29049.24
450.76	29772.18
450.966	30867.84
451.172	30216.58
451.378	30937.47
451.584	30798.21
451.791	31506.8
451.997	31144.31
452.203	31680.88
452.409	32029.04
452.615	31543.67
452.821	30228.87
453.027	30269.83
453.233	31730.03
453.44	30790.02
453.646	30972.28
453.852	30861.69
454.058	31531.38
454.264	30671.23
454.47	31418.74
454.676	30693.76
454.882	31412.6
455.088	28686.75
455.294	29192.6
455.5	29776.27
455.705	30155.15
455.911	28787.1
456.117	28418.47
456.323	28285.35
456.529	26493.38
456.735	27734.45
456.941	27261.37
457.147	26390.98
457.352	25741.77
457.558	25309.65
457.764	25354.71
457.97	25027.03
458.176	24541.66
458.381	24412.64
458.587	23265.78
458.793	23226.87
458.999	22057.48
459.204	23763.43
459.41	23081.46
459.616	21539.34
459.821	21465.61
460.027	21645.84
460.233	20853.27
460.438	19958.31
460.644	20462.11
460.85	19352.11
461.055	19028.53
461.261	18840.12
461.466	17709.64
461.672	17214.03
461.878	18287.17
462.083	17136.21
462.289	16933.46
462.494	16554.58
462.7	15997.54
462.905	15458.92
463.111	15868.52
463.316	16085.6
463.522	15628.9
463.727	15739.49
463.932	15471.21
464.138	15501.93
464.343	15710.82
464.549	15129.2
464.754	15526.5
464.959	15491.69
465.165	15579.75
465.37	14580.34
465.575	14402.17
465.781	14940.79
465.986	14985.84
466.191	14502.52
466.397	14301.82
466.602	13486.73
466.807	13814.4
467.012	13806.21
467.218	14015.1
467.423	13742.72
467.628	13623.94
467.833	14643.83
468.038	13847.17
468.244	13367.95
468.449	13924.99
468.654	13525.64
