Data from USB4F104151__16__11-51-17-010.txt Node

Date: Fri Mar 14 11:51:17 EDT 2025
User: louis
Spectrometer: USB4F10415
Trigger mode: 4
Integration Time (sec): 2.000000E-2
Scans to average: 1
Electric dark correction enabled: true
Nonlinearity correction enabled: false
Boxcar width: 0
XAxis mode: Wavelengths
Number of Pixels in Spectrum: 3648
>>>>>Begin Spectral Data<<<<<
178.204	-32.94
178.424	-32.94
178.644	-32.94
178.864	-94.38
179.084	-43.18
179.304	3.93
179.524	20.31
179.744	1.88
179.964	-20.65
180.184	-8.36
180.404	-2.22
180.624	12.12
180.844	-14.51
181.064	-8.36
181.283	14.17
181.503	-37.03
181.723	38.74
181.943	-51.37
182.163	67.41
182.383	-16.55
182.602	16.21
182.822	22.36
183.042	-4.27
183.262	-24.75
183.482	20.31
183.701	22.36
183.921	-51.37
184.141	-30.89
184.361	40.79
184.58	-0.17
184.8	55.12
185.02	-6.31
185.239	59.22
185.459	10.07
185.679	85.84
185.898	-14.51
186.118	69.46
186.338	12.12
186.557	20.31
186.777	34.64
186.997	48.98
187.216	20.31
187.436	38.74
187.655	51.03
187.875	-2.22
188.095	-0.17
188.314	24.4
188.534	104.28
188.753	-16.55
188.973	22.36
189.192	46.93
189.412	40.79
189.631	53.08
189.851	34.64
190.07	48.98
190.29	5.97
190.509	-18.6
190.729	-41.13
190.948	12.12
191.168	38.74
191.387	5.97
191.607	-51.37
191.826	-53.42
192.045	-51.37
192.265	89.94
192.484	34.64
192.704	36.69
192.923	-32.94
193.142	48.98
193.362	96.08
193.581	38.74
193.8	-0.17
194.02	10.07
194.239	51.03
194.458	79.7
194.678	20.31
194.897	104.28
195.116	24.4
195.335	-12.46
195.555	63.32
195.774	-53.42
195.993	-24.75
196.212	-16.55
196.432	26.45
196.651	24.4
196.87	46.93
197.089	22.36
197.308	-16.55
197.528	30.55
197.747	-22.7
197.966	-118.95
198.185	63.32
198.404	-6.31
198.623	14.17
198.842	34.64
199.062	-24.75
199.281	36.69
199.5	48.98
199.719	24.4
199.938	1.88
200.157	75.6
200.376	18.26
200.595	-8.36
200.814	22.36
201.033	-26.79
201.252	22.36
201.471	30.55
201.69	73.56
201.909	26.45
202.128	40.79
202.347	34.64
202.566	42.84
202.785	-57.51
203.004	10.07
203.223	118.61
203.442	34.64
203.661	-28.84
203.879	10.07
204.098	42.84
204.317	20.31
204.536	22.36
204.755	91.99
204.974	1.88
205.193	22.36
205.411	28.5
205.63	61.27
205.849	59.22
206.068	32.6
206.287	-32.94
206.505	42.84
206.724	67.41
206.943	-10.41
207.162	-10.41
207.381	-28.84
207.599	-45.23
207.818	30.55
208.037	18.26
208.255	36.69
208.474	10.07
208.693	-30.89
208.911	-2.22
209.13	34.64
209.349	28.5
209.567	69.46
209.786	53.08
210.005	10.07
210.223	8.02
210.442	-14.51
210.661	77.65
210.879	-2.22
211.098	18.26
211.316	8.02
211.535	116.56
211.753	69.46
211.972	57.17
212.191	-8.36
212.409	81.75
212.628	30.55
212.846	30.55
213.065	104.28
213.283	32.6
213.502	-37.03
213.72	-34.99
213.938	53.08
214.157	30.55
214.375	18.26
214.594	-8.36
214.812	98.13
215.031	-12.46
215.249	36.69
215.467	36.69
215.686	22.36
215.904	79.7
216.122	67.41
216.341	28.5
216.559	18.26
216.778	73.56
216.996	3.93
217.214	57.17
217.432	44.88
217.651	-2.22
217.869	63.32
218.087	44.88
218.306	20.31
218.524	20.31
218.742	-39.08
218.96	24.4
219.179	30.55
219.397	-24.75
219.615	38.74
219.833	51.03
220.051	34.64
220.27	44.88
220.488	73.56
220.706	42.84
220.924	-34.99
221.142	51.03
221.36	34.64
221.578	104.28
221.796	16.21
222.015	-10.41
222.233	30.55
222.451	20.31
222.669	16.21
222.887	26.45
223.105	34.64
223.323	30.55
223.541	-75.95
223.759	28.5
223.977	-39.08
224.195	28.5
224.413	42.84
224.631	48.98
224.849	16.21
225.067	89.94
225.285	3.93
225.503	-0.17
225.721	-12.46
225.939	40.79
226.157	36.69
226.375	46.93
226.592	22.36
226.81	83.8
227.028	55.12
227.246	5.97
227.464	20.31
227.682	20.31
227.9	-47.27
228.117	8.02
228.335	71.51
228.553	24.4
228.771	-2.22
228.989	-65.71
229.206	89.94
229.424	14.17
229.642	24.4
229.86	-32.94
230.077	57.17
230.295	44.88
230.513	61.27
230.731	-12.46
230.948	94.04
231.166	55.12
231.384	-37.03
231.601	5.97
231.819	81.75
232.037	73.56
232.254	16.21
232.472	1.88
232.689	-26.79
232.907	8.02
233.125	61.27
233.342	51.03
233.56	18.26
233.777	44.88
233.995	20.31
234.213	104.28
234.43	26.45
234.648	20.31
234.865	55.12
235.083	79.7
235.3	-43.18
235.518	36.69
235.735	-2.22
235.953	26.45
236.17	-4.27
236.388	32.6
236.605	-57.51
236.822	14.17
237.04	22.36
237.257	22.36
237.475	59.22
237.692	89.94
237.909	-20.65
238.127	38.74
238.344	34.64
238.562	40.79
238.779	-12.46
238.996	32.6
239.214	-22.7
239.431	28.5
239.648	40.79
239.865	10.07
240.083	-2.22
240.3	-2.22
240.517	-6.31
240.735	42.84
240.952	46.93
241.169	-0.17
241.386	-6.31
241.603	16.21
241.821	-14.51
242.038	-0.17
242.255	89.94
242.472	-26.79
242.689	-10.41
242.907	57.17
243.124	59.22
243.341	26.45
243.558	67.41
243.775	38.74
243.992	-45.23
244.209	32.6
244.426	48.98
244.643	32.6
244.86	-34.99
245.078	30.55
245.295	120.66
245.512	53.08
245.729	55.12
245.946	42.84
246.163	20.31
246.38	26.45
246.597	-6.31
246.814	-37.03
247.031	-41.13
247.248	-2.22
247.464	61.27
247.681	-0.17
247.898	18.26
248.115	28.5
248.332	69.46
248.549	53.08
248.766	20.31
248.983	38.74
249.2	-6.31
249.417	-8.36
249.633	-37.03
249.85	48.98
250.067	-73.9
250.284	71.51
250.501	44.88
250.717	30.55
250.934	-24.75
251.151	-4.27
251.368	-18.6
251.585	3.93
251.801	42.84
252.018	-41.13
252.235	63.32
252.451	-20.65
252.668	3.93
252.885	38.74
253.102	73.56
253.318	36.69
253.535	-8.36
253.752	18.26
253.968	-71.85
254.185	40.79
254.401	118.61
254.618	-8.36
254.835	10.07
255.051	-26.79
255.268	30.55
255.484	75.6
255.701	108.37
255.917	18.26
256.134	-8.36
256.351	87.89
256.567	8.02
256.784	-4.27
257	-6.31
257.217	26.45
257.433	98.13
257.65	104.28
257.866	18.26
258.082	75.6
258.299	1.88
258.515	-10.41
258.732	18.26
258.948	85.84
259.165	-8.36
259.381	5.97
259.597	-55.47
259.814	40.79
260.03	22.36
260.246	55.12
260.463	-14.51
260.679	65.36
260.895	-4.27
261.112	40.79
261.328	-41.13
261.544	-45.23
261.761	22.36
261.977	-8.36
262.193	-80.04
262.409	75.6
262.626	-0.17
262.842	34.64
263.058	-14.51
263.274	69.46
263.49	-10.41
263.707	46.93
263.923	36.69
264.139	14.17
264.355	-2.22
264.571	69.46
264.787	53.08
265.004	40.79
265.22	-57.51
265.436	-63.66
265.652	53.08
265.868	-45.23
266.084	-10.41
266.3	48.98
266.516	-32.94
266.732	22.36
266.948	67.41
267.164	26.45
267.38	36.69
267.596	59.22
267.812	53.08
268.028	-0.17
268.244	26.45
268.46	24.4
268.676	40.79
268.892	79.7
269.108	-90.28
269.324	-10.41
269.54	-22.7
269.756	-16.55
269.972	14.17
270.188	1.88
270.403	36.69
270.619	-14.51
270.835	55.12
271.051	-30.89
271.267	14.17
271.483	3.93
271.698	42.84
271.914	46.93
272.13	3.93
272.346	30.55
272.562	-14.51
272.777	102.23
272.993	30.55
273.209	3.93
273.425	59.22
273.64	-16.55
273.856	63.32
274.072	-67.75
274.287	3.93
274.503	61.27
274.719	20.31
274.934	96.08
275.15	8.02
275.366	38.74
275.581	38.74
275.797	22.36
276.012	69.46
276.228	48.98
276.444	16.21
276.659	30.55
276.875	34.64
277.09	26.45
277.306	8.02
277.521	42.84
277.737	-0.17
277.952	-10.41
278.168	10.07
278.383	73.56
278.599	-39.08
278.814	-16.55
279.03	24.4
279.245	46.93
279.461	34.64
279.676	83.8
279.892	-6.31
280.107	12.12
280.322	-2.22
280.538	96.08
280.753	36.69
280.969	44.88
281.184	65.36
281.399	-14.51
281.615	24.4
281.83	-2.22
282.045	42.84
282.26	-28.84
282.476	-30.89
282.691	53.08
282.906	-22.7
283.122	44.88
283.337	16.21
283.552	34.64
283.767	5.97
283.983	30.55
284.198	-2.22
284.413	18.26
284.628	-75.95
284.843	57.17
285.058	53.08
285.274	34.64
285.489	-22.7
285.704	-63.66
285.919	-32.94
286.134	141.14
286.349	63.32
286.564	73.56
286.779	59.22
286.995	34.64
287.21	-32.94
287.425	-6.31
287.64	18.26
287.855	106.32
288.07	38.74
288.285	65.36
288.5	51.03
288.715	110.42
288.93	-20.65
289.145	38.74
289.36	104.28
289.575	-34.99
289.79	-4.27
290.004	42.84
290.219	89.94
290.434	34.64
290.649	-4.27
290.864	18.26
291.079	-8.36
291.294	-30.89
291.509	69.46
291.724	8.02
291.938	-41.13
292.153	38.74
292.368	34.64
292.583	55.12
292.798	106.32
293.012	36.69
293.227	22.36
293.442	-12.46
293.657	18.26
293.871	32.6
294.086	108.37
294.301	85.84
294.516	26.45
294.73	46.93
294.945	1.88
295.16	81.75
295.374	-4.27
295.589	22.36
295.804	-2.22
296.018	59.22
296.233	22.36
296.447	63.32
296.662	-51.37
296.877	55.12
297.091	-4.27
297.306	79.7
297.52	-4.27
297.735	5.97
297.949	3.93
298.164	-53.42
298.378	-0.17
298.593	-2.22
298.807	46.93
299.022	36.69
299.236	53.08
299.451	16.21
299.665	10.07
299.88	69.46
300.094	8.02
300.309	24.4
300.523	22.36
300.737	57.17
300.952	79.7
301.166	69.46
301.381	40.79
301.595	-22.7
301.809	130.9
302.024	8.02
302.238	-12.46
302.452	-30.89
302.667	-8.36
302.881	87.89
303.095	59.22
303.309	30.55
303.524	30.55
303.738	-6.31
303.952	8.02
304.166	91.99
304.381	-32.94
304.595	48.98
304.809	-6.31
305.023	12.12
305.237	18.26
305.452	-12.46
305.666	10.07
305.88	38.74
306.094	51.03
306.308	53.08
306.522	-45.23
306.736	24.4
306.95	65.36
307.164	8.02
307.379	16.21
307.593	85.84
307.807	20.31
308.021	24.4
308.235	69.46
308.449	67.41
308.663	-8.36
308.877	22.36
309.091	-4.27
309.305	-18.6
309.519	30.55
309.733	-0.17
309.947	-30.89
310.161	157.52
310.374	24.4
310.588	63.32
310.802	-2.22
311.016	36.69
311.23	38.74
311.444	-82.09
311.658	10.07
311.872	51.03
312.085	87.89
312.299	61.27
312.513	26.45
312.727	65.36
312.941	22.36
313.154	18.26
313.368	48.98
313.582	32.6
313.796	8.02
314.009	30.55
314.223	30.55
314.437	-16.55
314.651	67.41
314.864	-59.56
315.078	-22.7
315.292	36.69
315.505	3.93
315.719	36.69
315.933	46.93
316.146	14.17
316.36	-10.41
316.573	98.13
316.787	46.93
317.001	20.31
317.214	-2.22
317.428	14.17
317.641	-34.99
317.855	14.17
318.068	77.65
318.282	30.55
318.495	55.12
318.709	77.65
318.922	65.36
319.136	55.12
319.349	10.07
319.563	-30.89
319.776	3.93
319.99	-12.46
320.203	38.74
320.417	-10.41
320.63	5.97
320.843	44.88
321.057	44.88
321.27	24.4
321.483	63.32
321.697	46.93
321.91	-12.46
322.124	122.71
322.337	24.4
322.55	-24.75
322.763	12.12
322.977	38.74
323.19	69.46
323.403	61.27
323.617	14.17
323.83	91.99
324.043	22.36
324.256	44.88
324.469	-8.36
324.683	16.21
324.896	51.03
325.109	26.45
325.322	-55.47
325.535	44.88
325.748	5.97
325.962	-18.6
326.175	46.93
326.388	-8.36
326.601	63.32
326.814	14.17
327.027	-16.55
327.24	77.65
327.453	69.46
327.666	100.18
327.879	-34.99
328.092	44.88
328.305	12.12
328.518	3.93
328.731	59.22
328.944	-26.79
329.157	-14.51
329.37	-8.36
329.583	30.55
329.796	81.75
330.009	-0.17
330.222	61.27
330.435	14.17
330.648	-12.46
330.861	16.21
331.073	32.6
331.286	16.21
331.499	38.74
331.712	-22.7
331.925	59.22
332.138	-16.55
332.35	73.56
332.563	5.97
332.776	71.51
332.989	32.6
333.202	-8.36
333.414	-30.89
333.627	18.26
333.84	-57.51
334.053	38.74
334.265	38.74
334.478	3.93
334.691	-10.41
334.903	14.17
335.116	-24.75
335.329	75.6
335.541	10.07
335.754	30.55
335.966	59.22
336.179	-16.55
336.392	24.4
336.604	-26.79
336.817	14.17
337.029	30.55
337.242	-14.51
337.454	55.12
337.667	-2.22
337.88	59.22
338.092	-45.23
338.305	55.12
338.517	-30.89
338.729	38.74
338.942	48.98
339.154	42.84
339.367	-12.46
339.579	3.93
339.792	10.07
340.004	24.4
340.217	26.45
340.429	40.79
340.641	1.88
340.854	-0.17
341.066	30.55
341.278	77.65
341.491	83.8
341.703	51.03
341.915	1.88
342.128	42.84
342.34	18.26
342.552	87.89
342.764	-24.75
342.977	1.88
343.189	-4.27
343.401	-32.94
343.613	30.55
343.826	-28.84
344.038	79.7
344.25	71.51
344.462	-20.65
344.674	16.21
344.886	24.4
345.099	1.88
345.311	100.18
345.523	87.89
345.735	-12.46
345.947	-16.55
346.159	-14.51
346.371	1.88
346.583	-22.7
346.795	8.02
347.007	-28.84
347.219	106.32
347.431	-55.47
347.643	102.23
347.855	-16.55
348.067	57.17
348.279	26.45
348.491	8.02
348.703	77.65
348.915	98.13
349.127	-2.22
349.339	112.47
349.551	24.4
349.763	40.79
349.975	-26.79
350.187	5.97
350.399	102.23
350.61	30.55
350.822	28.5
351.034	51.03
351.246	22.36
351.458	48.98
351.669	18.26
351.881	69.46
352.093	38.74
352.305	48.98
352.517	67.41
352.728	63.32
352.94	-28.84
353.152	30.55
353.363	20.31
353.575	79.7
353.787	55.12
353.999	77.65
354.21	77.65
354.422	26.45
354.633	-0.17
354.845	73.56
355.057	73.56
355.268	67.41
355.48	57.17
355.692	-0.17
355.903	85.84
356.115	24.4
356.326	-30.89
356.538	69.46
356.749	48.98
356.961	44.88
357.172	5.97
357.384	30.55
357.595	161.62
357.807	10.07
358.018	98.13
358.23	59.22
358.441	51.03
358.653	40.79
358.864	53.08
359.075	-24.75
359.287	-12.46
359.498	106.32
359.709	5.97
359.921	69.46
360.132	5.97
360.344	81.75
360.555	55.12
360.766	53.08
360.977	38.74
361.189	30.55
361.4	14.17
361.611	16.21
361.823	55.12
362.034	118.61
362.245	-0.17
362.456	94.04
362.667	100.18
362.879	104.28
363.09	-26.79
363.301	132.95
363.512	18.26
363.723	-6.31
363.935	36.69
364.146	128.85
364.357	5.97
364.568	12.12
364.779	-16.55
364.99	112.47
365.201	55.12
365.412	100.18
365.623	-0.17
365.834	59.22
366.045	26.45
366.256	22.36
366.467	89.94
366.678	38.74
366.889	75.6
367.1	75.6
367.311	59.22
367.522	30.55
367.733	28.5
367.944	91.99
368.155	16.21
368.366	48.98
368.577	-0.17
368.788	34.64
368.999	-2.22
369.209	24.4
369.42	89.94
369.631	67.41
369.842	34.64
370.053	61.27
370.264	65.36
370.474	118.61
370.685	91.99
370.896	57.17
371.107	83.8
371.317	-2.22
371.528	81.75
371.739	69.46
371.95	63.32
372.16	79.7
372.371	24.4
372.582	3.93
372.792	34.64
373.003	77.65
373.214	10.07
373.424	36.69
373.635	-24.75
373.846	83.8
374.056	48.98
374.267	51.03
374.477	-24.75
374.688	85.84
374.898	57.17
375.109	40.79
375.319	5.97
375.53	-12.46
375.74	26.45
375.951	46.93
376.161	5.97
376.372	14.17
376.582	48.98
376.793	16.21
377.003	-6.31
377.214	18.26
377.424	108.37
377.635	83.8
377.845	-16.55
378.055	-18.6
378.266	1.88
378.476	53.08
378.686	59.22
378.897	57.17
379.107	63.32
379.317	28.5
379.528	1.88
379.738	94.04
379.948	-41.13
380.158	110.42
380.369	30.55
380.579	24.4
380.789	91.99
380.999	-2.22
381.21	71.51
381.42	81.75
381.63	63.32
381.84	73.56
382.05	1.88
382.261	96.08
382.471	79.7
382.681	32.6
382.891	77.65
383.101	73.56
383.311	-30.89
383.521	65.36
383.731	81.75
383.941	79.7
384.151	79.7
384.361	44.88
384.571	53.08
384.781	67.41
384.991	157.52
385.201	46.93
385.411	130.9
385.621	28.5
385.831	65.36
386.041	65.36
386.251	51.03
386.461	91.99
386.671	114.52
386.881	40.79
387.091	149.33
387.301	137.04
387.511	-20.65
387.72	38.74
387.93	34.64
388.14	63.32
388.35	104.28
388.56	73.56
388.769	59.22
388.979	48.98
389.189	59.22
389.399	112.47
389.609	-16.55
389.818	48.98
390.028	75.6
390.238	65.36
390.447	81.75
390.657	73.56
390.867	110.42
391.076	12.12
391.286	57.17
391.496	89.94
391.705	10.07
391.915	1.88
392.125	38.74
392.334	116.56
392.544	75.6
392.753	116.56
392.963	73.56
393.172	69.46
393.382	69.46
393.591	51.03
393.801	-12.46
394.01	69.46
394.22	104.28
394.429	55.12
394.639	69.46
394.848	36.69
395.058	63.32
395.267	122.71
395.477	69.46
395.686	85.84
395.895	141.14
396.105	61.27
396.314	149.33
396.524	112.47
396.733	44.88
396.942	98.13
397.152	96.08
397.361	71.51
397.57	59.22
397.78	118.61
397.989	89.94
398.198	77.65
398.407	48.98
398.617	104.28
398.826	91.99
399.035	100.18
399.244	83.8
399.453	163.67
399.663	42.84
399.872	178
400.081	51.03
400.29	116.56
400.499	81.75
400.708	145.24
400.917	130.9
401.127	87.89
401.336	128.85
401.545	118.61
401.754	112.47
401.963	108.37
402.172	112.47
402.381	132.95
402.59	122.71
402.799	114.52
403.008	65.36
403.217	116.56
403.426	124.76
403.635	110.42
403.844	137.04
404.053	110.42
404.262	116.56
404.471	196.43
404.68	114.52
404.888	237.39
405.097	208.72
405.306	126.8
405.515	132.95
405.724	143.19
405.933	169.81
406.142	184.15
406.35	128.85
406.559	153.43
406.768	186.19
406.977	249.68
407.185	198.48
407.394	259.92
407.603	116.56
407.812	249.68
408.02	282.45
408.229	190.29
408.438	249.68
408.646	223.06
408.855	212.82
409.064	259.92
409.272	255.83
409.481	282.45
409.69	294.74
409.898	284.5
410.107	319.31
410.315	304.98
410.524	268.11
410.733	364.37
410.941	329.55
411.15	307.02
411.358	354.13
411.567	399.18
411.775	415.57
411.984	448.33
412.192	491.34
412.401	415.57
412.609	487.25
412.818	454.48
413.026	499.53
413.234	536.4
413.443	544.59
413.651	507.73
413.86	575.31
414.068	610.12
414.276	663.37
414.485	505.68
414.693	661.32
414.901	698.19
415.11	692.04
415.318	759.63
415.526	735.05
415.734	864.07
415.943	845.64
416.151	866.12
416.359	814.92
416.567	859.98
416.776	1009.48
416.984	966.47
417.192	972.61
417.4	954.18
417.608	1046.34
417.817	1075.01
418.025	1023.81
418.233	1208.13
418.441	1214.27
418.649	1267.52
418.857	1351.49
419.065	1361.73
419.273	1316.67
419.481	1357.63
419.689	1441.6
419.897	1513.28
420.105	1636.16
420.313	1560.38
420.521	1652.54
420.729	1699.64
420.937	1759.03
421.145	1816.38
421.353	1953.59
421.561	2015.03
421.769	2080.57
421.977	2133.81
422.185	2094.9
422.393	2144.05
422.601	2391.86
422.809	2398
423.017	2371.38
423.224	2400.05
423.432	2465.58
423.64	2645.8
423.848	2873.13
424.056	2760.49
424.263	2926.38
424.471	2950.95
424.679	2895.66
424.887	3272.48
425.094	3231.52
425.302	3321.63
425.51	3350.31
425.718	3495.71
425.925	3612.45
426.133	3675.93
426.341	3751.71
426.548	4003.61
426.756	4028.18
426.964	4044.57
427.171	4312.85
427.379	4558.61
427.586	4519.7
427.794	4597.52
428.001	4986.63
428.209	4902.67
428.417	4962.06
428.624	5304.07
428.832	5390.08
429.039	5279.49
429.247	5328.64
429.454	5840.64
429.662	6145.78
429.869	5990.14
430.076	6321.91
430.284	6033.15
430.491	6237.94
430.699	6600.43
430.906	6625.01
431.114	6665.97
431.321	7026.41
431.528	7239.4
431.736	7528.16
431.943	7997.15
432.15	7835.36
432.358	7765.73
432.565	8005.34
432.772	8306.39
432.979	8775.38
433.187	8644.31
433.394	8894.16
433.601	9500.36
433.808	9612.99
434.016	9567.94
434.223	9668.29
434.43	10401.46
434.637	10251.96
434.844	10593.97
435.052	10845.87
435.259	11052.72
435.466	10935.98
435.673	10991.28
435.88	11783.84
436.087	12084.89
436.294	12271.26
436.501	12271.26
436.708	12441.24
436.915	12801.68
437.122	13344.39
437.329	13364.87
437.537	13516.42
437.743	13840
437.95	13631.11
438.157	14278.27
438.364	15021.68
438.571	14792.31
438.778	14968.43
438.985	16621.14
439.192	15689.32
439.399	15965.79
439.606	15859.3
439.813	16674.39
440.02	17720.9
440.227	17370.7
440.433	17469
440.64	17985.09
440.847	17870.4
441.054	18017.86
441.261	19187.25
441.467	19224.11
441.674	19627.56
441.881	20413.98
442.088	20370.97
442.294	20045.35
442.501	20549.15
442.708	20923.93
442.914	21909
443.121	22914.55
443.328	22081.03
443.534	23516.65
443.741	23115.25
443.948	22429.18
444.154	24509.92
444.361	24487.39
444.568	24262.12
444.774	24440.29
444.981	24712.67
445.187	25515.47
445.394	26607.04
445.6	26064.33
445.807	28769.69
446.013	27229.62
446.22	27907.5
446.426	28954.01
446.633	29259.16
446.839	30451.08
447.046	29070.75
447.252	30365.06
447.459	30659.97
447.665	30512.52
447.871	31937.9
448.078	33133.92
448.284	31966.57
448.491	32341.35
448.697	33574.23
448.903	34362.7
449.11	34557.25
449.316	33893.71
449.522	34542.92
449.728	35265.85
449.935	35595.57
450.141	35794.23
450.347	36551.98
450.553	35269.95
450.76	35728.69
450.966	37000.48
451.172	36433.19
451.378	37465.37
451.584	36627.75
451.791	37580.06
451.997	37352.73
452.203	38296.84
452.409	38090
452.615	38118.67
452.821	36361.51
453.027	36029.74
453.233	37725.46
453.44	36726.05
453.646	37166.37
453.852	37154.08
454.058	37793.04
454.264	36402.47
454.47	37242.14
454.676	36562.22
454.882	37385.5
455.088	34288.97
455.294	34858.31
455.5	35622.2
455.705	35876.15
455.911	34266.44
456.117	33283.42
456.323	33385.82
456.529	31599.99
456.735	33252.7
456.941	32175.47
457.147	31448.44
457.352	31010.17
457.558	30027.15
457.764	30186.89
457.97	29384.08
458.176	29189.53
458.381	29109.66
458.587	27829.68
458.793	27682.22
458.999	26340.8
459.204	28126.63
459.41	27108.79
459.616	25603.53
459.821	25722.32
460.027	25478.61
460.233	24665.56
460.438	23594.48
460.644	23932.39
460.85	22812.15
461.055	22498.81
461.261	22443.52
461.466	20911.64
461.672	20241.95
461.878	21495.31
462.083	20155.94
462.289	19893.8
462.494	19349.04
462.7	18863.67
462.905	18120.26
463.111	18685.5
463.316	19246.64
463.522	18669.11
463.727	18615.87
463.932	18476.6
464.138	18630.2
464.343	18462.27
464.549	17946.18
464.754	18517.56
464.959	18230.85
465.165	18243.13
465.37	17274.45
465.575	16809.56
465.781	17544.78
465.986	17768.01
466.191	17104.46
466.397	16752.21
466.602	16008.8
466.807	16653.91
467.012	16895.57
