Data from USB4F104151__51__11-51-59-472.txt Node

Date: Fri Mar 14 11:51:59 EDT 2025
User: louis
Spectrometer: USB4F10415
Trigger mode: 4
Integration Time (sec): 2.000000E-2
Scans to average: 1
Electric dark correction enabled: true
Nonlinearity correction enabled: false
Boxcar width: 0
XAxis mode: Wavelengths
Number of Pixels in Spectrum: 3648
>>>>>Begin Spectral Data<<<<<
178.204	-106.32
178.424	-106.32
178.644	-106.32
178.864	-118.61
179.084	-44.88
179.304	-42.84
179.524	-26.45
179.744	6.31
179.964	34.99
180.184	30.89
180.404	-1.88
180.624	-12.12
180.844	43.18
181.064	-32.6
181.283	43.18
181.503	-10.07
181.723	-32.6
181.943	-44.88
182.163	47.27
182.383	4.27
182.602	10.41
182.822	-14.17
183.042	47.27
183.262	8.36
183.482	6.31
183.701	-18.26
183.921	75.95
184.141	-18.26
184.361	4.27
184.58	-42.84
184.8	-5.97
185.02	10.41
185.239	-3.93
185.459	-30.55
185.679	-22.36
185.898	-10.07
186.118	39.08
186.338	-22.36
186.557	18.6
186.777	-40.79
186.997	-20.31
187.216	98.47
187.436	8.36
187.655	0.17
187.875	-1.88
188.095	51.37
188.314	39.08
188.534	-3.93
188.753	-16.21
188.973	-3.93
189.192	41.13
189.412	16.55
189.631	57.51
189.851	2.22
190.07	41.13
190.29	8.36
190.509	-1.88
190.729	-28.5
190.948	2.22
191.168	116.9
191.387	106.67
191.607	63.66
191.826	-14.17
192.045	-10.07
192.265	-30.55
192.484	10.41
192.704	-8.02
192.923	-24.4
193.142	77.99
193.362	26.79
193.581	112.81
193.8	51.37
194.02	73.9
194.239	20.65
194.458	-18.26
194.678	102.57
194.897	-20.31
195.116	-5.97
195.335	43.18
195.555	34.99
195.774	26.79
195.993	-1.88
196.212	73.9
196.432	51.37
196.651	110.76
196.87	4.27
197.089	34.99
197.308	18.6
197.528	63.66
197.747	4.27
197.966	-24.4
198.185	12.46
198.404	26.79
198.623	39.08
198.842	73.9
199.062	-26.45
199.281	71.85
199.5	-1.88
199.719	71.85
199.938	-22.36
200.157	20.65
200.376	-5.97
200.595	49.32
200.814	63.66
201.033	-20.31
201.252	106.67
201.471	28.84
201.69	-3.93
201.909	104.62
202.128	32.94
202.347	14.51
202.566	4.27
202.785	-26.45
203.004	53.42
203.223	80.04
203.442	51.37
203.661	4.27
203.879	-28.5
204.098	53.42
204.317	-24.4
204.536	67.75
204.755	12.46
204.974	-12.12
205.193	4.27
205.411	55.47
205.63	20.65
205.849	73.9
206.068	24.75
206.287	-3.93
206.505	92.33
206.724	10.41
206.943	14.51
207.162	24.75
207.381	-30.55
207.599	-28.5
207.818	43.18
208.037	-71.51
208.255	-32.6
208.474	65.71
208.693	51.37
208.911	-18.26
209.13	-8.02
209.349	-3.93
209.567	0.17
209.786	71.85
210.005	65.71
210.223	26.79
210.442	-48.98
210.661	26.79
210.879	26.79
211.098	2.22
211.316	4.27
211.535	69.8
211.753	-75.6
211.972	18.6
212.191	59.56
212.409	47.27
212.628	-28.5
212.846	10.41
213.065	-5.97
213.283	-16.21
213.502	41.13
213.72	-8.02
213.938	28.84
214.157	30.89
214.375	12.46
214.594	-10.07
214.812	57.51
215.031	22.7
215.249	10.41
215.467	10.41
215.686	0.17
215.904	-3.93
216.122	43.18
216.341	-18.26
216.559	86.19
216.778	34.99
216.996	2.22
217.214	4.27
217.432	-57.17
217.651	43.18
217.869	-14.17
218.087	-1.88
218.306	14.51
218.524	30.89
218.742	22.7
218.96	47.27
219.179	51.37
219.397	59.56
219.615	110.76
219.833	43.18
220.051	6.31
220.27	2.22
220.488	16.55
220.706	-30.55
220.924	-1.88
221.142	-22.36
221.36	28.84
221.578	-1.88
221.796	51.37
222.015	-16.21
222.233	-8.02
222.451	32.94
222.669	16.55
222.887	18.6
223.105	8.36
223.323	-26.45
223.541	32.94
223.759	28.84
223.977	-28.5
224.195	80.04
224.413	34.99
224.631	92.33
224.849	88.23
225.067	75.95
225.285	-22.36
225.503	69.8
225.721	2.22
225.939	4.27
226.157	4.27
226.375	147.62
226.592	-59.22
226.81	-14.17
227.028	30.89
227.246	41.13
227.464	14.51
227.682	26.79
227.9	-34.64
228.117	47.27
228.335	0.17
228.553	-8.02
228.771	-1.88
228.989	14.51
229.206	-5.97
229.424	-22.36
229.642	47.27
229.86	-28.5
230.077	77.99
230.295	112.81
230.513	75.95
230.731	55.47
230.948	28.84
231.166	67.75
231.384	-30.55
231.601	-3.93
231.819	-8.02
232.037	14.51
232.254	-22.36
232.472	-28.5
232.689	24.75
232.907	-1.88
233.125	71.85
233.342	41.13
233.56	63.66
233.777	18.6
233.995	71.85
234.213	-14.17
234.43	57.51
234.648	20.65
234.865	55.47
235.083	37.03
235.3	28.84
235.518	4.27
235.735	-8.02
235.953	73.9
236.17	-14.17
236.388	28.84
236.605	116.9
236.822	-24.4
237.04	24.75
237.257	22.7
237.475	-40.79
237.692	51.37
237.909	8.36
238.127	39.08
238.344	-46.93
238.562	-1.88
238.779	-71.51
238.996	45.23
239.214	0.17
239.431	71.85
239.648	22.7
239.865	14.51
240.083	41.13
240.3	63.66
240.517	-85.84
240.735	20.65
240.952	98.47
241.169	106.67
241.386	34.99
241.603	-10.07
241.821	-30.55
242.038	-8.02
242.255	-26.45
242.472	28.84
242.689	-18.26
242.907	67.75
243.124	2.22
243.341	18.6
243.558	-38.74
243.775	-38.74
243.992	34.99
244.209	-34.64
244.426	69.8
244.643	69.8
244.86	51.37
245.078	16.55
245.295	2.22
245.512	24.75
245.729	-10.07
245.946	12.46
246.163	69.8
246.38	84.14
246.597	55.47
246.814	-3.93
247.031	-18.26
247.248	32.94
247.464	88.23
247.681	-28.5
247.898	24.75
248.115	30.89
248.332	26.79
248.549	6.31
248.766	4.27
248.983	32.94
249.2	98.47
249.417	10.41
249.633	-38.74
249.85	37.03
250.067	-18.26
250.284	-69.46
250.501	-3.93
250.717	-20.31
250.934	-8.02
251.151	-12.12
251.368	45.23
251.585	45.23
251.801	32.94
252.018	-30.55
252.235	-1.88
252.451	16.55
252.668	4.27
252.885	75.95
253.102	71.85
253.318	39.08
253.535	-20.31
253.752	-36.69
253.968	39.08
254.185	18.6
254.401	106.67
254.618	116.9
254.835	-10.07
255.051	-10.07
255.268	14.51
255.484	-12.12
255.701	20.65
255.917	8.36
256.134	10.41
256.351	14.51
256.567	-34.64
256.784	34.99
257	-51.03
257.217	32.94
257.433	43.18
257.65	-10.07
257.866	8.36
258.082	24.75
258.299	12.46
258.515	34.99
258.732	10.41
258.948	18.6
259.165	-12.12
259.381	43.18
259.597	-3.93
259.814	8.36
260.03	-5.97
260.246	16.55
260.463	6.31
260.679	63.66
260.895	4.27
261.112	37.03
261.328	-65.36
261.544	-40.79
261.761	98.47
261.977	12.46
262.193	-8.02
262.409	69.8
262.626	14.51
262.842	28.84
263.058	63.66
263.274	-12.12
263.49	8.36
263.707	32.94
263.923	-16.21
264.139	0.17
264.355	-14.17
264.571	22.7
264.787	-24.4
265.004	8.36
265.22	32.94
265.436	2.22
265.652	-14.17
265.868	10.41
266.084	53.42
266.3	-14.17
266.516	-3.93
266.732	53.42
266.948	57.51
267.164	-10.07
267.38	55.47
267.596	39.08
267.812	100.52
268.028	71.85
268.244	88.23
268.46	63.66
268.676	-34.64
268.892	28.84
269.108	4.27
269.324	-36.69
269.54	-46.93
269.756	28.84
269.972	30.89
270.188	-20.31
270.403	0.17
270.619	2.22
270.835	102.57
271.051	-1.88
271.267	49.32
271.483	67.75
271.698	-5.97
271.914	-3.93
272.13	59.56
272.346	4.27
272.562	47.27
272.777	63.66
272.993	22.7
273.209	-5.97
273.425	63.66
273.64	28.84
273.856	-1.88
274.072	-46.93
274.287	-36.69
274.503	22.7
274.719	151.72
274.934	37.03
275.15	6.31
275.366	32.94
275.581	-3.93
275.797	125.1
276.012	59.56
276.228	41.13
276.444	10.41
276.659	61.61
276.875	-34.64
277.09	39.08
277.306	55.47
277.521	20.65
277.737	49.32
277.952	20.65
278.168	30.89
278.383	39.08
278.599	24.75
278.814	32.94
279.03	-30.55
279.245	143.53
279.461	30.89
279.676	10.41
279.892	55.47
280.107	18.6
280.322	8.36
280.538	45.23
280.753	34.99
280.969	71.85
281.184	-32.6
281.399	41.13
281.615	-28.5
281.83	71.85
282.045	24.75
282.26	53.42
282.476	4.27
282.691	69.8
282.906	34.99
283.122	28.84
283.337	-69.46
283.552	59.56
283.767	90.28
283.983	59.56
284.198	-3.93
284.413	-1.88
284.628	-89.94
284.843	26.79
285.058	69.8
285.274	6.31
285.489	26.79
285.704	-5.97
285.919	10.41
286.134	-34.64
286.349	16.55
286.564	6.31
286.779	30.89
286.995	14.51
287.21	-40.79
287.425	22.7
287.64	37.03
287.855	41.13
288.07	-10.07
288.285	24.75
288.5	53.42
288.715	104.62
288.93	43.18
289.145	-38.74
289.36	73.9
289.575	24.75
289.79	112.81
290.004	43.18
290.219	147.62
290.434	47.27
290.649	80.04
290.864	-30.55
291.079	-1.88
291.294	-18.26
291.509	18.6
291.724	14.51
291.938	34.99
292.153	90.28
292.368	-65.36
292.583	-30.55
292.798	71.85
293.012	18.6
293.227	45.23
293.442	14.51
293.657	84.14
293.871	30.89
294.086	22.7
294.301	104.62
294.516	16.55
294.73	84.14
294.945	-14.17
295.16	0.17
295.374	135.34
295.589	71.85
295.804	69.8
296.018	-5.97
296.233	28.84
296.447	-8.02
296.662	20.65
296.877	30.89
297.091	30.89
297.306	39.08
297.52	32.94
297.735	8.36
297.949	49.32
298.164	-5.97
298.378	6.31
298.593	61.61
298.807	67.75
299.022	37.03
299.236	73.9
299.451	-28.5
299.665	51.37
299.88	32.94
300.094	-8.02
300.309	8.36
300.523	22.7
300.737	-16.21
300.952	77.99
301.166	71.85
301.381	-18.26
301.595	-1.88
301.809	30.89
302.024	92.33
302.238	49.32
302.452	37.03
302.667	-32.6
302.881	45.23
303.095	41.13
303.309	51.37
303.524	55.47
303.738	4.27
303.952	16.55
304.166	32.94
304.381	-94.04
304.595	41.13
304.809	32.94
305.023	80.04
305.237	6.31
305.452	-10.07
305.666	57.51
305.88	69.8
306.094	-16.21
306.308	129.19
306.522	77.99
306.736	6.31
306.95	104.62
307.164	63.66
307.379	14.51
307.593	57.51
307.807	-3.93
308.021	16.55
308.235	-30.55
308.449	14.51
308.663	-34.64
308.877	26.79
309.091	55.47
309.305	43.18
309.519	2.22
309.733	47.27
309.947	-30.55
310.161	47.27
310.374	65.71
310.588	-42.84
310.802	65.71
311.016	65.71
311.23	53.42
311.444	28.84
311.658	20.65
311.872	28.84
312.085	47.27
312.299	86.19
312.513	28.84
312.727	94.38
312.941	-24.4
313.154	59.56
313.368	51.37
313.582	28.84
313.796	30.89
314.009	12.46
314.223	80.04
314.437	43.18
314.651	-32.6
314.864	34.99
315.078	16.55
315.292	32.94
315.505	30.89
315.719	-3.93
315.933	22.7
316.146	59.56
316.36	20.65
316.573	71.85
316.787	-14.17
317.001	59.56
317.214	8.36
317.428	-1.88
317.641	-24.4
317.855	-18.26
318.068	57.51
318.282	92.33
318.495	43.18
318.709	69.8
318.922	77.99
319.136	67.75
319.349	53.42
319.563	-24.4
319.776	53.42
319.99	45.23
320.203	55.47
320.417	20.65
320.63	32.94
320.843	-3.93
321.057	-8.02
321.27	59.56
321.483	14.51
321.697	-3.93
321.91	47.27
322.124	41.13
322.337	57.51
322.55	-12.12
322.763	41.13
322.977	77.99
323.19	-22.36
323.403	51.37
323.617	-40.79
323.83	37.03
324.043	57.51
324.256	67.75
324.469	37.03
324.683	34.99
324.896	102.57
325.109	26.79
325.322	-53.08
325.535	2.22
325.748	8.36
325.962	-30.55
326.175	26.79
326.388	-10.07
326.601	-8.02
326.814	14.51
327.027	18.6
327.24	82.09
327.453	-1.88
327.666	106.67
327.879	65.71
328.092	63.66
328.305	65.71
328.518	-1.88
328.731	53.42
328.944	106.67
329.157	10.41
329.37	45.23
329.583	43.18
329.796	104.62
330.009	30.89
330.222	104.62
330.435	61.61
330.648	-16.21
330.861	-12.12
331.073	43.18
331.286	32.94
331.499	18.6
331.712	125.1
331.925	41.13
332.138	22.7
332.35	80.04
332.563	51.37
332.776	86.19
332.989	-20.31
333.202	34.99
333.414	10.41
333.627	57.51
333.84	49.32
334.053	39.08
334.265	-3.93
334.478	-20.31
334.691	110.76
334.903	24.75
335.116	2.22
335.329	24.75
335.541	67.75
335.754	90.28
335.966	-57.17
336.179	114.86
336.392	37.03
336.604	24.75
336.817	10.41
337.029	39.08
337.242	34.99
337.454	24.75
337.667	65.71
337.88	84.14
338.092	-8.02
338.305	69.8
338.517	14.51
338.729	45.23
338.942	61.61
339.154	8.36
339.367	88.23
339.579	-24.4
339.792	-16.21
340.004	-5.97
340.217	67.75
340.429	45.23
340.641	65.71
340.854	-16.21
341.066	-24.4
341.278	41.13
341.491	71.85
341.703	75.95
341.915	55.47
342.128	94.38
342.34	61.61
342.552	96.43
342.764	8.36
342.977	30.89
343.189	67.75
343.401	20.65
343.613	-40.79
343.826	6.31
344.038	43.18
344.25	28.84
344.462	43.18
344.674	55.47
344.886	32.94
345.099	8.36
345.311	-1.88
345.523	77.99
345.735	34.99
345.947	26.79
346.159	63.66
346.371	92.33
346.583	8.36
346.795	45.23
347.007	34.99
347.219	39.08
347.431	49.32
347.643	51.37
347.855	43.18
348.067	71.85
348.279	-63.32
348.491	39.08
348.703	28.84
348.915	2.22
349.127	80.04
349.339	22.7
349.551	14.51
349.763	80.04
349.975	39.08
350.187	32.94
350.399	26.79
350.61	34.99
350.822	37.03
351.034	63.66
351.246	-8.02
351.458	116.9
351.669	55.47
351.881	82.09
352.093	110.76
352.305	32.94
352.517	2.22
352.728	57.51
352.94	45.23
353.152	37.03
353.363	63.66
353.575	47.27
353.787	73.9
353.999	69.8
354.21	51.37
354.422	28.84
354.633	10.41
354.845	-71.51
355.057	34.99
355.268	12.46
355.48	10.41
355.692	32.94
355.903	86.19
356.115	16.55
356.326	8.36
356.538	73.9
356.749	86.19
356.961	86.19
357.172	65.71
357.384	43.18
357.595	45.23
357.807	88.23
358.018	57.51
358.23	12.46
358.441	92.33
358.653	32.94
358.864	45.23
359.075	45.23
359.287	-20.31
359.498	-3.93
359.709	96.43
359.921	20.65
360.132	0.17
360.344	2.22
360.555	30.89
360.766	-3.93
360.977	73.9
361.189	51.37
361.4	20.65
361.611	131.24
361.823	-8.02
362.034	43.18
362.245	4.27
362.456	43.18
362.667	32.94
362.879	-1.88
363.09	37.03
363.301	67.75
363.512	80.04
363.723	86.19
363.935	-8.02
364.146	34.99
364.357	45.23
364.568	45.23
364.779	-1.88
364.99	112.81
365.201	-63.32
365.412	63.66
365.623	-5.97
365.834	65.71
366.045	26.79
366.256	55.47
366.467	53.42
366.678	34.99
366.889	20.65
367.1	-36.69
367.311	110.76
367.522	-5.97
367.733	28.84
367.944	37.03
368.155	-18.26
368.366	0.17
368.577	110.76
368.788	39.08
368.999	32.94
369.209	-51.03
369.42	96.43
369.631	57.51
369.842	73.9
370.053	57.51
370.264	77.99
370.474	41.13
370.685	65.71
370.896	71.85
371.107	75.95
371.317	73.9
371.528	-51.03
371.739	106.67
371.95	69.8
372.16	43.18
372.371	18.6
372.582	45.23
372.792	49.32
373.003	57.51
373.214	34.99
373.424	102.57
373.635	26.79
373.846	59.56
374.056	-20.31
374.267	-20.31
374.477	24.75
374.688	14.51
374.898	55.47
375.109	59.56
375.319	-42.84
375.53	71.85
375.74	26.79
375.951	39.08
376.161	20.65
376.372	82.09
376.582	-40.79
376.793	37.03
377.003	45.23
377.214	43.18
377.424	18.6
377.635	30.89
377.845	-22.36
378.055	47.27
378.266	37.03
378.476	67.75
378.686	-14.17
378.897	18.6
379.107	22.7
379.317	102.57
379.528	59.56
379.738	75.95
379.948	-63.32
380.158	45.23
380.369	-10.07
380.579	59.56
380.789	32.94
380.999	100.52
381.21	-5.97
381.42	86.19
381.63	2.22
381.84	28.84
382.05	24.75
382.261	45.23
382.471	-30.55
382.681	22.7
382.891	53.42
383.101	55.47
383.311	-3.93
383.521	-8.02
383.731	86.19
383.941	102.57
384.151	61.61
384.361	77.99
384.571	69.8
384.781	12.46
384.991	73.9
385.201	14.51
385.411	65.71
385.621	71.85
385.831	49.32
386.041	45.23
386.251	10.41
386.461	104.62
386.671	-5.97
386.881	61.61
387.091	8.36
387.301	20.65
387.511	133.29
387.72	6.31
387.93	53.42
388.14	45.23
388.35	49.32
388.56	88.23
388.769	98.47
388.979	10.41
389.189	86.19
389.399	57.51
389.609	32.94
389.818	118.95
390.028	28.84
390.238	49.32
390.447	106.67
390.657	32.94
390.867	63.66
391.076	28.84
391.286	67.75
391.496	75.95
391.705	77.99
391.915	41.13
392.125	98.47
392.334	108.71
392.544	59.56
392.753	39.08
392.963	41.13
393.172	61.61
393.382	100.52
393.591	123.05
393.801	37.03
394.01	59.56
394.22	80.04
394.429	53.42
394.639	47.27
394.848	67.75
395.058	75.95
395.267	65.71
395.477	65.71
395.686	104.62
395.895	77.99
396.105	69.8
396.314	86.19
396.524	43.18
396.733	88.23
396.942	49.32
397.152	106.67
397.361	75.95
397.57	116.9
397.78	98.47
397.989	73.9
398.198	102.57
398.407	43.18
398.617	127.14
398.826	69.8
399.035	86.19
399.244	121
399.453	104.62
399.663	102.57
399.872	55.47
400.081	2.22
400.29	90.28
400.499	67.75
400.708	94.38
400.917	73.9
401.127	59.56
401.336	88.23
401.545	112.81
401.754	147.62
401.963	75.95
402.172	118.95
402.381	123.05
402.59	90.28
402.799	110.76
403.008	139.43
403.217	90.28
403.426	125.1
403.635	135.34
403.844	176.3
404.053	100.52
404.262	100.52
404.471	110.76
404.68	53.42
404.888	110.76
405.097	172.2
405.306	106.67
405.515	149.67
405.724	123.05
405.933	174.25
406.142	164.01
406.35	127.14
406.559	75.95
406.768	135.34
406.977	227.5
407.185	192.68
407.394	127.14
407.603	202.92
407.812	202.92
408.02	184.49
408.229	225.45
408.438	166.06
408.646	215.21
408.855	229.54
409.064	237.74
409.272	219.3
409.481	200.87
409.69	219.3
409.898	284.84
410.107	254.12
410.315	258.21
410.524	264.36
410.733	303.27
410.941	260.26
411.15	207.02
411.358	313.51
411.567	420
411.775	317.61
411.984	358.57
412.192	352.42
412.401	374.95
412.609	493.73
412.818	409.76
413.026	467.11
413.234	530.59
413.443	520.35
413.651	456.87
413.86	555.17
414.068	573.6
414.276	551.07
414.485	589.99
414.693	553.12
414.901	651.42
415.11	626.85
415.318	583.84
415.526	555.17
415.734	708.77
415.943	647.33
416.151	729.25
416.359	676
416.567	719.01
416.776	768.16
416.984	895.13
417.192	854.17
417.4	856.22
417.608	784.54
417.817	864.41
418.025	991.39
418.233	1120.41
418.441	993.44
418.649	1013.92
418.857	1138.84
419.065	1093.79
419.273	1118.36
419.481	1175.7
419.689	1181.85
419.897	1292.44
420.105	1239.19
420.313	1353.88
420.521	1384.6
420.729	1454.23
420.937	1495.19
421.145	1480.85
421.353	1544.34
421.561	1724.56
421.769	1775.76
421.977	1818.77
422.185	1761.42
422.393	1794.19
422.601	1925.26
422.809	2035.85
423.017	1941.65
423.224	2119.82
423.432	2177.16
423.64	2168.97
423.848	2367.62
424.056	2406.53
424.263	2525.32
424.471	2558.08
424.679	2515.08
424.887	2678.91
425.094	2777.22
425.302	2705.54
425.51	2910.33
425.718	2977.92
425.925	2902.14
426.133	3125.37
426.341	3252.35
426.548	3373.18
426.756	3586.16
426.964	3645.56
427.171	3799.15
427.379	3780.72
427.586	3850.35
427.794	3917.93
428.001	4157.55
428.209	4239.47
428.417	4135.02
428.624	4477.03
428.832	4583.52
429.039	4614.24
429.247	4546.66
429.454	4948.06
429.662	5285.98
429.869	4853.86
430.076	5486.68
430.284	5210.2
430.491	5419.1
430.699	5640.28
430.906	5845.07
431.114	5902.42
431.321	5943.38
431.528	6062.16
431.736	6426.7
431.943	6785.09
432.15	6459.46
432.358	6570.05
432.565	7002.18
432.772	6957.12
432.979	7346.23
433.187	7510.07
433.394	7387.19
433.601	8181.81
433.808	8124.46
434.016	7993.39
434.223	8511.53
434.43	8861.73
434.637	8638.5
434.844	9144.35
435.052	9500.7
435.259	9369.63
435.466	9463.83
435.673	9189.41
435.88	9848.85
436.087	10186.77
436.294	10479.63
436.501	10364.94
436.708	10479.63
436.915	10860.55
437.122	11321.34
437.329	11190.27
437.537	11485.18
437.743	11747.32
437.95	11702.26
438.157	12074.99
438.364	12720.1
438.571	12498.92
438.778	12795.88
438.985	13926.36
439.192	13426.65
439.399	13768.66
439.606	13529.05
439.813	14413.77
440.02	15296.45
440.227	15085.51
440.433	14755.79
440.64	15476.67
440.847	14946.25
441.054	15437.76
441.261	16576.43
441.467	16170.93
441.674	16635.82
441.881	17342.37
442.088	17311.65
442.294	17182.63
442.501	17561.5
442.708	18057.11
442.914	18409.36
443.121	19529.6
443.328	18831.24
443.534	20385.65
443.741	19664.77
443.948	18988.94
444.154	20922.22
444.361	20805.49
444.568	20768.62
444.774	21004.14
444.981	21241.7
445.187	21663.58
445.394	22845.26
445.6	22368.09
445.807	24330.04
446.013	23564.1
446.22	23809.86
446.426	24485.69
446.633	25222.95
446.839	25763.62
447.046	24753.97
447.252	26427.16
447.459	26296.09
447.665	26038.05
447.871	27586.31
448.078	28509.94
448.284	27113.23
448.491	27606.79
448.697	28767.99
448.903	29427.43
449.11	29466.35
449.316	29155.05
449.522	29169.39
449.728	30602.97
449.935	30594.78
450.141	30686.93
450.347	31030.99
450.553	30291.68
450.76	30674.65
450.966	31739.59
451.172	31379.15
451.378	31878.85
451.584	31383.24
451.791	31919.81
451.997	32065.22
452.203	32702.14
452.409	32284.35
452.615	32560.83
452.821	31188.69
453.027	31067.86
453.233	32546.49
453.44	31237.84
453.646	31663.82
453.852	31893.19
454.058	32313.02
454.264	31624.9
454.47	32116.42
454.676	31180.49
454.882	32331.45
455.088	29542.12
455.294	29648.61
455.5	30449.37
455.705	30736.09
455.911	29503.21
456.117	28831.47
456.323	28432.12
456.529	26939.15
456.735	28096.25
456.941	27514.63
457.147	26890
457.352	26261.27
457.558	25952.03
457.764	26064.67
457.97	25511.72
458.176	24788.78
458.381	24903.47
458.587	23703.36
458.793	23805.76
458.999	22318.93
459.204	24198.97
459.41	23111.5
459.616	21704.54
459.821	21657.44
460.027	21614.43
460.233	21208.94
460.438	20313.97
460.644	20483.95
460.85	19496.83
461.055	19013.51
461.261	18990.98
461.466	17790.88
461.672	17117.09
461.878	18554.77
462.083	16865.19
462.289	16793.51
462.494	16639.92
462.7	15804.35
462.905	15497.15
463.111	16207.8
463.316	16009.14
463.522	15849.4
463.727	16129.97
463.932	15779.77
464.138	15554.49
464.343	15863.74
464.549	15153.09
464.754	15759.29
464.959	15783.87
465.165	15417.28
465.37	14743.5
465.575	14346.19
465.781	15220.67
465.986	15075.27
466.191	14639.05
466.397	14260.18
466.602	13402.08
466.807	14135.25
467.012	14208.98
467.218	14243.79
467.423	13926.36
