Data from USB4F104151__2__11-51-01-832.txt Node

Date: Fri Mar 14 11:51:01 EDT 2025
User: louis
Spectrometer: USB4F10415
Trigger mode: 4
Integration Time (sec): 2.000000E-2
Scans to average: 1
Electric dark correction enabled: true
Nonlinearity correction enabled: false
Boxcar width: 0
XAxis mode: Wavelengths
Number of Pixels in Spectrum: 3648
>>>>>Begin Spectral Data<<<<<
178.204	-115.88
178.424	-115.88
178.644	-115.88
178.864	-97.45
179.084	-70.83
179.304	33.62
179.524	-70.83
179.744	35.67
179.964	101.2
180.184	37.72
180.404	-74.92
180.624	-36.01
180.844	33.62
181.064	-13.48
181.283	-15.53
181.503	-58.54
181.723	27.48
181.943	19.29
182.163	-7.34
182.383	-21.67
182.602	43.86
182.822	7
183.042	-15.53
183.262	9.05
183.482	-23.72
183.701	-27.82
183.921	-29.87
184.141	-7.34
184.361	-13.48
184.58	13.14
184.8	-1.19
185.02	107.35
185.239	60.24
185.459	-23.72
185.679	-13.48
185.898	-1.19
186.118	78.68
186.338	9.05
186.557	-38.06
186.777	-42.15
186.997	15.19
187.216	4.95
187.436	41.81
187.655	-1.19
187.875	39.76
188.095	88.92
188.314	90.96
188.534	95.06
188.753	7
188.973	-9.39
189.192	64.34
189.412	17.24
189.631	78.68
189.851	-42.15
190.07	11.09
190.29	35.67
190.509	62.29
190.729	23.38
190.948	41.81
191.168	52.05
191.387	45.91
191.607	-7.34
191.826	23.38
192.045	9.05
192.265	-17.58
192.484	-36.01
192.704	86.87
192.923	-15.53
193.142	31.57
193.362	13.14
193.581	66.39
193.8	50
194.02	90.96
194.239	37.72
194.458	64.34
194.678	84.82
194.897	45.91
195.116	93.01
195.335	50
195.555	19.29
195.774	19.29
195.993	64.34
196.212	-9.39
196.432	11.09
196.651	7
196.87	60.24
197.089	88.92
197.308	52.05
197.528	47.96
197.747	37.72
197.966	4.95
198.185	45.91
198.404	-9.39
198.623	7
198.842	-23.72
199.062	45.91
199.281	107.35
199.5	-25.77
199.719	25.43
199.938	47.96
200.157	111.44
200.376	45.91
200.595	-36.01
200.814	50
201.033	2.9
201.252	39.76
201.471	4.95
201.69	43.86
201.909	-15.53
202.128	-46.25
202.347	62.29
202.566	-9.39
202.785	-13.48
203.004	19.29
203.223	45.91
203.442	43.86
203.661	-3.24
203.879	-62.63
204.098	13.14
204.317	25.43
204.536	23.38
204.755	-3.24
204.974	-3.24
205.193	9.05
205.411	60.24
205.63	33.62
205.849	72.53
206.068	27.48
206.287	7
206.505	56.15
206.724	7
206.943	9.05
207.162	-70.83
207.381	54.1
207.599	72.53
207.818	99.16
208.037	-11.43
208.255	43.86
208.474	35.67
208.693	-40.11
208.911	-40.11
209.13	35.67
209.349	-9.39
209.567	54.1
209.786	93.01
210.005	115.54
210.223	35.67
210.442	-66.73
210.661	25.43
210.879	90.96
211.098	60.24
211.316	4.95
211.535	31.57
211.753	31.57
211.972	-44.2
212.191	35.67
212.409	7
212.628	125.78
212.846	-9.39
213.065	33.62
213.283	70.48
213.502	9.05
213.72	37.72
213.938	9.05
214.157	47.96
214.375	70.48
214.594	7
214.812	-5.29
215.031	-19.63
215.249	41.81
215.467	29.52
215.686	33.62
215.904	31.57
216.122	29.52
216.341	90.96
216.559	15.19
216.778	35.67
216.996	-11.43
217.214	58.2
217.432	35.67
217.651	43.86
217.869	-5.29
218.087	27.48
218.306	-3.24
218.524	41.81
218.742	4.95
218.96	23.38
219.179	-25.77
219.397	-42.15
219.615	86.87
219.833	-11.43
220.051	21.33
220.27	82.77
220.488	33.62
220.706	74.58
220.924	-11.43
221.142	-21.67
221.36	62.29
221.578	-11.43
221.796	64.34
222.015	70.48
222.233	60.24
222.451	13.14
222.669	39.76
222.887	64.34
223.105	29.52
223.323	33.62
223.541	-17.58
223.759	33.62
223.977	25.43
224.195	78.68
224.413	37.72
224.631	-36.01
224.849	15.19
225.067	86.87
225.285	54.1
225.503	7
225.721	27.48
225.939	45.91
226.157	23.38
226.375	58.2
226.592	-54.44
226.81	19.29
227.028	-1.19
227.246	78.68
227.464	25.43
227.682	0.85
227.9	54.1
228.117	64.34
228.335	50
228.553	15.19
228.771	0.85
228.989	37.72
229.206	0.85
229.424	-40.11
229.642	47.96
229.86	23.38
230.077	-11.43
230.295	-9.39
230.513	2.9
230.731	125.78
230.948	-13.48
231.166	31.57
231.384	-62.63
231.601	4.95
231.819	80.72
232.037	60.24
232.254	-7.34
232.472	39.76
232.689	13.14
232.907	66.39
233.125	31.57
233.342	47.96
233.56	43.86
233.777	50
233.995	78.68
234.213	-19.63
234.43	101.2
234.648	29.52
234.865	-23.72
235.083	37.72
235.3	-13.48
235.518	52.05
235.735	-13.48
235.953	31.57
236.17	9.05
236.388	72.53
236.605	25.43
236.822	39.76
237.04	103.25
237.257	68.44
237.475	-52.39
237.692	35.67
237.909	-29.87
238.127	64.34
238.344	68.44
238.562	136.02
238.779	56.15
238.996	21.33
239.214	21.33
239.431	33.62
239.648	70.48
239.865	43.86
240.083	7
240.3	31.57
240.517	4.95
240.735	15.19
240.952	21.33
241.169	33.62
241.386	-9.39
241.603	29.52
241.821	15.19
242.038	50
242.255	64.34
242.472	-9.39
242.689	86.87
242.907	-11.43
243.124	43.86
243.341	31.57
243.558	60.24
243.775	72.53
243.992	-1.19
244.209	-5.29
244.426	47.96
244.643	47.96
244.86	25.43
245.078	68.44
245.295	11.09
245.512	80.72
245.729	66.39
245.946	33.62
246.163	72.53
246.38	37.72
246.597	41.81
246.814	54.1
247.031	-52.39
247.248	35.67
247.464	-54.44
247.681	9.05
247.898	-9.39
248.115	80.72
248.332	13.14
248.549	52.05
248.766	76.63
248.983	66.39
249.2	-11.43
249.417	-11.43
249.633	-29.87
249.85	50
250.067	-33.96
250.284	-1.19
250.501	-5.29
250.717	56.15
250.934	-19.63
251.151	43.86
251.368	-31.91
251.585	56.15
251.801	4.95
252.018	7
252.235	29.52
252.451	29.52
252.668	-58.54
252.885	7
253.102	-1.19
253.318	-11.43
253.535	-64.68
253.752	31.57
253.968	56.15
254.185	97.11
254.401	27.48
254.618	17.24
254.835	-9.39
255.051	58.2
255.268	-1.19
255.484	27.48
255.701	9.05
255.917	35.67
256.134	29.52
256.351	88.92
256.567	-3.24
256.784	4.95
257	-19.63
257.217	58.2
257.433	-5.29
257.65	117.59
257.866	35.67
258.082	7
258.299	62.29
258.515	41.81
258.732	66.39
258.948	-3.24
259.165	50
259.381	82.77
259.597	45.91
259.814	-38.06
260.03	25.43
260.246	43.86
260.463	50
260.679	2.9
260.895	-15.53
261.112	52.05
261.328	4.95
261.544	52.05
261.761	33.62
261.977	-25.77
262.193	35.67
262.409	-60.59
262.626	50
262.842	152.4
263.058	50
263.274	-40.11
263.49	-9.39
263.707	80.72
263.923	-15.53
264.139	-9.39
264.355	7
264.571	58.2
264.787	21.33
265.004	88.92
265.22	7
265.436	43.86
265.652	39.76
265.868	17.24
266.084	-29.87
266.3	7
266.516	11.09
266.732	84.82
266.948	21.33
267.164	33.62
267.38	17.24
267.596	97.11
267.812	60.24
268.028	19.29
268.244	-52.39
268.46	11.09
268.676	54.1
268.892	62.29
269.108	17.24
269.324	7
269.54	27.48
269.756	127.83
269.972	17.24
270.188	45.91
270.403	-27.82
270.619	39.76
270.835	60.24
271.051	50
271.267	-19.63
271.483	78.68
271.698	43.86
271.914	0.85
272.13	11.09
272.346	19.29
272.562	-15.53
272.777	84.82
272.993	25.43
273.209	56.15
273.425	101.2
273.64	39.76
273.856	29.52
274.072	95.06
274.287	115.54
274.503	47.96
274.719	29.52
274.934	4.95
275.15	-21.67
275.366	-1.19
275.581	7
275.797	90.96
276.012	58.2
276.228	86.87
276.444	4.95
276.659	80.72
276.875	4.95
277.09	88.92
277.306	52.05
277.521	76.63
277.737	54.1
277.952	-38.06
278.168	29.52
278.383	35.67
278.599	39.76
278.814	-13.48
279.03	11.09
279.245	15.19
279.461	21.33
279.676	33.62
279.892	35.67
280.107	76.63
280.322	37.72
280.538	23.38
280.753	-29.87
280.969	113.49
281.184	-13.48
281.399	27.48
281.615	47.96
281.83	95.06
282.045	93.01
282.26	23.38
282.476	19.29
282.691	58.2
282.906	31.57
283.122	52.05
283.337	2.9
283.552	-17.58
283.767	23.38
283.983	47.96
284.198	78.68
284.413	2.9
284.628	72.53
284.843	27.48
285.058	23.38
285.274	-25.77
285.489	11.09
285.704	19.29
285.919	7
286.134	-33.96
286.349	66.39
286.564	74.58
286.779	52.05
286.995	31.57
287.21	27.48
287.425	107.35
287.64	-29.87
287.855	21.33
288.07	15.19
288.285	105.3
288.5	-33.96
288.715	11.09
288.93	-38.06
289.145	66.39
289.36	-3.24
289.575	7
289.79	31.57
290.004	62.29
290.219	148.31
290.434	25.43
290.649	17.24
290.864	-15.53
291.079	-9.39
291.294	-56.49
291.509	-46.25
291.724	54.1
291.938	19.29
292.153	74.58
292.368	-13.48
292.583	17.24
292.798	-3.24
293.012	80.72
293.227	45.91
293.442	27.48
293.657	27.48
293.871	23.38
294.086	11.09
294.301	101.2
294.516	25.43
294.73	13.14
294.945	-5.29
295.16	45.91
295.374	-56.49
295.589	56.15
295.804	27.48
296.018	27.48
296.233	15.19
296.447	23.38
296.662	-38.06
296.877	93.01
297.091	52.05
297.306	-25.77
297.52	52.05
297.735	56.15
297.949	4.95
298.164	-68.78
298.378	54.1
298.593	23.38
298.807	72.53
299.022	113.49
299.236	60.24
299.451	107.35
299.665	0.85
299.88	60.24
300.094	86.87
300.309	70.48
300.523	88.92
300.737	93.01
300.952	54.1
301.166	60.24
301.381	-1.19
301.595	25.43
301.809	-1.19
302.024	33.62
302.238	19.29
302.452	47.96
302.667	45.91
302.881	62.29
303.095	-38.06
303.309	23.38
303.524	66.39
303.738	-64.68
303.952	-25.77
304.166	19.29
304.381	0.85
304.595	-5.29
304.809	43.86
305.023	140.12
305.237	-7.34
305.452	25.43
305.666	7
305.88	97.11
306.094	37.72
306.308	39.76
306.522	35.67
306.736	56.15
306.95	33.62
307.164	82.77
307.379	4.95
307.593	84.82
307.807	97.11
308.021	-1.19
308.235	19.29
308.449	-27.82
308.663	7
308.877	90.96
309.091	-25.77
309.305	7
309.519	7
309.733	64.34
309.947	41.81
310.161	-27.82
310.374	-11.43
310.588	45.91
310.802	45.91
311.016	70.48
311.23	25.43
311.444	-58.54
311.658	27.48
311.872	68.44
312.085	-29.87
312.299	66.39
312.513	64.34
312.727	93.01
312.941	-17.58
313.154	29.52
313.368	19.29
313.582	31.57
313.796	50
314.009	52.05
314.223	50
314.437	9.05
314.651	19.29
314.864	64.34
315.078	52.05
315.292	-11.43
315.505	11.09
315.719	84.82
315.933	41.81
316.146	84.82
316.36	-21.67
316.573	99.16
316.787	39.76
317.001	47.96
317.214	23.38
317.428	-9.39
317.641	-17.58
317.855	7
318.068	15.19
318.282	56.15
318.495	25.43
318.709	41.81
318.922	-38.06
319.136	107.35
319.349	-7.34
319.563	19.29
319.776	7
319.99	23.38
320.203	50
320.417	45.91
320.63	68.44
320.843	35.67
321.057	37.72
321.27	93.01
321.483	43.86
321.697	50
321.91	27.48
322.124	4.95
322.337	54.1
322.55	35.67
322.763	-3.24
322.977	54.1
323.19	-1.19
323.403	80.72
323.617	13.14
323.83	50
324.043	-31.91
324.256	82.77
324.469	80.72
324.683	52.05
324.896	62.29
325.109	-13.48
325.322	-11.43
325.535	39.76
325.748	21.33
325.962	-13.48
326.175	25.43
326.388	68.44
326.601	-13.48
326.814	0.85
327.027	35.67
327.24	39.76
327.453	62.29
327.666	43.86
327.879	88.92
328.092	95.06
328.305	7
328.518	66.39
328.731	-17.58
328.944	2.9
329.157	47.96
329.37	72.53
329.583	45.91
329.796	11.09
330.009	-21.67
330.222	56.15
330.435	23.38
330.648	-13.48
330.861	50
331.073	37.72
331.286	101.2
331.499	-17.58
331.712	21.33
331.925	88.92
332.138	11.09
332.35	11.09
332.563	70.48
332.776	37.72
332.989	58.2
333.202	-13.48
333.414	19.29
333.627	60.24
333.84	45.91
334.053	25.43
334.265	23.38
334.478	13.14
334.691	13.14
334.903	86.87
335.116	45.91
335.329	7
335.541	117.59
335.754	82.77
335.966	17.24
336.179	-1.19
336.392	93.01
336.604	41.81
336.817	13.14
337.029	103.25
337.242	84.82
337.454	105.3
337.667	97.11
337.88	84.82
338.092	90.96
338.305	41.81
338.517	-25.77
338.729	37.72
338.942	70.48
339.154	9.05
339.367	-54.44
339.579	7
339.792	-66.73
340.004	103.25
340.217	90.96
340.429	27.48
340.641	60.24
340.854	93.01
341.066	50
341.278	27.48
341.491	56.15
341.703	31.57
341.915	23.38
342.128	88.92
342.34	11.09
342.552	21.33
342.764	11.09
342.977	60.24
343.189	7
343.401	37.72
343.613	31.57
343.826	15.19
344.038	2.9
344.25	-5.29
344.462	60.24
344.674	23.38
344.886	13.14
345.099	82.77
345.311	35.67
345.523	9.05
345.735	-3.24
345.947	2.9
346.159	4.95
346.371	-3.24
346.583	9.05
346.795	97.11
347.007	15.19
347.219	103.25
347.431	29.52
347.643	37.72
347.855	15.19
348.067	-15.53
348.279	0.85
348.491	27.48
348.703	-15.53
348.915	15.19
349.127	23.38
349.339	68.44
349.551	50
349.763	70.48
349.975	-25.77
350.187	74.58
350.399	78.68
350.61	74.58
350.822	-23.72
351.034	72.53
351.246	19.29
351.458	97.11
351.669	19.29
351.881	56.15
352.093	-36.01
352.305	78.68
352.517	19.29
352.728	17.24
352.94	21.33
353.152	-38.06
353.363	109.4
353.575	-1.19
353.787	64.34
353.999	11.09
354.21	80.72
354.422	-15.53
354.633	41.81
354.845	23.38
355.057	52.05
355.268	21.33
355.48	29.52
355.692	-25.77
355.903	50
356.115	-23.72
356.326	-44.2
356.538	90.96
356.749	103.25
356.961	62.29
357.172	84.82
357.384	13.14
357.595	84.82
357.807	66.39
358.018	62.29
358.23	-1.19
358.441	68.44
358.653	66.39
358.864	74.58
359.075	39.76
359.287	-19.63
359.498	37.72
359.709	64.34
359.921	41.81
360.132	13.14
360.344	66.39
360.555	43.86
360.766	95.06
360.977	-23.72
361.189	113.49
361.4	17.24
361.611	-13.48
361.823	27.48
362.034	2.9
362.245	-48.3
362.456	72.53
362.667	27.48
362.879	60.24
363.09	31.57
363.301	90.96
363.512	64.34
363.723	60.24
363.935	0.85
364.146	95.06
364.357	25.43
364.568	27.48
364.779	-21.67
364.99	15.19
365.201	23.38
365.412	9.05
365.623	0.85
365.834	107.35
366.045	-11.43
366.256	7
366.467	13.14
366.678	-33.96
366.889	66.39
367.1	31.57
367.311	-23.72
367.522	45.91
367.733	76.63
367.944	2.9
368.155	43.86
368.366	105.3
368.577	80.72
368.788	33.62
368.999	7
369.209	50
369.42	60.24
369.631	27.48
369.842	13.14
370.053	-1.19
370.264	68.44
370.474	-27.82
370.685	70.48
370.896	15.19
371.107	37.72
371.317	64.34
371.528	11.09
371.739	11.09
371.95	68.44
372.16	-3.24
372.371	-27.82
372.582	72.53
372.792	37.72
373.003	43.86
373.214	50
373.424	54.1
373.635	43.86
373.846	133.97
374.056	-5.29
374.267	142.16
374.477	82.77
374.688	39.76
374.898	41.81
375.109	58.2
375.319	33.62
375.53	56.15
375.74	45.91
375.951	58.2
376.161	25.43
376.372	109.4
376.582	50
376.793	103.25
377.003	-5.29
377.214	-19.63
377.424	4.95
377.635	0.85
377.845	52.05
378.055	90.96
378.266	47.96
378.476	50
378.686	113.49
378.897	105.3
379.107	52.05
379.317	-15.53
379.528	123.73
379.738	99.16
379.948	-29.87
380.158	50
380.369	39.76
380.579	56.15
380.789	43.86
380.999	21.33
381.21	101.2
381.42	133.97
381.63	76.63
381.84	97.11
382.05	64.34
382.261	31.57
382.471	93.01
382.681	17.24
382.891	154.45
383.101	93.01
383.311	45.91
383.521	2.9
383.731	11.09
383.941	121.68
384.151	72.53
384.361	43.86
384.571	-25.77
384.781	76.63
384.991	56.15
385.201	105.3
385.411	33.62
385.621	90.96
385.831	74.58
386.041	50
386.251	-3.24
386.461	101.2
386.671	11.09
386.881	39.76
387.091	54.1
387.301	95.06
387.511	50
387.72	45.91
387.93	90.96
388.14	88.92
388.35	-1.19
388.56	27.48
388.769	99.16
388.979	39.76
389.189	56.15
389.399	47.96
389.609	107.35
389.818	103.25
390.028	58.2
390.238	80.72
390.447	-21.67
390.657	127.83
390.867	27.48
391.076	50
391.286	93.01
391.496	7
391.705	82.77
391.915	41.81
392.125	54.1
392.334	74.58
392.544	107.35
392.753	31.57
392.963	-42.15
393.172	88.92
393.382	107.35
393.591	125.78
393.801	27.48
394.01	45.91
394.22	99.16
394.429	62.29
394.639	-5.29
394.848	101.2
395.058	103.25
395.267	56.15
395.477	90.96
395.686	150.36
395.895	117.59
396.105	68.44
396.314	68.44
396.524	99.16
396.733	70.48
396.942	60.24
397.152	164.69
397.361	133.97
397.57	72.53
397.78	107.35
397.989	117.59
398.198	119.64
398.407	70.48
398.617	68.44
398.826	43.86
399.035	93.01
399.244	64.34
399.453	56.15
399.663	76.63
399.872	101.2
400.081	68.44
400.29	117.59
400.499	93.01
400.708	60.24
400.917	150.36
401.127	107.35
401.336	121.68
401.545	181.07
401.754	99.16
401.963	88.92
402.172	105.3
402.381	101.2
402.59	78.68
402.799	115.54
403.008	140.12
403.217	166.74
403.426	82.77
403.635	109.4
403.844	123.73
404.053	179.03
404.262	105.3
404.471	121.68
404.68	58.2
404.888	60.24
405.097	111.44
405.306	138.07
405.515	150.36
405.724	119.64
405.933	176.98
406.142	197.46
406.35	183.12
406.559	152.4
406.768	217.94
406.977	226.13
407.185	90.96
407.394	179.03
407.603	133.97
407.812	142.16
408.02	324.43
408.229	275.28
408.438	156.5
408.646	148.31
408.855	185.17
409.064	172.88
409.272	166.74
409.481	295.76
409.69	170.83
409.898	256.85
410.107	295.76
410.315	234.32
410.524	252.75
410.733	260.95
410.941	219.99
411.15	377.68
411.358	228.18
411.567	394.06
411.775	351.06
411.984	389.97
412.192	373.58
412.401	377.68
412.609	404.3
412.818	475.98
413.026	453.45
413.234	500.56
413.443	412.5
413.651	492.37
413.86	510.8
414.068	541.52
414.276	555.85
414.485	482.13
414.693	543.57
414.901	596.81
415.11	613.2
415.318	650.06
415.526	660.3
415.734	695.11
415.943	627.53
416.151	719.69
416.359	666.44
416.567	658.25
416.776	756.55
416.984	740.17
417.192	848.71
417.4	832.33
417.608	881.48
417.817	871.24
418.025	869.19
418.233	1059.65
418.441	912.2
418.649	979.78
418.857	1094.47
419.065	1088.32
419.273	1020.74
419.481	1076.04
419.689	1180.48
419.897	1344.32
420.105	1301.31
420.313	1315.65
420.521	1289.03
420.729	1270.59
420.937	1407.81
421.145	1520.45
421.353	1528.64
421.561	1577.79
421.769	1786.68
421.977	1741.63
422.185	1651.52
422.393	1712.96
422.601	1981.24
422.809	1927.99
423.017	1848.12
423.224	1958.71
423.432	2190.13
423.64	2071.35
423.848	2239.28
424.056	2247.48
424.263	2376.5
424.471	2304.82
424.679	2372.4
424.887	2573.1
425.094	2726.7
425.302	2671.4
425.51	2820.91
425.718	2876.2
425.925	2911.02
426.133	2951.98
426.341	3044.13
426.548	3306.27
426.756	3246.88
426.964	3373.86
427.171	3408.67
427.379	3586.85
427.586	3545.89
427.794	3650.33
428.001	3894.04
428.209	4043.54
428.417	4088.6
428.624	4369.17
428.832	4426.51
429.039	4201.24
429.247	4315.92
429.454	4717.33
429.662	5131.02
429.869	4776.72
430.076	5016.33
430.284	4936.46
430.491	5151.49
430.699	5362.44
430.906	5436.16
431.114	5593.86
431.321	5825.28
431.528	5878.52
431.736	6271.73
431.943	6337.27
432.15	6402.8
432.358	6388.47
432.565	6558.45
432.772	6757.1
432.979	6916.84
433.187	7195.37
433.394	7176.94
433.601	7719.65
433.808	7576.29
434.016	7641.82
434.223	7801.57
434.43	8237.78
434.637	8370.9
434.844	8719.06
435.052	8989.39
435.259	8841.93
435.466	9030.35
435.673	9052.88
435.88	9562.82
436.087	10025.66
436.294	9837.25
436.501	9751.23
436.708	9982.65
436.915	10472.12
437.122	10767.03
437.329	10787.5
437.537	11147.95
437.743	11330.22
437.95	11295.4
438.157	11877.02
438.364	12053.15
438.571	12038.81
438.778	12266.14
438.985	13240.97
439.192	12802.71
439.399	13249.16
439.606	12814.99
439.813	13683.33
440.02	14477.94
440.227	14187.13
440.433	14035.58
440.64	14545.53
440.847	14426.75
441.054	14944.88
441.261	15782.5
441.467	15434.35
441.674	15888.99
441.881	16382.56
442.088	16708.18
442.294	16501.34
442.501	16935.51
442.708	17259.09
442.914	17707.59
443.121	18659.9
443.328	17947.2
443.534	19227.18
443.741	18833.97
443.948	18569.79
444.154	19716.65
444.361	19829.29
444.568	19634.73
444.774	19870.25
444.981	19980.84
445.187	20537.88
445.394	21781
445.6	21383.7
445.807	23208.44
446.013	22413.82
446.22	22798.84
446.426	23822.83
446.633	23527.92
446.839	24449.5
447.046	23611.89
447.252	25010.65
447.459	24975.83
447.665	24936.92
447.871	26390.98
448.078	27060.66
448.284	25840.08
448.491	26300.87
448.697	27339.19
448.903	27869.61
449.11	28127.66
449.316	27777.45
449.522	27877.8
449.728	28791.2
449.935	28975.52
450.141	29004.19
450.347	29680.02
450.553	28463.52
450.76	29274.52
450.966	30314.89
451.172	29628.82
451.378	30554.5
451.584	29882.77
451.791	30433.67
451.997	30405
452.203	31254.9
452.409	30986.62
452.615	31084.92
452.821	29768.08
453.027	29503.89
453.233	31179.13
453.44	29700.5
453.646	30359.94
453.852	30503.3
454.058	30773.63
454.264	29919.63
454.47	30595.46
454.676	29643.15
454.882	30585.22
455.088	28121.51
455.294	28172.71
455.5	28895.64
455.705	29182.36
455.911	27759.02
456.117	27492.79
456.323	27169.21
456.529	25842.12
456.735	27009.47
456.941	26204.61
457.147	25770.44
457.352	25016.79
457.558	24533.47
457.764	25082.33
457.97	24191.46
458.176	24068.58
458.381	23515.63
458.587	22686.2
458.793	22411.78
458.999	21359.12
459.204	22774.27
459.41	22286.85
459.616	20871.7
459.821	20797.98
460.027	20793.88
460.233	20148.77
460.438	19386.93
460.644	19339.82
460.85	18420.28
461.055	18295.36
461.261	18666.04
461.466	16984.66
461.672	16443.99
461.878	17295.95
462.083	16468.57
462.289	16124.51
462.494	16142.94
462.7	15290.99
462.905	15034.99
463.111	15495.78
463.316	15379.05
463.522	14627.45
463.727	15215.21
463.932	14981.74
464.138	14981.74
464.343	15233.64
464.549	14410.36
464.754	15061.62
464.959	15002.22
465.165	15110.77
465.37	13998.72
465.575	13664.9
465.781	14353.02
465.986	14457.46
466.191	14121.6
466.397	13709.96
466.602	12835.47
466.807	13441.67
467.012	13456.01
467.218	13396.62
467.423	13040.27
467.628	13118.09
467.833	13920.9
468.038	13314.7
468.244	12989.07
468.449	13531.78
468.654	12921.49
468.859	12999.31
469.064	12886.67
469.269	12389.02
469.474	12679.83
469.679	12595.86
