Data from USB4F104151__64__11-52-32-722.txt Node

Date: Fri Mar 14 11:52:32 EDT 2025
User: louis
Spectrometer: USB4F10415
Trigger mode: 4
Integration Time (sec): 2.000000E-2
Scans to average: 1
Electric dark correction enabled: true
Nonlinearity correction enabled: false
Boxcar width: 0
XAxis mode: Wavelengths
Number of Pixels in Spectrum: 3648
>>>>>Begin Spectral Data<<<<<
178.204	-80.38
178.424	-80.38
178.644	-80.38
178.864	-39.42
179.084	-100.86
179.304	52.74
179.524	-20.99
179.744	19.97
179.964	71.17
180.184	-59.9
180.404	-14.85
180.624	-2.56
180.844	-45.57
181.064	-88.57
181.283	42.5
181.503	28.16
181.723	17.92
181.943	9.73
182.163	-8.7
182.383	1.54
182.602	83.45
182.822	28.16
183.042	-6.66
183.262	-35.33
183.482	-35.33
183.701	-12.8
183.921	40.45
184.141	-18.94
184.361	60.93
184.58	17.92
184.8	105.98
185.02	-57.86
185.239	103.93
185.459	32.26
185.679	38.4
185.898	-20.99
186.118	1.54
186.338	50.69
186.557	5.63
186.777	-0.51
186.997	75.26
187.216	73.21
187.436	26.11
187.655	30.21
187.875	-0.51
188.095	50.69
188.314	15.87
188.534	44.54
188.753	-20.99
188.973	38.4
189.192	34.3
189.412	-6.66
189.631	11.78
189.851	36.35
190.07	105.98
190.29	-33.28
190.509	7.68
190.729	40.45
190.948	17.92
191.168	65.02
191.387	97.79
191.607	9.73
191.826	17.92
192.045	-4.61
192.265	73.21
192.484	-12.8
192.704	15.87
192.923	34.3
193.142	52.74
193.362	-25.09
193.581	-0.51
193.8	110.08
194.02	-16.9
194.239	52.74
194.458	19.97
194.678	26.11
194.897	97.79
195.116	24.06
195.335	93.69
195.555	36.35
195.774	83.45
195.993	50.69
196.212	65.02
196.432	44.54
196.651	-20.99
196.87	3.58
197.089	89.6
197.308	58.88
197.528	46.59
197.747	22.02
197.966	-45.57
198.185	26.11
198.404	15.87
198.623	46.59
198.842	56.83
199.062	54.78
199.281	83.45
199.5	-6.66
199.719	15.87
199.938	-20.99
200.157	24.06
200.376	15.87
200.595	69.12
200.814	7.68
201.033	34.3
201.252	24.06
201.471	-25.09
201.69	157.18
201.909	73.21
202.128	17.92
202.347	-51.71
202.566	36.35
202.785	9.73
203.004	58.88
203.223	56.83
203.442	26.11
203.661	56.83
203.879	-6.66
204.098	44.54
204.317	3.58
204.536	75.26
204.755	46.59
204.974	91.65
205.193	48.64
205.411	120.32
205.63	-0.51
205.849	54.78
206.068	-45.57
206.287	79.36
206.505	97.79
206.724	62.98
206.943	-41.47
207.162	15.87
207.381	-2.56
207.599	-10.75
207.818	5.63
208.037	36.35
208.255	128.51
208.474	85.5
208.693	73.21
208.911	40.45
209.13	46.59
209.349	24.06
209.567	60.93
209.786	38.4
210.005	97.79
210.223	-25.09
210.442	30.21
210.661	50.69
210.879	58.88
211.098	5.63
211.316	-23.04
211.535	122.37
211.753	9.73
211.972	91.65
212.191	73.21
212.409	-8.7
212.628	44.54
212.846	22.02
213.065	42.5
213.283	-0.51
213.502	28.16
213.72	87.55
213.938	69.12
214.157	95.74
214.375	15.87
214.594	56.83
214.812	24.06
215.031	22.02
215.249	-53.76
215.467	110.08
215.686	93.69
215.904	60.93
216.122	26.11
216.341	-20.99
216.559	44.54
216.778	-6.66
216.996	46.59
217.214	93.69
217.432	24.06
217.651	17.92
217.869	7.68
218.087	-64
218.306	-37.38
218.524	56.83
218.742	24.06
218.96	19.97
219.179	11.78
219.397	30.21
219.615	15.87
219.833	89.6
220.051	17.92
220.27	-20.99
220.488	19.97
220.706	75.26
220.924	7.68
221.142	36.35
221.36	-4.61
221.578	34.3
221.796	105.98
222.015	-4.61
222.233	62.98
222.451	58.88
222.669	60.93
222.887	-14.85
223.105	-25.09
223.323	3.58
223.541	60.93
223.759	54.78
223.977	38.4
224.195	-2.56
224.413	85.5
224.631	60.93
224.849	15.87
225.067	36.35
225.285	56.83
225.503	54.78
225.721	-33.28
225.939	93.69
226.157	34.3
226.375	112.13
226.592	34.3
226.81	62.98
227.028	87.55
227.246	81.41
227.464	46.59
227.682	73.21
227.9	13.82
228.117	-0.51
228.335	24.06
228.553	34.3
228.771	56.83
228.989	7.68
229.206	-29.18
229.424	9.73
229.642	54.78
229.86	71.17
230.077	-41.47
230.295	-47.62
230.513	1.54
230.731	-10.75
230.948	85.5
231.166	130.56
231.384	87.55
231.601	-14.85
231.819	26.11
232.037	46.59
232.254	30.21
232.472	-6.66
232.689	15.87
232.907	71.17
233.125	60.93
233.342	48.64
233.56	36.35
233.777	44.54
233.995	77.31
234.213	126.46
234.43	101.89
234.648	17.92
234.865	19.97
235.083	105.98
235.3	-25.09
235.518	34.3
235.735	58.88
235.953	-16.9
236.17	-2.56
236.388	-53.76
236.605	50.69
236.822	85.5
237.04	42.5
237.257	9.73
237.475	3.58
237.692	26.11
237.909	28.16
238.127	38.4
238.344	28.16
238.562	62.98
238.779	52.74
238.996	-4.61
239.214	54.78
239.431	1.54
239.648	-10.75
239.865	30.21
240.083	3.58
240.3	73.21
240.517	36.35
240.735	58.88
240.952	34.3
241.169	-6.66
241.386	30.21
241.603	67.07
241.821	-35.33
242.038	46.59
242.255	15.87
242.472	13.82
242.689	77.31
242.907	114.17
243.124	17.92
243.341	-8.7
243.558	42.5
243.775	-16.9
243.992	17.92
244.209	-29.18
244.426	97.79
244.643	71.17
244.86	36.35
245.078	50.69
245.295	58.88
245.512	52.74
245.729	-39.42
245.946	5.63
246.163	22.02
246.38	46.59
246.597	40.45
246.814	93.69
247.031	9.73
247.248	22.02
247.464	13.82
247.681	44.54
247.898	22.02
248.115	124.41
248.332	-8.7
248.549	71.17
248.766	26.11
248.983	58.88
249.2	17.92
249.417	65.02
249.633	42.5
249.85	93.69
250.067	17.92
250.284	71.17
250.501	30.21
250.717	65.02
250.934	19.97
251.151	13.82
251.368	13.82
251.585	67.07
251.801	-72.19
252.018	52.74
252.235	11.78
252.451	28.16
252.668	67.07
252.885	-39.42
253.102	19.97
253.318	69.12
253.535	50.69
253.752	-12.8
253.968	42.5
254.185	-49.66
254.401	44.54
254.618	-14.85
254.835	44.54
255.051	1.54
255.268	36.35
255.484	19.97
255.701	-0.51
255.917	97.79
256.134	105.98
256.351	42.5
256.567	15.87
256.784	60.93
257	15.87
257.217	56.83
257.433	38.4
257.65	42.5
257.866	32.26
258.082	5.63
258.299	15.87
258.515	13.82
258.732	13.82
258.948	-20.99
259.165	28.16
259.381	26.11
259.597	62.98
259.814	54.78
260.03	-23.04
260.246	22.02
260.463	-14.85
260.679	13.82
260.895	32.26
261.112	36.35
261.328	42.5
261.544	-27.14
261.761	44.54
261.977	67.07
262.193	-25.09
262.409	17.92
262.626	67.07
262.842	-14.85
263.058	58.88
263.274	-12.8
263.49	11.78
263.707	58.88
263.923	60.93
264.139	-8.7
264.355	46.59
264.571	65.02
264.787	46.59
265.004	7.68
265.22	15.87
265.436	75.26
265.652	26.11
265.868	22.02
266.084	77.31
266.3	52.74
266.516	32.26
266.732	56.83
266.948	50.69
267.164	7.68
267.38	15.87
267.596	89.6
267.812	22.02
268.028	54.78
268.244	65.02
268.46	5.63
268.676	15.87
268.892	54.78
269.108	73.21
269.324	-23.04
269.54	13.82
269.756	71.17
269.972	-8.7
270.188	79.36
270.403	38.4
270.619	36.35
270.835	77.31
271.051	36.35
271.267	7.68
271.483	97.79
271.698	42.5
271.914	50.69
272.13	93.69
272.346	11.78
272.562	89.6
272.777	56.83
272.993	42.5
273.209	-12.8
273.425	62.98
273.64	89.6
273.856	50.69
274.072	34.3
274.287	26.11
274.503	56.83
274.719	26.11
274.934	48.64
275.15	-2.56
275.366	67.07
275.581	22.02
275.797	34.3
276.012	65.02
276.228	79.36
276.444	24.06
276.659	85.5
276.875	-14.85
277.09	46.59
277.306	3.58
277.521	46.59
277.737	-23.04
277.952	42.5
278.168	73.21
278.383	81.41
278.599	-14.85
278.814	3.58
279.03	52.74
279.245	122.37
279.461	48.64
279.676	-16.9
279.892	44.54
280.107	67.07
280.322	62.98
280.538	-33.28
280.753	-10.75
280.969	-2.56
281.184	-23.04
281.399	97.79
281.615	9.73
281.83	60.93
282.045	58.88
282.26	89.6
282.476	75.26
282.691	85.5
282.906	40.45
283.122	58.88
283.337	-35.33
283.552	95.74
283.767	-51.71
283.983	136.7
284.198	-41.47
284.413	60.93
284.628	19.97
284.843	17.92
285.058	112.13
285.274	36.35
285.489	30.21
285.704	58.88
285.919	36.35
286.134	24.06
286.349	62.98
286.564	91.65
286.779	3.58
286.995	83.45
287.21	48.64
287.425	3.58
287.64	24.06
287.855	44.54
288.07	-2.56
288.285	62.98
288.5	50.69
288.715	26.11
288.93	50.69
289.145	28.16
289.36	62.98
289.575	50.69
289.79	7.68
290.004	-8.7
290.219	22.02
290.434	36.35
290.649	-76.29
290.864	62.98
291.079	58.88
291.294	-2.56
291.509	48.64
291.724	34.3
291.938	-29.18
292.153	83.45
292.368	3.58
292.583	85.5
292.798	-2.56
293.012	15.87
293.227	-10.75
293.442	60.93
293.657	77.31
293.871	144.89
294.086	48.64
294.301	65.02
294.516	103.93
294.73	-27.14
294.945	24.06
295.16	34.3
295.374	56.83
295.589	52.74
295.804	24.06
296.018	-6.66
296.233	34.3
296.447	91.65
296.662	-35.33
296.877	99.84
297.091	93.69
297.306	67.07
297.52	11.78
297.735	44.54
297.949	128.51
298.164	38.4
298.378	-10.75
298.593	9.73
298.807	34.3
299.022	1.54
299.236	52.74
299.451	-35.33
299.665	-2.56
299.88	-12.8
300.094	13.82
300.309	5.63
300.523	7.68
300.737	48.64
300.952	-6.66
301.166	89.6
301.381	-12.8
301.595	71.17
301.809	-6.66
302.024	22.02
302.238	19.97
302.452	67.07
302.667	34.3
302.881	99.84
303.095	3.58
303.309	89.6
303.524	67.07
303.738	32.26
303.952	-31.23
304.166	79.36
304.381	-0.51
304.595	56.83
304.809	62.98
305.023	15.87
305.237	7.68
305.452	112.13
305.666	17.92
305.88	85.5
306.094	7.68
306.308	95.74
306.522	-16.9
306.736	50.69
306.95	85.5
307.164	30.21
307.379	34.3
307.593	3.58
307.807	132.61
308.021	142.85
308.235	48.64
308.449	-4.61
308.663	-4.61
308.877	79.36
309.091	32.26
309.305	42.5
309.519	-20.99
309.733	95.74
309.947	7.68
310.161	50.69
310.374	65.02
310.588	124.41
310.802	58.88
311.016	1.54
311.23	7.68
311.444	34.3
311.658	40.45
311.872	114.17
312.085	32.26
312.299	54.78
312.513	77.31
312.727	60.93
312.941	28.16
313.154	42.5
313.368	95.74
313.582	105.98
313.796	5.63
314.009	17.92
314.223	-20.99
314.437	7.68
314.651	-8.7
314.864	-20.99
315.078	22.02
315.292	73.21
315.505	40.45
315.719	-57.86
315.933	40.45
316.146	58.88
316.36	26.11
316.573	46.59
316.787	13.82
317.001	89.6
317.214	60.93
317.428	26.11
317.641	34.3
317.855	7.68
318.068	44.54
318.282	40.45
318.495	-16.9
318.709	77.31
318.922	79.36
319.136	17.92
319.349	110.08
319.563	13.82
319.776	-14.85
319.99	-10.75
320.203	-29.18
320.417	24.06
320.63	142.85
320.843	87.55
321.057	-2.56
321.27	81.41
321.483	75.26
321.697	58.88
321.91	103.93
322.124	73.21
322.337	77.31
322.55	24.06
322.763	3.58
322.977	58.88
323.19	22.02
323.403	42.5
323.617	48.64
323.83	42.5
324.043	-31.23
324.256	42.5
324.469	34.3
324.683	52.74
324.896	67.07
325.109	58.88
325.322	24.06
325.535	52.74
325.748	50.69
325.962	85.5
326.175	3.58
326.388	71.17
326.601	65.02
326.814	28.16
327.027	40.45
327.24	114.17
327.453	24.06
327.666	40.45
327.879	83.45
328.092	19.97
328.305	50.69
328.518	26.11
328.731	71.17
328.944	130.56
329.157	87.55
329.37	9.73
329.583	87.55
329.796	28.16
330.009	54.78
330.222	65.02
330.435	58.88
330.648	26.11
330.861	36.35
331.073	44.54
331.286	101.89
331.499	91.65
331.712	32.26
331.925	83.45
332.138	69.12
332.35	85.5
332.563	26.11
332.776	69.12
332.989	-20.99
333.202	-12.8
333.414	28.16
333.627	91.65
333.84	112.13
334.053	17.92
334.265	30.21
334.478	-2.56
334.691	34.3
334.903	13.82
335.116	17.92
335.329	56.83
335.541	28.16
335.754	77.31
335.966	58.88
336.179	52.74
336.392	-2.56
336.604	46.59
336.817	91.65
337.029	15.87
337.242	124.41
337.454	-23.04
337.667	-29.18
337.88	69.12
338.092	54.78
338.305	22.02
338.517	46.59
338.729	124.41
338.942	36.35
339.154	-20.99
339.367	24.06
339.579	124.41
339.792	71.17
340.004	97.79
340.217	91.65
340.429	99.84
340.641	22.02
340.854	19.97
341.066	60.93
341.278	79.36
341.491	28.16
341.703	-33.28
341.915	24.06
342.128	1.54
342.34	5.63
342.552	38.4
342.764	75.26
342.977	-27.14
343.189	97.79
343.401	19.97
343.613	26.11
343.826	22.02
344.038	65.02
344.25	42.5
344.462	42.5
344.674	44.54
344.886	89.6
345.099	36.35
345.311	40.45
345.523	54.78
345.735	34.3
345.947	28.16
346.159	3.58
346.371	19.97
346.583	24.06
346.795	101.89
347.007	54.78
347.219	54.78
347.431	-0.51
347.643	77.31
347.855	-27.14
348.067	11.78
348.279	-18.94
348.491	54.78
348.703	77.31
348.915	67.07
349.127	15.87
349.339	114.17
349.551	93.69
349.763	36.35
349.975	67.07
350.187	50.69
350.399	93.69
350.61	1.54
350.822	71.17
351.034	52.74
351.246	87.55
351.458	56.83
351.669	38.4
351.881	77.31
352.093	38.4
352.305	122.37
352.517	-31.23
352.728	77.31
352.94	110.08
353.152	40.45
353.363	15.87
353.575	50.69
353.787	44.54
353.999	11.78
354.21	126.46
354.422	-4.61
354.633	69.12
354.845	5.63
355.057	79.36
355.268	24.06
355.48	-0.51
355.692	7.68
355.903	85.5
356.115	28.16
356.326	-23.04
356.538	114.17
356.749	56.83
356.961	56.83
357.172	34.3
357.384	85.5
357.595	161.28
357.807	48.64
358.018	15.87
358.23	42.5
358.441	136.7
358.653	81.41
358.864	-12.8
359.075	24.06
359.287	69.12
359.498	60.93
359.709	110.08
359.921	34.3
360.132	-14.85
360.344	95.74
360.555	52.74
360.766	101.89
360.977	97.79
361.189	130.56
361.4	36.35
361.611	38.4
361.823	69.12
362.034	134.65
362.245	-33.28
362.456	38.4
362.667	75.26
362.879	112.13
363.09	46.59
363.301	60.93
363.512	157.18
363.723	65.02
363.935	34.3
364.146	101.89
364.357	73.21
364.568	97.79
364.779	-45.57
364.99	89.6
365.201	48.64
365.412	89.6
365.623	19.97
365.834	30.21
366.045	19.97
366.256	48.64
366.467	42.5
366.678	44.54
366.889	-12.8
367.1	77.31
367.311	105.98
367.522	44.54
367.733	26.11
367.944	42.5
368.155	54.78
368.366	81.41
368.577	146.94
368.788	42.5
368.999	24.06
369.209	83.45
369.42	69.12
369.631	73.21
369.842	11.78
370.053	77.31
370.264	-8.7
370.474	13.82
370.685	105.98
370.896	9.73
371.107	54.78
371.317	83.45
371.528	95.74
371.739	87.55
371.95	81.41
372.16	87.55
372.371	19.97
372.582	5.63
372.792	46.59
373.003	77.31
373.214	42.5
373.424	99.84
373.635	34.3
373.846	157.18
374.056	9.73
374.267	69.12
374.477	60.93
374.688	-8.7
374.898	85.5
375.109	54.78
375.319	112.13
375.53	103.93
375.74	87.55
375.951	3.58
376.161	65.02
376.372	75.26
376.582	93.69
376.793	44.54
377.003	58.88
377.214	93.69
377.424	56.83
377.635	108.03
377.845	42.5
378.055	58.88
378.266	13.82
378.476	73.21
378.686	71.17
378.897	42.5
379.107	99.84
379.317	48.64
379.528	48.64
379.738	38.4
379.948	-37.38
380.158	69.12
380.369	46.59
380.579	99.84
380.789	7.68
380.999	7.68
381.21	81.41
381.42	1.54
381.63	52.74
381.84	71.17
382.05	42.5
382.261	89.6
382.471	81.41
382.681	44.54
382.891	79.36
383.101	50.69
383.311	69.12
383.521	77.31
383.731	19.97
383.941	58.88
384.151	7.68
384.361	26.11
384.571	105.98
384.781	116.22
384.991	93.69
385.201	108.03
385.411	48.64
385.621	77.31
385.831	77.31
386.041	-25.09
386.251	65.02
386.461	50.69
386.671	65.02
386.881	108.03
387.091	42.5
387.301	126.46
387.511	101.89
387.72	36.35
387.93	73.21
388.14	69.12
388.35	-25.09
388.56	132.61
388.769	89.6
388.979	91.65
389.189	67.07
389.399	69.12
389.609	9.73
389.818	67.07
390.028	65.02
390.238	101.89
390.447	95.74
390.657	99.84
390.867	65.02
391.076	19.97
391.286	-2.56
391.496	-10.75
391.705	97.79
391.915	91.65
392.125	161.28
392.334	89.6
392.544	122.37
392.753	151.04
392.963	69.12
393.172	110.08
393.382	17.92
393.591	138.75
393.801	130.56
394.01	103.93
394.22	122.37
394.429	97.79
394.639	124.41
394.848	181.76
395.058	50.69
395.267	65.02
395.477	71.17
395.686	75.26
395.895	142.85
396.105	48.64
396.314	130.56
396.524	148.99
396.733	26.11
396.942	105.98
397.152	73.21
397.361	114.17
397.57	65.02
397.78	173.57
397.989	146.94
398.198	165.37
398.407	48.64
398.617	120.32
398.826	-2.56
399.035	83.45
399.244	69.12
399.453	99.84
399.663	91.65
399.872	189.95
400.081	99.84
400.29	204.28
400.499	95.74
400.708	122.37
400.917	114.17
401.127	136.7
401.336	87.55
401.545	130.56
401.754	126.46
401.963	179.71
402.172	161.28
402.381	148.99
402.59	32.26
402.799	146.94
403.008	130.56
403.217	95.74
403.426	142.85
403.635	151.04
403.844	198.14
404.053	196.09
404.262	148.99
404.471	142.85
404.68	99.84
404.888	187.9
405.097	185.85
405.306	165.37
405.515	210.43
405.724	196.09
405.933	189.95
406.142	206.33
406.35	140.8
406.559	220.67
406.768	208.38
406.977	200.19
407.185	226.81
407.394	282.11
407.603	290.3
407.812	216.57
408.02	257.53
408.229	257.53
408.438	230.91
408.646	212.48
408.855	243.2
409.064	265.72
409.272	214.52
409.481	278.01
409.69	243.2
409.898	331.26
410.107	263.68
410.315	327.16
410.524	378.36
410.733	392.7
410.941	357.88
411.15	343.55
411.358	318.97
411.567	388.6
411.775	374.27
411.984	407.03
412.192	450.04
412.401	368.12
412.609	523.77
412.818	515.58
413.026	527.86
413.234	542.2
413.443	523.77
413.651	527.86
413.86	609.78
414.068	652.79
414.276	675.32
414.485	581.11
414.693	716.28
414.901	755.19
415.11	759.28
415.318	613.88
415.526	802.29
415.734	751.09
415.943	792.05
416.151	865.78
416.359	810.48
416.567	949.75
416.776	957.94
416.984	908.79
417.192	1099.25
417.4	1021.42
417.608	1037.81
417.817	1062.38
418.025	1195.5
418.233	1224.17
418.441	1138.16
418.649	1390.06
418.857	1252.84
419.065	1383.91
419.273	1349.1
419.481	1351.15
419.689	1545.7
419.897	1594.86
420.105	1545.7
420.313	1648.1
420.521	1678.82
420.729	1723.88
420.937	1883.62
421.145	1775.08
421.353	2004.45
421.561	2002.4
421.769	2006.5
421.977	2096.61
422.185	2215.39
422.393	2217.44
422.601	2381.28
422.809	2330.08
423.017	2354.65
423.224	2557.4
423.432	2596.31
423.64	2541.02
423.848	2850.26
424.056	2782.68
424.263	2948.56
424.471	2987.47
424.679	2915.8
424.887	3132.88
425.094	3345.87
425.302	3315.15
425.51	3411.4
425.718	3485.13
425.925	3575.24
426.133	3667.4
426.341	3935.68
426.548	4136.38
426.756	4097.47
426.964	4181.44
427.171	4275.65
427.379	4439.48
427.586	4664.76
427.794	4713.91
428.001	4722.1
428.209	5088.69
428.417	5107.12
428.624	5332.4
428.832	5275.06
429.039	5508.52
429.247	5426.61
429.454	5877.16
429.662	6219.17
429.869	5901.73
430.076	6348.19
430.284	6118.82
430.491	6385.05
430.699	6708.63
430.906	6847.9
431.114	6757.78
431.321	7120.28
431.528	7290.26
431.736	7832.97
431.943	8045.96
432.15	7826.82
432.358	7955.85
432.565	8392.06
432.772	8369.54
432.979	8750.46
433.187	8803.71
433.394	8891.77
433.601	9563.5
433.808	9680.24
434.016	9565.55
434.223	10059.11
434.43	10556.77
434.637	10351.97
434.844	10874.2
435.052	11148.63
435.259	11013.46
435.466	11105.62
435.673	11222.36
435.88	11836.75
436.087	12447.04
436.294	12533.06
436.501	12158.28
436.708	12731.71
436.915	12711.23
437.122	13491.51
437.329	13206.84
437.537	13749.55
437.743	14007.59
437.95	13817.13
438.157	14449.96
438.364	15375.64
438.571	15166.74
438.778	15158.55
438.985	16446.73
439.192	15922.45
439.399	16395.53
439.606	16114.95
439.813	16893.18
440.02	18203.88
440.227	17812.72
440.433	17474.81
440.64	18193.64
440.847	18105.58
441.054	18441.45
441.261	19735.76
441.467	19383.51
441.674	19645.65
441.881	20649.16
442.088	20577.48
442.294	20587.72
442.501	20833.47
442.708	21292.22
442.914	22340.78
443.121	23202.97
443.328	22414.51
443.534	24128.66
443.741	23340.19
443.948	23092.38
444.154	24851.59
444.361	24642.7
444.568	24827.01
444.774	24890.5
444.981	25050.24
445.187	25578.62
445.394	26965.09
445.6	26424.43
445.807	29013.06
446.013	27860.05
446.22	28394.57
446.426	29264.96
446.633	29543.49
446.839	30743.59
447.046	29484.09
447.252	31050.79
447.459	30993.45
447.665	30727.21
447.871	32592.91
448.078	33930.23
448.284	32277.52
448.491	32855.05
448.697	34493.43
448.903	35128.3
449.11	35068.9
449.316	34788.33
449.522	35333.09
449.728	36099.03
449.935	36232.15
450.141	36469.72
450.347	37473.22
450.553	35986.39
450.76	36418.52
450.966	37856.19
451.172	37299.14
451.378	38130.62
451.584	37475.27
451.791	38888.37
451.997	38132.67
452.203	39095.21
452.409	38652.85
452.615	38378.42
452.821	37002.19
453.027	36649.94
453.233	38851.5
453.44	37379.01
453.646	37757.89
453.852	37624.77
454.058	38372.28
454.264	37426.12
454.47	37995.45
454.676	37082.06
454.882	38529.97
455.088	35175.4
455.294	35699.68
455.5	36258.77
455.705	36764.62
455.911	35361.76
456.117	34292.72
456.323	34077.69
456.529	32255
456.735	33768.44
456.941	32996.36
457.147	31980.57
457.352	31206.44
457.558	30776.36
457.764	31110.18
457.97	30387.25
458.176	29561.92
458.381	29668.41
458.587	28300.37
458.793	28322.9
458.999	26668.14
459.204	28691.53
459.41	27733.08
459.616	26236.02
459.821	26264.69
460.027	26176.62
460.233	25633.91
460.438	24169.62
460.644	24355.98
460.85	23581.85
461.055	23112.86
461.261	23026.85
461.466	21415.1
461.672	20524.23
461.878	22135.98
462.083	20516.04
462.289	20143.31
462.494	19958.99
462.7	18863.33
462.905	18650.34
463.111	19344.6
463.316	19672.28
463.522	18758.88
463.727	18736.35
463.932	18924.77
464.138	18758.88
464.343	18570.47
464.549	18246.89
464.754	19074.27
464.959	18629.86
465.165	18593
465.37	17741.04
465.575	17231.1
465.781	18117.87
465.986	17994.99
466.191	17485.05
466.397	17151.23
466.602	16303.37
466.807	16831.74
467.012	16954.62
467.218	16950.53
467.423	16721.15
467.628	16602.37
467.833	17317.11
468.038	16459.01
