Data from USB4F104151__1__12-55-13-447.txt Node

Date: Wed Feb 19 12:55:13 EST 2025
User: louis
Spectrometer: USB4F10415
Trigger mode: 4
Integration Time (sec): 2.500000E-1
Scans to average: 1
Electric dark correction enabled: true
Nonlinearity correction enabled: false
Boxcar width: 0
XAxis mode: Wavelengths
Number of Pixels in Spectrum: 3648
>>>>>Begin Spectral Data<<<<<
178.204	-681.63
178.424	-681.63
178.644	-681.63
178.864	-620.19
179.084	-751.26
179.304	65.88
179.524	51.54
179.744	-11.95
179.964	-136.87
180.184	151.89
180.404	141.65
180.624	-175.78
180.844	-77.48
181.064	37.2
181.283	57.68
181.503	-50.86
181.723	-52.91
181.943	-38.57
182.163	354.64
182.383	-130.73
182.602	-97.96
182.822	237.91
183.042	231.76
183.262	-73.39
183.482	-52.91
183.701	182.61
183.921	217.43
184.141	-151.21
184.361	-40.62
184.58	219.47
184.8	149.84
185.02	-159.4
185.239	61.78
185.459	233.81
185.679	356.69
185.898	-186.02
186.118	-181.93
186.338	149.84
186.557	242
186.777	-128.68
186.997	-50.86
187.216	119.12
187.436	475.47
187.655	-16.04
187.875	115.03
188.095	176.47
188.314	291.15
188.534	86.36
188.753	-126.63
188.973	289.1
189.192	346.45
189.412	-83.63
189.631	-59.05
189.851	235.86
190.07	315.73
190.29	-93.87
190.509	-97.96
190.729	119.12
190.948	330.06
191.168	29.01
191.387	-44.71
191.607	86.36
191.826	272.72
192.045	-38.57
192.265	-46.76
192.484	266.58
192.704	57.68
192.923	-67.24
193.142	35.16
193.362	250.19
193.581	274.77
193.8	26.96
194.02	16.73
194.239	282.96
194.458	207.19
194.678	-75.43
194.897	-116.39
195.116	151.89
195.335	180.56
195.555	-18.09
195.774	-128.68
195.993	330.06
196.212	102.74
196.432	-40.62
196.651	-118.44
196.87	115.03
197.089	551.24
197.308	-44.71
197.528	-34.47
197.747	10.58
197.966	129.36
198.185	35.16
198.404	-93.87
198.623	287.06
198.842	287.06
199.062	55.64
199.281	-30.38
199.5	188.75
199.719	186.71
199.938	-30.38
200.157	12.63
200.376	246.1
200.595	309.58
200.814	33.11
201.033	-100.01
201.252	319.82
201.471	164.18
201.69	-93.87
201.909	-112.3
202.128	299.34
202.347	285.01
202.566	-50.86
202.785	-167.59
203.004	-24.23
203.223	561.48
203.442	37.2
203.661	-192.17
203.879	207.19
204.098	280.91
204.317	-110.25
204.536	24.92
204.755	213.33
204.974	336.21
205.193	-206.5
205.411	-20.14
205.63	321.87
205.849	160.08
206.068	-122.54
206.287	-147.11
206.505	414.03
206.724	133.46
206.943	-110.25
207.162	-71.34
207.381	229.71
207.599	98.64
207.818	20.82
208.037	-104.11
208.255	168.27
208.474	164.18
208.693	-79.53
208.911	-114.34
209.13	270.67
209.349	194.9
209.567	47.44
209.786	-32.43
210.005	235.86
210.223	131.41
210.442	-210.6
210.661	-87.72
210.879	192.85
211.098	110.93
211.316	10.58
211.535	-50.86
211.753	151.89
211.972	186.71
212.191	-120.49
212.409	-52.91
212.628	143.7
212.846	117.08
213.065	-106.15
213.283	14.68
213.502	168.27
213.72	176.47
213.938	-87.72
214.157	-89.77
214.375	348.5
214.594	74.07
214.812	24.92
215.031	-165.54
215.249	149.84
215.467	98.64
215.686	18.77
215.904	-75.43
216.122	192.85
216.341	291.15
216.559	-1.71
216.778	16.73
216.996	323.92
217.214	-16.04
217.432	24.92
217.651	-130.73
217.869	74.07
218.087	160.08
218.306	-153.26
218.524	-67.24
218.742	184.66
218.96	250.19
219.179	-102.06
219.397	-36.52
219.615	487.76
219.833	182.61
220.051	-110.25
220.27	-26.28
220.488	346.45
220.706	266.58
220.924	-181.93
221.142	-91.82
221.36	209.23
221.578	207.19
221.796	-57
222.015	-34.47
222.233	188.75
222.451	321.87
222.669	-52.91
222.887	49.49
223.105	119.12
223.323	86.36
223.541	-122.54
223.759	51.54
223.977	115.03
224.195	377.17
224.413	-34.47
224.631	-118.44
224.849	211.28
225.067	457.04
225.285	-28.33
225.503	-18.09
225.721	-59.05
225.939	119.12
226.157	0.34
226.375	115.03
226.592	72.02
226.81	121.17
227.028	106.84
227.246	35.16
227.464	178.51
227.682	166.23
227.9	-18.09
228.117	6.49
228.335	205.14
228.553	217.43
228.771	-143.02
228.989	-44.71
229.206	242
229.424	141.65
229.642	-67.24
229.86	-28.33
230.077	287.06
230.295	112.98
230.513	18.77
230.731	-11.95
230.948	409.94
231.166	305.49
231.384	8.53
231.601	-95.91
231.819	452.94
232.037	76.12
232.254	29.01
232.472	-11.95
232.689	104.79
232.907	276.82
233.125	-147.11
233.342	-36.52
233.56	31.06
233.777	151.89
233.995	45.4
234.213	33.11
234.43	250.19
234.648	112.98
234.865	-54.95
235.083	110.93
235.3	180.56
235.518	239.95
235.735	-3.75
235.953	-16.04
236.17	192.85
236.388	29.01
236.605	53.59
236.822	88.4
237.04	201.04
237.257	190.8
237.475	-38.57
237.692	-126.63
237.909	201.04
238.127	49.49
238.344	35.16
238.562	-69.29
238.779	29.01
238.996	-22.19
239.214	-32.43
239.431	22.87
239.648	129.36
239.865	276.82
240.083	-24.23
240.3	-89.77
240.517	145.75
240.735	139.6
240.952	174.42
241.169	-61.1
241.386	301.39
241.603	203.09
241.821	-130.73
242.038	12.63
242.255	270.67
242.472	-18.09
242.689	82.26
242.907	-40.62
243.124	119.12
243.341	131.41
243.558	57.68
243.775	-77.48
243.992	-61.1
244.209	207.19
244.426	82.26
244.643	2.39
244.86	172.37
245.078	239.95
245.295	69.97
245.512	-85.67
245.729	233.81
245.946	215.38
246.163	-32.43
246.38	-5.8
246.597	151.89
246.814	223.57
247.031	-3.75
247.248	-104.11
247.464	237.91
247.681	188.75
247.898	18.77
248.115	-73.39
248.332	37.2
248.549	282.96
248.766	139.6
248.983	16.73
249.2	295.25
249.417	201.04
249.633	-77.48
249.85	88.4
250.067	151.89
250.284	147.8
250.501	6.49
250.717	-42.67
250.934	6.49
251.151	94.55
251.368	-50.86
251.585	14.68
251.801	201.04
252.018	-104.11
252.235	108.88
252.451	-75.43
252.668	141.65
252.885	323.92
253.102	45.4
253.318	-102.06
253.535	78.16
253.752	37.2
253.968	-112.3
254.185	-106.15
254.401	233.81
254.618	158.03
254.835	35.16
255.051	80.21
255.268	227.67
255.484	231.76
255.701	12.63
255.917	29.01
256.134	84.31
256.351	158.03
256.567	-102.06
256.784	-79.53
257	-46.76
257.217	262.48
257.433	74.07
257.65	8.53
257.866	260.43
258.082	-5.8
258.299	-40.62
258.515	53.59
258.732	29.01
258.948	47.44
259.165	63.83
259.381	-167.59
259.597	256.34
259.814	151.89
260.03	-77.48
260.246	-44.71
260.463	289.1
260.679	272.72
260.895	43.35
261.112	29.01
261.328	102.74
261.544	-7.85
261.761	-5.8
261.977	-13.99
262.193	112.98
262.409	229.71
262.626	76.12
262.842	37.2
263.058	61.78
263.274	209.23
263.49	20.82
263.707	-16.04
263.923	258.39
264.139	-52.91
264.355	16.73
264.571	72.02
264.787	219.47
265.004	260.43
265.22	55.64
265.436	-71.34
265.652	164.18
265.868	162.13
266.084	-20.14
266.3	4.44
266.516	41.3
266.732	141.65
266.948	22.87
267.164	-71.34
267.38	289.1
267.596	174.42
267.812	151.89
268.028	-18.09
268.244	168.27
268.46	227.67
268.676	-30.38
268.892	102.74
269.108	43.35
269.324	29.01
269.54	-36.52
269.756	147.8
269.972	6.49
270.188	90.45
270.403	-69.29
270.619	-5.8
270.835	149.84
271.051	112.98
271.267	-100.01
271.483	-114.34
271.698	315.73
271.914	178.51
272.13	-30.38
272.346	47.44
272.562	176.47
272.777	285.01
272.993	10.58
273.209	-20.14
273.425	231.76
273.64	22.87
273.856	-7.85
274.072	-196.26
274.287	96.6
274.503	242
274.719	131.41
274.934	-69.29
275.15	14.68
275.366	151.89
275.581	-22.19
275.797	86.36
276.012	149.84
276.228	59.73
276.444	59.73
276.659	182.61
276.875	4.44
277.09	121.17
277.306	-24.23
277.521	65.88
277.737	121.17
277.952	233.81
278.168	18.77
278.383	-9.9
278.599	149.84
278.814	231.76
279.03	-22.19
279.245	172.37
279.461	203.09
279.676	178.51
279.892	2.39
280.107	-85.67
280.322	63.83
280.538	225.62
280.753	-57
280.969	-50.86
281.184	168.27
281.399	305.49
281.615	55.64
281.83	135.51
282.045	-28.33
282.26	35.16
282.476	82.26
282.691	217.43
282.906	100.69
283.122	51.54
283.337	-28.33
283.552	53.59
283.767	117.08
283.983	225.62
284.198	119.12
284.413	-5.8
284.628	8.53
284.843	225.62
285.058	57.68
285.274	22.87
285.489	82.26
285.704	270.67
285.919	12.63
286.134	18.77
286.349	131.41
286.564	29.01
286.779	100.69
286.995	-7.85
287.21	2.39
287.425	69.97
287.64	61.78
287.855	139.6
288.07	117.08
288.285	233.81
288.5	141.65
288.715	86.36
288.93	143.7
289.145	57.68
289.36	90.45
289.575	51.54
289.79	237.91
290.004	33.11
290.219	100.69
290.434	-26.28
290.649	49.49
290.864	121.17
291.079	41.3
291.294	143.7
291.509	151.89
291.724	119.12
291.938	43.35
292.153	-24.23
292.368	121.17
292.583	264.53
292.798	41.3
293.012	131.41
293.227	223.57
293.442	45.4
293.657	82.26
293.871	158.03
294.086	151.89
294.301	364.88
294.516	170.32
294.73	106.84
294.945	59.73
295.16	133.46
295.374	110.93
295.589	141.65
295.804	61.78
296.018	108.88
296.233	69.97
296.447	96.6
296.662	117.08
296.877	266.58
297.091	45.4
297.306	41.3
297.52	115.03
297.735	184.66
297.949	78.16
298.164	12.63
298.378	143.7
298.593	6.49
298.807	-3.75
299.022	76.12
299.236	373.07
299.451	61.78
299.665	72.02
299.88	131.41
300.094	178.51
300.309	145.75
300.523	39.25
300.737	69.97
300.952	182.61
301.166	205.14
301.381	43.35
301.595	45.4
301.809	160.08
302.024	88.4
302.238	18.77
302.452	188.75
302.667	127.32
302.881	334.16
303.095	98.64
303.309	100.69
303.524	84.31
303.738	160.08
303.952	-22.19
304.166	94.55
304.381	-134.82
304.595	285.01
304.809	20.82
305.023	24.92
305.237	53.59
305.452	117.08
305.666	51.54
305.88	117.08
306.094	289.1
306.308	151.89
306.522	8.53
306.736	162.13
306.95	260.43
307.164	115.03
307.379	127.32
307.593	188.75
307.807	313.68
308.021	201.04
308.235	143.7
308.449	-38.57
308.663	207.19
308.877	454.99
309.091	69.97
309.305	207.19
309.519	-52.91
309.733	297.3
309.947	-11.95
310.161	-1.71
310.374	178.51
310.588	373.07
310.802	-42.67
311.016	-3.75
311.23	201.04
311.444	88.4
311.658	82.26
311.872	213.33
312.085	268.63
312.299	340.3
312.513	235.86
312.727	2.39
312.941	78.16
313.154	188.75
313.368	98.64
313.582	37.2
313.796	78.16
314.009	139.6
314.223	270.67
314.437	158.03
314.651	242
314.864	115.03
315.078	35.16
315.292	-48.81
315.505	86.36
315.719	209.23
315.933	190.8
316.146	47.44
316.36	74.07
316.573	315.73
316.787	201.04
317.001	84.31
317.214	14.68
317.428	201.04
317.641	-5.8
317.855	43.35
318.068	143.7
318.282	164.18
318.495	258.39
318.709	76.12
318.922	57.68
319.136	317.78
319.349	137.56
319.563	74.07
319.776	196.95
319.99	26.96
320.203	100.69
320.417	59.73
320.63	188.75
320.843	340.3
321.057	125.27
321.27	67.92
321.483	147.8
321.697	190.8
321.91	8.53
322.124	145.75
322.337	192.85
322.55	29.01
322.763	61.78
322.977	18.77
323.19	82.26
323.403	61.78
323.617	123.22
323.83	223.57
324.043	121.17
324.256	135.51
324.469	-71.34
324.683	190.8
324.896	162.13
325.109	127.32
325.322	-5.8
325.535	69.97
325.748	198.99
325.962	94.55
326.175	24.92
326.388	82.26
326.601	237.91
326.814	2.39
327.027	110.93
327.24	198.99
327.453	-20.14
327.666	190.8
327.879	196.95
328.092	131.41
328.305	176.47
328.518	43.35
328.731	45.4
328.944	65.88
329.157	162.13
329.37	53.59
329.583	256.34
329.796	192.85
330.009	6.49
330.222	250.19
330.435	233.81
330.648	82.26
330.861	217.43
331.073	192.85
331.286	155.99
331.499	129.36
331.712	90.45
331.925	149.84
332.138	88.4
332.35	141.65
332.563	88.4
332.776	250.19
332.989	61.78
333.202	53.59
333.414	90.45
333.627	196.95
333.84	53.59
334.053	151.89
334.265	168.27
334.478	139.6
334.691	65.88
334.903	155.99
335.116	51.54
335.329	102.74
335.541	162.13
335.754	315.73
335.966	137.56
336.179	233.81
336.392	141.65
336.604	22.87
336.817	209.23
337.029	198.99
337.242	-46.76
337.454	110.93
337.667	151.89
337.88	223.57
338.092	155.99
338.305	192.85
338.517	-11.95
338.729	266.58
338.942	135.51
339.154	67.92
339.367	78.16
339.579	221.52
339.792	0.34
340.004	104.79
340.217	256.34
340.429	201.04
340.641	16.73
340.854	20.82
341.066	143.7
341.278	244.05
341.491	231.76
341.703	-13.99
341.915	10.58
342.128	192.85
342.34	65.88
342.552	57.68
342.764	86.36
342.977	82.26
343.189	135.51
343.401	147.8
343.613	-3.75
343.826	172.37
344.038	14.68
344.25	190.8
344.462	151.89
344.674	172.37
344.886	55.64
345.099	63.83
345.311	176.47
345.523	108.88
345.735	-20.14
345.947	153.94
346.159	221.52
346.371	207.19
346.583	20.82
346.795	164.18
347.007	86.36
347.219	211.28
347.431	61.78
347.643	201.04
347.855	59.73
348.067	250.19
348.279	-28.33
348.491	57.68
348.703	270.67
348.915	90.45
349.127	86.36
349.339	86.36
349.551	102.74
349.763	274.77
349.975	65.88
350.187	180.56
350.399	270.67
350.61	178.51
350.822	76.12
351.034	88.4
351.246	317.78
351.458	201.04
351.669	139.6
351.881	41.3
352.093	264.53
352.305	172.37
352.517	61.78
352.728	131.41
352.94	160.08
353.152	201.04
353.363	-36.52
353.575	82.26
353.787	373.07
353.999	213.33
354.21	246.1
354.422	-110.25
354.633	127.32
354.845	180.56
355.057	90.45
355.268	76.12
355.48	285.01
355.692	-24.23
355.903	53.59
356.115	33.11
356.326	61.78
356.538	313.68
356.749	4.44
356.961	282.96
357.172	168.27
357.384	59.73
357.595	330.06
357.807	57.68
358.018	76.12
358.23	139.6
358.441	151.89
358.653	82.26
358.864	205.14
359.075	100.69
359.287	147.8
359.498	145.75
359.709	262.48
359.921	201.04
360.132	137.56
360.344	0.34
360.555	94.55
360.766	151.89
360.977	100.69
361.189	182.61
361.4	131.41
361.611	356.69
361.823	176.47
362.034	160.08
362.245	-32.43
362.456	135.51
362.667	246.1
362.879	-1.71
363.09	215.38
363.301	182.61
363.512	78.16
363.723	57.68
363.935	82.26
364.146	291.15
364.357	37.2
364.568	49.49
364.779	24.92
364.99	299.34
365.201	65.88
365.412	229.71
365.623	-5.8
365.834	180.56
366.045	166.23
366.256	90.45
366.467	221.52
366.678	153.94
366.889	129.36
367.1	-57
367.311	242
367.522	184.66
367.733	127.32
367.944	153.94
368.155	10.58
368.366	172.37
368.577	135.51
368.788	125.27
368.999	110.93
369.209	178.51
369.42	168.27
369.631	387.41
369.842	217.43
370.053	98.64
370.264	170.32
370.474	16.73
370.685	164.18
370.896	102.74
371.107	125.27
371.317	59.73
371.528	160.08
371.739	293.2
371.95	153.94
372.16	98.64
372.371	53.59
372.582	141.65
372.792	108.88
373.003	98.64
373.214	264.53
373.424	170.32
373.635	53.59
373.846	209.23
374.056	221.52
374.267	209.23
374.477	184.66
374.688	29.01
374.898	256.34
375.109	186.71
375.319	125.27
375.53	131.41
375.74	270.67
375.951	137.56
376.161	170.32
376.372	96.6
376.582	51.54
376.793	196.95
377.003	61.78
377.214	29.01
377.424	246.1
377.635	229.71
377.845	18.77
378.055	227.67
378.266	53.59
378.476	158.03
378.686	108.88
378.897	61.78
379.107	282.96
379.317	295.25
379.528	45.4
379.738	174.42
379.948	49.49
380.158	242
380.369	160.08
380.579	166.23
380.789	219.47
380.999	282.96
381.21	182.61
381.42	254.29
381.63	133.46
381.84	258.39
382.05	155.99
382.261	256.34
382.471	307.54
382.681	115.03
382.891	133.46
383.101	174.42
383.311	41.3
383.521	153.94
383.731	106.84
383.941	168.27
384.151	158.03
384.361	33.11
384.571	78.16
384.781	86.36
384.991	364.88
385.201	315.73
385.411	172.37
385.621	65.88
385.831	166.23
386.041	235.86
386.251	108.88
386.461	188.75
386.671	239.95
386.881	192.85
387.091	61.78
387.301	237.91
387.511	201.04
387.72	170.32
387.93	160.08
388.14	-63.15
388.35	153.94
388.56	256.34
388.769	168.27
388.979	53.59
389.189	131.41
389.399	172.37
389.609	147.8
389.818	221.52
390.028	135.51
390.238	190.8
390.447	37.2
390.657	82.26
390.867	108.88
391.076	-57
391.286	72.02
391.496	94.55
391.705	90.45
391.915	393.55
392.125	166.23
392.334	55.64
392.544	356.69
392.753	151.89
392.963	49.49
393.172	155.99
393.382	125.27
393.591	323.92
393.801	59.73
394.01	153.94
394.22	293.2
394.429	201.04
394.639	8.53
394.848	78.16
395.058	172.37
395.267	190.8
395.477	203.09
395.686	219.47
395.895	459.09
396.105	381.26
396.314	104.79
396.524	59.73
396.733	151.89
396.942	287.06
397.152	172.37
397.361	282.96
397.57	184.66
397.78	176.47
397.989	198.99
398.198	328.02
398.407	192.85
398.617	160.08
398.826	182.61
399.035	22.87
399.244	287.06
399.453	217.43
399.663	102.74
399.872	26.96
400.081	82.26
400.29	311.63
400.499	-22.19
400.708	201.04
400.917	176.47
401.127	135.51
401.336	69.97
401.545	280.91
401.754	315.73
401.963	297.3
402.172	102.74
402.381	10.58
402.59	176.47
402.799	139.6
403.008	196.95
403.217	147.8
403.426	180.56
403.635	69.97
403.844	61.78
404.053	55.64
404.262	147.8
404.471	434.51
404.68	127.32
404.888	133.46
405.097	162.13
405.306	162.13
405.515	192.85
405.724	117.08
405.933	225.62
406.142	282.96
406.35	194.9
406.559	133.46
406.768	254.29
406.977	377.17
407.185	160.08
407.394	274.77
407.603	61.78
407.812	178.51
408.02	231.76
408.229	235.86
408.438	149.84
408.646	55.64
408.855	123.22
409.064	155.99
409.272	209.23
409.481	274.77
409.69	51.54
409.898	80.21
410.107	291.15
410.315	385.36
410.524	201.04
410.733	258.39
410.941	340.3
411.15	389.46
411.358	237.91
411.567	379.22
411.775	209.23
411.984	252.24
412.192	258.39
412.401	190.8
412.609	549.2
412.818	405.84
413.026	278.87
413.234	205.14
413.443	387.41
413.651	364.88
413.86	178.51
414.068	426.32
414.276	602.44
414.485	340.3
414.693	389.46
414.901	504.14
415.11	368.98
415.318	354.64
415.526	411.98
415.734	356.69
415.943	448.85
416.151	614.73
416.359	348.5
416.567	422.22
416.776	512.33
416.984	586.06
417.192	504.14
417.4	346.45
417.608	360.78
417.817	440.65
418.025	618.83
418.233	612.68
418.441	471.37
418.649	411.98
418.857	657.74
419.065	696.65
419.273	487.76
419.481	688.46
419.689	616.78
419.897	592.2
420.105	545.1
420.313	864.58
420.521	786.76
420.729	801.1
420.937	739.66
421.145	643.4
421.353	848.2
421.561	864.58
421.769	1012.04
421.977	848.2
422.185	954.69
422.393	934.22
422.601	1020.23
422.809	921.93
423.017	1005.89
423.224	997.7
423.432	1216.83
423.64	1167.68
423.848	1179.97
424.056	1036.61
424.263	1345.86
424.471	1171.78
424.679	1390.91
424.887	1177.92
425.094	1546.56
425.302	1550.65
425.51	1417.54
425.718	1470.78
425.925	1501.5
426.133	1470.78
426.341	1767.74
426.548	1661.24
426.756	1663.29
426.964	1743.16
427.171	1716.54
427.379	1886.52
427.586	1970.49
427.794	2109.75
428.001	2021.69
428.209	2117.94
428.417	2435.38
428.624	2408.75
428.832	2271.54
429.039	2277.68
429.247	2326.83
429.454	2679.08
429.662	2765.1
429.869	2652.46
430.076	2844.97
430.284	2744.62
430.491	3051.81
430.699	3092.77
430.906	3363.11
431.114	3236.13
431.321	3295.52
431.528	3264.8
431.736	3608.86
431.943	3848.47
432.15	3633.44
432.358	3596.57
432.565	4059.42
432.772	3684.64
432.979	4362.51
433.187	4102.42
433.394	4456.72
433.601	4407.57
433.808	4614.41
434.016	4608.27
434.223	4874.51
434.43	5138.69
434.637	4976.91
434.844	5579.01
435.052	5775.61
435.259	5689.6
435.466	5652.74
435.673	5613.82
435.88	6045.95
436.087	6600.94
436.294	6695.15
436.501	6365.43
436.708	6637.81
436.915	7000.3
437.122	7323.88
437.329	7065.83
437.537	7545.06
437.743	7647.46
437.95	7573.73
438.157	8014.04
438.364	8364.25
438.571	8564.95
438.778	8679.63
438.985	9476.29
439.192	9060.56
439.399	9513.16
439.606	9029.84
439.813	10076.35
440.02	10584.24
440.227	10592.44
440.433	10236.09
440.64	10817.71
440.847	10750.13
441.054	10983.6
441.261	11862.18
441.467	11634.85
441.674	11853.98
441.881	12398.74
442.088	12402.84
442.294	12437.66
442.501	12787.86
442.708	13136.01
442.914	13592.71
443.121	14233.72
443.328	14174.33
443.534	14985.33
443.741	14497.91
443.948	14657.65
444.154	15446.12
444.361	15685.73
444.568	15921.25
444.774	16011.36
444.981	16017.5
445.187	17082.45
445.394	17694.79
445.6	17305.68
445.807	19419.18
446.013	18399.29
446.22	18495.55
446.426	19789.86
446.633	20183.07
446.839	20791.32
447.046	19781.67
447.252	21690.38
447.459	21585.93
447.665	21905.42
447.871	22595.58
448.078	24020.97
448.284	23140.34
448.491	24020.97
448.697	25497.55
448.903	25851.85
449.11	26142.66
449.316	25913.29
449.522	27041.72
449.728	27682.73
449.935	28100.52
450.141	28608.42
450.347	29845.39
450.553	28972.96
450.76	29910.92
450.966	31188.86
451.172	31561.59
451.378	32632.68
451.584	32487.27
451.791	33847.12
451.997	34430.79
452.203	35301.18
452.409	35749.68
452.615	36345.64
452.821	35829.55
453.027	35807.03
453.233	38895.36
453.44	37895.96
453.646	38856.45
453.852	39767.8
454.058	41051.87
454.264	40929
454.47	42589.9
454.676	42256.08
454.882	44428.98
455.088	41965.27
455.294	42700.49
455.5	44455.6
455.705	45371.04
455.911	45084.33
456.117	44662.44
456.323	44990.12
456.529	43171.52
456.735	45958.81
456.941	45504.16
457.147	45889.18
457.352	45029.03
457.558	45700.76
457.764	46440.08
457.97	45971.1
458.176	45913.75
458.381	46980.74
458.587	45291.17
458.793	45588.13
458.999	44302
459.204	47920.76
459.41	47087.24
459.616	45479.58
459.821	45784.73
460.027	45508.25
460.233	45688.48
460.438	43998.9
460.644	44809.9
460.85	43767.48
461.055	43196.1
