Data from USB4F104151__5__13-04-10-852.txt Node

Date: Fri Mar 14 13:04:10 EDT 2025
User: louis
Spectrometer: USB4F10415
Trigger mode: 4
Integration Time (sec): 4.000000E-2
Scans to average: 1
Electric dark correction enabled: true
Nonlinearity correction enabled: false
Boxcar width: 0
XAxis mode: Wavelengths
Number of Pixels in Spectrum: 3648
>>>>>Begin Spectral Data<<<<<
178.204	-133.8
178.424	-133.8
178.644	-133.8
178.864	-154.28
179.084	-137.9
179.304	19.8
179.524	-39.59
179.744	-6.83
179.964	23.89
180.184	38.23
180.404	3.41
180.624	21.85
180.844	1.37
181.064	-51.88
181.283	-39.59
181.503	-4.78
181.723	34.13
181.943	-25.26
182.163	140.63
182.383	58.71
182.602	52.56
182.822	122.2
183.042	-68.27
183.262	-25.26
183.482	7.51
183.701	-0.68
183.921	73.04
184.141	-53.93
184.361	118.1
184.58	32.08
184.8	40.28
185.02	46.42
185.239	142.68
185.459	46.42
185.679	-12.97
185.898	1.37
186.118	44.37
186.338	-39.59
186.557	73.04
186.777	-27.31
186.997	19.8
187.216	-2.73
187.436	183.63
187.655	58.71
187.875	23.89
188.095	25.94
188.314	34.13
188.534	32.08
188.753	50.52
188.973	17.75
189.192	23.89
189.412	-0.68
189.631	75.09
189.851	30.04
190.07	118.1
190.29	30.04
190.509	83.28
190.729	54.61
190.948	60.76
191.168	197.97
191.387	48.47
191.607	1.37
191.826	-8.87
192.045	-39.59
192.265	27.99
192.484	50.52
192.704	-6.83
192.923	-45.74
193.142	99.67
193.362	9.56
193.581	89.43
193.8	50.52
194.02	30.04
194.239	1.37
194.458	-12.97
194.678	-27.31
194.897	30.04
195.116	-23.21
195.335	15.7
195.555	95.57
195.774	93.52
195.993	13.65
196.212	-27.31
196.432	66.9
196.651	-6.83
196.87	40.28
197.089	150.87
197.308	103.76
197.528	38.23
197.747	-19.11
197.966	19.8
198.185	83.28
198.404	-17.07
198.623	81.24
198.842	54.61
199.062	68.95
199.281	122.2
199.5	-60.07
199.719	52.56
199.938	3.41
200.157	150.87
200.376	107.86
200.595	93.52
200.814	50.52
201.033	34.13
201.252	42.32
201.471	-45.74
201.69	146.77
201.909	87.38
202.128	85.33
202.347	-0.68
202.566	-27.31
202.785	-31.4
203.004	17.75
203.223	101.72
203.442	58.71
203.661	23.89
203.879	15.7
204.098	118.1
204.317	-0.68
204.536	34.13
204.755	34.13
204.974	126.29
205.193	73.04
205.411	148.82
205.63	99.67
205.849	-29.35
206.068	64.85
206.287	27.99
206.505	50.52
206.724	-15.02
206.943	42.32
207.162	68.95
207.381	-60.07
207.599	-70.31
207.818	25.94
208.037	64.85
208.255	-6.83
208.474	62.8
208.693	87.38
208.911	27.99
209.13	85.33
209.349	91.48
209.567	64.85
209.786	68.95
210.005	77.14
210.223	9.56
210.442	-47.79
210.661	89.43
210.879	60.76
211.098	62.8
211.316	75.09
211.535	27.99
211.753	52.56
211.972	42.32
212.191	1.37
212.409	3.41
212.628	107.86
212.846	-6.83
213.065	60.76
213.283	109.91
213.502	-35.5
213.72	19.8
213.938	42.32
214.157	44.37
214.375	101.72
214.594	68.95
214.812	79.19
215.031	9.56
215.249	3.41
215.467	-51.88
215.686	50.52
215.904	48.47
216.122	15.7
216.341	27.99
216.559	118.1
216.778	73.04
216.996	120.15
217.214	40.28
217.432	-2.73
217.651	-31.4
217.869	75.09
218.087	-55.98
218.306	75.09
218.524	21.85
218.742	17.75
218.96	30.04
219.179	15.7
219.397	3.41
219.615	101.72
219.833	66.9
220.051	54.61
220.27	27.99
220.488	109.91
220.706	-2.73
220.924	38.23
221.142	-0.68
221.36	38.23
221.578	38.23
221.796	77.14
222.015	38.23
222.233	9.56
222.451	71
222.669	-17.07
222.887	3.41
223.105	15.7
223.323	116.05
223.541	38.23
223.759	-15.02
223.977	44.37
224.195	25.94
224.413	124.24
224.631	11.61
224.849	44.37
225.067	142.68
225.285	60.76
225.503	-6.83
225.721	-37.55
225.939	3.41
226.157	38.23
226.375	152.91
226.592	-12.97
226.81	66.9
227.028	109.91
227.246	120.15
227.464	17.75
227.682	134.48
227.9	105.81
228.117	30.04
228.335	114
228.553	23.89
228.771	77.14
228.989	36.18
229.206	13.65
229.424	46.42
229.642	-43.69
229.86	3.41
230.077	83.28
230.295	-21.16
230.513	85.33
230.731	52.56
230.948	93.52
231.166	124.24
231.384	17.75
231.601	54.61
231.819	87.38
232.037	-2.73
232.254	58.71
232.472	3.41
232.689	-2.73
232.907	93.52
233.125	23.89
233.342	56.66
233.56	52.56
233.777	-15.02
233.995	42.32
234.213	101.72
234.43	30.04
234.648	-21.16
234.865	46.42
235.083	42.32
235.3	21.85
235.518	40.28
235.735	124.24
235.953	48.47
236.17	38.23
236.388	58.71
236.605	32.08
236.822	101.72
237.04	-2.73
237.257	36.18
237.475	40.28
237.692	85.33
237.909	17.75
238.127	19.8
238.344	-27.31
238.562	42.32
238.779	23.89
238.996	-33.45
239.214	-4.78
239.431	75.09
239.648	23.89
239.865	66.9
240.083	-10.92
240.3	38.23
240.517	1.37
240.735	38.23
240.952	79.19
241.169	71
241.386	68.95
241.603	3.41
241.821	-41.64
242.038	144.72
242.255	42.32
242.472	1.37
242.689	73.04
242.907	64.85
243.124	46.42
243.341	48.47
243.558	-25.26
243.775	-39.59
243.992	-31.4
244.209	1.37
244.426	134.48
244.643	30.04
244.86	25.94
245.078	68.95
245.295	13.65
245.512	58.71
245.729	27.99
245.946	11.61
246.163	62.8
246.38	-0.68
246.597	68.95
246.814	60.76
247.031	27.99
247.248	60.76
247.464	7.51
247.681	34.13
247.898	85.33
248.115	27.99
248.332	83.28
248.549	-10.92
248.766	134.48
248.983	9.56
249.2	19.8
249.417	40.28
249.633	-49.83
249.85	50.52
250.067	-21.16
250.284	50.52
250.501	79.19
250.717	48.47
250.934	58.71
251.151	25.94
251.368	-80.55
251.585	71
251.801	-19.11
252.018	-12.97
252.235	-4.78
252.451	-45.74
252.668	38.23
252.885	60.76
253.102	-53.93
253.318	87.38
253.535	13.65
253.752	9.56
253.968	5.46
254.185	1.37
254.401	30.04
254.618	21.85
254.835	-78.51
255.051	44.37
255.268	25.94
255.484	13.65
255.701	-43.69
255.917	48.47
256.134	-33.45
256.351	5.46
256.567	9.56
256.784	25.94
257	-51.88
257.217	25.94
257.433	91.48
257.65	27.99
257.866	85.33
258.082	1.37
258.299	52.56
258.515	58.71
258.732	58.71
258.948	85.33
259.165	11.61
259.381	15.7
259.597	1.37
259.814	21.85
260.03	11.61
260.246	25.94
260.463	79.19
260.679	89.43
260.895	-10.92
261.112	58.71
261.328	83.28
261.544	11.61
261.761	91.48
261.977	5.46
262.193	13.65
262.409	58.71
262.626	30.04
262.842	34.13
263.058	44.37
263.274	17.75
263.49	58.71
263.707	40.28
263.923	17.75
264.139	-19.11
264.355	52.56
264.571	68.95
264.787	32.08
265.004	116.05
265.22	30.04
265.436	-45.74
265.652	32.08
265.868	44.37
266.084	27.99
266.3	-15.02
266.516	-27.31
266.732	66.9
266.948	38.23
267.164	91.48
267.38	32.08
267.596	101.72
267.812	175.44
268.028	87.38
268.244	85.33
268.46	1.37
268.676	17.75
268.892	-27.31
269.108	1.37
269.324	-25.26
269.54	1.37
269.756	54.61
269.972	-25.26
270.188	66.9
270.403	-12.97
270.619	77.14
270.835	11.61
271.051	25.94
271.267	9.56
271.483	71
271.698	38.23
271.914	44.37
272.13	50.52
272.346	46.42
272.562	62.8
272.777	75.09
272.993	-12.97
273.209	17.75
273.425	19.8
273.64	-88.75
273.856	89.43
274.072	30.04
274.287	21.85
274.503	73.04
274.719	62.8
274.934	-25.26
275.15	15.7
275.366	21.85
275.581	-4.78
275.797	25.94
276.012	19.8
276.228	25.94
276.444	34.13
276.659	34.13
276.875	1.37
277.09	52.56
277.306	44.37
277.521	54.61
277.737	-23.21
277.952	66.9
278.168	38.23
278.383	87.38
278.599	-19.11
278.814	21.85
279.03	3.41
279.245	25.94
279.461	-17.07
279.676	21.85
279.892	-35.5
280.107	-55.98
280.322	-0.68
280.538	-6.83
280.753	30.04
280.969	32.08
281.184	48.47
281.399	21.85
281.615	62.8
281.83	99.67
282.045	-29.35
282.26	60.76
282.476	46.42
282.691	85.33
282.906	25.94
283.122	46.42
283.337	42.32
283.552	-19.11
283.767	32.08
283.983	109.91
284.198	85.33
284.413	75.09
284.628	-10.92
284.843	-8.87
285.058	68.95
285.274	17.75
285.489	-68.27
285.704	116.05
285.919	-6.83
286.134	77.14
286.349	-8.87
286.564	-21.16
286.779	130.39
286.995	109.91
287.21	25.94
287.425	54.61
287.64	97.62
287.855	21.85
288.07	-62.12
288.285	46.42
288.5	34.13
288.715	109.91
288.93	40.28
289.145	17.75
289.36	105.81
289.575	60.76
289.79	-6.83
290.004	25.94
290.219	136.53
290.434	42.32
290.649	38.23
290.864	46.42
291.079	1.37
291.294	103.76
291.509	30.04
291.724	50.52
291.938	50.52
292.153	60.76
292.368	32.08
292.583	27.99
292.798	42.32
293.012	-10.92
293.227	3.41
293.442	-37.55
293.657	46.42
293.871	111.96
294.086	13.65
294.301	101.72
294.516	36.18
294.73	46.42
294.945	-31.4
295.16	25.94
295.374	54.61
295.589	52.56
295.804	25.94
296.018	44.37
296.233	87.38
296.447	103.76
296.662	52.56
296.877	103.76
297.091	60.76
297.306	99.67
297.52	-10.92
297.735	-6.83
297.949	-17.07
298.164	34.13
298.378	52.56
298.593	38.23
298.807	-19.11
299.022	-66.22
299.236	105.81
299.451	89.43
299.665	-90.79
299.88	93.52
300.094	79.19
300.309	-15.02
300.523	-15.02
300.737	9.56
300.952	13.65
301.166	9.56
301.381	-10.92
301.595	34.13
301.809	-19.11
302.024	3.41
302.238	-64.17
302.452	32.08
302.667	17.75
302.881	11.61
303.095	181.59
303.309	36.18
303.524	-10.92
303.738	101.72
303.952	1.37
304.166	68.95
304.381	-92.84
304.595	134.48
304.809	-58.03
305.023	46.42
305.237	-21.16
305.452	7.51
305.666	25.94
305.88	50.52
306.094	44.37
306.308	66.9
306.522	-4.78
306.736	9.56
306.95	85.33
307.164	83.28
307.379	-37.55
307.593	54.61
307.807	89.43
308.021	142.68
308.235	68.95
308.449	-55.98
308.663	-12.97
308.877	68.95
309.091	44.37
309.305	13.65
309.519	-35.5
309.733	1.37
309.947	-21.16
310.161	79.19
310.374	60.76
310.588	52.56
310.802	-31.4
311.016	54.61
311.23	64.85
311.444	-12.97
311.658	105.81
311.872	25.94
312.085	103.76
312.299	116.05
312.513	91.48
312.727	19.8
312.941	-64.17
313.154	87.38
313.368	3.41
313.582	9.56
313.796	21.85
314.009	38.23
314.223	73.04
314.437	9.56
314.651	34.13
314.864	-15.02
315.078	34.13
315.292	-21.16
315.505	54.61
315.719	111.96
315.933	1.37
316.146	-27.31
316.36	-4.78
316.573	101.72
316.787	75.09
317.001	71
317.214	1.37
317.428	25.94
317.641	46.42
317.855	-6.83
318.068	25.94
318.282	17.75
318.495	89.43
318.709	58.71
318.922	83.28
319.136	120.15
319.349	27.99
319.563	-2.73
319.776	56.66
319.99	40.28
320.203	56.66
320.417	99.67
320.63	68.95
320.843	97.62
321.057	58.71
321.27	-51.88
321.483	89.43
321.697	107.86
321.91	46.42
322.124	3.41
322.337	-4.78
322.55	1.37
322.763	50.52
322.977	30.04
323.19	27.99
323.403	66.9
323.617	17.75
323.83	105.81
324.043	25.94
324.256	54.61
324.469	34.13
324.683	66.9
324.896	-8.87
325.109	81.24
325.322	56.66
325.535	44.37
325.748	27.99
325.962	25.94
326.175	111.96
326.388	46.42
326.601	60.76
326.814	64.85
327.027	38.23
327.24	120.15
327.453	-4.78
327.666	50.52
327.879	93.52
328.092	60.76
328.305	99.67
328.518	3.41
328.731	34.13
328.944	58.71
329.157	48.47
329.37	34.13
329.583	83.28
329.796	142.68
330.009	9.56
330.222	25.94
330.435	50.52
330.648	73.04
330.861	3.41
331.073	-2.73
331.286	73.04
331.499	109.91
331.712	9.56
331.925	5.46
332.138	62.8
332.35	73.04
332.563	-23.21
332.776	60.76
332.989	1.37
333.202	21.85
333.414	-37.55
333.627	68.95
333.84	-8.87
334.053	17.75
334.265	56.66
334.478	44.37
334.691	38.23
334.903	36.18
335.116	-53.93
335.329	77.14
335.541	62.8
335.754	91.48
335.966	-10.92
336.179	15.7
336.392	25.94
336.604	93.52
336.817	-37.55
337.029	56.66
337.242	9.56
337.454	87.38
337.667	23.89
337.88	120.15
338.092	11.61
338.305	75.09
338.517	5.46
338.729	-0.68
338.942	42.32
339.154	-10.92
339.367	17.75
339.579	11.61
339.792	30.04
340.004	23.89
340.217	-31.4
340.429	64.85
340.641	11.61
340.854	-31.4
341.066	50.52
341.278	107.86
341.491	124.24
341.703	34.13
341.915	-37.55
342.128	60.76
342.34	25.94
342.552	19.8
342.764	116.05
342.977	-2.73
343.189	25.94
343.401	7.51
343.613	-53.93
343.826	30.04
344.038	25.94
344.25	75.09
344.462	42.32
344.674	46.42
344.886	13.65
345.099	21.85
345.311	-17.07
345.523	11.61
345.735	-41.64
345.947	99.67
346.159	-31.4
346.371	21.85
346.583	44.37
346.795	101.72
347.007	46.42
347.219	25.94
347.431	38.23
347.643	46.42
347.855	71
348.067	103.76
348.279	9.56
348.491	-15.02
348.703	-25.26
348.915	-2.73
349.127	-74.41
349.339	30.04
349.551	40.28
349.763	58.71
349.975	23.89
350.187	52.56
350.399	136.53
350.61	-15.02
350.822	-19.11
351.034	-6.83
351.246	13.65
351.458	13.65
351.669	64.85
351.881	85.33
352.093	87.38
352.305	50.52
352.517	30.04
352.728	71
352.94	-12.97
353.152	34.13
353.363	-55.98
353.575	36.18
353.787	95.57
353.999	71
354.21	50.52
354.422	75.09
354.633	91.48
354.845	89.43
355.057	-6.83
355.268	7.51
355.48	66.9
355.692	60.76
355.903	95.57
356.115	-60.07
356.326	-49.83
356.538	85.33
356.749	66.9
356.961	107.86
357.172	60.76
357.384	79.19
357.595	118.1
357.807	-31.4
358.018	60.76
358.23	19.8
358.441	105.81
358.653	52.56
358.864	101.72
359.075	46.42
359.287	34.13
359.498	99.67
359.709	40.28
359.921	-4.78
360.132	46.42
360.344	81.24
360.555	-43.69
360.766	116.05
360.977	-39.59
361.189	58.71
361.4	9.56
361.611	107.86
361.823	62.8
362.034	7.51
362.245	23.89
362.456	-6.83
362.667	60.76
362.879	7.51
363.09	91.48
363.301	66.9
363.512	50.52
363.723	36.18
363.935	75.09
364.146	93.52
364.357	50.52
364.568	77.14
364.779	-72.36
364.99	54.61
365.201	-12.97
365.412	93.52
365.623	-53.93
365.834	87.38
366.045	101.72
366.256	75.09
366.467	73.04
366.678	99.67
366.889	23.89
367.1	-21.16
367.311	44.37
367.522	5.46
367.733	60.76
367.944	56.66
368.155	-12.97
368.366	116.05
368.577	95.57
368.788	62.8
368.999	13.65
369.209	11.61
369.42	134.48
369.631	68.95
369.842	111.96
370.053	114
370.264	75.09
370.474	19.8
370.685	19.8
370.896	87.38
371.107	124.24
371.317	103.76
371.528	25.94
371.739	81.24
371.95	93.52
372.16	85.33
372.371	13.65
372.582	-12.97
372.792	101.72
373.003	48.47
373.214	32.08
373.424	64.85
373.635	11.61
373.846	101.72
374.056	83.28
374.267	56.66
374.477	48.47
374.688	-17.07
374.898	87.38
375.109	42.32
375.319	50.52
375.53	75.09
375.74	3.41
375.951	-8.87
376.161	-2.73
376.372	19.8
376.582	3.41
376.793	134.48
377.003	-15.02
377.214	-45.74
377.424	116.05
377.635	66.9
377.845	64.85
378.055	19.8
378.266	-2.73
378.476	66.9
378.686	15.7
378.897	66.9
379.107	97.62
379.317	19.8
379.528	-58.03
379.738	-15.02
379.948	11.61
380.158	87.38
380.369	58.71
380.579	77.14
380.789	-27.31
380.999	83.28
381.21	71
381.42	107.86
381.63	66.9
381.84	89.43
382.05	103.76
382.261	27.99
382.471	7.51
382.681	-27.31
382.891	83.28
383.101	19.8
383.311	62.8
383.521	46.42
383.731	48.47
383.941	118.1
384.151	120.15
384.361	81.24
384.571	-2.73
384.781	27.99
384.991	58.71
385.201	136.53
385.411	73.04
385.621	71
385.831	15.7
386.041	25.94
386.251	-15.02
386.461	56.66
386.671	107.86
386.881	48.47
387.091	48.47
387.301	79.19
387.511	68.95
387.72	9.56
387.93	103.76
388.14	30.04
388.35	58.71
388.56	44.37
388.769	58.71
388.979	38.23
389.189	44.37
389.399	17.75
389.609	130.39
389.818	83.28
390.028	30.04
390.238	27.99
390.447	-39.59
390.657	50.52
390.867	111.96
391.076	42.32
391.286	52.56
391.496	-10.92
391.705	132.44
391.915	15.7
392.125	50.52
392.334	34.13
392.544	124.24
392.753	91.48
392.963	83.28
393.172	97.62
393.382	79.19
393.591	136.53
393.801	68.95
394.01	124.24
394.22	93.52
394.429	97.62
394.639	71
394.848	85.33
395.058	62.8
395.267	19.8
395.477	83.28
395.686	38.23
395.895	97.62
396.105	169.3
396.314	83.28
396.524	91.48
396.733	105.81
396.942	142.68
397.152	64.85
397.361	132.44
397.57	105.81
397.78	71
397.989	71
398.198	191.83
398.407	87.38
398.617	48.47
398.826	19.8
399.035	68.95
399.244	161.11
399.453	42.32
399.663	95.57
399.872	66.9
400.081	19.8
400.29	79.19
400.499	21.85
400.708	146.77
400.917	54.61
401.127	93.52
401.336	36.18
401.545	99.67
401.754	142.68
401.963	9.56
402.172	85.33
402.381	50.52
402.59	75.09
402.799	130.39
403.008	173.39
403.217	107.86
403.426	124.24
403.635	30.04
403.844	105.81
404.053	97.62
404.262	42.32
404.471	197.97
404.68	130.39
404.888	101.72
405.097	150.87
405.306	132.44
405.515	169.3
405.724	118.1
405.933	124.24
406.142	165.2
406.35	206.16
406.559	128.34
406.768	171.35
406.977	275.79
407.185	142.68
407.394	136.53
407.603	105.81
407.812	234.83
408.02	208.21
408.229	165.2
408.438	187.73
408.646	73.04
408.855	122.2
409.064	240.98
409.272	279.89
409.481	255.31
409.69	167.25
409.898	157.01
410.107	249.17
410.315	216.4
410.524	259.41
410.733	273.75
410.941	267.6
411.15	269.65
411.358	255.31
411.567	384.34
411.775	253.27
411.984	308.56
412.192	333.14
412.401	363.86
412.609	331.09
412.818	419.15
413.026	392.53
413.234	400.72
413.443	316.75
413.651	398.67
413.86	396.62
414.068	413.01
414.276	482.64
414.485	427.34
414.693	521.55
414.901	519.5
415.11	550.22
415.318	470.35
415.526	566.6
415.734	595.28
415.943	521.55
416.151	660.81
416.359	603.47
416.567	730.44
416.776	681.29
416.984	693.58
417.192	755.02
417.4	714.06
417.608	738.63
417.817	734.54
418.025	853.32
418.233	920.9
418.441	800.07
418.649	834.89
418.857	947.53
419.065	1058.12
419.273	951.62
419.481	992.58
419.689	943.43
419.897	1033.54
420.105	1113.41
420.313	1197.38
420.521	1209.67
420.729	1197.38
420.937	1271.11
421.145	1307.97
421.353	1473.85
421.561	1498.43
421.769	1410.37
421.977	1457.47
422.185	1502.53
422.393	1576.25
422.601	1609.02
422.809	1776.95
423.017	1740.09
423.224	1776.95
423.432	1756.47
423.64	1895.74
423.848	2071.86
424.056	1920.31
424.263	2088.25
424.471	2116.92
424.679	2219.32
424.887	2368.82
425.094	2362.67
425.302	2329.91
425.51	2358.58
425.718	2516.27
425.925	2522.41
426.133	2639.15
426.341	2886.95
426.548	2923.82
426.756	2956.58
426.964	3108.13
427.171	3108.13
427.379	3284.26
427.586	3247.4
427.794	3343.65
428.001	3597.6
428.209	3671.33
428.417	3591.45
428.624	3839.26
428.832	3892.51
429.039	3900.7
429.247	3927.32
429.454	4300.05
429.662	4631.82
429.869	4236.56
430.076	4494.61
430.284	4574.48
430.491	4678.93
430.699	4957.45
430.906	4924.68
431.114	5098.76
431.321	5254.41
431.528	5256.45
431.736	5539.07
431.943	5879.04
432.15	5651.71
432.358	5838.08
432.565	5971.19
432.772	5940.47
432.979	6294.77
433.187	6407.41
433.394	6481.14
433.601	6913.26
433.808	6845.68
434.016	6841.58
434.223	7167.21
434.43	7613.67
434.637	7406.82
434.844	7859.42
435.052	8080.6
435.259	7900.38
435.466	8156.38
435.673	7988.44
435.88	8606.93
436.087	9024.72
436.294	8965.32
436.501	8789.2
436.708	8955.08
436.915	9348.29
437.122	9555.14
437.329	9669.83
437.537	10015.93
437.743	10038.46
437.95	9995.45
438.157	10624.18
438.364	10745.01
438.571	10955.95
438.778	11078.83
438.985	12108.96
439.192	11693.22
439.399	12145.82
439.606	11685.03
439.813	12422.3
440.02	13225.1
440.227	12801.17
440.433	12563.61
440.64	13083.79
440.847	13149.32
441.054	13542.53
441.261	14308.47
441.467	13997.18
441.674	14197.88
441.881	14857.33
442.088	15078.51
442.294	14537.85
442.501	15234.16
442.708	15533.16
442.914	16116.83
443.121	16794.71
443.328	16174.17
443.534	17245.26
443.741	17032.27
443.948	16733.27
444.154	18269.25
444.361	17917
444.568	18230.34
444.774	18277.44
444.981	18400.32
445.187	19039.28
445.394	19516.46
445.6	19342.38
445.807	20993.04
446.013	20046.88
446.22	20622.36
446.426	21343.25
446.633	21763.08
446.839	22610.94
447.046	21480.46
447.252	22828.02
447.459	22803.45
447.665	22928.38
447.871	23510
448.078	24693.72
448.284	23811.05
448.491	24191.97
448.697	25250.77
448.903	25574.35
449.11	25566.16
449.316	25291.73
449.522	25801.68
449.728	26897.34
449.935	26860.48
450.141	26563.52
450.347	27552.69
450.553	26674.11
450.76	26760.12
450.966	27632.56
451.172	27650.99
451.378	28038.06
451.584	27577.26
451.791	28269.48
451.997	28136.36
452.203	28713.89
452.409	28914.59
452.615	28795.81
452.821	27569.07
453.027	27513.78
453.233	28646.3
453.44	27542.45
453.646	27737.01
453.852	27757.49
454.058	28443.56
454.264	27493.3
454.47	28109.74
454.676	27497.39
454.882	28507.04
455.088	25707.47
455.294	26264.52
455.5	26493.89
455.705	27085.75
455.911	26016.71
456.117	25494.48
456.323	25289.68
456.529	23768.04
456.735	24898.52
456.941	24474.59
457.147	23991.27
457.352	23340.02
457.558	22957.05
457.764	23200.76
457.97	22729.72
458.176	22107.14
458.381	21953.54
458.587	20993.04
458.793	20929.56
458.999	19969.06
459.204	21507.09
459.41	20945.94
459.616	19188.78
459.821	19393.58
460.027	19131.44
460.233	19117.11
460.438	17859.65
460.644	18129.98
460.85	17146.96
461.055	16958.55
461.261	16933.97
461.466	15918.18
461.672	15250.54
461.878	16501.85
462.083	15115.37
462.289	14888.05
462.494	14797.94
462.7	14152.83
462.905	13554.82
463.111	14328.95
463.316	14238.84
463.522	13806.72
463.727	13892.74
463.932	14152.83
464.138	14021.76
464.343	13878.4
464.549	13386.89
464.754	14113.92
464.959	13780.1
465.165	13862.02
465.37	12930.19
465.575	12975.25
465.781	13329.55
465.986	13472.9
466.191	12872.85
466.397	12530.84
466.602	11990.17
466.807	12307.61
467.012	12428.44
467.218	12491.93
467.423	12014.75
467.628	12450.97
