Data from USB4F104151__69__13-05-58-320.txt Node

Date: Fri Mar 14 13:05:58 EDT 2025
User: louis
Spectrometer: USB4F10415
Trigger mode: 4
Integration Time (sec): 4.000000E-2
Scans to average: 1
Electric dark correction enabled: true
Nonlinearity correction enabled: false
Boxcar width: 0
XAxis mode: Wavelengths
Number of Pixels in Spectrum: 3648
>>>>>Begin Spectral Data<<<<<
178.204	-145.75
178.424	-145.75
178.644	-145.75
178.864	-176.47
179.084	-289.1
179.304	-20.82
179.524	-45.4
179.744	-31.06
179.964	91.82
180.184	-6.49
180.404	30.38
180.624	3.75
180.844	22.19
181.064	-16.73
181.283	-12.63
181.503	5.8
181.723	-20.82
181.943	-37.2
182.163	149.16
182.383	1.71
182.602	67.24
182.822	151.21
183.042	44.71
183.262	73.39
183.482	1.71
183.701	73.39
183.921	50.86
184.141	-12.63
184.361	50.86
184.58	16.04
184.8	28.33
185.02	153.26
185.239	3.75
185.459	36.52
185.679	69.29
185.898	-72.02
186.118	122.54
186.338	67.24
186.557	89.77
186.777	59.05
186.997	36.52
187.216	30.38
187.436	75.43
187.655	79.53
187.875	34.47
188.095	46.76
188.314	63.15
188.534	97.96
188.753	63.15
188.973	28.33
189.192	97.96
189.412	9.9
189.631	65.19
189.851	18.09
190.07	81.58
190.29	38.57
190.509	36.52
190.729	91.82
190.948	67.24
191.168	194.22
191.387	100.01
191.607	89.77
191.826	81.58
192.045	50.86
192.265	22.19
192.484	63.15
192.704	93.87
192.923	30.38
193.142	165.54
193.362	163.5
193.581	108.2
193.8	13.99
194.02	145.06
194.239	112.3
194.458	67.24
194.678	46.76
194.897	65.19
195.116	81.58
195.335	81.58
195.555	63.15
195.774	65.19
195.993	134.82
196.212	42.67
196.432	112.3
196.651	122.54
196.87	63.15
197.089	181.93
197.308	77.48
197.528	155.3
197.747	59.05
197.966	71.34
198.185	85.67
198.404	75.43
198.623	71.34
198.842	28.33
199.062	95.91
199.281	69.29
199.5	44.71
199.719	87.72
199.938	63.15
200.157	48.81
200.376	48.81
200.595	85.67
200.814	38.57
201.033	44.71
201.252	151.21
201.471	85.67
201.69	26.28
201.909	16.04
202.128	157.35
202.347	59.05
202.566	173.74
202.785	50.86
203.004	-18.77
203.223	108.2
203.442	134.82
203.661	-14.68
203.879	63.15
204.098	159.4
204.317	46.76
204.536	81.58
204.755	108.2
204.974	77.48
205.193	63.15
205.411	231.08
205.63	54.95
205.849	42.67
206.068	52.91
206.287	-16.73
206.505	138.92
206.724	9.9
206.943	28.33
207.162	46.76
207.381	67.24
207.599	26.28
207.818	77.48
208.037	20.14
208.255	-2.39
208.474	97.96
208.693	77.48
208.911	54.95
209.13	22.19
209.349	52.91
209.567	130.73
209.786	81.58
210.005	91.82
210.223	93.87
210.442	28.33
210.661	79.53
210.879	52.91
211.098	124.58
211.316	61.1
211.535	153.26
211.753	20.14
211.972	26.28
212.191	16.04
212.409	85.67
212.628	85.67
212.846	59.05
213.065	54.95
213.283	75.43
213.502	3.75
213.72	34.47
213.938	32.43
214.157	28.33
214.375	120.49
214.594	20.14
214.812	93.87
215.031	69.29
215.249	-6.49
215.467	108.2
215.686	61.1
215.904	118.44
216.122	71.34
216.341	140.97
216.559	42.67
216.778	85.67
216.996	54.95
217.214	59.05
217.432	42.67
217.651	46.76
217.869	36.52
218.087	1.71
218.306	-6.49
218.524	112.3
218.742	52.91
218.96	85.67
219.179	116.39
219.397	128.68
219.615	179.88
219.833	91.82
220.051	-10.58
220.27	71.34
220.488	28.33
220.706	87.72
220.924	83.63
221.142	67.24
221.36	54.95
221.578	102.06
221.796	28.33
222.015	93.87
222.233	63.15
222.451	192.17
222.669	13.99
222.887	30.38
223.105	24.23
223.323	38.57
223.541	-14.68
223.759	143.02
223.977	-18.77
224.195	138.92
224.413	79.53
224.631	75.43
224.849	67.24
225.067	177.83
225.285	-8.53
225.503	16.04
225.721	-67.92
225.939	34.47
226.157	16.04
226.375	106.15
226.592	77.48
226.81	85.67
227.028	83.63
227.246	104.11
227.464	67.24
227.682	100.01
227.9	-18.77
228.117	118.44
228.335	71.34
228.553	5.8
228.771	54.95
228.989	22.19
229.206	120.49
229.424	44.71
229.642	136.87
229.86	-4.44
230.077	59.05
230.295	71.34
230.513	122.54
230.731	104.11
230.948	145.06
231.166	120.49
231.384	9.9
231.601	1.71
231.819	81.58
232.037	48.81
232.254	-35.16
232.472	59.05
232.689	22.19
232.907	54.95
233.125	59.05
233.342	50.86
233.56	38.57
233.777	34.47
233.995	30.38
234.213	104.11
234.43	67.24
234.648	59.05
234.865	67.24
235.083	83.63
235.3	26.28
235.518	67.24
235.735	177.83
235.953	100.01
236.17	7.85
236.388	-22.87
236.605	36.52
236.822	91.82
237.04	120.49
237.257	73.39
237.475	89.77
237.692	61.1
237.909	34.47
238.127	40.62
238.344	83.63
238.562	52.91
238.779	-22.87
238.996	42.67
239.214	44.71
239.431	169.64
239.648	16.04
239.865	71.34
240.083	67.24
240.3	83.63
240.517	34.47
240.735	20.14
240.952	97.96
241.169	85.67
241.386	50.86
241.603	-4.44
241.821	3.75
242.038	89.77
242.255	36.52
242.472	54.95
242.689	155.3
242.907	122.54
243.124	18.09
243.341	11.95
243.558	-33.11
243.775	63.15
243.992	9.9
244.209	32.43
244.426	95.91
244.643	167.59
244.86	-33.11
245.078	91.82
245.295	-2.39
245.512	28.33
245.729	87.72
245.946	52.91
246.163	79.53
246.38	89.77
246.597	81.58
246.814	173.74
247.031	71.34
247.248	104.11
247.464	42.67
247.681	-20.82
247.898	79.53
248.115	85.67
248.332	-6.49
248.549	30.38
248.766	132.78
248.983	175.78
249.2	34.47
249.417	42.67
249.633	34.47
249.85	149.16
250.067	-4.44
250.284	20.14
250.501	63.15
250.717	97.96
250.934	-14.68
251.151	24.23
251.368	42.67
251.585	16.04
251.801	-22.87
252.018	24.23
252.235	91.82
252.451	42.67
252.668	97.96
252.885	48.81
253.102	106.15
253.318	57
253.535	52.91
253.752	32.43
253.968	48.81
254.185	75.43
254.401	134.82
254.618	59.05
254.835	28.33
255.051	71.34
255.268	22.19
255.484	65.19
255.701	36.52
255.917	145.06
256.134	16.04
256.351	57
256.567	-49.49
256.784	116.39
257	-8.53
257.217	124.58
257.433	122.54
257.65	65.19
257.866	5.8
258.082	44.71
258.299	36.52
258.515	44.71
258.732	63.15
258.948	52.91
259.165	-12.63
259.381	44.71
259.597	153.26
259.814	81.58
260.03	13.99
260.246	71.34
260.463	91.82
260.679	157.35
260.895	34.47
261.112	114.34
261.328	93.87
261.544	9.9
261.761	118.44
261.977	44.71
262.193	-96.6
262.409	50.86
262.626	75.43
262.842	34.47
263.058	9.9
263.274	77.48
263.49	36.52
263.707	67.24
263.923	54.95
264.139	-10.58
264.355	89.77
264.571	91.82
264.787	48.81
265.004	130.73
265.22	32.43
265.436	18.09
265.652	69.29
265.868	57
266.084	42.67
266.3	69.29
266.516	48.81
266.732	20.14
266.948	50.86
267.164	44.71
267.38	112.3
267.596	59.05
267.812	198.31
268.028	95.91
268.244	54.95
268.46	20.14
268.676	9.9
268.892	75.43
269.108	24.23
269.324	20.14
269.54	-16.73
269.756	42.67
269.972	3.75
270.188	122.54
270.403	-6.49
270.619	71.34
270.835	69.29
271.051	83.63
271.267	13.99
271.483	-43.35
271.698	65.19
271.914	50.86
272.13	77.48
272.346	65.19
272.562	-0.34
272.777	79.53
272.993	7.85
273.209	50.86
273.425	77.48
273.64	-43.35
273.856	32.43
274.072	9.9
274.287	63.15
274.503	118.44
274.719	122.54
274.934	46.76
275.15	18.09
275.366	13.99
275.581	-14.68
275.797	54.95
276.012	93.87
276.228	69.29
276.444	104.11
276.659	108.2
276.875	91.82
277.09	54.95
277.306	110.25
277.521	79.53
277.737	63.15
277.952	87.72
278.168	87.72
278.383	22.19
278.599	61.1
278.814	44.71
279.03	91.82
279.245	128.68
279.461	32.43
279.676	100.01
279.892	-65.88
280.107	3.75
280.322	9.9
280.538	67.24
280.753	32.43
280.969	110.25
281.184	147.11
281.399	97.96
281.615	-4.44
281.83	18.09
282.045	-41.3
282.26	50.86
282.476	9.9
282.691	140.97
282.906	13.99
283.122	97.96
283.337	46.76
283.552	100.01
283.767	34.47
283.983	120.49
284.198	40.62
284.413	79.53
284.628	73.39
284.843	1.71
285.058	132.78
285.274	114.34
285.489	61.1
285.704	91.82
285.919	116.39
286.134	95.91
286.349	77.48
286.564	85.67
286.779	192.17
286.995	100.01
287.21	11.95
287.425	151.21
287.64	16.04
287.855	36.52
288.07	63.15
288.285	128.68
288.5	87.72
288.715	143.02
288.93	114.34
289.145	34.47
289.36	118.44
289.575	18.09
289.79	22.19
290.004	97.96
290.219	57
290.434	65.19
290.649	40.62
290.864	61.1
291.079	40.62
291.294	104.11
291.509	11.95
291.724	108.2
291.938	18.09
292.153	79.53
292.368	52.91
292.583	50.86
292.798	136.87
293.012	89.77
293.227	24.23
293.442	104.11
293.657	63.15
293.871	61.1
294.086	116.39
294.301	198.31
294.516	95.91
294.73	34.47
294.945	1.71
295.16	106.15
295.374	102.06
295.589	102.06
295.804	22.19
296.018	40.62
296.233	124.58
296.447	161.45
296.662	34.47
296.877	79.53
297.091	48.81
297.306	73.39
297.52	30.38
297.735	85.67
297.949	108.2
298.164	-10.58
298.378	67.24
298.593	57
298.807	52.91
299.022	81.58
299.236	89.77
299.451	-37.2
299.665	13.99
299.88	50.86
300.094	16.04
300.309	79.53
300.523	95.91
300.737	18.09
300.952	44.71
301.166	110.25
301.381	5.8
301.595	69.29
301.809	77.48
302.024	38.57
302.238	-2.39
302.452	100.01
302.667	48.81
302.881	118.44
303.095	32.43
303.309	120.49
303.524	91.82
303.738	87.72
303.952	42.67
304.166	104.11
304.381	-10.58
304.595	69.29
304.809	-18.77
305.023	175.78
305.237	18.09
305.452	3.75
305.666	145.06
305.88	100.01
306.094	65.19
306.308	81.58
306.522	-31.06
306.736	61.1
306.95	65.19
307.164	95.91
307.379	-2.39
307.593	140.97
307.807	95.91
308.021	91.82
308.235	130.73
308.449	-2.39
308.663	122.54
308.877	175.78
309.091	75.43
309.305	102.06
309.519	9.9
309.733	183.98
309.947	59.05
310.161	149.16
310.374	65.19
310.588	36.52
310.802	34.47
311.016	95.91
311.23	114.34
311.444	30.38
311.658	91.82
311.872	-14.68
312.085	149.16
312.299	34.47
312.513	93.87
312.727	36.52
312.941	46.76
313.154	91.82
313.368	106.15
313.582	79.53
313.796	40.62
314.009	32.43
314.223	132.78
314.437	67.24
314.651	54.95
314.864	30.38
315.078	26.28
315.292	-31.06
315.505	26.28
315.719	7.85
315.933	112.3
316.146	87.72
316.36	91.82
316.573	149.16
316.787	52.91
317.001	44.71
317.214	16.04
317.428	63.15
317.641	36.52
317.855	13.99
318.068	59.05
318.282	196.26
318.495	91.82
318.709	-6.49
318.922	85.67
319.136	128.68
319.349	147.11
319.563	59.05
319.776	67.24
319.99	18.09
320.203	63.15
320.417	173.74
320.63	91.82
320.843	179.88
321.057	67.24
321.27	93.87
321.483	75.43
321.697	36.52
321.91	75.43
322.124	73.39
322.337	83.63
322.55	73.39
322.763	112.3
322.977	79.53
323.19	18.09
323.403	52.91
323.617	106.15
323.83	77.48
324.043	104.11
324.256	91.82
324.469	67.24
324.683	140.97
324.896	59.05
325.109	22.19
325.322	-16.73
325.535	124.58
325.748	59.05
325.962	59.05
326.175	100.01
326.388	54.95
326.601	50.86
326.814	20.14
327.027	32.43
327.24	116.39
327.453	-2.39
327.666	124.58
327.879	140.97
328.092	77.48
328.305	54.95
328.518	126.63
328.731	159.4
328.944	91.82
329.157	106.15
329.37	157.35
329.583	91.82
329.796	214.7
330.009	13.99
330.222	104.11
330.435	124.58
330.648	93.87
330.861	77.48
331.073	77.48
331.286	106.15
331.499	79.53
331.712	44.71
331.925	67.24
332.138	67.24
332.35	116.39
332.563	30.38
332.776	116.39
332.989	83.63
333.202	87.72
333.414	114.34
333.627	48.81
333.84	54.95
334.053	67.24
334.265	57
334.478	59.05
334.691	93.87
334.903	85.67
335.116	-2.39
335.329	130.73
335.541	75.43
335.754	134.82
335.966	24.23
336.179	95.91
336.392	20.14
336.604	104.11
336.817	32.43
337.029	83.63
337.242	59.05
337.454	104.11
337.667	59.05
337.88	89.77
338.092	7.85
338.305	59.05
338.517	26.28
338.729	126.63
338.942	118.44
339.154	20.14
339.367	11.95
339.579	63.15
339.792	61.1
340.004	85.67
340.217	65.19
340.429	122.54
340.641	52.91
340.854	26.28
341.066	32.43
341.278	93.87
341.491	83.63
341.703	97.96
341.915	54.95
342.128	71.34
342.34	95.91
342.552	89.77
342.764	97.96
342.977	69.29
343.189	149.16
343.401	38.57
343.613	77.48
343.826	110.25
344.038	57
344.25	73.39
344.462	7.85
344.674	71.34
344.886	132.78
345.099	16.04
345.311	87.72
345.523	63.15
345.735	20.14
345.947	132.78
346.159	93.87
346.371	124.58
346.583	42.67
346.795	132.78
347.007	20.14
347.219	132.78
347.431	91.82
347.643	177.83
347.855	34.47
348.067	52.91
348.279	-24.92
348.491	54.95
348.703	22.19
348.915	97.96
349.127	116.39
349.339	63.15
349.551	48.81
349.763	181.93
349.975	67.24
350.187	22.19
350.399	200.36
350.61	114.34
350.822	9.9
351.034	89.77
351.246	44.71
351.458	95.91
351.669	100.01
351.881	108.2
352.093	59.05
352.305	124.58
352.517	169.64
352.728	122.54
352.94	163.5
353.152	91.82
353.363	52.91
353.575	100.01
353.787	157.35
353.999	46.76
354.21	151.21
354.422	63.15
354.633	89.77
354.845	97.96
355.057	-8.53
355.268	122.54
355.48	216.74
355.692	-10.58
355.903	165.54
356.115	116.39
356.326	50.86
356.538	85.67
356.749	79.53
356.961	116.39
357.172	26.28
357.384	67.24
357.595	149.16
357.807	1.71
358.018	11.95
358.23	85.67
358.441	120.49
358.653	132.78
358.864	50.86
359.075	-29.01
359.287	120.49
359.498	106.15
359.709	118.44
359.921	44.71
360.132	124.58
360.344	50.86
360.555	40.62
360.766	46.76
360.977	126.63
361.189	110.25
361.4	48.81
361.611	93.87
361.823	183.98
362.034	151.21
362.245	87.72
362.456	34.47
362.667	161.45
362.879	34.47
363.09	83.63
363.301	124.58
363.512	124.58
363.723	50.86
363.935	118.44
364.146	95.91
364.357	87.72
364.568	93.87
364.779	54.95
364.99	124.58
365.201	-45.4
365.412	112.3
365.623	48.81
365.834	97.96
366.045	149.16
366.256	196.26
366.467	54.95
366.678	83.63
366.889	91.82
367.1	112.3
367.311	87.72
367.522	7.85
367.733	116.39
367.944	75.43
368.155	67.24
368.366	79.53
368.577	138.92
368.788	151.21
368.999	50.86
369.209	120.49
369.42	181.93
369.631	218.79
369.842	71.34
370.053	91.82
370.264	173.74
370.474	77.48
370.685	108.2
370.896	59.05
371.107	124.58
371.317	126.63
371.528	106.15
371.739	163.5
371.95	140.97
372.16	120.49
372.371	79.53
372.582	77.48
372.792	50.86
373.003	54.95
373.214	89.77
373.424	93.87
373.635	65.19
373.846	222.89
374.056	63.15
374.267	71.34
374.477	145.06
374.688	30.38
374.898	54.95
375.109	54.95
375.319	73.39
375.53	165.54
375.74	97.96
375.951	61.1
376.161	200.36
376.372	108.2
376.582	-10.58
376.793	97.96
377.003	38.57
377.214	67.24
377.424	48.81
377.635	9.9
377.845	75.43
378.055	145.06
378.266	22.19
378.476	85.67
378.686	140.97
378.897	143.02
379.107	67.24
379.317	155.3
379.528	54.95
379.738	110.25
379.948	108.2
380.158	97.96
380.369	108.2
380.579	54.95
380.789	122.54
380.999	120.49
381.21	85.67
381.42	126.63
381.63	85.67
381.84	114.34
382.05	169.64
382.261	130.73
382.471	95.91
382.681	28.33
382.891	140.97
383.101	112.3
383.311	132.78
383.521	28.33
383.731	85.67
383.941	122.54
384.151	159.4
384.361	102.06
384.571	54.95
384.781	102.06
384.991	214.7
385.201	200.36
385.411	159.4
385.621	59.05
385.831	140.97
386.041	57
386.251	57
386.461	3.75
386.671	138.92
386.881	61.1
387.091	231.08
387.301	147.11
387.511	100.01
387.72	102.06
387.93	163.5
388.14	3.75
388.35	83.63
388.56	161.45
388.769	114.34
388.979	85.67
389.189	112.3
389.399	79.53
389.609	136.87
389.818	204.46
390.028	85.67
390.238	130.73
390.447	97.96
390.657	118.44
390.867	83.63
391.076	40.62
391.286	95.91
391.496	134.82
391.705	100.01
391.915	175.78
392.125	34.47
392.334	79.53
392.544	194.22
392.753	124.58
392.963	118.44
393.172	120.49
393.382	73.39
393.591	198.31
393.801	124.58
394.01	280.23
394.22	118.44
394.429	91.82
394.639	161.45
394.848	159.4
395.058	120.49
395.267	91.82
395.477	81.58
395.686	165.54
395.895	261.8
396.105	239.27
396.314	102.06
396.524	104.11
396.733	71.34
396.942	210.6
397.152	167.59
397.361	114.34
397.57	145.06
397.78	136.87
397.989	173.74
398.198	200.36
398.407	95.91
398.617	124.58
398.826	128.68
399.035	128.68
399.244	210.6
399.453	155.3
399.663	163.5
399.872	186.02
400.081	124.58
400.29	274.09
400.499	165.54
400.708	198.31
400.917	233.13
401.127	116.39
401.336	130.73
401.545	218.79
401.754	190.12
401.963	239.27
402.172	140.97
402.381	188.07
402.59	198.31
402.799	183.98
403.008	204.46
403.217	200.36
403.426	202.41
403.635	91.82
403.844	175.78
404.053	194.22
404.262	177.83
404.471	321.19
404.68	204.46
404.888	263.85
405.097	233.13
405.306	247.46
405.515	274.09
405.724	216.74
405.933	241.32
406.142	235.18
406.35	276.13
406.559	222.89
406.768	255.65
406.977	343.72
407.185	302.76
407.394	337.57
407.603	335.53
407.812	251.56
408.02	380.58
408.229	394.92
408.438	308.9
408.646	237.22
408.855	370.34
409.064	360.1
409.272	452.26
409.481	386.72
409.69	384.68
409.898	390.82
410.107	405.16
410.315	532.13
410.524	468.64
410.733	466.6
410.941	503.46
411.15	542.37
411.358	534.18
411.567	630.43
411.775	564.9
411.984	503.46
412.192	667.3
412.401	640.67
412.609	640.67
412.818	700.06
413.026	609.95
413.234	738.98
413.443	773.79
413.651	732.83
413.86	779.93
414.068	837.28
414.276	915.1
414.485	876.19
414.693	962.2
414.901	915.1
415.11	947.87
415.318	933.53
415.526	1050.27
415.734	1074.84
415.943	999.07
416.151	1160.86
416.359	1109.66
416.567	1191.58
416.776	1275.54
416.984	1359.51
417.192	1392.28
417.4	1296.02
417.608	1357.46
417.817	1474.2
418.025	1429.14
418.233	1625.75
418.441	1640.08
418.649	1568.4
418.857	1820.3
419.065	1822.35
419.273	1760.91
419.481	1830.54
419.689	1914.51
419.897	2000.52
420.105	2076.3
420.313	2092.68
420.521	2117.26
420.729	2264.71
420.937	2250.38
421.145	2365.06
421.353	2535.04
421.561	2580.1
421.769	2623.11
421.977	2688.64
422.185	2614.91
422.393	2905.73
422.601	3155.58
422.809	3108.48
423.017	3278.46
423.224	3237.5
423.432	3413.62
423.64	3405.43
423.848	3751.54
424.056	3593.84
424.263	3886.7
424.471	3868.27
424.679	4114.03
424.887	4081.26
425.094	4175.47
425.302	4367.98
425.51	4410.98
425.718	4546.15
425.925	4685.41
426.133	4736.61
426.341	5101.15
426.548	5381.72
426.756	5342.81
426.964	5531.22
427.171	5598.81
427.379	6004.3
427.586	5774.93
427.794	6194.76
428.001	6299.21
428.209	6641.22
428.417	6585.93
428.624	7061.05
428.832	6940.22
429.039	7005.76
429.247	7038.53
429.454	7720.5
429.662	7986.74
429.869	7636.53
430.076	8349.23
430.284	7976.5
430.491	8388.14
430.699	8834.6
430.906	8889.89
431.114	8730.15
431.321	9442.84
431.528	9272.86
431.736	9954.83
431.943	10368.52
432.15	10180.11
432.358	10290.7
432.565	10739.21
432.772	10808.84
432.979	11361.79
433.187	11398.65
433.394	11531.77
433.601	12318.19
433.808	12609
434.016	12463.6
434.223	13116.9
434.43	13805.02
434.637	13483.48
434.844	14167.51
435.052	14458.32
435.259	14607.82
435.466	14568.91
435.673	14542.28
435.88	15592.89
436.087	16180.66
436.294	16213.43
436.501	16027.06
436.708	16268.72
436.915	16678.32
437.122	17567.13
437.329	17524.13
437.537	18275.73
437.743	18701.71
437.95	18300.31
438.157	19105.16
438.364	19821.95
438.571	19479.94
438.778	19838.33
438.985	21720.42
439.192	20837.74
439.399	21384.55
439.606	21177.7
439.813	22052.19
440.02	23790.91
440.227	23160.14
440.433	22990.16
440.64	23475.52
440.847	23524.68
441.054	24143.16
441.261	25842.98
441.467	25443.62
441.674	26105.12
441.881	27262.22
442.088	26844.43
442.294	26850.58
442.501	27327.75
442.708	28136.7
442.914	28847.35
443.121	30063.84
443.328	29527.27
443.534	31141.07
443.741	30368.99
443.948	29990.11
444.154	32109.76
444.361	32113.86
444.568	32636.09
444.774	32814.26
444.981	33068.21
445.187	33834.15
445.394	35509.39
445.6	34684.06
445.807	37809.26
446.013	36594.81
446.22	37360.75
446.426	38540.38
446.633	38911.06
446.839	40123.46
447.046	38507.62
447.252	40700.99
447.459	40590.4
447.665	40670.27
447.871	42505.25
448.078	44420.1
448.284	42259.49
448.491	42865.69
448.697	45071.35
448.903	45448.18
449.11	45661.17
449.316	45351.93
449.522	46220.27
449.728	47139.8
449.935	47381.46
450.141	47403.99
450.347	48524.23
450.553	47274.97
450.76	47866.83
450.966	49200.06
451.172	48810.95
451.378	50015.15
451.584	49011.65
451.791	49798.07
451.997	49771.44
452.203	50887.59
452.409	51139.49
452.615	50359.21
452.821	48958.4
453.027	48411.59
453.233	51139.49
453.44	49257.4
453.646	49515.45
453.852	49867.7
454.058	50832.29
454.264	49112
454.47	49941.42
454.676	49208.25
454.882	50252.72
455.088	46492.65
455.294	47031.26
455.5	47551.45
455.705	48282.57
455.911	46267.37
456.117	45779.95
456.323	44964.86
456.529	42513.44
456.735	44487.68
456.941	43308.05
457.147	42673.18
457.352	41624.62
457.558	40825.92
457.764	41217.08
457.97	40596.54
458.176	39584.85
458.381	39572.56
458.587	37600.36
458.793	37758.06
458.999	35767.43
459.204	38225
459.41	37112.95
459.616	34909.33
459.821	34614.43
460.027	34817.18
460.233	34000.04
460.438	32144.58
460.644	32988.34
460.85	30876.88
461.055	30534.87
461.261	30674.13
461.466	27901.18
461.672	27163.92
461.878	29388.01
462.083	27344.14
462.289	26936.59
462.494	26776.85
462.7	25363.75
462.905	24755.5
463.111	25961.76
463.316	25754.91
463.522	25177.39
463.727	25247.02
463.932	25023.79
464.138	24954.16
464.343	25085.23
464.549	24141.11
464.754	24925.49
464.959	24714.55
465.165	24503.6
