Data from USB4F104151__43__13-05-16-325.txt Node

Date: Fri Mar 14 13:05:16 EDT 2025
User: louis
Spectrometer: USB4F10415
Trigger mode: 4
Integration Time (sec): 4.000000E-2
Scans to average: 1
Electric dark correction enabled: true
Nonlinearity correction enabled: false
Boxcar width: 0
XAxis mode: Wavelengths
Number of Pixels in Spectrum: 3648
>>>>>Begin Spectral Data<<<<<
178.204	-150.7
178.424	-150.7
178.644	-150.7
178.864	-230.57
179.084	-124.07
179.304	-19.63
179.524	-29.87
179.744	39.76
179.964	56.15
180.184	33.62
180.404	-7.34
180.624	-50.35
180.844	31.57
181.064	-29.87
181.283	0.85
181.503	-31.91
181.723	7
181.943	-60.59
182.163	95.06
182.383	62.29
182.602	-52.39
182.822	88.92
183.042	95.06
183.262	-31.91
183.482	41.81
183.701	-17.58
183.921	25.43
184.141	11.09
184.361	72.53
184.58	7
184.8	56.15
185.02	19.29
185.239	82.77
185.459	-15.53
185.679	23.38
185.898	-58.54
186.118	76.63
186.338	29.52
186.557	95.06
186.777	109.4
186.997	64.34
187.216	25.43
187.436	93.01
187.655	13.14
187.875	56.15
188.095	43.86
188.314	-25.77
188.534	129.88
188.753	13.14
188.973	-15.53
189.192	133.97
189.412	78.68
189.631	54.1
189.851	7
190.07	72.53
190.29	-54.44
190.509	-11.43
190.729	-15.53
190.948	47.96
191.168	133.97
191.387	80.72
191.607	4.95
191.826	27.48
192.045	45.91
192.265	4.95
192.484	-38.06
192.704	56.15
192.923	-91.31
193.142	144.21
193.362	37.72
193.581	72.53
193.8	58.2
194.02	62.29
194.239	-1.19
194.458	80.72
194.678	41.81
194.897	56.15
195.116	21.33
195.335	72.53
195.555	45.91
195.774	25.43
195.993	72.53
196.212	11.09
196.432	133.97
196.651	-29.87
196.87	21.33
197.089	127.83
197.308	15.19
197.528	27.48
197.747	0.85
197.966	-25.77
198.185	60.24
198.404	56.15
198.623	-33.96
198.842	103.25
199.062	117.59
199.281	31.57
199.5	-68.78
199.719	47.96
199.938	76.63
200.157	41.81
200.376	29.52
200.595	37.72
200.814	11.09
201.033	-58.54
201.252	66.39
201.471	58.2
201.69	29.52
201.909	47.96
202.128	107.35
202.347	21.33
202.566	7
202.785	47.96
203.004	-1.19
203.223	152.4
203.442	9.05
203.661	-11.43
203.879	2.9
204.098	54.1
204.317	31.57
204.536	23.38
204.755	50
204.974	54.1
205.193	43.86
205.411	123.73
205.63	152.4
205.849	70.48
206.068	62.29
206.287	-50.35
206.505	31.57
206.724	47.96
206.943	11.09
207.162	39.76
207.381	37.72
207.599	-36.01
207.818	50
208.037	60.24
208.255	64.34
208.474	35.67
208.693	-38.06
208.911	-21.67
209.13	-13.48
209.349	35.67
209.567	-7.34
209.786	41.81
210.005	97.11
210.223	21.33
210.442	15.19
210.661	23.38
210.879	39.76
211.098	37.72
211.316	54.1
211.535	107.35
211.753	13.14
211.972	17.24
212.191	13.14
212.409	19.29
212.628	-11.43
212.846	23.38
213.065	35.67
213.283	111.44
213.502	25.43
213.72	-27.82
213.938	62.29
214.157	21.33
214.375	54.1
214.594	15.19
214.812	15.19
215.031	41.81
215.249	47.96
215.467	21.33
215.686	43.86
215.904	60.24
216.122	86.87
216.341	17.24
216.559	93.01
216.778	4.95
216.996	80.72
217.214	-13.48
217.432	31.57
217.651	-60.59
217.869	-7.34
218.087	23.38
218.306	-15.53
218.524	-40.11
218.742	-29.87
218.96	21.33
219.179	-13.48
219.397	23.38
219.615	131.92
219.833	60.24
220.051	-17.58
220.27	150.36
220.488	21.33
220.706	9.05
220.924	31.57
221.142	4.95
221.36	-13.48
221.578	54.1
221.796	37.72
222.015	-15.53
222.233	-19.63
222.451	152.4
222.669	9.05
222.887	-27.82
223.105	-46.25
223.323	37.72
223.541	-11.43
223.759	52.05
223.977	21.33
224.195	66.39
224.413	-11.43
224.631	68.44
224.849	31.57
225.067	127.83
225.285	105.3
225.503	17.24
225.721	-91.31
225.939	54.1
226.157	-7.34
226.375	193.36
226.592	39.76
226.81	-52.39
227.028	23.38
227.246	140.12
227.464	47.96
227.682	76.63
227.9	47.96
228.117	70.48
228.335	54.1
228.553	50
228.771	95.06
228.989	17.24
229.206	29.52
229.424	-33.96
229.642	17.24
229.86	15.19
230.077	101.2
230.295	60.24
230.513	113.49
230.731	54.1
230.948	115.54
231.166	70.48
231.384	21.33
231.601	13.14
231.819	152.4
232.037	15.19
232.254	-79.02
232.472	13.14
232.689	21.33
232.907	60.24
233.125	72.53
233.342	131.92
233.56	95.06
233.777	21.33
233.995	37.72
234.213	54.1
234.43	86.87
234.648	17.24
234.865	27.48
235.083	80.72
235.3	39.76
235.518	-5.29
235.735	84.82
235.953	74.58
236.17	21.33
236.388	-9.39
236.605	19.29
236.822	7
237.04	64.34
237.257	68.44
237.475	-9.39
237.692	70.48
237.909	-21.67
238.127	-27.82
238.344	78.68
238.562	156.5
238.779	7
238.996	-1.19
239.214	-5.29
239.431	60.24
239.648	15.19
239.865	4.95
240.083	70.48
240.3	127.83
240.517	-1.19
240.735	70.48
240.952	58.2
241.169	84.82
241.386	37.72
241.603	70.48
241.821	-5.29
242.038	72.53
242.255	45.91
242.472	29.52
242.689	97.11
242.907	111.44
243.124	21.33
243.341	-7.34
243.558	-3.24
243.775	15.19
243.992	2.9
244.209	19.29
244.426	154.45
244.643	80.72
244.86	11.09
245.078	90.96
245.295	80.72
245.512	-52.39
245.729	-7.34
245.946	41.81
246.163	41.81
246.38	9.05
246.597	17.24
246.814	29.52
247.031	-23.72
247.248	72.53
247.464	74.58
247.681	-13.48
247.898	21.33
248.115	70.48
248.332	-50.35
248.549	64.34
248.766	60.24
248.983	103.25
249.2	54.1
249.417	31.57
249.633	21.33
249.85	117.59
250.067	31.57
250.284	4.95
250.501	37.72
250.717	50
250.934	13.14
251.151	23.38
251.368	21.33
251.585	31.57
251.801	25.43
252.018	-36.01
252.235	86.87
252.451	13.14
252.668	-31.91
252.885	62.29
253.102	-15.53
253.318	25.43
253.535	-33.96
253.752	27.48
253.968	-13.48
254.185	-15.53
254.401	58.2
254.618	54.1
254.835	54.1
255.051	123.73
255.268	60.24
255.484	43.86
255.701	19.29
255.917	105.3
256.134	-19.63
256.351	43.86
256.567	-11.43
256.784	-1.19
257	-3.24
257.217	109.4
257.433	70.48
257.65	109.4
257.866	166.74
258.082	-27.82
258.299	-11.43
258.515	97.11
258.732	66.39
258.948	4.95
259.165	76.63
259.381	15.19
259.597	62.29
259.814	13.14
260.03	-13.48
260.246	33.62
260.463	45.91
260.679	-5.29
260.895	7
261.112	52.05
261.328	21.33
261.544	93.01
261.761	168.79
261.977	27.48
262.193	41.81
262.409	50
262.626	43.86
262.842	62.29
263.058	7
263.274	107.35
263.49	31.57
263.707	4.95
263.923	86.87
264.139	15.19
264.355	62.29
264.571	90.96
264.787	19.29
265.004	88.92
265.22	-7.34
265.436	64.34
265.652	-36.01
265.868	29.52
266.084	103.25
266.3	-38.06
266.516	7
266.732	19.29
266.948	41.81
267.164	56.15
267.38	99.16
267.596	9.05
267.812	82.77
268.028	148.31
268.244	-31.91
268.46	-5.29
268.676	9.05
268.892	4.95
269.108	-21.67
269.324	35.67
269.54	13.14
269.756	41.81
269.972	-11.43
270.188	9.05
270.403	-23.72
270.619	21.33
270.835	-21.67
271.051	-52.39
271.267	9.05
271.483	29.52
271.698	50
271.914	45.91
272.13	90.96
272.346	78.68
272.562	60.24
272.777	119.64
272.993	47.96
273.209	64.34
273.425	0.85
273.64	4.95
273.856	37.72
274.072	-1.19
274.287	23.38
274.503	45.91
274.719	35.67
274.934	27.48
275.15	-7.34
275.366	47.96
275.581	-44.2
275.797	-17.58
276.012	93.01
276.228	15.19
276.444	109.4
276.659	88.92
276.875	31.57
277.09	62.29
277.306	-36.01
277.521	146.26
277.737	-1.19
277.952	2.9
278.168	37.72
278.383	21.33
278.599	52.05
278.814	115.54
279.03	23.38
279.245	80.72
279.461	13.14
279.676	41.81
279.892	11.09
280.107	-9.39
280.322	39.76
280.538	56.15
280.753	-31.91
280.969	52.05
281.184	35.67
281.399	80.72
281.615	52.05
281.83	60.24
282.045	-11.43
282.26	-48.3
282.476	50
282.691	107.35
282.906	56.15
283.122	70.48
283.337	-5.29
283.552	99.16
283.767	68.44
283.983	103.25
284.198	45.91
284.413	4.95
284.628	-19.63
284.843	29.52
285.058	74.58
285.274	62.29
285.489	0.85
285.704	4.95
285.919	50
286.134	70.48
286.349	54.1
286.564	-48.3
286.779	78.68
286.995	33.62
287.21	-105.64
287.425	-21.67
287.64	13.14
287.855	33.62
288.07	-23.72
288.285	52.05
288.5	54.1
288.715	93.01
288.93	25.43
289.145	-62.63
289.36	35.67
289.575	29.52
289.79	39.76
290.004	-36.01
290.219	21.33
290.434	25.43
290.649	-5.29
290.864	9.05
291.079	-58.54
291.294	13.14
291.509	47.96
291.724	99.16
291.938	21.33
292.153	54.1
292.368	11.09
292.583	78.68
292.798	76.63
293.012	39.76
293.227	119.64
293.442	37.72
293.657	7
293.871	113.49
294.086	31.57
294.301	113.49
294.516	76.63
294.73	41.81
294.945	-19.63
295.16	35.67
295.374	68.44
295.589	29.52
295.804	-17.58
296.018	25.43
296.233	62.29
296.447	23.38
296.662	60.24
296.877	82.77
297.091	54.1
297.306	29.52
297.52	-11.43
297.735	68.44
297.949	-66.73
298.164	90.96
298.378	-5.29
298.593	4.95
298.807	-7.34
299.022	107.35
299.236	109.4
299.451	2.9
299.665	35.67
299.88	37.72
300.094	66.39
300.309	58.2
300.523	13.14
300.737	62.29
300.952	15.19
301.166	41.81
301.381	2.9
301.595	37.72
301.809	7
302.024	-54.44
302.238	23.38
302.452	62.29
302.667	52.05
302.881	125.78
303.095	117.59
303.309	25.43
303.524	29.52
303.738	45.91
303.952	-29.87
304.166	52.05
304.381	21.33
304.595	62.29
304.809	-83.11
305.023	62.29
305.237	-19.63
305.452	21.33
305.666	31.57
305.88	60.24
306.094	70.48
306.308	21.33
306.522	56.15
306.736	93.01
306.95	19.29
307.164	13.14
307.379	-3.24
307.593	56.15
307.807	66.39
308.021	64.34
308.235	33.62
308.449	21.33
308.663	9.05
308.877	70.48
309.091	41.81
309.305	29.52
309.519	-76.97
309.733	64.34
309.947	-93.35
310.161	82.77
310.374	80.72
310.588	111.44
310.802	41.81
311.016	70.48
311.23	64.34
311.444	-5.29
311.658	17.24
311.872	43.86
312.085	58.2
312.299	123.73
312.513	76.63
312.727	31.57
312.941	9.05
313.154	-36.01
313.368	-29.87
313.582	103.25
313.796	52.05
314.009	54.1
314.223	21.33
314.437	54.1
314.651	119.64
314.864	0.85
315.078	-9.39
315.292	13.14
315.505	-7.34
315.719	2.9
315.933	-46.25
316.146	-31.91
316.36	-33.96
316.573	95.06
316.787	-11.43
317.001	60.24
317.214	15.19
317.428	70.48
317.641	37.72
317.855	62.29
318.068	64.34
318.282	60.24
318.495	54.1
318.709	-13.48
318.922	64.34
319.136	52.05
319.349	119.64
319.563	4.95
319.776	21.33
319.99	45.91
320.203	15.19
320.417	41.81
320.63	37.72
320.843	66.39
321.057	2.9
321.27	21.33
321.483	39.76
321.697	45.91
321.91	82.77
322.124	37.72
322.337	31.57
322.55	35.67
322.763	58.2
322.977	21.33
323.19	31.57
323.403	72.53
323.617	60.24
323.83	72.53
324.043	119.64
324.256	64.34
324.469	-42.15
324.683	17.24
324.896	-52.39
325.109	72.53
325.322	29.52
325.535	103.25
325.748	95.06
325.962	9.05
326.175	29.52
326.388	31.57
326.601	47.96
326.814	-5.29
327.027	64.34
327.24	47.96
327.453	-54.44
327.666	-31.91
327.879	93.01
328.092	95.06
328.305	70.48
328.518	-52.39
328.731	-9.39
328.944	58.2
329.157	29.52
329.37	21.33
329.583	162.64
329.796	95.06
330.009	25.43
330.222	21.33
330.435	95.06
330.648	78.68
330.861	39.76
331.073	78.68
331.286	111.44
331.499	13.14
331.712	15.19
331.925	29.52
332.138	-19.63
332.35	119.64
332.563	-46.25
332.776	-31.91
332.989	-13.48
333.202	123.73
333.414	27.48
333.627	50
333.84	21.33
334.053	-17.58
334.265	45.91
334.478	13.14
334.691	86.87
334.903	50
335.116	25.43
335.329	37.72
335.541	33.62
335.754	80.72
335.966	-70.83
336.179	17.24
336.392	4.95
336.604	15.19
336.817	72.53
337.029	62.29
337.242	47.96
337.454	111.44
337.667	21.33
337.88	101.2
338.092	58.2
338.305	76.63
338.517	15.19
338.729	95.06
338.942	54.1
339.154	29.52
339.367	-44.2
339.579	78.68
339.792	-46.25
340.004	86.87
340.217	-11.43
340.429	78.68
340.641	15.19
340.854	25.43
341.066	-21.67
341.278	37.72
341.491	86.87
341.703	-66.73
341.915	27.48
342.128	62.29
342.34	29.52
342.552	4.95
342.764	11.09
342.977	39.76
343.189	64.34
343.401	-9.39
343.613	9.05
343.826	29.52
344.038	-21.67
344.25	52.05
344.462	33.62
344.674	21.33
344.886	2.9
345.099	86.87
345.311	80.72
345.523	-9.39
345.735	50
345.947	97.11
346.159	35.67
346.371	35.67
346.583	17.24
346.795	78.68
347.007	-5.29
347.219	47.96
347.431	66.39
347.643	136.02
347.855	45.91
348.067	64.34
348.279	47.96
348.491	45.91
348.703	7
348.915	70.48
349.127	-11.43
349.339	41.81
349.551	-17.58
349.763	103.25
349.975	129.88
350.187	113.49
350.399	181.07
350.61	64.34
350.822	29.52
351.034	62.29
351.246	70.48
351.458	-5.29
351.669	62.29
351.881	62.29
352.093	168.79
352.305	99.16
352.517	-9.39
352.728	54.1
352.94	19.29
353.152	47.96
353.363	9.05
353.575	13.14
353.787	95.06
353.999	58.2
354.21	78.68
354.422	-33.96
354.633	15.19
354.845	33.62
355.057	-29.87
355.268	115.54
355.48	11.09
355.692	13.14
355.903	58.2
356.115	-29.87
356.326	7
356.538	33.62
356.749	103.25
356.961	105.3
357.172	21.33
357.384	-11.43
357.595	148.31
357.807	45.91
358.018	9.05
358.23	47.96
358.441	121.68
358.653	37.72
358.864	41.81
359.075	-15.53
359.287	45.91
359.498	90.96
359.709	29.52
359.921	76.63
360.132	-3.24
360.344	66.39
360.555	33.62
360.766	-27.82
360.977	-27.82
361.189	45.91
361.4	58.2
361.611	62.29
361.823	25.43
362.034	72.53
362.245	-25.77
362.456	78.68
362.667	33.62
362.879	31.57
363.09	25.43
363.301	25.43
363.512	58.2
363.723	64.34
363.935	68.44
364.146	162.64
364.357	21.33
364.568	43.86
364.779	-19.63
364.99	45.91
365.201	-31.91
365.412	68.44
365.623	-48.3
365.834	17.24
366.045	21.33
366.256	101.2
366.467	70.48
366.678	58.2
366.889	-25.77
367.1	74.58
367.311	109.4
367.522	45.91
367.733	70.48
367.944	45.91
368.155	31.57
368.366	25.43
368.577	54.1
368.788	56.15
368.999	62.29
369.209	166.74
369.42	150.36
369.631	113.49
369.842	25.43
370.053	27.48
370.264	113.49
370.474	62.29
370.685	95.06
370.896	45.91
371.107	90.96
371.317	0.85
371.528	-3.24
371.739	56.15
371.95	9.05
372.16	99.16
372.371	-52.39
372.582	58.2
372.792	80.72
373.003	21.33
373.214	9.05
373.424	68.44
373.635	-1.19
373.846	129.88
374.056	13.14
374.267	15.19
374.477	25.43
374.688	13.14
374.898	68.44
375.109	107.35
375.319	86.87
375.53	131.92
375.74	31.57
375.951	7
376.161	82.77
376.372	25.43
376.582	45.91
376.793	88.92
377.003	19.29
377.214	-38.06
377.424	47.96
377.635	21.33
377.845	58.2
378.055	47.96
378.266	17.24
378.476	97.11
378.686	74.58
378.897	-7.34
379.107	56.15
379.317	64.34
379.528	33.62
379.738	127.83
379.948	4.95
380.158	66.39
380.369	15.19
380.579	66.39
380.789	45.91
380.999	76.63
381.21	103.25
381.42	156.5
381.63	-27.82
381.84	115.54
382.05	64.34
382.261	66.39
382.471	66.39
382.681	-15.53
382.891	127.83
383.101	115.54
383.311	86.87
383.521	11.09
383.731	23.38
383.941	103.25
384.151	-15.53
384.361	31.57
384.571	43.86
384.781	86.87
384.991	152.4
385.201	78.68
385.411	86.87
385.621	13.14
385.831	74.58
386.041	70.48
386.251	113.49
386.461	109.4
386.671	62.29
386.881	27.48
387.091	72.53
387.301	58.2
387.511	119.64
387.72	50
387.93	125.78
388.14	-25.77
388.35	11.09
388.56	72.53
388.769	80.72
388.979	23.38
389.189	31.57
389.399	19.29
389.609	60.24
389.818	95.06
390.028	133.97
390.238	47.96
390.447	13.14
390.657	31.57
390.867	68.44
391.076	-27.82
391.286	107.35
391.496	70.48
391.705	45.91
391.915	111.44
392.125	136.02
392.334	88.92
392.544	129.88
392.753	78.68
392.963	-11.43
393.172	41.81
393.382	52.05
393.591	174.93
393.801	35.67
394.01	84.82
394.22	99.16
394.429	56.15
394.639	25.43
394.848	74.58
395.058	27.48
395.267	99.16
395.477	88.92
395.686	127.83
395.895	172.88
396.105	142.16
396.314	64.34
396.524	164.69
396.733	41.81
396.942	113.49
397.152	117.59
397.361	86.87
397.57	78.68
397.78	15.19
397.989	127.83
398.198	162.64
398.407	99.16
398.617	107.35
398.826	54.1
399.035	52.05
399.244	52.05
399.453	47.96
399.663	66.39
399.872	121.68
400.081	74.58
400.29	131.92
400.499	31.57
400.708	129.88
400.917	148.31
401.127	76.63
401.336	164.69
401.545	164.69
401.754	174.93
401.963	146.26
402.172	107.35
402.381	78.68
402.59	146.26
402.799	179.03
403.008	181.07
403.217	195.41
403.426	103.25
403.635	82.77
403.844	117.59
404.053	70.48
404.262	136.02
404.471	236.37
404.68	144.21
404.888	168.79
405.097	211.79
405.306	136.02
405.515	164.69
405.724	144.21
405.933	164.69
406.142	129.88
406.35	199.51
406.559	176.98
406.768	144.21
406.977	326.48
407.185	197.46
407.394	176.98
407.603	131.92
407.812	271.19
408.02	275.28
408.229	162.64
408.438	199.51
408.646	209.75
408.855	201.55
409.064	205.65
409.272	232.27
409.481	244.56
409.69	258.9
409.898	320.34
410.107	295.76
410.315	318.29
410.524	209.75
410.733	303.95
410.941	342.86
411.15	377.68
411.358	293.71
411.567	437.07
411.775	383.82
411.984	369.49
412.192	387.92
412.401	422.73
412.609	492.37
412.818	516.94
413.026	387.92
413.234	447.31
413.443	473.93
413.651	537.42
413.86	586.57
414.068	555.85
414.276	631.63
414.485	648.01
414.693	650.06
414.901	760.65
415.11	668.49
415.318	752.46
415.526	772.94
415.734	760.65
415.943	740.17
416.151	693.07
416.359	777.03
416.567	791.37
416.776	801.61
416.984	922.44
417.192	822.09
417.4	897.86
417.608	873.29
417.817	957.25
418.025	1078.08
418.233	1176.39
418.441	1078.08
418.649	1145.67
418.857	1190.72
419.065	1274.69
419.273	1223.49
419.481	1192.77
419.689	1291.07
419.897	1440.58
420.105	1530.69
420.313	1565.5
420.521	1489.73
420.729	1626.94
420.937	1569.6
421.145	1651.52
421.353	1850.17
421.561	1817.4
421.769	1925.94
421.977	1948.47
422.185	1872.7
422.393	2167.6
422.601	2159.41
422.809	2151.22
423.017	2315.06
423.224	2249.52
423.432	2222.9
423.64	2329.39
423.848	2560.81
424.056	2466.61
424.263	2753.32
424.471	2702.12
424.679	2773.8
424.887	2956.07
425.094	2945.83
425.302	2937.64
425.51	3021.61
425.718	3275.56
425.925	3289.89
426.133	3416.87
426.341	3715.87
426.548	3701.53
426.756	3715.87
426.964	3930.91
427.171	4029.21
427.379	4061.98
427.586	4240.15
427.794	4299.54
428.001	4561.68
428.209	4770.57
428.417	4637.45
428.624	5008.14
428.832	4899.59
429.039	4995.85
429.247	4889.35
429.454	5559.04
429.662	5853.95
429.869	5407.49
430.076	5792.51
430.284	5731.07
430.491	5829.37
430.699	6374.13
430.906	6136.57
431.114	6456.05
431.321	6546.16
431.528	6806.25
431.736	7138.02
431.943	7467.75
432.15	7295.72
432.358	7385.83
432.565	7789.28
432.772	7774.94
432.979	7957.21
433.187	8159.96
433.394	8110.81
433.601	8762.06
433.808	9056.97
434.016	8891.09
434.223	9114.31
434.43	9618.11
434.637	9654.98
434.844	10248.89
435.052	10183.35
435.259	10394.29
435.466	10347.19
435.673	10191.55
435.88	11111.08
436.087	11414.18
436.294	11690.66
436.501	11238.06
436.708	11449
436.915	11723.43
437.122	12415.64
437.329	12096.16
437.537	12939.92
437.743	12886.67
437.95	13011.6
438.157	13623.94
438.364	13914.75
438.571	13791.87
438.778	14211.71
438.985	15399.53
439.192	14711.41
439.399	15188.59
439.606	14871.15
439.813	15899.23
440.02	17023.57
440.227	16413.27
440.433	16368.22
440.64	16972.37
440.847	16947.79
441.054	17201.74
441.261	18270.78
441.467	17990.21
441.674	18393.66
441.881	19028.53
442.088	18819.64
442.294	18819.64
442.501	19153.46
442.708	19698.22
442.914	20351.52
443.121	21565.96
443.328	20640.28
443.534	22233.6
443.741	21715.47
443.948	21367.31
444.154	22977.01
444.361	22852.09
444.568	22897.14
444.774	23001.59
444.981	23288.31
445.187	24007.14
445.394	24992.22
445.6	24959.45
445.807	26900.92
446.013	25874.89
446.22	26087.88
446.426	27279.8
446.633	27568.56
446.839	28527.01
447.046	27525.55
447.252	29106.59
447.459	28850.59
447.665	28746.14
447.871	30230.92
448.078	31596.92
448.284	30030.22
448.491	30585.22
448.697	31965.55
448.903	32651.62
449.11	32674.15
449.316	32002.41
449.522	32842.08
449.728	33517.91
449.935	33915.22
450.141	33941.84
450.347	34732.36
450.553	33487.19
450.76	34150.73
450.966	35309.88
451.172	34738.5
451.378	35746.1
451.584	34982.21
451.791	36155.69
451.997	36106.54
452.203	36712.74
452.409	36665.64
452.615	36243.76
452.821	34834.75
453.027	34683.2
453.233	36866.34
453.44	35187
453.646	35993.9
453.852	35813.68
454.058	36690.21
454.264	34965.82
454.47	35948.85
454.676	34976.06
454.882	36028.72
455.088	33163.61
455.294	33632.6
455.5	34224.46
455.705	34865.47
455.911	33153.37
456.117	32635.24
456.323	32106.86
456.529	30431.62
456.735	31564.15
456.941	31138.17
457.147	30714.24
457.352	29911.44
457.558	29581.71
457.764	29458.84
457.97	28995.99
458.176	28170.66
458.381	28168.62
458.587	27079.1
458.793	26808.76
458.999	25565.65
459.204	27066.81
459.41	26638.78
459.616	24674.78
459.821	24771.04
460.027	24584.67
460.233	24046.05
460.438	23198.2
460.644	23405.04
460.85	22448.64
461.055	22014.47
461.261	21606.92
461.466	20118.05
461.672	19421.74
461.878	20970.01
462.083	19827.24
462.289	19225.14
462.494	18919.99
462.7	18307.65
462.905	17570.38
463.111	18340.41
463.316	18475.58
463.522	17881.67
463.727	18022.98
463.932	18160.19
464.138	17523.27
464.343	17592.9
464.549	17173.07
464.754	17812.04
464.959	17566.28
465.165	17680.97
465.37	16767.57
465.575	16339.55
465.781	17050.19
465.986	16886.36
466.191	16530.01
466.397	16372.32
466.602	15364.71
466.807	16050.78
467.012	16013.92
467.218	15952.48
