Data from USB4F104151__99__13-06-32-596.txt Node

Date: Fri Mar 14 13:06:32 EDT 2025
User: louis
Spectrometer: USB4F10415
Trigger mode: 4
Integration Time (sec): 4.000000E-2
Scans to average: 1
Electric dark correction enabled: true
Nonlinearity correction enabled: false
Boxcar width: 0
XAxis mode: Wavelengths
Number of Pixels in Spectrum: 3648
>>>>>Begin Spectral Data<<<<<
178.204	-167.76
178.424	-167.76
178.644	-167.76
178.864	-192.34
179.084	-155.47
179.304	-67.41
179.524	-12.12
179.744	-18.26
179.964	59.56
180.184	-53.08
180.404	45.23
180.624	41.13
180.844	-48.98
181.064	-18.26
181.283	20.65
181.503	-5.97
181.723	57.51
181.943	-69.46
182.163	143.53
182.383	26.79
182.602	71.85
182.822	71.85
183.042	73.9
183.262	32.94
183.482	-26.45
183.701	-10.07
183.921	0.17
184.141	14.51
184.361	49.32
184.58	32.94
184.8	49.32
185.02	26.79
185.239	82.09
185.459	-10.07
185.679	49.32
185.898	-18.26
186.118	26.79
186.338	22.7
186.557	18.6
186.777	47.27
186.997	30.89
187.216	-1.88
187.436	121
187.655	96.43
187.875	34.99
188.095	20.65
188.314	28.84
188.534	82.09
188.753	-8.02
188.973	65.71
189.192	65.71
189.412	71.85
189.631	55.47
189.851	-12.12
190.07	80.04
190.29	14.51
190.509	-20.31
190.729	8.36
190.948	88.23
191.168	194.73
191.387	96.43
191.607	-10.07
191.826	28.84
192.045	6.31
192.265	37.03
192.484	4.27
192.704	71.85
192.923	26.79
193.142	104.62
193.362	43.18
193.581	104.62
193.8	84.14
194.02	82.09
194.239	-14.17
194.458	8.36
194.678	-38.74
194.897	-44.88
195.116	22.7
195.335	24.75
195.555	112.81
195.774	30.89
195.993	45.23
196.212	-12.12
196.432	-8.02
196.651	80.04
196.87	-18.26
197.089	108.71
197.308	108.71
197.528	0.17
197.747	-71.51
197.966	-3.93
198.185	112.81
198.404	77.99
198.623	26.79
198.842	39.08
199.062	65.71
199.281	96.43
199.5	-69.46
199.719	104.62
199.938	82.09
200.157	98.47
200.376	59.56
200.595	77.99
200.814	143.53
201.033	-57.17
201.252	98.47
201.471	-42.84
201.69	125.1
201.909	22.7
202.128	88.23
202.347	55.47
202.566	39.08
202.785	-24.4
203.004	22.7
203.223	172.2
203.442	57.51
203.661	39.08
203.879	-12.12
204.098	30.89
204.317	-30.55
204.536	8.36
204.755	47.27
204.974	116.9
205.193	157.86
205.411	90.28
205.63	47.27
205.849	26.79
206.068	61.61
206.287	32.94
206.505	77.99
206.724	18.6
206.943	-16.21
207.162	69.8
207.381	-1.88
207.599	0.17
207.818	71.85
208.037	47.27
208.255	26.79
208.474	45.23
208.693	153.77
208.911	-81.75
209.13	96.43
209.349	-1.88
209.567	41.13
209.786	73.9
210.005	30.89
210.223	16.55
210.442	28.84
210.661	108.71
210.879	26.79
211.098	94.38
211.316	63.66
211.535	49.32
211.753	80.04
211.972	131.24
212.191	-16.21
212.409	32.94
212.628	90.28
212.846	63.66
213.065	22.7
213.283	67.75
213.502	37.03
213.72	86.19
213.938	34.99
214.157	14.51
214.375	32.94
214.594	108.71
214.812	51.37
215.031	82.09
215.249	2.22
215.467	55.47
215.686	22.7
215.904	4.27
216.122	57.51
216.341	55.47
216.559	49.32
216.778	90.28
216.996	65.71
217.214	0.17
217.432	22.7
217.651	34.99
217.869	0.17
218.087	-14.17
218.306	51.37
218.524	14.51
218.742	-18.26
218.96	90.28
219.179	16.55
219.397	94.38
219.615	100.52
219.833	57.51
220.051	-10.07
220.27	104.62
220.488	30.89
220.706	92.33
220.924	32.94
221.142	-3.93
221.36	61.61
221.578	51.37
221.796	73.9
222.015	4.27
222.233	61.61
222.451	73.9
222.669	-8.02
222.887	37.03
223.105	0.17
223.323	43.18
223.541	45.23
223.759	47.27
223.977	49.32
224.195	47.27
224.413	96.43
224.631	71.85
224.849	30.89
225.067	121
225.285	0.17
225.503	98.47
225.721	-32.6
225.939	98.47
226.157	34.99
226.375	114.86
226.592	26.79
226.81	55.47
227.028	80.04
227.246	65.71
227.464	71.85
227.682	69.8
227.9	137.38
228.117	18.6
228.335	16.55
228.553	63.66
228.771	37.03
228.989	82.09
229.206	-12.12
229.424	30.89
229.642	-32.6
229.86	-26.45
230.077	112.81
230.295	41.13
230.513	96.43
230.731	100.52
230.948	47.27
231.166	75.95
231.384	51.37
231.601	30.89
231.819	133.29
232.037	14.51
232.254	-12.12
232.472	63.66
232.689	65.71
232.907	143.53
233.125	39.08
233.342	-26.45
233.56	-55.12
233.777	90.28
233.995	90.28
234.213	96.43
234.43	0.17
234.648	6.31
234.865	26.79
235.083	139.43
235.3	-38.74
235.518	106.67
235.735	43.18
235.953	84.14
236.17	16.55
236.388	-1.88
236.605	43.18
236.822	37.03
237.04	123.05
237.257	18.6
237.475	-20.31
237.692	-12.12
237.909	10.41
238.127	34.99
238.344	34.99
238.562	49.32
238.779	-26.45
238.996	0.17
239.214	28.84
239.431	73.9
239.648	-16.21
239.865	-26.45
240.083	100.52
240.3	22.7
240.517	55.47
240.735	30.89
240.952	34.99
241.169	80.04
241.386	71.85
241.603	-5.97
241.821	-36.69
242.038	65.71
242.255	4.27
242.472	-14.17
242.689	49.32
242.907	94.38
243.124	63.66
243.341	43.18
243.558	14.51
243.775	-14.17
243.992	-3.93
244.209	18.6
244.426	98.47
244.643	145.58
244.86	73.9
245.078	96.43
245.295	-24.4
245.512	47.27
245.729	22.7
245.946	-1.88
246.163	51.37
246.38	51.37
246.597	16.55
246.814	57.51
247.031	59.56
247.248	94.38
247.464	71.85
247.681	18.6
247.898	100.52
248.115	39.08
248.332	-12.12
248.549	108.71
248.766	100.52
248.983	69.8
249.2	69.8
249.417	43.18
249.633	-8.02
249.85	49.32
250.067	26.79
250.284	34.99
250.501	49.32
250.717	65.71
250.934	0.17
251.151	51.37
251.368	16.55
251.585	53.42
251.801	92.33
252.018	14.51
252.235	45.23
252.451	10.41
252.668	69.8
252.885	37.03
253.102	39.08
253.318	-1.88
253.535	-46.93
253.752	-16.21
253.968	-53.08
254.185	-57.17
254.401	90.28
254.618	63.66
254.835	133.29
255.051	133.29
255.268	59.56
255.484	73.9
255.701	26.79
255.917	47.27
256.134	32.94
256.351	14.51
256.567	4.27
256.784	75.95
257	65.71
257.217	51.37
257.433	94.38
257.65	123.05
257.866	88.23
258.082	-10.07
258.299	-1.88
258.515	75.95
258.732	30.89
258.948	59.56
259.165	69.8
259.381	30.89
259.597	39.08
259.814	63.66
260.03	77.99
260.246	-30.55
260.463	32.94
260.679	114.86
260.895	80.04
261.112	20.65
261.328	26.79
261.544	47.27
261.761	135.34
261.977	71.85
262.193	-44.88
262.409	100.52
262.626	34.99
262.842	67.75
263.058	-22.36
263.274	155.82
263.49	28.84
263.707	45.23
263.923	84.14
264.139	-22.36
264.355	57.51
264.571	92.33
264.787	65.71
265.004	47.27
265.22	77.99
265.436	10.41
265.652	55.47
265.868	10.41
266.084	2.22
266.3	86.19
266.516	77.99
266.732	59.56
266.948	45.23
267.164	20.65
267.38	6.31
267.596	39.08
267.812	96.43
268.028	14.51
268.244	22.7
268.46	30.89
268.676	47.27
268.892	75.95
269.108	43.18
269.324	55.47
269.54	10.41
269.756	96.43
269.972	-48.98
270.188	59.56
270.403	22.7
270.619	108.71
270.835	-20.31
271.051	57.51
271.267	37.03
271.483	47.27
271.698	20.65
271.914	80.04
272.13	16.55
272.346	37.03
272.562	96.43
272.777	164.01
272.993	59.56
273.209	59.56
273.425	43.18
273.64	-26.45
273.856	55.47
274.072	45.23
274.287	22.7
274.503	129.19
274.719	135.34
274.934	-22.36
275.15	24.75
275.366	110.76
275.581	14.51
275.797	51.37
276.012	30.89
276.228	92.33
276.444	67.75
276.659	114.86
276.875	10.41
277.09	47.27
277.306	49.32
277.521	47.27
277.737	92.33
277.952	80.04
278.168	45.23
278.383	6.31
278.599	22.7
278.814	65.71
279.03	100.52
279.245	104.62
279.461	55.47
279.676	24.75
279.892	47.27
280.107	8.36
280.322	30.89
280.538	90.28
280.753	16.55
280.969	16.55
281.184	55.47
281.399	131.24
281.615	94.38
281.83	80.04
282.045	-3.93
282.26	71.85
282.476	8.36
282.691	143.53
282.906	26.79
283.122	80.04
283.337	51.37
283.552	118.95
283.767	55.47
283.983	84.14
284.198	28.84
284.413	80.04
284.628	-5.97
284.843	59.56
285.058	59.56
285.274	37.03
285.489	51.37
285.704	114.86
285.919	26.79
286.134	82.09
286.349	106.67
286.564	53.42
286.779	41.13
286.995	8.36
287.21	-73.56
287.425	37.03
287.64	45.23
287.855	30.89
288.07	67.75
288.285	63.66
288.5	84.14
288.715	131.24
288.93	32.94
289.145	-51.03
289.36	41.13
289.575	-24.4
289.79	45.23
290.004	77.99
290.219	18.6
290.434	39.08
290.649	-1.88
290.864	-1.88
291.079	69.8
291.294	16.55
291.509	8.36
291.724	12.46
291.938	18.6
292.153	39.08
292.368	26.79
292.583	123.05
292.798	67.75
293.012	32.94
293.227	137.38
293.442	-8.02
293.657	71.85
293.871	125.1
294.086	92.33
294.301	84.14
294.516	94.38
294.73	104.62
294.945	-28.5
295.16	90.28
295.374	164.01
295.589	118.95
295.804	34.99
296.018	2.22
296.233	57.51
296.447	67.75
296.662	82.09
296.877	28.84
297.091	12.46
297.306	59.56
297.52	39.08
297.735	47.27
297.949	20.65
298.164	88.23
298.378	20.65
298.593	51.37
298.807	39.08
299.022	20.65
299.236	69.8
299.451	-26.45
299.665	73.9
299.88	88.23
300.094	127.14
300.309	-5.97
300.523	41.13
300.737	16.55
300.952	2.22
301.166	96.43
301.381	22.7
301.595	41.13
301.809	30.89
302.024	20.65
302.238	84.14
302.452	102.57
302.667	100.52
302.881	67.75
303.095	16.55
303.309	100.52
303.524	30.89
303.738	16.55
303.952	49.32
304.166	100.52
304.381	8.36
304.595	61.61
304.809	61.61
305.023	73.9
305.237	12.46
305.452	77.99
305.666	57.51
305.88	131.24
306.094	51.37
306.308	41.13
306.522	77.99
306.736	30.89
306.95	98.47
307.164	30.89
307.379	41.13
307.593	110.76
307.807	47.27
308.021	59.56
308.235	69.8
308.449	-14.17
308.663	47.27
308.877	82.09
309.091	80.04
309.305	92.33
309.519	0.17
309.733	43.18
309.947	8.36
310.161	-40.79
310.374	121
310.588	145.58
310.802	-30.55
311.016	80.04
311.23	16.55
311.444	16.55
311.658	88.23
311.872	77.99
312.085	141.48
312.299	90.28
312.513	57.51
312.727	90.28
312.941	-18.26
313.154	55.47
313.368	110.76
313.582	-3.93
313.796	28.84
314.009	51.37
314.223	121
314.437	96.43
314.651	92.33
314.864	47.27
315.078	49.32
315.292	-42.84
315.505	20.65
315.719	32.94
315.933	71.85
316.146	100.52
316.36	-40.79
316.573	86.19
316.787	86.19
317.001	18.6
317.214	-38.74
317.428	-18.26
317.641	94.38
317.855	-14.17
318.068	24.75
318.282	84.14
318.495	39.08
318.709	57.51
318.922	53.42
319.136	30.89
319.349	37.03
319.563	0.17
319.776	65.71
319.99	-10.07
320.203	82.09
320.417	75.95
320.63	88.23
320.843	59.56
321.057	47.27
321.27	57.51
321.483	96.43
321.697	67.75
321.91	98.47
322.124	92.33
322.337	32.94
322.55	51.37
322.763	53.42
322.977	57.51
323.19	-1.88
323.403	75.95
323.617	110.76
323.83	104.62
324.043	43.18
324.256	96.43
324.469	43.18
324.683	14.51
324.896	12.46
325.109	-32.6
325.322	6.31
325.535	174.25
325.748	24.75
325.962	-20.31
326.175	45.23
326.388	18.6
326.601	41.13
326.814	26.79
327.027	39.08
327.24	55.47
327.453	24.75
327.666	37.03
327.879	75.95
328.092	102.57
328.305	-10.07
328.518	114.86
328.731	30.89
328.944	63.66
329.157	18.6
329.37	43.18
329.583	209.06
329.796	121
330.009	-16.21
330.222	123.05
330.435	55.47
330.648	53.42
330.861	123.05
331.073	26.79
331.286	116.9
331.499	84.14
331.712	37.03
331.925	51.37
332.138	90.28
332.35	75.95
332.563	-51.03
332.776	159.91
332.989	16.55
333.202	69.8
333.414	45.23
333.627	22.7
333.84	14.51
334.053	18.6
334.265	16.55
334.478	98.47
334.691	127.14
334.903	-26.45
335.116	71.85
335.329	0.17
335.541	69.8
335.754	88.23
335.966	59.56
336.179	-3.93
336.392	4.27
336.604	137.38
336.817	73.9
337.029	47.27
337.242	71.85
337.454	116.9
337.667	55.47
337.88	80.04
338.092	26.79
338.305	67.75
338.517	-10.07
338.729	121
338.942	164.01
339.154	-36.69
339.367	-38.74
339.579	80.04
339.792	-5.97
340.004	92.33
340.217	51.37
340.429	55.47
340.641	75.95
340.854	-8.02
341.066	14.51
341.278	90.28
341.491	80.04
341.703	34.99
341.915	47.27
342.128	129.19
342.34	112.81
342.552	26.79
342.764	47.27
342.977	69.8
343.189	2.22
343.401	75.95
343.613	-48.98
343.826	47.27
344.038	-16.21
344.25	106.67
344.462	-24.4
344.674	69.8
344.886	14.51
345.099	18.6
345.311	82.09
345.523	14.51
345.735	30.89
345.947	121
346.159	41.13
346.371	75.95
346.583	26.79
346.795	157.86
347.007	118.95
347.219	73.9
347.431	14.51
347.643	86.19
347.855	20.65
348.067	69.8
348.279	14.51
348.491	86.19
348.703	57.51
348.915	14.51
349.127	14.51
349.339	61.61
349.551	-10.07
349.763	114.86
349.975	80.04
350.187	96.43
350.399	98.47
350.61	65.71
350.822	80.04
351.034	59.56
351.246	34.99
351.458	127.14
351.669	80.04
351.881	98.47
352.093	166.06
352.305	57.51
352.517	106.67
352.728	106.67
352.94	67.75
353.152	61.61
353.363	-46.93
353.575	137.38
353.787	88.23
353.999	71.85
354.21	96.43
354.422	37.03
354.633	34.99
354.845	43.18
355.057	65.71
355.268	63.66
355.48	-32.6
355.692	-16.21
355.903	98.47
356.115	96.43
356.326	49.32
356.538	84.14
356.749	129.19
356.961	77.99
357.172	77.99
357.384	0.17
357.595	141.48
357.807	57.51
358.018	-3.93
358.23	55.47
358.441	75.95
358.653	127.14
358.864	96.43
359.075	4.27
359.287	53.42
359.498	112.81
359.709	100.52
359.921	75.95
360.132	110.76
360.344	112.81
360.555	90.28
360.766	57.51
360.977	14.51
361.189	18.6
361.4	100.52
361.611	137.38
361.823	108.71
362.034	-5.97
362.245	16.55
362.456	18.6
362.667	39.08
362.879	-22.36
363.09	75.95
363.301	121
363.512	10.41
363.723	34.99
363.935	112.81
364.146	57.51
364.357	-5.97
364.568	75.95
364.779	-1.88
364.99	65.71
365.201	61.61
365.412	102.57
365.623	-16.21
365.834	75.95
366.045	65.71
366.256	100.52
366.467	118.95
366.678	30.89
366.889	30.89
367.1	37.03
367.311	92.33
367.522	55.47
367.733	96.43
367.944	176.3
368.155	69.8
368.366	65.71
368.577	102.57
368.788	123.05
368.999	20.65
369.209	-14.17
369.42	98.47
369.631	180.39
369.842	55.47
370.053	86.19
370.264	151.72
370.474	57.51
370.685	6.31
370.896	114.86
371.107	110.76
371.317	94.38
371.528	80.04
371.739	80.04
371.95	14.51
372.16	149.67
372.371	-16.21
372.582	51.37
372.792	151.72
373.003	61.61
373.214	61.61
373.424	118.95
373.635	59.56
373.846	53.42
374.056	84.14
374.267	112.81
374.477	39.08
374.688	71.85
374.898	55.47
375.109	57.51
375.319	65.71
375.53	118.95
375.74	104.62
375.951	73.9
376.161	84.14
376.372	100.52
376.582	2.22
376.793	92.33
377.003	67.75
377.214	47.27
377.424	98.47
377.635	102.57
377.845	16.55
378.055	108.71
378.266	-5.97
378.476	26.79
378.686	41.13
378.897	104.62
379.107	104.62
379.317	55.47
379.528	80.04
379.738	121
379.948	-12.12
380.158	172.2
380.369	73.9
380.579	55.47
380.789	55.47
380.999	59.56
381.21	178.34
381.42	170.15
381.63	37.03
381.84	75.95
382.05	86.19
382.261	98.47
382.471	102.57
382.681	53.42
382.891	127.14
383.101	131.24
383.311	90.28
383.521	0.17
383.731	63.66
383.941	116.9
384.151	67.75
384.361	155.82
384.571	59.56
384.781	127.14
384.991	114.86
385.201	149.67
385.411	100.52
385.621	114.86
385.831	37.03
386.041	121
386.251	96.43
386.461	82.09
386.671	100.52
386.881	41.13
387.091	55.47
387.301	133.29
387.511	73.9
387.72	131.24
387.93	63.66
388.14	61.61
388.35	77.99
388.56	53.42
388.769	139.43
388.979	106.67
389.189	-5.97
389.399	143.53
389.609	73.9
389.818	104.62
390.028	61.61
390.238	100.52
390.447	63.66
390.657	116.9
390.867	77.99
391.076	-8.02
391.286	71.85
391.496	170.15
391.705	131.24
391.915	174.25
392.125	118.95
392.334	73.9
392.544	118.95
392.753	73.9
392.963	20.65
393.172	123.05
393.382	118.95
393.591	125.1
393.801	82.09
394.01	186.54
394.22	159.91
394.429	28.84
394.639	59.56
394.848	133.29
395.058	90.28
395.267	116.9
395.477	137.38
395.686	84.14
395.895	190.63
396.105	202.92
396.314	168.1
396.524	133.29
396.733	73.9
396.942	157.86
397.152	161.96
397.361	155.82
397.57	88.23
397.78	147.62
397.989	196.78
398.198	168.1
398.407	67.75
398.617	104.62
398.826	147.62
399.035	139.43
399.244	211.11
399.453	65.71
399.663	114.86
399.872	88.23
400.081	102.57
400.29	174.25
400.499	129.19
400.708	155.82
400.917	94.38
401.127	235.69
401.336	145.58
401.545	178.34
401.754	202.92
401.963	252.07
402.172	127.14
402.381	104.62
402.59	102.57
402.799	166.06
403.008	198.82
403.217	104.62
403.426	155.82
403.635	100.52
403.844	118.95
404.053	207.02
404.262	125.1
404.471	207.02
404.68	184.49
404.888	270.5
405.097	196.78
405.306	290.98
405.515	233.64
405.724	174.25
405.933	260.26
406.142	213.16
406.35	258.21
406.559	231.59
406.768	229.54
406.977	268.45
407.185	227.5
407.394	280.74
407.603	225.45
407.812	293.03
408.02	350.37
408.229	305.32
408.438	317.61
408.646	256.17
408.855	313.51
409.064	399.52
409.272	370.85
409.481	387.24
409.69	366.76
409.898	317.61
410.107	401.57
410.315	458.92
410.524	422.05
410.733	491.68
410.941	440.48
411.15	499.88
411.358	485.54
411.567	610.47
411.775	471.2
411.984	565.41
412.192	577.7
412.401	565.41
412.609	647.33
412.818	673.95
413.026	714.91
413.234	731.3
413.443	571.55
413.651	671.9
413.86	727.2
414.068	729.25
414.276	784.54
414.485	735.39
414.693	856.22
414.901	868.51
415.11	942.24
415.318	944.28
415.526	927.9
415.734	1040.54
415.943	1058.97
416.151	1095.83
416.359	1198.23
416.567	1169.56
416.776	1253.53
416.984	1280.15
417.192	1450.13
417.4	1233.05
417.608	1187.99
417.817	1300.63
418.025	1472.66
418.233	1505.43
418.441	1454.23
418.649	1573.01
418.857	1613.97
419.065	1763.47
419.273	1611.92
419.481	1749.14
419.689	1906.83
419.897	2011.28
420.105	1990.8
420.313	2097.29
420.521	2201.74
420.729	2089.1
420.937	2275.46
421.145	2226.31
421.353	2369.67
421.561	2625.67
421.769	2517.12
421.977	2730.11
422.185	2738.3
422.393	2828.42
422.601	3100.8
422.809	3008.64
423.017	3018.88
423.224	3164.28
423.432	3256.44
423.64	3215.48
423.848	3733.62
424.056	3491.96
424.263	3795.06
424.471	3815.54
424.679	3930.22
424.887	4130.92
425.094	4249.71
425.302	4313.19
425.51	4317.29
425.718	4612.2
425.925	4561
426.133	4692.07
426.341	4919.39
426.548	5161.05
426.756	5206.11
426.964	5316.7
427.171	5582.93
427.379	5740.63
427.586	5843.03
427.794	6039.63
428.001	6162.51
428.209	6568.01
428.417	6322.25
428.624	6850.63
428.832	7067.71
429.039	7006.27
429.247	6944.83
429.454	7534.65
429.662	8087.6
429.869	7655.48
430.076	7987.25
430.284	7749.68
430.491	8028.21
430.699	8634.41
430.906	8679.46
431.114	8800.29
431.321	9238.56
431.528	9248.8
431.736	9941.01
431.943	10426.38
432.15	10145.81
432.358	10084.37
432.565	10745.86
432.772	10885.12
432.979	11274.24
433.187	11137.02
433.394	11513.85
433.601	12148.72
433.808	12234.74
434.016	12124.15
434.223	12511.21
434.43	13348.83
434.637	13211.62
434.844	13959.13
435.052	14256.08
435.259	13926.36
435.466	14307.28
435.673	14325.71
435.88	14966.73
436.087	16099.25
436.294	15962.04
436.501	15499.2
436.708	16000.95
436.915	16474.03
437.122	17274.79
437.329	17254.31
437.537	17676.19
437.743	18266
437.95	17794.97
438.157	18638.73
438.364	19363.72
438.571	19201.93
438.778	19681.15
438.985	21321.57
439.192	20651.89
439.399	21067.63
439.606	20690.8
439.813	21686.11
440.02	22927.18
440.227	22486.87
440.433	22542.16
440.64	23582.53
440.847	22955.85
441.054	23574.34
441.261	25280.3
441.467	24776.5
441.674	25573.16
441.881	26187.55
442.088	26642.2
442.294	26142.49
442.501	27037.45
442.708	27342.6
442.914	28772.08
443.121	29974.24
443.328	28622.58
443.534	30662.36
443.741	29748.96
443.948	29703.91
444.154	31889.09
444.361	31692.49
444.568	31659.72
444.774	31454.92
444.981	32147.14
445.187	33007.28
445.394	34580.12
445.6	34254.5
445.807	37017.21
446.013	35618.44
446.22	36138.63
446.426	37625.45
446.633	38166.12
446.839	39491.15
447.046	37973.61
447.252	40060.49
447.459	39867.98
447.665	39786.06
447.871	41399.86
448.078	43492.88
448.284	41262.65
448.491	42620.45
448.697	44011.02
448.903	44768.77
449.11	44979.71
449.316	44539.4
449.522	45311.48
449.728	46310.89
449.935	46972.38
450.141	46632.42
450.347	47400.41
450.553	46171.63
450.76	46509.54
450.966	48489.93
451.172	47961.55
451.378	48940.48
451.584	47873.49
451.791	49124.8
451.997	49225.15
452.203	49698.23
452.409	49851.83
452.615	49679.8
452.821	47910.35
453.027	47742.42
453.233	49782.2
453.44	48201.16
453.646	48477.64
453.852	48602.57
454.058	49825.2
454.264	48389.58
454.47	49331.64
454.676	47859.15
454.882	49356.22
455.088	45377.01
455.294	45897.2
455.5	46968.29
455.705	47298.01
455.911	45575.67
456.117	44932.61
456.323	44084.75
456.529	41780.78
456.735	43390.48
456.941	42085.93
457.147	41463.35
457.352	40894.01
457.558	40087.11
457.764	40422.98
457.97	39759.44
458.176	38620.77
458.381	38647.39
458.587	37068.41
458.793	36892.28
458.999	35241.62
459.204	37854.83
459.41	35815.05
459.616	33795.75
459.821	34438.81
460.027	33947.3
460.233	33593
460.438	31690.44
460.644	32243.39
460.85	30799.57
461.055	30097.12
461.261	29964
461.466	27711.24
461.672	27066.13
461.878	28765.94
462.083	27102.99
462.289	26531.61
462.494	26265.37
462.7	24995.63
462.905	24436.53
463.111	25132.84
463.316	25243.43
463.522	24737.59
463.727	24739.63
463.932	24702.77
464.138	24278.84
464.343	24127.29
464.549	23564.1
464.754	24616.76
464.959	24428.34
465.165	24291.13
465.37	23121.74
465.575	22587.22
465.781	23484.23
465.986	23709.5
466.191	23244.62
