Data from USB4F104151__42__13-05-16-005.txt Node

Date: Fri Mar 14 13:05:16 EDT 2025
User: louis
Spectrometer: USB4F10415
Trigger mode: 4
Integration Time (sec): 4.000000E-2
Scans to average: 1
Electric dark correction enabled: true
Nonlinearity correction enabled: false
Boxcar width: 0
XAxis mode: Wavelengths
Number of Pixels in Spectrum: 3648
>>>>>Begin Spectral Data<<<<<
178.204	-164.52
178.424	-164.52
178.644	-164.52
178.864	-150.18
179.084	-187.05
179.304	15.7
179.524	-4.78
179.744	-27.31
179.964	7.51
180.184	23.89
180.404	-8.87
180.624	-19.11
180.844	7.51
181.064	5.46
181.283	34.13
181.503	-12.97
181.723	-21.16
181.943	-51.88
182.163	136.53
182.383	17.75
182.602	-10.92
182.822	-15.02
183.042	30.04
183.262	-25.26
183.482	68.95
183.701	-23.21
183.921	11.61
184.141	-21.16
184.361	15.7
184.58	32.08
184.8	13.65
185.02	-47.79
185.239	9.56
185.459	-8.87
185.679	85.33
185.898	-41.64
186.118	89.43
186.338	1.37
186.557	62.8
186.777	15.7
186.997	11.61
187.216	32.08
187.436	56.66
187.655	71
187.875	71
188.095	27.99
188.314	79.19
188.534	5.46
188.753	-12.97
188.973	48.47
189.192	103.76
189.412	-17.07
189.631	38.23
189.851	44.37
190.07	21.85
190.29	25.94
190.509	-10.92
190.729	17.75
190.948	62.8
191.168	191.83
191.387	54.61
191.607	25.94
191.826	25.94
192.045	46.42
192.265	52.56
192.484	30.04
192.704	54.61
192.923	-0.68
193.142	62.8
193.362	114
193.581	-27.31
193.8	62.8
194.02	81.24
194.239	15.7
194.458	64.85
194.678	3.41
194.897	38.23
195.116	-33.45
195.335	21.85
195.555	46.42
195.774	62.8
195.993	83.28
196.212	1.37
196.432	-31.4
196.651	-15.02
196.87	120.15
197.089	109.91
197.308	13.65
197.528	62.8
197.747	7.51
197.966	11.61
198.185	91.48
198.404	42.32
198.623	34.13
198.842	40.28
199.062	93.52
199.281	54.61
199.5	21.85
199.719	48.47
199.938	66.9
200.157	-4.78
200.376	40.28
200.595	56.66
200.814	42.32
201.033	81.24
201.252	93.52
201.471	34.13
201.69	146.77
201.909	73.04
202.128	54.61
202.347	38.23
202.566	7.51
202.785	103.76
203.004	5.46
203.223	146.77
203.442	-15.02
203.661	-10.92
203.879	87.38
204.098	89.43
204.317	-17.07
204.536	38.23
204.755	52.56
204.974	89.43
205.193	-15.02
205.411	99.67
205.63	81.24
205.849	54.61
206.068	46.42
206.287	21.85
206.505	48.47
206.724	105.81
206.943	13.65
207.162	64.85
207.381	54.61
207.599	56.66
207.818	3.41
208.037	36.18
208.255	13.65
208.474	19.8
208.693	19.8
208.911	34.13
209.13	42.32
209.349	56.66
209.567	34.13
209.786	79.19
210.005	27.99
210.223	60.76
210.442	-12.97
210.661	36.18
210.879	71
211.098	81.24
211.316	-4.78
211.535	87.38
211.753	42.32
211.972	21.85
212.191	52.56
212.409	44.37
212.628	73.04
212.846	13.65
213.065	85.33
213.283	40.28
213.502	42.32
213.72	44.37
213.938	38.23
214.157	17.75
214.375	44.37
214.594	7.51
214.812	13.65
215.031	19.8
215.249	11.61
215.467	68.95
215.686	-37.55
215.904	38.23
216.122	9.56
216.341	50.52
216.559	66.9
216.778	50.52
216.996	107.86
217.214	38.23
217.432	-0.68
217.651	36.18
217.869	15.7
218.087	87.38
218.306	30.04
218.524	89.43
218.742	-33.45
218.96	32.08
219.179	27.99
219.397	68.95
219.615	81.24
219.833	-25.26
220.051	-33.45
220.27	-0.68
220.488	71
220.706	17.75
220.924	9.56
221.142	34.13
221.36	62.8
221.578	50.52
221.796	-10.92
222.015	-6.83
222.233	83.28
222.451	91.48
222.669	68.95
222.887	64.85
223.105	21.85
223.323	30.04
223.541	-25.26
223.759	-8.87
223.977	-4.78
224.195	73.04
224.413	32.08
224.631	93.52
224.849	62.8
225.067	99.67
225.285	-19.11
225.503	-33.45
225.721	-47.79
225.939	38.23
226.157	38.23
226.375	134.48
226.592	-8.87
226.81	-0.68
227.028	-4.78
227.246	124.24
227.464	-27.31
227.682	91.48
227.9	30.04
228.117	87.38
228.335	13.65
228.553	11.61
228.771	56.66
228.989	71
229.206	-19.11
229.424	-6.83
229.642	58.71
229.86	-4.78
230.077	66.9
230.295	-6.83
230.513	107.86
230.731	73.04
230.948	120.15
231.166	173.39
231.384	27.99
231.601	7.51
231.819	19.8
232.037	19.8
232.254	-51.88
232.472	5.46
232.689	52.56
232.907	87.38
233.125	46.42
233.342	-8.87
233.56	64.85
233.777	46.42
233.995	77.14
234.213	64.85
234.43	-6.83
234.648	15.7
234.865	48.47
235.083	54.61
235.3	42.32
235.518	64.85
235.735	132.44
235.953	111.96
236.17	5.46
236.388	38.23
236.605	-49.83
236.822	107.86
237.04	91.48
237.257	71
237.475	32.08
237.692	58.71
237.909	77.14
238.127	-15.02
238.344	-4.78
238.562	1.37
238.779	58.71
238.996	-35.5
239.214	30.04
239.431	58.71
239.648	-60.07
239.865	48.47
240.083	81.24
240.3	-6.83
240.517	40.28
240.735	-4.78
240.952	71
241.169	111.96
241.386	50.52
241.603	36.18
241.821	-23.21
242.038	71
242.255	83.28
242.472	-43.69
242.689	95.57
242.907	48.47
243.124	93.52
243.341	-6.83
243.558	-45.74
243.775	38.23
243.992	-82.6
244.209	99.67
244.426	83.28
244.643	15.7
244.86	46.42
245.078	68.95
245.295	103.76
245.512	62.8
245.729	-66.22
245.946	7.51
246.163	30.04
246.38	50.52
246.597	71
246.814	56.66
247.031	7.51
247.248	62.8
247.464	17.75
247.681	40.28
247.898	-8.87
248.115	36.18
248.332	-15.02
248.549	73.04
248.766	126.29
248.983	11.61
249.2	56.66
249.417	105.81
249.633	-105.13
249.85	27.99
250.067	15.7
250.284	25.94
250.501	75.09
250.717	32.08
250.934	30.04
251.151	52.56
251.368	9.56
251.585	17.75
251.801	25.94
252.018	-41.64
252.235	32.08
252.451	-33.45
252.668	-25.26
252.885	114
253.102	62.8
253.318	30.04
253.535	-23.21
253.752	17.75
253.968	54.61
254.185	-35.5
254.401	-47.79
254.618	25.94
254.835	-0.68
255.051	87.38
255.268	83.28
255.484	79.19
255.701	42.32
255.917	144.72
256.134	21.85
256.351	38.23
256.567	3.41
256.784	140.63
257	-70.31
257.217	89.43
257.433	97.62
257.65	105.81
257.866	91.48
258.082	-55.98
258.299	-12.97
258.515	46.42
258.732	42.32
258.948	25.94
259.165	30.04
259.381	-19.11
259.597	5.46
259.814	124.24
260.03	64.85
260.246	25.94
260.463	79.19
260.679	48.47
260.895	40.28
261.112	38.23
261.328	7.51
261.544	-43.69
261.761	150.87
261.977	38.23
262.193	-78.51
262.409	-2.73
262.626	46.42
262.842	95.57
263.058	40.28
263.274	66.9
263.49	77.14
263.707	91.48
263.923	81.24
264.139	-55.98
264.355	79.19
264.571	95.57
264.787	38.23
265.004	23.89
265.22	52.56
265.436	-37.55
265.652	62.8
265.868	62.8
266.084	-25.26
266.3	64.85
266.516	-0.68
266.732	52.56
266.948	40.28
267.164	32.08
267.38	56.66
267.596	81.24
267.812	73.04
268.028	-10.92
268.244	-33.45
268.46	27.99
268.676	-76.46
268.892	30.04
269.108	-60.07
269.324	-17.07
269.54	-8.87
269.756	83.28
269.972	-23.21
270.188	68.95
270.403	-51.88
270.619	128.34
270.835	25.94
271.051	83.28
271.267	21.85
271.483	75.09
271.698	81.24
271.914	-17.07
272.13	126.29
272.346	-10.92
272.562	5.46
272.777	66.9
272.993	46.42
273.209	79.19
273.425	79.19
273.64	-23.21
273.856	99.67
274.072	71
274.287	25.94
274.503	95.57
274.719	56.66
274.934	-29.35
275.15	-2.73
275.366	-2.73
275.581	7.51
275.797	81.24
276.012	13.65
276.228	27.99
276.444	34.13
276.659	77.14
276.875	15.7
277.09	-2.73
277.306	38.23
277.521	40.28
277.737	40.28
277.952	85.33
278.168	38.23
278.383	103.76
278.599	116.05
278.814	54.61
279.03	60.76
279.245	83.28
279.461	32.08
279.676	11.61
279.892	30.04
280.107	-6.83
280.322	19.8
280.538	40.28
280.753	-4.78
280.969	50.52
281.184	-15.02
281.399	95.57
281.615	32.08
281.83	77.14
282.045	-8.87
282.26	-19.11
282.476	3.41
282.691	46.42
282.906	9.56
283.122	81.24
283.337	9.56
283.552	62.8
283.767	9.56
283.983	66.9
284.198	71
284.413	46.42
284.628	-6.83
284.843	38.23
285.058	58.71
285.274	68.95
285.489	-19.11
285.704	62.8
285.919	-35.5
286.134	9.56
286.349	42.32
286.564	-10.92
286.779	77.14
286.995	48.47
287.21	44.37
287.425	136.53
287.64	-12.97
287.855	-23.21
288.07	-25.26
288.285	3.41
288.5	13.65
288.715	48.47
288.93	21.85
289.145	9.56
289.36	77.14
289.575	-74.41
289.79	60.76
290.004	32.08
290.219	54.61
290.434	15.7
290.649	-41.64
290.864	9.56
291.079	-33.45
291.294	73.04
291.509	44.37
291.724	9.56
291.938	77.14
292.153	-0.68
292.368	107.86
292.583	34.13
292.798	25.94
293.012	-0.68
293.227	-6.83
293.442	38.23
293.657	91.48
293.871	85.33
294.086	-31.4
294.301	114
294.516	-2.73
294.73	32.08
294.945	9.56
295.16	-35.5
295.374	97.62
295.589	7.51
295.804	38.23
296.018	23.89
296.233	107.86
296.447	109.91
296.662	19.8
296.877	101.72
297.091	30.04
297.306	25.94
297.52	38.23
297.735	103.76
297.949	46.42
298.164	83.28
298.378	48.47
298.593	9.56
298.807	-47.79
299.022	54.61
299.236	62.8
299.451	48.47
299.665	13.65
299.88	-15.02
300.094	40.28
300.309	11.61
300.523	114
300.737	46.42
300.952	79.19
301.166	66.9
301.381	19.8
301.595	21.85
301.809	9.56
302.024	32.08
302.238	56.66
302.452	105.81
302.667	25.94
302.881	38.23
303.095	89.43
303.309	105.81
303.524	-21.16
303.738	5.46
303.952	19.8
304.166	77.14
304.381	-109.22
304.595	66.9
304.809	27.99
305.023	-27.31
305.237	-8.87
305.452	79.19
305.666	144.72
305.88	107.86
306.094	87.38
306.308	62.8
306.522	56.66
306.736	97.62
306.95	40.28
307.164	13.65
307.379	126.29
307.593	71
307.807	144.72
308.021	38.23
308.235	-6.83
308.449	5.46
308.663	46.42
308.877	48.47
309.091	36.18
309.305	60.76
309.519	-21.16
309.733	83.28
309.947	-17.07
310.161	109.91
310.374	73.04
310.588	87.38
310.802	-8.87
311.016	-58.03
311.23	3.41
311.444	-64.17
311.658	30.04
311.872	46.42
312.085	48.47
312.299	32.08
312.513	62.8
312.727	7.51
312.941	5.46
313.154	89.43
313.368	-15.02
313.582	85.33
313.796	-12.97
314.009	73.04
314.223	27.99
314.437	1.37
314.651	128.34
314.864	-53.93
315.078	-0.68
315.292	-29.35
315.505	-31.4
315.719	34.13
315.933	120.15
316.146	9.56
316.36	7.51
316.573	54.61
316.787	1.37
317.001	79.19
317.214	-12.97
317.428	42.32
317.641	-0.68
317.855	60.76
318.068	36.18
318.282	-35.5
318.495	81.24
318.709	-0.68
318.922	54.61
319.136	66.9
319.349	64.85
319.563	-55.98
319.776	38.23
319.99	32.08
320.203	42.32
320.417	30.04
320.63	79.19
320.843	79.19
321.057	122.2
321.27	40.28
321.483	34.13
321.697	34.13
321.91	109.91
322.124	66.9
322.337	21.85
322.55	-17.07
322.763	95.57
322.977	-35.5
323.19	-4.78
323.403	34.13
323.617	46.42
323.83	30.04
324.043	5.46
324.256	9.56
324.469	58.71
324.683	79.19
324.896	21.85
325.109	-4.78
325.322	-27.31
325.535	38.23
325.748	58.71
325.962	71
326.175	48.47
326.388	-0.68
326.601	87.38
326.814	44.37
327.027	50.52
327.24	167.25
327.453	-23.21
327.666	32.08
327.879	75.09
328.092	91.48
328.305	-8.87
328.518	64.85
328.731	56.66
328.944	5.46
329.157	58.71
329.37	23.89
329.583	120.15
329.796	89.43
330.009	27.99
330.222	83.28
330.435	101.72
330.648	89.43
330.861	64.85
331.073	48.47
331.286	71
331.499	83.28
331.712	17.75
331.925	23.89
332.138	34.13
332.35	85.33
332.563	-27.31
332.776	15.7
332.989	60.76
333.202	5.46
333.414	25.94
333.627	-0.68
333.84	3.41
334.053	7.51
334.265	34.13
334.478	11.61
334.691	-0.68
334.903	42.32
335.116	-19.11
335.329	44.37
335.541	21.85
335.754	152.91
335.966	54.61
336.179	71
336.392	50.52
336.604	32.08
336.817	34.13
337.029	60.76
337.242	116.05
337.454	48.47
337.667	19.8
337.88	161.11
338.092	-6.83
338.305	62.8
338.517	62.8
338.729	138.58
338.942	181.59
339.154	-35.5
339.367	-47.79
339.579	-0.68
339.792	-6.83
340.004	85.33
340.217	48.47
340.429	107.86
340.641	42.32
340.854	-12.97
341.066	105.81
341.278	52.56
341.491	103.76
341.703	30.04
341.915	34.13
342.128	40.28
342.34	60.76
342.552	-2.73
342.764	83.28
342.977	58.71
343.189	19.8
343.401	11.61
343.613	15.7
343.826	36.18
344.038	7.51
344.25	32.08
344.462	77.14
344.674	27.99
344.886	83.28
345.099	58.71
345.311	85.33
345.523	9.56
345.735	-64.17
345.947	27.99
346.159	17.75
346.371	60.76
346.583	15.7
346.795	130.39
347.007	-10.92
347.219	83.28
347.431	77.14
347.643	46.42
347.855	15.7
348.067	73.04
348.279	19.8
348.491	19.8
348.703	146.77
348.915	-37.55
349.127	15.7
349.339	21.85
349.551	-0.68
349.763	116.05
349.975	46.42
350.187	34.13
350.399	-25.26
350.61	34.13
350.822	5.46
351.034	21.85
351.246	46.42
351.458	23.89
351.669	38.23
351.881	62.8
352.093	54.61
352.305	81.24
352.517	30.04
352.728	75.09
352.94	48.47
353.152	93.52
353.363	19.8
353.575	21.85
353.787	93.52
353.999	54.61
354.21	111.96
354.422	-2.73
354.633	-39.59
354.845	91.48
355.057	105.81
355.268	-4.78
355.48	44.37
355.692	-19.11
355.903	116.05
356.115	-21.16
356.326	-68.27
356.538	58.71
356.749	27.99
356.961	144.72
357.172	38.23
357.384	-2.73
357.595	124.24
357.807	99.67
358.018	-25.26
358.23	-10.92
358.441	54.61
358.653	148.82
358.864	95.57
359.075	-27.31
359.287	73.04
359.498	120.15
359.709	122.2
359.921	19.8
360.132	-31.4
360.344	54.61
360.555	7.51
360.766	68.95
360.977	64.85
361.189	44.37
361.4	15.7
361.611	99.67
361.823	95.57
362.034	107.86
362.245	30.04
362.456	3.41
362.667	58.71
362.879	21.85
363.09	95.57
363.301	48.47
363.512	40.28
363.723	-19.11
363.935	46.42
364.146	64.85
364.357	81.24
364.568	-6.83
364.779	-8.87
364.99	15.7
365.201	1.37
365.412	-4.78
365.623	-8.87
365.834	75.09
366.045	40.28
366.256	-10.92
366.467	107.86
366.678	71
366.889	40.28
367.1	-15.02
367.311	138.58
367.522	68.95
367.733	87.38
367.944	46.42
368.155	38.23
368.366	75.09
368.577	138.58
368.788	81.24
368.999	30.04
369.209	9.56
369.42	161.11
369.631	105.81
369.842	23.89
370.053	19.8
370.264	42.32
370.474	66.9
370.685	32.08
370.896	34.13
371.107	91.48
371.317	83.28
371.528	-19.11
371.739	175.44
371.95	97.62
372.16	54.61
372.371	-60.07
372.582	62.8
372.792	79.19
373.003	56.66
373.214	-4.78
373.424	68.95
373.635	48.47
373.846	87.38
374.056	71
374.267	13.65
374.477	83.28
374.688	44.37
374.898	52.56
375.109	71
375.319	75.09
375.53	132.44
375.74	-21.16
375.951	46.42
376.161	97.62
376.372	116.05
376.582	27.99
376.793	87.38
377.003	-21.16
377.214	46.42
377.424	66.9
377.635	-4.78
377.845	75.09
378.055	79.19
378.266	13.65
378.476	40.28
378.686	7.51
378.897	50.52
379.107	38.23
379.317	85.33
379.528	19.8
379.738	126.29
379.948	-2.73
380.158	101.72
380.369	101.72
380.579	79.19
380.789	38.23
380.999	73.04
381.21	154.96
381.42	132.44
381.63	60.76
381.84	101.72
382.05	40.28
382.261	30.04
382.471	81.24
382.681	21.85
382.891	97.62
383.101	56.66
383.311	83.28
383.521	42.32
383.731	81.24
383.941	48.47
384.151	25.94
384.361	79.19
384.571	48.47
384.781	30.04
384.991	97.62
385.201	189.78
385.411	83.28
385.621	91.48
385.831	68.95
386.041	19.8
386.251	19.8
386.461	111.96
386.671	-6.83
386.881	118.1
387.091	9.56
387.301	89.43
387.511	87.38
387.72	116.05
387.93	116.05
388.14	5.46
388.35	73.04
388.56	68.95
388.769	38.23
388.979	75.09
389.189	62.8
389.399	91.48
389.609	50.52
389.818	66.9
390.028	103.76
390.238	48.47
390.447	54.61
390.657	46.42
390.867	27.99
391.076	64.85
391.286	50.52
391.496	30.04
391.705	79.19
391.915	132.44
392.125	120.15
392.334	171.35
392.544	136.53
392.753	44.37
392.963	36.18
393.172	122.2
393.382	64.85
393.591	173.39
393.801	5.46
394.01	81.24
394.22	122.2
394.429	68.95
394.639	83.28
394.848	128.34
395.058	83.28
395.267	19.8
395.477	56.66
395.686	66.9
395.895	95.57
396.105	140.63
396.314	138.58
396.524	40.28
396.733	-31.4
396.942	171.35
397.152	85.33
397.361	75.09
397.57	15.7
397.78	140.63
397.989	167.25
398.198	128.34
398.407	101.72
398.617	54.61
398.826	140.63
399.035	152.91
399.244	150.87
399.453	183.63
399.663	97.62
399.872	144.72
400.081	-8.87
400.29	177.49
400.499	66.9
400.708	197.97
400.917	99.67
401.127	146.77
401.336	91.48
401.545	165.2
401.754	193.87
401.963	197.97
402.172	136.53
402.381	118.1
402.59	42.32
402.799	177.49
403.008	124.24
403.217	138.58
403.426	146.77
403.635	99.67
403.844	132.44
404.053	120.15
404.262	148.82
404.471	204.11
404.68	126.29
404.888	169.3
405.097	105.81
405.306	154.96
405.515	183.63
405.724	185.68
405.933	175.44
406.142	144.72
406.35	187.73
406.559	140.63
406.768	120.15
406.977	257.36
407.185	212.31
407.394	165.2
407.603	179.54
407.812	222.55
408.02	275.79
408.229	265.55
408.438	173.39
408.646	202.07
408.855	222.55
409.064	259.41
409.272	249.17
409.481	318.8
409.69	263.51
409.898	333.14
410.107	283.98
410.315	370
410.524	259.41
410.733	374.1
410.941	292.18
411.15	398.67
411.358	376.14
411.567	466.25
411.775	324.94
411.984	431.44
412.192	423.25
412.401	427.34
412.609	480.59
412.818	509.26
413.026	476.49
413.234	439.63
413.443	521.55
413.651	462.16
413.86	521.55
414.068	523.6
414.276	623.95
414.485	513.36
414.693	681.29
414.901	722.25
415.11	662.86
415.318	646.48
415.526	720.2
415.734	714.06
415.943	740.68
416.151	812.36
416.359	728.39
416.567	824.65
416.776	927.05
416.984	814.41
417.192	963.91
417.4	1006.92
417.608	865.61
417.817	1037.64
418.025	992.58
418.233	1037.64
418.441	1045.83
418.649	1176.9
418.857	1226.05
419.065	1367.36
419.273	1187.14
419.481	1310.02
419.689	1359.17
419.897	1422.66
420.105	1520.96
420.313	1520.96
420.521	1596.73
420.729	1570.11
420.937	1570.11
421.145	1746.23
421.353	1846.59
421.561	1930.55
421.769	1918.26
421.977	1963.32
422.185	1887.54
422.393	2055.48
422.601	2219.32
422.809	2080.05
423.017	2239.8
423.224	2315.57
423.432	2383.15
423.64	2374.96
423.848	2610.48
424.056	2581.81
424.263	2809.13
424.471	2716.97
424.679	2852.14
424.887	3061.03
425.094	3073.32
425.302	3142.95
425.51	3073.32
425.718	3226.92
425.925	3335.46
426.133	3335.46
426.341	3677.47
426.548	3708.19
426.756	3966.23
426.964	3927.32
427.171	3982.62
427.379	4109.59
427.586	4037.91
427.794	4373.78
428.001	4562.19
428.209	4742.41
428.417	4658.45
428.624	4947.21
428.832	4973.83
429.039	4918.54
429.247	4881.67
429.454	5473.54
429.662	5862.65
429.869	5463.3
430.076	5856.51
430.284	5823.74
430.491	5799.16
430.699	6192.37
430.906	6231.29
431.114	6317.3
431.321	6526.19
431.528	6663.41
431.736	7122.15
431.943	7378.15
432.15	7204.07
432.358	7374.05
432.565	7861.47
432.772	7709.92
432.979	8058.07
433.187	8158.42
433.394	8226.01
433.601	8783.06
433.808	8844.49
434.016	8666.32
434.223	9192.65
434.43	9706.69
434.637	9606.34
434.844	10212.54
435.052	10335.42
435.259	10364.09
435.466	10302.65
435.673	10273.98
435.88	10859.7
436.087	11529.38
436.294	11439.27
436.501	11433.13
436.708	11402.41
436.915	11703.46
437.122	12311.71
437.329	12358.81
437.537	12881.04
437.743	12833.94
437.95	12874.9
438.157	13360.27
438.364	14224.51
438.571	13853.83
438.778	14005.38
438.985	15320.17
439.192	14910.58
439.399	15008.88
439.606	14943.35
439.813	15504.49
440.02	16794.71
440.227	16471.13
440.433	16241.76
440.64	16751.7
440.847	16796.76
441.054	17149.01
441.261	18234.43
441.467	17984.58
441.674	18410.56
441.881	18998.32
442.088	18973.75
442.294	18805.81
442.501	19348.53
442.708	19696.68
442.914	20399.13
443.121	21388.3
443.328	20685.85
443.534	22326.27
443.741	21412.88
443.948	21554.19
444.154	22985.72
444.361	23047.16
444.568	22881.27
444.774	23045.11
444.981	23333.87
445.187	24036.33
445.394	24800.22
445.6	24706.01
445.807	27059.13
446.013	25822.16
446.22	26299.33
446.426	27235.25
446.633	27466.67
446.839	28885.92
447.046	27343.8
447.252	29162.39
447.459	28957.6
447.665	28967.84
447.871	30221.19
448.078	31572.85
448.284	29619.09
448.491	30874.49
448.697	31869.81
448.903	32551.78
449.11	32594.79
449.316	32338.79
449.522	32699.23
449.728	33557.33
449.935	33940.3
450.141	33872.72
450.347	35040.06
450.553	33825.62
450.76	34212.68
450.966	35476.28
451.172	34849.6
451.378	35717.94
451.584	34980.67
451.791	36156.21
451.997	35971.89
452.203	36551.46
452.409	36768.55
452.615	36827.94
452.821	35203.9
453.027	34724.68
453.233	36594.47
453.44	35070.78
453.646	35699.51
453.852	35642.17
454.058	36530.98
454.264	35023.68
454.47	35937.07
454.676	34886.46
454.882	36295.47
455.088	32842.59
455.294	33444.69
455.5	34165.58
455.705	34552.65
455.911	32750.43
456.117	32893.79
456.323	31945.58
456.529	30217.1
456.735	31845.23
456.941	31124.35
457.147	30471.04
457.352	29666.19
457.558	29275.03
457.764	29641.62
457.97	28990.36
458.176	28031.91
458.381	28208.04
458.587	27034.55
458.793	26833.85
458.999	25486.29
459.204	27597.74
459.41	26405.83
459.616	24548.32
459.821	24873.95
460.027	24949.72
460.233	24159.2
460.438	22967.29
460.644	23358.45
460.85	22121.48
461.055	22078.47
461.261	21713.93
461.466	20188.19
461.672	19696.68
461.878	21005.33
462.083	19412.01
462.289	19227.7
462.494	18947.12
462.7	18158.66
462.905	17857.6
463.111	18361.41
463.316	18445.37
463.522	18138.18
463.727	17972.29
463.932	17888.32
464.138	17667.14
464.343	17796.17
464.549	17376.33
464.754	18140.22
464.959	17736.77
465.165	17269.84
465.37	17013.84
465.575	16321.63
465.781	16970.83
465.986	17009.75
466.191	16378.97
466.397	16098.4
466.602	15236.2
466.807	15965.28
467.012	16014.43
467.218	15846.5
467.423	15793.25
467.628	15881.31
