Data from USB4F104151__98__13-06-32-236.txt Node

Date: Fri Mar 14 13:06:32 EDT 2025
User: louis
Spectrometer: USB4F10415
Trigger mode: 4
Integration Time (sec): 4.000000E-2
Scans to average: 1
Electric dark correction enabled: true
Nonlinearity correction enabled: false
Boxcar width: 0
XAxis mode: Wavelengths
Number of Pixels in Spectrum: 3648
>>>>>Begin Spectral Data<<<<<
178.204	-213.5
178.424	-213.5
178.644	-213.5
178.864	-123.39
179.084	-203.26
179.304	-18.94
179.524	-72.19
179.744	-23.04
179.964	67.07
180.184	-35.33
180.404	15.87
180.624	44.54
180.844	-53.76
181.064	3.58
181.283	-33.28
181.503	32.26
181.723	73.21
181.943	-96.77
182.163	81.41
182.383	-6.66
182.602	79.36
182.822	138.75
183.042	89.6
183.262	71.17
183.482	24.06
183.701	58.88
183.921	34.3
184.141	11.78
184.361	138.75
184.58	-10.75
184.8	62.98
185.02	44.54
185.239	77.31
185.459	22.02
185.679	67.07
185.898	5.63
186.118	65.02
186.338	38.4
186.557	91.65
186.777	9.73
186.997	46.59
187.216	50.69
187.436	97.79
187.655	62.98
187.875	95.74
188.095	69.12
188.314	105.98
188.534	101.89
188.753	5.63
188.973	144.89
189.192	140.8
189.412	11.78
189.631	-10.75
189.851	36.35
190.07	108.03
190.29	38.4
190.509	24.06
190.729	56.83
190.948	50.69
191.168	142.85
191.387	32.26
191.607	105.98
191.826	69.12
192.045	46.59
192.265	87.55
192.484	30.21
192.704	-59.9
192.923	73.21
193.142	167.42
193.362	85.5
193.581	56.83
193.8	73.21
194.02	108.03
194.239	-31.23
194.458	30.21
194.678	11.78
194.897	-10.75
195.116	52.74
195.335	22.02
195.555	56.83
195.774	22.02
195.993	97.79
196.212	62.98
196.432	11.78
196.651	28.16
196.87	-41.47
197.089	187.9
197.308	50.69
197.528	79.36
197.747	-35.33
197.966	79.36
198.185	138.75
198.404	56.83
198.623	15.87
198.842	89.6
199.062	54.78
199.281	77.31
199.5	17.92
199.719	32.26
199.938	42.5
200.157	50.69
200.376	7.68
200.595	48.64
200.814	73.21
201.033	34.3
201.252	52.74
201.471	42.5
201.69	67.07
201.909	56.83
202.128	105.98
202.347	38.4
202.566	32.26
202.785	-0.51
203.004	-16.9
203.223	173.57
203.442	34.3
203.661	-16.9
203.879	81.41
204.098	105.98
204.317	71.17
204.536	73.21
204.755	62.98
204.974	32.26
205.193	69.12
205.411	128.51
205.63	83.45
205.849	-2.56
206.068	71.17
206.287	67.07
206.505	77.31
206.724	77.31
206.943	75.26
207.162	-61.95
207.381	69.12
207.599	71.17
207.818	38.4
208.037	38.4
208.255	65.02
208.474	65.02
208.693	71.17
208.911	-10.75
209.13	67.07
209.349	11.78
209.567	46.59
209.786	132.61
210.005	58.88
210.223	3.58
210.442	-33.28
210.661	5.63
210.879	56.83
211.098	24.06
211.316	71.17
211.535	-29.18
211.753	81.41
211.972	48.64
212.191	65.02
212.409	42.5
212.628	79.36
212.846	79.36
213.065	40.45
213.283	146.94
213.502	77.31
213.72	34.3
213.938	-2.56
214.157	26.11
214.375	48.64
214.594	34.3
214.812	114.17
215.031	54.78
215.249	114.17
215.467	32.26
215.686	58.88
215.904	62.98
216.122	48.64
216.341	97.79
216.559	5.63
216.778	71.17
216.996	32.26
217.214	13.82
217.432	69.12
217.651	40.45
217.869	65.02
218.087	46.59
218.306	19.97
218.524	26.11
218.742	40.45
218.96	171.52
219.179	15.87
219.397	75.26
219.615	136.7
219.833	54.78
220.051	-12.8
220.27	30.21
220.488	95.74
220.706	-16.9
220.924	48.64
221.142	38.4
221.36	40.45
221.578	116.22
221.796	81.41
222.015	-12.8
222.233	15.87
222.451	50.69
222.669	44.54
222.887	71.17
223.105	67.07
223.323	71.17
223.541	40.45
223.759	38.4
223.977	3.58
224.195	1.54
224.413	65.02
224.631	-0.51
224.849	50.69
225.067	103.93
225.285	89.6
225.503	79.36
225.721	-10.75
225.939	58.88
226.157	99.84
226.375	144.89
226.592	-2.56
226.81	24.06
227.028	75.26
227.246	58.88
227.464	77.31
227.682	28.16
227.9	128.51
228.117	71.17
228.335	77.31
228.553	99.84
228.771	38.4
228.989	19.97
229.206	50.69
229.424	7.68
229.642	9.73
229.86	40.45
230.077	30.21
230.295	48.64
230.513	93.69
230.731	30.21
230.948	134.65
231.166	136.7
231.384	32.26
231.601	-35.33
231.819	148.99
232.037	24.06
232.254	15.87
232.472	26.11
232.689	75.26
232.907	54.78
233.125	108.03
233.342	48.64
233.56	32.26
233.777	30.21
233.995	54.78
234.213	75.26
234.43	93.69
234.648	-33.28
234.865	71.17
235.083	24.06
235.3	9.73
235.518	165.37
235.735	108.03
235.953	77.31
236.17	30.21
236.388	60.93
236.605	7.68
236.822	120.32
237.04	103.93
237.257	54.78
237.475	73.21
237.692	124.41
237.909	87.55
238.127	26.11
238.344	99.84
238.562	48.64
238.779	54.78
238.996	30.21
239.214	42.5
239.431	71.17
239.648	40.45
239.865	56.83
240.083	110.08
240.3	73.21
240.517	81.41
240.735	130.56
240.952	93.69
241.169	124.41
241.386	165.37
241.603	36.35
241.821	83.45
242.038	54.78
242.255	73.21
242.472	36.35
242.689	-8.7
242.907	116.22
243.124	34.3
243.341	54.78
243.558	54.78
243.775	-8.7
243.992	52.74
244.209	22.02
244.426	56.83
244.643	38.4
244.86	22.02
245.078	132.61
245.295	79.36
245.512	62.98
245.729	11.78
245.946	71.17
246.163	65.02
246.38	95.74
246.597	67.07
246.814	73.21
247.031	40.45
247.248	40.45
247.464	77.31
247.681	60.93
247.898	79.36
248.115	73.21
248.332	-4.61
248.549	95.74
248.766	97.79
248.983	40.45
249.2	30.21
249.417	124.41
249.633	24.06
249.85	56.83
250.067	159.23
250.284	91.65
250.501	54.78
250.717	116.22
250.934	9.73
251.151	-8.7
251.368	-4.61
251.585	50.69
251.801	17.92
252.018	11.78
252.235	81.41
252.451	-6.66
252.668	9.73
252.885	112.13
253.102	67.07
253.318	-8.7
253.535	19.97
253.752	-2.56
253.968	75.26
254.185	-18.94
254.401	58.88
254.618	87.55
254.835	42.5
255.051	38.4
255.268	54.78
255.484	40.45
255.701	71.17
255.917	116.22
256.134	32.26
256.351	65.02
256.567	22.02
256.784	69.12
257	-33.28
257.217	42.5
257.433	110.08
257.65	67.07
257.866	15.87
258.082	-18.94
258.299	5.63
258.515	24.06
258.732	-18.94
258.948	-6.66
259.165	75.26
259.381	7.68
259.597	58.88
259.814	71.17
260.03	56.83
260.246	24.06
260.463	58.88
260.679	56.83
260.895	79.36
261.112	128.51
261.328	83.45
261.544	79.36
261.761	114.17
261.977	36.35
262.193	1.54
262.409	38.4
262.626	3.58
262.842	79.36
263.058	-35.33
263.274	69.12
263.49	54.78
263.707	144.89
263.923	79.36
264.139	24.06
264.355	44.54
264.571	5.63
264.787	75.26
265.004	56.83
265.22	15.87
265.436	24.06
265.652	67.07
265.868	105.98
266.084	60.93
266.3	52.74
266.516	32.26
266.732	95.74
266.948	40.45
267.164	-18.94
267.38	54.78
267.596	40.45
267.812	81.41
268.028	46.59
268.244	79.36
268.46	32.26
268.676	40.45
268.892	32.26
269.108	50.69
269.324	83.45
269.54	-12.8
269.756	54.78
269.972	38.4
270.188	58.88
270.403	-14.85
270.619	81.41
270.835	99.84
271.051	118.27
271.267	-27.14
271.483	26.11
271.698	62.98
271.914	95.74
272.13	65.02
272.346	30.21
272.562	30.21
272.777	122.37
272.993	99.84
273.209	62.98
273.425	13.82
273.64	-51.71
273.856	42.5
274.072	36.35
274.287	-6.66
274.503	118.27
274.719	56.83
274.934	17.92
275.15	-27.14
275.366	130.56
275.581	50.69
275.797	40.45
276.012	54.78
276.228	-2.56
276.444	89.6
276.659	73.21
276.875	-18.94
277.09	40.45
277.306	17.92
277.521	69.12
277.737	52.74
277.952	22.02
278.168	38.4
278.383	38.4
278.599	36.35
278.814	52.74
279.03	19.97
279.245	148.99
279.461	77.31
279.676	103.93
279.892	73.21
280.107	-10.75
280.322	22.02
280.538	69.12
280.753	-18.94
280.969	77.31
281.184	3.58
281.399	161.28
281.615	62.98
281.83	122.37
282.045	15.87
282.26	7.68
282.476	32.26
282.691	40.45
282.906	105.98
283.122	-16.9
283.337	-59.9
283.552	15.87
283.767	81.41
283.983	56.83
284.198	-10.75
284.413	79.36
284.628	-20.99
284.843	30.21
285.058	65.02
285.274	54.78
285.489	46.59
285.704	114.17
285.919	-4.61
286.134	40.45
286.349	40.45
286.564	122.37
286.779	85.5
286.995	19.97
287.21	1.54
287.425	85.5
287.64	-10.75
287.855	79.36
288.07	-6.66
288.285	54.78
288.5	128.51
288.715	24.06
288.93	56.83
289.145	24.06
289.36	85.5
289.575	1.54
289.79	54.78
290.004	95.74
290.219	89.6
290.434	1.54
290.649	146.94
290.864	34.3
291.079	7.68
291.294	13.82
291.509	19.97
291.724	122.37
291.938	93.69
292.153	69.12
292.368	-2.56
292.583	34.3
292.798	-4.61
293.012	50.69
293.227	136.7
293.442	46.59
293.657	28.16
293.871	132.61
294.086	89.6
294.301	93.69
294.516	73.21
294.73	97.79
294.945	40.45
295.16	5.63
295.374	69.12
295.589	77.31
295.804	91.65
296.018	87.55
296.233	163.33
296.447	1.54
296.662	62.98
296.877	136.7
297.091	89.6
297.306	17.92
297.52	13.82
297.735	62.98
297.949	79.36
298.164	105.98
298.378	60.93
298.593	-39.42
298.807	-27.14
299.022	50.69
299.236	24.06
299.451	26.11
299.665	116.22
299.88	26.11
300.094	134.65
300.309	54.78
300.523	87.55
300.737	97.79
300.952	34.3
301.166	60.93
301.381	24.06
301.595	17.92
301.809	44.54
302.024	34.3
302.238	30.21
302.452	34.3
302.667	13.82
302.881	103.93
303.095	81.41
303.309	103.93
303.524	38.4
303.738	38.4
303.952	-74.24
304.166	77.31
304.381	34.3
304.595	114.17
304.809	22.02
305.023	95.74
305.237	-23.04
305.452	54.78
305.666	99.84
305.88	5.63
306.094	46.59
306.308	65.02
306.522	7.68
306.736	112.13
306.95	-6.66
307.164	99.84
307.379	-25.09
307.593	99.84
307.807	108.03
308.021	110.08
308.235	5.63
308.449	-4.61
308.663	24.06
308.877	122.37
309.091	36.35
309.305	42.5
309.519	40.45
309.733	112.13
309.947	-100.86
310.161	226.81
310.374	95.74
310.588	73.21
310.802	38.4
311.016	77.31
311.23	114.17
311.444	-57.86
311.658	77.31
311.872	58.88
312.085	153.09
312.299	89.6
312.513	79.36
312.727	40.45
312.941	13.82
313.154	87.55
313.368	58.88
313.582	116.22
313.796	15.87
314.009	48.64
314.223	83.45
314.437	169.47
314.651	112.13
314.864	69.12
315.078	5.63
315.292	40.45
315.505	-29.18
315.719	89.6
315.933	118.27
316.146	15.87
316.36	28.16
316.573	44.54
316.787	132.61
317.001	32.26
317.214	22.02
317.428	17.92
317.641	-4.61
317.855	87.55
318.068	40.45
318.282	54.78
318.495	130.56
318.709	103.93
318.922	87.55
319.136	122.37
319.349	112.13
319.563	56.83
319.776	153.09
319.99	38.4
320.203	73.21
320.417	95.74
320.63	52.74
320.843	157.18
321.057	79.36
321.27	-18.94
321.483	87.55
321.697	54.78
321.91	73.21
322.124	83.45
322.337	91.65
322.55	62.98
322.763	48.64
322.977	11.78
323.19	54.78
323.403	105.98
323.617	46.59
323.83	91.65
324.043	36.35
324.256	112.13
324.469	-4.61
324.683	83.45
324.896	36.35
325.109	40.45
325.322	34.3
325.535	38.4
325.748	58.88
325.962	79.36
326.175	116.22
326.388	60.93
326.601	79.36
326.814	52.74
327.027	32.26
327.24	185.85
327.453	-55.81
327.666	32.26
327.879	54.78
328.092	112.13
328.305	13.82
328.518	40.45
328.731	69.12
328.944	54.78
329.157	44.54
329.37	38.4
329.583	185.85
329.796	112.13
330.009	-41.47
330.222	50.69
330.435	91.65
330.648	134.65
330.861	62.98
331.073	42.5
331.286	56.83
331.499	81.41
331.712	46.59
331.925	65.02
332.138	3.58
332.35	114.17
332.563	89.6
332.776	144.89
332.989	36.35
333.202	54.78
333.414	13.82
333.627	52.74
333.84	85.5
334.053	56.83
334.265	28.16
334.478	15.87
334.691	122.37
334.903	128.51
335.116	32.26
335.329	71.17
335.541	62.98
335.754	99.84
335.966	32.26
336.179	44.54
336.392	-23.04
336.604	93.69
336.817	142.85
337.029	108.03
337.242	118.27
337.454	87.55
337.667	87.55
337.88	163.33
338.092	69.12
338.305	50.69
338.517	38.4
338.729	165.37
338.942	120.32
339.154	-14.85
339.367	24.06
339.579	105.98
339.792	91.65
340.004	124.41
340.217	50.69
340.429	124.41
340.641	58.88
340.854	-0.51
341.066	5.63
341.278	151.04
341.491	91.65
341.703	40.45
341.915	5.63
342.128	79.36
342.34	36.35
342.552	85.5
342.764	62.98
342.977	56.83
343.189	95.74
343.401	89.6
343.613	26.11
343.826	97.79
344.038	-33.28
344.25	48.64
344.462	38.4
344.674	-0.51
344.886	108.03
345.099	126.46
345.311	67.07
345.523	75.26
345.735	9.73
345.947	108.03
346.159	54.78
346.371	73.21
346.583	114.17
346.795	189.95
347.007	7.68
347.219	81.41
347.431	118.27
347.643	73.21
347.855	22.02
348.067	89.6
348.279	30.21
348.491	69.12
348.703	95.74
348.915	97.79
349.127	34.3
349.339	40.45
349.551	79.36
349.763	62.98
349.975	48.64
350.187	132.61
350.399	87.55
350.61	153.09
350.822	75.26
351.034	105.98
351.246	34.3
351.458	91.65
351.669	95.74
351.881	132.61
352.093	99.84
352.305	151.04
352.517	140.8
352.728	116.22
352.94	50.69
353.152	56.83
353.363	120.32
353.575	75.26
353.787	103.93
353.999	89.6
354.21	62.98
354.422	13.82
354.633	9.73
354.845	73.21
355.057	99.84
355.268	91.65
355.48	118.27
355.692	105.98
355.903	118.27
356.115	17.92
356.326	15.87
356.538	42.5
356.749	101.89
356.961	128.51
357.172	69.12
357.384	93.69
357.595	130.56
357.807	62.98
358.018	73.21
358.23	-25.09
358.441	124.41
358.653	62.98
358.864	81.41
359.075	58.88
359.287	105.98
359.498	120.32
359.709	67.07
359.921	101.89
360.132	52.74
360.344	40.45
360.555	26.11
360.766	38.4
360.977	7.68
361.189	83.45
361.4	81.41
361.611	101.89
361.823	67.07
362.034	128.51
362.245	17.92
362.456	7.68
362.667	142.85
362.879	83.45
363.09	3.58
363.301	93.69
363.512	116.22
363.723	91.65
363.935	13.82
364.146	167.42
364.357	83.45
364.568	124.41
364.779	36.35
364.99	73.21
365.201	7.68
365.412	136.7
365.623	22.02
365.834	17.92
366.045	30.21
366.256	153.09
366.467	110.08
366.678	103.93
366.889	-20.99
367.1	97.79
367.311	163.33
367.522	71.17
367.733	167.42
367.944	132.61
368.155	126.46
368.366	32.26
368.577	128.51
368.788	108.03
368.999	-12.8
369.209	97.79
369.42	122.37
369.631	196.09
369.842	99.84
370.053	46.59
370.264	153.09
370.474	103.93
370.685	85.5
370.896	69.12
371.107	-23.04
371.317	71.17
371.528	56.83
371.739	91.65
371.95	120.32
372.16	118.27
372.371	15.87
372.582	77.31
372.792	142.85
373.003	73.21
373.214	89.6
373.424	79.36
373.635	28.16
373.846	163.33
374.056	140.8
374.267	32.26
374.477	87.55
374.688	46.59
374.898	108.03
375.109	-8.7
375.319	54.78
375.53	165.37
375.74	81.41
375.951	114.17
376.161	132.61
376.372	99.84
376.582	179.71
376.793	120.32
377.003	67.07
377.214	58.88
377.424	87.55
377.635	42.5
377.845	58.88
378.055	101.89
378.266	3.58
378.476	144.89
378.686	114.17
378.897	130.56
379.107	89.6
379.317	118.27
379.528	54.78
379.738	30.21
379.948	54.78
380.158	112.13
380.369	60.93
380.579	56.83
380.789	122.37
380.999	62.98
381.21	103.93
381.42	144.89
381.63	52.74
381.84	95.74
382.05	83.45
382.261	124.41
382.471	95.74
382.681	114.17
382.891	114.17
383.101	136.7
383.311	5.63
383.521	-12.8
383.731	67.07
383.941	112.13
384.151	112.13
384.361	95.74
384.571	130.56
384.781	140.8
384.991	173.57
385.201	153.09
385.411	122.37
385.621	108.03
385.831	110.08
386.041	103.93
386.251	75.26
386.461	79.36
386.671	101.89
386.881	83.45
387.091	62.98
387.301	181.76
387.511	26.11
387.72	157.18
387.93	87.55
388.14	62.98
388.35	148.99
388.56	128.51
388.769	132.61
388.979	67.07
389.189	67.07
389.399	32.26
389.609	151.04
389.818	130.56
390.028	40.45
390.238	75.26
390.447	54.78
390.657	97.79
390.867	62.98
391.076	15.87
391.286	105.98
391.496	165.37
391.705	7.68
391.915	124.41
392.125	120.32
392.334	171.52
392.544	179.71
392.753	75.26
392.963	114.17
393.172	89.6
393.382	118.27
393.591	181.76
393.801	42.5
394.01	144.89
394.22	85.5
394.429	146.94
394.639	101.89
394.848	87.55
395.058	114.17
395.267	71.17
395.477	132.61
395.686	214.52
395.895	179.71
396.105	218.62
396.314	85.5
396.524	179.71
396.733	44.54
396.942	118.27
397.152	146.94
397.361	175.61
397.57	126.46
397.78	120.32
397.989	136.7
398.198	245.24
398.407	65.02
398.617	91.65
398.826	120.32
399.035	202.24
399.244	161.28
399.453	177.66
399.663	103.93
399.872	179.71
400.081	153.09
400.29	179.71
400.499	165.37
400.708	187.9
400.917	216.57
401.127	112.13
401.336	183.81
401.545	222.72
401.754	224.76
401.963	118.27
402.172	101.89
402.381	179.71
402.59	114.17
402.799	175.61
403.008	212.48
403.217	144.89
403.426	204.28
403.635	97.79
403.844	169.47
404.053	171.52
404.262	247.29
404.471	216.57
404.68	226.81
404.888	239.1
405.097	79.36
405.306	181.76
405.515	253.44
405.724	165.37
405.933	259.58
406.142	292.35
406.35	185.85
406.559	185.85
406.768	247.29
406.977	329.21
407.185	259.58
407.394	288.25
407.603	286.2
407.812	253.44
408.02	372.22
408.229	333.31
408.438	343.55
408.646	284.16
408.855	318.97
409.064	396.79
409.272	376.31
409.481	398.84
409.69	404.99
409.898	349.69
410.107	392.7
410.315	488.95
410.524	429.56
410.733	433.66
410.941	468.47
411.15	519.67
411.358	441.85
411.567	613.88
411.775	464.38
411.984	466.42
412.192	593.4
412.401	607.73
412.609	744.95
412.818	734.71
413.026	710.13
413.234	626.17
413.443	736.76
413.651	656.89
413.86	673.27
414.068	824.82
414.276	820.72
414.485	773.62
414.693	904.69
414.901	978.42
415.11	972.27
415.318	939.51
415.526	1005.04
415.734	998.9
415.943	1064.43
416.151	1103.34
416.359	1105.39
416.567	1115.63
416.776	1197.55
416.984	1285.61
417.192	1320.43
417.4	1244.65
417.608	1285.61
417.817	1291.76
418.025	1519.08
418.233	1637.86
418.441	1431.02
418.649	1615.34
418.857	1664.49
419.065	1687.01
419.273	1699.3
419.481	1787.36
419.689	1900
419.897	1971.68
420.105	1928.67
420.313	2082.27
420.521	2211.29
420.729	2219.49
420.937	2221.53
421.145	2266.59
421.353	2428.38
421.561	2606.55
421.769	2534.87
421.977	2637.27
422.185	2678.23
422.393	2821.59
422.601	2997.71
422.809	3003.86
423.017	3026.39
423.224	3177.94
423.432	3280.33
423.64	3272.14
423.848	3630.54
424.056	3415.5
424.263	3706.31
424.471	3808.71
424.679	3966.4
424.887	3990.98
425.094	4160.96
425.302	4226.5
425.51	4447.68
425.718	4429.24
425.925	4529.59
426.133	4718.01
426.341	4978.1
426.548	5332.4
426.756	5131.7
426.964	5184.94
427.171	5576.11
427.379	5645.74
427.586	5741.99
427.794	5834.15
428.001	6288.8
428.209	6448.54
428.417	6434.21
428.624	6870.42
428.832	7083.41
429.039	6917.53
429.247	6866.33
429.454	7329.17
429.662	8181.12
429.869	7542.16
430.076	7763.34
430.284	7849.35
430.491	8009.09
430.699	8557.95
430.906	8775.03
431.114	8795.51
431.321	9147.76
431.528	9176.44
431.736	9786.73
431.943	10358.11
432.15	9803.11
432.358	10200.42
432.565	10487.14
432.772	10605.92
432.979	11122.01
433.187	11394.39
433.394	11363.67
433.601	11881.8
433.808	12109.13
434.016	12197.19
434.223	12537.15
434.43	13487.41
434.637	13180.21
434.844	13733.17
435.052	14015.79
435.259	14191.91
435.466	14312.74
435.673	14118.18
435.88	15123.74
436.087	15830.29
436.294	15832.33
436.501	15617.3
436.708	15942.92
436.915	16299.27
437.122	17302.78
437.329	17042.68
437.537	17466.61
437.743	17741.04
437.95	17831.15
438.157	18717.92
438.364	19395.8
438.571	19354.84
438.778	19360.98
438.985	21122.24
439.192	20100.3
439.399	20987.07
439.606	20702.4
439.813	21382.33
440.02	22914.21
440.227	22537.38
440.433	22320.3
440.64	23327.9
440.847	23086.24
441.054	23719.06
441.261	25222.27
441.467	24790.15
441.674	25465.98
441.881	26170.48
442.088	25869.43
442.294	25807.99
442.501	26711.14
442.708	27130.98
442.914	28171.35
443.121	29340.74
443.328	28587.08
443.534	30585.9
443.741	29805.63
443.948	29301.82
444.154	31605.79
444.361	31147.04
444.568	31302.69
444.774	31601.69
444.981	31669.28
445.187	33211.4
445.394	34284.53
445.6	33401.86
445.807	37063.63
446.013	35494.88
446.22	36086.75
446.426	37485.51
446.633	37979.07
446.839	39193.51
447.046	37632.96
447.252	39631.78
447.459	39779.23
447.665	39682.98
447.871	41126.8
448.078	42699.64
448.284	40672.15
448.491	42032
448.697	43395.95
448.903	44352.35
449.11	44788.56
449.316	44118.88
449.522	44563.29
449.728	45929.28
449.935	46441.28
450.141	46082.88
450.347	46996.27
450.553	45919.04
450.76	46469.95
450.966	48323.36
451.172	47354.67
451.378	48540.44
451.584	47436.59
451.791	48841.49
451.997	49185.55
452.203	49720.07
452.409	49736.46
452.615	49298.19
452.821	47649.58
453.027	47065.91
453.233	49681.16
453.44	47936.29
453.646	48540.44
453.852	48481.05
454.058	49027.86
454.264	47751.98
454.47	49158.93
454.676	47450.92
454.882	49269.52
455.088	45132.62
455.294	45599.56
455.5	46549.82
455.705	46983.99
455.911	45220.69
456.117	44383.07
456.323	43735.91
456.529	41620.36
456.735	43627.37
456.941	42290.04
457.147	41563.01
457.352	40143.77
457.558	39961.5
457.764	40416.15
457.97	39150.51
458.176	38390.71
458.381	38349.75
458.587	36643.79
458.793	36883.41
458.999	34724.85
459.204	36836.3
459.41	36037.59
459.616	33596.42
459.821	33799.16
460.027	34065.4
460.233	32873.48
460.438	31570.97
460.644	31519.78
460.85	30475.31
461.055	29684.8
461.261	29627.45
461.466	27458.65
461.672	26588.27
461.878	28626
462.083	26735.72
462.289	26287.21
462.494	25750.65
462.7	24886.4
462.905	24134.8
463.111	25119.87
463.316	24870.02
463.522	24450.19
463.727	24538.25
463.932	24423.56
464.138	24163.47
464.343	24654.98
464.549	23585.94
464.754	24325.26
464.959	24312.97
465.165	24081.55
465.37	22842.53
465.575	22387.88
465.781	23319.71
465.986	23532.7
