Data from USB4F104151__72__13-06-01-720.txt Node

Date: Fri Mar 14 13:06:01 EDT 2025
User: louis
Spectrometer: USB4F10415
Trigger mode: 4
Integration Time (sec): 4.000000E-2
Scans to average: 1
Electric dark correction enabled: true
Nonlinearity correction enabled: false
Boxcar width: 0
XAxis mode: Wavelengths
Number of Pixels in Spectrum: 3648
>>>>>Begin Spectral Data<<<<<
178.204	-231.25
178.424	-231.25
178.644	-231.25
178.864	-163.67
179.084	-196.43
179.304	45.23
179.524	10.41
179.744	6.31
179.964	86.19
180.184	-55.12
180.404	-38.74
180.624	10.41
180.844	-16.21
181.064	-42.84
181.283	20.65
181.503	-36.69
181.723	10.41
181.943	-18.26
182.163	55.47
182.383	14.51
182.602	39.08
182.822	26.79
183.042	30.89
183.262	-1.88
183.482	10.41
183.701	-16.21
183.921	41.13
184.141	-32.6
184.361	67.75
184.58	-3.93
184.8	45.23
185.02	30.89
185.239	2.22
185.459	32.94
185.679	32.94
185.898	2.22
186.118	125.1
186.338	2.22
186.557	22.7
186.777	8.36
186.997	-12.12
187.216	37.03
187.436	94.38
187.655	84.14
187.875	121
188.095	34.99
188.314	147.62
188.534	88.23
188.753	6.31
188.973	-3.93
189.192	75.95
189.412	30.89
189.631	30.89
189.851	43.18
190.07	131.24
190.29	22.7
190.509	-12.12
190.729	80.04
190.948	121
191.168	200.87
191.387	96.43
191.607	30.89
191.826	14.51
192.045	37.03
192.265	-42.84
192.484	-5.97
192.704	14.51
192.923	-1.88
193.142	133.29
193.362	-20.31
193.581	71.85
193.8	84.14
194.02	82.09
194.239	41.13
194.458	102.57
194.678	45.23
194.897	-36.69
195.116	75.95
195.335	57.51
195.555	82.09
195.774	2.22
195.993	84.14
196.212	6.31
196.432	10.41
196.651	22.7
196.87	49.32
197.089	102.57
197.308	84.14
197.528	43.18
197.747	37.03
197.966	-8.02
198.185	65.71
198.404	14.51
198.623	90.28
198.842	59.56
199.062	77.99
199.281	51.37
199.5	-16.21
199.719	41.13
199.938	114.86
200.157	149.67
200.376	57.51
200.595	84.14
200.814	14.51
201.033	30.89
201.252	18.6
201.471	61.61
201.69	104.62
201.909	18.6
202.128	45.23
202.347	10.41
202.566	-5.97
202.785	14.51
203.004	-8.02
203.223	47.27
203.442	-48.98
203.661	30.89
203.879	16.55
204.098	110.76
204.317	-24.4
204.536	26.79
204.755	16.55
204.974	121
205.193	-24.4
205.411	112.81
205.63	22.7
205.849	34.99
206.068	63.66
206.287	49.32
206.505	102.57
206.724	39.08
206.943	28.84
207.162	-5.97
207.381	14.51
207.599	26.79
207.818	-44.88
208.037	24.75
208.255	-3.93
208.474	53.42
208.693	65.71
208.911	65.71
209.13	-42.84
209.349	18.6
209.567	-12.12
209.786	172.2
210.005	47.27
210.223	34.99
210.442	14.51
210.661	14.51
210.879	43.18
211.098	24.75
211.316	67.75
211.535	123.05
211.753	32.94
211.972	43.18
212.191	0.17
212.409	-8.02
212.628	84.14
212.846	39.08
213.065	16.55
213.283	24.75
213.502	45.23
213.72	80.04
213.938	59.56
214.157	-1.88
214.375	-55.12
214.594	6.31
214.812	61.61
215.031	43.18
215.249	4.27
215.467	-3.93
215.686	12.46
215.904	32.94
216.122	2.22
216.341	137.38
216.559	34.99
216.778	80.04
216.996	12.46
217.214	-1.88
217.432	32.94
217.651	22.7
217.869	51.37
218.087	41.13
218.306	-20.31
218.524	-10.07
218.742	2.22
218.96	63.66
219.179	24.75
219.397	39.08
219.615	108.71
219.833	24.75
220.051	24.75
220.27	80.04
220.488	30.89
220.706	41.13
220.924	10.41
221.142	-40.79
221.36	14.51
221.578	147.62
221.796	14.51
222.015	22.7
222.233	47.27
222.451	139.43
222.669	-57.17
222.887	43.18
223.105	16.55
223.323	-5.97
223.541	18.6
223.759	20.65
223.977	-79.7
224.195	106.67
224.413	90.28
224.631	57.51
224.849	92.33
225.067	129.19
225.285	-16.21
225.503	28.84
225.721	-48.98
225.939	90.28
226.157	24.75
226.375	155.82
226.592	2.22
226.81	-30.55
227.028	88.23
227.246	82.09
227.464	73.9
227.682	51.37
227.9	16.55
228.117	112.81
228.335	39.08
228.553	94.38
228.771	22.7
228.989	-8.02
229.206	61.61
229.424	43.18
229.642	-16.21
229.86	-83.8
230.077	125.1
230.295	69.8
230.513	59.56
230.731	49.32
230.948	92.33
231.166	114.86
231.384	-32.6
231.601	77.99
231.819	69.8
232.037	-16.21
232.254	-8.02
232.472	16.55
232.689	6.31
232.907	98.47
233.125	39.08
233.342	51.37
233.56	-53.08
233.777	100.52
233.995	-18.26
234.213	94.38
234.43	14.51
234.648	82.09
234.865	-1.88
235.083	77.99
235.3	-3.93
235.518	82.09
235.735	80.04
235.953	88.23
236.17	-16.21
236.388	49.32
236.605	22.7
236.822	84.14
237.04	131.24
237.257	39.08
237.475	16.55
237.692	32.94
237.909	84.14
238.127	69.8
238.344	41.13
238.562	84.14
238.779	4.27
238.996	-3.93
239.214	24.75
239.431	86.19
239.648	57.51
239.865	34.99
240.083	65.71
240.3	65.71
240.517	63.66
240.735	6.31
240.952	73.9
241.169	67.75
241.386	24.75
241.603	90.28
241.821	47.27
242.038	88.23
242.255	53.42
242.472	-22.36
242.689	53.42
242.907	45.23
243.124	104.62
243.341	16.55
243.558	26.79
243.775	20.65
243.992	18.6
244.209	30.89
244.426	190.63
244.643	98.47
244.86	43.18
245.078	84.14
245.295	30.89
245.512	100.52
245.729	-71.51
245.946	59.56
246.163	129.19
246.38	71.85
246.597	30.89
246.814	-24.4
247.031	-38.74
247.248	10.41
247.464	98.47
247.681	55.47
247.898	73.9
248.115	34.99
248.332	43.18
248.549	108.71
248.766	147.62
248.983	90.28
249.2	57.51
249.417	65.71
249.633	26.79
249.85	57.51
250.067	51.37
250.284	71.85
250.501	123.05
250.717	71.85
250.934	73.9
251.151	69.8
251.368	-40.79
251.585	47.27
251.801	34.99
252.018	34.99
252.235	71.85
252.451	12.46
252.668	12.46
252.885	-1.88
253.102	67.75
253.318	18.6
253.535	94.38
253.752	73.9
253.968	4.27
254.185	20.65
254.401	82.09
254.618	41.13
254.835	-24.4
255.051	73.9
255.268	57.51
255.484	-51.03
255.701	63.66
255.917	131.24
256.134	30.89
256.351	82.09
256.567	-44.88
256.784	-5.97
257	14.51
257.217	34.99
257.433	71.85
257.65	59.56
257.866	57.51
258.082	8.36
258.299	24.75
258.515	100.52
258.732	-89.94
258.948	0.17
259.165	98.47
259.381	55.47
259.597	22.7
259.814	22.7
260.03	22.7
260.246	-1.88
260.463	137.38
260.679	80.04
260.895	41.13
261.112	-1.88
261.328	32.94
261.544	18.6
261.761	182.44
261.977	71.85
262.193	12.46
262.409	71.85
262.626	32.94
262.842	112.81
263.058	34.99
263.274	-34.64
263.49	8.36
263.707	73.9
263.923	41.13
264.139	41.13
264.355	20.65
264.571	65.71
264.787	63.66
265.004	67.75
265.22	26.79
265.436	-14.17
265.652	-16.21
265.868	67.75
266.084	-10.07
266.3	26.79
266.516	-18.26
266.732	39.08
266.948	28.84
267.164	73.9
267.38	2.22
267.596	49.32
267.812	104.62
268.028	28.84
268.244	43.18
268.46	73.9
268.676	59.56
268.892	100.52
269.108	51.37
269.324	55.47
269.54	-42.84
269.756	53.42
269.972	-30.55
270.188	-5.97
270.403	-34.64
270.619	6.31
270.835	96.43
271.051	-16.21
271.267	0.17
271.483	-22.36
271.698	90.28
271.914	57.51
272.13	98.47
272.346	-20.31
272.562	71.85
272.777	102.57
272.993	49.32
273.209	20.65
273.425	73.9
273.64	0.17
273.856	80.04
274.072	8.36
274.287	-1.88
274.503	45.23
274.719	100.52
274.934	30.89
275.15	-55.12
275.366	4.27
275.581	75.95
275.797	51.37
276.012	43.18
276.228	67.75
276.444	-1.88
276.659	104.62
276.875	30.89
277.09	34.99
277.306	49.32
277.521	28.84
277.737	71.85
277.952	86.19
278.168	88.23
278.383	-32.6
278.599	22.7
278.814	59.56
279.03	28.84
279.245	149.67
279.461	34.99
279.676	137.38
279.892	43.18
280.107	10.41
280.322	6.31
280.538	88.23
280.753	26.79
280.969	84.14
281.184	47.27
281.399	88.23
281.615	73.9
281.83	-10.07
282.045	-40.79
282.26	-5.97
282.476	30.89
282.691	51.37
282.906	34.99
283.122	94.38
283.337	51.37
283.552	98.47
283.767	2.22
283.983	28.84
284.198	-24.4
284.413	59.56
284.628	14.51
284.843	45.23
285.058	71.85
285.274	96.43
285.489	8.36
285.704	112.81
285.919	0.17
286.134	75.95
286.349	43.18
286.564	84.14
286.779	112.81
286.995	121
287.21	26.79
287.425	10.41
287.64	24.75
287.855	39.08
288.07	-67.41
288.285	49.32
288.5	67.75
288.715	37.03
288.93	18.6
289.145	-10.07
289.36	114.86
289.575	47.27
289.79	24.75
290.004	-28.5
290.219	86.19
290.434	18.6
290.649	41.13
290.864	-26.45
291.079	67.75
291.294	45.23
291.509	80.04
291.724	16.55
291.938	-51.03
292.153	82.09
292.368	28.84
292.583	51.37
292.798	28.84
293.012	100.52
293.227	51.37
293.442	59.56
293.657	86.19
293.871	47.27
294.086	37.03
294.301	82.09
294.516	139.43
294.73	63.66
294.945	65.71
295.16	14.51
295.374	137.38
295.589	8.36
295.804	63.66
296.018	57.51
296.233	96.43
296.447	94.38
296.662	59.56
296.877	121
297.091	51.37
297.306	59.56
297.52	63.66
297.735	73.9
297.949	82.09
298.164	51.37
298.378	16.55
298.593	32.94
298.807	55.47
299.022	49.32
299.236	71.85
299.451	67.75
299.665	39.08
299.88	51.37
300.094	59.56
300.309	49.32
300.523	86.19
300.737	47.27
300.952	-1.88
301.166	53.42
301.381	30.89
301.595	53.42
301.809	16.55
302.024	24.75
302.238	34.99
302.452	49.32
302.667	51.37
302.881	61.61
303.095	69.8
303.309	47.27
303.524	34.99
303.738	51.37
303.952	-5.97
304.166	123.05
304.381	-51.03
304.595	121
304.809	-8.02
305.023	-3.93
305.237	-3.93
305.452	112.81
305.666	116.9
305.88	80.04
306.094	88.23
306.308	55.47
306.522	47.27
306.736	-16.21
306.95	47.27
307.164	47.27
307.379	73.9
307.593	90.28
307.807	75.95
308.021	39.08
308.235	67.75
308.449	55.47
308.663	8.36
308.877	123.05
309.091	-16.21
309.305	102.57
309.519	-83.8
309.733	65.71
309.947	10.41
310.161	151.72
310.374	43.18
310.588	39.08
310.802	-1.88
311.016	47.27
311.23	123.05
311.444	4.27
311.658	67.75
311.872	118.95
312.085	30.89
312.299	86.19
312.513	92.33
312.727	39.08
312.941	-1.88
313.154	53.42
313.368	6.31
313.582	137.38
313.796	49.32
314.009	-24.4
314.223	157.86
314.437	28.84
314.651	96.43
314.864	47.27
315.078	-20.31
315.292	4.27
315.505	37.03
315.719	59.56
315.933	65.71
316.146	51.37
316.36	2.22
316.573	96.43
316.787	67.75
317.001	131.24
317.214	47.27
317.428	65.71
317.641	-12.12
317.855	-5.97
318.068	69.8
318.282	63.66
318.495	65.71
318.709	98.47
318.922	14.51
319.136	151.72
319.349	94.38
319.563	22.7
319.776	-26.45
319.99	30.89
320.203	53.42
320.417	67.75
320.63	65.71
320.843	94.38
321.057	53.42
321.27	8.36
321.483	116.9
321.697	63.66
321.91	2.22
322.124	63.66
322.337	4.27
322.55	32.94
322.763	67.75
322.977	88.23
323.19	67.75
323.403	80.04
323.617	67.75
323.83	106.67
324.043	-30.55
324.256	73.9
324.469	8.36
324.683	88.23
324.896	-26.45
325.109	-40.79
325.322	26.79
325.535	65.71
325.748	94.38
325.962	75.95
326.175	116.9
326.388	73.9
326.601	98.47
326.814	51.37
327.027	-1.88
327.24	92.33
327.453	-16.21
327.666	47.27
327.879	57.51
328.092	71.85
328.305	61.61
328.518	51.37
328.731	106.67
328.944	96.43
329.157	108.71
329.37	14.51
329.583	145.58
329.796	147.62
330.009	-24.4
330.222	92.33
330.435	26.79
330.648	121
330.861	30.89
331.073	67.75
331.286	67.75
331.499	28.84
331.712	-18.26
331.925	106.67
332.138	75.95
332.35	96.43
332.563	24.75
332.776	59.56
332.989	-28.5
333.202	71.85
333.414	135.34
333.627	16.55
333.84	-12.12
334.053	14.51
334.265	-81.75
334.478	-22.36
334.691	6.31
334.903	39.08
335.116	39.08
335.329	39.08
335.541	102.57
335.754	51.37
335.966	51.37
336.179	43.18
336.392	37.03
336.604	65.71
336.817	49.32
337.029	88.23
337.242	82.09
337.454	71.85
337.667	6.31
337.88	106.67
338.092	71.85
338.305	59.56
338.517	41.13
338.729	112.81
338.942	123.05
339.154	26.79
339.367	-10.07
339.579	121
339.792	-10.07
340.004	71.85
340.217	6.31
340.429	96.43
340.641	34.99
340.854	-20.31
341.066	34.99
341.278	137.38
341.491	59.56
341.703	75.95
341.915	8.36
342.128	75.95
342.34	75.95
342.552	28.84
342.764	100.52
342.977	82.09
343.189	114.86
343.401	6.31
343.613	34.99
343.826	49.32
344.038	14.51
344.25	80.04
344.462	6.31
344.674	59.56
344.886	49.32
345.099	49.32
345.311	69.8
345.523	-28.5
345.735	49.32
345.947	37.03
346.159	86.19
346.371	55.47
346.583	98.47
346.795	166.06
347.007	49.32
347.219	47.27
347.431	-1.88
347.643	123.05
347.855	2.22
348.067	125.1
348.279	59.56
348.491	22.7
348.703	53.42
348.915	69.8
349.127	-57.17
349.339	41.13
349.551	-1.88
349.763	82.09
349.975	59.56
350.187	24.75
350.399	90.28
350.61	104.62
350.822	51.37
351.034	6.31
351.246	98.47
351.458	14.51
351.669	137.38
351.881	37.03
352.093	88.23
352.305	114.86
352.517	110.76
352.728	131.24
352.94	10.41
353.152	69.8
353.363	-40.79
353.575	49.32
353.787	84.14
353.999	55.47
354.21	200.87
354.422	4.27
354.633	24.75
354.845	84.14
355.057	82.09
355.268	80.04
355.48	106.67
355.692	125.1
355.903	49.32
356.115	22.7
356.326	-32.6
356.538	153.77
356.749	-10.07
356.961	47.27
357.172	-18.26
357.384	-5.97
357.595	110.76
357.807	39.08
358.018	18.6
358.23	63.66
358.441	133.29
358.653	51.37
358.864	-57.17
359.075	6.31
359.287	63.66
359.498	73.9
359.709	55.47
359.921	26.79
360.132	69.8
360.344	24.75
360.555	14.51
360.766	106.67
360.977	-1.88
361.189	92.33
361.4	41.13
361.611	151.72
361.823	47.27
362.034	24.75
362.245	22.7
362.456	12.46
362.667	80.04
362.879	47.27
363.09	39.08
363.301	24.75
363.512	2.22
363.723	-8.02
363.935	47.27
364.146	204.97
364.357	6.31
364.568	100.52
364.779	24.75
364.99	53.42
365.201	98.47
365.412	82.09
365.623	-8.02
365.834	61.61
366.045	67.75
366.256	112.81
366.467	108.71
366.678	28.84
366.889	137.38
367.1	94.38
367.311	-10.07
367.522	-18.26
367.733	135.34
367.944	77.99
368.155	82.09
368.366	59.56
368.577	61.61
368.788	96.43
368.999	22.7
369.209	59.56
369.42	186.54
369.631	65.71
369.842	88.23
370.053	14.51
370.264	61.61
370.474	24.75
370.685	26.79
370.896	0.17
371.107	176.3
371.317	22.7
371.528	26.79
371.739	112.81
371.95	26.79
372.16	39.08
372.371	-34.64
372.582	108.71
372.792	102.57
373.003	104.62
373.214	135.34
373.424	41.13
373.635	-20.31
373.846	88.23
374.056	102.57
374.267	49.32
374.477	32.94
374.688	51.37
374.898	47.27
375.109	41.13
375.319	82.09
375.53	86.19
375.74	112.81
375.951	41.13
376.161	-24.4
376.372	67.75
376.582	71.85
376.793	57.51
377.003	57.51
377.214	55.47
377.424	63.66
377.635	80.04
377.845	-12.12
378.055	153.77
378.266	20.65
378.476	14.51
378.686	57.51
378.897	129.19
379.107	65.71
379.317	57.51
379.528	155.82
379.738	45.23
379.948	73.9
380.158	125.1
380.369	121
380.579	69.8
380.789	84.14
380.999	94.38
381.21	92.33
381.42	139.43
381.63	16.55
381.84	106.67
382.05	75.95
382.261	192.68
382.471	53.42
382.681	65.71
382.891	176.3
383.101	71.85
383.311	20.65
383.521	8.36
383.731	98.47
383.941	145.58
384.151	153.77
384.361	94.38
384.571	61.61
384.781	59.56
384.991	129.19
385.201	166.06
385.411	153.77
385.621	80.04
385.831	133.29
386.041	77.99
386.251	82.09
386.461	47.27
386.671	73.9
386.881	65.71
387.091	61.61
387.301	73.9
387.511	73.9
387.72	139.43
387.93	155.82
388.14	4.27
388.35	41.13
388.56	149.67
388.769	88.23
388.979	82.09
389.189	14.51
389.399	80.04
389.609	37.03
389.818	166.06
390.028	82.09
390.238	65.71
390.447	63.66
390.657	135.34
390.867	88.23
391.076	6.31
391.286	104.62
391.496	137.38
391.705	112.81
391.915	59.56
392.125	137.38
392.334	65.71
392.544	159.91
392.753	98.47
392.963	133.29
393.172	137.38
393.382	151.72
393.591	121
393.801	92.33
394.01	202.92
394.22	129.19
394.429	41.13
394.639	121
394.848	137.38
395.058	143.53
395.267	153.77
395.477	135.34
395.686	153.77
395.895	153.77
396.105	202.92
396.314	129.19
396.524	151.72
396.733	196.78
396.942	194.73
397.152	125.1
397.361	180.39
397.57	123.05
397.78	114.86
397.989	125.1
398.198	170.15
398.407	90.28
398.617	96.43
398.826	63.66
399.035	118.95
399.244	161.96
399.453	129.19
399.663	104.62
399.872	215.21
400.081	131.24
400.29	161.96
400.499	32.94
400.708	125.1
400.917	98.47
401.127	127.14
401.336	53.42
401.545	268.45
401.754	145.58
401.963	127.14
402.172	161.96
402.381	123.05
402.59	166.06
402.799	139.43
403.008	243.88
403.217	135.34
403.426	75.95
403.635	131.24
403.844	190.63
404.053	176.3
404.262	182.44
404.471	186.54
404.68	176.3
404.888	139.43
405.097	190.63
405.306	241.83
405.515	221.35
405.724	219.3
405.933	295.08
406.142	161.96
406.35	268.45
406.559	295.08
406.768	250.02
406.977	297.13
407.185	301.22
407.394	272.55
407.603	241.83
407.812	276.65
408.02	346.28
408.229	303.27
408.438	321.7
408.646	293.03
408.855	385.19
409.064	387.24
409.272	307.37
409.481	403.62
409.69	377
409.898	348.33
410.107	374.95
410.315	415.91
410.524	393.38
410.733	370.85
410.941	424.1
411.15	522.4
411.358	403.62
411.567	549.03
411.775	473.25
411.984	506.02
412.192	567.46
412.401	483.49
412.609	747.68
412.818	641.18
413.026	680.1
413.234	686.24
413.443	686.24
413.651	655.52
413.86	778.4
414.068	727.2
414.276	802.97
414.485	737.44
414.693	786.59
414.901	940.19
415.11	995.48
415.318	825.5
415.526	878.75
415.734	970.91
415.943	1050.78
416.151	1104.03
416.359	1089.69
416.567	999.58
416.776	1122.46
416.984	1177.75
417.192	1355.93
417.4	1175.7
417.608	1200.28
417.817	1296.53
418.025	1398.93
418.233	1542.29
418.441	1472.66
418.649	1511.57
418.857	1595.54
419.065	1777.81
419.273	1710.22
419.481	1718.42
419.689	1820.81
419.897	1910.93
420.105	1998.99
420.313	1915.02
420.521	2140.3
420.729	2054.28
420.937	2152.59
421.145	2250.89
421.353	2363.53
421.561	2431.11
421.769	2513.03
421.977	2680.96
422.185	2590.85
422.393	2670.72
422.601	3041.4
422.809	3000.44
423.017	2971.77
423.224	3119.23
423.432	3160.19
423.64	3188.86
423.848	3512.44
424.056	3332.22
424.263	3641.46
424.471	3602.55
424.679	3625.08
424.887	3971.18
425.094	4042.86
425.302	4126.83
425.51	4130.92
425.718	4380.78
425.925	4243.56
426.133	4679.78
426.341	4816.99
426.548	5038.17
426.756	5046.37
426.964	5146.72
427.171	5310.55
427.379	5525.59
427.586	5687.38
427.794	5822.55
428.001	6078.54
428.209	6189.13
428.417	6258.76
428.624	6608.97
428.832	6594.63
429.039	6572.1
429.247	6707.27
429.454	7335.99
429.662	7778.36
429.869	7235.64
430.076	7723.06
430.284	7399.48
430.491	7843.89
430.699	8333.36
430.906	8396.84
431.114	8333.36
431.321	8638.5
431.528	8919.07
431.736	9510.94
431.943	9816.08
432.15	9627.67
432.358	9685.01
432.565	10217.49
432.772	10215.44
432.979	11036.67
433.187	10971.14
433.394	10942.47
433.601	11728.89
433.808	11737.08
434.016	11743.22
434.223	12322.8
434.43	12980.2
434.637	12556.27
434.844	13572.06
435.052	13709.27
435.259	13354.97
435.466	13801.43
435.673	13553.63
435.88	14499.79
436.087	15228.87
436.294	15581.12
436.501	14909.38
436.708	15263.68
436.915	15962.04
437.122	16822.19
437.329	16471.98
437.537	17125.29
437.743	17463.2
437.95	16893.86
438.157	17848.22
438.364	18558.86
438.571	18603.92
438.778	18585.49
438.985	20369.27
439.192	19570.56
439.399	20379.51
439.606	19826.56
439.813	21067.63
440.02	22234.97
440.227	22138.71
440.433	21901.15
440.64	22474.58
440.847	22290.26
441.054	22916.94
441.261	24633.14
441.467	24057.66
441.674	24489.78
441.881	25231.15
442.088	25638.69
442.294	24948.53
442.501	25308.97
442.708	26558.23
442.914	27162.38
443.121	28501.75
443.328	27590.41
443.534	29587.18
443.741	28473.08
443.948	28253.95
444.154	30826.2
444.361	30510.81
444.568	30615.26
444.774	30584.54
444.981	30682.84
445.187	31588.04
445.394	33171.12
445.6	33017.52
445.807	36230.79
446.013	34352.8
446.22	34700.95
446.426	36640.38
446.633	36277.89
446.839	37815.91
447.046	36441.73
447.252	38911.58
447.459	38237.8
447.665	38518.37
447.871	40044.1
448.078	41864.75
448.284	39702.09
448.491	40465.99
448.697	42858.01
448.903	43193.88
449.11	43365.91
449.316	42649.12
449.522	43292.18
449.728	44502.53
449.935	44951.04
450.141	44944.89
450.347	45866.48
450.553	44946.94
450.76	45106.68
450.966	46595.56
451.172	46296.55
451.378	47248.86
451.584	46321.13
451.791	47963.6
451.997	47533.53
452.203	48192.97
452.409	48383.43
452.615	48297.42
452.821	46515.68
453.027	46018.03
453.233	48375.24
453.44	46597.6
453.646	46763.49
453.852	47390.17
454.058	48035.28
454.264	46618.08
454.47	47513.05
454.676	46433.77
454.882	47971.79
455.088	44062.22
455.294	44877.31
455.5	45276.66
455.705	46038.51
455.911	44068.36
456.117	42726.94
456.323	42346.02
456.529	40488.51
456.735	42470.95
456.941	40760.89
457.147	40769.08
457.352	39663.18
457.558	39083.61
457.764	39143
457.97	38137.44
458.176	37285.49
458.381	37277.3
458.587	35966.6
458.793	35747.47
458.999	34033.32
459.204	36320.9
459.41	35333.78
459.616	32851.64
459.821	32841.4
460.027	33418.92
460.233	31858.37
460.438	30498.52
460.644	31084.24
460.85	29413.1
461.055	29193.97
461.261	28845.81
461.466	27143.95
461.672	26165.02
461.878	27909.89
462.083	25995.04
462.289	25743.14
462.494	25405.22
462.7	24223.55
462.905	23054.15
463.111	24631.09
463.316	24631.09
463.522	23785.28
463.727	23983.93
463.932	24067.9
464.138	23588.67
464.343	23822.14
464.549	23162.7
464.754	23789.38
464.959	23549.76
465.165	23381.83
465.37	22255.45
465.575	21800.8
465.781	22904.65
465.986	22871.89
466.191	22134.62
466.397	21409.64
466.602	20731.76
