Data from USB4F104151__95__13-06-26-597.txt Node

Date: Fri Mar 14 13:06:26 EDT 2025
User: louis
Spectrometer: USB4F10415
Trigger mode: 4
Integration Time (sec): 4.000000E-2
Scans to average: 1
Electric dark correction enabled: true
Nonlinearity correction enabled: false
Boxcar width: 0
XAxis mode: Wavelengths
Number of Pixels in Spectrum: 3648
>>>>>Begin Spectral Data<<<<<
178.204	-190.29
178.424	-190.29
178.644	-190.29
178.864	-167.76
179.084	-130.9
179.304	4.27
179.524	-59.22
179.744	-30.55
179.964	10.41
180.184	2.22
180.404	-18.26
180.624	24.75
180.844	14.51
181.064	-51.03
181.283	63.66
181.503	-5.97
181.723	45.23
181.943	-69.46
182.163	98.47
182.383	-20.31
182.602	82.09
182.822	65.71
183.042	30.89
183.262	34.99
183.482	-16.21
183.701	-18.26
183.921	49.32
184.141	34.99
184.361	61.61
184.58	88.23
184.8	2.22
185.02	61.61
185.239	96.43
185.459	-1.88
185.679	57.51
185.898	-5.97
186.118	55.47
186.338	16.55
186.557	26.79
186.777	88.23
186.997	47.27
187.216	24.75
187.436	32.94
187.655	16.55
187.875	129.19
188.095	6.31
188.314	61.61
188.534	75.95
188.753	-8.02
188.973	82.09
189.192	6.31
189.412	22.7
189.631	20.65
189.851	90.28
190.07	59.56
190.29	-32.6
190.509	8.36
190.729	53.42
190.948	61.61
191.168	211.11
191.387	125.1
191.607	-18.26
191.826	135.34
192.045	28.84
192.265	26.79
192.484	57.51
192.704	26.79
192.923	12.46
193.142	129.19
193.362	53.42
193.581	67.75
193.8	-12.12
194.02	98.47
194.239	-5.97
194.458	47.27
194.678	12.46
194.897	-24.4
195.116	41.13
195.335	41.13
195.555	71.85
195.774	24.75
195.993	86.19
196.212	16.55
196.432	39.08
196.651	59.56
196.87	-10.07
197.089	106.67
197.308	108.71
197.528	34.99
197.747	34.99
197.966	47.27
198.185	153.77
198.404	-61.27
198.623	71.85
198.842	20.65
199.062	8.36
199.281	69.8
199.5	43.18
199.719	-8.02
199.938	10.41
200.157	207.02
200.376	8.36
200.595	123.05
200.814	57.51
201.033	-24.4
201.252	112.81
201.471	98.47
201.69	121
201.909	28.84
202.128	-24.4
202.347	51.37
202.566	73.9
202.785	24.75
203.004	-36.69
203.223	51.37
203.442	39.08
203.661	-61.27
203.879	57.51
204.098	75.95
204.317	-28.5
204.536	82.09
204.755	57.51
204.974	37.03
205.193	2.22
205.411	149.67
205.63	16.55
205.849	55.47
206.068	12.46
206.287	73.9
206.505	32.94
206.724	57.51
206.943	-30.55
207.162	-8.02
207.381	73.9
207.599	18.6
207.818	-18.26
208.037	10.41
208.255	45.23
208.474	6.31
208.693	49.32
208.911	18.6
209.13	80.04
209.349	-28.5
209.567	114.86
209.786	110.76
210.005	47.27
210.223	28.84
210.442	-12.12
210.661	37.03
210.879	34.99
211.098	34.99
211.316	39.08
211.535	71.85
211.753	75.95
211.972	82.09
212.191	28.84
212.409	30.89
212.628	20.65
212.846	-20.31
213.065	4.27
213.283	127.14
213.502	12.46
213.72	94.38
213.938	55.47
214.157	20.65
214.375	139.43
214.594	53.42
214.812	55.47
215.031	77.99
215.249	73.9
215.467	32.94
215.686	-36.69
215.904	73.9
216.122	41.13
216.341	137.38
216.559	106.67
216.778	12.46
216.996	98.47
217.214	32.94
217.432	-75.6
217.651	12.46
217.869	43.18
218.087	2.22
218.306	-28.5
218.524	37.03
218.742	43.18
218.96	57.51
219.179	-14.17
219.397	145.58
219.615	43.18
219.833	49.32
220.051	20.65
220.27	161.96
220.488	116.9
220.706	53.42
220.924	51.37
221.142	28.84
221.36	30.89
221.578	24.75
221.796	41.13
222.015	67.75
222.233	18.6
222.451	69.8
222.669	-38.74
222.887	67.75
223.105	-5.97
223.323	75.95
223.541	53.42
223.759	123.05
223.977	24.75
224.195	75.95
224.413	51.37
224.631	30.89
224.849	57.51
225.067	73.9
225.285	49.32
225.503	12.46
225.721	-16.21
225.939	-8.02
226.157	26.79
226.375	188.58
226.592	34.99
226.81	65.71
227.028	59.56
227.246	110.76
227.464	80.04
227.682	53.42
227.9	45.23
228.117	30.89
228.335	59.56
228.553	18.6
228.771	12.46
228.989	-1.88
229.206	149.67
229.424	51.37
229.642	65.71
229.86	-5.97
230.077	118.95
230.295	14.51
230.513	75.95
230.731	92.33
230.948	86.19
231.166	106.67
231.384	4.27
231.601	43.18
231.819	135.34
232.037	8.36
232.254	22.7
232.472	55.47
232.689	-38.74
232.907	98.47
233.125	-5.97
233.342	51.37
233.56	-96.08
233.777	4.27
233.995	32.94
234.213	61.61
234.43	67.75
234.648	0.17
234.865	55.47
235.083	16.55
235.3	26.79
235.518	90.28
235.735	18.6
235.953	73.9
236.17	98.47
236.388	49.32
236.605	61.61
236.822	57.51
237.04	32.94
237.257	32.94
237.475	2.22
237.692	24.75
237.909	92.33
238.127	32.94
238.344	43.18
238.562	-32.6
238.779	37.03
238.996	20.65
239.214	34.99
239.431	131.24
239.648	-42.84
239.865	51.37
240.083	34.99
240.3	22.7
240.517	112.81
240.735	57.51
240.952	37.03
241.169	39.08
241.386	18.6
241.603	-28.5
241.821	16.55
242.038	96.43
242.255	96.43
242.472	-30.55
242.689	86.19
242.907	71.85
243.124	55.47
243.341	8.36
243.558	-65.36
243.775	41.13
243.992	51.37
244.209	24.75
244.426	133.29
244.643	102.57
244.86	30.89
245.078	-3.93
245.295	10.41
245.512	65.71
245.729	12.46
245.946	22.7
246.163	28.84
246.38	67.75
246.597	118.95
246.814	49.32
247.031	69.8
247.248	24.75
247.464	18.6
247.681	123.05
247.898	41.13
248.115	80.04
248.332	32.94
248.549	166.06
248.766	26.79
248.983	63.66
249.2	59.56
249.417	98.47
249.633	20.65
249.85	71.85
250.067	-26.45
250.284	43.18
250.501	18.6
250.717	116.9
250.934	8.36
251.151	16.55
251.368	28.84
251.585	92.33
251.801	73.9
252.018	51.37
252.235	63.66
252.451	8.36
252.668	-24.4
252.885	4.27
253.102	86.19
253.318	57.51
253.535	59.56
253.752	-10.07
253.968	34.99
254.185	12.46
254.401	82.09
254.618	67.75
254.835	-8.02
255.051	98.47
255.268	86.19
255.484	0.17
255.701	53.42
255.917	39.08
256.134	-48.98
256.351	53.42
256.567	16.55
256.784	84.14
257	10.41
257.217	73.9
257.433	18.6
257.65	73.9
257.866	8.36
258.082	10.41
258.299	20.65
258.515	98.47
258.732	-8.02
258.948	43.18
259.165	12.46
259.381	49.32
259.597	24.75
259.814	18.6
260.03	77.99
260.246	8.36
260.463	94.38
260.679	86.19
260.895	47.27
261.112	114.86
261.328	-44.88
261.544	-48.98
261.761	129.19
261.977	20.65
262.193	-12.12
262.409	0.17
262.626	92.33
262.842	75.95
263.058	47.27
263.274	80.04
263.49	125.1
263.707	41.13
263.923	4.27
264.139	43.18
264.355	-18.26
264.571	127.14
264.787	0.17
265.004	96.43
265.22	73.9
265.436	-14.17
265.652	43.18
265.868	127.14
266.084	45.23
266.3	61.61
266.516	-8.02
266.732	-36.69
266.948	116.9
267.164	12.46
267.38	49.32
267.596	24.75
267.812	63.66
268.028	59.56
268.244	-32.6
268.46	22.7
268.676	32.94
268.892	123.05
269.108	106.67
269.324	77.99
269.54	14.51
269.756	106.67
269.972	-30.55
270.188	59.56
270.403	47.27
270.619	118.95
270.835	69.8
271.051	-42.84
271.267	73.9
271.483	16.55
271.698	53.42
271.914	2.22
272.13	57.51
272.346	10.41
272.562	63.66
272.777	88.23
272.993	20.65
273.209	98.47
273.425	73.9
273.64	-16.21
273.856	34.99
274.072	61.61
274.287	-26.45
274.503	26.79
274.719	102.57
274.934	10.41
275.15	-57.17
275.366	43.18
275.581	39.08
275.797	24.75
276.012	-5.97
276.228	14.51
276.444	-8.02
276.659	108.71
276.875	22.7
277.09	8.36
277.306	-30.55
277.521	71.85
277.737	59.56
277.952	51.37
278.168	155.82
278.383	61.61
278.599	61.61
278.814	-8.02
279.03	-5.97
279.245	82.09
279.461	-5.97
279.676	-22.36
279.892	37.03
280.107	-24.4
280.322	-5.97
280.538	73.9
280.753	14.51
280.969	6.31
281.184	32.94
281.399	106.67
281.615	73.9
281.83	39.08
282.045	18.6
282.26	-5.97
282.476	-1.88
282.691	41.13
282.906	-40.79
283.122	69.8
283.337	-8.02
283.552	57.51
283.767	77.99
283.983	121
284.198	-36.69
284.413	-40.79
284.628	-51.03
284.843	32.94
285.058	28.84
285.274	-8.02
285.489	49.32
285.704	92.33
285.919	67.75
286.134	73.9
286.349	53.42
286.564	14.51
286.779	88.23
286.995	24.75
287.21	6.31
287.425	57.51
287.64	32.94
287.855	59.56
288.07	24.75
288.285	112.81
288.5	116.9
288.715	55.47
288.93	-10.07
289.145	94.38
289.36	73.9
289.575	0.17
289.79	141.48
290.004	41.13
290.219	80.04
290.434	8.36
290.649	32.94
290.864	-24.4
291.079	20.65
291.294	32.94
291.509	55.47
291.724	-26.45
291.938	-30.55
292.153	28.84
292.368	73.9
292.583	135.34
292.798	20.65
293.012	57.51
293.227	59.56
293.442	-32.6
293.657	123.05
293.871	65.71
294.086	100.52
294.301	104.62
294.516	77.99
294.73	20.65
294.945	-65.36
295.16	65.71
295.374	49.32
295.589	100.52
295.804	37.03
296.018	49.32
296.233	86.19
296.447	73.9
296.662	10.41
296.877	57.51
297.091	127.14
297.306	-16.21
297.52	14.51
297.735	49.32
297.949	71.85
298.164	-1.88
298.378	75.95
298.593	0.17
298.807	-8.02
299.022	53.42
299.236	145.58
299.451	57.51
299.665	-3.93
299.88	10.41
300.094	2.22
300.309	32.94
300.523	0.17
300.737	65.71
300.952	135.34
301.166	73.9
301.381	10.41
301.595	49.32
301.809	61.61
302.024	73.9
302.238	69.8
302.452	57.51
302.667	18.6
302.881	104.62
303.095	51.37
303.309	73.9
303.524	47.27
303.738	55.47
303.952	47.27
304.166	45.23
304.381	-8.02
304.595	65.71
304.809	-67.41
305.023	63.66
305.237	32.94
305.452	30.89
305.666	57.51
305.88	108.71
306.094	45.23
306.308	10.41
306.522	65.71
306.736	39.08
306.95	69.8
307.164	88.23
307.379	2.22
307.593	102.57
307.807	104.62
308.021	135.34
308.235	57.51
308.449	37.03
308.663	37.03
308.877	151.72
309.091	127.14
309.305	63.66
309.519	16.55
309.733	86.19
309.947	-10.07
310.161	135.34
310.374	47.27
310.588	73.9
310.802	20.65
311.016	-5.97
311.23	67.75
311.444	-55.12
311.658	80.04
311.872	123.05
312.085	166.06
312.299	121
312.513	53.42
312.727	37.03
312.941	100.52
313.154	88.23
313.368	22.7
313.582	26.79
313.796	61.61
314.009	51.37
314.223	71.85
314.437	90.28
314.651	30.89
314.864	12.46
315.078	43.18
315.292	24.75
315.505	-20.31
315.719	57.51
315.933	37.03
316.146	-3.93
316.36	-8.02
316.573	51.37
316.787	77.99
317.001	151.72
317.214	-28.5
317.428	43.18
317.641	67.75
317.855	45.23
318.068	94.38
318.282	-12.12
318.495	80.04
318.709	100.52
318.922	55.47
319.136	22.7
319.349	-3.93
319.563	57.51
319.776	49.32
319.99	0.17
320.203	73.9
320.417	41.13
320.63	37.03
320.843	149.67
321.057	12.46
321.27	57.51
321.483	41.13
321.697	32.94
321.91	88.23
322.124	131.24
322.337	10.41
322.55	34.99
322.763	18.6
322.977	100.52
323.19	-26.45
323.403	-12.12
323.617	59.56
323.83	102.57
324.043	77.99
324.256	86.19
324.469	-1.88
324.683	71.85
324.896	55.47
325.109	59.56
325.322	4.27
325.535	41.13
325.748	20.65
325.962	-8.02
326.175	-10.07
326.388	129.19
326.601	71.85
326.814	12.46
327.027	10.41
327.24	88.23
327.453	-24.4
327.666	71.85
327.879	149.67
328.092	51.37
328.305	102.57
328.518	32.94
328.731	-18.26
328.944	-40.79
329.157	75.95
329.37	108.71
329.583	112.81
329.796	168.1
330.009	-40.79
330.222	0.17
330.435	-16.21
330.648	-20.31
330.861	141.48
331.073	28.84
331.286	24.75
331.499	28.84
331.712	34.99
331.925	43.18
332.138	22.7
332.35	49.32
332.563	0.17
332.776	86.19
332.989	43.18
333.202	77.99
333.414	24.75
333.627	57.51
333.84	-3.93
334.053	86.19
334.265	-16.21
334.478	10.41
334.691	98.47
334.903	63.66
335.116	43.18
335.329	-5.97
335.541	2.22
335.754	116.9
335.966	10.41
336.179	51.37
336.392	73.9
336.604	12.46
336.817	77.99
337.029	65.71
337.242	88.23
337.454	39.08
337.667	28.84
337.88	127.14
338.092	47.27
338.305	86.19
338.517	77.99
338.729	75.95
338.942	75.95
339.154	22.7
339.367	90.28
339.579	90.28
339.792	-48.98
340.004	26.79
340.217	-36.69
340.429	59.56
340.641	114.86
340.854	34.99
341.066	-16.21
341.278	98.47
341.491	143.53
341.703	96.43
341.915	26.79
342.128	108.71
342.34	63.66
342.552	32.94
342.764	53.42
342.977	75.95
343.189	-24.4
343.401	112.81
343.613	10.41
343.826	51.37
344.038	47.27
344.25	127.14
344.462	4.27
344.674	20.65
344.886	94.38
345.099	34.99
345.311	133.29
345.523	77.99
345.735	84.14
345.947	82.09
346.159	6.31
346.371	26.79
346.583	10.41
346.795	77.99
347.007	37.03
347.219	63.66
347.431	32.94
347.643	63.66
347.855	-20.31
348.067	106.67
348.279	-5.97
348.491	4.27
348.703	55.47
348.915	18.6
349.127	96.43
349.339	61.61
349.551	32.94
349.763	47.27
349.975	73.9
350.187	59.56
350.399	172.2
350.61	67.75
350.822	61.61
351.034	24.75
351.246	28.84
351.458	73.9
351.669	47.27
351.881	75.95
352.093	104.62
352.305	34.99
352.517	123.05
352.728	86.19
352.94	77.99
353.152	118.95
353.363	47.27
353.575	43.18
353.787	65.71
353.999	57.51
354.21	61.61
354.422	53.42
354.633	10.41
354.845	57.51
355.057	24.75
355.268	34.99
355.48	53.42
355.692	102.57
355.903	84.14
356.115	61.61
356.326	2.22
356.538	75.95
356.749	141.48
356.961	147.62
357.172	127.14
357.384	30.89
357.595	77.99
357.807	28.84
358.018	57.51
358.23	63.66
358.441	73.9
358.653	18.6
358.864	90.28
359.075	43.18
359.287	57.51
359.498	116.9
359.709	92.33
359.921	98.47
360.132	41.13
360.344	26.79
360.555	30.89
360.766	84.14
360.977	26.79
361.189	53.42
361.4	0.17
361.611	69.8
361.823	112.81
362.034	118.95
362.245	8.36
362.456	123.05
362.667	30.89
362.879	110.76
363.09	114.86
363.301	88.23
363.512	20.65
363.723	20.65
363.935	123.05
364.146	92.33
364.357	4.27
364.568	104.62
364.779	39.08
364.99	131.24
365.201	-28.5
365.412	49.32
365.623	45.23
365.834	75.95
366.045	22.7
366.256	123.05
366.467	82.09
366.678	18.6
366.889	-12.12
367.1	49.32
367.311	129.19
367.522	-8.02
367.733	32.94
367.944	98.47
368.155	39.08
368.366	18.6
368.577	118.95
368.788	92.33
368.999	-16.21
369.209	67.75
369.42	71.85
369.631	143.53
369.842	110.76
370.053	65.71
370.264	108.71
370.474	61.61
370.685	75.95
370.896	-8.02
371.107	45.23
371.317	32.94
371.528	92.33
371.739	67.75
371.95	69.8
372.16	67.75
372.371	-59.22
372.582	57.51
372.792	149.67
373.003	30.89
373.214	34.99
373.424	141.48
373.635	28.84
373.846	71.85
374.056	28.84
374.267	94.38
374.477	18.6
374.688	34.99
374.898	102.57
375.109	63.66
375.319	63.66
375.53	49.32
375.74	57.51
375.951	49.32
376.161	63.66
376.372	94.38
376.582	47.27
376.793	49.32
377.003	45.23
377.214	41.13
377.424	59.56
377.635	12.46
377.845	16.55
378.055	41.13
378.266	16.55
378.476	59.56
378.686	82.09
378.897	-16.21
379.107	53.42
379.317	37.03
379.528	61.61
379.738	159.91
379.948	55.47
380.158	82.09
380.369	98.47
380.579	90.28
380.789	106.67
380.999	67.75
381.21	92.33
381.42	131.24
381.63	116.9
381.84	116.9
382.05	75.95
382.261	108.71
382.471	100.52
382.681	8.36
382.891	147.62
383.101	57.51
383.311	14.51
383.521	57.51
383.731	106.67
383.941	80.04
384.151	88.23
384.361	96.43
384.571	59.56
384.781	172.2
384.991	110.76
385.201	110.76
385.411	125.1
385.621	37.03
385.831	86.19
386.041	65.71
386.251	34.99
386.461	82.09
386.671	131.24
386.881	116.9
387.091	2.22
387.301	49.32
387.511	75.95
387.72	123.05
387.93	102.57
388.14	45.23
388.35	110.76
388.56	59.56
388.769	110.76
388.979	157.86
389.189	47.27
389.399	100.52
389.609	129.19
389.818	172.2
390.028	123.05
390.238	80.04
390.447	118.95
390.657	98.47
390.867	98.47
391.076	43.18
391.286	141.48
391.496	77.99
391.705	112.81
391.915	106.67
392.125	71.85
392.334	100.52
392.544	86.19
392.753	129.19
392.963	-12.12
393.172	57.51
393.382	67.75
393.591	172.2
393.801	14.51
394.01	219.3
394.22	151.72
394.429	82.09
394.639	73.9
394.848	-16.21
395.058	149.67
395.267	59.56
395.477	102.57
395.686	43.18
395.895	155.82
396.105	202.92
396.314	164.01
396.524	77.99
396.733	116.9
396.942	176.3
397.152	123.05
397.361	164.01
397.57	114.86
397.78	92.33
397.989	84.14
398.198	172.2
398.407	116.9
398.617	139.43
398.826	106.67
399.035	94.38
399.244	37.03
399.453	161.96
399.663	153.77
399.872	143.53
400.081	96.43
400.29	204.97
400.499	71.85
400.708	164.01
400.917	143.53
401.127	131.24
401.336	98.47
401.545	229.54
401.754	161.96
401.963	145.58
402.172	143.53
402.381	45.23
402.59	139.43
402.799	161.96
403.008	161.96
403.217	221.35
403.426	221.35
403.635	129.19
403.844	147.62
404.053	180.39
404.262	188.58
404.471	135.34
404.68	186.54
404.888	149.67
405.097	155.82
405.306	217.26
405.515	215.21
405.724	178.34
405.933	174.25
406.142	321.7
406.35	286.89
406.559	258.21
406.768	233.64
406.977	280.74
407.185	241.83
407.394	235.69
407.603	188.58
407.812	215.21
408.02	313.51
408.229	268.45
408.438	286.89
408.646	282.79
408.855	315.56
409.064	274.6
409.272	374.95
409.481	385.19
409.69	299.17
409.898	241.83
410.107	264.36
410.315	409.76
410.524	338.09
410.733	262.31
410.941	401.57
411.15	405.67
411.358	438.44
411.567	514.21
411.775	456.87
411.984	344.23
412.192	583.84
412.401	508.07
412.609	483.49
412.818	622.75
413.026	477.35
413.234	487.59
413.443	649.38
413.651	553.12
413.86	635.04
414.068	729.25
414.276	778.4
414.485	659.62
414.693	688.29
414.901	800.93
415.11	766.11
415.318	807.07
415.526	768.16
415.734	895.13
415.943	882.85
416.151	901.28
416.359	946.33
416.567	989.34
416.776	940.19
416.984	1118.36
417.192	1099.93
417.4	1075.35
417.608	1065.11
417.817	1085.59
418.025	1200.28
418.233	1298.58
418.441	1190.04
418.649	1368.21
418.857	1388.69
419.065	1487
419.273	1460.37
419.481	1513.62
419.689	1536.15
419.897	1585.3
420.105	1687.7
420.313	1634.45
420.521	1706.13
420.729	1912.97
420.937	1706.13
421.145	1806.48
421.353	1964.17
421.561	2113.67
421.769	2080.91
421.977	2328.71
422.185	2244.74
422.393	2402.44
422.601	2445.45
422.809	2672.77
423.017	2476.16
423.224	2635.91
423.432	2652.29
423.64	2728.07
423.848	2902.14
424.056	2881.66
424.263	3170.43
424.471	3221.63
424.679	3125.37
424.887	3350.65
425.094	3508.34
425.302	3530.87
425.51	3653.75
425.718	3670.13
425.925	3842.16
426.133	3934.32
426.341	4081.77
426.548	4337.77
426.756	4438.12
426.964	4515.94
427.171	4610.15
427.379	4722.79
427.586	4704.35
427.794	4956.26
428.001	5134.43
428.209	5503.06
428.417	5318.75
428.624	5711.96
428.832	5720.15
429.039	5734.48
429.247	5736.53
429.454	6334.54
429.662	6721.6
429.869	6338.63
430.076	6629.45
430.284	6525
430.491	6885.44
430.699	7204.92
430.906	7292.99
431.114	7286.84
431.321	7501.88
431.528	7788.6
431.736	8157.23
431.943	8501.29
432.15	8230.96
432.358	8536.1
432.565	8712.23
432.772	8661.03
432.979	9318.43
433.187	9338.91
433.394	9498.65
433.601	10158.1
433.808	10164.24
434.016	10147.86
434.223	10596.36
434.43	11214.85
434.637	10979.33
434.844	11659.26
435.052	12017.65
435.259	11870.2
435.466	12013.56
435.673	11806.71
435.88	12640.23
436.087	13010.92
436.294	13350.88
436.501	12918.76
436.708	13443.04
436.915	13748.18
437.122	14493.65
437.329	14329.81
437.537	14854.09
437.743	14829.51
437.95	14741.45
438.157	15759.29
438.364	16230.32
438.571	16113.59
438.778	16273.33
438.985	17637.28
439.192	17090.47
439.399	17801.12
439.606	16994.22
439.813	18395.03
440.02	19302.28
440.227	18724.75
440.433	18753.42
440.64	19103.62
440.847	19242.89
441.054	19806.08
441.261	20969.32
441.467	20805.49
441.674	21100.39
441.881	21919.58
442.088	22095.71
442.294	21749.6
442.501	22460.24
442.708	23127.88
442.914	23490.37
443.121	24465.21
443.328	24059.71
443.534	25747.23
443.741	24835.89
443.948	24715.06
444.154	26466.07
444.361	26582.81
444.568	26474.26
444.774	26558.23
444.981	27035.41
445.187	27764.48
445.394	28970.74
445.6	28233.47
445.807	30979.79
446.013	29812.45
446.22	30312.16
446.426	31672.01
446.633	31909.57
446.839	33283.76
447.046	31387.34
447.252	33654.44
447.459	33429.16
447.665	33328.81
447.871	34920.09
448.078	36007.56
448.284	34473.63
448.491	35380.88
448.697	37035.64
448.903	37846.63
449.11	37852.78
449.316	36742.78
449.522	37723.76
449.728	38788.7
449.935	39323.22
450.141	39163.48
450.347	39976.52
450.553	38968.92
450.76	39282.26
450.966	41035.32
451.172	40113.73
451.378	41545.26
451.584	40289.86
451.791	41401.91
451.997	41408.05
452.203	41940.52
452.409	42163.75
452.615	42090.02
452.821	40506.94
453.027	40187.46
453.233	42036.78
453.44	40496.7
453.646	41115.19
453.852	41094.71
454.058	42012.2
454.264	40267.33
454.47	41526.83
454.676	40697.41
454.882	42024.49
455.088	38135.4
455.294	39261.78
455.5	39468.62
455.705	39933.51
455.911	38764.12
456.117	37310.07
456.323	37183.09
456.529	35344.02
456.735	37101.17
456.941	36011.65
457.147	35384.97
457.352	34463.39
457.558	34379.42
457.764	34162.34
457.97	33154.74
458.176	32659.13
458.381	32763.57
458.587	31321.8
458.793	31205.07
458.999	29249.26
459.204	31682.25
459.41	30758.61
459.616	28937.97
459.821	28772.08
460.027	28530.42
460.233	28366.59
460.438	26986.25
460.644	27078.41
460.85	25884.45
461.055	25634.6
461.261	25143.08
461.466	23371.59
461.672	22785.87
461.878	24325.94
462.083	22910.8
462.289	22376.28
462.494	22349.65
462.7	21129.06
462.905	20492.15
463.111	21233.51
463.316	21528.42
463.522	20838.25
463.727	20875.12
463.932	20754.29
464.138	20735.85
464.343	20789.1
464.549	19965.82
464.754	20803.44
464.959	20502.39
465.165	20397.94
465.37	19486.59
465.575	19087.24
465.781	19814.27
465.986	19959.67
466.191	19009.42
466.397	18745.23
