Data from USB4F104151__0__13-04-07-015.txt Node

Date: Fri Mar 14 13:04:07 EDT 2025
User: louis
Spectrometer: USB4F10415
Trigger mode: 4
Integration Time (sec): 4.000000E-2
Scans to average: 1
Electric dark correction enabled: true
Nonlinearity correction enabled: false
Boxcar width: 0
XAxis mode: Wavelengths
Number of Pixels in Spectrum: 3648
>>>>>Begin Spectral Data<<<<<
178.204	-184.49
178.424	-184.49
178.644	-184.49
178.864	-200.87
179.084	-123.05
179.304	-28.84
179.524	-0.17
179.744	-53.42
179.964	126.8
180.184	18.26
180.404	1.88
180.624	42.84
180.844	-8.36
181.064	-39.08
181.283	-71.85
181.503	-30.89
181.723	42.84
181.943	-49.32
182.163	77.65
182.383	59.22
182.602	46.93
182.822	40.79
183.042	46.93
183.262	-45.23
183.482	14.17
183.701	-12.46
183.921	77.65
184.141	36.69
184.361	36.69
184.58	48.98
184.8	26.45
185.02	75.6
185.239	38.74
185.459	53.08
185.679	8.02
185.898	-47.27
186.118	63.32
186.338	12.12
186.557	53.08
186.777	-43.18
186.997	10.07
187.216	5.97
187.436	65.36
187.655	-47.27
187.875	36.69
188.095	-28.84
188.314	24.4
188.534	-10.41
188.753	36.69
188.973	-59.56
189.192	87.89
189.412	36.69
189.631	12.12
189.851	-24.75
190.07	-10.41
190.29	-2.22
190.509	-37.03
190.729	16.21
190.948	12.12
191.168	161.62
191.387	44.88
191.607	-98.47
191.826	40.79
192.045	30.55
192.265	48.98
192.484	53.08
192.704	5.97
192.923	-4.27
193.142	137.04
193.362	1.88
193.581	-10.41
193.8	24.4
194.02	53.08
194.239	-32.94
194.458	22.36
194.678	-12.46
194.897	5.97
195.116	12.12
195.335	36.69
195.555	16.21
195.774	16.21
195.993	3.93
196.212	5.97
196.432	-53.42
196.651	32.6
196.87	55.12
197.089	112.47
197.308	-4.27
197.528	46.93
197.747	-84.14
197.966	-55.47
198.185	106.32
198.404	-22.7
198.623	126.8
198.842	63.32
199.062	81.75
199.281	34.64
199.5	18.26
199.719	55.12
199.938	38.74
200.157	-2.22
200.376	-30.89
200.595	-4.27
200.814	5.97
201.033	-49.32
201.252	32.6
201.471	77.65
201.69	53.08
201.909	-16.55
202.128	-2.22
202.347	14.17
202.566	34.64
202.785	36.69
203.004	10.07
203.223	137.04
203.442	55.12
203.661	-45.23
203.879	-67.75
204.098	28.5
204.317	32.6
204.536	85.84
204.755	89.94
204.974	-8.36
205.193	-10.41
205.411	106.32
205.63	83.8
205.849	71.51
206.068	-4.27
206.287	-2.22
206.505	-32.94
206.724	53.08
206.943	-55.47
207.162	26.45
207.381	-10.41
207.599	-28.84
207.818	38.74
208.037	20.31
208.255	-41.13
208.474	-32.94
208.693	48.98
208.911	-4.27
209.13	3.93
209.349	87.89
209.567	-10.41
209.786	28.5
210.005	20.31
210.223	44.88
210.442	-26.79
210.661	67.41
210.879	-6.31
211.098	79.7
211.316	-16.55
211.535	48.98
211.753	108.37
211.972	-16.55
212.191	44.88
212.409	-20.65
212.628	59.22
212.846	-0.17
213.065	30.55
213.283	44.88
213.502	-20.65
213.72	28.5
213.938	48.98
214.157	-20.65
214.375	73.56
214.594	-18.6
214.812	5.97
215.031	8.02
215.249	20.31
215.467	-18.6
215.686	34.64
215.904	40.79
216.122	5.97
216.341	55.12
216.559	-43.18
216.778	83.8
216.996	16.21
217.214	28.5
217.432	-8.36
217.651	-43.18
217.869	-45.23
218.087	5.97
218.306	16.21
218.524	59.22
218.742	-22.7
218.96	-20.65
219.179	-32.94
219.397	-18.6
219.615	130.9
219.833	53.08
220.051	22.36
220.27	89.94
220.488	128.85
220.706	-32.94
220.924	-8.36
221.142	44.88
221.36	104.28
221.578	-24.75
221.796	-2.22
222.015	-24.75
222.233	42.84
222.451	71.51
222.669	3.93
222.887	1.88
223.105	-34.99
223.323	14.17
223.541	12.12
223.759	44.88
223.977	22.36
224.195	28.5
224.413	36.69
224.631	-32.94
224.849	26.45
225.067	-32.94
225.285	-0.17
225.503	-2.22
225.721	-37.03
225.939	12.12
226.157	-20.65
226.375	116.56
226.592	-65.71
226.81	-32.94
227.028	94.04
227.246	57.17
227.464	-43.18
227.682	44.88
227.9	102.23
228.117	-34.99
228.335	53.08
228.553	22.36
228.771	12.12
228.989	-32.94
229.206	16.21
229.424	-4.27
229.642	3.93
229.86	-10.41
230.077	61.27
230.295	-12.46
230.513	44.88
230.731	18.26
230.948	26.45
231.166	38.74
231.384	-16.55
231.601	-18.6
231.819	-2.22
232.037	-10.41
232.254	-37.03
232.472	44.88
232.689	14.17
232.907	10.07
233.125	12.12
233.342	26.45
233.56	-4.27
233.777	-26.79
233.995	61.27
234.213	40.79
234.43	48.98
234.648	67.41
234.865	16.21
235.083	-12.46
235.3	-20.65
235.518	-30.89
235.735	26.45
235.953	40.79
236.17	-55.47
236.388	-10.41
236.605	-37.03
236.822	5.97
237.04	16.21
237.257	12.12
237.475	-86.19
237.692	32.6
237.909	34.64
238.127	14.17
238.344	24.4
238.562	-4.27
238.779	-96.43
238.996	-92.33
239.214	-43.18
239.431	28.5
239.648	-2.22
239.865	61.27
240.083	-0.17
240.3	81.75
240.517	-51.37
240.735	-2.22
240.952	-4.27
241.169	55.12
241.386	28.5
241.603	3.93
241.821	-2.22
242.038	67.41
242.255	30.55
242.472	5.97
242.689	59.22
242.907	38.74
243.124	20.31
243.341	36.69
243.558	-0.17
243.775	16.21
243.992	-18.6
244.209	-28.84
244.426	87.89
244.643	5.97
244.86	-6.31
245.078	14.17
245.295	-0.17
245.512	-2.22
245.729	-4.27
245.946	116.56
246.163	12.12
246.38	24.4
246.597	-51.37
246.814	-32.94
247.031	-112.81
247.248	75.6
247.464	32.6
247.681	12.12
247.898	77.65
248.115	46.93
248.332	-45.23
248.549	71.51
248.766	61.27
248.983	-6.31
249.2	-10.41
249.417	34.64
249.633	-69.8
249.85	1.88
250.067	-8.36
250.284	-18.6
250.501	73.56
250.717	53.08
250.934	-37.03
251.151	30.55
251.368	38.74
251.585	38.74
251.801	26.45
252.018	-92.33
252.235	48.98
252.451	36.69
252.668	8.02
252.885	28.5
253.102	-32.94
253.318	28.5
253.535	-8.36
253.752	-26.79
253.968	-24.75
254.185	-24.75
254.401	-4.27
254.618	77.65
254.835	16.21
255.051	48.98
255.268	34.64
255.484	59.22
255.701	16.21
255.917	77.65
256.134	-10.41
256.351	65.36
256.567	3.93
256.784	104.28
257	-26.79
257.217	-34.99
257.433	69.46
257.65	87.89
257.866	12.12
258.082	-77.99
258.299	-14.51
258.515	-14.51
258.732	-53.42
258.948	5.97
259.165	18.26
259.381	28.5
259.597	-12.46
259.814	5.97
260.03	-67.75
260.246	-30.89
260.463	75.6
260.679	-20.65
260.895	5.97
261.112	12.12
261.328	12.12
261.544	-12.46
261.761	100.18
261.977	18.26
262.193	5.97
262.409	-30.89
262.626	-34.99
262.842	-16.55
263.058	-37.03
263.274	-8.36
263.49	53.08
263.707	3.93
263.923	-2.22
264.139	3.93
264.355	32.6
264.571	53.08
264.787	38.74
265.004	63.32
265.22	48.98
265.436	67.41
265.652	8.02
265.868	5.97
266.084	-6.31
266.3	24.4
266.516	-4.27
266.732	14.17
266.948	10.07
267.164	1.88
267.38	42.84
267.596	28.5
267.812	83.8
268.028	20.31
268.244	-12.46
268.46	16.21
268.676	-20.65
268.892	-8.36
269.108	-57.51
269.324	-57.51
269.54	-43.18
269.756	18.26
269.972	-53.42
270.188	-26.79
270.403	-45.23
270.619	-77.99
270.835	85.84
271.051	53.08
271.267	-22.7
271.483	-55.47
271.698	71.51
271.914	-20.65
272.13	-22.7
272.346	-69.8
272.562	-28.84
272.777	118.61
272.993	-32.94
273.209	44.88
273.425	-4.27
273.64	-34.99
273.856	106.32
274.072	-88.23
274.287	-57.51
274.503	36.69
274.719	8.02
274.934	53.08
275.15	-18.6
275.366	-24.75
275.581	-37.03
275.797	-20.65
276.012	-49.32
276.228	12.12
276.444	34.64
276.659	-45.23
276.875	14.17
277.09	34.64
277.306	-24.75
277.521	30.55
277.737	28.5
277.952	5.97
278.168	-12.46
278.383	-61.61
278.599	5.97
278.814	34.64
279.03	-69.8
279.245	75.6
279.461	-4.27
279.676	81.75
279.892	-16.55
280.107	-20.65
280.322	-57.51
280.538	12.12
280.753	-45.23
280.969	81.75
281.184	-12.46
281.399	22.36
281.615	5.97
281.83	-32.94
282.045	3.93
282.26	-16.55
282.476	42.84
282.691	38.74
282.906	65.36
283.122	36.69
283.337	-24.75
283.552	14.17
283.767	30.55
283.983	34.64
284.198	87.89
284.413	-4.27
284.628	-61.61
284.843	-26.79
285.058	12.12
285.274	-18.6
285.489	-59.56
285.704	18.26
285.919	22.36
286.134	5.97
286.349	-71.85
286.564	12.12
286.779	96.08
286.995	-49.32
287.21	36.69
287.425	38.74
287.64	48.98
287.855	-37.03
288.07	-82.09
288.285	98.13
288.5	32.6
288.715	-10.41
288.93	16.21
289.145	-24.75
289.36	34.64
289.575	38.74
289.79	20.31
290.004	-51.37
290.219	14.17
290.434	-2.22
290.649	-32.94
290.864	-12.46
291.079	-8.36
291.294	22.36
291.509	8.02
291.724	-51.37
291.938	20.31
292.153	12.12
292.368	14.17
292.583	26.45
292.798	3.93
293.012	32.6
293.227	-4.27
293.442	3.93
293.657	28.5
293.871	83.8
294.086	5.97
294.301	57.17
294.516	-51.37
294.73	40.79
294.945	-20.65
295.16	-45.23
295.374	73.56
295.589	94.04
295.804	-18.6
296.018	67.41
296.233	46.93
296.447	126.8
296.662	-28.84
296.877	77.65
297.091	44.88
297.306	16.21
297.52	-16.55
297.735	-47.27
297.949	63.32
298.164	42.84
298.378	53.08
298.593	12.12
298.807	-32.94
299.022	-4.27
299.236	-0.17
299.451	-32.94
299.665	10.07
299.88	16.21
300.094	-4.27
300.309	5.97
300.523	12.12
300.737	14.17
300.952	-12.46
301.166	42.84
301.381	-55.47
301.595	18.26
301.809	-45.23
302.024	30.55
302.238	-39.08
302.452	94.04
302.667	1.88
302.881	55.12
303.095	114.52
303.309	28.5
303.524	57.17
303.738	26.45
303.952	-24.75
304.166	55.12
304.381	-84.14
304.595	71.51
304.809	-26.79
305.023	59.22
305.237	-24.75
305.452	30.55
305.666	104.28
305.88	-4.27
306.094	44.88
306.308	38.74
306.522	22.36
306.736	1.88
306.95	61.27
307.164	-86.19
307.379	22.36
307.593	46.93
307.807	87.89
308.021	14.17
308.235	24.4
308.449	-4.27
308.663	-47.27
308.877	77.65
309.091	16.21
309.305	94.04
309.519	-75.95
309.733	42.84
309.947	-12.46
310.161	75.6
310.374	40.79
310.588	36.69
310.802	-24.75
311.016	12.12
311.23	44.88
311.444	-65.71
311.658	38.74
311.872	-0.17
312.085	83.8
312.299	36.69
312.513	57.17
312.727	91.99
312.941	-28.84
313.154	-2.22
313.368	61.27
313.582	38.74
313.796	30.55
314.009	34.64
314.223	14.17
314.437	63.32
314.651	81.75
314.864	-4.27
315.078	5.97
315.292	16.21
315.505	-4.27
315.719	55.12
315.933	24.4
316.146	-2.22
316.36	-45.23
316.573	77.65
316.787	-28.84
317.001	-12.46
317.214	28.5
317.428	-4.27
317.641	22.36
317.855	-14.51
318.068	16.21
318.282	-37.03
318.495	85.84
318.709	53.08
318.922	38.74
319.136	61.27
319.349	44.88
319.563	-20.65
319.776	98.13
319.99	44.88
320.203	32.6
320.417	-37.03
320.63	22.36
320.843	143.19
321.057	-18.6
321.27	65.36
321.483	-28.84
321.697	73.56
321.91	-14.51
322.124	34.64
322.337	44.88
322.55	26.45
322.763	16.21
322.977	-12.46
323.19	-77.99
323.403	-4.27
323.617	-34.99
323.83	69.46
324.043	22.36
324.256	38.74
324.469	-157.86
324.683	34.64
324.896	-10.41
325.109	53.08
325.322	24.4
325.535	8.02
325.748	61.27
325.962	-45.23
326.175	20.31
326.388	30.55
326.601	12.12
326.814	-2.22
327.027	38.74
327.24	85.84
327.453	-20.65
327.666	57.17
327.879	85.84
328.092	-26.79
328.305	51.03
328.518	-30.89
328.731	44.88
328.944	-8.36
329.157	55.12
329.37	12.12
329.583	137.04
329.796	40.79
330.009	-55.47
330.222	8.02
330.435	20.31
330.648	55.12
330.861	55.12
331.073	-12.46
331.286	75.6
331.499	-43.18
331.712	-8.36
331.925	112.47
332.138	1.88
332.35	34.64
332.563	20.31
332.776	12.12
332.989	10.07
333.202	5.97
333.414	67.41
333.627	55.12
333.84	14.17
334.053	104.28
334.265	44.88
334.478	108.37
334.691	22.36
334.903	-8.36
335.116	26.45
335.329	-82.09
335.541	3.93
335.754	26.45
335.966	-24.75
336.179	-8.36
336.392	51.03
336.604	-12.46
336.817	67.41
337.029	-65.71
337.242	81.75
337.454	34.64
337.667	-34.99
337.88	81.75
338.092	-10.41
338.305	32.6
338.517	5.97
338.729	-2.22
338.942	55.12
339.154	-2.22
339.367	-51.37
339.579	-22.7
339.792	-28.84
340.004	10.07
340.217	34.64
340.429	20.31
340.641	-75.95
340.854	55.12
341.066	-37.03
341.278	85.84
341.491	155.47
341.703	32.6
341.915	-116.9
342.128	71.51
342.34	26.45
342.552	-69.8
342.764	24.4
342.977	-28.84
343.189	-69.8
343.401	18.26
343.613	-28.84
343.826	38.74
344.038	-45.23
344.25	-6.31
344.462	53.08
344.674	22.36
344.886	5.97
345.099	42.84
345.311	94.04
345.523	22.36
345.735	-53.42
345.947	36.69
346.159	-39.08
346.371	-18.6
346.583	-18.6
346.795	3.93
347.007	5.97
347.219	-20.65
347.431	36.69
347.643	26.45
347.855	-10.41
348.067	65.36
348.279	-14.51
348.491	48.98
348.703	79.7
348.915	61.27
349.127	12.12
349.339	12.12
349.551	-30.89
349.763	87.89
349.975	-32.94
350.187	34.64
350.399	102.23
350.61	61.27
350.822	8.02
351.034	-28.84
351.246	-20.65
351.458	-30.89
351.669	83.8
351.881	85.84
352.093	48.98
352.305	10.07
352.517	30.55
352.728	-26.79
352.94	32.6
353.152	71.51
353.363	-39.08
353.575	42.84
353.787	-20.65
353.999	10.07
354.21	81.75
354.422	-2.22
354.633	22.36
354.845	32.6
355.057	12.12
355.268	34.64
355.48	77.65
355.692	-4.27
355.903	59.22
356.115	38.74
356.326	-22.7
356.538	44.88
356.749	75.6
356.961	55.12
357.172	32.6
357.384	-51.37
357.595	171.86
357.807	3.93
358.018	-28.84
358.23	16.21
358.441	114.52
358.653	3.93
358.864	-0.17
359.075	-2.22
359.287	44.88
359.498	-0.17
359.709	14.17
359.921	14.17
360.132	57.17
360.344	-10.41
360.555	-8.36
360.766	75.6
360.977	89.94
361.189	40.79
361.4	-0.17
361.611	112.47
361.823	126.8
362.034	-34.99
362.245	-8.36
362.456	24.4
362.667	28.5
362.879	-45.23
363.09	10.07
363.301	22.36
363.512	44.88
363.723	44.88
363.935	10.07
364.146	26.45
364.357	10.07
364.568	89.94
364.779	67.41
364.99	139.09
365.201	1.88
365.412	46.93
365.623	-32.94
365.834	16.21
366.045	-34.99
366.256	65.36
366.467	20.31
366.678	8.02
366.889	10.07
367.1	63.32
367.311	14.17
367.522	14.17
367.733	53.08
367.944	94.04
368.155	-51.37
368.366	61.27
368.577	98.13
368.788	42.84
368.999	-30.89
369.209	-26.79
369.42	61.27
369.631	91.99
369.842	40.79
370.053	14.17
370.264	67.41
370.474	14.17
370.685	44.88
370.896	32.6
371.107	63.32
371.317	12.12
371.528	-65.71
371.739	44.88
371.95	104.28
372.16	87.89
372.371	36.69
372.582	-37.03
372.792	34.64
373.003	91.99
373.214	48.98
373.424	-28.84
373.635	26.45
373.846	100.18
374.056	65.36
374.267	71.51
374.477	12.12
374.688	-121
374.898	42.84
375.109	20.31
375.319	61.27
375.53	57.17
375.74	-12.46
375.951	48.98
376.161	3.93
376.372	77.65
376.582	12.12
376.793	-32.94
377.003	-51.37
377.214	14.17
377.424	81.75
377.635	26.45
377.845	-51.37
378.055	22.36
378.266	-4.27
378.476	-6.31
378.686	30.55
378.897	30.55
379.107	28.5
379.317	32.6
379.528	61.27
379.738	77.65
379.948	-10.41
380.158	153.43
380.369	-8.36
380.579	40.79
380.789	-10.41
380.999	81.75
381.21	79.7
381.42	30.55
381.63	-0.17
381.84	22.36
382.05	110.42
382.261	110.42
382.471	106.32
382.681	-14.51
382.891	130.9
383.101	57.17
383.311	-84.14
383.521	26.45
383.731	-4.27
383.941	81.75
384.151	22.36
384.361	65.36
384.571	81.75
384.781	46.93
384.991	53.08
385.201	30.55
385.411	81.75
385.621	14.17
385.831	34.64
386.041	61.27
386.251	69.46
386.461	85.84
386.671	96.08
386.881	32.6
387.091	-20.65
387.301	87.89
387.511	-4.27
387.72	71.51
387.93	57.17
388.14	-37.03
388.35	36.69
388.56	71.51
388.769	1.88
388.979	-4.27
389.189	-51.37
389.399	8.02
389.609	10.07
389.818	71.51
390.028	-34.99
390.238	14.17
390.447	-2.22
390.657	-26.79
390.867	-14.51
391.076	20.31
391.286	46.93
391.496	38.74
391.705	5.97
391.915	79.7
392.125	44.88
392.334	48.98
392.544	28.5
392.753	-8.36
392.963	63.32
393.172	57.17
393.382	12.12
393.591	53.08
393.801	28.5
394.01	130.9
394.22	71.51
394.429	40.79
394.639	77.65
394.848	12.12
395.058	28.5
395.267	10.07
395.477	67.41
395.686	57.17
395.895	69.46
396.105	216.91
396.314	85.84
396.524	28.5
396.733	46.93
396.942	40.79
397.152	20.31
397.361	87.89
397.57	51.03
397.78	53.08
397.989	120.66
398.198	65.36
398.407	81.75
398.617	16.21
398.826	26.45
399.035	32.6
399.244	161.62
399.453	65.36
399.663	130.9
399.872	118.61
400.081	63.32
400.29	51.03
400.499	32.6
400.708	69.46
400.917	40.79
401.127	44.88
401.336	-20.65
401.545	106.32
401.754	102.23
401.963	91.99
402.172	87.89
402.381	79.7
402.59	53.08
402.799	91.99
403.008	94.04
403.217	71.51
403.426	98.13
403.635	12.12
403.844	16.21
404.053	77.65
404.262	94.04
404.471	147.28
404.68	71.51
404.888	110.42
405.097	135
405.306	100.18
405.515	126.8
405.724	155.47
405.933	73.56
406.142	126.8
406.35	208.72
406.559	100.18
406.768	48.98
406.977	188.24
407.185	137.04
407.394	118.61
407.603	167.76
407.812	126.8
408.02	124.76
408.229	118.61
408.438	161.62
408.646	175.95
408.855	198.48
409.064	171.86
409.272	135
409.481	169.81
409.69	175.95
409.898	147.28
410.107	227.15
410.315	282.45
410.524	243.54
410.733	255.83
410.941	171.86
411.15	278.35
411.358	241.49
411.567	347.98
411.775	264.02
411.984	329.55
412.192	276.31
412.401	257.87
412.609	368.46
412.818	366.42
413.026	372.56
413.234	304.98
413.443	401.23
413.651	300.88
413.86	382.8
414.068	407.38
414.276	444.24
414.485	393.04
414.693	466.77
414.901	560.97
415.11	528.21
415.318	474.96
415.526	560.97
415.734	503.63
415.943	511.82
416.151	603.98
416.359	565.07
416.567	601.93
416.776	663.37
416.984	706.38
417.192	722.76
417.4	659.28
417.608	651.08
417.817	726.86
418.025	714.57
418.233	905.03
418.441	778.06
418.649	773.96
418.857	907.08
419.065	919.37
419.273	851.78
419.481	980.81
419.689	1103.68
419.897	1001.29
420.105	1085.25
420.313	1130.31
420.521	1218.37
420.729	1124.16
420.937	1087.3
421.145	1285.95
421.353	1468.22
421.561	1525.57
421.769	1331.01
421.977	1376.06
422.185	1453.89
422.393	1484.61
422.601	1697.6
422.809	1599.29
423.017	1541.95
423.224	1748.79
423.432	1793.85
423.64	1732.41
423.848	1924.92
424.056	1840.95
424.263	2035.51
424.471	2119.48
424.679	2103.09
424.887	1994.55
425.094	2236.21
425.302	2205.49
425.51	2340.66
425.718	2490.16
425.925	2363.19
426.133	2494.26
426.341	2830.12
426.548	2862.89
426.756	2914.09
426.964	2848.55
427.171	3122.98
427.379	3227.43
427.586	3114.79
427.794	3266.34
428.001	3510.05
428.209	3530.53
428.417	3604.25
428.624	3774.24
428.832	3790.62
429.039	3860.25
429.247	3716.89
429.454	4054.81
429.662	4405.01
429.869	4052.76
430.076	4445.97
430.284	4210.45
430.491	4525.84
430.699	4732.69
430.906	4671.25
431.114	4658.96
431.321	5107.46
431.528	5019.4
431.736	5502.72
431.943	5486.34
432.15	5420.8
432.358	5455.62
432.565	5719.81
432.772	5744.38
432.979	6010.62
433.187	5949.18
433.394	6211.32
433.601	6592.24
433.808	6602.48
434.016	6438.64
434.223	6936.3
434.43	7173.86
434.637	7130.86
434.844	7634.66
435.052	7765.73
435.259	7702.24
435.466	7601.89
435.673	7775.97
435.88	8292.05
436.087	8539.86
436.294	8591.06
436.501	8582.87
436.708	8607.44
436.915	9037.52
437.122	9252.55
437.329	9246.41
437.537	9606.85
437.743	9856.7
437.95	9645.76
438.157	10170.04
438.364	10245.82
438.571	10444.47
438.778	10446.52
438.985	11396.78
439.192	11062.96
439.399	11564.71
439.606	11130.54
439.813	11904.67
440.02	12377.75
440.227	12496.53
440.433	12320.41
440.64	12578.45
440.847	12480.15
441.054	13080.21
441.261	13788.8
441.467	13411.98
441.674	13565.57
441.881	14102.14
442.088	14071.42
442.294	13997.7
442.501	14409.34
442.708	14917.23
442.914	15306.35
443.121	15937.12
443.328	15441.51
443.534	16629.34
443.741	16150.11
443.948	15900.26
444.154	17282.64
444.361	17147.47
444.568	17184.34
444.774	17204.81
444.981	17430.09
445.187	17735.24
445.394	18705.98
445.6	18499.13
445.807	19961.38
446.013	19549.74
446.22	19734.06
446.426	20317.73
446.633	20571.68
446.839	21671.43
447.046	20186.66
447.252	21728.78
447.459	22015.49
447.665	21691.91
447.871	22441.47
448.078	23711.21
448.284	22496.77
448.491	23053.81
448.697	23694.83
448.903	24471.01
449.11	24597.98
449.316	23860.71
449.522	24374.75
449.728	25261.52
449.935	25447.89
450.141	25116.12
450.347	25585.1
450.553	25388.5
450.76	25353.68
450.966	26041.8
451.172	25718.22
451.378	26561.98
451.584	26305.99
451.791	26865.08
451.997	26621.38
452.203	26987.96
452.409	27536.82
452.615	27125.18
452.821	26179.01
453.027	25918.92
453.233	26789.31
453.44	25888.2
453.646	26545.6
453.852	26371.52
454.058	26451.39
454.264	25955.79
454.47	26752.45
454.676	25867.72
454.882	26650.05
455.088	24348.13
455.294	24585.69
455.5	25150.93
455.705	25267.67
455.911	24499.68
456.117	24040.93
456.323	23680.49
456.529	22330.88
456.735	23236.08
456.941	22734.33
457.147	22138.37
457.352	21751.31
457.558	21351.95
457.764	21427.73
457.97	21055
458.176	20647.45
458.381	20352.54
458.587	19621.42
458.793	19527.21
458.999	18411.07
459.204	19766.82
459.41	19467.82
459.616	18075.2
459.821	17890.88
460.027	17946.18
460.233	17770.05
460.438	16909.91
460.644	16871
460.85	16182.88
461.055	15951.46
461.261	15933.03
461.466	14659.19
461.672	14356.09
461.878	14964.34
462.083	14483.06
462.289	13995.65
462.494	13794.95
462.7	13209.23
462.905	12643.99
463.111	13467.27
463.316	13493.9
463.522	13024.91
463.727	13020.81
463.932	13110.93
464.138	12738.19
464.343	12949.14
464.549	12519.06
464.754	13026.96
464.959	12717.72
465.165	12617.36
465.37	12410.52
465.575	11894.43
465.781	12469.91
465.986	12320.41
466.191	12078.75
466.397	11949.73
466.602	11163.31
