Data from USB4F104151__28__13-04-46-968.txt Node

Date: Fri Mar 14 13:04:46 EDT 2025
User: louis
Spectrometer: USB4F10415
Trigger mode: 4
Integration Time (sec): 4.000000E-2
Scans to average: 1
Electric dark correction enabled: true
Nonlinearity correction enabled: false
Boxcar width: 0
XAxis mode: Wavelengths
Number of Pixels in Spectrum: 3648
>>>>>Begin Spectral Data<<<<<
178.204	-198.99
178.424	-198.99
178.644	-198.99
178.864	-129.36
179.084	-158.03
179.304	-18.77
179.524	1.71
179.744	1.71
179.964	24.23
180.184	-14.68
180.404	81.58
180.624	-33.11
180.844	-51.54
181.064	-10.58
181.283	42.67
181.503	-74.07
181.723	50.86
181.943	-63.83
182.163	175.78
182.383	91.82
182.602	48.81
182.822	38.57
183.042	18.09
183.262	22.19
183.482	30.38
183.701	-2.39
183.921	30.38
184.141	-33.11
184.361	134.82
184.58	-6.49
184.8	22.19
185.02	-39.25
185.239	63.15
185.459	95.91
185.679	91.82
185.898	-67.92
186.118	118.44
186.338	63.15
186.557	69.29
186.777	-51.54
186.997	28.33
187.216	104.11
187.436	95.91
187.655	44.71
187.875	89.77
188.095	61.1
188.314	7.85
188.534	95.91
188.753	11.95
188.973	46.76
189.192	112.3
189.412	61.1
189.631	89.77
189.851	-26.96
190.07	65.19
190.29	40.62
190.509	34.47
190.729	36.52
190.948	118.44
191.168	153.26
191.387	71.34
191.607	40.62
191.826	3.75
192.045	36.52
192.265	65.19
192.484	57
192.704	89.77
192.923	-24.92
193.142	120.49
193.362	42.67
193.581	69.29
193.8	69.29
194.02	95.91
194.239	1.71
194.458	48.81
194.678	67.24
194.897	69.29
195.116	63.15
195.335	44.71
195.555	57
195.774	5.8
195.993	50.86
196.212	83.63
196.432	67.24
196.651	52.91
196.87	73.39
197.089	188.07
197.308	46.76
197.528	36.52
197.747	-26.96
197.966	40.62
198.185	130.73
198.404	-4.44
198.623	79.53
198.842	85.67
199.062	69.29
199.281	73.39
199.5	-37.2
199.719	16.04
199.938	11.95
200.157	48.81
200.376	91.82
200.595	87.72
200.814	48.81
201.033	63.15
201.252	93.87
201.471	3.75
201.69	122.54
201.909	54.95
202.128	104.11
202.347	61.1
202.566	52.91
202.785	40.62
203.004	-14.68
203.223	112.3
203.442	9.9
203.661	-57.68
203.879	75.43
204.098	87.72
204.317	44.71
204.536	116.39
204.755	36.52
204.974	143.02
205.193	114.34
205.411	126.63
205.63	65.19
205.849	52.91
206.068	3.75
206.287	1.71
206.505	65.19
206.724	32.43
206.943	59.05
207.162	28.33
207.381	67.24
207.599	44.71
207.818	40.62
208.037	52.91
208.255	24.23
208.474	38.57
208.693	57
208.911	52.91
209.13	85.67
209.349	110.25
209.567	48.81
209.786	136.87
210.005	38.57
210.223	46.76
210.442	3.75
210.661	102.06
210.879	52.91
211.098	46.76
211.316	44.71
211.535	85.67
211.753	-35.16
211.972	65.19
212.191	83.63
212.409	16.04
212.628	40.62
212.846	-8.53
213.065	65.19
213.283	75.43
213.502	59.05
213.72	13.99
213.938	69.29
214.157	46.76
214.375	59.05
214.594	73.39
214.812	75.43
215.031	9.9
215.249	-0.34
215.467	-63.83
215.686	7.85
215.904	134.82
216.122	-0.34
216.341	102.06
216.559	44.71
216.778	122.54
216.996	3.75
217.214	95.91
217.432	52.91
217.651	87.72
217.869	1.71
218.087	28.33
218.306	-2.39
218.524	69.29
218.742	13.99
218.96	24.23
219.179	46.76
219.397	61.1
219.615	112.3
219.833	91.82
220.051	50.86
220.27	75.43
220.488	46.76
220.706	-20.82
220.924	-8.53
221.142	-0.34
221.36	16.04
221.578	85.67
221.796	22.19
222.015	-10.58
222.233	5.8
222.451	34.47
222.669	-8.53
222.887	87.72
223.105	36.52
223.323	-12.63
223.541	-57.68
223.759	116.39
223.977	65.19
224.195	128.68
224.413	124.58
224.631	24.23
224.849	38.57
225.067	87.72
225.285	-33.11
225.503	77.48
225.721	22.19
225.939	50.86
226.157	73.39
226.375	177.83
226.592	3.75
226.81	61.1
227.028	93.87
227.246	79.53
227.464	89.77
227.682	89.77
227.9	81.58
228.117	26.28
228.335	67.24
228.553	36.52
228.771	128.68
228.989	5.8
229.206	85.67
229.424	116.39
229.642	-16.73
229.86	-20.82
230.077	59.05
230.295	36.52
230.513	104.11
230.731	32.43
230.948	136.87
231.166	116.39
231.384	30.38
231.601	75.43
231.819	108.2
232.037	-4.44
232.254	7.85
232.472	32.43
232.689	-47.44
232.907	85.67
233.125	11.95
233.342	-16.73
233.56	11.95
233.777	28.33
233.995	42.67
234.213	85.67
234.43	38.57
234.648	-37.2
234.865	20.14
235.083	46.76
235.3	26.28
235.518	85.67
235.735	95.91
235.953	13.99
236.17	73.39
236.388	83.63
236.605	36.52
236.822	63.15
237.04	11.95
237.257	77.48
237.475	-6.49
237.692	-10.58
237.909	30.38
238.127	-4.44
238.344	54.95
238.562	20.14
238.779	-24.92
238.996	-4.44
239.214	42.67
239.431	52.91
239.648	38.57
239.865	67.24
240.083	26.28
240.3	52.91
240.517	34.47
240.735	36.52
240.952	77.48
241.169	13.99
241.386	38.57
241.603	42.67
241.821	24.23
242.038	89.77
242.255	69.29
242.472	11.95
242.689	30.38
242.907	71.34
243.124	-10.58
243.341	100.01
243.558	-51.54
243.775	-4.44
243.992	-47.44
244.209	63.15
244.426	120.49
244.643	118.44
244.86	-14.68
245.078	30.38
245.295	32.43
245.512	112.3
245.729	112.3
245.946	-18.77
246.163	57
246.38	7.85
246.597	52.91
246.814	32.43
247.031	3.75
247.248	22.19
247.464	7.85
247.681	54.95
247.898	3.75
248.115	48.81
248.332	28.33
248.549	77.48
248.766	112.3
248.983	85.67
249.2	52.91
249.417	71.34
249.633	-12.63
249.85	75.43
250.067	42.67
250.284	30.38
250.501	59.05
250.717	30.38
250.934	9.9
251.151	-16.73
251.368	26.28
251.585	79.53
251.801	34.47
252.018	30.38
252.235	97.96
252.451	3.75
252.668	7.85
252.885	128.68
253.102	61.1
253.318	73.39
253.535	-35.16
253.752	52.91
253.968	1.71
254.185	5.8
254.401	-10.58
254.618	104.11
254.835	-35.16
255.051	73.39
255.268	24.23
255.484	75.43
255.701	108.2
255.917	87.72
256.134	13.99
256.351	67.24
256.567	7.85
256.784	22.19
257	-86.36
257.217	79.53
257.433	36.52
257.65	93.87
257.866	108.2
258.082	52.91
258.299	18.09
258.515	118.44
258.732	77.48
258.948	7.85
259.165	42.67
259.381	20.14
259.597	85.67
259.814	61.1
260.03	30.38
260.246	22.19
260.463	71.34
260.679	69.29
260.895	85.67
261.112	138.92
261.328	128.68
261.544	13.99
261.761	110.25
261.977	40.62
262.193	32.43
262.409	91.82
262.626	87.72
262.842	57
263.058	16.04
263.274	-6.49
263.49	3.75
263.707	93.87
263.923	34.47
264.139	34.47
264.355	46.76
264.571	122.54
264.787	30.38
265.004	83.63
265.22	52.91
265.436	-10.58
265.652	24.23
265.868	79.53
266.084	22.19
266.3	1.71
266.516	-31.06
266.732	89.77
266.948	61.1
267.164	30.38
267.38	67.24
267.596	40.62
267.812	85.67
268.028	32.43
268.244	59.05
268.46	75.43
268.676	87.72
268.892	-33.11
269.108	7.85
269.324	7.85
269.54	38.57
269.756	63.15
269.972	11.95
270.188	5.8
270.403	7.85
270.619	71.34
270.835	48.81
271.051	52.91
271.267	20.14
271.483	-10.58
271.698	5.8
271.914	95.91
272.13	-20.82
272.346	42.67
272.562	16.04
272.777	85.67
272.993	59.05
273.209	28.33
273.425	95.91
273.64	11.95
273.856	75.43
274.072	26.28
274.287	-16.73
274.503	67.24
274.719	81.58
274.934	79.53
275.15	52.91
275.366	54.95
275.581	63.15
275.797	-35.16
276.012	-18.77
276.228	128.68
276.444	89.77
276.659	52.91
276.875	-16.73
277.09	116.39
277.306	61.1
277.521	134.82
277.737	30.38
277.952	52.91
278.168	-20.82
278.383	28.33
278.599	130.73
278.814	11.95
279.03	-4.44
279.245	65.19
279.461	-4.44
279.676	30.38
279.892	65.19
280.107	32.43
280.322	65.19
280.538	52.91
280.753	30.38
280.969	40.62
281.184	85.67
281.399	75.43
281.615	46.76
281.83	59.05
282.045	83.63
282.26	104.11
282.476	77.48
282.691	-2.39
282.906	46.76
283.122	36.52
283.337	28.33
283.552	69.29
283.767	48.81
283.983	63.15
284.198	50.86
284.413	-4.44
284.628	18.09
284.843	44.71
285.058	69.29
285.274	3.75
285.489	-51.54
285.704	61.1
285.919	-37.2
286.134	143.02
286.349	95.91
286.564	13.99
286.779	83.63
286.995	87.72
287.21	16.04
287.425	32.43
287.64	24.23
287.855	63.15
288.07	-31.06
288.285	85.67
288.5	138.92
288.715	11.95
288.93	16.04
289.145	20.14
289.36	100.01
289.575	65.19
289.79	120.49
290.004	30.38
290.219	134.82
290.434	30.38
290.649	5.8
290.864	87.72
291.079	48.81
291.294	81.58
291.509	-6.49
291.724	40.62
291.938	77.48
292.153	79.53
292.368	85.67
292.583	-12.63
292.798	48.81
293.012	93.87
293.227	-2.39
293.442	38.57
293.657	130.73
293.871	61.1
294.086	87.72
294.301	122.54
294.516	81.58
294.73	81.58
294.945	5.8
295.16	54.95
295.374	44.71
295.589	161.45
295.804	40.62
296.018	16.04
296.233	81.58
296.447	89.77
296.662	-33.11
296.877	59.05
297.091	61.1
297.306	38.57
297.52	-2.39
297.735	11.95
297.949	-2.39
298.164	-12.63
298.378	120.49
298.593	-37.2
298.807	20.14
299.022	42.67
299.236	108.2
299.451	26.28
299.665	38.57
299.88	-0.34
300.094	48.81
300.309	-39.25
300.523	54.95
300.737	44.71
300.952	95.91
301.166	110.25
301.381	20.14
301.595	-0.34
301.809	81.58
302.024	18.09
302.238	-35.16
302.452	69.29
302.667	20.14
302.881	79.53
303.095	126.63
303.309	95.91
303.524	40.62
303.738	97.96
303.952	32.43
304.166	69.29
304.381	-37.2
304.595	122.54
304.809	16.04
305.023	87.72
305.237	79.53
305.452	34.47
305.666	13.99
305.88	110.25
306.094	36.52
306.308	102.06
306.522	126.63
306.736	130.73
306.95	40.62
307.164	87.72
307.379	-39.25
307.593	120.49
307.807	122.54
308.021	46.76
308.235	50.86
308.449	-39.25
308.663	-29.01
308.877	153.26
309.091	44.71
309.305	110.25
309.519	7.85
309.733	87.72
309.947	-41.3
310.161	7.85
310.374	52.91
310.588	54.95
310.802	3.75
311.016	20.14
311.23	34.47
311.444	93.87
311.658	-8.53
311.872	126.63
312.085	85.67
312.299	104.11
312.513	77.48
312.727	34.47
312.941	-45.4
313.154	73.39
313.368	57
313.582	69.29
313.796	69.29
314.009	85.67
314.223	79.53
314.437	65.19
314.651	97.96
314.864	32.43
315.078	-8.53
315.292	1.71
315.505	9.9
315.719	30.38
315.933	67.24
316.146	69.29
316.36	22.19
316.573	93.87
316.787	73.39
317.001	59.05
317.214	26.28
317.428	9.9
317.641	-0.34
317.855	11.95
318.068	-12.63
318.282	61.1
318.495	173.74
318.709	40.62
318.922	13.99
319.136	136.87
319.349	75.43
319.563	-41.3
319.776	3.75
319.99	93.87
320.203	153.26
320.417	104.11
320.63	69.29
320.843	95.91
321.057	57
321.27	13.99
321.483	54.95
321.697	85.67
321.91	59.05
322.124	50.86
322.337	16.04
322.55	20.14
322.763	77.48
322.977	-10.58
323.19	20.14
323.403	102.06
323.617	67.24
323.83	126.63
324.043	57
324.256	44.71
324.469	5.8
324.683	120.49
324.896	30.38
325.109	30.38
325.322	24.23
325.535	95.91
325.748	112.3
325.962	73.39
326.175	52.91
326.388	73.39
326.601	126.63
326.814	73.39
327.027	65.19
327.24	175.78
327.453	-18.77
327.666	79.53
327.879	46.76
328.092	87.72
328.305	91.82
328.518	22.19
328.731	42.67
328.944	100.01
329.157	110.25
329.37	20.14
329.583	114.34
329.796	75.43
330.009	-14.68
330.222	-8.53
330.435	3.75
330.648	79.53
330.861	38.57
331.073	93.87
331.286	7.85
331.499	46.76
331.712	34.47
331.925	-24.92
332.138	18.09
332.35	75.43
332.563	36.52
332.776	85.67
332.989	9.9
333.202	24.23
333.414	13.99
333.627	83.63
333.84	73.39
334.053	75.43
334.265	18.09
334.478	69.29
334.691	81.58
334.903	28.33
335.116	87.72
335.329	-18.77
335.541	28.33
335.754	202.41
335.966	52.91
336.179	46.76
336.392	57
336.604	36.52
336.817	36.52
337.029	93.87
337.242	20.14
337.454	89.77
337.667	30.38
337.88	159.4
338.092	79.53
338.305	143.02
338.517	100.01
338.729	38.57
338.942	85.67
339.154	7.85
339.367	-59.73
339.579	95.91
339.792	24.23
340.004	24.23
340.217	44.71
340.429	126.63
340.641	-16.73
340.854	-6.49
341.066	114.34
341.278	161.45
341.491	46.76
341.703	102.06
341.915	-39.25
342.128	18.09
342.34	61.1
342.552	-18.77
342.764	42.67
342.977	24.23
343.189	77.48
343.401	38.57
343.613	-2.39
343.826	38.57
344.038	104.11
344.25	-0.34
344.462	52.91
344.674	38.57
344.886	26.28
345.099	81.58
345.311	7.85
345.523	11.95
345.735	52.91
345.947	73.39
346.159	-0.34
346.371	38.57
346.583	93.87
346.795	200.36
347.007	65.19
347.219	93.87
347.431	46.76
347.643	124.58
347.855	-18.77
348.067	106.15
348.279	-86.36
348.491	24.23
348.703	120.49
348.915	24.23
349.127	85.67
349.339	147.11
349.551	50.86
349.763	93.87
349.975	-65.88
350.187	18.09
350.399	93.87
350.61	118.44
350.822	61.1
351.034	77.48
351.246	145.06
351.458	46.76
351.669	97.96
351.881	26.28
352.093	77.48
352.305	48.81
352.517	108.2
352.728	77.48
352.94	169.64
353.152	61.1
353.363	75.43
353.575	61.1
353.787	75.43
353.999	102.06
354.21	130.73
354.422	-2.39
354.633	7.85
354.845	18.09
355.057	57
355.268	71.34
355.48	87.72
355.692	40.62
355.903	118.44
356.115	24.23
356.326	-55.64
356.538	77.48
356.749	73.39
356.961	122.54
357.172	134.82
357.384	34.47
357.595	104.11
357.807	118.44
358.018	28.33
358.23	106.15
358.441	52.91
358.653	93.87
358.864	106.15
359.075	52.91
359.287	38.57
359.498	104.11
359.709	-20.82
359.921	20.14
360.132	38.57
360.344	13.99
360.555	36.52
360.766	79.53
360.977	48.81
361.189	87.72
361.4	38.57
361.611	161.45
361.823	42.67
362.034	71.34
362.245	-4.44
362.456	106.15
362.667	-2.39
362.879	22.19
363.09	36.52
363.301	93.87
363.512	22.19
363.723	44.71
363.935	79.53
364.146	108.2
364.357	52.91
364.568	95.91
364.779	-57.68
364.99	128.68
365.201	65.19
365.412	118.44
365.623	28.33
365.834	24.23
366.045	63.15
366.256	106.15
366.467	20.14
366.678	40.62
366.889	34.47
367.1	46.76
367.311	136.87
367.522	75.43
367.733	44.71
367.944	104.11
368.155	44.71
368.366	69.29
368.577	104.11
368.788	110.25
368.999	106.15
369.209	67.24
369.42	130.73
369.631	224.94
369.842	110.25
370.053	30.38
370.264	102.06
370.474	73.39
370.685	89.77
370.896	110.25
371.107	140.97
371.317	120.49
371.528	52.91
371.739	22.19
371.95	87.72
372.16	83.63
372.371	65.19
372.582	22.19
372.792	110.25
373.003	59.05
373.214	79.53
373.424	102.06
373.635	9.9
373.846	120.49
374.056	20.14
374.267	102.06
374.477	71.34
374.688	48.81
374.898	7.85
375.109	46.76
375.319	40.62
375.53	110.25
375.74	91.82
375.951	57
376.161	104.11
376.372	110.25
376.582	42.67
376.793	118.44
377.003	-14.68
377.214	5.8
377.424	46.76
377.635	87.72
377.845	40.62
378.055	46.76
378.266	20.14
378.476	-10.58
378.686	77.48
378.897	81.58
379.107	163.5
379.317	145.06
379.528	89.77
379.738	114.34
379.948	50.86
380.158	71.34
380.369	77.48
380.579	48.81
380.789	63.15
380.999	65.19
381.21	77.48
381.42	128.68
381.63	52.91
381.84	95.91
382.05	138.92
382.261	200.36
382.471	100.01
382.681	7.85
382.891	89.77
383.101	63.15
383.311	73.39
383.521	-26.96
383.731	57
383.941	65.19
384.151	83.63
384.361	36.52
384.571	67.24
384.781	7.85
384.991	143.02
385.201	124.58
385.411	93.87
385.621	120.49
385.831	-12.63
386.041	67.24
386.251	71.34
386.461	102.06
386.671	102.06
386.881	81.58
387.091	61.1
387.301	91.82
387.511	85.67
387.72	114.34
387.93	132.78
388.14	30.38
388.35	67.24
388.56	126.63
388.769	54.95
388.979	-20.82
389.189	54.95
389.399	63.15
389.609	67.24
389.818	171.69
390.028	91.82
390.238	79.53
390.447	1.71
390.657	63.15
390.867	46.76
391.076	140.97
391.286	155.3
391.496	100.01
391.705	5.8
391.915	149.16
392.125	95.91
392.334	83.63
392.544	138.92
392.753	93.87
392.963	46.76
393.172	61.1
393.382	13.99
393.591	216.74
393.801	69.29
394.01	77.48
394.22	71.34
394.429	134.82
394.639	114.34
394.848	155.3
395.058	71.34
395.267	108.2
395.477	224.94
395.686	83.63
395.895	114.34
396.105	167.59
396.314	149.16
396.524	108.2
396.733	159.4
396.942	57
397.152	97.96
397.361	169.64
397.57	114.34
397.78	112.3
397.989	102.06
398.198	183.98
398.407	102.06
398.617	147.11
398.826	153.26
399.035	145.06
399.244	173.74
399.453	151.21
399.663	110.25
399.872	200.36
400.081	16.04
400.29	93.87
400.499	140.97
400.708	36.52
400.917	118.44
401.127	120.49
401.336	102.06
401.545	208.55
401.754	161.45
401.963	145.06
402.172	110.25
402.381	81.58
402.59	104.11
402.799	87.72
403.008	124.58
403.217	102.06
403.426	147.11
403.635	61.1
403.844	145.06
404.053	181.93
404.262	120.49
404.471	253.61
404.68	177.83
404.888	155.3
405.097	83.63
405.306	179.88
405.515	143.02
405.724	188.07
405.933	216.74
406.142	202.41
406.35	208.55
406.559	143.02
406.768	208.55
406.977	233.13
407.185	173.74
407.394	200.36
407.603	251.56
407.812	183.98
408.02	267.94
408.229	222.89
408.438	278.18
408.646	157.35
408.855	251.56
409.064	321.19
409.272	253.61
409.481	290.47
409.69	267.94
409.898	267.94
410.107	249.51
410.315	390.82
410.524	335.53
410.733	360.1
410.941	378.53
411.15	394.92
411.358	382.63
411.567	470.69
411.775	439.97
411.984	427.68
412.192	433.83
412.401	413.35
412.609	501.41
412.818	603.81
413.026	548.51
413.234	478.88
413.443	609.95
413.651	583.33
413.86	519.84
414.068	591.52
414.276	720.54
414.485	554.66
414.693	700.06
414.901	736.93
415.11	736.93
415.318	728.74
415.526	820.89
415.734	757.41
415.943	732.83
416.151	812.7
416.359	767.65
416.567	960.16
416.776	994.97
416.984	939.68
417.192	1033.88
417.4	997.02
417.608	827.04
417.817	1011.36
418.025	1031.83
418.233	1146.52
418.441	1171.1
418.649	1183.38
418.857	1326.74
419.065	1214.1
419.273	1310.36
419.481	1296.02
419.689	1355.41
419.897	1535.64
420.105	1486.48
420.313	1554.07
420.521	1611.41
420.729	1687.18
420.937	1719.95
421.145	1724.05
421.353	1797.78
421.561	1865.36
421.769	1863.31
421.977	1889.93
422.185	1953.42
422.393	2076.3
422.601	2287.24
422.809	2344.58
423.017	2225.8
423.224	2289.29
423.432	2461.32
423.64	2467.46
423.848	2684.55
424.056	2647.68
424.263	2774.66
424.471	2733.7
424.679	2905.73
424.887	3014.27
425.094	2981.5
425.302	3053.18
425.51	3280.5
425.718	3337.85
425.925	3309.18
426.133	3421.81
426.341	3624.56
426.548	3806.83
426.756	3886.7
426.964	3896.94
427.171	4122.22
427.379	4245.1
427.586	4163.18
427.794	4378.22
428.001	4646.5
428.209	4757.09
428.417	4652.64
428.624	5144.16
428.832	5037.66
429.039	5023.33
429.247	5006.94
429.454	5494.36
429.662	6032.97
429.869	5611.09
430.076	5822.03
430.284	5699.16
430.491	6051.41
430.699	6295.11
430.906	6155.85
431.114	6497.86
431.321	6534.73
431.528	6686.28
431.736	7056.96
431.943	7378.49
432.15	7417.4
432.358	7409.21
432.565	7941.68
432.772	7618.1
432.979	8138.29
433.187	8486.44
433.394	8527.4
433.601	8922.66
433.808	8750.63
434.016	9080.35
434.223	9229.85
434.43	9770.52
434.637	9637.4
434.844	10370.57
435.052	10495.5
435.259	10354.19
435.466	10425.87
435.673	10489.35
435.88	10829.32
436.087	11619.83
436.294	11548.15
436.501	11277.82
436.708	11597.31
436.915	11931.12
437.122	12527.08
437.329	12471.79
437.537	12897.77
437.743	13194.72
437.95	12893.67
438.157	13786.58
438.364	13977.05
438.571	13966.81
438.778	14249.43
438.985	15463.87
439.192	14824.9
439.399	15068.61
439.606	15257.03
439.813	15908.28
440.02	16786.86
440.227	16721.32
440.433	16424.37
440.64	16993.7
440.847	17155.49
441.054	17540.51
441.261	18642.32
441.467	18267.54
441.674	18728.33
441.881	19193.22
442.088	19185.03
442.294	18994.57
442.501	19387.78
442.708	20059.51
442.914	20600.18
443.121	21843.29
443.328	20903.28
443.534	22404.44
443.741	21806.43
443.948	21661.02
444.154	23035.21
444.361	23072.07
444.568	23399.75
444.774	23483.72
444.981	23506.24
445.187	24278.33
445.394	25146.67
445.6	24948.01
445.807	27135.24
446.013	26414.36
446.22	26420.5
446.426	27686.15
446.633	28005.63
446.839	29007.09
447.046	27602.18
447.252	29461.74
447.459	29015.28
447.665	29250.8
447.871	30274.78
448.078	31788.23
448.284	30223.58
448.491	31016.15
448.697	32019.65
448.903	32847.03
449.11	33172.66
449.316	32218.3
449.522	32926.9
449.728	33987.75
449.935	34569.37
450.141	34387.1
450.347	35122.32
450.553	33995.94
450.76	34782.36
450.966	35454.09
451.172	34913.43
451.378	36060.29
451.584	35421.33
451.791	36064.39
451.997	35994.76
452.203	36742.27
452.409	36852.86
452.615	36707.45
452.821	35353.74
453.027	35159.19
453.233	36904.06
453.44	35624.08
453.646	35525.77
453.852	36045.96
454.058	36820.09
454.264	35423.37
454.47	36168.83
454.676	35044.5
454.882	36697.21
455.088	33631.4
455.294	33981.6
455.5	34454.68
455.705	34888.85
455.911	33340.59
456.117	32525.5
456.323	32386.24
456.529	30694.61
456.735	32126.14
456.941	31474.89
457.147	30784.72
457.352	29830.37
457.558	29424.87
457.764	29693.16
457.97	29129.97
458.176	28525.82
458.381	28323.07
458.587	27053.33
458.793	27032.85
458.999	25507.11
459.204	27464.97
459.41	26631.44
459.616	24902.96
459.821	25130.28
460.027	24780.08
460.233	24130.87
460.438	23414.09
460.644	23285.06
460.85	22234.46
461.055	21779.81
461.261	21798.24
461.466	20512.11
461.672	19580.29
461.878	21005.67
462.083	19756.41
462.289	19561.86
462.494	18982.28
462.7	18007.45
462.905	17571.23
463.111	18394.51
463.316	18333.07
463.522	17923.48
463.727	18224.53
463.932	17943.96
464.138	17835.42
464.343	17735.07
464.549	17286.56
464.754	17651.1
464.959	17880.47
465.165	17630.62
465.37	16805.29
465.575	16506.29
465.781	17214.88
465.986	17079.72
466.191	16211.38
466.397	16311.73
466.602	15254.98
