Data from USB4F104151__24__13-04-45-728.txt Node

Date: Fri Mar 14 13:04:45 EDT 2025
User: louis
Spectrometer: USB4F10415
Trigger mode: 4
Integration Time (sec): 4.000000E-2
Scans to average: 1
Electric dark correction enabled: true
Nonlinearity correction enabled: false
Boxcar width: 0
XAxis mode: Wavelengths
Number of Pixels in Spectrum: 3648
>>>>>Begin Spectral Data<<<<<
178.204	-182.1
178.424	-182.1
178.644	-182.1
178.864	-145.24
179.084	-167.76
179.304	-1.88
179.524	-44.88
179.744	0.17
179.964	98.47
180.184	57.51
180.404	-14.17
180.624	-5.97
180.844	37.03
181.064	41.13
181.283	-75.6
181.503	-75.6
181.723	-16.21
181.943	-71.51
182.163	67.75
182.383	20.65
182.602	106.67
182.822	75.95
183.042	96.43
183.262	16.55
183.482	39.08
183.701	24.75
183.921	37.03
184.141	-16.21
184.361	45.23
184.58	84.14
184.8	8.36
185.02	12.46
185.239	118.95
185.459	67.75
185.679	37.03
185.898	-36.69
186.118	125.1
186.338	4.27
186.557	41.13
186.777	-14.17
186.997	53.42
187.216	-38.74
187.436	116.9
187.655	12.46
187.875	75.95
188.095	39.08
188.314	84.14
188.534	75.95
188.753	98.47
188.973	102.57
189.192	30.89
189.412	92.33
189.631	28.84
189.851	-28.5
190.07	75.95
190.29	-12.12
190.509	32.94
190.729	-48.98
190.948	-34.64
191.168	219.3
191.387	49.32
191.607	14.51
191.826	-69.46
192.045	57.51
192.265	-32.6
192.484	-5.97
192.704	73.9
192.923	28.84
193.142	166.06
193.362	94.38
193.581	96.43
193.8	98.47
194.02	49.32
194.239	61.61
194.458	90.28
194.678	26.79
194.897	-12.12
195.116	73.9
195.335	12.46
195.555	69.8
195.774	98.47
195.993	71.85
196.212	57.51
196.432	84.14
196.651	106.67
196.87	43.18
197.089	155.82
197.308	63.66
197.528	123.05
197.747	-8.02
197.966	-24.4
198.185	73.9
198.404	41.13
198.623	90.28
198.842	98.47
199.062	98.47
199.281	100.52
199.5	24.75
199.719	22.7
199.938	49.32
200.157	43.18
200.376	106.67
200.595	57.51
200.814	-3.93
201.033	41.13
201.252	100.52
201.471	86.19
201.69	84.14
201.909	45.23
202.128	71.85
202.347	80.04
202.566	20.65
202.785	-10.07
203.004	16.55
203.223	116.9
203.442	-12.12
203.661	67.75
203.879	49.32
204.098	73.9
204.317	-5.97
204.536	108.71
204.755	73.9
204.974	123.05
205.193	65.71
205.411	151.72
205.63	41.13
205.849	12.46
206.068	49.32
206.287	24.75
206.505	47.27
206.724	0.17
206.943	32.94
207.162	14.51
207.381	71.85
207.599	57.51
207.818	37.03
208.037	41.13
208.255	-3.93
208.474	41.13
208.693	88.23
208.911	34.99
209.13	102.57
209.349	43.18
209.567	12.46
209.786	106.67
210.005	73.9
210.223	32.94
210.442	-8.02
210.661	20.65
210.879	90.28
211.098	18.6
211.316	30.89
211.535	45.23
211.753	90.28
211.972	26.79
212.191	32.94
212.409	41.13
212.628	-38.74
212.846	49.32
213.065	104.62
213.283	77.99
213.502	53.42
213.72	14.51
213.938	-3.93
214.157	77.99
214.375	98.47
214.594	108.71
214.812	2.22
215.031	-12.12
215.249	49.32
215.467	37.03
215.686	-44.88
215.904	98.47
216.122	71.85
216.341	92.33
216.559	32.94
216.778	71.85
216.996	10.41
217.214	-5.97
217.432	-10.07
217.651	57.51
217.869	90.28
218.087	18.6
218.306	-5.97
218.524	80.04
218.742	12.46
218.96	-5.97
219.179	114.86
219.397	110.76
219.615	108.71
219.833	106.67
220.051	-69.46
220.27	32.94
220.488	69.8
220.706	20.65
220.924	-18.26
221.142	-8.02
221.36	51.37
221.578	32.94
221.796	63.66
222.015	12.46
222.233	26.79
222.451	55.47
222.669	-5.97
222.887	65.71
223.105	-46.93
223.323	-10.07
223.541	37.03
223.759	4.27
223.977	-12.12
224.195	86.19
224.413	43.18
224.631	86.19
224.849	49.32
225.067	102.57
225.285	-18.26
225.503	-5.97
225.721	10.41
225.939	8.36
226.157	43.18
226.375	80.04
226.592	77.99
226.81	20.65
227.028	32.94
227.246	49.32
227.464	18.6
227.682	96.43
227.9	49.32
228.117	123.05
228.335	32.94
228.553	45.23
228.771	47.27
228.989	82.09
229.206	28.84
229.424	84.14
229.642	39.08
229.86	4.27
230.077	8.36
230.295	4.27
230.513	61.61
230.731	45.23
230.948	125.1
231.166	18.6
231.384	53.42
231.601	28.84
231.819	106.67
232.037	4.27
232.254	12.46
232.472	34.99
232.689	-36.69
232.907	57.51
233.125	131.24
233.342	28.84
233.56	-38.74
233.777	-14.17
233.995	4.27
234.213	82.09
234.43	55.47
234.648	43.18
234.865	24.75
235.083	10.41
235.3	198.82
235.518	57.51
235.735	106.67
235.953	121
236.17	86.19
236.388	-24.4
236.605	75.95
236.822	84.14
237.04	90.28
237.257	-1.88
237.475	-30.55
237.692	47.27
237.909	73.9
238.127	18.6
238.344	86.19
238.562	18.6
238.779	-8.02
238.996	24.75
239.214	51.37
239.431	100.52
239.648	26.79
239.865	57.51
240.083	77.99
240.3	30.89
240.517	22.7
240.735	73.9
240.952	49.32
241.169	161.96
241.386	-1.88
241.603	-5.97
241.821	4.27
242.038	16.55
242.255	104.62
242.472	-5.97
242.689	102.57
242.907	92.33
243.124	49.32
243.341	86.19
243.558	20.65
243.775	-98.13
243.992	28.84
244.209	121
244.426	102.57
244.643	39.08
244.86	77.99
245.078	71.85
245.295	20.65
245.512	14.51
245.729	16.55
245.946	69.8
246.163	114.86
246.38	26.79
246.597	28.84
246.814	16.55
247.031	77.99
247.248	100.52
247.464	12.46
247.681	26.79
247.898	135.34
248.115	47.27
248.332	47.27
248.549	100.52
248.766	170.15
248.983	-3.93
249.2	67.75
249.417	92.33
249.633	-24.4
249.85	57.51
250.067	-20.31
250.284	-3.93
250.501	77.99
250.717	16.55
250.934	53.42
251.151	-16.21
251.368	102.57
251.585	-10.07
251.801	8.36
252.018	-1.88
252.235	37.03
252.451	14.51
252.668	18.6
252.885	61.61
253.102	10.41
253.318	37.03
253.535	-16.21
253.752	67.75
253.968	18.6
254.185	51.37
254.401	53.42
254.618	43.18
254.835	14.51
255.051	51.37
255.268	67.75
255.484	112.81
255.701	104.62
255.917	59.56
256.134	-34.64
256.351	67.75
256.567	71.85
256.784	41.13
257	-18.26
257.217	-18.26
257.433	131.24
257.65	59.56
257.866	141.48
258.082	-1.88
258.299	20.65
258.515	57.51
258.732	14.51
258.948	84.14
259.165	49.32
259.381	34.99
259.597	39.08
259.814	71.85
260.03	45.23
260.246	20.65
260.463	-5.97
260.679	133.29
260.895	65.71
261.112	88.23
261.328	8.36
261.544	49.32
261.761	133.29
261.977	41.13
262.193	-5.97
262.409	57.51
262.626	18.6
262.842	75.95
263.058	37.03
263.274	178.34
263.49	139.43
263.707	94.38
263.923	57.51
264.139	10.41
264.355	55.47
264.571	155.82
264.787	61.61
265.004	45.23
265.22	0.17
265.436	-12.12
265.652	37.03
265.868	118.95
266.084	67.75
266.3	24.75
266.516	-8.02
266.732	28.84
266.948	98.47
267.164	32.94
267.38	102.57
267.596	57.51
267.812	157.86
268.028	10.41
268.244	37.03
268.46	-40.79
268.676	-22.36
268.892	100.52
269.108	16.55
269.324	41.13
269.54	51.37
269.756	121
269.972	-36.69
270.188	-8.02
270.403	8.36
270.619	61.61
270.835	92.33
271.051	53.42
271.267	32.94
271.483	24.75
271.698	61.61
271.914	59.56
272.13	34.99
272.346	41.13
272.562	90.28
272.777	106.67
272.993	16.55
273.209	53.42
273.425	94.38
273.64	57.51
273.856	71.85
274.072	37.03
274.287	75.95
274.503	108.71
274.719	69.8
274.934	55.47
275.15	-8.02
275.366	18.6
275.581	49.32
275.797	37.03
276.012	75.95
276.228	37.03
276.444	75.95
276.659	37.03
276.875	8.36
277.09	61.61
277.306	75.95
277.521	116.9
277.737	55.47
277.952	112.81
278.168	0.17
278.383	65.71
278.599	-63.32
278.814	55.47
279.03	65.71
279.245	116.9
279.461	20.65
279.676	104.62
279.892	-28.5
280.107	-5.97
280.322	18.6
280.538	75.95
280.753	26.79
280.969	18.6
281.184	77.99
281.399	98.47
281.615	51.37
281.83	39.08
282.045	18.6
282.26	24.75
282.476	53.42
282.691	28.84
282.906	53.42
283.122	90.28
283.337	71.85
283.552	137.38
283.767	24.75
283.983	24.75
284.198	47.27
284.413	20.65
284.628	0.17
284.843	24.75
285.058	77.99
285.274	98.47
285.489	114.86
285.704	65.71
285.919	14.51
286.134	67.75
286.349	32.94
286.564	69.8
286.779	108.71
286.995	18.6
287.21	-26.45
287.425	90.28
287.64	30.89
287.855	55.47
288.07	-18.26
288.285	75.95
288.5	49.32
288.715	69.8
288.93	-8.02
289.145	73.9
289.36	32.94
289.575	6.31
289.79	-3.93
290.004	41.13
290.219	116.9
290.434	10.41
290.649	77.99
290.864	-1.88
291.079	8.36
291.294	69.8
291.509	10.41
291.724	51.37
291.938	47.27
292.153	96.43
292.368	71.85
292.583	86.19
292.798	47.27
293.012	28.84
293.227	57.51
293.442	75.95
293.657	67.75
293.871	53.42
294.086	26.79
294.301	188.58
294.516	57.51
294.73	18.6
294.945	-38.74
295.16	61.61
295.374	106.67
295.589	129.19
295.804	-16.21
296.018	-26.45
296.233	98.47
296.447	82.09
296.662	-32.6
296.877	24.75
297.091	75.95
297.306	90.28
297.52	8.36
297.735	-3.93
297.949	104.62
298.164	108.71
298.378	82.09
298.593	22.7
298.807	22.7
299.022	116.9
299.236	127.14
299.451	34.99
299.665	53.42
299.88	49.32
300.094	16.55
300.309	75.95
300.523	92.33
300.737	69.8
300.952	-32.6
301.166	90.28
301.381	69.8
301.595	-3.93
301.809	28.84
302.024	8.36
302.238	65.71
302.452	53.42
302.667	65.71
302.881	34.99
303.095	39.08
303.309	84.14
303.524	47.27
303.738	-3.93
303.952	16.55
304.166	57.51
304.381	-85.84
304.595	88.23
304.809	73.9
305.023	65.71
305.237	16.55
305.452	118.95
305.666	180.39
305.88	51.37
306.094	159.91
306.308	112.81
306.522	26.79
306.736	118.95
306.95	75.95
307.164	34.99
307.379	-46.93
307.593	65.71
307.807	77.99
308.021	71.85
308.235	84.14
308.449	-26.45
308.663	61.61
308.877	227.5
309.091	18.6
309.305	104.62
309.519	16.55
309.733	75.95
309.947	84.14
310.161	0.17
310.374	-18.26
310.588	86.19
310.802	26.79
311.016	45.23
311.23	65.71
311.444	2.22
311.658	65.71
311.872	92.33
312.085	96.43
312.299	106.67
312.513	133.29
312.727	24.75
312.941	24.75
313.154	34.99
313.368	102.57
313.582	100.52
313.796	131.24
314.009	57.51
314.223	86.19
314.437	116.9
314.651	141.48
314.864	75.95
315.078	-63.32
315.292	2.22
315.505	39.08
315.719	51.37
315.933	-10.07
316.146	67.75
316.36	-24.4
316.573	73.9
316.787	32.94
317.001	67.75
317.214	57.51
317.428	98.47
317.641	49.32
317.855	57.51
318.068	49.32
318.282	53.42
318.495	94.38
318.709	114.86
318.922	43.18
319.136	75.95
319.349	108.71
319.563	43.18
319.776	92.33
319.99	10.41
320.203	43.18
320.417	-1.88
320.63	75.95
320.843	164.01
321.057	45.23
321.27	118.95
321.483	129.19
321.697	57.51
321.91	135.34
322.124	88.23
322.337	100.52
322.55	-1.88
322.763	75.95
322.977	86.19
323.19	69.8
323.403	32.94
323.617	51.37
323.83	34.99
324.043	73.9
324.256	108.71
324.469	-3.93
324.683	139.43
324.896	47.27
325.109	123.05
325.322	63.66
325.535	57.51
325.748	108.71
325.962	71.85
326.175	24.75
326.388	84.14
326.601	30.89
326.814	-30.55
327.027	90.28
327.24	34.99
327.453	6.31
327.666	47.27
327.879	159.91
328.092	82.09
328.305	53.42
328.518	18.6
328.731	55.47
328.944	98.47
329.157	49.32
329.37	20.65
329.583	155.82
329.796	86.19
330.009	26.79
330.222	22.7
330.435	49.32
330.648	57.51
330.861	67.75
331.073	49.32
331.286	114.86
331.499	77.99
331.712	-24.4
331.925	45.23
332.138	28.84
332.35	106.67
332.563	57.51
332.776	49.32
332.989	-34.64
333.202	49.32
333.414	94.38
333.627	-3.93
333.84	47.27
334.053	59.56
334.265	55.47
334.478	-22.36
334.691	53.42
334.903	69.8
335.116	49.32
335.329	45.23
335.541	49.32
335.754	133.29
335.966	-10.07
336.179	41.13
336.392	77.99
336.604	34.99
336.817	88.23
337.029	43.18
337.242	-26.45
337.454	110.76
337.667	59.56
337.88	102.57
338.092	86.19
338.305	114.86
338.517	26.79
338.729	41.13
338.942	75.95
339.154	-40.79
339.367	39.08
339.579	69.8
339.792	24.75
340.004	114.86
340.217	55.47
340.429	75.95
340.641	41.13
340.854	49.32
341.066	73.9
341.278	123.05
341.491	49.32
341.703	172.2
341.915	24.75
342.128	149.67
342.34	49.32
342.552	61.61
342.764	8.36
342.977	24.75
343.189	28.84
343.401	67.75
343.613	-40.79
343.826	2.22
344.038	-16.21
344.25	55.47
344.462	32.94
344.674	28.84
344.886	45.23
345.099	112.81
345.311	-1.88
345.523	12.46
345.735	24.75
345.947	0.17
346.159	26.79
346.371	67.75
346.583	55.47
346.795	55.47
347.007	47.27
347.219	123.05
347.431	55.47
347.643	86.19
347.855	12.46
348.067	51.37
348.279	39.08
348.491	41.13
348.703	164.01
348.915	0.17
349.127	0.17
349.339	65.71
349.551	37.03
349.763	104.62
349.975	34.99
350.187	110.76
350.399	67.75
350.61	96.43
350.822	16.55
351.034	57.51
351.246	59.56
351.458	77.99
351.669	168.1
351.881	88.23
352.093	102.57
352.305	147.62
352.517	94.38
352.728	129.19
352.94	77.99
353.152	0.17
353.363	2.22
353.575	131.24
353.787	90.28
353.999	92.33
354.21	121
354.422	16.55
354.633	-8.02
354.845	2.22
355.057	24.75
355.268	37.03
355.48	65.71
355.692	98.47
355.903	63.66
356.115	-10.07
356.326	61.61
356.538	98.47
356.749	151.72
356.961	102.57
357.172	49.32
357.384	-8.02
357.595	155.82
357.807	106.67
358.018	65.71
358.23	123.05
358.441	143.53
358.653	8.36
358.864	20.65
359.075	6.31
359.287	102.57
359.498	84.14
359.709	88.23
359.921	47.27
360.132	125.1
360.344	22.7
360.555	55.47
360.766	37.03
360.977	0.17
361.189	12.46
361.4	73.9
361.611	104.62
361.823	59.56
362.034	75.95
362.245	-10.07
362.456	108.71
362.667	63.66
362.879	57.51
363.09	37.03
363.301	114.86
363.512	88.23
363.723	77.99
363.935	37.03
364.146	77.99
364.357	125.1
364.568	57.51
364.779	28.84
364.99	94.38
365.201	14.51
365.412	100.52
365.623	12.46
365.834	37.03
366.045	39.08
366.256	53.42
366.467	30.89
366.678	82.09
366.889	88.23
367.1	32.94
367.311	123.05
367.522	2.22
367.733	82.09
367.944	84.14
368.155	86.19
368.366	34.99
368.577	4.27
368.788	69.8
368.999	18.6
369.209	18.6
369.42	123.05
369.631	141.48
369.842	2.22
370.053	8.36
370.264	108.71
370.474	-12.12
370.685	2.22
370.896	34.99
371.107	114.86
371.317	65.71
371.528	-22.36
371.739	137.38
371.95	116.9
372.16	82.09
372.371	6.31
372.582	80.04
372.792	57.51
373.003	41.13
373.214	73.9
373.424	92.33
373.635	45.23
373.846	100.52
374.056	69.8
374.267	69.8
374.477	57.51
374.688	-3.93
374.898	63.66
375.109	32.94
375.319	51.37
375.53	82.09
375.74	59.56
375.951	51.37
376.161	4.27
376.372	94.38
376.582	16.55
376.793	114.86
377.003	59.56
377.214	114.86
377.424	14.51
377.635	110.76
377.845	26.79
378.055	92.33
378.266	10.41
378.476	18.6
378.686	6.31
378.897	73.9
379.107	143.53
379.317	67.75
379.528	98.47
379.738	137.38
379.948	18.6
380.158	157.86
380.369	-5.97
380.579	75.95
380.789	-30.55
380.999	88.23
381.21	28.84
381.42	184.49
381.63	39.08
381.84	49.32
382.05	51.37
382.261	75.95
382.471	82.09
382.681	55.47
382.891	135.34
383.101	67.75
383.311	0.17
383.521	20.65
383.731	190.63
383.941	127.14
384.151	86.19
384.361	63.66
384.571	139.43
384.781	106.67
384.991	168.1
385.201	200.87
385.411	88.23
385.621	22.7
385.831	75.95
386.041	63.66
386.251	61.61
386.461	147.62
386.671	71.85
386.881	112.81
387.091	80.04
387.301	110.76
387.511	90.28
387.72	172.2
387.93	77.99
388.14	34.99
388.35	71.85
388.56	98.47
388.769	133.29
388.979	16.55
389.189	84.14
389.399	98.47
389.609	59.56
389.818	116.9
390.028	116.9
390.238	67.75
390.447	16.55
390.657	118.95
390.867	75.95
391.076	41.13
391.286	94.38
391.496	65.71
391.705	67.75
391.915	159.91
392.125	149.67
392.334	55.47
392.544	63.66
392.753	55.47
392.963	16.55
393.172	32.94
393.382	26.79
393.591	127.14
393.801	88.23
394.01	178.34
394.22	174.25
394.429	75.95
394.639	102.57
394.848	139.43
395.058	61.61
395.267	63.66
395.477	106.67
395.686	133.29
395.895	135.34
396.105	176.3
396.314	61.61
396.524	100.52
396.733	6.31
396.942	178.34
397.152	98.47
397.361	112.81
397.57	55.47
397.78	121
397.989	188.58
398.198	225.45
398.407	100.52
398.617	123.05
398.826	82.09
399.035	166.06
399.244	153.77
399.453	63.66
399.663	137.38
399.872	116.9
400.081	90.28
400.29	129.19
400.499	112.81
400.708	166.06
400.917	28.84
401.127	94.38
401.336	123.05
401.545	204.97
401.754	174.25
401.963	164.01
402.172	178.34
402.381	100.52
402.59	116.9
402.799	45.23
403.008	239.78
403.217	94.38
403.426	116.9
403.635	75.95
403.844	157.86
404.053	102.57
404.262	143.53
404.471	213.16
404.68	129.19
404.888	166.06
405.097	98.47
405.306	211.11
405.515	149.67
405.724	125.1
405.933	260.26
406.142	170.15
406.35	231.59
406.559	258.21
406.768	139.43
406.977	282.79
407.185	217.26
407.394	159.91
407.603	229.54
407.812	262.31
408.02	250.02
408.229	272.55
408.438	172.2
408.646	198.82
408.855	229.54
409.064	233.64
409.272	290.98
409.481	305.32
409.69	211.11
409.898	237.74
410.107	262.31
410.315	366.76
410.524	315.56
410.733	385.19
410.941	368.81
411.15	393.38
411.358	432.29
411.567	383.14
411.775	381.09
411.984	424.1
412.192	475.3
412.401	342.18
412.609	506.02
412.818	495.78
413.026	499.88
413.234	471.2
413.443	467.11
413.651	522.4
413.86	569.51
414.068	632.99
414.276	628.9
414.485	647.33
414.693	676
414.901	753.82
415.11	770.21
415.318	729.25
415.526	725.15
415.734	798.88
415.943	829.6
416.151	862.37
416.359	825.5
416.567	839.84
416.776	850.08
416.984	948.38
417.192	975
417.4	975
417.608	942.24
417.817	975
418.025	1073.31
418.233	1106.07
418.441	1095.83
418.649	1171.61
418.857	1194.14
419.065	1392.79
419.273	1233.05
419.481	1284.25
419.689	1478.8
419.897	1491.09
420.105	1454.23
420.313	1452.18
420.521	1679.51
420.729	1577.11
420.937	1613.97
421.145	1679.51
421.353	1820.81
421.561	1900.69
421.769	1962.12
421.977	1917.07
422.185	2023.56
422.393	2140.3
422.601	2211.98
422.809	2277.51
423.017	2254.98
423.224	2357.38
423.432	2449.54
423.64	2455.69
423.848	2760.83
424.056	2605.19
424.263	2818.18
424.471	2787.46
424.679	2857.09
424.887	3068.03
425.094	3065.98
425.302	3113.08
425.51	3244.15
425.718	3289.21
425.925	3287.16
426.133	3592.31
426.341	3747.95
426.548	3657.84
426.756	3760.24
426.964	4024.43
427.171	4173.93
427.379	4268.14
427.586	4354.15
427.794	4358.25
428.001	4776.03
428.209	4773.99
428.417	4753.51
428.624	5122.14
428.832	5132.38
429.039	5011.55
429.247	5099.61
429.454	5709.91
429.662	5908.56
429.869	5509.21
430.076	5920.85
430.284	5804.11
430.491	6090.83
430.699	6246.48
430.906	6445.13
431.114	6520.9
431.321	6678.6
431.528	6959.17
431.736	7272.51
431.943	7678.01
432.15	7325.75
432.358	7542.84
432.565	8011.82
432.772	7864.37
432.979	8228.91
433.187	8437.8
433.394	8198.19
433.601	9121.82
433.808	9078.82
434.016	8912.93
434.223	9359.39
434.43	9848.85
434.637	9793.56
434.844	10407.95
435.052	10602.5
435.259	10399.76
435.466	10702.86
435.673	10424.33
435.88	11204.61
436.087	11796.47
436.294	11767.8
436.501	11665.4
436.708	11829.24
436.915	12279.79
437.122	12773.35
437.329	12490.73
437.537	13015.01
437.743	13250.53
437.95	13248.48
438.157	13895.64
438.364	14235.6
438.571	14127.06
438.778	14434.25
438.985	15665.08
439.192	14948.29
439.399	15517.63
439.606	15310.79
439.813	16117.68
440.02	17205.16
440.227	16740.27
440.433	16787.37
440.64	17090.47
440.847	17221.54
441.054	17694.62
441.261	18605.97
441.467	18536.34
441.674	18902.92
441.881	19394.43
442.088	19494.79
442.294	19183.49
442.501	20062.07
442.708	20262.77
442.914	20748.14
443.121	21825.37
443.328	21022.57
443.534	22783.82
443.741	22138.71
443.948	21792.61
444.154	23633.73
444.361	23430.98
444.568	23629.63
444.774	23623.49
444.981	23889.73
445.187	24379.19
445.394	25382.7
445.6	25325.35
445.807	27766.53
446.013	26369.82
446.22	26896.14
446.426	28051.2
446.633	28126.97
446.839	29130.48
447.046	27987.71
447.252	29527.78
447.459	29519.59
447.665	29492.97
447.871	30744.28
448.078	31993.54
448.284	30303.96
448.491	31778.5
448.697	32689.85
448.903	33535.66
449.11	33466.03
449.316	33154.74
449.522	33570.47
449.728	34035.36
449.935	34598.55
450.141	34485.92
450.347	35241.62
450.553	33986.21
450.76	34989.72
450.966	35978.89
451.172	35751.56
451.378	36277.89
451.584	35860.1
451.791	36775.55
451.997	36490.88
452.203	37054.07
452.409	37348.98
452.615	36933.24
452.821	35720.84
453.027	35417.74
453.233	37076.6
453.44	35702.41
453.646	36220.55
453.852	36406.91
454.058	37424.75
454.264	36025.99
454.47	37105.27
454.676	35765.9
454.882	37133.94
455.088	33838.76
455.294	34399.9
455.5	35167.89
455.705	35540.62
455.911	33824.42
456.117	33334.96
456.323	32614.07
456.529	30789.33
456.735	32198.34
456.941	31936.2
457.147	30992.08
457.352	30080.74
457.558	30019.3
457.764	29865.7
457.97	29693.67
458.176	28518.14
458.381	28819.19
458.587	26928.91
458.793	27301.64
458.999	26093.34
459.204	27727.62
459.41	27025.17
459.616	25386.79
459.821	25540.39
460.027	24837.94
460.233	24796.98
460.438	23738.18
460.644	23693.12
460.85	22710.1
461.055	22212.44
461.261	22269.78
461.466	20705.13
461.672	19939.19
461.878	21354.34
462.083	19791.74
462.289	19586.94
462.494	19330.95
462.7	18632.59
462.905	17905.56
463.111	18900.87
463.316	18634.64
463.522	18227.09
463.727	18378.64
463.932	18210.71
464.138	18079.64
464.343	18079.64
464.549	17248.16
464.754	18155.41
464.959	18007.96
465.165	17893.27
465.37	17229.73
465.575	16476.08
465.781	17194.92
465.986	17270.69
466.191	16719.79
466.397	16592.81
466.602	15556.54
466.807	16185.27
