Data from USB4F104151__64__13-05-52-160.txt Node

Date: Fri Mar 14 13:05:52 EDT 2025
User: louis
Spectrometer: USB4F10415
Trigger mode: 4
Integration Time (sec): 4.000000E-2
Scans to average: 1
Electric dark correction enabled: true
Nonlinearity correction enabled: false
Boxcar width: 0
XAxis mode: Wavelengths
Number of Pixels in Spectrum: 3648
>>>>>Begin Spectral Data<<<<<
178.204	-261.12
178.424	-261.12
178.644	-261.12
178.864	-162.81
179.084	-156.67
179.304	-35.84
179.524	-25.6
179.744	1.02
179.964	23.55
180.184	-33.79
180.404	-1.02
180.624	68.61
180.844	-11.26
181.064	5.12
181.283	15.36
181.503	-3.07
181.723	-3.07
181.943	-44.03
182.163	91.13
182.383	-41.98
182.602	33.79
182.822	60.42
183.042	-33.79
183.262	-35.84
183.482	-27.65
183.701	29.7
183.921	35.84
184.141	-31.74
184.361	97.28
184.58	-9.22
184.8	48.13
185.02	-9.22
185.239	37.89
185.459	15.36
185.679	97.28
185.898	-33.79
186.118	23.55
186.338	91.13
186.557	35.84
186.777	9.22
186.997	25.6
187.216	-15.36
187.436	41.98
187.655	27.65
187.875	99.33
188.095	-29.7
188.314	76.8
188.534	128
188.753	33.79
188.973	7.17
189.192	95.23
189.412	-13.31
189.631	11.26
189.851	105.47
190.07	99.33
190.29	-46.08
190.509	21.5
190.729	-29.7
190.948	66.56
191.168	238.59
191.387	17.41
191.607	-48.13
191.826	7.17
192.045	95.23
192.265	-33.79
192.484	68.61
192.704	58.37
192.923	1.02
193.142	148.48
193.362	7.17
193.581	97.28
193.8	148.48
194.02	52.22
194.239	52.22
194.458	31.74
194.678	15.36
194.897	44.03
195.116	44.03
195.335	48.13
195.555	101.37
195.774	9.22
195.993	-5.12
196.212	-29.7
196.432	3.07
196.651	19.46
196.87	56.32
197.089	107.52
197.308	-33.79
197.528	80.89
197.747	-89.09
197.966	21.5
198.185	80.89
198.404	-39.94
198.623	44.03
198.842	82.94
199.062	17.41
199.281	166.91
199.5	31.74
199.719	-9.22
199.938	105.47
200.157	125.95
200.376	89.09
200.595	27.65
200.814	44.03
201.033	-37.89
201.252	101.37
201.471	64.51
201.69	82.94
201.909	50.18
202.128	46.08
202.347	142.33
202.566	33.79
202.785	35.84
203.004	35.84
203.223	103.42
203.442	15.36
203.661	1.02
203.879	7.17
204.098	78.85
204.317	7.17
204.536	62.46
204.755	107.52
204.974	113.66
205.193	66.56
205.411	113.66
205.63	27.65
205.849	-25.6
206.068	31.74
206.287	44.03
206.505	41.98
206.724	56.32
206.943	23.55
207.162	-15.36
207.381	19.46
207.599	25.6
207.818	37.89
208.037	33.79
208.255	60.42
208.474	97.28
208.693	64.51
208.911	46.08
209.13	48.13
209.349	11.26
209.567	31.74
209.786	33.79
210.005	123.9
210.223	46.08
210.442	-89.09
210.661	84.99
210.879	3.07
211.098	101.37
211.316	52.22
211.535	72.7
211.753	21.5
211.972	68.61
212.191	48.13
212.409	41.98
212.628	58.37
212.846	-3.07
213.065	48.13
213.283	97.28
213.502	64.51
213.72	19.46
213.938	54.27
214.157	31.74
214.375	9.22
214.594	25.6
214.812	41.98
215.031	-29.7
215.249	33.79
215.467	-25.6
215.686	56.32
215.904	46.08
216.122	48.13
216.341	123.9
216.559	60.42
216.778	181.25
216.996	132.09
217.214	17.41
217.432	23.55
217.651	21.5
217.869	17.41
218.087	101.37
218.306	-35.84
218.524	46.08
218.742	-1.02
218.96	68.61
219.179	-15.36
219.397	66.56
219.615	146.43
219.833	119.81
220.051	27.65
220.27	56.32
220.488	101.37
220.706	103.42
220.924	91.13
221.142	17.41
221.36	58.37
221.578	7.17
221.796	1.02
222.015	9.22
222.233	-3.07
222.451	175.1
222.669	-44.03
222.887	68.61
223.105	27.65
223.323	46.08
223.541	-23.55
223.759	-41.98
223.977	44.03
224.195	78.85
224.413	48.13
224.631	25.6
224.849	76.8
225.067	115.71
225.285	-76.8
225.503	50.18
225.721	-46.08
225.939	-1.02
226.157	44.03
226.375	154.62
226.592	-31.74
226.81	17.41
227.028	72.7
227.246	146.43
227.464	-9.22
227.682	175.1
227.9	27.65
228.117	113.66
228.335	-15.36
228.553	66.56
228.771	37.89
228.989	58.37
229.206	33.79
229.424	1.02
229.642	66.56
229.86	-9.22
230.077	128
230.295	-17.41
230.513	134.14
230.731	68.61
230.948	105.47
231.166	119.81
231.384	-5.12
231.601	50.18
231.819	125.95
232.037	80.89
232.254	1.02
232.472	25.6
232.689	-70.65
232.907	11.26
233.125	-5.12
233.342	87.04
233.56	68.61
233.777	62.46
233.995	68.61
234.213	95.23
234.43	17.41
234.648	64.51
234.865	31.74
235.083	64.51
235.3	95.23
235.518	39.94
235.735	84.99
235.953	-9.22
236.17	60.42
236.388	1.02
236.605	21.5
236.822	84.99
237.04	50.18
237.257	19.46
237.475	-78.85
237.692	-9.22
237.909	39.94
238.127	50.18
238.344	117.76
238.562	9.22
238.779	-68.61
238.996	21.5
239.214	9.22
239.431	35.84
239.648	-13.31
239.865	107.52
240.083	72.7
240.3	9.22
240.517	21.5
240.735	107.52
240.952	41.98
241.169	23.55
241.386	27.65
241.603	-23.55
241.821	9.22
242.038	66.56
242.255	7.17
242.472	27.65
242.689	21.5
242.907	66.56
243.124	89.09
243.341	41.98
243.558	5.12
243.775	41.98
243.992	58.37
244.209	33.79
244.426	171.01
244.643	113.66
244.86	7.17
245.078	17.41
245.295	44.03
245.512	41.98
245.729	-27.65
245.946	48.13
246.163	56.32
246.38	9.22
246.597	-13.31
246.814	-7.17
247.031	-52.22
247.248	80.89
247.464	-3.07
247.681	-17.41
247.898	41.98
248.115	74.75
248.332	-17.41
248.549	91.13
248.766	158.72
248.983	95.23
249.2	39.94
249.417	66.56
249.633	52.22
249.85	134.14
250.067	37.89
250.284	39.94
250.501	33.79
250.717	76.8
250.934	-21.5
251.151	-5.12
251.368	-19.46
251.585	64.51
251.801	19.46
252.018	-41.98
252.235	105.47
252.451	-29.7
252.668	31.74
252.885	97.28
253.102	62.46
253.318	-3.07
253.535	13.31
253.752	58.37
253.968	121.85
254.185	19.46
254.401	7.17
254.618	82.94
254.835	9.22
255.051	62.46
255.268	60.42
255.484	23.55
255.701	31.74
255.917	48.13
256.134	84.99
256.351	48.13
256.567	39.94
256.784	72.7
257	76.8
257.217	66.56
257.433	23.55
257.65	19.46
257.866	74.75
258.082	7.17
258.299	87.04
258.515	60.42
258.732	58.37
258.948	-9.22
259.165	70.65
259.381	-5.12
259.597	44.03
259.814	72.7
260.03	39.94
260.246	21.5
260.463	107.52
260.679	80.89
260.895	72.7
261.112	13.31
261.328	-1.02
261.544	-3.07
261.761	201.72
261.977	7.17
262.193	-1.02
262.409	27.65
262.626	29.7
262.842	48.13
263.058	-25.6
263.274	23.55
263.49	19.46
263.707	89.09
263.923	13.31
264.139	-50.18
264.355	7.17
264.571	-21.5
264.787	121.85
265.004	130.05
265.22	15.36
265.436	82.94
265.652	29.7
265.868	48.13
266.084	64.51
266.3	13.31
266.516	7.17
266.732	105.47
266.948	44.03
267.164	72.7
267.38	-1.02
267.596	23.55
267.812	107.52
268.028	33.79
268.244	-58.37
268.46	-58.37
268.676	78.85
268.892	72.7
269.108	7.17
269.324	37.89
269.54	13.31
269.756	117.76
269.972	-64.51
270.188	11.26
270.403	-31.74
270.619	58.37
270.835	46.08
271.051	48.13
271.267	-17.41
271.483	15.36
271.698	52.22
271.914	50.18
272.13	-3.07
272.346	39.94
272.562	70.65
272.777	82.94
272.993	21.5
273.209	-46.08
273.425	109.57
273.64	-7.17
273.856	121.85
274.072	35.84
274.287	33.79
274.503	97.28
274.719	78.85
274.934	52.22
275.15	-11.26
275.366	7.17
275.581	-13.31
275.797	25.6
276.012	9.22
276.228	17.41
276.444	15.36
276.659	17.41
276.875	48.13
277.09	27.65
277.306	21.5
277.521	152.57
277.737	21.5
277.952	64.51
278.168	23.55
278.383	68.61
278.599	66.56
278.814	-25.6
279.03	68.61
279.245	95.23
279.461	105.47
279.676	23.55
279.892	84.99
280.107	-9.22
280.322	3.07
280.538	31.74
280.753	27.65
280.969	80.89
281.184	15.36
281.399	41.98
281.615	89.09
281.83	39.94
282.045	-70.65
282.26	64.51
282.476	19.46
282.691	13.31
282.906	56.32
283.122	-3.07
283.337	62.46
283.552	39.94
283.767	54.27
283.983	128
284.198	9.22
284.413	89.09
284.628	-13.31
284.843	46.08
285.058	48.13
285.274	39.94
285.489	-31.74
285.704	50.18
285.919	17.41
286.134	64.51
286.349	39.94
286.564	25.6
286.779	93.18
286.995	-48.13
287.21	41.98
287.425	93.18
287.64	-11.26
287.855	41.98
288.07	11.26
288.285	89.09
288.5	97.28
288.715	37.89
288.93	48.13
289.145	-46.08
289.36	44.03
289.575	115.71
289.79	7.17
290.004	72.7
290.219	130.05
290.434	-9.22
290.649	62.46
290.864	17.41
291.079	52.22
291.294	74.75
291.509	74.75
291.724	60.42
291.938	13.31
292.153	72.7
292.368	101.37
292.583	91.13
292.798	95.23
293.012	80.89
293.227	5.12
293.442	25.6
293.657	25.6
293.871	95.23
294.086	84.99
294.301	146.43
294.516	33.79
294.73	-23.55
294.945	62.46
295.16	56.32
295.374	97.28
295.589	89.09
295.804	39.94
296.018	3.07
296.233	66.56
296.447	27.65
296.662	60.42
296.877	89.09
297.091	87.04
297.306	15.36
297.52	33.79
297.735	101.37
297.949	99.33
298.164	56.32
298.378	89.09
298.593	3.07
298.807	60.42
299.022	66.56
299.236	-11.26
299.451	1.02
299.665	-27.65
299.88	11.26
300.094	80.89
300.309	15.36
300.523	41.98
300.737	27.65
300.952	-5.12
301.166	99.33
301.381	-46.08
301.595	72.7
301.809	58.37
302.024	31.74
302.238	50.18
302.452	50.18
302.667	70.65
302.881	87.04
303.095	13.31
303.309	17.41
303.524	89.09
303.738	-1.02
303.952	-35.84
304.166	48.13
304.381	-58.37
304.595	76.8
304.809	44.03
305.023	64.51
305.237	-52.22
305.452	-11.26
305.666	35.84
305.88	19.46
306.094	76.8
306.308	54.27
306.522	132.09
306.736	54.27
306.95	46.08
307.164	-41.98
307.379	44.03
307.593	101.37
307.807	64.51
308.021	5.12
308.235	52.22
308.449	21.5
308.663	91.13
308.877	125.95
309.091	46.08
309.305	19.46
309.519	41.98
309.733	29.7
309.947	48.13
310.161	146.43
310.374	48.13
310.588	117.76
310.802	109.57
311.016	17.41
311.23	54.27
311.444	111.61
311.658	56.32
311.872	33.79
312.085	93.18
312.299	128
312.513	103.42
312.727	44.03
312.941	-25.6
313.154	13.31
313.368	31.74
313.582	27.65
313.796	31.74
314.009	-58.37
314.223	46.08
314.437	115.71
314.651	105.47
314.864	76.8
315.078	17.41
315.292	-37.89
315.505	52.22
315.719	150.53
315.933	15.36
316.146	-35.84
316.36	-17.41
316.573	132.09
316.787	72.7
317.001	41.98
317.214	54.27
317.428	-35.84
317.641	-58.37
317.855	64.51
318.068	54.27
318.282	89.09
318.495	154.62
318.709	64.51
318.922	93.18
319.136	113.66
319.349	64.51
319.563	99.33
319.776	35.84
319.99	-27.65
320.203	68.61
320.417	11.26
320.63	115.71
320.843	128
321.057	84.99
321.27	-1.02
321.483	39.94
321.697	95.23
321.91	70.65
322.124	72.7
322.337	130.05
322.55	21.5
322.763	-5.12
322.977	41.98
323.19	3.07
323.403	7.17
323.617	68.61
323.83	21.5
324.043	23.55
324.256	113.66
324.469	17.41
324.683	80.89
324.896	-23.55
325.109	54.27
325.322	-19.46
325.535	107.52
325.748	56.32
325.962	19.46
326.175	91.13
326.388	93.18
326.601	72.7
326.814	1.02
327.027	99.33
327.24	21.5
327.453	31.74
327.666	125.95
327.879	39.94
328.092	60.42
328.305	41.98
328.518	23.55
328.731	29.7
328.944	62.46
329.157	33.79
329.37	31.74
329.583	103.42
329.796	72.7
330.009	39.94
330.222	39.94
330.435	103.42
330.648	50.18
330.861	48.13
331.073	66.56
331.286	50.18
331.499	9.22
331.712	-3.07
331.925	66.56
332.138	72.7
332.35	80.89
332.563	-15.36
332.776	82.94
332.989	39.94
333.202	95.23
333.414	25.6
333.627	87.04
333.84	17.41
334.053	82.94
334.265	9.22
334.478	-7.17
334.691	74.75
334.903	39.94
335.116	9.22
335.329	82.94
335.541	35.84
335.754	62.46
335.966	19.46
336.179	44.03
336.392	1.02
336.604	19.46
336.817	109.57
337.029	93.18
337.242	29.7
337.454	105.47
337.667	54.27
337.88	162.81
338.092	80.89
338.305	74.75
338.517	13.31
338.729	35.84
338.942	87.04
339.154	15.36
339.367	44.03
339.579	-9.22
339.792	11.26
340.004	101.37
340.217	11.26
340.429	82.94
340.641	27.65
340.854	-17.41
341.066	76.8
341.278	35.84
341.491	48.13
341.703	52.22
341.915	70.65
342.128	44.03
342.34	25.6
342.552	50.18
342.764	52.22
342.977	27.65
343.189	93.18
343.401	109.57
343.613	-56.32
343.826	76.8
344.038	31.74
344.25	52.22
344.462	-13.31
344.674	105.47
344.886	1.02
345.099	23.55
345.311	113.66
345.523	1.02
345.735	11.26
345.947	19.46
346.159	41.98
346.371	66.56
346.583	48.13
346.795	15.36
347.007	31.74
347.219	66.56
347.431	44.03
347.643	15.36
347.855	-27.65
348.067	72.7
348.279	-7.17
348.491	27.65
348.703	52.22
348.915	107.52
349.127	-80.89
349.339	48.13
349.551	3.07
349.763	130.05
349.975	-25.6
350.187	97.28
350.399	64.51
350.61	74.75
350.822	39.94
351.034	41.98
351.246	72.7
351.458	19.46
351.669	78.85
351.881	99.33
352.093	93.18
352.305	99.33
352.517	48.13
352.728	68.61
352.94	72.7
353.152	56.32
353.363	-9.22
353.575	103.42
353.787	154.62
353.999	91.13
354.21	117.76
354.422	9.22
354.633	44.03
354.845	27.65
355.057	107.52
355.268	144.38
355.48	107.52
355.692	-15.36
355.903	54.27
356.115	64.51
356.326	13.31
356.538	140.29
356.749	99.33
356.961	111.61
357.172	95.23
357.384	105.47
357.595	211.96
357.807	97.28
358.018	9.22
358.23	21.5
358.441	111.61
358.653	1.02
358.864	19.46
359.075	76.8
359.287	-7.17
359.498	107.52
359.709	93.18
359.921	72.7
360.132	80.89
360.344	27.65
360.555	39.94
360.766	72.7
360.977	-46.08
361.189	158.72
361.4	33.79
361.611	80.89
361.823	130.05
362.034	41.98
362.245	-74.75
362.456	76.8
362.667	105.47
362.879	44.03
363.09	31.74
363.301	44.03
363.512	97.28
363.723	66.56
363.935	33.79
364.146	-33.79
364.357	56.32
364.568	146.43
364.779	9.22
364.99	130.05
365.201	31.74
365.412	7.17
365.623	15.36
365.834	35.84
366.045	84.99
366.256	177.15
366.467	-9.22
366.678	72.7
366.889	52.22
367.1	-9.22
367.311	64.51
367.522	70.65
367.733	54.27
367.944	109.57
368.155	27.65
368.366	89.09
368.577	35.84
368.788	97.28
368.999	-3.07
369.209	46.08
369.42	177.15
369.631	99.33
369.842	97.28
370.053	80.89
370.264	138.24
370.474	-13.31
370.685	97.28
370.896	27.65
371.107	70.65
371.317	66.56
371.528	41.98
371.739	125.95
371.95	68.61
372.16	72.7
372.371	-9.22
372.582	76.8
372.792	109.57
373.003	105.47
373.214	72.7
373.424	103.42
373.635	-44.03
373.846	78.85
374.056	78.85
374.267	134.14
374.477	109.57
374.688	136.19
374.898	80.89
375.109	109.57
375.319	39.94
375.53	23.55
375.74	177.15
375.951	31.74
376.161	27.65
376.372	91.13
376.582	-21.5
376.793	121.85
377.003	1.02
377.214	31.74
377.424	56.32
377.635	80.89
377.845	-48.13
378.055	84.99
378.266	1.02
378.476	93.18
378.686	89.09
378.897	99.33
379.107	144.38
379.317	37.89
379.528	25.6
379.738	82.94
379.948	-7.17
380.158	52.22
380.369	56.32
380.579	113.66
380.789	80.89
380.999	156.67
381.21	109.57
381.42	148.48
381.63	80.89
381.84	41.98
382.05	33.79
382.261	82.94
382.471	103.42
382.681	7.17
382.891	158.72
383.101	74.75
383.311	62.46
383.521	56.32
383.731	82.94
383.941	111.61
384.151	146.43
384.361	44.03
384.571	72.7
384.781	99.33
384.991	164.86
385.201	123.9
385.411	15.36
385.621	39.94
385.831	58.37
386.041	113.66
386.251	64.51
386.461	125.95
386.671	60.42
386.881	80.89
387.091	46.08
387.301	56.32
387.511	136.19
387.72	101.37
387.93	162.81
388.14	25.6
388.35	74.75
388.56	113.66
388.769	121.85
388.979	52.22
389.189	-9.22
389.399	9.22
389.609	148.48
389.818	123.9
390.028	62.46
390.238	66.56
390.447	62.46
390.657	125.95
390.867	33.79
391.076	37.89
391.286	70.65
391.496	119.81
391.705	87.04
391.915	60.42
392.125	103.42
392.334	48.13
392.544	134.14
392.753	93.18
392.963	76.8
393.172	107.52
393.382	46.08
393.591	187.39
393.801	99.33
394.01	138.24
394.22	160.77
394.429	156.67
394.639	111.61
394.848	103.42
395.058	156.67
395.267	91.13
395.477	97.28
395.686	130.05
395.895	148.48
396.105	154.62
396.314	105.47
396.524	89.09
396.733	113.66
396.942	152.57
397.152	254.97
397.361	187.39
397.57	99.33
397.78	35.84
397.989	82.94
398.198	185.34
398.407	101.37
398.617	74.75
398.826	132.09
399.035	105.47
399.244	173.05
399.453	203.77
399.663	146.43
399.872	101.37
400.081	99.33
400.29	179.2
400.499	89.09
400.708	119.81
400.917	27.65
401.127	173.05
401.336	78.85
401.545	134.14
401.754	166.91
401.963	173.05
402.172	41.98
402.381	121.85
402.59	97.28
402.799	123.9
403.008	173.05
403.217	101.37
403.426	187.39
403.635	164.86
403.844	187.39
404.053	76.8
404.262	138.24
404.471	261.12
404.68	181.25
404.888	168.96
405.097	68.61
405.306	166.91
405.515	173.05
405.724	121.85
405.933	220.16
406.142	222.2
406.35	193.53
406.559	195.58
406.768	201.72
406.977	254.97
407.185	246.78
407.394	334.84
407.603	228.35
407.812	207.87
408.02	244.73
408.229	254.97
408.438	230.4
408.646	271.36
408.855	383.99
409.064	359.42
409.272	351.23
409.481	347.13
409.69	265.21
409.898	322.56
410.107	314.36
410.315	404.47
410.524	343.03
410.733	453.63
410.941	400.38
411.15	459.77
411.358	474.1
411.567	556.02
411.775	445.43
411.984	533.5
412.192	433.15
412.401	515.06
412.609	627.7
412.818	637.94
413.026	635.89
413.234	574.46
413.443	570.36
413.651	568.31
413.86	629.75
414.068	830.45
414.276	754.68
414.485	728.05
414.693	914.42
414.901	908.27
415.11	807.92
415.318	840.69
415.526	969.71
415.734	904.18
415.943	855.03
416.151	1002.48
416.359	945.14
416.567	1080.3
416.776	1117.17
416.984	1192.94
417.192	1207.28
417.4	1123.31
417.608	1131.5
417.817	1221.61
418.025	1305.58
418.233	1442.79
418.441	1350.64
418.649	1375.21
418.857	1512.42
419.065	1610.73
419.273	1545.19
419.481	1612.78
419.689	1807.33
419.897	1819.62
420.105	1743.85
420.313	1846.24
420.521	1979.36
420.729	1967.07
420.937	2003.94
421.145	2071.52
421.353	2270.17
421.561	2333.66
421.769	2325.47
421.977	2415.58
422.185	2462.68
422.393	2558.94
422.601	2728.92
422.809	2685.91
423.017	2683.86
423.224	2814.93
423.432	2968.53
423.64	2929.62
423.848	3275.73
424.056	3245.01
424.263	3447.76
424.471	3431.37
424.679	3460.04
424.887	3711.94
425.094	3808.2
425.302	3804.1
425.51	4096.96
425.718	4058.05
425.925	4092.87
426.133	4223.94
426.341	4537.27
426.548	4791.22
426.756	4719.54
426.964	4727.74
427.171	4922.29
427.379	5182.38
427.586	5266.35
427.794	5434.29
428.001	5622.7
428.209	5899.17
428.417	5888.93
428.624	6249.38
428.832	6169.51
429.039	6310.82
429.247	6228.9
429.454	6802.33
429.662	7285.65
429.869	6906.77
430.076	7136.15
430.284	7000.98
430.491	7365.52
430.699	7695.24
430.906	7814.02
431.114	7873.42
431.321	8143.75
431.528	8293.25
431.736	8760.19
431.943	9266.03
432.15	9067.38
432.358	9165.68
432.565	9646.96
432.772	9517.93
432.979	10023.78
433.187	10247.01
433.394	10146.66
433.601	11035.48
433.808	10959.7
434.016	10935.13
434.223	11479.89
434.43	12073.8
434.637	11826
434.844	12518.21
435.052	12813.12
435.259	12753.73
435.466	13042.49
435.673	12933.95
435.88	13652.78
436.087	14400.29
436.294	14394.15
436.501	14140.2
436.708	14197.54
436.915	14725.92
437.122	15651.6
437.329	15317.78
437.537	15760.14
437.743	16096.01
437.95	15850.25
438.157	16857.85
438.364	17552.12
438.571	17357.56
438.778	17711.86
438.985	19247.83
439.192	18475.75
439.399	19008.22
439.606	18467.56
439.813	19634.9
440.02	20769.48
440.227	20257.48
440.433	20472.52
440.64	20918.98
440.847	20587.21
441.054	21123.77
441.261	22772.39
441.467	22385.32
441.674	23007.9
441.881	23911.06
442.088	23542.42
442.294	23204.51
442.501	23706.26
442.708	24855.17
442.914	25242.24
443.121	26774.12
443.328	25586.3
443.534	27777.62
443.741	26958.44
443.948	26296.94
444.154	28578.38
444.361	28363.34
444.568	28904.01
444.774	28484.17
444.981	28777.03
445.187	29868.6
445.394	30804.52
445.6	30503.47
445.807	33692.16
446.013	32016.92
446.22	32762.38
446.426	33950.2
446.633	34216.44
446.839	35791.33
447.046	33614.34
447.252	35979.74
447.459	35828.19
447.665	35967.45
447.871	37183.94
448.078	38922.67
448.284	37007.82
448.491	38085.05
448.697	39643.56
448.903	40278.43
449.11	40837.52
449.316	39883.17
449.522	40446.36
449.728	41902.46
449.935	42301.82
450.141	42076.54
450.347	42588.53
450.553	41615.75
450.76	42594.68
450.966	43598.18
451.172	43008.37
451.378	44384.6
451.584	43676.01
451.791	44663.13
451.997	44210.53
452.203	44949.84
452.409	45152.59
452.615	45138.26
452.821	42908.02
453.027	42891.63
453.233	44951.89
453.44	43327.85
453.646	43575.66
453.852	44106.08
454.058	44841.3
454.264	43678.05
454.47	44609.88
454.676	43606.37
454.882	44374.36
455.088	40933.78
455.294	41570.69
455.5	42348.92
455.705	42772.85
455.911	41005.45
456.117	39954.85
456.323	39848.35
456.529	37738.94
456.735	39569.83
456.941	38517.17
457.147	37913.02
457.352	36469.2
457.558	36198.87
457.764	36153.82
457.97	35715.55
458.176	34965.99
458.381	34812.4
458.587	32944.65
458.793	33296.9
458.999	31566.37
459.204	33743.36
459.41	32451.09
459.616	30542.38
459.821	30812.71
460.027	30544.43
460.233	30153.27
460.438	28371.54
460.644	28854.86
460.85	27513.44
461.055	27038.31
461.261	27101.79
461.466	24947.33
461.672	24140.43
461.878	26346.09
462.083	24369.8
462.289	23536.28
462.494	23294.62
462.7	22192.81
462.905	21867.19
463.111	22768.29
463.316	22487.72
463.522	22524.58
463.727	22149.81
463.932	22133.42
464.138	21764.79
464.343	22327.98
464.549	21144.25
464.754	22256.3
464.959	22145.71
465.165	21699.25
465.37	20710.08
465.575	20308.68
465.781	20982.46
465.986	21101.25
466.191	20464.33
466.397	19665.62
466.602	18856.67
