Data from USB4F104151__84__13-06-14-758.txt Node

Date: Fri Mar 14 13:06:14 EDT 2025
User: louis
Spectrometer: USB4F10415
Trigger mode: 4
Integration Time (sec): 4.000000E-2
Scans to average: 1
Electric dark correction enabled: true
Nonlinearity correction enabled: false
Boxcar width: 0
XAxis mode: Wavelengths
Number of Pixels in Spectrum: 3648
>>>>>Begin Spectral Data<<<<<
178.204	-234.49
178.424	-234.49
178.644	-234.49
178.864	-185.34
179.084	-185.34
179.304	3.07
179.524	-25.6
179.744	-35.84
179.964	103.42
180.184	11.26
180.404	5.12
180.624	-5.12
180.844	-93.18
181.064	27.65
181.283	11.26
181.503	-21.5
181.723	19.46
181.943	-93.18
182.163	44.03
182.383	-48.13
182.602	21.5
182.822	80.89
183.042	37.89
183.262	13.31
183.482	-52.22
183.701	60.42
183.921	29.7
184.141	-5.12
184.361	25.6
184.58	27.65
184.8	109.57
185.02	54.27
185.239	70.65
185.459	115.71
185.679	23.55
185.898	-99.33
186.118	105.47
186.338	62.46
186.557	119.81
186.777	33.79
186.997	37.89
187.216	-1.02
187.436	150.53
187.655	111.61
187.875	52.22
188.095	44.03
188.314	93.18
188.534	93.18
188.753	-15.36
188.973	7.17
189.192	54.27
189.412	44.03
189.631	78.85
189.851	-9.22
190.07	80.89
190.29	-9.22
190.509	19.46
190.729	84.99
190.948	-19.46
191.168	154.62
191.387	27.65
191.607	23.55
191.826	60.42
192.045	97.28
192.265	48.13
192.484	31.74
192.704	21.5
192.923	-56.32
193.142	199.68
193.362	17.41
193.581	76.8
193.8	87.04
194.02	89.09
194.239	37.89
194.458	87.04
194.678	-48.13
194.897	-5.12
195.116	72.7
195.335	97.28
195.555	-7.17
195.774	80.89
195.993	134.14
196.212	-21.5
196.432	15.36
196.651	50.18
196.87	7.17
197.089	31.74
197.308	39.94
197.528	54.27
197.747	3.07
197.966	11.26
198.185	168.96
198.404	21.5
198.623	60.42
198.842	121.85
199.062	39.94
199.281	91.13
199.5	48.13
199.719	50.18
199.938	60.42
200.157	142.33
200.376	72.7
200.595	89.09
200.814	78.85
201.033	15.36
201.252	80.89
201.471	58.37
201.69	95.23
201.909	84.99
202.128	70.65
202.347	70.65
202.566	25.6
202.785	93.18
203.004	-33.79
203.223	166.91
203.442	33.79
203.661	84.99
203.879	13.31
204.098	113.66
204.317	15.36
204.536	70.65
204.755	11.26
204.974	52.22
205.193	119.81
205.411	132.09
205.63	78.85
205.849	27.65
206.068	37.89
206.287	-29.7
206.505	95.23
206.724	70.65
206.943	11.26
207.162	35.84
207.381	5.12
207.599	-21.5
207.818	70.65
208.037	19.46
208.255	52.22
208.474	64.51
208.693	113.66
208.911	13.31
209.13	78.85
209.349	60.42
209.567	68.61
209.786	105.47
210.005	1.02
210.223	17.41
210.442	29.7
210.661	50.18
210.879	62.46
211.098	68.61
211.316	3.07
211.535	146.43
211.753	78.85
211.972	52.22
212.191	44.03
212.409	84.99
212.628	117.76
212.846	31.74
213.065	13.31
213.283	62.46
213.502	7.17
213.72	80.89
213.938	7.17
214.157	44.03
214.375	54.27
214.594	11.26
214.812	62.46
215.031	-31.74
215.249	21.5
215.467	37.89
215.686	62.46
215.904	117.76
216.122	56.32
216.341	80.89
216.559	68.61
216.778	-1.02
216.996	46.08
217.214	-54.27
217.432	48.13
217.651	72.7
217.869	5.12
218.087	70.65
218.306	-9.22
218.524	66.56
218.742	-1.02
218.96	91.13
219.179	-37.89
219.397	66.56
219.615	168.96
219.833	35.84
220.051	29.7
220.27	105.47
220.488	74.75
220.706	70.65
220.924	7.17
221.142	25.6
221.36	33.79
221.578	29.7
221.796	62.46
222.015	31.74
222.233	19.46
222.451	60.42
222.669	-9.22
222.887	48.13
223.105	-21.5
223.323	23.55
223.541	-17.41
223.759	11.26
223.977	48.13
224.195	117.76
224.413	64.51
224.631	62.46
224.849	62.46
225.067	201.72
225.285	-1.02
225.503	89.09
225.721	-25.6
225.939	-11.26
226.157	103.42
226.375	154.62
226.592	-46.08
226.81	76.8
227.028	115.71
227.246	109.57
227.464	97.28
227.682	46.08
227.9	46.08
228.117	27.65
228.335	25.6
228.553	15.36
228.771	78.85
228.989	-11.26
229.206	41.98
229.424	60.42
229.642	5.12
229.86	11.26
230.077	31.74
230.295	91.13
230.513	128
230.731	54.27
230.948	91.13
231.166	113.66
231.384	64.51
231.601	-11.26
231.819	21.5
232.037	3.07
232.254	-5.12
232.472	68.61
232.689	66.56
232.907	78.85
233.125	66.56
233.342	19.46
233.56	-37.89
233.777	-5.12
233.995	76.8
234.213	152.57
234.43	52.22
234.648	-21.5
234.865	72.7
235.083	54.27
235.3	35.84
235.518	76.8
235.735	142.33
235.953	56.32
236.17	62.46
236.388	-7.17
236.605	58.37
236.822	70.65
237.04	37.89
237.257	29.7
237.475	1.02
237.692	84.99
237.909	87.04
238.127	44.03
238.344	97.28
238.562	-9.22
238.779	-52.22
238.996	-5.12
239.214	44.03
239.431	64.51
239.648	9.22
239.865	60.42
240.083	35.84
240.3	72.7
240.517	-19.46
240.735	19.46
240.952	113.66
241.169	109.57
241.386	82.94
241.603	35.84
241.821	25.6
242.038	103.42
242.255	62.46
242.472	23.55
242.689	68.61
242.907	97.28
243.124	46.08
243.341	31.74
243.558	39.94
243.775	60.42
243.992	-25.6
244.209	109.57
244.426	97.28
244.643	27.65
244.86	60.42
245.078	5.12
245.295	29.7
245.512	84.99
245.729	11.26
245.946	56.32
246.163	76.8
246.38	23.55
246.597	76.8
246.814	27.65
247.031	44.03
247.248	52.22
247.464	11.26
247.681	25.6
247.898	105.47
248.115	109.57
248.332	-29.7
248.549	80.89
248.766	70.65
248.983	121.85
249.2	68.61
249.417	87.04
249.633	-21.5
249.85	95.23
250.067	19.46
250.284	5.12
250.501	70.65
250.717	52.22
250.934	60.42
251.151	128
251.368	48.13
251.585	35.84
251.801	44.03
252.018	27.65
252.235	93.18
252.451	35.84
252.668	-19.46
252.885	93.18
253.102	48.13
253.318	35.84
253.535	3.07
253.752	52.22
253.968	80.89
254.185	-93.18
254.401	72.7
254.618	-1.02
254.835	19.46
255.051	64.51
255.268	52.22
255.484	111.61
255.701	9.22
255.917	125.95
256.134	3.07
256.351	91.13
256.567	27.65
256.784	64.51
257	-39.94
257.217	-11.26
257.433	60.42
257.65	56.32
257.866	119.81
258.082	11.26
258.299	-27.65
258.515	56.32
258.732	27.65
258.948	64.51
259.165	64.51
259.381	33.79
259.597	25.6
259.814	72.7
260.03	-39.94
260.246	39.94
260.463	128
260.679	64.51
260.895	58.37
261.112	89.09
261.328	54.27
261.544	-11.26
261.761	76.8
261.977	19.46
262.193	-46.08
262.409	101.37
262.626	27.65
262.842	54.27
263.058	101.37
263.274	105.47
263.49	60.42
263.707	95.23
263.923	25.6
264.139	-29.7
264.355	84.99
264.571	46.08
264.787	33.79
265.004	50.18
265.22	-29.7
265.436	-15.36
265.652	58.37
265.868	-27.65
266.084	-27.65
266.3	35.84
266.516	-3.07
266.732	68.61
266.948	64.51
267.164	52.22
267.38	91.13
267.596	31.74
267.812	152.57
268.028	33.79
268.244	23.55
268.46	60.42
268.676	-21.5
268.892	31.74
269.108	-54.27
269.324	15.36
269.54	5.12
269.756	101.37
269.972	-29.7
270.188	-33.79
270.403	-27.65
270.619	1.02
270.835	15.36
271.051	-17.41
271.267	52.22
271.483	99.33
271.698	70.65
271.914	31.74
272.13	44.03
272.346	17.41
272.562	95.23
272.777	93.18
272.993	17.41
273.209	56.32
273.425	68.61
273.64	9.22
273.856	82.94
274.072	-9.22
274.287	52.22
274.503	140.29
274.719	68.61
274.934	-11.26
275.15	-21.5
275.366	29.7
275.581	56.32
275.797	48.13
276.012	84.99
276.228	72.7
276.444	84.99
276.659	121.85
276.875	23.55
277.09	101.37
277.306	60.42
277.521	93.18
277.737	78.85
277.952	44.03
278.168	117.76
278.383	93.18
278.599	29.7
278.814	48.13
279.03	78.85
279.245	35.84
279.461	21.5
279.676	31.74
279.892	27.65
280.107	74.75
280.322	-9.22
280.538	5.12
280.753	52.22
280.969	11.26
281.184	-23.55
281.399	146.43
281.615	41.98
281.83	1.02
282.045	-62.46
282.26	-54.27
282.476	44.03
282.691	27.65
282.906	82.94
283.122	-37.89
283.337	46.08
283.552	48.13
283.767	52.22
283.983	97.28
284.198	21.5
284.413	44.03
284.628	25.6
284.843	37.89
285.058	29.7
285.274	1.02
285.489	-29.7
285.704	64.51
285.919	48.13
286.134	35.84
286.349	-5.12
286.564	48.13
286.779	148.48
286.995	87.04
287.21	46.08
287.425	101.37
287.64	-5.12
287.855	-21.5
288.07	50.18
288.285	142.33
288.5	109.57
288.715	89.09
288.93	48.13
289.145	101.37
289.36	103.42
289.575	64.51
289.79	52.22
290.004	17.41
290.219	119.81
290.434	1.02
290.649	25.6
290.864	35.84
291.079	-19.46
291.294	70.65
291.509	97.28
291.724	-25.6
291.938	48.13
292.153	76.8
292.368	80.89
292.583	46.08
292.798	13.31
293.012	46.08
293.227	103.42
293.442	27.65
293.657	115.71
293.871	121.85
294.086	-41.98
294.301	91.13
294.516	33.79
294.73	70.65
294.945	-13.31
295.16	13.31
295.374	41.98
295.589	60.42
295.804	7.17
296.018	15.36
296.233	50.18
296.447	15.36
296.662	21.5
296.877	80.89
297.091	64.51
297.306	-9.22
297.52	23.55
297.735	58.37
297.949	101.37
298.164	103.42
298.378	72.7
298.593	-27.65
298.807	41.98
299.022	82.94
299.236	119.81
299.451	101.37
299.665	52.22
299.88	64.51
300.094	134.14
300.309	68.61
300.523	78.85
300.737	60.42
300.952	72.7
301.166	27.65
301.381	64.51
301.595	-5.12
301.809	-41.98
302.024	62.46
302.238	9.22
302.452	97.28
302.667	66.56
302.881	89.09
303.095	68.61
303.309	68.61
303.524	62.46
303.738	66.56
303.952	58.37
304.166	89.09
304.381	-3.07
304.595	158.72
304.809	62.46
305.023	39.94
305.237	11.26
305.452	7.17
305.666	101.37
305.88	54.27
306.094	115.71
306.308	113.66
306.522	134.14
306.736	17.41
306.95	97.28
307.164	70.65
307.379	-31.74
307.593	31.74
307.807	121.85
308.021	54.27
308.235	78.85
308.449	-23.55
308.663	33.79
308.877	113.66
309.091	82.94
309.305	87.04
309.519	-37.89
309.733	95.23
309.947	3.07
310.161	44.03
310.374	76.8
310.588	91.13
310.802	-27.65
311.016	-19.46
311.23	-15.36
311.444	62.46
311.658	31.74
311.872	70.65
312.085	46.08
312.299	138.24
312.513	173.05
312.727	68.61
312.941	72.7
313.154	25.6
313.368	33.79
313.582	48.13
313.796	62.46
314.009	-27.65
314.223	35.84
314.437	-11.26
314.651	60.42
314.864	5.12
315.078	-35.84
315.292	-5.12
315.505	-31.74
315.719	66.56
315.933	48.13
316.146	48.13
316.36	25.6
316.573	109.57
316.787	-19.46
317.001	62.46
317.214	-1.02
317.428	44.03
317.641	-21.5
317.855	97.28
318.068	48.13
318.282	21.5
318.495	130.05
318.709	66.56
318.922	50.18
319.136	76.8
319.349	52.22
319.563	19.46
319.776	95.23
319.99	-46.08
320.203	-44.03
320.417	109.57
320.63	84.99
320.843	91.13
321.057	15.36
321.27	52.22
321.483	103.42
321.697	80.89
321.91	-25.6
322.124	19.46
322.337	68.61
322.55	35.84
322.763	58.37
322.977	84.99
323.19	35.84
323.403	31.74
323.617	66.56
323.83	87.04
324.043	44.03
324.256	99.33
324.469	76.8
324.683	21.5
324.896	80.89
325.109	93.18
325.322	21.5
325.535	64.51
325.748	29.7
325.962	13.31
326.175	11.26
326.388	19.46
326.601	115.71
326.814	37.89
327.027	62.46
327.24	68.61
327.453	-3.07
327.666	87.04
327.879	101.37
328.092	72.7
328.305	74.75
328.518	25.6
328.731	25.6
328.944	19.46
329.157	107.52
329.37	62.46
329.583	111.61
329.796	54.27
330.009	7.17
330.222	183.29
330.435	72.7
330.648	58.37
330.861	56.32
331.073	11.26
331.286	27.65
331.499	76.8
331.712	-15.36
331.925	113.66
332.138	33.79
332.35	70.65
332.563	-39.94
332.776	27.65
332.989	-54.27
333.202	15.36
333.414	44.03
333.627	27.65
333.84	29.7
334.053	39.94
334.265	5.12
334.478	-27.65
334.691	101.37
334.903	58.37
335.116	19.46
335.329	7.17
335.541	117.76
335.754	89.09
335.966	44.03
336.179	93.18
336.392	99.33
336.604	13.31
336.817	87.04
337.029	27.65
337.242	33.79
337.454	134.14
337.667	41.98
337.88	56.32
338.092	58.37
338.305	95.23
338.517	74.75
338.729	62.46
338.942	74.75
339.154	35.84
339.367	21.5
339.579	29.7
339.792	-5.12
340.004	91.13
340.217	44.03
340.429	56.32
340.641	70.65
340.854	-13.31
341.066	9.22
341.278	105.47
341.491	136.19
341.703	87.04
341.915	1.02
342.128	82.94
342.34	84.99
342.552	-1.02
342.764	41.98
342.977	119.81
343.189	107.52
343.401	72.7
343.613	39.94
343.826	62.46
344.038	52.22
344.25	64.51
344.462	15.36
344.674	46.08
344.886	23.55
345.099	68.61
345.311	134.14
345.523	1.02
345.735	-50.18
345.947	-15.36
346.159	41.98
346.371	29.7
346.583	21.5
346.795	80.89
347.007	-17.41
347.219	70.65
347.431	113.66
347.643	193.53
347.855	-21.5
348.067	76.8
348.279	-3.07
348.491	50.18
348.703	48.13
348.915	-15.36
349.127	50.18
349.339	115.71
349.551	11.26
349.763	91.13
349.975	76.8
350.187	68.61
350.399	128
350.61	121.85
350.822	11.26
351.034	76.8
351.246	27.65
351.458	103.42
351.669	87.04
351.881	-15.36
352.093	109.57
352.305	207.87
352.517	128
352.728	154.62
352.94	-27.65
353.152	-25.6
353.363	87.04
353.575	7.17
353.787	134.14
353.999	64.51
354.21	72.7
354.422	29.7
354.633	54.27
354.845	48.13
355.057	72.7
355.268	76.8
355.48	93.18
355.692	7.17
355.903	7.17
356.115	76.8
356.326	-17.41
356.538	13.31
356.749	27.65
356.961	148.48
357.172	72.7
357.384	-27.65
357.595	197.63
357.807	41.98
358.018	91.13
358.23	21.5
358.441	111.61
358.653	144.38
358.864	80.89
359.075	60.42
359.287	62.46
359.498	115.71
359.709	35.84
359.921	27.65
360.132	121.85
360.344	66.56
360.555	35.84
360.766	27.65
360.977	111.61
361.189	78.85
361.4	54.27
361.611	80.89
361.823	183.29
362.034	37.89
362.245	70.65
362.456	60.42
362.667	134.14
362.879	62.46
363.09	103.42
363.301	70.65
363.512	84.99
363.723	19.46
363.935	48.13
364.146	44.03
364.357	82.94
364.568	101.37
364.779	35.84
364.99	56.32
365.201	-7.17
365.412	107.52
365.623	-11.26
365.834	78.85
366.045	66.56
366.256	109.57
366.467	62.46
366.678	35.84
366.889	39.94
367.1	87.04
367.311	97.28
367.522	60.42
367.733	93.18
367.944	9.22
368.155	72.7
368.366	117.76
368.577	76.8
368.788	78.85
368.999	48.13
369.209	23.55
369.42	144.38
369.631	158.72
369.842	39.94
370.053	-19.46
370.264	80.89
370.474	101.37
370.685	44.03
370.896	-13.31
371.107	95.23
371.317	130.05
371.528	97.28
371.739	115.71
371.95	1.02
372.16	132.09
372.371	29.7
372.582	76.8
372.792	25.6
373.003	109.57
373.214	70.65
373.424	66.56
373.635	52.22
373.846	107.52
374.056	62.46
374.267	41.98
374.477	128
374.688	21.5
374.898	31.74
375.109	3.07
375.319	119.81
375.53	109.57
375.74	60.42
375.951	46.08
376.161	78.85
376.372	160.77
376.582	44.03
376.793	-21.5
377.003	-27.65
377.214	27.65
377.424	70.65
377.635	95.23
377.845	7.17
378.055	62.46
378.266	27.65
378.476	19.46
378.686	91.13
378.897	99.33
379.107	78.85
379.317	52.22
379.528	62.46
379.738	76.8
379.948	9.22
380.158	158.72
380.369	-21.5
380.579	93.18
380.789	56.32
380.999	95.23
381.21	115.71
381.42	201.72
381.63	84.99
381.84	62.46
382.05	76.8
382.261	128
382.471	46.08
382.681	3.07
382.891	115.71
383.101	132.09
383.311	19.46
383.521	7.17
383.731	142.33
383.941	74.75
384.151	70.65
384.361	89.09
384.571	87.04
384.781	95.23
384.991	132.09
385.201	107.52
385.411	60.42
385.621	121.85
385.831	56.32
386.041	25.6
386.251	9.22
386.461	93.18
386.671	27.65
386.881	97.28
387.091	84.99
387.301	99.33
387.511	21.5
387.72	72.7
387.93	109.57
388.14	-64.51
388.35	37.89
388.56	97.28
388.769	160.77
388.979	97.28
389.189	89.09
389.399	84.99
389.609	93.18
389.818	60.42
390.028	70.65
390.238	158.72
390.447	27.65
390.657	39.94
390.867	60.42
391.076	3.07
391.286	89.09
391.496	113.66
391.705	103.42
391.915	68.61
392.125	162.81
392.334	66.56
392.544	181.25
392.753	128
392.963	64.51
393.172	95.23
393.382	11.26
393.591	211.96
393.801	37.89
394.01	207.87
394.22	97.28
394.429	128
394.639	148.48
394.848	209.92
395.058	84.99
395.267	179.2
395.477	111.61
395.686	121.85
395.895	199.68
396.105	121.85
396.314	113.66
396.524	119.81
396.733	89.09
396.942	152.57
397.152	148.48
397.361	130.05
397.57	117.76
397.78	109.57
397.989	101.37
398.198	171.01
398.407	97.28
398.617	125.95
398.826	54.27
399.035	97.28
399.244	125.95
399.453	87.04
399.663	187.39
399.872	201.72
400.081	15.36
400.29	101.37
400.499	142.33
400.708	125.95
400.917	125.95
401.127	119.81
401.336	68.61
401.545	148.48
401.754	207.87
401.963	203.77
402.172	97.28
402.381	62.46
402.59	101.37
402.799	125.95
403.008	156.67
403.217	121.85
403.426	158.72
403.635	140.29
403.844	121.85
404.053	158.72
404.262	160.77
404.471	232.44
404.68	150.53
404.888	177.15
405.097	173.05
405.306	160.77
405.515	265.21
405.724	136.19
405.933	199.68
406.142	203.77
406.35	164.86
406.559	232.44
406.768	158.72
406.977	224.25
407.185	291.84
407.394	261.12
407.603	154.62
407.812	287.74
408.02	195.58
408.229	218.11
408.438	216.06
408.646	216.06
408.855	199.68
409.064	338.94
409.272	281.6
409.481	330.75
409.69	304.12
409.898	320.51
410.107	304.12
410.315	408.57
410.524	332.79
410.733	347.13
410.941	392.19
411.15	412.67
411.358	398.33
411.567	402.43
411.775	404.47
411.984	494.58
412.192	513.02
412.401	453.63
412.609	537.59
412.818	510.97
413.026	494.58
413.234	502.78
413.443	472.06
413.651	572.41
413.86	625.65
414.068	601.08
414.276	687.09
414.485	578.55
414.693	687.09
414.901	783.35
415.11	707.57
415.318	711.67
415.526	744.44
415.734	826.36
415.943	801.78
416.151	787.44
416.359	873.46
416.567	895.99
416.776	947.19
416.984	1008.62
417.192	1033.2
417.4	1086.45
417.608	986.1
417.817	1111.02
418.025	1135.6
418.233	1217.52
418.441	1176.56
418.649	1192.94
418.857	1274.86
419.065	1346.54
419.273	1313.77
419.481	1539.05
419.689	1559.53
419.897	1541.1
420.105	1534.95
420.313	1528.81
420.521	1709.03
420.729	1723.37
420.937	1733.61
421.145	1807.33
421.353	1885.16
421.561	2075.62
421.769	1987.55
421.977	2102.24
422.185	2198.49
422.393	2227.17
422.601	2491.35
422.809	2493.4
423.017	2485.21
423.224	2452.44
423.432	2550.75
423.64	2560.98
423.848	2925.52
424.056	2677.72
424.263	3017.68
424.471	3001.3
424.679	3156.94
424.887	3345.36
425.094	3220.43
425.302	3406.8
425.51	3560.39
425.718	3576.78
425.925	3636.17
426.133	3726.28
426.341	3947.46
426.548	4084.67
426.756	4117.44
426.964	4305.85
427.171	4363.2
427.379	4561.85
427.586	4543.42
427.794	4740.02
428.001	5067.7
428.209	5233.58
428.417	5112.75
428.624	5436.33
428.832	5395.37
429.039	5383.09
429.247	5458.86
429.454	5993.38
429.662	6362.01
429.869	5944.23
430.076	6202.27
430.284	6153.12
430.491	6474.65
430.699	6824.86
430.906	6765.46
431.114	6824.86
431.321	7246.74
431.528	7259.03
431.736	7809.93
431.943	8219.52
432.15	7918.47
432.358	7918.47
432.565	8479.61
432.772	8401.79
432.979	8958.84
433.187	9026.42
433.394	9063.29
433.601	9538.41
433.808	9687.92
434.016	9601.9
434.223	10064.74
434.43	10656.61
434.637	10658.65
434.844	11096.92
435.052	11391.83
435.259	11103.06
435.466	11324.24
435.673	11139.93
435.88	12006.22
436.087	12727.1
436.294	12348.23
436.501	12348.23
436.708	12510.02
436.915	12954.43
437.122	13632.3
437.329	13534
437.537	14111.53
437.743	14064.43
437.95	14035.75
438.157	14840.61
438.364	15301.4
438.571	15080.22
438.778	15244.06
438.985	16708.35
439.192	16028.43
439.399	16534.28
439.606	16014.09
439.813	17255.16
440.02	18266.86
440.227	18004.72
440.433	17963.76
440.64	18199.27
440.847	18291.43
441.054	18506.47
441.261	19876.56
441.467	19413.72
441.674	19993.29
441.881	20925.12
442.088	20703.94
442.294	20568.77
442.501	21058.24
442.708	21426.87
442.914	22479.53
443.121	23343.77
443.328	22284.97
443.534	24513.16
443.741	23700.12
443.948	23247.52
444.154	25027.2
444.361	24844.93
444.568	24918.66
444.774	24918.66
444.981	25506.43
445.187	25922.16
445.394	27304.54
445.6	26923.62
445.807	29397.57
446.013	28445.26
446.22	28803.66
446.426	30044.73
446.633	30464.56
446.839	31072.81
447.046	30011.96
447.252	31887.9
447.459	31820.31
447.665	31261.22
447.871	33057.29
448.078	34417.14
448.284	32657.93
448.491	33505.79
448.697	34798.06
448.903	35891.68
449.11	35547.62
449.316	34877.93
449.522	35518.95
449.728	36735.44
449.935	37163.46
450.141	37454.28
450.347	37831.1
450.553	36676.05
450.76	37243.34
450.966	38678.96
451.172	38111.67
451.378	39397.8
451.584	38359.48
451.791	39201.19
451.997	38881.71
452.203	39877.02
452.409	39963.04
452.615	40094.11
452.821	38242.74
453.027	37622.21
453.233	39963.04
453.44	38216.12
453.646	38992.3
453.852	38830.51
454.058	39729.57
454.264	38648.24
454.47	39502.25
454.676	38588.85
454.882	39866.78
455.088	36311.51
455.294	37317.06
455.5	37523.91
455.705	38001.08
455.911	36477.4
456.117	35484.13
456.323	35213.8
456.529	33147.4
456.735	34857.45
456.941	34159.09
457.147	33069.58
457.352	32623.12
457.558	32129.56
457.764	32104.98
457.97	31758.88
458.176	31105.57
458.381	31081
458.587	29346.37
458.793	29416
458.999	27601.5
459.204	30110.26
459.41	28979.78
459.616	27302.5
459.821	27277.92
460.027	26937.96
460.233	26770.02
460.438	25215.62
460.644	25768.57
460.85	24550.03
461.055	23673.49
461.261	23931.54
461.466	22266.54
461.672	21322.43
461.878	22944.42
462.083	21265.08
462.289	20886.21
462.494	20992.7
462.7	19950.29
462.905	19409.62
463.111	20069.07
463.316	20177.61
463.522	19700.44
463.727	19520.21
463.932	19643.09
464.138	19587.8
464.343	19622.61
464.549	18885.34
464.754	19477.21
464.959	19292.89
465.165	19321.56
465.37	18582.24
465.575	17969.9
465.781	18750.18
465.986	18909.92
466.191	18273
466.397	17677.04
466.602	17025.79
466.807	17545.97
