Data from USB4F104151__19__13-04-39-289.txt Node

Date: Fri Mar 14 13:04:39 EDT 2025
User: louis
Spectrometer: USB4F10415
Trigger mode: 4
Integration Time (sec): 4.000000E-2
Scans to average: 1
Electric dark correction enabled: true
Nonlinearity correction enabled: false
Boxcar width: 0
XAxis mode: Wavelengths
Number of Pixels in Spectrum: 3648
>>>>>Begin Spectral Data<<<<<
178.204	-261.29
178.424	-261.29
178.644	-261.29
178.864	-218.28
179.084	-251.05
179.304	-56.49
179.524	-50.35
179.744	21.33
179.964	41.81
180.184	-21.67
180.404	-5.29
180.624	25.43
180.844	-13.48
181.064	-25.77
181.283	21.33
181.503	-9.39
181.723	72.53
181.943	-140.46
182.163	70.48
182.383	47.96
182.602	90.96
182.822	-27.82
183.042	39.76
183.262	-13.48
183.482	-21.67
183.701	25.43
183.921	47.96
184.141	-44.2
184.361	9.05
184.58	41.81
184.8	17.24
185.02	-68.78
185.239	144.21
185.459	54.1
185.679	66.39
185.898	23.38
186.118	70.48
186.338	23.38
186.557	62.29
186.777	37.72
186.997	13.14
187.216	50
187.436	164.69
187.655	7
187.875	105.3
188.095	-33.96
188.314	70.48
188.534	74.58
188.753	39.76
188.973	25.43
189.192	105.3
189.412	13.14
189.631	-1.19
189.851	13.14
190.07	43.86
190.29	-19.63
190.509	-70.83
190.729	4.95
190.948	86.87
191.168	158.55
191.387	60.24
191.607	54.1
191.826	56.15
192.045	-36.01
192.265	-42.15
192.484	39.76
192.704	-9.39
192.923	-72.87
193.142	144.21
193.362	-11.43
193.581	80.72
193.8	21.33
194.02	56.15
194.239	29.52
194.458	45.91
194.678	21.33
194.897	-36.01
195.116	33.62
195.335	2.9
195.555	66.39
195.774	-44.2
195.993	58.2
196.212	15.19
196.432	7
196.651	-11.43
196.87	7
197.089	101.2
197.308	123.73
197.528	41.81
197.747	-25.77
197.966	-31.91
198.185	131.92
198.404	9.05
198.623	50
198.842	70.48
199.062	54.1
199.281	43.86
199.5	-9.39
199.719	-15.53
199.938	-1.19
200.157	58.2
200.376	31.57
200.595	76.63
200.814	-7.34
201.033	41.81
201.252	11.09
201.471	0.85
201.69	27.48
201.909	23.38
202.128	13.14
202.347	-42.15
202.566	27.48
202.785	7
203.004	23.38
203.223	123.73
203.442	15.19
203.661	39.76
203.879	-13.48
204.098	74.58
204.317	27.48
204.536	88.92
204.755	-3.24
204.974	15.19
205.193	58.2
205.411	138.07
205.63	47.96
205.849	4.95
206.068	54.1
206.287	39.76
206.505	41.81
206.724	11.09
206.943	17.24
207.162	2.9
207.381	62.29
207.599	0.85
207.818	21.33
208.037	45.91
208.255	-15.53
208.474	0.85
208.693	47.96
208.911	21.33
209.13	54.1
209.349	13.14
209.567	31.57
209.786	111.44
210.005	33.62
210.223	13.14
210.442	0.85
210.661	33.62
210.879	33.62
211.098	56.15
211.316	23.38
211.535	78.68
211.753	0.85
211.972	-17.58
212.191	27.48
212.409	-19.63
212.628	56.15
212.846	54.1
213.065	15.19
213.283	119.64
213.502	66.39
213.72	62.29
213.938	93.01
214.157	17.24
214.375	39.76
214.594	68.44
214.812	21.33
215.031	74.58
215.249	80.72
215.467	-9.39
215.686	0.85
215.904	82.77
216.122	13.14
216.341	54.1
216.559	54.1
216.778	107.35
216.996	97.11
217.214	-36.01
217.432	-7.34
217.651	7
217.869	-19.63
218.087	-74.92
218.306	90.96
218.524	4.95
218.742	-44.2
218.96	-44.2
219.179	19.29
219.397	13.14
219.615	97.11
219.833	-36.01
220.051	17.24
220.27	78.68
220.488	37.72
220.706	-11.43
220.924	56.15
221.142	56.15
221.36	62.29
221.578	43.86
221.796	37.72
222.015	-21.67
222.233	-89.26
222.451	45.91
222.669	-23.72
222.887	58.2
223.105	-27.82
223.323	-23.72
223.541	4.95
223.759	68.44
223.977	39.76
224.195	74.58
224.413	103.25
224.631	62.29
224.849	4.95
225.067	111.44
225.285	-25.77
225.503	7
225.721	-25.77
225.939	-7.34
226.157	88.92
226.375	185.17
226.592	-15.53
226.81	-54.44
227.028	45.91
227.246	66.39
227.464	-74.92
227.682	58.2
227.9	23.38
228.117	-48.3
228.335	103.25
228.553	23.38
228.771	54.1
228.989	13.14
229.206	29.52
229.424	-17.58
229.642	23.38
229.86	0.85
230.077	80.72
230.295	15.19
230.513	45.91
230.731	74.58
230.948	50
231.166	80.72
231.384	-27.82
231.601	21.33
231.819	39.76
232.037	86.87
232.254	-19.63
232.472	70.48
232.689	29.52
232.907	54.1
233.125	21.33
233.342	7
233.56	74.58
233.777	35.67
233.995	-40.11
234.213	41.81
234.43	50
234.648	41.81
234.865	13.14
235.083	13.14
235.3	-5.29
235.518	47.96
235.735	29.52
235.953	88.92
236.17	2.9
236.388	15.19
236.605	33.62
236.822	58.2
237.04	103.25
237.257	-27.82
237.475	45.91
237.692	45.91
237.909	-19.63
238.127	39.76
238.344	47.96
238.562	9.05
238.779	-60.59
238.996	33.62
239.214	37.72
239.431	88.92
239.648	0.85
239.865	-40.11
240.083	99.16
240.3	62.29
240.517	54.1
240.735	78.68
240.952	97.11
241.169	15.19
241.386	-1.19
241.603	-17.58
241.821	-81.07
242.038	101.2
242.255	-9.39
242.472	4.95
242.689	80.72
242.907	76.63
243.124	-38.06
243.341	37.72
243.558	-72.87
243.775	-56.49
243.992	-58.54
244.209	-1.19
244.426	115.54
244.643	11.09
244.86	9.05
245.078	31.57
245.295	33.62
245.512	23.38
245.729	-21.67
245.946	37.72
246.163	41.81
246.38	9.05
246.597	95.06
246.814	2.9
247.031	111.44
247.248	0.85
247.464	29.52
247.681	15.19
247.898	80.72
248.115	31.57
248.332	47.96
248.549	31.57
248.766	90.96
248.983	29.52
249.2	52.05
249.417	7
249.633	4.95
249.85	-31.91
250.067	17.24
250.284	37.72
250.501	-9.39
250.717	41.81
250.934	-36.01
251.151	37.72
251.368	37.72
251.585	-17.58
251.801	31.57
252.018	2.9
252.235	121.68
252.451	29.52
252.668	54.1
252.885	88.92
253.102	27.48
253.318	62.29
253.535	35.67
253.752	15.19
253.968	66.39
254.185	-9.39
254.401	33.62
254.618	-5.29
254.835	7
255.051	54.1
255.268	84.82
255.484	4.95
255.701	13.14
255.917	29.52
256.134	-40.11
256.351	62.29
256.567	2.9
256.784	4.95
257	-23.72
257.217	60.24
257.433	54.1
257.65	9.05
257.866	78.68
258.082	29.52
258.299	47.96
258.515	41.81
258.732	7
258.948	-19.63
259.165	11.09
259.381	-17.58
259.597	74.58
259.814	27.48
260.03	25.43
260.246	99.16
260.463	33.62
260.679	45.91
260.895	25.43
261.112	60.24
261.328	88.92
261.544	-1.19
261.761	121.68
261.977	-33.96
262.193	-52.39
262.409	74.58
262.626	60.24
262.842	50
263.058	-13.48
263.274	13.14
263.49	7
263.707	95.06
263.923	-25.77
264.139	2.9
264.355	-48.3
264.571	119.64
264.787	43.86
265.004	43.86
265.22	33.62
265.436	68.44
265.652	-31.91
265.868	58.2
266.084	-19.63
266.3	13.14
266.516	-60.59
266.732	105.3
266.948	27.48
267.164	64.34
267.38	-7.34
267.596	54.1
267.812	84.82
268.028	31.57
268.244	-3.24
268.46	27.48
268.676	31.57
268.892	56.15
269.108	7
269.324	-21.67
269.54	-40.11
269.756	21.33
269.972	-21.67
270.188	15.19
270.403	11.09
270.619	47.96
270.835	19.29
271.051	-7.34
271.267	4.95
271.483	74.58
271.698	-5.29
271.914	17.24
272.13	111.44
272.346	7
272.562	66.39
272.777	47.96
272.993	-31.91
273.209	23.38
273.425	109.4
273.64	-15.53
273.856	-36.01
274.072	19.29
274.287	-15.53
274.503	4.95
274.719	31.57
274.934	-113.83
275.15	-1.19
275.366	-40.11
275.581	-19.63
275.797	58.2
276.012	23.38
276.228	-64.68
276.444	15.19
276.659	54.1
276.875	15.19
277.09	50
277.306	-19.63
277.521	25.43
277.737	-33.96
277.952	60.24
278.168	25.43
278.383	-11.43
278.599	7
278.814	37.72
279.03	-38.06
279.245	2.9
279.461	0.85
279.676	50
279.892	33.62
280.107	-66.73
280.322	-23.72
280.538	45.91
280.753	-25.77
280.969	-9.39
281.184	50
281.399	60.24
281.615	-11.43
281.83	-25.77
282.045	-42.15
282.26	84.82
282.476	62.29
282.691	27.48
282.906	76.63
283.122	31.57
283.337	-19.63
283.552	86.87
283.767	60.24
283.983	90.96
284.198	33.62
284.413	29.52
284.628	4.95
284.843	9.05
285.058	72.53
285.274	64.34
285.489	56.15
285.704	78.68
285.919	-58.54
286.134	45.91
286.349	-44.2
286.564	37.72
286.779	56.15
286.995	68.44
287.21	21.33
287.425	2.9
287.64	39.76
287.855	-27.82
288.07	-83.11
288.285	115.54
288.5	37.72
288.715	54.1
288.93	-3.24
289.145	11.09
289.36	37.72
289.575	50
289.79	35.67
290.004	7
290.219	76.63
290.434	33.62
290.649	45.91
290.864	72.53
291.079	37.72
291.294	9.05
291.509	2.9
291.724	17.24
291.938	-25.77
292.153	39.76
292.368	-46.25
292.583	-17.58
292.798	68.44
293.012	82.77
293.227	60.24
293.442	31.57
293.657	76.63
293.871	0.85
294.086	-25.77
294.301	123.73
294.516	41.81
294.73	-33.96
294.945	-3.24
295.16	39.76
295.374	133.97
295.589	127.83
295.804	-99.5
296.018	52.05
296.233	50
296.447	-3.24
296.662	-27.82
296.877	68.44
297.091	50
297.306	37.72
297.52	43.86
297.735	76.63
297.949	-58.54
298.164	64.34
298.378	15.19
298.593	21.33
298.807	13.14
299.022	68.44
299.236	-7.34
299.451	25.43
299.665	-3.24
299.88	25.43
300.094	-36.01
300.309	64.34
300.523	86.87
300.737	15.19
300.952	33.62
301.166	21.33
301.381	-48.3
301.595	7
301.809	50
302.024	72.53
302.238	-48.3
302.452	62.29
302.667	-19.63
302.881	93.01
303.095	131.92
303.309	25.43
303.524	88.92
303.738	9.05
303.952	23.38
304.166	45.91
304.381	-40.11
304.595	129.88
304.809	-23.72
305.023	-3.24
305.237	-25.77
305.452	76.63
305.666	29.52
305.88	13.14
306.094	45.91
306.308	23.38
306.522	37.72
306.736	-9.39
306.95	-1.19
307.164	113.49
307.379	-66.73
307.593	84.82
307.807	90.96
308.021	33.62
308.235	109.4
308.449	-25.77
308.663	31.57
308.877	95.06
309.091	43.86
309.305	31.57
309.519	-50.35
309.733	78.68
309.947	4.95
310.161	62.29
310.374	113.49
310.588	15.19
310.802	-27.82
311.016	25.43
311.23	54.1
311.444	-17.58
311.658	0.85
311.872	107.35
312.085	11.09
312.299	119.64
312.513	2.9
312.727	93.01
312.941	58.2
313.154	21.33
313.368	7
313.582	52.05
313.796	54.1
314.009	72.53
314.223	54.1
314.437	70.48
314.651	68.44
314.864	-1.19
315.078	25.43
315.292	62.29
315.505	21.33
315.719	23.38
315.933	21.33
316.146	-60.59
316.36	-33.96
316.573	21.33
316.787	84.82
317.001	80.72
317.214	47.96
317.428	17.24
317.641	17.24
317.855	33.62
318.068	-25.77
318.282	58.2
318.495	105.3
318.709	-11.43
318.922	47.96
319.136	152.4
319.349	62.29
319.563	0.85
319.776	72.53
319.99	-27.82
320.203	13.14
320.417	58.2
320.63	45.91
320.843	95.06
321.057	119.64
321.27	52.05
321.483	50
321.697	45.91
321.91	-64.68
322.124	-36.01
322.337	82.77
322.55	82.77
322.763	23.38
322.977	13.14
323.19	-40.11
323.403	62.29
323.617	11.09
323.83	105.3
324.043	-23.72
324.256	54.1
324.469	-23.72
324.683	95.06
324.896	33.62
325.109	54.1
325.322	13.14
325.535	27.48
325.748	-19.63
325.962	7
326.175	50
326.388	29.52
326.601	19.29
326.814	-1.19
327.027	15.19
327.24	84.82
327.453	-36.01
327.666	-9.39
327.879	78.68
328.092	113.49
328.305	-3.24
328.518	37.72
328.731	-7.34
328.944	45.91
329.157	45.91
329.37	-9.39
329.583	136.02
329.796	111.44
330.009	4.95
330.222	-3.24
330.435	54.1
330.648	9.05
330.861	29.52
331.073	-17.58
331.286	23.38
331.499	-7.34
331.712	-66.73
331.925	150.36
332.138	-11.43
332.35	33.62
332.563	-31.91
332.776	86.87
332.989	0.85
333.202	-27.82
333.414	-1.19
333.627	-50.35
333.84	-42.15
334.053	90.96
334.265	-33.96
334.478	-33.96
334.691	39.76
334.903	39.76
335.116	15.19
335.329	21.33
335.541	111.44
335.754	45.91
335.966	-33.96
336.179	62.29
336.392	68.44
336.604	-5.29
336.817	74.58
337.029	37.72
337.242	21.33
337.454	93.01
337.667	47.96
337.88	121.68
338.092	37.72
338.305	29.52
338.517	70.48
338.729	33.62
338.942	88.92
339.154	-15.53
339.367	66.39
339.579	27.48
339.792	17.24
340.004	41.81
340.217	103.25
340.429	33.62
340.641	25.43
340.854	-19.63
341.066	0.85
341.278	25.43
341.491	56.15
341.703	-38.06
341.915	-1.19
342.128	23.38
342.34	19.29
342.552	-17.58
342.764	41.81
342.977	15.19
343.189	119.64
343.401	72.53
343.613	-9.39
343.826	4.95
344.038	-17.58
344.25	76.63
344.462	39.76
344.674	-21.67
344.886	45.91
345.099	56.15
345.311	52.05
345.523	56.15
345.735	-95.4
345.947	23.38
346.159	33.62
346.371	-21.67
346.583	35.67
346.795	70.48
347.007	9.05
347.219	23.38
347.431	-11.43
347.643	78.68
347.855	9.05
348.067	4.95
348.279	72.53
348.491	41.81
348.703	62.29
348.915	25.43
349.127	-36.01
349.339	41.81
349.551	9.05
349.763	88.92
349.975	62.29
350.187	68.44
350.399	37.72
350.61	64.34
350.822	7
351.034	95.06
351.246	123.73
351.458	-1.19
351.669	64.34
351.881	121.68
352.093	23.38
352.305	115.54
352.517	17.24
352.728	123.73
352.94	-13.48
353.152	29.52
353.363	45.91
353.575	25.43
353.787	27.48
353.999	88.92
354.21	127.83
354.422	29.52
354.633	-11.43
354.845	-7.34
355.057	90.96
355.268	66.39
355.48	54.1
355.692	-11.43
355.903	-11.43
356.115	-48.3
356.326	70.48
356.538	117.59
356.749	60.24
356.961	54.1
357.172	45.91
357.384	66.39
357.595	95.06
357.807	74.58
358.018	13.14
358.23	64.34
358.441	125.78
358.653	86.87
358.864	33.62
359.075	50
359.287	23.38
359.498	131.92
359.709	25.43
359.921	52.05
360.132	27.48
360.344	58.2
360.555	15.19
360.766	60.24
360.977	-36.01
361.189	45.91
361.4	43.86
361.611	78.68
361.823	2.9
362.034	43.86
362.245	-66.73
362.456	62.29
362.667	29.52
362.879	9.05
363.09	37.72
363.301	97.11
363.512	41.81
363.723	70.48
363.935	56.15
364.146	47.96
364.357	-25.77
364.568	33.62
364.779	-17.58
364.99	62.29
365.201	-66.73
365.412	84.82
365.623	37.72
365.834	45.91
366.045	29.52
366.256	56.15
366.467	35.67
366.678	-31.91
366.889	47.96
367.1	58.2
367.311	33.62
367.522	-64.68
367.733	82.77
367.944	86.87
368.155	15.19
368.366	129.88
368.577	127.83
368.788	33.62
368.999	52.05
369.209	-9.39
369.42	60.24
369.631	82.77
369.842	66.39
370.053	50
370.264	21.33
370.474	-15.53
370.685	72.53
370.896	-17.58
371.107	136.02
371.317	52.05
371.528	62.29
371.739	125.78
371.95	54.1
372.16	27.48
372.371	-62.63
372.582	-25.77
372.792	15.19
373.003	62.29
373.214	95.06
373.424	54.1
373.635	23.38
373.846	66.39
374.056	50
374.267	64.34
374.477	43.86
374.688	-3.24
374.898	4.95
375.109	-9.39
375.319	88.92
375.53	66.39
375.74	76.63
375.951	-13.48
376.161	35.67
376.372	95.06
376.582	-5.29
376.793	113.49
377.003	-23.72
377.214	45.91
377.424	37.72
377.635	111.44
377.845	41.81
378.055	68.44
378.266	-52.39
378.476	23.38
378.686	-9.39
378.897	23.38
379.107	82.77
379.317	47.96
379.528	54.1
379.738	45.91
379.948	-23.72
380.158	76.63
380.369	17.24
380.579	90.96
380.789	13.14
380.999	93.01
381.21	4.95
381.42	70.48
381.63	33.62
381.84	66.39
382.05	84.82
382.261	115.54
382.471	68.44
382.681	-9.39
382.891	50
383.101	119.64
383.311	-79.02
383.521	-25.77
383.731	136.02
383.941	62.29
384.151	62.29
384.361	15.19
384.571	-3.24
384.781	54.1
384.991	50
385.201	138.07
385.411	58.2
385.621	70.48
385.831	101.2
386.041	86.87
386.251	2.9
386.461	58.2
386.671	9.05
386.881	56.15
387.091	31.57
387.301	109.4
387.511	64.34
387.72	82.77
387.93	37.72
388.14	-36.01
388.35	35.67
388.56	29.52
388.769	93.01
388.979	27.48
389.189	72.53
389.399	25.43
389.609	131.92
389.818	121.68
390.028	97.11
390.238	-21.67
390.447	50
390.657	50
390.867	64.34
391.076	4.95
391.286	119.64
391.496	78.68
391.705	47.96
391.915	121.68
392.125	39.76
392.334	4.95
392.544	119.64
392.753	86.87
392.963	0.85
393.172	93.01
393.382	-33.96
393.591	136.02
393.801	15.19
394.01	181.07
394.22	70.48
394.429	54.1
394.639	33.62
394.848	84.82
395.058	90.96
395.267	4.95
395.477	80.72
395.686	52.05
395.895	129.88
396.105	179.03
396.314	111.44
396.524	131.92
396.733	19.29
396.942	27.48
397.152	117.59
397.361	52.05
397.57	103.25
397.78	27.48
397.989	82.77
398.198	127.83
398.407	31.57
398.617	13.14
398.826	144.21
399.035	90.96
399.244	117.59
399.453	109.4
399.663	35.67
399.872	127.83
400.081	168.79
400.29	213.84
400.499	13.14
400.708	99.16
400.917	56.15
401.127	88.92
401.336	115.54
401.545	127.83
401.754	148.31
401.963	148.31
402.172	189.27
402.381	86.87
402.59	93.01
402.799	138.07
403.008	152.4
403.217	80.72
403.426	93.01
403.635	37.72
403.844	111.44
404.053	117.59
404.262	72.53
404.471	224.08
404.68	88.92
404.888	160.59
405.097	84.82
405.306	166.74
405.515	160.59
405.724	64.34
405.933	172.88
406.142	267.09
406.35	129.88
406.559	207.7
406.768	129.88
406.977	271.19
407.185	248.66
407.394	168.79
407.603	211.79
407.812	166.74
408.02	197.46
408.229	193.36
408.438	265.04
408.646	193.36
408.855	209.75
409.064	209.75
409.272	267.09
409.481	281.43
409.69	191.31
409.898	224.08
410.107	211.79
410.315	324.43
410.524	246.61
410.733	351.06
410.941	324.43
411.15	328.53
411.358	338.77
411.567	418.64
411.775	353.1
411.984	275.28
412.192	320.34
412.401	379.73
412.609	445.26
412.818	379.73
413.026	443.21
413.234	441.17
413.443	492.37
413.651	439.12
413.86	492.37
414.068	582.48
414.276	627.53
414.485	576.33
414.693	592.72
414.901	686.92
415.11	639.82
415.318	656.2
415.526	656.2
415.734	725.83
415.943	688.97
416.151	752.46
416.359	797.51
416.567	844.62
416.776	906.06
416.984	848.71
417.192	899.91
417.4	844.62
417.608	908.1
417.817	881.48
418.025	1047.37
418.233	1127.24
418.441	1022.79
418.649	1076.04
418.857	1104.71
419.065	1278.79
419.273	1143.62
419.481	1211.2
419.689	1235.78
419.897	1256.26
420.105	1282.88
420.313	1348.42
420.521	1512.25
420.729	1569.6
420.937	1475.39
421.145	1555.26
421.353	1678.14
421.561	1803.07
421.769	1743.67
421.977	1841.98
422.185	1792.83
422.393	1964.86
422.601	2087.73
422.809	2167.6
423.017	2054.97
423.224	2288.43
423.432	2267.95
423.64	2247.48
423.848	2546.48
424.056	2515.76
424.263	2599.73
424.471	2636.59
424.679	2745.13
424.887	2851.63
425.094	2833.19
425.302	2904.87
425.51	2962.22
425.718	3119.91
425.925	3052.33
426.133	3320.61
426.341	3461.92
426.548	3584.8
426.756	3687.2
426.964	3588.89
427.171	3693.34
427.379	3945.24
427.586	4033.3
427.794	4150.04
428.001	4363.03
428.209	4397.84
428.417	4397.84
428.624	4852.49
428.832	4752.14
429.039	4778.76
429.247	4840.2
429.454	5169.93
429.662	5532.42
429.869	5159.69
430.076	5450.5
430.284	5362.44
430.491	5595.9
430.699	5870.33
430.906	5978.87
431.114	6105.85
431.321	6226.68
431.528	6241.01
431.736	6732.53
431.943	7088.87
432.15	6824.69
432.358	7150.31
432.565	7506.66
432.772	7316.2
432.979	7760.61
433.187	8026.84
433.394	7975.64
433.601	8409.81
433.808	8331.99
434.016	8411.86
434.223	8776.4
434.43	9265.86
434.637	9132.75
434.844	9605.83
435.052	9947.84
435.259	9722.56
435.466	9779.9
435.673	9845.44
435.88	10455.73
436.087	11008.69
436.294	11223.72
436.501	10885.81
436.708	11055.79
436.915	11319.98
437.122	11809.44
437.329	11877.02
437.537	12163.74
437.743	12284.57
437.95	12389.02
438.157	12829.33
438.364	13226.64
438.571	13351.56
438.778	13464.2
438.985	14504.57
439.192	14209.66
439.399	14543.48
439.606	14340.73
439.813	15131.25
440.02	15946.34
440.227	15790.69
440.433	15577.7
440.64	16224.86
440.847	16136.8
441.054	16243.29
441.261	17633.86
441.467	17412.68
441.674	17680.97
441.881	18133.57
442.088	18162.24
442.294	18004.55
442.501	18321.98
442.708	18979.38
442.914	19690.02
443.121	20505.12
443.328	19909.16
443.534	21258.77
443.741	20707.87
443.948	20533.79
444.154	21977.61
444.361	21627.4
444.568	22170.12
444.774	21983.75
444.981	22434.3
445.187	23077.37
445.394	23910.89
445.6	23779.82
445.807	25889.23
446.013	24781.28
446.22	25065.94
446.426	26284.48
446.633	26630.59
446.839	27394.48
447.046	26114.5
447.252	27881.9
447.459	27466.16
447.665	27505.07
447.871	28959.13
448.078	29856.14
448.284	28627.36
448.491	29424.02
448.697	30591.36
448.903	31129.98
449.11	31162.75
449.316	30718.34
449.522	31469.94
449.728	32153.96
449.935	32227.69
450.141	32418.15
450.347	33538.39
450.553	32168.3
450.76	32397.67
450.966	33794.39
451.172	33579.35
451.378	34439.5
451.584	33569.11
451.791	34668.87
451.997	34539.85
452.203	35070.27
452.409	34916.67
452.615	34840.9
452.821	33497.43
453.027	33003.87
453.233	35008.83
453.44	33542.49
453.646	34218.32
453.852	34257.23
454.058	35012.93
454.264	33546.58
454.47	34636.1
454.676	33710.42
454.882	34781.51
455.088	31469.94
455.294	32129.39
455.5	32756.07
455.705	33323.35
455.911	31908.21
456.117	31295.86
456.323	30767.49
456.529	29270.42
456.735	30620.03
456.941	29522.32
457.147	29438.36
457.352	28494.24
457.558	28209.57
457.764	28055.98
457.97	27251.13
458.176	26931.64
458.381	27113.91
458.587	25741.77
458.793	25819.6
458.999	24355.3
459.204	26110.41
459.41	25385.43
459.616	23566.83
459.821	23814.63
460.027	23511.53
460.233	23142.9
460.438	22053.38
460.644	22397.44
460.85	21197.33
461.055	21008.92
461.261	21047.83
461.466	19311.15
461.672	18514.49
461.878	20365.85
462.083	18663.99
462.289	18428.48
462.494	18059.84
462.7	17119.82
462.905	16724.57
463.111	17498.7
463.316	17769.03
463.522	17101.39
463.727	17117.78
463.932	17062.48
464.138	16964.18
464.343	17023.57
464.549	16597.59
464.754	16884.31
464.959	16808.53
465.165	17070.67
465.37	16249.44
465.575	15442.54
465.781	16267.87
465.986	16472.67
466.191	15604.33
466.397	15344.24
466.602	14566.01
466.807	15168.11
467.012	15106.67
467.218	15383.15
467.423	15039.09
467.628	15213.17
467.833	15565.42
468.038	14963.31
468.244	14430.84
