Data from USB4F104151__20__13-04-39-582.txt Node

Date: Fri Mar 14 13:04:39 EDT 2025
User: louis
Spectrometer: USB4F10415
Trigger mode: 4
Integration Time (sec): 4.000000E-2
Scans to average: 1
Electric dark correction enabled: true
Nonlinearity correction enabled: false
Boxcar width: 0
XAxis mode: Wavelengths
Number of Pixels in Spectrum: 3648
>>>>>Begin Spectral Data<<<<<
178.204	-202.75
178.424	-202.75
178.644	-202.75
178.864	-153.6
179.084	-131.07
179.304	20.48
179.524	8.19
179.744	26.62
179.964	38.91
180.184	14.34
180.404	-20.48
180.624	-75.77
180.844	24.58
181.064	-63.49
181.283	22.53
181.503	-53.25
181.723	57.34
181.943	-75.77
182.163	139.26
182.383	81.92
182.602	63.49
182.822	88.06
183.042	14.34
183.262	-57.34
183.482	51.2
183.701	69.63
183.921	65.53
184.141	-47.1
184.361	34.82
184.58	49.15
184.8	-30.72
185.02	-36.86
185.239	71.68
185.459	73.73
185.679	59.39
185.898	40.96
186.118	75.77
186.338	26.62
186.557	51.2
186.777	20.48
186.997	59.39
187.216	8.19
187.436	126.97
187.655	86.01
187.875	51.2
188.095	6.14
188.314	122.88
188.534	47.1
188.753	75.77
188.973	118.78
189.192	-8.19
189.412	79.87
189.631	75.77
189.851	116.73
190.07	114.69
190.29	-22.53
190.509	-22.53
190.729	-38.91
190.948	43.01
191.168	196.61
191.387	73.73
191.607	0
191.826	59.39
192.045	73.73
192.265	90.11
192.484	14.34
192.704	38.91
192.923	49.15
193.142	114.69
193.362	81.92
193.581	75.77
193.8	65.53
194.02	61.44
194.239	-8.19
194.458	83.97
194.678	-57.34
194.897	20.48
195.116	18.43
195.335	63.49
195.555	40.96
195.774	-8.19
195.993	12.29
196.212	34.82
196.432	4.1
196.651	4.1
196.87	69.63
197.089	174.08
197.308	120.83
197.528	40.96
197.747	10.24
197.966	65.53
198.185	59.39
198.404	71.68
198.623	57.34
198.842	67.58
199.062	110.59
199.281	30.72
199.5	63.49
199.719	-40.96
199.938	96.25
200.157	100.35
200.376	110.59
200.595	-18.43
200.814	59.39
201.033	18.43
201.252	100.35
201.471	69.63
201.69	114.69
201.909	24.58
202.128	57.34
202.347	32.77
202.566	73.73
202.785	18.43
203.004	30.72
203.223	165.89
203.442	57.34
203.661	40.96
203.879	28.67
204.098	18.43
204.317	-24.58
204.536	63.49
204.755	8.19
204.974	65.53
205.193	114.69
205.411	94.21
205.63	131.07
205.849	-43.01
206.068	4.1
206.287	12.29
206.505	129.02
206.724	63.49
206.943	51.2
207.162	12.29
207.381	90.11
207.599	59.39
207.818	94.21
208.037	32.77
208.255	43.01
208.474	34.82
208.693	34.82
208.911	49.15
209.13	73.73
209.349	65.53
209.567	49.15
209.786	118.78
210.005	143.36
210.223	-14.34
210.442	10.24
210.661	75.77
210.879	67.58
211.098	34.82
211.316	57.34
211.535	73.73
211.753	38.91
211.972	14.34
212.191	28.67
212.409	26.62
212.628	65.53
212.846	2.05
213.065	26.62
213.283	139.26
213.502	6.14
213.72	51.2
213.938	75.77
214.157	-4.1
214.375	106.49
214.594	-8.19
214.812	47.1
215.031	34.82
215.249	75.77
215.467	59.39
215.686	57.34
215.904	143.36
216.122	49.15
216.341	120.83
216.559	-34.82
216.778	77.82
216.996	-4.1
217.214	45.06
217.432	-57.34
217.651	53.25
217.869	57.34
218.087	12.29
218.306	47.1
218.524	88.06
218.742	-26.62
218.96	2.05
219.179	36.86
219.397	40.96
219.615	147.45
219.833	83.97
220.051	2.05
220.27	67.58
220.488	90.11
220.706	-8.19
220.924	51.2
221.142	20.48
221.36	53.25
221.578	55.3
221.796	63.49
222.015	65.53
222.233	69.63
222.451	59.39
222.669	10.24
222.887	106.49
223.105	-20.48
223.323	61.44
223.541	-28.67
223.759	43.01
223.977	96.25
224.195	135.17
224.413	55.3
224.631	92.16
224.849	88.06
225.067	24.58
225.285	28.67
225.503	24.58
225.721	-69.63
225.939	45.06
226.157	116.73
226.375	102.4
226.592	20.48
226.81	73.73
227.028	51.2
227.246	163.84
227.464	-22.53
227.682	73.73
227.9	55.3
228.117	57.34
228.335	8.19
228.553	49.15
228.771	28.67
228.989	104.45
229.206	45.06
229.424	-63.49
229.642	51.2
229.86	118.78
230.077	110.59
230.295	34.82
230.513	104.45
230.731	86.01
230.948	63.49
231.166	49.15
231.384	24.58
231.601	-57.34
231.819	-18.43
232.037	63.49
232.254	-40.96
232.472	16.38
232.689	8.19
232.907	59.39
233.125	-2.05
233.342	67.58
233.56	49.15
233.777	-2.05
233.995	-24.58
234.213	73.73
234.43	63.49
234.648	45.06
234.865	-6.14
235.083	18.43
235.3	28.67
235.518	104.45
235.735	192.51
235.953	40.96
236.17	24.58
236.388	108.54
236.605	69.63
236.822	26.62
237.04	45.06
237.257	81.92
237.475	-10.24
237.692	12.29
237.909	14.34
238.127	0
238.344	61.44
238.562	94.21
238.779	-8.19
238.996	43.01
239.214	75.77
239.431	110.59
239.648	-40.96
239.865	73.73
240.083	67.58
240.3	16.38
240.517	-4.1
240.735	28.67
240.952	65.53
241.169	28.67
241.386	110.59
241.603	24.58
241.821	10.24
242.038	88.06
242.255	73.73
242.472	0
242.689	63.49
242.907	77.82
243.124	65.53
243.341	73.73
243.558	55.3
243.775	83.97
243.992	-59.39
244.209	57.34
244.426	65.53
244.643	102.4
244.86	4.1
245.078	24.58
245.295	118.78
245.512	-8.19
245.729	34.82
245.946	40.96
246.163	129.02
246.38	-22.53
246.597	6.14
246.814	14.34
247.031	53.25
247.248	124.93
247.464	118.78
247.681	-47.1
247.898	92.16
248.115	53.25
248.332	-14.34
248.549	131.07
248.766	32.77
248.983	43.01
249.2	6.14
249.417	147.45
249.633	16.38
249.85	108.54
250.067	12.29
250.284	43.01
250.501	45.06
250.717	100.35
250.934	28.67
251.151	2.05
251.368	102.4
251.585	65.53
251.801	61.44
252.018	-6.14
252.235	98.3
252.451	45.06
252.668	-14.34
252.885	67.58
253.102	10.24
253.318	96.25
253.535	-47.1
253.752	10.24
253.968	49.15
254.185	49.15
254.401	75.77
254.618	55.3
254.835	88.06
255.051	38.91
255.268	49.15
255.484	83.97
255.701	0
255.917	73.73
256.134	6.14
256.351	51.2
256.567	61.44
256.784	10.24
257	8.19
257.217	55.3
257.433	36.86
257.65	12.29
257.866	49.15
258.082	-16.38
258.299	-8.19
258.515	20.48
258.732	36.86
258.948	-16.38
259.165	49.15
259.381	20.48
259.597	61.44
259.814	14.34
260.03	49.15
260.246	26.62
260.463	43.01
260.679	2.05
260.895	34.82
261.112	-14.34
261.328	36.86
261.544	53.25
261.761	122.88
261.977	40.96
262.193	-16.38
262.409	114.69
262.626	45.06
262.842	102.4
263.058	34.82
263.274	65.53
263.49	26.62
263.707	86.01
263.923	88.06
264.139	20.48
264.355	10.24
264.571	98.3
264.787	36.86
265.004	57.34
265.22	71.68
265.436	14.34
265.652	57.34
265.868	28.67
266.084	14.34
266.3	40.96
266.516	-8.19
266.732	22.53
266.948	61.44
267.164	28.67
267.38	8.19
267.596	-63.49
267.812	8.19
268.028	61.44
268.244	-12.29
268.46	73.73
268.676	71.68
268.892	81.92
269.108	43.01
269.324	32.77
269.54	55.3
269.756	59.39
269.972	45.06
270.188	59.39
270.403	-10.24
270.619	106.49
270.835	55.3
271.051	28.67
271.267	-6.14
271.483	77.82
271.698	67.58
271.914	71.68
272.13	69.63
272.346	61.44
272.562	57.34
272.777	65.53
272.993	71.68
273.209	40.96
273.425	32.77
273.64	-55.3
273.856	61.44
274.072	67.58
274.287	2.05
274.503	49.15
274.719	69.63
274.934	57.34
275.15	-18.43
275.366	73.73
275.581	20.48
275.797	-53.25
276.012	-40.96
276.228	18.43
276.444	32.77
276.659	133.12
276.875	65.53
277.09	81.92
277.306	49.15
277.521	90.11
277.737	-4.1
277.952	71.68
278.168	63.49
278.383	-49.15
278.599	24.58
278.814	131.07
279.03	86.01
279.245	86.01
279.461	26.62
279.676	26.62
279.892	4.1
280.107	18.43
280.322	8.19
280.538	-51.2
280.753	18.43
280.969	16.38
281.184	10.24
281.399	59.39
281.615	18.43
281.83	0
282.045	-75.77
282.26	-61.44
282.476	22.53
282.691	81.92
282.906	43.01
283.122	32.77
283.337	-8.19
283.552	69.63
283.767	26.62
283.983	59.39
284.198	18.43
284.413	67.58
284.628	-6.14
284.843	24.58
285.058	16.38
285.274	18.43
285.489	-8.19
285.704	16.38
285.919	40.96
286.134	40.96
286.349	49.15
286.564	30.72
286.779	86.01
286.995	0
287.21	-18.43
287.425	28.67
287.64	30.72
287.855	67.58
288.07	-34.82
288.285	49.15
288.5	67.58
288.715	63.49
288.93	65.53
289.145	53.25
289.36	118.78
289.575	2.05
289.79	26.62
290.004	57.34
290.219	139.26
290.434	-36.86
290.649	32.77
290.864	45.06
291.079	69.63
291.294	81.92
291.509	18.43
291.724	79.87
291.938	18.43
292.153	77.82
292.368	-2.05
292.583	2.05
292.798	63.49
293.012	-71.68
293.227	36.86
293.442	8.19
293.657	67.58
293.871	122.88
294.086	28.67
294.301	47.1
294.516	94.21
294.73	-28.67
294.945	0
295.16	16.38
295.374	65.53
295.589	86.01
295.804	79.87
296.018	106.49
296.233	75.77
296.447	14.34
296.662	-28.67
296.877	63.49
297.091	100.35
297.306	-16.38
297.52	63.49
297.735	81.92
297.949	26.62
298.164	40.96
298.378	106.49
298.593	-43.01
298.807	12.29
299.022	-47.1
299.236	-20.48
299.451	18.43
299.665	57.34
299.88	16.38
300.094	77.82
300.309	6.14
300.523	61.44
300.737	47.1
300.952	4.1
301.166	30.72
301.381	8.19
301.595	65.53
301.809	34.82
302.024	18.43
302.238	14.34
302.452	165.89
302.667	57.34
302.881	114.69
303.095	83.97
303.309	55.3
303.524	-8.19
303.738	16.38
303.952	98.3
304.166	100.35
304.381	10.24
304.595	73.73
304.809	53.25
305.023	81.92
305.237	38.91
305.452	63.49
305.666	24.58
305.88	92.16
306.094	49.15
306.308	51.2
306.522	126.97
306.736	63.49
306.95	81.92
307.164	-10.24
307.379	-10.24
307.593	88.06
307.807	16.38
308.021	55.3
308.235	-12.29
308.449	-30.72
308.663	30.72
308.877	169.98
309.091	86.01
309.305	90.11
309.519	-49.15
309.733	135.17
309.947	-32.77
310.161	26.62
310.374	106.49
310.588	51.2
310.802	-30.72
311.016	-16.38
311.23	-10.24
311.444	-16.38
311.658	94.21
311.872	28.67
312.085	2.05
312.299	69.63
312.513	79.87
312.727	83.97
312.941	-57.34
313.154	90.11
313.368	79.87
313.582	92.16
313.796	12.29
314.009	-8.19
314.223	49.15
314.437	53.25
314.651	24.58
314.864	20.48
315.078	4.1
315.292	0
315.505	-6.14
315.719	24.58
315.933	77.82
316.146	96.25
316.36	20.48
316.573	114.69
316.787	34.82
317.001	122.88
317.214	61.44
317.428	-8.19
317.641	59.39
317.855	79.87
318.068	69.63
318.282	141.31
318.495	69.63
318.709	47.1
318.922	83.97
319.136	59.39
319.349	18.43
319.563	43.01
319.776	2.05
319.99	-55.3
320.203	26.62
320.417	20.48
320.63	-2.05
320.843	73.73
321.057	63.49
321.27	143.36
321.483	49.15
321.697	73.73
321.91	34.82
322.124	114.69
322.337	67.58
322.55	32.77
322.763	129.02
322.977	-8.19
323.19	10.24
323.403	38.91
323.617	55.3
323.83	32.77
324.043	0
324.256	30.72
324.469	73.73
324.683	67.58
324.896	-28.67
325.109	32.77
325.322	8.19
325.535	49.15
325.748	20.48
325.962	83.97
326.175	22.53
326.388	57.34
326.601	104.45
326.814	-47.1
327.027	2.05
327.24	104.45
327.453	-10.24
327.666	133.12
327.879	92.16
328.092	98.3
328.305	88.06
328.518	8.19
328.731	32.77
328.944	43.01
329.157	16.38
329.37	10.24
329.583	98.3
329.796	131.07
330.009	-92.16
330.222	57.34
330.435	98.3
330.648	53.25
330.861	4.1
331.073	14.34
331.286	40.96
331.499	20.48
331.712	-16.38
331.925	108.54
332.138	10.24
332.35	63.49
332.563	-28.67
332.776	63.49
332.989	32.77
333.202	20.48
333.414	-40.96
333.627	18.43
333.84	32.77
334.053	36.86
334.265	24.58
334.478	-24.58
334.691	141.31
334.903	88.06
335.116	-32.77
335.329	73.73
335.541	73.73
335.754	77.82
335.966	-8.19
336.179	69.63
336.392	-16.38
336.604	10.24
336.817	114.69
337.029	71.68
337.242	61.44
337.454	28.67
337.667	30.72
337.88	69.63
338.092	47.1
338.305	0
338.517	47.1
338.729	20.48
338.942	165.89
339.154	40.96
339.367	-65.54
339.579	81.92
339.792	61.44
340.004	88.06
340.217	45.06
340.429	71.68
340.641	53.25
340.854	32.77
341.066	-20.48
341.278	57.34
341.491	143.36
341.703	30.72
341.915	-36.86
342.128	81.92
342.34	40.96
342.552	-6.14
342.764	24.58
342.977	51.2
343.189	53.25
343.401	28.67
343.613	8.19
343.826	112.64
344.038	49.15
344.25	2.05
344.462	18.43
344.674	63.49
344.886	53.25
345.099	90.11
345.311	57.34
345.523	20.48
345.735	-90.11
345.947	81.92
346.159	92.16
346.371	114.69
346.583	53.25
346.795	131.07
347.007	59.39
347.219	32.77
347.431	47.1
347.643	49.15
347.855	88.06
348.067	137.21
348.279	-55.3
348.491	51.2
348.703	81.92
348.915	-14.34
349.127	-8.19
349.339	69.63
349.551	16.38
349.763	16.38
349.975	-6.14
350.187	61.44
350.399	90.11
350.61	51.2
350.822	32.77
351.034	135.17
351.246	79.87
351.458	155.65
351.669	69.63
351.881	49.15
352.093	53.25
352.305	100.35
352.517	22.53
352.728	145.41
352.94	32.77
353.152	88.06
353.363	32.77
353.575	90.11
353.787	12.29
353.999	67.58
354.21	49.15
354.422	12.29
354.633	86.01
354.845	67.58
355.057	65.53
355.268	8.19
355.48	-4.1
355.692	61.44
355.903	55.3
356.115	-20.48
356.326	-2.05
356.538	108.54
356.749	75.77
356.961	126.97
357.172	114.69
357.384	51.2
357.595	77.82
357.807	59.39
358.018	45.06
358.23	77.82
358.441	147.45
358.653	51.2
358.864	55.3
359.075	30.72
359.287	106.49
359.498	122.88
359.709	40.96
359.921	83.97
360.132	38.91
360.344	63.49
360.555	34.82
360.766	57.34
360.977	67.58
361.189	20.48
361.4	18.43
361.611	73.73
361.823	102.4
362.034	83.97
362.245	12.29
362.456	32.77
362.667	86.01
362.879	-16.38
363.09	6.14
363.301	10.24
363.512	18.43
363.723	77.82
363.935	98.3
364.146	59.39
364.357	96.25
364.568	65.53
364.779	32.77
364.99	145.41
365.201	57.34
365.412	126.97
365.623	16.38
365.834	28.67
366.045	116.73
366.256	20.48
366.467	32.77
366.678	106.49
366.889	40.96
367.1	-6.14
367.311	24.58
367.522	-2.05
367.733	122.88
367.944	108.54
368.155	26.62
368.366	116.73
368.577	34.82
368.788	14.34
368.999	40.96
369.209	34.82
369.42	69.63
369.631	141.31
369.842	83.97
370.053	67.58
370.264	43.01
370.474	30.72
370.685	24.58
370.896	32.77
371.107	139.26
371.317	110.59
371.528	32.77
371.739	92.16
371.95	49.15
372.16	51.2
372.371	10.24
372.582	24.58
372.792	116.73
373.003	24.58
373.214	112.64
373.424	92.16
373.635	-2.05
373.846	98.3
374.056	51.2
374.267	116.73
374.477	83.97
374.688	57.34
374.898	34.82
375.109	36.86
375.319	36.86
375.53	59.39
375.74	20.48
375.951	16.38
376.161	106.49
376.372	67.58
376.582	-16.38
376.793	86.01
377.003	24.58
377.214	26.62
377.424	120.83
377.635	20.48
377.845	49.15
378.055	96.25
378.266	-12.29
378.476	-32.77
378.686	106.49
378.897	77.82
379.107	10.24
379.317	63.49
379.528	63.49
379.738	92.16
379.948	61.44
380.158	77.82
380.369	4.1
380.579	114.69
380.789	18.43
380.999	88.06
381.21	51.2
381.42	188.41
381.63	22.53
381.84	124.93
382.05	2.05
382.261	81.92
382.471	65.53
382.681	45.06
382.891	38.91
383.101	47.1
383.311	53.25
383.521	32.77
383.731	100.35
383.941	114.69
384.151	77.82
384.361	32.77
384.571	92.16
384.781	106.49
384.991	108.54
385.201	196.61
385.411	184.32
385.621	92.16
385.831	32.77
386.041	96.25
386.251	61.44
386.461	43.01
386.671	2.05
386.881	59.39
387.091	104.45
387.301	126.97
387.511	24.58
387.72	92.16
387.93	61.44
388.14	-24.58
388.35	34.82
388.56	106.49
388.769	79.87
388.979	-10.24
389.189	86.01
389.399	122.88
389.609	92.16
389.818	133.12
390.028	90.11
390.238	28.67
390.447	-18.43
390.657	100.35
390.867	59.39
391.076	51.2
391.286	96.25
391.496	36.86
391.705	90.11
391.915	129.02
392.125	118.78
392.334	34.82
392.544	98.3
392.753	67.58
392.963	-10.24
393.172	98.3
393.382	94.21
393.591	198.65
393.801	20.48
394.01	165.89
394.22	122.88
394.429	67.58
394.639	73.73
394.848	51.2
395.058	75.77
395.267	106.49
395.477	143.36
395.686	108.54
395.895	98.3
396.105	147.45
396.314	106.49
396.524	79.87
396.733	133.12
396.942	102.4
397.152	108.54
397.361	100.35
397.57	83.97
397.78	122.88
397.989	94.21
398.198	190.46
398.407	6.14
398.617	118.78
398.826	104.45
399.035	106.49
399.244	106.49
399.453	24.58
399.663	90.11
399.872	147.45
400.081	49.15
400.29	184.32
400.499	69.63
400.708	151.55
400.917	131.07
401.127	86.01
401.336	98.3
401.545	163.84
401.754	122.88
401.963	139.26
402.172	112.64
402.381	86.01
402.59	77.82
402.799	182.27
403.008	149.5
403.217	124.93
403.426	192.51
403.635	112.64
403.844	131.07
404.053	96.25
404.262	40.96
404.471	100.35
404.68	124.93
404.888	92.16
405.097	110.59
405.306	182.27
405.515	229.37
405.724	122.88
405.933	229.37
406.142	243.71
406.35	227.32
406.559	163.84
406.768	264.19
406.977	260.09
407.185	180.22
407.394	176.13
407.603	157.69
407.812	167.93
408.02	233.47
408.229	223.23
408.438	188.41
408.646	157.69
408.855	210.94
409.064	294.91
409.272	217.08
409.481	280.57
409.69	225.28
409.898	296.96
410.107	311.29
410.315	305.15
410.524	253.95
410.733	348.15
410.941	313.34
411.15	327.67
411.358	335.87
411.567	352.25
411.775	471.03
411.984	354.3
412.192	477.18
412.401	413.69
412.609	456.7
412.818	526.33
413.026	495.61
413.234	454.65
413.443	385.02
413.651	477.18
413.86	501.75
414.068	524.28
414.276	651.25
414.485	501.75
414.693	745.46
414.901	679.93
415.11	595.96
415.318	591.86
415.526	677.88
415.734	751.6
415.943	743.41
416.151	765.94
416.359	735.22
416.567	864.24
416.776	856.05
416.984	911.35
417.192	997.36
417.4	942.07
417.608	796.66
417.817	942.07
418.025	1081.33
418.233	1116.14
418.441	1064.94
418.649	1169.39
418.857	1202.16
419.065	1282.03
419.273	1101.81
419.481	1206.25
419.689	1394.67
419.897	1433.58
420.105	1386.47
420.313	1501.16
420.521	1462.25
420.729	1527.78
420.937	1624.04
421.145	1558.5
421.353	1654.76
421.561	1875.94
421.769	1843.17
421.977	1865.7
422.185	1925.09
422.393	1943.52
422.601	2015.2
422.809	2232.29
423.017	2117.6
423.224	2234.33
423.432	2267.1
423.64	2318.3
423.848	2488.28
424.056	2410.46
424.263	2729.94
424.471	2682.84
424.679	2695.13
424.887	2793.43
425.094	2830.29
425.302	2912.21
425.51	3002.32
425.718	3123.15
425.925	3172.3
426.133	3272.65
426.341	3416.01
426.548	3538.89
426.756	3629
426.964	3626.95
427.171	3862.47
427.379	3962.82
427.586	4085.7
427.794	4110.27
428.001	4290.49
428.209	4509.63
428.417	4423.61
428.624	4853.69
428.832	4825.01
429.039	4710.33
429.247	4659.13
429.454	5343.15
429.662	5476.27
429.869	5148.59
430.076	5576.62
430.284	5431.21
430.491	5808.04
430.699	5969.83
430.906	5932.97
431.114	5961.64
431.321	6268.83
431.528	6391.71
431.736	6889.37
431.943	7069.59
432.15	6848.41
432.358	7045.01
432.565	7335.82
432.772	7430.03
432.979	7653.26
433.187	7790.47
433.394	8025.99
433.601	8443.78
433.808	8505.21
434.016	8404.86
434.223	8726.39
434.43	9287.54
434.637	9150.32
434.844	9752.43
435.052	9969.51
435.259	9992.04
435.466	10028.9
435.673	9766.76
435.88	10454.88
436.087	10946.39
436.294	11204.44
436.501	10725.21
436.708	11069.27
436.915	11370.32
437.122	12162.89
437.329	12025.67
437.537	12212.04
437.743	12590.91
437.95	12314.44
438.157	12943.16
438.364	13481.78
438.571	13221.69
438.778	13539.12
438.985	14630.69
439.192	14180.14
439.399	14739.23
439.606	14366.5
439.813	15062.81
440.02	16062.22
440.227	15976.2
440.433	15859.47
440.64	16121.61
440.847	16213.77
441.054	16461.57
441.261	17325.82
441.467	17180.41
441.674	17778.42
441.881	18349.8
442.088	18218.73
442.294	17983.21
442.501	18630.37
442.708	18900.7
442.914	19635.92
443.121	20403.91
443.328	20160.2
443.534	21462.71
443.741	20770.5
443.948	20508.36
444.154	21892.79
444.361	21937.84
444.568	21976.75
444.774	22058.67
444.981	22159.02
445.187	23056.03
445.394	23764.63
445.6	23473.82
445.807	25699.96
446.013	24739.46
446.22	25284.22
446.426	26564.2
446.633	26674.79
446.839	27684.44
447.046	26162.8
447.252	27706.97
447.459	27532.89
447.665	27885.14
447.871	28829.26
448.078	30322.23
448.284	28675.66
448.491	29722.17
448.697	30770.73
448.903	31409.7
449.11	31567.39
449.316	30924.33
449.522	31460.9
449.728	32443.92
449.935	33033.74
450.141	32677.39
450.347	33103.37
450.553	32259.6
450.76	32687.63
450.966	33541.63
451.172	33582.59
451.378	34127.35
451.584	33590.78
451.791	34512.37
451.997	34133.5
452.203	35190.25
452.409	35341.8
452.615	35337.7
452.821	33637.89
453.027	33205.77
453.233	35306.98
453.44	33590.78
453.646	34151.93
453.852	34364.92
454.058	34579.95
454.264	33697.28
454.47	34495.99
454.676	33644.03
454.882	34674.16
455.088	31827.48
455.294	32179.73
455.5	32865.8
455.705	33181.19
455.911	31921.69
456.117	31346.21
456.323	30795.31
456.529	29152.84
456.735	30508.59
456.941	29748.79
457.147	29189.7
457.352	28434
457.558	28188.24
457.764	28364.37
457.97	27477.6
458.176	26934.88
458.381	27135.59
458.587	25720.44
458.793	25695.86
458.999	24428.17
459.204	26134.13
459.41	25400.96
459.616	23506.59
459.821	23688.85
460.027	23924.37
460.233	23176.86
460.438	22066.86
460.644	22255.28
460.85	21378.75
461.055	20850.37
461.261	20883.14
461.466	19396.31
461.672	18542.31
461.878	19832.53
462.083	18816.74
462.289	18523.88
462.494	18423.53
462.7	17250.04
462.905	17071.87
463.111	17530.61
463.316	17207.03
463.522	17264.38
463.727	17102.59
463.932	17055.48
464.138	17008.38
464.343	16971.52
464.549	16291.59
464.754	16969.47
464.959	16649.99
465.165	16717.57
465.37	16084.75
465.575	15628.05
465.781	16129.8
465.986	16338.69
466.191	15738.64
466.397	15370.01
466.602	14802.72
466.807	15212.31
467.012	15183.64
467.218	15206.17
