Data from USB4F104151__81__13-06-13-679.txt Node

Date: Fri Mar 14 13:06:13 EDT 2025
User: louis
Spectrometer: USB4F10415
Trigger mode: 4
Integration Time (sec): 4.000000E-2
Scans to average: 1
Electric dark correction enabled: true
Nonlinearity correction enabled: false
Boxcar width: 0
XAxis mode: Wavelengths
Number of Pixels in Spectrum: 3648
>>>>>Begin Spectral Data<<<<<
178.204	-224.08
178.424	-224.08
178.644	-224.08
178.864	-260.95
179.084	-209.75
179.304	-0.85
179.524	-35.67
179.744	-0.85
179.964	36.01
180.184	-0.85
180.404	-0.85
180.624	25.77
180.844	-11.09
181.064	-80.72
181.283	23.72
181.503	-0.85
181.723	46.25
181.943	-123.73
182.163	62.63
182.383	-4.95
182.602	40.11
182.822	25.77
183.042	33.96
183.262	-52.05
183.482	44.2
183.701	-33.62
183.921	31.91
184.141	-7
184.361	-11.09
184.58	31.91
184.8	-35.67
185.02	-41.81
185.239	-47.96
185.459	-13.14
185.679	23.72
185.898	-0.85
186.118	44.2
186.338	31.91
186.557	-41.81
186.777	-33.62
186.997	-78.68
187.216	27.82
187.436	64.68
187.655	-17.24
187.875	-7
188.095	-41.81
188.314	58.54
188.534	17.58
188.753	44.2
188.973	48.3
189.192	11.43
189.412	-64.34
189.631	7.34
189.851	-29.52
190.07	99.5
190.29	11.43
190.509	9.39
190.729	13.48
190.948	-21.33
191.168	195.75
191.387	107.69
191.607	-58.2
191.826	-33.62
192.045	1.19
192.265	25.77
192.484	7.34
192.704	-19.29
192.923	-27.48
193.142	138.41
193.362	25.77
193.581	103.59
193.8	-2.9
194.02	99.5
194.239	23.72
194.458	23.72
194.678	52.39
194.897	-17.24
195.116	-33.62
195.335	15.53
195.555	36.01
195.774	7.34
195.993	68.78
196.212	15.53
196.432	-66.39
196.651	21.67
196.87	-23.38
197.089	101.55
197.308	56.49
197.528	33.96
197.747	-56.15
197.966	44.2
198.185	62.63
198.404	-31.57
198.623	68.78
198.842	85.16
199.062	89.26
199.281	52.39
199.5	-9.05
199.719	9.39
199.938	76.97
200.157	23.72
200.376	162.98
200.595	42.15
200.814	62.63
201.033	-43.86
201.252	25.77
201.471	44.2
201.69	50.35
201.909	-4.95
202.128	72.87
202.347	-35.67
202.566	-15.19
202.785	-62.29
203.004	7.34
203.223	66.73
203.442	-27.48
203.661	-29.52
203.879	15.53
204.098	91.31
204.317	-7
204.536	48.3
204.755	-2.9
204.974	31.91
205.193	7.34
205.411	54.44
205.63	48.3
205.849	70.83
206.068	3.24
206.287	56.49
206.505	27.82
206.724	3.24
206.943	-58.2
207.162	-15.19
207.381	-31.57
207.599	-39.76
207.818	-35.67
208.037	-54.1
208.255	-56.15
208.474	79.02
208.693	36.01
208.911	9.39
209.13	85.16
209.349	-66.39
209.567	89.26
209.786	68.78
210.005	79.02
210.223	38.06
210.442	-17.24
210.661	17.58
210.879	72.87
211.098	19.63
211.316	54.44
211.535	23.72
211.753	56.49
211.972	56.49
212.191	-78.68
212.409	-41.81
212.628	9.39
212.846	-4.95
213.065	11.43
213.283	25.77
213.502	25.77
213.72	-43.86
213.938	50.35
214.157	56.49
214.375	-4.95
214.594	11.43
214.812	33.96
215.031	-52.05
215.249	5.29
215.467	36.01
215.686	-27.48
215.904	85.16
216.122	33.96
216.341	-33.62
216.559	-0.85
216.778	46.25
216.996	13.48
217.214	-41.81
217.432	-29.52
217.651	-70.48
217.869	-2.9
218.087	21.67
218.306	-35.67
218.524	52.39
218.742	-41.81
218.96	66.73
219.179	-27.48
219.397	-13.14
219.615	40.11
219.833	5.29
220.051	-88.92
220.27	81.07
220.488	-23.38
220.706	66.73
220.924	-56.15
221.142	-45.91
221.36	-21.33
221.578	-2.9
221.796	48.3
222.015	-0.85
222.233	-0.85
222.451	56.49
222.669	-45.91
222.887	44.2
223.105	-64.34
223.323	-25.43
223.541	9.39
223.759	25.77
223.977	-19.29
224.195	58.54
224.413	50.35
224.631	-0.85
224.849	66.73
225.067	66.73
225.285	-21.33
225.503	44.2
225.721	38.06
225.939	-21.33
226.157	-2.9
226.375	103.59
226.592	-0.85
226.81	-25.43
227.028	50.35
227.246	60.59
227.464	-2.9
227.682	-15.19
227.9	5.29
228.117	-11.09
228.335	21.67
228.553	56.49
228.771	42.15
228.989	-4.95
229.206	-39.76
229.424	-90.96
229.642	-84.82
229.86	-50
230.077	19.63
230.295	56.49
230.513	-33.62
230.731	72.87
230.948	70.83
231.166	38.06
231.384	-29.52
231.601	-72.53
231.819	-52.05
232.037	25.77
232.254	-50
232.472	48.3
232.689	-11.09
232.907	-25.43
233.125	93.35
233.342	7.34
233.56	-31.57
233.777	-15.19
233.995	74.92
234.213	74.92
234.43	-41.81
234.648	-62.29
234.865	-86.87
235.083	52.39
235.3	-31.57
235.518	19.63
235.735	64.68
235.953	83.11
236.17	-2.9
236.388	42.15
236.605	17.58
236.822	1.19
237.04	64.68
237.257	7.34
237.475	-50
237.692	56.49
237.909	-25.43
238.127	-29.52
238.344	40.11
238.562	-41.81
238.779	-0.85
238.996	-129.88
239.214	-11.09
239.431	46.25
239.648	-39.76
239.865	117.93
240.083	1.19
240.3	7.34
240.517	1.19
240.735	48.3
240.952	97.45
241.169	27.82
241.386	33.96
241.603	23.72
241.821	-39.76
242.038	-2.9
242.255	-17.24
242.472	-39.76
242.689	81.07
242.907	64.68
243.124	1.19
243.341	23.72
243.558	-23.38
243.775	-25.43
243.992	-37.72
244.209	70.83
244.426	99.5
244.643	29.87
244.86	-39.76
245.078	-54.1
245.295	-41.81
245.512	72.87
245.729	-66.39
245.946	25.77
246.163	-33.62
246.38	13.48
246.597	42.15
246.814	-11.09
247.031	52.39
247.248	-29.52
247.464	72.87
247.681	-11.09
247.898	33.96
248.115	-0.85
248.332	21.67
248.549	31.91
248.766	72.87
248.983	66.73
249.2	-4.95
249.417	21.67
249.633	-19.29
249.85	7.34
250.067	-15.19
250.284	36.01
250.501	19.63
250.717	50.35
250.934	-7
251.151	31.91
251.368	-25.43
251.585	105.64
251.801	-2.9
252.018	-31.57
252.235	40.11
252.451	-82.77
252.668	-19.29
252.885	81.07
253.102	-15.19
253.318	-31.57
253.535	9.39
253.752	-2.9
253.968	-72.53
254.185	-66.39
254.401	11.43
254.618	36.01
254.835	-0.85
255.051	81.07
255.268	9.39
255.484	40.11
255.701	7.34
255.917	44.2
256.134	79.02
256.351	60.59
256.567	-41.81
256.784	-0.85
257	-13.14
257.217	122.02
257.433	76.97
257.65	-25.43
257.866	46.25
258.082	-17.24
258.299	-21.33
258.515	70.83
258.732	7.34
258.948	-31.57
259.165	5.29
259.381	-62.29
259.597	33.96
259.814	64.68
260.03	21.67
260.246	42.15
260.463	-7
260.679	36.01
260.895	-21.33
261.112	72.87
261.328	-41.81
261.544	-9.05
261.761	93.35
261.977	-103.25
262.193	-43.86
262.409	38.06
262.626	15.53
262.842	60.59
263.058	33.96
263.274	76.97
263.49	36.01
263.707	66.73
263.923	17.58
264.139	-19.29
264.355	33.96
264.571	79.02
264.787	19.63
265.004	31.91
265.22	-17.24
265.436	1.19
265.652	17.58
265.868	105.64
266.084	-62.29
266.3	-39.76
266.516	-97.11
266.732	-41.81
266.948	-13.14
267.164	-15.19
267.38	62.63
267.596	-25.43
267.812	42.15
268.028	132.26
268.244	-39.76
268.46	-0.85
268.676	-13.14
268.892	-35.67
269.108	-58.2
269.324	-45.91
269.54	-23.38
269.756	40.11
269.972	-47.96
270.188	29.87
270.403	-90.96
270.619	5.29
270.835	23.72
271.051	27.82
271.267	-78.68
271.483	-23.38
271.698	72.87
271.914	76.97
272.13	52.39
272.346	1.19
272.562	7.34
272.777	7.34
272.993	-21.33
273.209	-29.52
273.425	64.68
273.64	25.77
273.856	15.53
274.072	3.24
274.287	-25.43
274.503	27.82
274.719	-0.85
274.934	15.53
275.15	-45.91
275.366	113.83
275.581	36.01
275.797	11.43
276.012	-50
276.228	-4.95
276.444	9.39
276.659	113.83
276.875	7.34
277.09	50.35
277.306	-2.9
277.521	48.3
277.737	27.82
277.952	25.77
278.168	-11.09
278.383	15.53
278.599	15.53
278.814	146.6
279.03	23.72
279.245	136.36
279.461	-9.05
279.676	58.54
279.892	-47.96
280.107	-31.57
280.322	-33.62
280.538	52.39
280.753	-39.76
280.969	1.19
281.184	-4.95
281.399	3.24
281.615	-23.38
281.83	3.24
282.045	7.34
282.26	11.43
282.476	62.63
282.691	107.69
282.906	44.2
283.122	58.54
283.337	-52.05
283.552	36.01
283.767	-37.72
283.983	87.21
284.198	-17.24
284.413	44.2
284.628	13.48
284.843	27.82
285.058	-7
285.274	-0.85
285.489	9.39
285.704	72.87
285.919	-41.81
286.134	-43.86
286.349	-72.53
286.564	-23.38
286.779	72.87
286.995	-23.38
287.21	-82.77
287.425	-9.05
287.64	-21.33
287.855	25.77
288.07	-11.09
288.285	11.43
288.5	81.07
288.715	79.02
288.93	7.34
289.145	7.34
289.36	70.83
289.575	-31.57
289.79	-27.48
290.004	-0.85
290.219	40.11
290.434	-15.19
290.649	42.15
290.864	48.3
291.079	-62.29
291.294	-19.29
291.509	-29.52
291.724	-74.58
291.938	-62.29
292.153	33.96
292.368	-17.24
292.583	-17.24
292.798	-11.09
293.012	60.59
293.227	3.24
293.442	-47.96
293.657	87.21
293.871	-23.38
294.086	42.15
294.301	66.73
294.516	40.11
294.73	29.87
294.945	7.34
295.16	15.53
295.374	103.59
295.589	31.91
295.804	9.39
296.018	48.3
296.233	42.15
296.447	-50
296.662	-58.2
296.877	48.3
297.091	-31.57
297.306	25.77
297.52	11.43
297.735	56.49
297.949	33.96
298.164	52.39
298.378	31.91
298.593	-111.44
298.807	-41.81
299.022	-84.82
299.236	64.68
299.451	-23.38
299.665	5.29
299.88	72.87
300.094	62.63
300.309	25.77
300.523	-7
300.737	58.54
300.952	-7
301.166	-0.85
301.381	19.63
301.595	-4.95
301.809	7.34
302.024	-29.52
302.238	-7
302.452	167.08
302.667	91.31
302.881	21.67
303.095	3.24
303.309	-11.09
303.524	-33.62
303.738	-17.24
303.952	-11.09
304.166	-58.2
304.381	-80.72
304.595	56.49
304.809	36.01
305.023	31.91
305.237	5.29
305.452	13.48
305.666	3.24
305.88	60.59
306.094	109.74
306.308	25.77
306.522	33.96
306.736	38.06
306.95	1.19
307.164	25.77
307.379	7.34
307.593	50.35
307.807	79.02
308.021	-29.52
308.235	31.91
308.449	3.24
308.663	23.72
308.877	130.22
309.091	-86.87
309.305	-25.43
309.519	-47.96
309.733	72.87
309.947	-33.62
310.161	50.35
310.374	89.26
310.588	15.53
310.802	-2.9
311.016	-27.48
311.23	68.78
311.444	9.39
311.658	15.53
311.872	68.78
312.085	38.06
312.299	105.64
312.513	23.72
312.727	-17.24
312.941	36.01
313.154	15.53
313.368	7.34
313.582	-45.91
313.796	-19.29
314.009	15.53
314.223	-35.67
314.437	58.54
314.651	9.39
314.864	-7
315.078	-17.24
315.292	-148.31
315.505	-0.85
315.719	23.72
315.933	13.48
316.146	23.72
316.36	-31.57
316.573	101.55
316.787	46.25
317.001	-25.43
317.214	9.39
317.428	-33.62
317.641	-43.86
317.855	-72.53
318.068	-9.05
318.282	-2.9
318.495	58.54
318.709	27.82
318.922	11.43
319.136	113.83
319.349	15.53
319.563	40.11
319.776	19.63
319.99	-35.67
320.203	40.11
320.417	27.82
320.63	42.15
320.843	74.92
321.057	25.77
321.27	7.34
321.483	11.43
321.697	44.2
321.91	3.24
322.124	-4.95
322.337	27.82
322.55	-31.57
322.763	-17.24
322.977	25.77
323.19	-17.24
323.403	21.67
323.617	68.78
323.83	87.21
324.043	31.91
324.256	72.87
324.469	-109.4
324.683	126.12
324.896	-7
325.109	38.06
325.322	-60.24
325.535	81.07
325.748	95.4
325.962	-60.24
326.175	-41.81
326.388	9.39
326.601	27.82
326.814	70.83
327.027	-31.57
327.24	85.16
327.453	15.53
327.666	70.83
327.879	58.54
328.092	15.53
328.305	9.39
328.518	-2.9
328.731	29.87
328.944	25.77
329.157	40.11
329.37	5.29
329.583	60.59
329.796	-4.95
330.009	42.15
330.222	42.15
330.435	52.39
330.648	62.63
330.861	40.11
331.073	-37.72
331.286	3.24
331.499	109.74
331.712	56.49
331.925	25.77
332.138	17.58
332.35	19.63
332.563	-15.19
332.776	21.67
332.989	9.39
333.202	-54.1
333.414	11.43
333.627	62.63
333.84	31.91
334.053	-0.85
334.265	-17.24
334.478	-35.67
334.691	101.55
334.903	-23.38
335.116	-31.57
335.329	-66.39
335.541	40.11
335.754	11.43
335.966	21.67
336.179	-17.24
336.392	-11.09
336.604	-45.91
336.817	17.58
337.029	33.96
337.242	81.07
337.454	31.91
337.667	42.15
337.88	126.12
338.092	85.16
338.305	64.68
338.517	-13.14
338.729	7.34
338.942	38.06
339.154	-70.48
339.367	-21.33
339.579	13.48
339.792	5.29
340.004	79.02
340.217	13.48
340.429	13.48
340.641	1.19
340.854	60.59
341.066	-4.95
341.278	48.3
341.491	62.63
341.703	44.2
341.915	-60.24
342.128	52.39
342.34	-9.05
342.552	31.91
342.764	17.58
342.977	36.01
343.189	23.72
343.401	31.91
343.613	-66.39
343.826	11.43
344.038	-54.1
344.25	56.49
344.462	1.19
344.674	62.63
344.886	27.82
345.099	52.39
345.311	11.43
345.523	9.39
345.735	-29.52
345.947	60.59
346.159	83.11
346.371	11.43
346.583	21.67
346.795	117.93
347.007	-4.95
347.219	119.98
347.431	25.77
347.643	40.11
347.855	-84.82
348.067	103.59
348.279	-45.91
348.491	99.5
348.703	-7
348.915	83.11
349.127	-72.53
349.339	124.07
349.551	3.24
349.763	-29.52
349.975	68.78
350.187	83.11
350.399	5.29
350.61	31.91
350.822	38.06
351.034	-11.09
351.246	19.63
351.458	11.43
351.669	68.78
351.881	-0.85
352.093	103.59
352.305	58.54
352.517	17.58
352.728	56.49
352.94	9.39
353.152	42.15
353.363	58.54
353.575	42.15
353.787	93.35
353.999	56.49
354.21	66.73
354.422	-21.33
354.633	-23.38
354.845	17.58
355.057	105.64
355.268	-45.91
355.48	21.67
355.692	-11.09
355.903	25.77
356.115	-31.57
356.326	-39.76
356.538	105.64
356.749	144.55
356.961	54.44
357.172	52.39
357.384	-33.62
357.595	99.5
357.807	54.44
358.018	-2.9
358.23	25.77
358.441	46.25
358.653	56.49
358.864	31.91
359.075	33.96
359.287	19.63
359.498	-0.85
359.709	-21.33
359.921	56.49
360.132	-31.57
360.344	15.53
360.555	23.72
360.766	23.72
360.977	87.21
361.189	25.77
361.4	46.25
361.611	7.34
361.823	97.45
362.034	56.49
362.245	-47.96
362.456	87.21
362.667	23.72
362.879	36.01
363.09	11.43
363.301	74.92
363.512	-4.95
363.723	27.82
363.935	-66.39
364.146	-9.05
364.357	58.54
364.568	15.53
364.779	-58.2
364.99	72.87
365.201	93.35
365.412	160.94
365.623	-45.91
365.834	46.25
366.045	9.39
366.256	25.77
366.467	27.82
366.678	-23.38
366.889	44.2
367.1	23.72
367.311	-21.33
367.522	27.82
367.733	70.83
367.944	-23.38
368.155	-33.62
368.366	9.39
368.577	115.88
368.788	17.58
368.999	-39.76
369.209	54.44
369.42	109.74
369.631	134.31
369.842	3.24
370.053	-4.95
370.264	50.35
370.474	-29.52
370.685	107.69
370.896	38.06
371.107	68.78
371.317	56.49
371.528	-2.9
371.739	5.29
371.95	85.16
372.16	42.15
372.371	-76.63
372.582	25.77
372.792	111.78
373.003	130.22
373.214	-9.05
373.424	81.07
373.635	48.3
373.846	74.92
374.056	3.24
374.267	107.69
374.477	76.97
374.688	33.96
374.898	66.73
375.109	-23.38
375.319	23.72
375.53	99.5
375.74	7.34
375.951	33.96
376.161	56.49
376.372	83.11
376.582	5.29
376.793	38.06
377.003	-29.52
377.214	27.82
377.424	93.35
377.635	113.83
377.845	17.58
378.055	48.3
378.266	-15.19
378.476	33.96
378.686	64.68
378.897	50.35
379.107	105.64
379.317	33.96
379.528	44.2
379.738	89.26
379.948	-117.59
380.158	81.07
380.369	-39.76
380.579	79.02
380.789	70.83
380.999	-4.95
381.21	101.55
381.42	115.88
381.63	-56.15
381.84	-15.19
382.05	27.82
382.261	93.35
382.471	-0.85
382.681	17.58
382.891	-7
383.101	23.72
383.311	9.39
383.521	13.48
383.731	48.3
383.941	97.45
384.151	25.77
384.361	91.31
384.571	9.39
384.781	56.49
384.991	130.22
385.201	107.69
385.411	48.3
385.621	60.59
385.831	23.72
386.041	122.02
386.251	-27.48
386.461	76.97
386.671	58.54
386.881	31.91
387.091	3.24
387.301	42.15
387.511	-76.63
387.72	74.92
387.93	89.26
388.14	9.39
388.35	115.88
388.56	132.26
388.769	115.88
388.979	33.96
389.189	3.24
389.399	25.77
389.609	70.83
389.818	60.59
390.028	52.39
390.238	36.01
390.447	50.35
390.657	85.16
390.867	11.43
391.076	-9.05
391.286	79.02
391.496	9.39
391.705	74.92
391.915	122.02
392.125	11.43
392.334	5.29
392.544	95.4
392.753	95.4
392.963	66.73
393.172	-11.09
393.382	9.39
393.591	130.22
393.801	29.87
394.01	122.02
394.22	91.31
394.429	15.53
394.639	72.87
394.848	19.63
395.058	58.54
395.267	-9.05
395.477	122.02
395.686	52.39
395.895	87.21
396.105	97.45
396.314	74.92
396.524	64.68
396.733	97.45
396.942	140.46
397.152	140.46
397.361	117.93
397.57	-9.05
397.78	48.3
397.989	97.45
398.198	158.89
398.407	97.45
398.617	42.15
398.826	72.87
399.035	162.98
399.244	70.83
399.453	97.45
399.663	83.11
399.872	87.21
400.081	-45.91
400.29	107.69
400.499	52.39
400.708	146.6
400.917	83.11
401.127	154.79
401.336	54.44
401.545	175.27
401.754	136.36
401.963	103.59
402.172	91.31
402.381	185.51
402.59	99.5
402.799	111.78
403.008	103.59
403.217	107.69
403.426	144.55
403.635	81.07
403.844	132.26
404.053	146.6
404.262	101.55
404.471	201.9
404.68	115.88
404.888	146.6
405.097	68.78
405.306	117.93
405.515	111.78
405.724	134.31
405.933	187.56
406.142	173.22
406.35	197.8
406.559	138.41
406.768	117.93
406.977	189.61
407.185	220.33
407.394	296.1
407.603	42.15
407.812	214.18
408.02	242.85
408.229	261.29
408.438	212.14
408.646	185.51
408.855	203.94
409.064	310.44
409.272	177.32
409.481	251.05
409.69	283.81
409.898	238.76
410.107	294.05
410.315	273.57
410.524	249
410.733	310.44
410.941	265.38
411.15	408.74
411.358	371.88
411.567	394.4
411.775	418.98
411.984	392.36
412.192	484.52
412.401	433.32
412.609	545.95
412.818	525.47
413.026	511.14
413.234	564.39
413.443	515.23
413.651	558.24
413.86	586.91
414.068	574.63
414.276	642.21
414.485	656.54
414.693	638.11
414.901	728.22
415.11	744.61
415.318	826.53
415.526	763.04
415.734	724.13
415.943	896.16
416.151	933.02
416.359	916.64
416.567	875.68
416.776	943.26
416.984	976.03
417.192	1041.56
417.4	953.5
417.608	959.64
417.817	1135.77
418.025	1244.31
418.233	1272.98
418.441	1195.16
418.649	1309.85
418.857	1377.43
419.065	1262.74
419.273	1318.04
419.481	1453.2
419.689	1494.16
419.897	1592.47
420.105	1639.57
420.313	1649.81
420.521	1645.71
420.729	1709.2
420.937	1709.2
421.145	1809.55
421.353	1967.24
421.561	2008.2
421.769	2030.73
421.977	2169.99
422.185	2188.43
422.393	2223.24
422.601	2417.8
422.809	2389.13
423.017	2387.08
423.224	2634.88
423.432	2710.66
423.64	2630.79
423.848	2921.6
424.056	2692.23
424.263	2901.12
424.471	3036.28
424.679	3009.66
424.887	3218.55
425.094	3454.07
425.302	3429.49
425.51	3400.82
425.718	3630.2
425.925	3652.72
426.133	3652.72
426.341	3931.25
426.548	4090.99
426.756	4099.18
426.964	4230.25
427.171	4443.24
427.379	4418.66
427.586	4633.7
427.794	4793.44
428.001	5059.68
428.209	5233.75
428.417	5117.02
428.624	5461.08
428.832	5534.81
429.039	5356.63
429.247	5395.54
429.454	5872.72
429.662	6321.23
429.869	6085.71
430.076	6474.82
430.284	6100.05
430.491	6390.86
430.699	7017.54
430.906	6917.19
431.114	6841.41
431.321	7289.92
431.528	7322.68
431.736	7959.6
431.943	7953.46
432.15	8059.95
432.358	7986.22
432.565	8629.29
432.772	8322.09
432.979	9024.54
433.187	9022.5
433.394	9169.95
433.601	9694.23
433.808	9810.96
434.016	9890.84
434.223	10202.13
434.43	10560.52
434.637	10472.46
434.844	11043.84
435.052	11377.66
435.259	11332.61
435.466	11465.72
435.673	11340.8
435.88	12028.92
436.087	12680.17
436.294	12663.79
436.501	12200.94
436.708	12631.02
436.915	13065.19
437.122	13544.41
437.329	13741.02
437.537	14109.65
437.743	14414.8
437.95	14291.92
438.157	15037.38
438.364	15385.54
438.571	15209.41
438.778	15358.91
438.985	17083.3
439.192	16223.16
439.399	17116.07
439.606	16479.15
439.813	17472.42
440.02	18334.61
440.227	18252.69
440.433	18058.14
440.64	18437.01
440.847	18613.13
441.054	18856.84
441.261	20124.54
441.467	19772.28
441.674	20067.19
441.881	20773.74
442.088	20806.51
442.294	20902.76
442.501	21121.9
442.708	22102.87
442.914	22502.23
443.121	23503.68
443.328	23155.53
443.534	24478.52
443.741	24187.71
443.948	23325.51
444.154	25223.98
444.361	25211.69
444.568	25232.17
444.774	25412.39
444.981	25680.67
445.187	26542.87
445.394	27456.26
445.6	26901.26
445.807	29854.44
446.013	28449.53
446.22	29088.49
446.426	30008.03
446.633	30452.44
446.839	31584.97
447.046	30087.9
447.252	31713.99
447.459	31773.38
447.665	31630.02
447.871	33594.03
448.078	34906.77
448.284	33127.09
448.491	33911.46
448.697	34978.45
448.903	36180.61
449.11	36037.25
449.316	35289.74
449.522	35928.71
449.728	37450.35
449.935	37636.72
450.141	37128.82
450.347	38093.41
450.553	36969.08
450.76	37687.92
450.966	38777.43
451.172	38586.97
451.378	39553.62
451.584	38752.86
451.791	39699.02
451.997	39699.02
452.203	40432.19
452.409	40151.62
452.615	40264.26
452.821	38355.55
453.027	38134.37
453.233	40442.43
453.44	38859.35
453.646	39027.29
453.852	39494.22
454.058	40321.6
454.264	39127.64
454.47	39449.17
454.676	38484.58
454.882	39604.81
455.088	36899.45
455.294	37204.59
455.5	37651.05
455.705	38509.15
455.911	36604.54
456.117	35754.63
456.323	35207.83
456.529	33727.14
456.735	35187.35
456.941	33872.55
457.147	33991.33
457.352	32355
457.558	32561.85
457.764	32400.06
457.97	31703.75
458.176	31247.05
458.381	31249.1
458.587	29807.33
458.793	29735.65
458.999	28244.73
459.204	30448.35
459.41	29393.64
459.616	27484.94
459.821	27575.05
460.027	27216.65
460.233	26974.99
460.438	25416.49
460.644	25731.87
460.85	24519.48
461.055	24083.26
461.261	24216.38
461.466	22483.8
461.672	21490.53
461.878	23208.78
462.083	21637.98
462.289	21363.56
462.494	20953.96
462.7	20231.03
462.905	19561.34
463.111	20366.2
463.316	20577.14
463.522	19868.54
463.727	19934.07
463.932	19772.28
464.138	19721.09
464.343	19929.98
464.549	18983.82
464.754	19884.92
464.959	19594.11
465.165	19250.05
465.37	18670.48
465.575	18115.48
465.781	19100.55
465.986	18934.67
466.191	18144.15
