Data from USB4F104151__55__13-05-38-523.txt Node

Date: Fri Mar 14 13:05:38 EDT 2025
User: louis
Spectrometer: USB4F10415
Trigger mode: 4
Integration Time (sec): 4.000000E-2
Scans to average: 1
Electric dark correction enabled: true
Nonlinearity correction enabled: false
Boxcar width: 0
XAxis mode: Wavelengths
Number of Pixels in Spectrum: 3648
>>>>>Begin Spectral Data<<<<<
178.204	-117.42
178.424	-117.42
178.644	-117.42
178.864	-189.1
179.084	-225.96
179.304	-6.83
179.524	7.51
179.744	-12.97
179.964	3.41
180.184	32.08
180.404	-8.87
180.624	27.99
180.844	23.89
181.064	-8.87
181.283	27.99
181.503	-90.79
181.723	5.46
181.943	-72.36
182.163	71
182.383	-2.73
182.602	40.28
182.822	40.28
183.042	120.15
183.262	-2.73
183.482	-51.88
183.701	40.28
183.921	23.89
184.141	15.7
184.361	34.13
184.58	52.56
184.8	13.65
185.02	5.46
185.239	62.8
185.459	7.51
185.679	25.94
185.898	-41.64
186.118	-31.4
186.338	-39.59
186.557	101.72
186.777	-23.21
186.997	-8.87
187.216	11.61
187.436	46.42
187.655	116.05
187.875	42.32
188.095	-23.21
188.314	79.19
188.534	134.48
188.753	38.23
188.973	109.91
189.192	68.95
189.412	99.67
189.631	62.8
189.851	48.47
190.07	42.32
190.29	-23.21
190.509	-49.83
190.729	-23.21
190.948	36.18
191.168	154.96
191.387	126.29
191.607	73.04
191.826	-4.78
192.045	-37.55
192.265	-105.13
192.484	36.18
192.704	97.62
192.923	30.04
193.142	128.34
193.362	42.32
193.581	60.76
193.8	44.37
194.02	40.28
194.239	81.24
194.458	-27.31
194.678	-21.16
194.897	46.42
195.116	-0.68
195.335	46.42
195.555	71
195.774	-21.16
195.993	60.76
196.212	-49.83
196.432	13.65
196.651	-4.78
196.87	-70.31
197.089	111.96
197.308	58.71
197.528	1.37
197.747	95.57
197.966	-4.78
198.185	-2.73
198.404	-4.78
198.623	124.24
198.842	114
199.062	9.56
199.281	-15.02
199.5	11.61
199.719	68.95
199.938	27.99
200.157	114
200.376	27.99
200.595	40.28
200.814	-4.78
201.033	5.46
201.252	68.95
201.471	9.56
201.69	73.04
201.909	68.95
202.128	101.72
202.347	32.08
202.566	-21.16
202.785	5.46
203.004	-8.87
203.223	68.95
203.442	85.33
203.661	-27.31
203.879	40.28
204.098	58.71
204.317	32.08
204.536	93.52
204.755	-21.16
204.974	54.61
205.193	25.94
205.411	134.48
205.63	42.32
205.849	36.18
206.068	-58.03
206.287	-19.11
206.505	85.33
206.724	-6.83
206.943	-64.17
207.162	-60.07
207.381	-27.31
207.599	52.56
207.818	38.23
208.037	46.42
208.255	17.75
208.474	36.18
208.693	87.38
208.911	62.8
209.13	48.47
209.349	128.34
209.567	79.19
209.786	91.48
210.005	40.28
210.223	64.85
210.442	-21.16
210.661	48.47
210.879	56.66
211.098	27.99
211.316	62.8
211.535	109.91
211.753	81.24
211.972	27.99
212.191	42.32
212.409	116.05
212.628	56.66
212.846	30.04
213.065	50.52
213.283	48.47
213.502	3.41
213.72	21.84
213.938	91.48
214.157	-66.22
214.375	11.61
214.594	114
214.812	81.24
215.031	32.08
215.249	1.37
215.467	-6.83
215.686	23.89
215.904	105.81
216.122	-29.35
216.341	48.47
216.559	15.7
216.778	89.43
216.996	27.99
217.214	9.56
217.432	34.13
217.651	3.41
217.869	3.41
218.087	-29.35
218.306	25.94
218.524	19.8
218.742	23.89
218.96	83.28
219.179	60.76
219.397	34.13
219.615	122.2
219.833	46.42
220.051	40.28
220.27	48.47
220.488	157.01
220.706	19.8
220.924	-25.26
221.142	-2.73
221.36	7.51
221.578	118.1
221.796	73.04
222.015	48.47
222.233	-49.83
222.451	103.76
222.669	-35.5
222.887	68.95
223.105	32.08
223.323	30.04
223.541	13.65
223.759	13.65
223.977	17.75
224.195	79.19
224.413	44.37
224.631	-86.7
224.849	48.47
225.067	138.58
225.285	25.94
225.503	5.46
225.721	-43.69
225.939	105.81
226.157	68.95
226.375	187.73
226.592	-12.97
226.81	7.51
227.028	34.13
227.246	97.62
227.464	42.32
227.682	40.28
227.9	13.65
228.117	34.13
228.335	-15.02
228.553	9.56
228.771	60.76
228.989	71
229.206	27.99
229.424	13.65
229.642	-8.87
229.86	52.56
230.077	95.57
230.295	48.47
230.513	83.28
230.731	9.56
230.948	68.95
231.166	97.62
231.384	9.56
231.601	32.08
231.819	91.48
232.037	23.89
232.254	-35.5
232.472	56.66
232.689	-31.4
232.907	95.57
233.125	52.56
233.342	-4.78
233.56	-0.68
233.777	-33.45
233.995	9.56
234.213	27.99
234.43	66.9
234.648	-10.92
234.865	-51.88
235.083	62.8
235.3	66.9
235.518	30.04
235.735	95.57
235.953	101.72
236.17	34.13
236.388	44.37
236.605	5.46
236.822	75.09
237.04	81.24
237.257	87.38
237.475	-35.5
237.692	-0.68
237.909	95.57
238.127	1.37
238.344	27.99
238.562	89.43
238.779	-90.79
238.996	89.43
239.214	-21.16
239.431	99.67
239.648	114
239.865	-4.78
240.083	54.61
240.3	34.13
240.517	-12.97
240.735	85.33
240.952	62.8
241.169	75.09
241.386	64.85
241.603	23.89
241.821	-4.78
242.038	44.37
242.255	-4.78
242.472	-105.13
242.689	-19.11
242.907	9.56
243.124	32.08
243.341	-25.26
243.558	-4.78
243.775	-25.26
243.992	-8.87
244.209	19.8
244.426	140.63
244.643	27.99
244.86	-6.83
245.078	13.65
245.295	36.18
245.512	30.04
245.729	38.23
245.946	-0.68
246.163	-43.69
246.38	116.05
246.597	-2.73
246.814	-19.11
247.031	38.23
247.248	52.56
247.464	27.99
247.681	19.8
247.898	13.65
248.115	38.23
248.332	93.52
248.549	50.52
248.766	107.86
248.983	7.51
249.2	38.23
249.417	77.14
249.633	60.76
249.85	62.8
250.067	-27.31
250.284	56.66
250.501	15.7
250.717	85.33
250.934	-37.55
251.151	11.61
251.368	44.37
251.585	107.86
251.801	54.61
252.018	81.24
252.235	46.42
252.451	11.61
252.668	-0.68
252.885	99.67
253.102	77.14
253.318	-8.87
253.535	-45.74
253.752	21.84
253.968	21.84
254.185	-4.78
254.401	58.71
254.618	36.18
254.835	-27.31
255.051	89.43
255.268	54.61
255.484	1.37
255.701	-0.68
255.917	83.28
256.134	25.94
256.351	-4.78
256.567	17.75
256.784	30.04
257	13.65
257.217	64.85
257.433	81.24
257.65	3.41
257.866	56.66
258.082	19.8
258.299	13.65
258.515	-35.5
258.732	40.28
258.948	-43.69
259.165	17.75
259.381	-8.87
259.597	105.81
259.814	30.04
260.03	73.04
260.246	19.8
260.463	81.24
260.679	95.57
260.895	11.61
261.112	68.95
261.328	34.13
261.544	62.8
261.761	124.24
261.977	13.65
262.193	46.42
262.409	19.8
262.626	40.28
262.842	25.94
263.058	40.28
263.274	56.66
263.49	52.56
263.707	62.8
263.923	83.28
264.139	-49.83
264.355	79.19
264.571	93.52
264.787	34.13
265.004	89.43
265.22	-4.78
265.436	-21.16
265.652	60.76
265.868	25.94
266.084	-12.97
266.3	25.94
266.516	9.56
266.732	21.84
266.948	85.33
267.164	44.37
267.38	7.51
267.596	44.37
267.812	54.61
268.028	60.76
268.244	-35.5
268.46	71
268.676	36.18
268.892	44.37
269.108	73.04
269.324	13.65
269.54	-17.07
269.756	68.95
269.972	54.61
270.188	40.28
270.403	-53.93
270.619	-15.02
270.835	23.89
271.051	52.56
271.267	36.18
271.483	17.75
271.698	60.76
271.914	71
272.13	40.28
272.346	5.46
272.562	23.89
272.777	48.47
272.993	85.33
273.209	11.61
273.425	64.85
273.64	-43.69
273.856	50.52
274.072	5.46
274.287	54.61
274.503	48.47
274.719	93.52
274.934	21.84
275.15	-37.55
275.366	-6.83
275.581	-45.74
275.797	7.51
276.012	9.56
276.228	-2.73
276.444	5.46
276.659	173.39
276.875	-23.21
277.09	44.37
277.306	-31.4
277.521	5.46
277.737	48.47
277.952	-10.92
278.168	13.65
278.383	42.32
278.599	30.04
278.814	62.8
279.03	79.19
279.245	71
279.461	109.91
279.676	42.32
279.892	-51.88
280.107	17.75
280.322	38.23
280.538	23.89
280.753	-12.97
280.969	60.76
281.184	77.14
281.399	54.61
281.615	62.8
281.83	-0.68
282.045	-43.69
282.26	32.08
282.476	-21.16
282.691	138.58
282.906	17.75
283.122	62.8
283.337	-62.12
283.552	56.66
283.767	23.89
283.983	36.18
284.198	34.13
284.413	122.2
284.628	-84.65
284.843	87.38
285.058	111.96
285.274	48.47
285.489	3.41
285.704	40.28
285.919	5.46
286.134	17.75
286.349	30.04
286.564	62.8
286.779	68.95
286.995	66.9
287.21	62.8
287.425	58.71
287.64	93.52
287.855	1.37
288.07	19.8
288.285	52.56
288.5	83.28
288.715	89.43
288.93	-0.68
289.145	11.61
289.36	-21.16
289.575	79.19
289.79	21.84
290.004	66.9
290.219	85.33
290.434	-8.87
290.649	-62.12
290.864	-17.07
291.079	71
291.294	-12.97
291.509	54.61
291.724	44.37
291.938	30.04
292.153	36.18
292.368	34.13
292.583	62.8
292.798	58.71
293.012	109.91
293.227	23.89
293.442	23.89
293.657	66.9
293.871	79.19
294.086	58.71
294.301	48.47
294.516	60.76
294.73	44.37
294.945	-33.45
295.16	44.37
295.374	-12.97
295.589	101.72
295.804	17.75
296.018	3.41
296.233	122.2
296.447	3.41
296.662	62.8
296.877	116.05
297.091	97.62
297.306	17.75
297.52	52.56
297.735	77.14
297.949	32.08
298.164	15.7
298.378	-2.73
298.593	-12.97
298.807	36.18
299.022	-8.87
299.236	122.2
299.451	56.66
299.665	-12.97
299.88	34.13
300.094	114
300.309	-8.87
300.523	11.61
300.737	79.19
300.952	71
301.166	101.72
301.381	-53.93
301.595	34.13
301.809	25.94
302.024	48.47
302.238	-19.11
302.452	46.42
302.667	32.08
302.881	54.61
303.095	148.82
303.309	-4.78
303.524	-10.92
303.738	3.41
303.952	23.89
304.166	68.95
304.381	-53.93
304.595	54.61
304.809	-27.31
305.023	44.37
305.237	118.1
305.452	13.65
305.666	42.32
305.88	103.76
306.094	11.61
306.308	52.56
306.522	19.8
306.736	105.81
306.95	30.04
307.164	85.33
307.379	1.37
307.593	85.33
307.807	95.57
308.021	44.37
308.235	-15.02
308.449	-58.03
308.663	58.71
308.877	105.81
309.091	-17.07
309.305	85.33
309.519	27.99
309.733	62.8
309.947	-33.45
310.161	95.57
310.374	11.61
310.588	38.23
310.802	5.46
311.016	-53.93
311.23	95.57
311.444	5.46
311.658	77.14
311.872	122.2
312.085	71
312.299	138.58
312.513	79.19
312.727	9.56
312.941	64.85
313.154	75.09
313.368	19.8
313.582	-8.87
313.796	62.8
314.009	-29.35
314.223	79.19
314.437	-33.45
314.651	109.91
314.864	25.94
315.078	44.37
315.292	13.65
315.505	-25.26
315.719	21.84
315.933	81.24
316.146	60.76
316.36	46.42
316.573	93.52
316.787	62.8
317.001	44.37
317.214	13.65
317.428	64.85
317.641	-2.73
317.855	73.04
318.068	56.66
318.282	71
318.495	40.28
318.709	17.75
318.922	15.7
319.136	118.1
319.349	-17.07
319.563	-10.92
319.776	32.08
319.99	-60.07
320.203	79.19
320.417	36.18
320.63	50.52
320.843	58.71
321.057	42.32
321.27	5.46
321.483	-27.31
321.697	134.48
321.91	42.32
322.124	101.72
322.337	40.28
322.55	5.46
322.763	56.66
322.977	15.7
323.19	-25.26
323.403	-19.11
323.617	-2.73
323.83	44.37
324.043	30.04
324.256	3.41
324.469	21.84
324.683	52.56
324.896	19.8
325.109	79.19
325.322	48.47
325.535	44.37
325.748	-12.97
325.962	-29.35
326.175	-27.31
326.388	19.8
326.601	126.29
326.814	5.46
327.027	58.71
327.24	97.62
327.453	-53.93
327.666	83.28
327.879	62.8
328.092	79.19
328.305	17.75
328.518	-27.31
328.731	9.56
328.944	-2.73
329.157	34.13
329.37	-12.97
329.583	95.57
329.796	107.86
330.009	-51.88
330.222	111.96
330.435	66.9
330.648	19.8
330.861	-10.92
331.073	23.89
331.286	99.67
331.499	103.76
331.712	15.7
331.925	-0.68
332.138	142.68
332.35	23.89
332.563	38.23
332.776	116.05
332.989	25.94
333.202	73.04
333.414	81.24
333.627	13.65
333.84	32.08
334.053	7.51
334.265	-25.26
334.478	60.76
334.691	19.8
334.903	93.52
335.116	15.7
335.329	38.23
335.541	89.43
335.754	118.1
335.966	-31.4
336.179	93.52
336.392	5.46
336.604	36.18
336.817	56.66
337.029	52.56
337.242	52.56
337.454	48.47
337.667	19.8
337.88	68.95
338.092	48.47
338.305	81.24
338.517	38.23
338.729	27.99
338.942	-12.97
339.154	-4.78
339.367	9.56
339.579	52.56
339.792	40.28
340.004	71
340.217	3.41
340.429	34.13
340.641	-15.02
340.854	-31.4
341.066	11.61
341.278	79.19
341.491	81.24
341.703	89.43
341.915	-35.5
342.128	64.85
342.34	-21.16
342.552	68.95
342.764	7.51
342.977	3.41
343.189	42.32
343.401	44.37
343.613	-45.74
343.826	-43.69
344.038	21.84
344.25	11.61
344.462	3.41
344.674	7.51
344.886	-55.98
345.099	30.04
345.311	34.13
345.523	62.8
345.735	3.41
345.947	68.95
346.159	-45.74
346.371	-8.87
346.583	-4.78
346.795	-4.78
347.007	68.95
347.219	13.65
347.431	46.42
347.643	114
347.855	44.37
348.067	148.82
348.279	25.94
348.491	62.8
348.703	71
348.915	11.61
349.127	-45.74
349.339	52.56
349.551	-6.83
349.763	40.28
349.975	23.89
350.187	103.76
350.399	118.1
350.61	73.04
350.822	48.47
351.034	77.14
351.246	81.24
351.458	-21.16
351.669	140.63
351.881	19.8
352.093	87.38
352.305	79.19
352.517	73.04
352.728	13.65
352.94	40.28
353.152	101.72
353.363	1.37
353.575	111.96
353.787	85.33
353.999	93.52
354.21	73.04
354.422	-29.35
354.633	87.38
354.845	42.32
355.057	56.66
355.268	19.8
355.48	40.28
355.692	32.08
355.903	-60.07
356.115	21.84
356.326	-39.59
356.538	130.39
356.749	-17.07
356.961	-2.73
357.172	83.28
357.384	34.13
357.595	144.72
357.807	64.85
358.018	109.91
358.23	56.66
358.441	101.72
358.653	58.71
358.864	32.08
359.075	66.9
359.287	91.48
359.498	150.87
359.709	3.41
359.921	32.08
360.132	60.76
360.344	107.86
360.555	64.85
360.766	87.38
360.977	19.8
361.189	56.66
361.4	34.13
361.611	42.32
361.823	56.66
362.034	103.76
362.245	48.47
362.456	79.19
362.667	77.14
362.879	52.56
363.09	93.52
363.301	79.19
363.512	-10.92
363.723	27.99
363.935	-29.35
364.146	-0.68
364.357	21.84
364.568	85.33
364.779	3.41
364.99	167.25
365.201	17.75
365.412	85.33
365.623	23.89
365.834	101.72
366.045	46.42
366.256	48.47
366.467	71
366.678	75.09
366.889	-19.11
367.1	19.8
367.311	111.96
367.522	13.65
367.733	38.23
367.944	23.89
368.155	42.32
368.366	27.99
368.577	114
368.788	142.68
368.999	52.56
369.209	66.9
369.42	105.81
369.631	159.06
369.842	44.37
370.053	21.84
370.264	87.38
370.474	3.41
370.685	64.85
370.896	64.85
371.107	68.95
371.317	101.72
371.528	111.96
371.739	23.89
371.95	107.86
372.16	77.14
372.371	-21.16
372.582	46.42
372.792	50.52
373.003	64.85
373.214	44.37
373.424	71
373.635	-29.35
373.846	52.56
374.056	-21.16
374.267	93.52
374.477	32.08
374.688	89.43
374.898	79.19
375.109	52.56
375.319	58.71
375.53	105.81
375.74	30.04
375.951	56.66
376.161	101.72
376.372	71
376.582	60.76
376.793	46.42
377.003	-39.59
377.214	66.9
377.424	111.96
377.635	40.28
377.845	32.08
378.055	114
378.266	40.28
378.476	44.37
378.686	-12.97
378.897	83.28
379.107	95.57
379.317	21.84
379.528	97.62
379.738	150.87
379.948	54.61
380.158	105.81
380.369	179.54
380.579	60.76
380.789	101.72
380.999	75.09
381.21	66.9
381.42	120.15
381.63	79.19
381.84	52.56
382.05	62.8
382.261	97.62
382.471	87.38
382.681	36.18
382.891	87.38
383.101	77.14
383.311	-35.5
383.521	30.04
383.731	109.91
383.941	83.28
384.151	77.14
384.361	38.23
384.571	44.37
384.781	34.13
384.991	128.34
385.201	85.33
385.411	114
385.621	73.04
385.831	105.81
386.041	146.77
386.251	64.85
386.461	79.19
386.671	134.48
386.881	83.28
387.091	68.95
387.301	130.39
387.511	77.14
387.72	7.51
387.93	3.41
388.14	109.91
388.35	56.66
388.56	56.66
388.769	79.19
388.979	13.65
389.189	-6.83
389.399	66.9
389.609	103.76
389.818	85.33
390.028	64.85
390.238	130.39
390.447	62.8
390.657	9.56
390.867	32.08
391.076	27.99
391.286	36.18
391.496	75.09
391.705	77.14
391.915	54.61
392.125	140.63
392.334	60.76
392.544	114
392.753	118.1
392.963	23.89
393.172	101.72
393.382	66.9
393.591	50.52
393.801	58.71
394.01	169.3
394.22	36.18
394.429	87.38
394.639	111.96
394.848	58.71
395.058	95.57
395.267	3.41
395.477	103.76
395.686	73.04
395.895	167.25
396.105	105.81
396.314	148.82
396.524	13.65
396.733	77.14
396.942	109.91
397.152	97.62
397.361	154.96
397.57	138.58
397.78	128.34
397.989	27.99
398.198	236.88
398.407	122.2
398.617	97.62
398.826	95.57
399.035	58.71
399.244	116.05
399.453	148.82
399.663	103.76
399.872	142.68
400.081	46.42
400.29	159.06
400.499	85.33
400.708	97.62
400.917	132.44
401.127	118.1
401.336	77.14
401.545	208.21
401.754	152.91
401.963	111.96
402.172	175.44
402.381	81.24
402.59	114
402.799	118.1
403.008	157.01
403.217	120.15
403.426	167.25
403.635	130.39
403.844	152.91
404.053	73.04
404.262	161.11
404.471	294.22
404.68	224.59
404.888	208.21
405.097	220.5
405.306	212.31
405.515	167.25
405.724	193.87
405.933	240.98
406.142	214.35
406.35	228.69
406.559	175.44
406.768	175.44
406.977	210.26
407.185	320.85
407.394	257.36
407.603	144.72
407.812	357.71
408.02	281.94
408.229	236.88
408.438	210.26
408.646	218.45
408.855	347.47
409.064	290.13
409.272	281.94
409.481	376.14
409.69	265.55
409.898	234.83
410.107	390.48
410.315	398.67
410.524	386.38
410.733	415.05
410.941	363.86
411.15	384.34
411.358	410.96
411.567	505.17
411.775	486.73
411.984	462.16
412.192	472.4
412.401	519.5
412.609	539.98
412.818	550.22
413.026	468.3
413.234	499.02
413.443	552.27
413.651	613.71
413.86	623.95
414.068	626
414.276	722.25
414.485	687.43
414.693	779.59
414.901	724.3
415.11	820.55
415.318	832.84
415.526	812.36
415.734	834.89
415.943	877.9
416.151	857.42
416.359	898.38
416.567	881.99
416.776	888.14
416.984	1025.35
417.192	1158.47
417.4	1146.18
417.608	1146.18
417.817	1113.41
418.025	1207.62
418.233	1322.31
418.441	1191.24
418.649	1307.97
418.857	1455.42
419.065	1434.94
419.273	1383.74
419.481	1535.29
419.689	1518.91
419.897	1631.55
420.105	1631.55
420.313	1727.8
420.521	1840.44
420.729	1844.54
420.937	1895.74
421.145	1848.63
421.353	1967.42
421.561	2067.77
421.769	2217.27
421.977	2268.47
422.185	2368.82
422.393	2456.88
422.601	2475.31
422.809	2393.39
423.017	2618.67
423.224	2735.4
423.432	2716.97
423.64	2749.74
423.848	2889
424.056	2903.34
424.263	3134.76
424.471	3149.09
424.679	3202.34
424.887	3431.71
425.094	3517.73
425.302	3544.35
425.51	3609.89
425.718	3888.41
425.925	3814.68
426.133	3904.79
426.341	4234.52
426.548	4379.92
426.756	4353.3
426.964	4373.78
427.171	4779.28
427.379	4721.93
427.586	4891.91
427.794	5045.51
428.001	5262.6
428.209	5412.1
428.417	5348.61
428.624	5690.62
428.832	5549.31
429.039	5762.3
429.247	5811.45
429.454	6182.13
429.662	6726.89
429.869	6431.99
430.076	6702.32
430.284	6460.66
430.491	6849.77
430.699	7331.05
430.906	7232.74
431.114	7341.29
431.321	7668.96
431.528	7728.35
431.736	8256.73
431.943	8424.66
432.15	8508.63
432.358	8549.59
432.565	8899.79
432.772	8826.06
432.979	9233.61
433.187	9553.09
433.394	9491.65
433.601	10069.18
433.808	10359.99
434.016	10198.2
434.223	10714.29
434.43	11277.48
434.637	11275.43
434.844	11836.58
435.052	11801.76
435.259	11840.67
435.466	12147.87
435.673	11707.55
435.88	12672.15
436.087	13307.02
436.294	13282.44
436.501	12901.52
436.708	13405.32
436.915	13651.08
437.122	14265.47
437.329	14417.02
437.537	14785.65
437.743	15094.9
437.95	14922.87
438.157	15625.32
438.364	16301.15
438.571	16223.33
438.778	16378.97
438.985	17812.55
439.192	17024.08
439.399	17648.71
439.606	17239.12
439.813	18275.39
440.02	19344.43
440.227	19147.83
440.433	19051.57
440.64	19342.38
440.847	19442.73
441.054	19725.35
441.261	21036.05
441.467	20845.59
441.674	21281.81
441.881	21804.04
442.088	22291.46
442.294	21828.62
442.501	22369.28
442.708	22752.25
442.914	23708.65
443.121	24734.68
443.328	23929.83
443.534	25822.16
443.741	25115.61
443.948	24646.62
444.154	26823.61
444.361	26377.15
444.568	26565.57
444.774	26700.73
444.981	27179.96
445.187	27532.21
445.394	28634.02
445.6	28801.95
445.807	31331.19
446.013	30208.9
446.22	30401.41
446.426	31550.32
446.633	31918.96
446.839	33100.64
447.046	31665.01
447.252	33176.41
447.459	33301.34
447.665	33428.31
447.871	34802.5
448.078	36205.36
448.284	34650.95
448.491	35763
448.697	36905.76
448.903	37845.78
449.11	38009.62
449.316	36928.29
449.522	37835.54
449.728	38853.38
449.935	39316.22
450.141	38675.21
450.347	40403.69
450.553	38992.64
450.76	38744.84
450.966	40547.05
451.172	40313.58
451.378	41353.95
451.584	40659.69
451.791	41568.99
451.997	41501.4
452.203	41962.2
452.409	42134.23
452.615	41439.96
452.821	40350.45
453.027	39912.18
453.233	42105.55
453.44	40381.17
453.646	41003.75
453.852	41186.02
454.058	41513.69
454.264	40233.71
454.47	41691.87
454.676	39998.19
454.882	41736.92
455.088	38081.3
455.294	38681.35
455.5	39404.28
455.705	39791.35
455.911	37958.42
456.117	37296.92
456.323	36832.04
456.529	35011.39
456.735	37229.34
456.941	35973.94
457.147	35117.89
457.352	33993.55
457.558	33909.58
457.764	33903.44
457.97	33399.64
458.176	32441.19
458.381	32617.32
458.587	30851.97
458.793	31054.72
458.999	29457.3
459.204	31452.02
459.41	30274.44
459.616	28265.38
459.821	28679.07
460.027	28044.2
460.233	27820.97
460.438	26358.72
460.644	26786.75
460.85	25426.9
461.055	25095.13
461.261	24966.1
461.466	23288.82
461.672	22510.59
461.878	23978.98
462.083	22336.51
462.289	21971.97
462.494	21912.58
462.7	21167.12
462.905	20292.64
463.111	21158.93
463.316	21062.68
463.522	20626.46
463.727	20614.17
463.932	20694.04
464.138	20538.4
464.343	20405.28
464.549	19915.81
464.754	20505.63
464.959	20216.86
465.165	20079.65
465.37	19350.57
465.575	19008.56
465.781	19678.25
465.986	19807.27
466.191	18895.92
466.397	18596.92
466.602	17613.9
466.807	18504.76
467.012	18273.34
467.218	18396.22
467.423	18035.78
