Data from USB4F104151__6__13-04-11-213.txt Node

Date: Fri Mar 14 13:04:11 EDT 2025
User: louis
Spectrometer: USB4F10415
Trigger mode: 4
Integration Time (sec): 4.000000E-2
Scans to average: 1
Electric dark correction enabled: true
Nonlinearity correction enabled: false
Boxcar width: 0
XAxis mode: Wavelengths
Number of Pixels in Spectrum: 3648
>>>>>Begin Spectral Data<<<<<
178.204	-180.56
178.424	-180.56
178.644	-180.56
178.864	-155.99
179.084	-164.18
179.304	-4.44
179.524	40.62
179.744	-33.11
179.964	24.23
180.184	-37.2
180.404	11.95
180.624	44.71
180.844	40.62
181.064	-88.4
181.283	24.23
181.503	-39.25
181.723	16.04
181.943	-4.44
182.163	163.5
182.383	5.8
182.602	40.62
182.822	63.15
183.042	69.29
183.262	-10.58
183.482	38.57
183.701	20.14
183.921	40.62
184.141	-8.53
184.361	122.54
184.58	11.95
184.8	13.99
185.02	40.62
185.239	16.04
185.459	57
185.679	116.39
185.898	3.75
186.118	54.95
186.338	81.58
186.557	24.23
186.777	26.28
186.997	-35.16
187.216	-6.49
187.436	110.25
187.655	61.1
187.875	46.76
188.095	9.9
188.314	116.39
188.534	143.02
188.753	7.85
188.973	22.19
189.192	81.58
189.412	100.01
189.631	87.72
189.851	57
190.07	50.86
190.29	20.14
190.509	20.14
190.729	16.04
190.948	77.48
191.168	220.84
191.387	73.39
191.607	24.23
191.826	89.77
192.045	61.1
192.265	52.91
192.484	48.81
192.704	-33.11
192.923	22.19
193.142	155.3
193.362	132.78
193.581	48.81
193.8	95.91
194.02	116.39
194.239	110.25
194.458	-18.77
194.678	20.14
194.897	73.39
195.116	-16.73
195.335	28.33
195.555	108.2
195.774	52.91
195.993	50.86
196.212	83.63
196.432	-39.25
196.651	81.58
196.87	-4.44
197.089	190.12
197.308	57
197.528	40.62
197.747	-8.53
197.966	32.43
198.185	81.58
198.404	97.96
198.623	93.87
198.842	110.25
199.062	61.1
199.281	130.73
199.5	20.14
199.719	18.09
199.938	87.72
200.157	42.67
200.376	42.67
200.595	155.3
200.814	73.39
201.033	65.19
201.252	157.35
201.471	120.49
201.69	132.78
201.909	91.82
202.128	34.47
202.347	59.05
202.566	50.86
202.785	40.62
203.004	42.67
203.223	132.78
203.442	63.15
203.661	-8.53
203.879	108.2
204.098	48.81
204.317	69.29
204.536	128.68
204.755	34.47
204.974	73.39
205.193	44.71
205.411	128.68
205.63	50.86
205.849	85.67
206.068	54.95
206.287	44.71
206.505	79.53
206.724	42.67
206.943	-0.34
207.162	46.76
207.381	57
207.599	46.76
207.818	-33.11
208.037	48.81
208.255	48.81
208.474	69.29
208.693	95.91
208.911	59.05
209.13	95.91
209.349	40.62
209.567	95.91
209.786	97.96
210.005	69.29
210.223	36.52
210.442	42.67
210.661	61.1
210.879	44.71
211.098	26.28
211.316	65.19
211.535	75.43
211.753	28.33
211.972	38.57
212.191	44.71
212.409	-55.64
212.628	108.2
212.846	-69.97
213.065	85.67
213.283	147.11
213.502	3.75
213.72	77.48
213.938	44.71
214.157	42.67
214.375	93.87
214.594	18.09
214.812	42.67
215.031	38.57
215.249	44.71
215.467	89.77
215.686	77.48
215.904	57
216.122	71.34
216.341	44.71
216.559	87.72
216.778	71.34
216.996	102.06
217.214	-39.25
217.432	36.52
217.651	-20.82
217.869	65.19
218.087	-39.25
218.306	-12.63
218.524	95.91
218.742	5.8
218.96	69.29
219.179	63.15
219.397	63.15
219.615	100.01
219.833	81.58
220.051	114.34
220.27	102.06
220.488	54.95
220.706	69.29
220.924	63.15
221.142	-6.49
221.36	22.19
221.578	85.67
221.796	63.15
222.015	46.76
222.233	112.3
222.451	130.73
222.669	9.9
222.887	36.52
223.105	20.14
223.323	65.19
223.541	34.47
223.759	73.39
223.977	71.34
224.195	9.9
224.413	81.58
224.631	89.77
224.849	97.96
225.067	65.19
225.285	-31.06
225.503	81.58
225.721	-33.11
225.939	108.2
226.157	59.05
226.375	85.67
226.592	91.82
226.81	-10.58
227.028	89.77
227.246	122.54
227.464	97.96
227.682	63.15
227.9	134.82
228.117	75.43
228.335	102.06
228.553	69.29
228.771	34.47
228.989	112.3
229.206	36.52
229.424	11.95
229.642	42.67
229.86	57
230.077	63.15
230.295	22.19
230.513	120.49
230.731	59.05
230.948	122.54
231.166	83.63
231.384	32.43
231.601	40.62
231.819	106.15
232.037	16.04
232.254	5.8
232.472	13.99
232.689	26.28
232.907	89.77
233.125	104.11
233.342	59.05
233.56	61.1
233.777	3.75
233.995	24.23
234.213	97.96
234.43	100.01
234.648	114.34
234.865	26.28
235.083	108.2
235.3	59.05
235.518	81.58
235.735	75.43
235.953	106.15
236.17	-47.44
236.388	24.23
236.605	59.05
236.822	69.29
237.04	54.95
237.257	108.2
237.475	-45.4
237.692	-4.44
237.909	34.47
238.127	91.82
238.344	71.34
238.562	71.34
238.779	40.62
238.996	91.82
239.214	132.78
239.431	61.1
239.648	3.75
239.865	106.15
240.083	118.44
240.3	57
240.517	20.14
240.735	116.39
240.952	13.99
241.169	77.48
241.386	114.34
241.603	71.34
241.821	-8.53
242.038	22.19
242.255	73.39
242.472	-45.4
242.689	124.58
242.907	93.87
243.124	5.8
243.341	1.71
243.558	63.15
243.775	-18.77
243.992	-43.35
244.209	73.39
244.426	149.16
244.643	16.04
244.86	-0.34
245.078	3.75
245.295	100.01
245.512	1.71
245.729	36.52
245.946	85.67
246.163	69.29
246.38	42.67
246.597	11.95
246.814	57
247.031	42.67
247.248	97.96
247.464	46.76
247.681	20.14
247.898	32.43
248.115	57
248.332	1.71
248.549	57
248.766	22.19
248.983	67.24
249.2	161.45
249.417	69.29
249.633	3.75
249.85	83.63
250.067	40.62
250.284	48.81
250.501	69.29
250.717	114.34
250.934	-10.58
251.151	59.05
251.368	73.39
251.585	93.87
251.801	120.49
252.018	32.43
252.235	91.82
252.451	-16.73
252.668	61.1
252.885	32.43
253.102	-2.39
253.318	48.81
253.535	71.34
253.752	67.24
253.968	-20.82
254.185	-6.49
254.401	40.62
254.618	106.15
254.835	24.23
255.051	108.2
255.268	28.33
255.484	89.77
255.701	77.48
255.917	42.67
256.134	91.82
256.351	67.24
256.567	-18.77
256.784	71.34
257	-14.68
257.217	24.23
257.433	59.05
257.65	57
257.866	69.29
258.082	11.95
258.299	24.23
258.515	75.43
258.732	57
258.948	32.43
259.165	95.91
259.381	50.86
259.597	38.57
259.814	36.52
260.03	28.33
260.246	-14.68
260.463	71.34
260.679	91.82
260.895	102.06
261.112	9.9
261.328	52.91
261.544	40.62
261.761	138.92
261.977	83.63
262.193	50.86
262.409	108.2
262.626	69.29
262.842	91.82
263.058	40.62
263.274	73.39
263.49	69.29
263.707	116.39
263.923	89.77
264.139	-65.88
264.355	75.43
264.571	143.02
264.787	50.86
265.004	34.47
265.22	22.19
265.436	67.24
265.652	7.85
265.868	110.25
266.084	36.52
266.3	-12.63
266.516	-37.2
266.732	106.15
266.948	75.43
267.164	75.43
267.38	5.8
267.596	106.15
267.812	87.72
268.028	34.47
268.244	13.99
268.46	71.34
268.676	32.43
268.892	48.81
269.108	42.67
269.324	46.76
269.54	-29.01
269.756	36.52
269.972	38.57
270.188	138.92
270.403	54.95
270.619	24.23
270.835	38.57
271.051	26.28
271.267	52.91
271.483	-69.97
271.698	77.48
271.914	108.2
272.13	48.81
272.346	5.8
272.562	34.47
272.777	124.58
272.993	34.47
273.209	50.86
273.425	87.72
273.64	3.75
273.856	61.1
274.072	50.86
274.287	32.43
274.503	81.58
274.719	57
274.934	16.04
275.15	24.23
275.366	26.28
275.581	9.9
275.797	69.29
276.012	34.47
276.228	67.24
276.444	28.33
276.659	87.72
276.875	-8.53
277.09	108.2
277.306	91.82
277.521	52.91
277.737	104.11
277.952	118.44
278.168	102.06
278.383	65.19
278.599	75.43
278.814	22.19
279.03	61.1
279.245	67.24
279.461	57
279.676	87.72
279.892	81.58
280.107	36.52
280.322	38.57
280.538	61.1
280.753	3.75
280.969	149.16
281.184	48.81
281.399	100.01
281.615	73.39
281.83	46.76
282.045	13.99
282.26	153.26
282.476	73.39
282.691	73.39
282.906	97.96
283.122	77.48
283.337	7.85
283.552	42.67
283.767	16.04
283.983	57
284.198	34.47
284.413	59.05
284.628	44.71
284.843	63.15
285.058	75.43
285.274	5.8
285.489	73.39
285.704	93.87
285.919	-16.73
286.134	18.09
286.349	67.24
286.564	40.62
286.779	44.71
286.995	-12.63
287.21	-33.11
287.425	91.82
287.64	73.39
287.855	85.67
288.07	3.75
288.285	57
288.5	28.33
288.715	91.82
288.93	28.33
289.145	-33.11
289.36	106.15
289.575	-14.68
289.79	22.19
290.004	59.05
290.219	106.15
290.434	65.19
290.649	1.71
290.864	36.52
291.079	106.15
291.294	7.85
291.509	118.44
291.724	-8.53
291.938	50.86
292.153	83.63
292.368	-16.73
292.583	52.91
292.798	102.06
293.012	97.96
293.227	73.39
293.442	1.71
293.657	34.47
293.871	73.39
294.086	48.81
294.301	161.45
294.516	59.05
294.73	18.09
294.945	20.14
295.16	136.87
295.374	89.77
295.589	114.34
295.804	42.67
296.018	46.76
296.233	159.4
296.447	77.48
296.662	22.19
296.877	97.96
297.091	114.34
297.306	5.8
297.52	67.24
297.735	24.23
297.949	32.43
298.164	77.48
298.378	130.73
298.593	34.47
298.807	46.76
299.022	7.85
299.236	87.72
299.451	67.24
299.665	46.76
299.88	40.62
300.094	81.58
300.309	65.19
300.523	26.28
300.737	116.39
300.952	-16.73
301.166	89.77
301.381	13.99
301.595	9.9
301.809	40.62
302.024	61.1
302.238	54.95
302.452	126.63
302.667	32.43
302.881	167.59
303.095	91.82
303.309	61.1
303.524	42.67
303.738	54.95
303.952	-18.77
304.166	50.86
304.381	-63.83
304.595	124.58
304.809	26.28
305.023	73.39
305.237	-2.39
305.452	57
305.666	59.05
305.88	132.78
306.094	46.76
306.308	48.81
306.522	59.05
306.736	7.85
306.95	97.96
307.164	32.43
307.379	59.05
307.593	69.29
307.807	118.44
308.021	-8.53
308.235	16.04
308.449	44.71
308.663	-12.63
308.877	149.16
309.091	46.76
309.305	104.11
309.519	-31.06
309.733	132.78
309.947	61.1
310.161	16.04
310.374	100.01
310.588	143.02
310.802	-12.63
311.016	40.62
311.23	100.01
311.444	36.52
311.658	65.19
311.872	38.57
312.085	38.57
312.299	136.87
312.513	145.06
312.727	95.91
312.941	-90.45
313.154	126.63
313.368	75.43
313.582	100.01
313.796	132.78
314.009	44.71
314.223	130.73
314.437	-24.92
314.651	97.96
314.864	16.04
315.078	61.1
315.292	102.06
315.505	9.9
315.719	20.14
315.933	97.96
316.146	50.86
316.36	40.62
316.573	130.73
316.787	44.71
317.001	57
317.214	44.71
317.428	75.43
317.641	22.19
317.855	122.54
318.068	46.76
318.282	118.44
318.495	104.11
318.709	100.01
318.922	18.09
319.136	52.91
319.349	93.87
319.563	-10.58
319.776	-6.49
319.99	-18.77
320.203	120.49
320.417	93.87
320.63	134.82
320.843	134.82
321.057	42.67
321.27	143.02
321.483	100.01
321.697	163.5
321.91	61.1
322.124	89.77
322.337	81.58
322.55	-6.49
322.763	7.85
322.977	57
323.19	-6.49
323.403	75.43
323.617	163.5
323.83	67.24
324.043	44.71
324.256	81.58
324.469	-18.77
324.683	28.33
324.896	3.75
325.109	34.47
325.322	-39.25
325.535	59.05
325.748	20.14
325.962	24.23
326.175	3.75
326.388	65.19
326.601	167.59
326.814	36.52
327.027	54.95
327.24	126.63
327.453	-18.77
327.666	30.38
327.879	79.53
328.092	44.71
328.305	52.91
328.518	67.24
328.731	65.19
328.944	-16.73
329.157	102.06
329.37	36.52
329.583	114.34
329.796	106.15
330.009	67.24
330.222	67.24
330.435	63.15
330.648	24.23
330.861	24.23
331.073	50.86
331.286	67.24
331.499	24.23
331.712	-39.25
331.925	24.23
332.138	44.71
332.35	83.63
332.563	34.47
332.776	95.91
332.989	67.24
333.202	16.04
333.414	57
333.627	-14.68
333.84	50.86
334.053	7.85
334.265	48.81
334.478	16.04
334.691	11.95
334.903	1.71
335.116	83.63
335.329	50.86
335.541	59.05
335.754	108.2
335.966	13.99
336.179	9.9
336.392	75.43
336.604	77.48
336.817	22.19
337.029	67.24
337.242	116.39
337.454	89.77
337.667	97.96
337.88	140.97
338.092	175.78
338.305	106.15
338.517	-4.44
338.729	24.23
338.942	108.2
339.154	46.76
339.367	11.95
339.579	48.81
339.792	61.1
340.004	57
340.217	40.62
340.429	116.39
340.641	69.29
340.854	77.48
341.066	61.1
341.278	71.34
341.491	114.34
341.703	7.85
341.915	16.04
342.128	136.87
342.34	20.14
342.552	44.71
342.764	40.62
342.977	112.3
343.189	18.09
343.401	65.19
343.613	-20.82
343.826	11.95
344.038	-4.44
344.25	120.49
344.462	79.53
344.674	40.62
344.886	7.85
345.099	83.63
345.311	69.29
345.523	16.04
345.735	85.67
345.947	-2.39
346.159	132.78
346.371	22.19
346.583	40.62
346.795	132.78
347.007	85.67
347.219	85.67
347.431	65.19
347.643	102.06
347.855	-0.34
348.067	79.53
348.279	52.91
348.491	89.77
348.703	69.29
348.915	7.85
349.127	61.1
349.339	36.52
349.551	20.14
349.763	89.77
349.975	40.62
350.187	46.76
350.399	155.3
350.61	30.38
350.822	114.34
351.034	91.82
351.246	26.28
351.458	73.39
351.669	44.71
351.881	95.91
352.093	71.34
352.305	83.63
352.517	57
352.728	151.21
352.94	75.43
353.152	81.58
353.363	77.48
353.575	34.47
353.787	95.91
353.999	-31.06
354.21	130.73
354.422	112.3
354.633	91.82
354.845	134.82
355.057	30.38
355.268	97.96
355.48	83.63
355.692	-4.44
355.903	89.77
356.115	93.87
356.326	20.14
356.538	83.63
356.749	132.78
356.961	87.72
357.172	87.72
357.384	3.75
357.595	149.16
357.807	106.15
358.018	-20.82
358.23	71.34
358.441	159.4
358.653	114.34
358.864	79.53
359.075	69.29
359.287	81.58
359.498	114.34
359.709	54.95
359.921	93.87
360.132	73.39
360.344	93.87
360.555	9.9
360.766	-0.34
360.977	-24.92
361.189	118.44
361.4	57
361.611	104.11
361.823	106.15
362.034	40.62
362.245	-0.34
362.456	114.34
362.667	57
362.879	110.25
363.09	46.76
363.301	71.34
363.512	-10.58
363.723	34.47
363.935	87.72
364.146	97.96
364.357	71.34
364.568	26.28
364.779	16.04
364.99	140.97
365.201	65.19
365.412	104.11
365.623	36.52
365.834	91.82
366.045	50.86
366.256	124.58
366.467	81.58
366.678	77.48
366.889	77.48
367.1	65.19
367.311	104.11
367.522	93.87
367.733	95.91
367.944	83.63
368.155	28.33
368.366	106.15
368.577	-4.44
368.788	79.53
368.999	110.25
369.209	106.15
369.42	120.49
369.631	171.69
369.842	75.43
370.053	116.39
370.264	126.63
370.474	11.95
370.685	38.57
370.896	28.33
371.107	71.34
371.317	38.57
371.528	-6.49
371.739	124.58
371.95	32.43
372.16	75.43
372.371	13.99
372.582	145.06
372.792	-8.53
373.003	114.34
373.214	79.53
373.424	163.5
373.635	65.19
373.846	65.19
374.056	34.47
374.267	112.3
374.477	112.3
374.688	65.19
374.898	134.82
375.109	102.06
375.319	-4.44
375.53	42.67
375.74	145.06
375.951	22.19
376.161	65.19
376.372	77.48
376.582	42.67
376.793	134.82
377.003	26.28
377.214	57
377.424	118.44
377.635	85.67
377.845	83.63
378.055	124.58
378.266	38.57
378.476	24.23
378.686	140.97
378.897	-22.87
379.107	136.87
379.317	85.67
379.528	36.52
379.738	73.39
379.948	79.53
380.158	52.91
380.369	97.96
380.579	87.72
380.789	28.33
380.999	100.01
381.21	34.47
381.42	134.82
381.63	24.23
381.84	54.95
382.05	71.34
382.261	124.58
382.471	157.35
382.681	81.58
382.891	143.02
383.101	44.71
383.311	79.53
383.521	44.71
383.731	114.34
383.941	167.59
384.151	26.28
384.361	50.86
384.571	40.62
384.781	130.73
384.991	183.98
385.201	159.4
385.411	67.24
385.621	102.06
385.831	22.19
386.041	104.11
386.251	71.34
386.461	104.11
386.671	30.38
386.881	108.2
387.091	65.19
387.301	102.06
387.511	89.77
387.72	36.52
387.93	87.72
388.14	11.95
388.35	-26.96
388.56	114.34
388.769	61.1
388.979	81.58
389.189	-4.44
389.399	102.06
389.609	181.93
389.818	132.78
390.028	83.63
390.238	54.95
390.447	57
390.657	108.2
390.867	54.95
391.076	54.95
391.286	81.58
391.496	87.72
391.705	13.99
391.915	171.69
392.125	89.77
392.334	73.39
392.544	134.82
392.753	30.38
392.963	71.34
393.172	75.43
393.382	97.96
393.591	143.02
393.801	-16.73
394.01	149.16
394.22	71.34
394.429	83.63
394.639	54.95
394.848	149.16
395.058	42.67
395.267	108.2
395.477	151.21
395.686	116.39
395.895	116.39
396.105	198.31
396.314	83.63
396.524	151.21
396.733	69.29
396.942	124.58
397.152	75.43
397.361	93.87
397.57	97.96
397.78	20.14
397.989	134.82
398.198	198.31
398.407	181.93
398.617	73.39
398.826	145.06
399.035	38.57
399.244	181.93
399.453	57
399.663	97.96
399.872	85.67
400.081	32.43
400.29	171.69
400.499	69.29
400.708	116.39
400.917	50.86
401.127	143.02
401.336	106.15
401.545	186.02
401.754	233.13
401.963	120.49
402.172	104.11
402.381	114.34
402.59	181.93
402.799	40.62
403.008	97.96
403.217	110.25
403.426	114.34
403.635	75.43
403.844	32.43
404.053	239.27
404.262	118.44
404.471	290.47
404.68	186.02
404.888	116.39
405.097	173.74
405.306	183.98
405.515	165.54
405.724	161.45
405.933	165.54
406.142	183.98
406.35	198.31
406.559	204.46
406.768	163.5
406.977	265.89
407.185	204.46
407.394	153.26
407.603	143.02
407.812	206.5
408.02	220.84
408.229	151.21
408.438	200.36
408.646	153.26
408.855	212.65
409.064	245.41
409.272	214.7
409.481	255.65
409.69	200.36
409.898	208.55
410.107	276.13
410.315	300.71
410.524	272.04
410.733	278.18
410.941	261.8
411.15	278.18
411.358	356.01
411.567	407.2
411.775	294.57
411.984	339.62
412.192	417.44
412.401	333.48
412.609	417.44
412.818	423.59
413.026	482.98
413.234	429.73
413.443	452.26
413.651	374.44
413.86	417.44
414.068	493.22
414.276	550.56
414.485	577.19
414.693	546.47
414.901	564.9
415.11	562.85
415.318	562.85
415.526	630.43
415.734	687.78
415.943	691.87
416.151	702.11
416.359	745.12
416.567	626.34
416.776	779.93
416.984	804.51
417.192	792.22
417.4	747.17
417.608	763.55
417.817	872.09
418.025	847.52
418.233	974.49
418.441	900.76
418.649	968.35
418.857	972.44
419.065	1062.55
419.273	1003.16
419.481	1091.23
419.689	1187.48
419.897	1117.85
420.105	1205.91
420.313	1203.86
420.521	1310.36
420.729	1379.99
420.937	1375.89
421.145	1396.37
421.353	1490.58
421.561	1515.16
421.769	1564.31
421.977	1564.31
422.185	1556.11
422.393	1775.25
422.601	1767.06
422.809	1781.39
423.017	1781.39
423.224	1978
423.432	2090.63
423.64	2000.52
423.848	2188.94
424.056	2113.16
424.263	2301.58
424.471	2344.58
424.679	2330.25
424.887	2418.31
425.094	2563.72
425.302	2537.09
425.51	2530.95
425.718	2633.35
425.925	2614.91
426.133	2768.51
426.341	3171.96
426.548	3057.28
426.756	3141.24
426.964	3065.47
427.171	3286.65
427.379	3444.34
427.586	3454.58
427.794	3636.85
428.001	3772.02
428.209	3964.53
428.417	3923.57
428.624	4120.17
428.832	4095.6
429.039	4032.11
429.247	4066.92
429.454	4499.05
429.662	4873.82
429.869	4441.7
430.076	4849.25
430.284	4701.79
430.491	4908.64
430.699	4988.51
430.906	5080.67
431.114	5262.94
431.321	5305.95
431.528	5467.74
431.736	5768.79
431.943	6151.76
432.15	5938.77
432.358	6086.22
432.565	6399.56
432.772	6293.07
432.979	6514.25
433.187	6612.55
433.394	6815.3
433.601	7358.01
433.808	7228.99
434.016	7153.21
434.223	7609.91
434.43	8001.07
434.637	7898.67
434.844	8332.84
435.052	8375.85
435.259	8341.04
435.466	8373.8
435.673	8175.15
435.88	9096.74
436.087	9401.88
436.294	9455.13
436.501	9209.37
436.708	9350.68
436.915	9829.91
437.122	10243.6
437.329	10163.73
437.537	10481.16
437.743	10585.61
437.95	10524.17
438.157	11200
438.364	11496.96
438.571	11410.94
438.778	11542.01
438.985	12774.89
439.192	12062.19
439.399	12502.51
439.606	12330.48
439.813	12948.97
440.02	13954.52
440.227	13559.26
440.433	13329.89
440.64	13727.19
440.847	13655.51
441.054	13940.18
441.261	14951.88
441.467	14724.55
441.674	14839.24
441.881	15486.4
442.088	15592.89
442.294	15439.3
442.501	15871.42
442.708	16367.02
442.914	16637.36
443.121	17511.84
443.328	17198.5
443.534	18159
443.741	17405.35
443.948	17348
444.154	18744.72
444.361	18986.38
444.568	19035.53
444.774	18670.99
444.981	19015.05
445.187	19690.88
445.394	20499.83
445.6	20088.18
445.807	22048.09
446.013	21347.68
446.22	21570.91
446.426	22490.45
446.633	22768.98
446.839	23354.69
447.046	22701.39
447.252	23792.96
447.459	23717.18
447.665	23897.41
447.871	24835.38
448.078	25648.42
448.284	24964.4
448.491	25261.35
448.697	26344.73
448.903	26948.88
449.11	26979.6
449.316	26127.64
449.522	27045.13
449.728	27426.06
449.935	27917.57
450.141	27669.76
450.347	28650.74
450.553	27374.86
450.76	27696.39
450.966	28910.83
451.172	28755.19
451.378	29291.76
451.584	28884.21
451.791	29760.74
451.997	29306.09
452.203	30008.54
452.409	30039.26
452.615	29979.87
452.821	28273.92
453.027	28564.73
453.233	30012.64
453.44	28488.95
453.646	29224.17
453.852	29150.45
454.058	29805.8
454.264	28718.32
454.47	29443.31
454.676	28509.43
454.882	29932.77
455.088	27227.4
455.294	27440.39
455.5	27911.42
455.705	28591.35
455.911	27421.96
456.117	26420.5
456.323	26199.32
456.529	24827.18
456.735	26002.72
456.941	25193.77
457.147	25021.74
457.352	24237.37
457.558	23758.14
457.764	24104.25
457.97	23606.59
458.176	22971.72
458.381	22969.68
458.587	21818.72
458.793	21896.54
458.999	20778.35
459.204	22285.65
459.41	21550.43
459.616	20180.34
459.821	20106.62
460.027	20079.99
460.233	19510.66
460.438	18857.35
460.644	18998.66
460.85	18105.75
461.055	17769.88
461.261	17782.17
461.466	16487.86
461.672	15965.62
461.878	17008.04
462.083	15881.66
462.289	15787.45
462.494	15461.82
462.7	14747.08
462.905	14470.61
463.111	14953.93
463.316	14919.11
463.522	14702.03
463.727	14593.48
463.932	14443.98
464.138	14474.7
464.343	14415.31
464.549	14110.16
464.754	14470.61
464.959	14491.09
465.165	14149.07
465.37	13594.08
465.575	13372.89
465.781	14001.62
465.986	14106.07
466.191	13485.53
466.397	12961.25
466.602	12635.63
466.807	13020.64
467.012	13190.63
467.218	12963.3
