Data from USB4F104151__50__13-05-33-283.txt Node

Date: Fri Mar 14 13:05:33 EDT 2025
User: louis
Spectrometer: USB4F10415
Trigger mode: 4
Integration Time (sec): 4.000000E-2
Scans to average: 1
Electric dark correction enabled: true
Nonlinearity correction enabled: false
Boxcar width: 0
XAxis mode: Wavelengths
Number of Pixels in Spectrum: 3648
>>>>>Begin Spectral Data<<<<<
178.204	-235.86
178.424	-235.86
178.644	-235.86
178.864	-209.23
179.084	-182.61
179.304	-51.54
179.524	5.8
179.744	7.85
179.964	20.14
180.184	61.1
180.404	40.62
180.624	-55.64
180.844	30.38
181.064	-16.73
181.283	44.71
181.503	-82.26
181.723	-4.44
181.943	-74.07
182.163	102.06
182.383	-12.63
182.602	48.81
182.822	26.28
183.042	71.34
183.262	-57.68
183.482	9.9
183.701	-20.82
183.921	5.8
184.141	20.14
184.361	91.82
184.58	50.86
184.8	61.1
185.02	-14.68
185.239	69.29
185.459	95.91
185.679	3.75
185.898	-65.88
186.118	-6.49
186.338	32.43
186.557	59.05
186.777	38.57
186.997	5.8
187.216	124.58
187.436	114.34
187.655	30.38
187.875	89.77
188.095	38.57
188.314	79.53
188.534	106.15
188.753	20.14
188.973	48.81
189.192	97.96
189.412	61.1
189.631	24.23
189.851	11.95
190.07	83.63
190.29	-31.06
190.509	-18.77
190.729	-14.68
190.948	71.34
191.168	171.69
191.387	48.81
191.607	-84.31
191.826	11.95
192.045	42.67
192.265	18.09
192.484	-18.77
192.704	1.71
192.923	-31.06
193.142	126.63
193.362	36.52
193.581	81.58
193.8	13.99
194.02	151.21
194.239	-14.68
194.458	-8.53
194.678	34.47
194.897	-31.06
195.116	-22.87
195.335	63.15
195.555	-26.96
195.774	65.19
195.993	104.11
196.212	26.28
196.432	7.85
196.651	-104.79
196.87	-37.2
197.089	157.35
197.308	26.28
197.528	-33.11
197.747	-16.73
197.966	28.33
198.185	75.43
198.404	69.29
198.623	75.43
198.842	46.76
199.062	114.34
199.281	59.05
199.5	87.72
199.719	61.1
199.938	50.86
200.157	54.95
200.376	-14.68
200.595	106.15
200.814	-2.39
201.033	61.1
201.252	16.04
201.471	42.67
201.69	48.81
201.909	30.38
202.128	40.62
202.347	7.85
202.566	57
202.785	-6.49
203.004	-2.39
203.223	57
203.442	18.09
203.661	-37.2
203.879	59.05
204.098	48.81
204.317	-4.44
204.536	48.81
204.755	73.39
204.974	159.4
205.193	50.86
205.411	73.39
205.63	36.52
205.849	36.52
206.068	22.19
206.287	-18.77
206.505	1.71
206.724	40.62
206.943	16.04
207.162	65.19
207.381	24.23
207.599	-20.82
207.818	57
208.037	1.71
208.255	40.62
208.474	71.34
208.693	57
208.911	-12.63
209.13	95.91
209.349	52.91
209.567	-0.34
209.786	1.71
210.005	-16.73
210.223	126.63
210.442	-31.06
210.661	79.53
210.879	34.47
211.098	87.72
211.316	67.24
211.535	48.81
211.753	7.85
211.972	16.04
212.191	-14.68
212.409	40.62
212.628	73.39
212.846	-6.49
213.065	89.77
213.283	85.67
213.502	-8.53
213.72	81.58
213.938	93.87
214.157	38.57
214.375	28.33
214.594	83.63
214.812	69.29
215.031	38.57
215.249	42.67
215.467	3.75
215.686	9.9
215.904	9.9
216.122	1.71
216.341	93.87
216.559	85.67
216.778	18.09
216.996	54.95
217.214	44.71
217.432	26.28
217.651	-14.68
217.869	7.85
218.087	3.75
218.306	-29.01
218.524	11.95
218.742	11.95
218.96	36.52
219.179	-4.44
219.397	13.99
219.615	120.49
219.833	67.24
220.051	-4.44
220.27	91.82
220.488	69.29
220.706	44.71
220.924	-12.63
221.142	-49.49
221.36	7.85
221.578	91.82
221.796	32.43
222.015	-0.34
222.233	48.81
222.451	114.34
222.669	40.62
222.887	83.63
223.105	-33.11
223.323	-4.44
223.541	5.8
223.759	89.77
223.977	81.58
224.195	57
224.413	69.29
224.631	44.71
224.849	79.53
225.067	122.54
225.285	13.99
225.503	52.91
225.721	-43.35
225.939	32.43
226.157	59.05
226.375	151.21
226.592	87.72
226.81	48.81
227.028	89.77
227.246	67.24
227.464	34.47
227.682	-31.06
227.9	22.19
228.117	106.15
228.335	102.06
228.553	16.04
228.771	34.47
228.989	79.53
229.206	9.9
229.424	42.67
229.642	20.14
229.86	-26.96
230.077	9.9
230.295	61.1
230.513	61.1
230.731	26.28
230.948	63.15
231.166	102.06
231.384	44.71
231.601	-2.39
231.819	61.1
232.037	-31.06
232.254	26.28
232.472	5.8
232.689	-80.21
232.907	30.38
233.125	81.58
233.342	-72.02
233.56	57
233.777	-33.11
233.995	50.86
234.213	65.19
234.43	-18.77
234.648	38.57
234.865	-12.63
235.083	18.09
235.3	16.04
235.518	67.24
235.735	130.73
235.953	7.85
236.17	48.81
236.388	30.38
236.605	40.62
236.822	114.34
237.04	71.34
237.257	32.43
237.475	-12.63
237.692	3.75
237.909	18.09
238.127	-6.49
238.344	30.38
238.562	40.62
238.779	7.85
238.996	48.81
239.214	7.85
239.431	116.39
239.648	13.99
239.865	36.52
240.083	91.82
240.3	83.63
240.517	34.47
240.735	36.52
240.952	132.78
241.169	36.52
241.386	87.72
241.603	-8.53
241.821	52.91
242.038	20.14
242.255	18.09
242.472	-35.16
242.689	52.91
242.907	40.62
243.124	-35.16
243.341	22.19
243.558	28.33
243.775	-16.73
243.992	-53.59
244.209	89.77
244.426	132.78
244.643	30.38
244.86	36.52
245.078	40.62
245.295	-14.68
245.512	50.86
245.729	-4.44
245.946	57
246.163	30.38
246.38	1.71
246.597	-0.34
246.814	61.1
247.031	-6.49
247.248	40.62
247.464	130.73
247.681	65.19
247.898	-8.53
248.115	1.71
248.332	-4.44
248.549	61.1
248.766	153.26
248.983	46.76
249.2	-35.16
249.417	85.67
249.633	-4.44
249.85	28.33
250.067	52.91
250.284	26.28
250.501	89.77
250.717	67.24
250.934	-8.53
251.151	44.71
251.368	38.57
251.585	149.16
251.801	26.28
252.018	-24.92
252.235	-39.25
252.451	59.05
252.668	48.81
252.885	13.99
253.102	32.43
253.318	16.04
253.535	11.95
253.752	1.71
253.968	5.8
254.185	-78.16
254.401	46.76
254.618	77.48
254.835	7.85
255.051	116.39
255.268	46.76
255.484	52.91
255.701	16.04
255.917	-33.11
256.134	-24.92
256.351	75.43
256.567	9.9
256.784	20.14
257	36.52
257.217	73.39
257.433	132.78
257.65	57
257.866	106.15
258.082	-6.49
258.299	18.09
258.515	28.33
258.732	-24.92
258.948	28.33
259.165	108.2
259.381	7.85
259.597	71.34
259.814	61.1
260.03	65.19
260.246	16.04
260.463	87.72
260.679	65.19
260.895	7.85
261.112	83.63
261.328	13.99
261.544	-74.07
261.761	100.01
261.977	18.09
262.193	36.52
262.409	89.77
262.626	16.04
262.842	36.52
263.058	42.67
263.274	20.14
263.49	91.82
263.707	106.15
263.923	18.09
264.139	-0.34
264.355	46.76
264.571	83.63
264.787	9.9
265.004	59.05
265.22	9.9
265.436	48.81
265.652	34.47
265.868	44.71
266.084	18.09
266.3	40.62
266.516	34.47
266.732	65.19
266.948	67.24
267.164	73.39
267.38	73.39
267.596	61.1
267.812	122.54
268.028	52.91
268.244	7.85
268.46	11.95
268.676	-8.53
268.892	-2.39
269.108	24.23
269.324	83.63
269.54	-45.4
269.756	79.53
269.972	-29.01
270.188	106.15
270.403	-31.06
270.619	116.39
270.835	-6.49
271.051	-4.44
271.267	34.47
271.483	83.63
271.698	48.81
271.914	50.86
272.13	30.38
272.346	42.67
272.562	-10.58
272.777	118.44
272.993	50.86
273.209	16.04
273.425	28.33
273.64	22.19
273.856	85.67
274.072	44.71
274.287	-53.59
274.503	18.09
274.719	32.43
274.934	-14.68
275.15	1.71
275.366	22.19
275.581	9.9
275.797	13.99
276.012	81.58
276.228	7.85
276.444	16.04
276.659	69.29
276.875	-4.44
277.09	-49.49
277.306	61.1
277.521	73.39
277.737	83.63
277.952	65.19
278.168	22.19
278.383	28.33
278.599	52.91
278.814	65.19
279.03	59.05
279.245	104.11
279.461	42.67
279.676	106.15
279.892	-22.87
280.107	42.67
280.322	52.91
280.538	46.76
280.753	-69.97
280.969	73.39
281.184	22.19
281.399	108.2
281.615	48.81
281.83	20.14
282.045	3.75
282.26	-49.49
282.476	-12.63
282.691	48.81
282.906	40.62
283.122	67.24
283.337	22.19
283.552	83.63
283.767	40.62
283.983	16.04
284.198	73.39
284.413	3.75
284.628	-8.53
284.843	38.57
285.058	108.2
285.274	34.47
285.489	1.71
285.704	9.9
285.919	-0.34
286.134	79.53
286.349	75.43
286.564	48.81
286.779	34.47
286.995	16.04
287.21	-43.35
287.425	85.67
287.64	93.87
287.855	63.15
288.07	13.99
288.285	69.29
288.5	81.58
288.715	100.01
288.93	16.04
289.145	-14.68
289.36	85.67
289.575	1.71
289.79	116.39
290.004	22.19
290.219	73.39
290.434	-82.26
290.649	34.47
290.864	110.25
291.079	-12.63
291.294	50.86
291.509	22.19
291.724	-6.49
291.938	3.75
292.153	50.86
292.368	26.28
292.583	34.47
292.798	1.71
293.012	73.39
293.227	13.99
293.442	28.33
293.657	95.91
293.871	108.2
294.086	-0.34
294.301	28.33
294.516	75.43
294.73	54.95
294.945	22.19
295.16	44.71
295.374	85.67
295.589	106.15
295.804	-10.58
296.018	32.43
296.233	159.4
296.447	34.47
296.662	3.75
296.877	81.58
297.091	104.11
297.306	20.14
297.52	63.15
297.735	63.15
297.949	71.34
298.164	40.62
298.378	32.43
298.593	7.85
298.807	-53.59
299.022	32.43
299.236	46.76
299.451	-8.53
299.665	32.43
299.88	65.19
300.094	85.67
300.309	71.34
300.523	-57.68
300.737	22.19
300.952	93.87
301.166	-8.53
301.381	24.23
301.595	-22.87
301.809	7.85
302.024	48.81
302.238	-22.87
302.452	65.19
302.667	-0.34
302.881	100.01
303.095	34.47
303.309	83.63
303.524	-10.58
303.738	11.95
303.952	7.85
304.166	42.67
304.381	-45.4
304.595	42.67
304.809	42.67
305.023	16.04
305.237	46.76
305.452	34.47
305.666	61.1
305.88	97.96
306.094	79.53
306.308	48.81
306.522	54.95
306.736	83.63
306.95	116.39
307.164	22.19
307.379	16.04
307.593	100.01
307.807	50.86
308.021	112.3
308.235	52.91
308.449	-29.01
308.663	73.39
308.877	75.43
309.091	34.47
309.305	50.86
309.519	-31.06
309.733	11.95
309.947	-67.92
310.161	40.62
310.374	59.05
310.588	110.25
310.802	-6.49
311.016	63.15
311.23	52.91
311.444	-4.44
311.658	38.57
311.872	100.01
312.085	104.11
312.299	95.91
312.513	157.35
312.727	46.76
312.941	-96.6
313.154	69.29
313.368	112.3
313.582	69.29
313.796	-55.64
314.009	32.43
314.223	-2.39
314.437	9.9
314.651	40.62
314.864	-63.83
315.078	-26.96
315.292	7.85
315.505	69.29
315.719	50.86
315.933	52.91
316.146	104.11
316.36	13.99
316.573	-31.06
316.787	28.33
317.001	110.25
317.214	40.62
317.428	-33.11
317.641	-51.54
317.855	-8.53
318.068	11.95
318.282	93.87
318.495	75.43
318.709	57
318.922	65.19
319.136	67.24
319.349	120.49
319.563	59.05
319.776	22.19
319.99	1.71
320.203	83.63
320.417	50.86
320.63	52.91
320.843	77.48
321.057	-16.73
321.27	57
321.483	-0.34
321.697	143.02
321.91	77.48
322.124	-49.49
322.337	136.87
322.55	32.43
322.763	75.43
322.977	48.81
323.19	54.95
323.403	-24.92
323.617	22.19
323.83	24.23
324.043	28.33
324.256	18.09
324.469	44.71
324.683	138.92
324.896	-12.63
325.109	57
325.322	3.75
325.535	106.15
325.748	52.91
325.962	57
326.175	-29.01
326.388	1.71
326.601	83.63
326.814	32.43
327.027	20.14
327.24	63.15
327.453	-12.63
327.666	114.34
327.879	69.29
328.092	116.39
328.305	93.87
328.518	30.38
328.731	5.8
328.944	18.09
329.157	40.62
329.37	50.86
329.583	91.82
329.796	93.87
330.009	9.9
330.222	18.09
330.435	77.48
330.648	97.96
330.861	34.47
331.073	32.43
331.286	61.1
331.499	-20.82
331.712	7.85
331.925	50.86
332.138	-16.73
332.35	138.92
332.563	30.38
332.776	73.39
332.989	69.29
333.202	20.14
333.414	24.23
333.627	46.76
333.84	32.43
334.053	69.29
334.265	28.33
334.478	11.95
334.691	26.28
334.903	-8.53
335.116	87.72
335.329	32.43
335.541	-0.34
335.754	97.96
335.966	-4.44
336.179	40.62
336.392	48.81
336.604	22.19
336.817	87.72
337.029	-14.68
337.242	-12.63
337.454	83.63
337.667	75.43
337.88	46.76
338.092	24.23
338.305	100.01
338.517	1.71
338.729	50.86
338.942	77.48
339.154	3.75
339.367	-14.68
339.579	59.05
339.792	36.52
340.004	67.24
340.217	36.52
340.429	52.91
340.641	16.04
340.854	28.33
341.066	20.14
341.278	30.38
341.491	126.63
341.703	67.24
341.915	-16.73
342.128	116.39
342.34	48.81
342.552	-39.25
342.764	1.71
342.977	-0.34
343.189	32.43
343.401	54.95
343.613	-65.88
343.826	106.15
344.038	-16.73
344.25	69.29
344.462	1.71
344.674	167.59
344.886	44.71
345.099	102.06
345.311	93.87
345.523	34.47
345.735	-29.01
345.947	-6.49
346.159	26.28
346.371	7.85
346.583	1.71
346.795	118.44
347.007	-78.16
347.219	24.23
347.431	-14.68
347.643	67.24
347.855	-22.87
348.067	87.72
348.279	-8.53
348.491	100.01
348.703	28.33
348.915	-4.44
349.127	24.23
349.339	57
349.551	-20.82
349.763	87.72
349.975	-43.35
350.187	24.23
350.399	97.96
350.61	5.8
350.822	48.81
351.034	46.76
351.246	30.38
351.458	-29.01
351.669	110.25
351.881	116.39
352.093	106.15
352.305	114.34
352.517	85.67
352.728	48.81
352.94	67.24
353.152	79.53
353.363	-24.92
353.575	48.81
353.787	91.82
353.999	57
354.21	89.77
354.422	-18.77
354.633	16.04
354.845	67.24
355.057	102.06
355.268	11.95
355.48	11.95
355.692	7.85
355.903	9.9
356.115	85.67
356.326	-0.34
356.538	20.14
356.749	48.81
356.961	75.43
357.172	-20.82
357.384	28.33
357.595	93.87
357.807	48.81
358.018	-45.4
358.23	73.39
358.441	54.95
358.653	16.04
358.864	-53.59
359.075	89.77
359.287	40.62
359.498	100.01
359.709	13.99
359.921	73.39
360.132	181.93
360.344	50.86
360.555	-0.34
360.766	9.9
360.977	40.62
361.189	149.16
361.4	-0.34
361.611	161.45
361.823	91.82
362.034	28.33
362.245	46.76
362.456	18.09
362.667	30.38
362.879	67.24
363.09	87.72
363.301	93.87
363.512	48.81
363.723	100.01
363.935	52.91
364.146	52.91
364.357	93.87
364.568	57
364.779	-18.77
364.99	145.06
365.201	-8.53
365.412	106.15
365.623	-51.54
365.834	65.19
366.045	9.9
366.256	108.2
366.467	50.86
366.678	24.23
366.889	46.76
367.1	91.82
367.311	106.15
367.522	18.09
367.733	126.63
367.944	26.28
368.155	67.24
368.366	147.11
368.577	83.63
368.788	81.58
368.999	87.72
369.209	79.53
369.42	126.63
369.631	52.91
369.842	46.76
370.053	32.43
370.264	67.24
370.474	11.95
370.685	112.3
370.896	65.19
371.107	75.43
371.317	44.71
371.528	73.39
371.739	77.48
371.95	46.76
372.16	114.34
372.371	-82.26
372.582	69.29
372.792	106.15
373.003	24.23
373.214	18.09
373.424	134.82
373.635	-20.82
373.846	140.97
374.056	40.62
374.267	204.46
374.477	73.39
374.688	46.76
374.898	42.67
375.109	116.39
375.319	46.76
375.53	138.92
375.74	118.44
375.951	-31.06
376.161	16.04
376.372	110.25
376.582	-10.58
376.793	26.28
377.003	67.24
377.214	-47.44
377.424	77.48
377.635	24.23
377.845	-6.49
378.055	52.91
378.266	24.23
378.476	28.33
378.686	-0.34
378.897	11.95
379.107	61.1
379.317	34.47
379.528	40.62
379.738	11.95
379.948	-74.07
380.158	104.11
380.369	91.82
380.579	155.3
380.789	42.67
380.999	73.39
381.21	97.96
381.42	196.26
381.63	81.58
381.84	116.39
382.05	24.23
382.261	89.77
382.471	114.34
382.681	67.24
382.891	194.22
383.101	48.81
383.311	-20.82
383.521	7.85
383.731	67.24
383.941	61.1
384.151	28.33
384.361	22.19
384.571	83.63
384.781	34.47
384.991	110.25
385.201	183.98
385.411	65.19
385.621	140.97
385.831	7.85
386.041	32.43
386.251	32.43
386.461	167.59
386.671	87.72
386.881	122.54
387.091	16.04
387.301	83.63
387.511	50.86
387.72	81.58
387.93	69.29
388.14	-24.92
388.35	114.34
388.56	165.54
388.769	190.12
388.979	81.58
389.189	59.05
389.399	59.05
389.609	79.53
389.818	50.86
390.028	69.29
390.238	97.96
390.447	18.09
390.657	81.58
390.867	20.14
391.076	13.99
391.286	91.82
391.496	30.38
391.705	52.91
391.915	122.54
392.125	63.15
392.334	136.87
392.544	79.53
392.753	73.39
392.963	52.91
393.172	32.43
393.382	-18.77
393.591	104.11
393.801	54.95
394.01	206.5
394.22	69.29
394.429	44.71
394.639	83.63
394.848	-8.53
395.058	18.09
395.267	89.77
395.477	85.67
395.686	-14.68
395.895	138.92
396.105	161.45
396.314	61.1
396.524	69.29
396.733	63.15
396.942	26.28
397.152	73.39
397.361	116.39
397.57	167.59
397.78	108.2
397.989	122.54
398.198	161.45
398.407	59.05
398.617	46.76
398.826	89.77
399.035	83.63
399.244	140.97
399.453	120.49
399.663	42.67
399.872	132.78
400.081	102.06
400.29	157.35
400.499	36.52
400.708	143.02
400.917	67.24
401.127	130.73
401.336	65.19
401.545	190.12
401.754	204.46
401.963	122.54
402.172	85.67
402.381	112.3
402.59	100.01
402.799	52.91
403.008	93.87
403.217	122.54
403.426	165.54
403.635	42.67
403.844	114.34
404.053	77.48
404.262	143.02
404.471	143.02
404.68	171.69
404.888	196.26
405.097	149.16
405.306	143.02
405.515	110.25
405.724	163.5
405.933	214.7
406.142	134.82
406.35	169.64
406.559	159.4
406.768	224.94
406.977	163.5
407.185	188.07
407.394	192.17
407.603	163.5
407.812	165.54
408.02	208.55
408.229	198.31
408.438	241.32
408.646	147.11
408.855	218.79
409.064	255.65
409.272	190.12
409.481	302.76
409.69	269.99
409.898	222.89
410.107	229.03
410.315	298.66
410.524	296.61
410.733	249.51
410.941	222.89
411.15	315.05
411.358	370.34
411.567	325.29
411.775	409.25
411.984	368.29
412.192	360.1
412.401	317.09
412.609	425.64
412.818	442.02
413.026	444.07
413.234	472.74
413.443	460.45
413.651	444.07
413.86	485.03
414.068	552.61
414.276	657.06
414.485	458.4
414.693	550.56
414.901	609.95
415.11	528.03
415.318	593.57
415.526	624.29
415.734	669.34
415.943	663.2
416.151	763.55
416.359	786.08
416.567	687.78
416.776	698.02
416.984	788.13
417.192	954.01
417.4	865.95
417.608	781.98
417.817	872.09
418.025	929.44
418.233	1033.88
418.441	917.15
418.649	884.38
418.857	1062.55
419.065	1158.81
419.273	1011.36
419.481	1097.37
419.689	1087.13
419.897	1185.43
420.105	1261.21
420.313	1306.26
420.521	1392.28
420.729	1369.75
420.937	1429.14
421.145	1363.61
421.353	1584.79
421.561	1539.73
421.769	1683.09
421.977	1748.62
422.185	1783.44
422.393	1875.6
422.601	1908.37
422.809	1891.98
423.017	2018.96
423.224	2109.07
423.432	2018.96
423.64	2109.07
423.848	2434.69
424.056	2313.86
424.263	2475.65
424.471	2463.37
424.679	2442.89
424.887	2543.24
425.094	2651.78
425.302	2637.44
425.51	2678.4
425.718	2805.38
425.925	2991.74
426.133	3012.22
426.341	3241.59
426.548	3358.33
426.756	3370.62
426.964	3378.81
427.171	3427.96
427.379	3688.05
427.586	3657.33
427.794	3761.78
428.001	3886.7
428.209	4009.58
428.417	3985.01
428.624	4431.46
428.832	4515.43
429.039	4497
429.247	4548.2
429.454	4859.49
429.662	5111.39
429.869	4861.54
430.076	5062.24
430.284	4890.21
430.491	5138.01
430.699	5385.82
430.906	5547.61
431.114	5545.56
431.321	5762.64
431.528	6002.26
431.736	6329.93
431.943	6524.49
432.15	6348.36
432.358	6567.49
432.565	6676.04
432.772	6874.69
432.979	6997.57
433.187	7241.28
433.394	7382.59
433.601	7603.77
433.808	7953.97
434.016	7798.32
434.223	8099.38
434.43	8599.08
434.637	8330.8
434.844	8963.62
435.052	9061.92
435.259	8977.95
435.466	9119.26
435.673	9074.21
435.88	9651.74
436.087	9999.89
436.294	10124.82
436.501	9950.74
436.708	10128.91
436.915	10368.52
437.122	10880.52
437.329	10974.72
437.537	11343.36
437.743	11445.76
437.95	11505.15
438.157	11961.84
438.364	12424.69
438.571	12246.51
438.778	12131.83
438.985	13630.94
439.192	13147.62
439.399	13506.01
439.606	12938.73
439.813	13884.89
440.02	14783.95
440.227	14515.66
440.433	14579.15
440.64	14837.19
440.847	14538.19
441.054	15183.3
441.261	15863.22
441.467	16031.16
441.674	16278.96
441.881	17024.42
442.088	16764.33
442.294	16539.05
442.501	17108.39
442.708	17497.5
442.914	18310.55
443.121	18709.9
443.328	18511.25
443.534	19733.89
443.741	18750.86
443.948	18859.4
444.154	20200.82
444.361	19832.19
444.568	20192.63
444.774	20168.05
444.981	20311.41
445.187	21173.61
445.394	22177.11
445.6	21847.39
445.807	23878.97
446.013	22852.94
446.22	23358.79
446.426	24227.13
446.633	24481.08
446.839	25240.87
447.046	23915.84
447.252	25468.2
447.459	25615.65
447.665	25466.15
447.871	26834.19
448.078	27591.94
448.284	26625.3
448.491	27266.31
448.697	28130.56
448.903	28871.92
449.11	28871.92
449.316	28554.49
449.522	28972.27
449.728	29658.34
449.935	29787.36
450.141	29805.8
450.347	30809.3
450.553	29775.08
450.76	30205.15
450.966	31229.13
451.172	30659.8
451.378	31528.14
451.584	30883.03
451.791	31777.99
451.997	31724.74
452.203	32142.53
452.409	32201.92
452.615	32117.95
452.821	30825.68
453.027	30733.53
453.233	32529.59
453.44	30883.03
453.646	31304.91
453.852	31644.87
454.058	31995.07
454.264	30989.52
454.47	31874.24
454.676	30846.16
454.882	32054.47
455.088	29424.87
455.294	29740.26
455.5	30362.84
455.705	30590.17
455.911	29551.85
456.117	29056.24
456.323	28331.26
456.529	26819.86
456.735	28032.25
456.941	27739.4
457.147	26909.97
457.352	26148.12
457.558	25857.31
457.764	26074.4
457.97	25763.11
458.176	24982.83
458.381	24753.46
458.587	23768.38
458.793	23627.07
458.999	22486.36
459.204	24237.37
459.41	23362.89
459.616	21892.44
459.821	22084.95
460.027	22084.95
460.233	21480.8
460.438	20591.98
460.644	20364.66
460.85	19867
461.055	19121.54
461.261	19455.36
461.466	17583.52
461.672	17302.95
461.878	18412.95
462.083	17458.59
462.289	17116.58
462.494	16795.05
462.7	16049.59
462.905	15836.6
463.111	16268.72
463.316	16141.75
463.522	15676.86
463.727	15957.43
463.932	15443.39
464.138	15615.42
464.343	15785.4
464.549	15171.01
464.754	15816.12
464.959	15809.98
465.165	15599.04
465.37	14763.47
465.575	14427.6
465.781	15125.96
465.986	15189.44
466.191	14550.48
466.397	14198.23
466.602	13651.42
466.807	14069.2
467.012	14018
467.218	14038.48
