Data from USB4F104151__82__13-06-14-038.txt Node

Date: Fri Mar 14 13:06:14 EDT 2025
User: louis
Spectrometer: USB4F10415
Trigger mode: 4
Integration Time (sec): 4.000000E-2
Scans to average: 1
Electric dark correction enabled: true
Nonlinearity correction enabled: false
Boxcar width: 0
XAxis mode: Wavelengths
Number of Pixels in Spectrum: 3648
>>>>>Begin Spectral Data<<<<<
178.204	-177.15
178.424	-177.15
178.644	-177.15
178.864	-199.68
179.084	-123.9
179.304	-99.33
179.524	-3.07
179.744	-9.22
179.964	60.42
180.184	41.98
180.404	-44.03
180.624	3.07
180.844	-68.61
181.064	27.65
181.283	-13.31
181.503	64.51
181.723	39.94
181.943	-39.94
182.163	84.99
182.383	46.08
182.602	-27.65
182.822	62.46
183.042	84.99
183.262	-46.08
183.482	52.22
183.701	-29.7
183.921	-3.07
184.141	-56.32
184.361	46.08
184.58	13.31
184.8	119.81
185.02	-46.08
185.239	37.89
185.459	13.31
185.679	99.33
185.898	-33.79
186.118	62.46
186.338	23.55
186.557	70.65
186.777	11.26
186.997	-7.17
187.216	9.22
187.436	101.37
187.655	84.99
187.875	64.51
188.095	44.03
188.314	11.26
188.534	58.37
188.753	19.46
188.973	19.46
189.192	80.89
189.412	76.8
189.631	52.22
189.851	68.61
190.07	76.8
190.29	-15.36
190.509	50.18
190.729	60.42
190.948	101.37
191.168	177.15
191.387	19.46
191.607	-5.12
191.826	89.09
192.045	21.5
192.265	13.31
192.484	23.55
192.704	-9.22
192.923	-48.13
193.142	80.89
193.362	64.51
193.581	134.14
193.8	64.51
194.02	13.31
194.239	33.79
194.458	54.27
194.678	9.22
194.897	93.18
195.116	-27.65
195.335	-52.22
195.555	-41.98
195.774	-1.02
195.993	27.65
196.212	5.12
196.432	23.55
196.651	21.5
196.87	35.84
197.089	64.51
197.308	48.13
197.528	25.6
197.747	-74.75
197.966	17.41
198.185	109.57
198.404	1.02
198.623	74.75
198.842	113.66
199.062	103.42
199.281	82.94
199.5	17.41
199.719	29.7
199.938	-5.12
200.157	70.65
200.376	-31.74
200.595	97.28
200.814	13.31
201.033	-64.51
201.252	70.65
201.471	23.55
201.69	41.98
201.909	87.04
202.128	31.74
202.347	87.04
202.566	66.56
202.785	-1.02
203.004	23.55
203.223	111.61
203.442	5.12
203.661	13.31
203.879	64.51
204.098	113.66
204.317	66.56
204.536	113.66
204.755	-5.12
204.974	5.12
205.193	64.51
205.411	44.03
205.63	41.98
205.849	84.99
206.068	78.85
206.287	27.65
206.505	17.41
206.724	-33.79
206.943	17.41
207.162	19.46
207.381	76.8
207.599	46.08
207.818	82.94
208.037	35.84
208.255	54.27
208.474	56.32
208.693	54.27
208.911	-3.07
209.13	-19.46
209.349	52.22
209.567	33.79
209.786	33.79
210.005	21.5
210.223	19.46
210.442	-11.26
210.661	44.03
210.879	46.08
211.098	52.22
211.316	80.89
211.535	93.18
211.753	9.22
211.972	41.98
212.191	1.02
212.409	1.02
212.628	66.56
212.846	84.99
213.065	48.13
213.283	84.99
213.502	35.84
213.72	33.79
213.938	3.07
214.157	93.18
214.375	35.84
214.594	41.98
214.812	78.85
215.031	15.36
215.249	15.36
215.467	25.6
215.686	-52.22
215.904	27.65
216.122	60.42
216.341	66.56
216.559	-17.41
216.778	54.27
216.996	76.8
217.214	31.74
217.432	-7.17
217.651	27.65
217.869	13.31
218.087	-41.98
218.306	-46.08
218.524	58.37
218.742	72.7
218.96	37.89
219.179	-3.07
219.397	7.17
219.615	95.23
219.833	78.85
220.051	-54.27
220.27	82.94
220.488	111.61
220.706	60.42
220.924	-9.22
221.142	-9.22
221.36	31.74
221.578	87.04
221.796	-35.84
222.015	62.46
222.233	64.51
222.451	70.65
222.669	27.65
222.887	76.8
223.105	27.65
223.323	54.27
223.541	3.07
223.759	95.23
223.977	-1.02
224.195	82.94
224.413	7.17
224.631	21.5
224.849	-13.31
225.067	82.94
225.285	-50.18
225.503	-5.12
225.721	-52.22
225.939	35.84
226.157	25.6
226.375	93.18
226.592	7.17
226.81	44.03
227.028	50.18
227.246	115.71
227.464	13.31
227.682	-33.79
227.9	119.81
228.117	15.36
228.335	35.84
228.553	52.22
228.771	50.18
228.989	78.85
229.206	-1.02
229.424	19.46
229.642	52.22
229.86	35.84
230.077	93.18
230.295	52.22
230.513	64.51
230.731	41.98
230.948	72.7
231.166	68.61
231.384	44.03
231.601	-15.36
231.819	72.7
232.037	35.84
232.254	11.26
232.472	54.27
232.689	13.31
232.907	9.22
233.125	13.31
233.342	-3.07
233.56	7.17
233.777	35.84
233.995	19.46
234.213	60.42
234.43	84.99
234.648	56.32
234.865	60.42
235.083	132.09
235.3	35.84
235.518	33.79
235.735	91.13
235.953	50.18
236.17	13.31
236.388	-3.07
236.605	37.89
236.822	3.07
237.04	78.85
237.257	41.98
237.475	15.36
237.692	-1.02
237.909	5.12
238.127	-3.07
238.344	70.65
238.562	111.61
238.779	-5.12
238.996	-19.46
239.214	31.74
239.431	56.32
239.648	27.65
239.865	82.94
240.083	80.89
240.3	-9.22
240.517	-44.03
240.735	39.94
240.952	166.91
241.169	-7.17
241.386	68.61
241.603	19.46
241.821	29.7
242.038	107.52
242.255	39.94
242.472	-23.55
242.689	140.29
242.907	13.31
243.124	-5.12
243.341	50.18
243.558	-19.46
243.775	19.46
243.992	-1.02
244.209	78.85
244.426	97.28
244.643	9.22
244.86	-27.65
245.078	84.99
245.295	117.76
245.512	66.56
245.729	50.18
245.946	-19.46
246.163	158.72
246.38	60.42
246.597	27.65
246.814	21.5
247.031	27.65
247.248	130.05
247.464	52.22
247.681	52.22
247.898	-33.79
248.115	82.94
248.332	-35.84
248.549	62.46
248.766	44.03
248.983	21.5
249.2	5.12
249.417	93.18
249.633	-11.26
249.85	-27.65
250.067	70.65
250.284	35.84
250.501	27.65
250.717	132.09
250.934	-23.55
251.151	50.18
251.368	19.46
251.585	33.79
251.801	-11.26
252.018	52.22
252.235	15.36
252.451	5.12
252.668	-5.12
252.885	91.13
253.102	29.7
253.318	80.89
253.535	70.65
253.752	-17.41
253.968	3.07
254.185	-9.22
254.401	15.36
254.618	54.27
254.835	-1.02
255.051	58.37
255.268	13.31
255.484	87.04
255.701	37.89
255.917	84.99
256.134	-29.7
256.351	52.22
256.567	-29.7
256.784	29.7
257	-29.7
257.217	84.99
257.433	50.18
257.65	70.65
257.866	50.18
258.082	-5.12
258.299	15.36
258.515	-3.07
258.732	25.6
258.948	13.31
259.165	56.32
259.381	78.85
259.597	-27.65
259.814	39.94
260.03	146.43
260.246	15.36
260.463	48.13
260.679	97.28
260.895	15.36
261.112	7.17
261.328	-3.07
261.544	-29.7
261.761	148.48
261.977	-37.89
262.193	37.89
262.409	117.76
262.626	93.18
262.842	68.61
263.058	-31.74
263.274	84.99
263.49	-5.12
263.707	101.37
263.923	121.85
264.139	35.84
264.355	-23.55
264.571	109.57
264.787	27.65
265.004	31.74
265.22	52.22
265.436	48.13
265.652	-19.46
265.868	78.85
266.084	-11.26
266.3	-7.17
266.516	-11.26
266.732	60.42
266.948	13.31
267.164	54.27
267.38	107.52
267.596	68.61
267.812	101.37
268.028	56.32
268.244	-5.12
268.46	-80.89
268.676	-48.13
268.892	-25.6
269.108	-19.46
269.324	19.46
269.54	33.79
269.756	70.65
269.972	-37.89
270.188	33.79
270.403	-11.26
270.619	103.42
270.835	13.31
271.051	29.7
271.267	-19.46
271.483	56.32
271.698	54.27
271.914	-3.07
272.13	52.22
272.346	11.26
272.562	17.41
272.777	78.85
272.993	-5.12
273.209	35.84
273.425	78.85
273.64	62.46
273.856	87.04
274.072	68.61
274.287	54.27
274.503	27.65
274.719	89.09
274.934	19.46
275.15	-29.7
275.366	-23.55
275.581	-23.55
275.797	50.18
276.012	37.89
276.228	41.98
276.444	9.22
276.659	144.38
276.875	5.12
277.09	23.55
277.306	-50.18
277.521	48.13
277.737	46.08
277.952	80.89
278.168	3.07
278.383	31.74
278.599	50.18
278.814	97.28
279.03	29.7
279.245	78.85
279.461	23.55
279.676	31.74
279.892	-41.98
280.107	-48.13
280.322	-15.36
280.538	11.26
280.753	97.28
280.969	3.07
281.184	25.6
281.399	80.89
281.615	60.42
281.83	50.18
282.045	50.18
282.26	-11.26
282.476	33.79
282.691	31.74
282.906	-3.07
283.122	3.07
283.337	-21.5
283.552	27.65
283.767	-15.36
283.983	68.61
284.198	-9.22
284.413	54.27
284.628	-17.41
284.843	-3.07
285.058	95.23
285.274	125.95
285.489	-56.32
285.704	121.85
285.919	31.74
286.134	-46.08
286.349	11.26
286.564	-13.31
286.779	54.27
286.995	-25.6
287.21	-37.89
287.425	-3.07
287.64	52.22
287.855	9.22
288.07	-29.7
288.285	105.47
288.5	111.61
288.715	35.84
288.93	29.7
289.145	19.46
289.36	46.08
289.575	-27.65
289.79	56.32
290.004	44.03
290.219	158.72
290.434	31.74
290.649	-9.22
290.864	29.7
291.079	56.32
291.294	21.5
291.509	31.74
291.724	56.32
291.938	5.12
292.153	29.7
292.368	1.02
292.583	41.98
292.798	33.79
293.012	56.32
293.227	95.23
293.442	46.08
293.657	121.85
293.871	72.7
294.086	68.61
294.301	113.66
294.516	125.95
294.73	44.03
294.945	-58.37
295.16	93.18
295.374	101.37
295.589	84.99
295.804	-41.98
296.018	-21.5
296.233	101.37
296.447	84.99
296.662	7.17
296.877	62.46
297.091	29.7
297.306	33.79
297.52	3.07
297.735	21.5
297.949	5.12
298.164	19.46
298.378	113.66
298.593	-35.84
298.807	-9.22
299.022	93.18
299.236	-9.22
299.451	1.02
299.665	7.17
299.88	21.5
300.094	35.84
300.309	70.65
300.523	48.13
300.737	21.5
300.952	56.32
301.166	11.26
301.381	-9.22
301.595	-3.07
301.809	62.46
302.024	27.65
302.238	21.5
302.452	68.61
302.667	80.89
302.881	119.81
303.095	54.27
303.309	76.8
303.524	64.51
303.738	-76.8
303.952	9.22
304.166	31.74
304.381	-54.27
304.595	150.53
304.809	-15.36
305.023	58.37
305.237	84.99
305.452	-15.36
305.666	48.13
305.88	68.61
306.094	84.99
306.308	35.84
306.522	56.32
306.736	-3.07
306.95	-23.55
307.164	13.31
307.379	58.37
307.593	70.65
307.807	119.81
308.021	44.03
308.235	50.18
308.449	-39.94
308.663	-54.27
308.877	93.18
309.091	46.08
309.305	138.24
309.519	19.46
309.733	68.61
309.947	-87.04
310.161	97.28
310.374	29.7
310.588	84.99
310.802	-41.98
311.016	-25.6
311.23	1.02
311.444	-5.12
311.658	35.84
311.872	50.18
312.085	109.57
312.299	101.37
312.513	62.46
312.727	87.04
312.941	-60.42
313.154	44.03
313.368	66.56
313.582	-27.65
313.796	5.12
314.009	-48.13
314.223	91.13
314.437	19.46
314.651	11.26
314.864	-5.12
315.078	-15.36
315.292	9.22
315.505	-5.12
315.719	64.51
315.933	84.99
316.146	-68.61
316.36	-41.98
316.573	168.96
316.787	35.84
317.001	62.46
317.214	1.02
317.428	13.31
317.641	-21.5
317.855	21.5
318.068	23.55
318.282	52.22
318.495	136.19
318.709	72.7
318.922	-3.07
319.136	125.95
319.349	89.09
319.563	-31.74
319.776	21.5
319.99	-62.46
320.203	119.81
320.417	27.65
320.63	-7.17
320.843	93.18
321.057	80.89
321.27	15.36
321.483	130.05
321.697	64.51
321.91	39.94
322.124	3.07
322.337	72.7
322.55	7.17
322.763	64.51
322.977	5.12
323.19	58.37
323.403	44.03
323.617	35.84
323.83	119.81
324.043	-5.12
324.256	82.94
324.469	-29.7
324.683	101.37
324.896	54.27
325.109	78.85
325.322	-9.22
325.535	-13.31
325.748	46.08
325.962	23.55
326.175	123.9
326.388	52.22
326.601	113.66
326.814	25.6
327.027	52.22
327.24	82.94
327.453	7.17
327.666	54.27
327.879	84.99
328.092	-35.84
328.305	56.32
328.518	11.26
328.731	76.8
328.944	41.98
329.157	41.98
329.37	29.7
329.583	66.56
329.796	31.74
330.009	-5.12
330.222	64.51
330.435	101.37
330.648	64.51
330.861	46.08
331.073	11.26
331.286	150.53
331.499	78.85
331.712	1.02
331.925	-13.31
332.138	-1.02
332.35	11.26
332.563	84.99
332.776	39.94
332.989	3.07
333.202	52.22
333.414	-29.7
333.627	29.7
333.84	27.65
334.053	121.85
334.265	-11.26
334.478	13.31
334.691	5.12
334.903	66.56
335.116	37.89
335.329	68.61
335.541	103.42
335.754	87.04
335.966	48.13
336.179	5.12
336.392	-66.56
336.604	41.98
336.817	52.22
337.029	84.99
337.242	56.32
337.454	99.33
337.667	78.85
337.88	89.09
338.092	76.8
338.305	48.13
338.517	-23.55
338.729	84.99
338.942	109.57
339.154	-70.65
339.367	13.31
339.579	84.99
339.792	-3.07
340.004	60.42
340.217	11.26
340.429	74.75
340.641	13.31
340.854	19.46
341.066	29.7
341.278	138.24
341.491	89.09
341.703	13.31
341.915	31.74
342.128	87.04
342.34	17.41
342.552	-5.12
342.764	29.7
342.977	19.46
343.189	17.41
343.401	37.89
343.613	-68.61
343.826	80.89
344.038	46.08
344.25	46.08
344.462	27.65
344.674	35.84
344.886	91.13
345.099	56.32
345.311	39.94
345.523	-48.13
345.735	21.5
345.947	117.76
346.159	66.56
346.371	35.84
346.583	-19.46
346.795	99.33
347.007	19.46
347.219	54.27
347.431	13.31
347.643	84.99
347.855	60.42
348.067	52.22
348.279	15.36
348.491	1.02
348.703	44.03
348.915	70.65
349.127	-11.26
349.339	39.94
349.551	9.22
349.763	119.81
349.975	66.56
350.187	105.47
350.399	54.27
350.61	93.18
350.822	93.18
351.034	101.37
351.246	68.61
351.458	82.94
351.669	56.32
351.881	54.27
352.093	52.22
352.305	76.8
352.517	35.84
352.728	60.42
352.94	-5.12
353.152	103.42
353.363	41.98
353.575	21.5
353.787	97.28
353.999	52.22
354.21	80.89
354.422	-5.12
354.633	27.65
354.845	74.75
355.057	68.61
355.268	99.33
355.48	125.95
355.692	-5.12
355.903	117.76
356.115	84.99
356.326	-99.33
356.538	19.46
356.749	62.46
356.961	21.5
357.172	17.41
357.384	44.03
357.595	87.04
357.807	117.76
358.018	56.32
358.23	37.89
358.441	107.52
358.653	62.46
358.864	103.42
359.075	-23.55
359.287	33.79
359.498	3.07
359.709	64.51
359.921	25.6
360.132	52.22
360.344	72.7
360.555	46.08
360.766	5.12
360.977	-13.31
361.189	27.65
361.4	125.95
361.611	41.98
361.823	60.42
362.034	54.27
362.245	-21.5
362.456	93.18
362.667	80.89
362.879	31.74
363.09	68.61
363.301	11.26
363.512	33.79
363.723	29.7
363.935	-1.02
364.146	62.46
364.357	46.08
364.568	44.03
364.779	19.46
364.99	105.47
365.201	25.6
365.412	97.28
365.623	-13.31
365.834	97.28
366.045	-5.12
366.256	89.09
366.467	27.65
366.678	91.13
366.889	52.22
367.1	41.98
367.311	89.09
367.522	41.98
367.733	125.95
367.944	62.46
368.155	91.13
368.366	76.8
368.577	166.91
368.788	84.99
368.999	31.74
369.209	-78.85
369.42	191.49
369.631	164.86
369.842	41.98
370.053	54.27
370.264	31.74
370.474	-3.07
370.685	117.76
370.896	37.89
371.107	134.14
371.317	89.09
371.528	-27.65
371.739	111.61
371.95	-3.07
372.16	160.77
372.371	89.09
372.582	-11.26
372.792	117.76
373.003	25.6
373.214	82.94
373.424	95.23
373.635	27.65
373.846	41.98
374.056	84.99
374.267	62.46
374.477	-7.17
374.688	64.51
374.898	44.03
375.109	41.98
375.319	113.66
375.53	68.61
375.74	50.18
375.951	54.27
376.161	27.65
376.372	50.18
376.582	-37.89
376.793	76.8
377.003	17.41
377.214	27.65
377.424	31.74
377.635	19.46
377.845	13.31
378.055	128
378.266	-23.55
378.476	46.08
378.686	66.56
378.897	54.27
379.107	103.42
379.317	72.7
379.528	99.33
379.738	123.9
379.948	-19.46
380.158	56.32
380.369	44.03
380.579	29.7
380.789	19.46
380.999	1.02
381.21	119.81
381.42	164.86
381.63	-37.89
381.84	99.33
382.05	-15.36
382.261	111.61
382.471	134.14
382.681	41.98
382.891	113.66
383.101	9.22
383.311	23.55
383.521	27.65
383.731	109.57
383.941	121.85
384.151	89.09
384.361	95.23
384.571	140.29
384.781	95.23
384.991	154.62
385.201	93.18
385.411	-21.5
385.621	107.52
385.831	95.23
386.041	19.46
386.251	46.08
386.461	76.8
386.671	87.04
386.881	109.57
387.091	23.55
387.301	70.65
387.511	46.08
387.72	72.7
387.93	109.57
388.14	-37.89
388.35	31.74
388.56	144.38
388.769	134.14
388.979	152.57
389.189	56.32
389.399	82.94
389.609	99.33
389.818	119.81
390.028	41.98
390.238	93.18
390.447	7.17
390.657	58.37
390.867	41.98
391.076	3.07
391.286	21.5
391.496	62.46
391.705	97.28
391.915	177.15
392.125	138.24
392.334	46.08
392.544	111.61
392.753	150.53
392.963	50.18
393.172	64.51
393.382	15.36
393.591	222.2
393.801	41.98
394.01	111.61
394.22	105.47
394.429	41.98
394.639	58.37
394.848	93.18
395.058	101.37
395.267	31.74
395.477	-1.02
395.686	105.47
395.895	117.76
396.105	183.29
396.314	144.38
396.524	150.53
396.733	84.99
396.942	119.81
397.152	87.04
397.361	205.82
397.57	162.81
397.78	62.46
397.989	78.85
398.198	166.91
398.407	107.52
398.617	164.86
398.826	107.52
399.035	91.13
399.244	177.15
399.453	183.29
399.663	35.84
399.872	197.63
400.081	21.5
400.29	158.72
400.499	74.75
400.708	140.29
400.917	60.42
401.127	95.23
401.336	91.13
401.545	191.49
401.754	78.85
401.963	228.35
402.172	201.72
402.381	80.89
402.59	160.77
402.799	132.09
403.008	181.25
403.217	101.37
403.426	158.72
403.635	70.65
403.844	130.05
404.053	128
404.262	144.38
404.471	240.64
404.68	175.1
404.888	177.15
405.097	177.15
405.306	158.72
405.515	146.43
405.724	171.01
405.933	199.68
406.142	175.1
406.35	232.44
406.559	242.68
406.768	187.39
406.977	291.84
407.185	201.72
407.394	300.03
407.603	207.87
407.812	220.16
408.02	361.47
408.229	234.49
408.438	177.15
408.646	300.03
408.855	244.73
409.064	273.4
409.272	293.88
409.481	396.28
409.69	297.98
409.898	285.69
410.107	267.26
410.315	300.03
410.524	338.94
410.733	367.61
410.941	375.8
411.15	375.8
411.358	388.09
411.567	504.82
411.775	312.32
411.984	461.82
412.192	455.67
412.401	412.67
412.609	568.31
412.818	488.44
413.026	537.59
413.234	510.97
413.443	543.74
413.651	513.02
413.86	549.88
414.068	680.95
414.276	631.8
414.485	695.29
414.693	715.77
414.901	756.72
415.11	764.92
415.318	719.86
415.526	740.34
415.734	781.3
415.943	775.16
416.151	906.23
416.359	855.03
416.567	916.47
416.776	922.61
416.984	906.23
417.192	1111.02
417.4	1047.54
417.608	1051.63
417.817	1045.49
418.025	1137.65
418.233	1213.42
418.441	1160.17
418.649	1207.28
418.857	1395.69
419.065	1395.69
419.273	1369.07
419.481	1547.24
419.689	1530.86
419.897	1471.47
420.105	1559.53
420.313	1502.19
420.521	1797.09
420.729	1620.97
420.937	1760.23
421.145	1752.04
421.353	1940.45
421.561	2026.47
421.769	2061.28
421.977	2178.01
422.185	2157.54
422.393	2190.3
422.601	2499.55
422.809	2468.83
423.017	2323.42
423.224	2567.13
423.432	2608.09
423.64	2663.38
423.848	2874.32
424.056	2716.63
424.263	2978.77
424.471	2946
424.679	3058.64
424.887	3359.69
425.094	3324.88
425.302	3398.6
425.51	3431.37
425.718	3582.92
425.925	3683.27
426.133	3869.64
426.341	3929.03
426.548	4178.88
426.756	4150.21
426.964	4150.21
427.171	4375.49
427.379	4576.19
427.586	4586.43
427.794	4762.55
428.001	4918.2
428.209	5211.06
428.417	5180.34
428.624	5364.65
428.832	5542.83
429.039	5452.72
429.247	5327.79
429.454	5899.17
429.662	6550.43
429.869	5845.93
430.076	6417.31
430.284	6257.57
430.491	6509.47
430.699	6661.02
430.906	6658.97
431.114	7087
431.321	7252.88
431.528	7310.22
431.736	7713.67
431.943	7934.85
432.15	7846.79
432.358	8057.73
432.565	8383.36
432.772	8307.59
432.979	8760.19
433.187	8827.77
433.394	9149.3
433.601	9841.51
433.808	9778.03
434.016	9624.43
434.223	10099.56
434.43	10642.27
434.637	10570.59
434.844	11164.5
435.052	11365.2
435.259	11010.9
435.466	11340.63
435.673	11178.84
435.88	11789.13
436.087	12651.33
436.294	12745.53
436.501	12206.92
436.708	12548.93
436.915	13136.7
437.122	13703.98
437.329	13593.39
437.537	13962.03
437.743	14244.65
437.95	14146.34
438.157	14887.71
438.364	15397.65
438.571	15297.3
438.778	15366.93
438.985	17062.65
439.192	16210.7
439.399	16683.78
439.606	16284.42
439.813	17345.27
440.02	18451.17
440.227	18295.53
440.433	17769.2
440.64	18492.13
440.847	18367.21
441.054	18701.03
441.261	20095.69
441.467	19966.67
441.674	20351.69
441.881	20806.34
442.088	20847.3
442.294	20679.36
442.501	21263.04
442.708	21621.43
442.914	22446.76
443.121	23601.82
443.328	22917.79
443.534	24470.15
443.741	23530.14
443.948	23354.01
444.154	25324.16
444.361	25221.76
444.568	25123.46
444.774	25399.93
444.981	25264.77
445.187	26200.69
445.394	27347.55
445.6	27204.19
445.807	29409.86
446.013	28451.41
446.22	28889.67
446.426	30296.63
446.633	30276.15
446.839	31568.41
447.046	30063.16
447.252	31588.89
447.459	31830.55
447.665	31875.61
447.871	33415.68
448.078	35002.86
448.284	32764.43
448.491	33755.64
448.697	35547.62
448.903	35791.33
449.11	35992.03
449.316	35600.86
449.522	35613.15
449.728	37212.62
449.935	37317.06
450.141	37407.17
450.347	37945.79
450.553	37116.36
450.76	37702.08
450.966	38656.43
451.172	38455.73
451.378	39573.92
451.584	38742.45
451.791	39651.75
451.997	39352.74
452.203	40047
452.409	39963.04
452.615	39893.41
452.821	38439.35
453.027	38339
453.233	40210.84
453.44	38756.78
453.646	39063.98
453.852	39137.71
454.058	40364.44
454.264	38609.33
454.47	39401.89
454.676	38291.9
454.882	39772.58
455.088	36420.05
455.294	36768.21
455.5	37507.52
455.705	38230.46
455.911	36784.59
456.117	35834.33
456.323	35301.86
456.529	33542.66
456.735	34793.97
456.941	34163.19
457.147	33751.55
457.352	32678.41
457.558	32313.87
457.764	32229.91
457.97	31863.32
458.176	30982.7
458.381	31095.33
458.587	29536.83
458.793	29303.36
458.999	27812.44
459.204	30218.8
459.41	29160
459.616	27474.52
459.821	27210.34
460.027	27296.35
460.233	26628.71
460.438	25236.09
460.644	25676.41
460.85	24269.45
461.055	24107.66
461.261	23896.72
461.466	22391.47
461.672	21691.06
461.878	23366.3
462.083	21664.44
462.289	21193.4
462.494	21029.57
462.7	19909.33
462.905	19452.63
463.111	20021.97
463.316	20341.45
463.522	19839.7
463.727	19774.16
463.932	19673.81
464.138	19481.3
464.343	19702.48
464.549	19342.04
464.754	19550.93
464.959	19436.25
465.165	19239.64
465.37	18819.81
465.575	18017.01
465.781	18651.88
465.986	18905.82
466.191	18332.39
466.397	17775.34
466.602	17083.13
