Data from USB4F104151__16__13-04-30-569.txt Node

Date: Fri Mar 14 13:04:30 EDT 2025
User: louis
Spectrometer: USB4F10415
Trigger mode: 4
Integration Time (sec): 4.000000E-2
Scans to average: 1
Electric dark correction enabled: true
Nonlinearity correction enabled: false
Boxcar width: 0
XAxis mode: Wavelengths
Number of Pixels in Spectrum: 3648
>>>>>Begin Spectral Data<<<<<
178.204	-176.98
178.424	-176.98
178.644	-176.98
178.864	-164.69
179.084	-164.69
179.304	-2.9
179.524	-25.43
179.744	-15.19
179.964	-4.95
180.184	-41.81
180.404	76.97
180.624	83.11
180.844	-23.38
181.064	-54.1
181.283	9.39
181.503	23.72
181.723	-25.43
181.943	-23.38
182.163	44.2
182.383	46.25
182.602	38.06
182.822	70.83
183.042	72.87
183.262	-35.67
183.482	40.11
183.701	-50
183.921	40.11
184.141	-31.57
184.361	21.67
184.58	33.96
184.8	66.73
185.02	85.16
185.239	-9.05
185.459	19.63
185.679	64.68
185.898	13.48
186.118	101.55
186.338	-17.24
186.557	42.15
186.777	-41.81
186.997	7.34
187.216	-27.48
187.436	109.74
187.655	60.59
187.875	48.3
188.095	-23.38
188.314	60.59
188.534	109.74
188.753	27.82
188.973	-39.76
189.192	89.26
189.412	85.16
189.631	48.3
189.851	38.06
190.07	81.07
190.29	3.24
190.509	19.63
190.729	38.06
190.948	113.83
191.168	177.32
191.387	15.53
191.607	-21.33
191.826	46.25
192.045	3.24
192.265	31.91
192.484	29.87
192.704	-13.14
192.923	15.53
193.142	171.18
193.362	21.67
193.581	146.6
193.8	83.11
194.02	152.74
194.239	15.53
194.458	52.39
194.678	46.25
194.897	-39.76
195.116	36.01
195.335	74.92
195.555	72.87
195.774	-33.62
195.993	36.01
196.212	-29.52
196.432	27.82
196.651	7.34
196.87	-31.57
197.089	95.4
197.308	15.53
197.528	81.07
197.747	-27.48
197.966	48.3
198.185	25.77
198.404	3.24
198.623	72.87
198.842	50.35
199.062	97.45
199.281	105.64
199.5	-4.95
199.719	3.24
199.938	134.31
200.157	46.25
200.376	72.87
200.595	89.26
200.814	42.15
201.033	-0.85
201.252	146.6
201.471	38.06
201.69	87.21
201.909	46.25
202.128	23.72
202.347	72.87
202.566	23.72
202.785	52.39
203.004	-0.85
203.223	60.59
203.442	81.07
203.661	40.11
203.879	7.34
204.098	33.96
204.317	13.48
204.536	50.35
204.755	72.87
204.974	130.22
205.193	58.54
205.411	199.85
205.63	60.59
205.849	64.68
206.068	-2.9
206.287	79.02
206.505	29.87
206.724	50.35
206.943	-9.05
207.162	-19.29
207.381	7.34
207.599	66.73
207.818	50.35
208.037	21.67
208.255	17.58
208.474	33.96
208.693	9.39
208.911	54.44
209.13	15.53
209.349	107.69
209.567	56.49
209.786	91.31
210.005	52.39
210.223	3.24
210.442	-0.85
210.661	7.34
210.879	17.58
211.098	56.49
211.316	-39.76
211.535	64.68
211.753	-13.14
211.972	27.82
212.191	-13.14
212.409	-17.24
212.628	-7
212.846	27.82
213.065	119.98
213.283	134.31
213.502	54.44
213.72	25.77
213.938	-9.05
214.157	9.39
214.375	124.07
214.594	-17.24
214.812	21.67
215.031	23.72
215.249	38.06
215.467	79.02
215.686	-41.81
215.904	48.3
216.122	-47.96
216.341	68.78
216.559	99.5
216.778	93.35
216.996	48.3
217.214	103.59
217.432	-17.24
217.651	50.35
217.869	33.96
218.087	46.25
218.306	60.59
218.524	56.49
218.742	-29.52
218.96	56.49
219.179	38.06
219.397	66.73
219.615	113.83
219.833	70.83
220.051	23.72
220.27	85.16
220.488	70.83
220.706	25.77
220.924	48.3
221.142	23.72
221.36	23.72
221.578	56.49
221.796	-15.19
222.015	17.58
222.233	36.01
222.451	101.55
222.669	-93.01
222.887	68.78
223.105	-25.43
223.323	-0.85
223.541	19.63
223.759	-23.38
223.977	17.58
224.195	68.78
224.413	93.35
224.631	97.45
224.849	52.39
225.067	68.78
225.285	46.25
225.503	-19.29
225.721	-37.72
225.939	42.15
226.157	-47.96
226.375	124.07
226.592	29.87
226.81	7.34
227.028	-9.05
227.246	136.36
227.464	58.54
227.682	48.3
227.9	48.3
228.117	83.11
228.335	42.15
228.553	36.01
228.771	64.68
228.989	54.44
229.206	113.83
229.424	11.43
229.642	13.48
229.86	9.39
230.077	107.69
230.295	13.48
230.513	25.77
230.731	-21.33
230.948	3.24
231.166	109.74
231.384	-11.09
231.601	36.01
231.819	126.12
232.037	-0.85
232.254	-21.33
232.472	107.69
232.689	-19.29
232.907	83.11
233.125	-50
233.342	17.58
233.56	-39.76
233.777	27.82
233.995	97.45
234.213	95.4
234.43	-15.19
234.648	38.06
234.865	48.3
235.083	15.53
235.3	13.48
235.518	27.82
235.735	122.02
235.953	87.21
236.17	89.26
236.388	-23.38
236.605	50.35
236.822	113.83
237.04	50.35
237.257	17.58
237.475	-45.91
237.692	83.11
237.909	9.39
238.127	70.83
238.344	56.49
238.562	17.58
238.779	-13.14
238.996	23.72
239.214	48.3
239.431	50.35
239.648	-2.9
239.865	111.78
240.083	42.15
240.3	15.53
240.517	38.06
240.735	66.73
240.952	140.46
241.169	54.44
241.386	38.06
241.603	-66.39
241.821	29.87
242.038	60.59
242.255	7.34
242.472	-64.34
242.689	17.58
242.907	50.35
243.124	54.44
243.341	-52.05
243.558	40.11
243.775	38.06
243.992	-35.67
244.209	109.74
244.426	136.36
244.643	17.58
244.86	23.72
245.078	40.11
245.295	-7
245.512	50.35
245.729	-11.09
245.946	-4.95
246.163	97.45
246.38	11.43
246.597	64.68
246.814	72.87
247.031	64.68
247.248	31.91
247.464	72.87
247.681	33.96
247.898	17.58
248.115	109.74
248.332	-54.1
248.549	58.54
248.766	31.91
248.983	85.16
249.2	15.53
249.417	83.11
249.633	-25.43
249.85	91.31
250.067	46.25
250.284	-35.67
250.501	60.59
250.717	-15.19
250.934	-2.9
251.151	-29.52
251.368	46.25
251.585	72.87
251.801	27.82
252.018	-54.1
252.235	7.34
252.451	-31.57
252.668	25.77
252.885	113.83
253.102	38.06
253.318	-21.33
253.535	27.82
253.752	64.68
253.968	54.44
254.185	-33.62
254.401	-4.95
254.618	50.35
254.835	58.54
255.051	46.25
255.268	44.2
255.484	15.53
255.701	40.11
255.917	101.55
256.134	11.43
256.351	27.82
256.567	9.39
256.784	81.07
257	-31.57
257.217	101.55
257.433	-13.14
257.65	130.22
257.866	56.49
258.082	-35.67
258.299	-76.63
258.515	11.43
258.732	17.58
258.948	3.24
259.165	85.16
259.381	33.96
259.597	56.49
259.814	56.49
260.03	54.44
260.246	40.11
260.463	81.07
260.679	76.97
260.895	-33.62
261.112	9.39
261.328	23.72
261.544	38.06
261.761	128.17
261.977	40.11
262.193	40.11
262.409	142.5
262.626	23.72
262.842	97.45
263.058	-17.24
263.274	124.07
263.49	-2.9
263.707	58.54
263.923	3.24
264.139	-64.34
264.355	1.19
264.571	60.59
264.787	13.48
265.004	15.53
265.22	105.64
265.436	-0.85
265.652	9.39
265.868	42.15
266.084	-9.05
266.3	-0.85
266.516	13.48
266.732	15.53
266.948	87.21
267.164	48.3
267.38	103.59
267.596	-9.05
267.812	44.2
268.028	29.87
268.244	-41.81
268.46	33.96
268.676	29.87
268.892	33.96
269.108	15.53
269.324	3.24
269.54	15.53
269.756	44.2
269.972	21.67
270.188	76.97
270.403	-13.14
270.619	81.07
270.835	56.49
271.051	-45.91
271.267	25.77
271.483	44.2
271.698	-2.9
271.914	11.43
272.13	48.3
272.346	62.63
272.562	60.59
272.777	56.49
272.993	-54.1
273.209	-17.24
273.425	42.15
273.64	-29.52
273.856	48.3
274.072	46.25
274.287	7.34
274.503	76.97
274.719	62.63
274.934	89.26
275.15	-17.24
275.366	33.96
275.581	-31.57
275.797	36.01
276.012	-21.33
276.228	-15.19
276.444	27.82
276.659	40.11
276.875	1.19
277.09	15.53
277.306	93.35
277.521	9.39
277.737	38.06
277.952	36.01
278.168	-7
278.383	42.15
278.599	74.92
278.814	36.01
279.03	48.3
279.245	113.83
279.461	-15.19
279.676	42.15
279.892	5.29
280.107	38.06
280.322	-21.33
280.538	101.55
280.753	58.54
280.969	29.87
281.184	13.48
281.399	97.45
281.615	40.11
281.83	48.3
282.045	17.58
282.26	23.72
282.476	85.16
282.691	89.26
282.906	21.67
283.122	29.87
283.337	-11.09
283.552	74.92
283.767	-11.09
283.983	62.63
284.198	36.01
284.413	42.15
284.628	-66.39
284.843	81.07
285.058	40.11
285.274	97.45
285.489	19.63
285.704	52.39
285.919	38.06
286.134	64.68
286.349	54.44
286.564	-47.96
286.779	109.74
286.995	72.87
287.21	-33.62
287.425	66.73
287.64	-33.62
287.855	56.49
288.07	-50
288.285	72.87
288.5	33.96
288.715	56.49
288.93	72.87
289.145	-9.05
289.36	48.3
289.575	-13.14
289.79	54.44
290.004	56.49
290.219	19.63
290.434	87.21
290.649	23.72
290.864	1.19
291.079	-39.76
291.294	62.63
291.509	93.35
291.724	-15.19
291.938	19.63
292.153	3.24
292.368	-13.14
292.583	15.53
292.798	54.44
293.012	36.01
293.227	56.49
293.442	-17.24
293.657	97.45
293.871	62.63
294.086	54.44
294.301	89.26
294.516	64.68
294.73	48.3
294.945	17.58
295.16	-23.38
295.374	29.87
295.589	117.93
295.804	-17.24
296.018	-4.95
296.233	79.02
296.447	31.91
296.662	40.11
296.877	44.2
297.091	13.48
297.306	46.25
297.52	-17.24
297.735	-4.95
297.949	74.92
298.164	44.2
298.378	-2.9
298.593	25.77
298.807	-31.57
299.022	1.19
299.236	107.69
299.451	7.34
299.665	66.73
299.88	36.01
300.094	50.35
300.309	23.72
300.523	31.91
300.737	107.69
300.952	36.01
301.166	46.25
301.381	5.29
301.595	11.43
301.809	15.53
302.024	58.54
302.238	-13.14
302.452	95.4
302.667	97.45
302.881	44.2
303.095	89.26
303.309	56.49
303.524	-4.95
303.738	72.87
303.952	-23.38
304.166	60.59
304.381	-115.54
304.595	83.11
304.809	-7
305.023	23.72
305.237	93.35
305.452	60.59
305.666	62.63
305.88	62.63
306.094	17.58
306.308	23.72
306.522	148.65
306.736	103.59
306.95	-4.95
307.164	97.45
307.379	40.11
307.593	91.31
307.807	87.21
308.021	66.73
308.235	101.55
308.449	15.53
308.663	-0.85
308.877	99.5
309.091	-19.29
309.305	101.55
309.519	-21.33
309.733	48.3
309.947	-19.29
310.161	17.58
310.374	23.72
310.588	68.78
310.802	19.63
311.016	23.72
311.23	66.73
311.444	68.78
311.658	42.15
311.872	130.22
312.085	81.07
312.299	31.91
312.513	56.49
312.727	23.72
312.941	-19.29
313.154	13.48
313.368	-0.85
313.582	31.91
313.796	-0.85
314.009	25.77
314.223	83.11
314.437	52.39
314.651	42.15
314.864	33.96
315.078	-0.85
315.292	36.01
315.505	33.96
315.719	60.59
315.933	60.59
316.146	-47.96
316.36	50.35
316.573	29.87
316.787	21.67
317.001	21.67
317.214	-11.09
317.428	64.68
317.641	-17.24
317.855	42.15
318.068	64.68
318.282	-37.72
318.495	179.37
318.709	66.73
318.922	-7
319.136	140.46
319.349	21.67
319.563	-17.24
319.776	5.29
319.99	17.58
320.203	103.59
320.417	40.11
320.63	76.97
320.843	148.65
321.057	64.68
321.27	81.07
321.483	85.16
321.697	122.02
321.91	79.02
322.124	93.35
322.337	-11.09
322.55	64.68
322.763	89.26
322.977	52.39
323.19	-15.19
323.403	52.39
323.617	44.2
323.83	79.02
324.043	33.96
324.256	87.21
324.469	-43.86
324.683	146.6
324.896	36.01
325.109	105.64
325.322	33.96
325.535	109.74
325.748	1.19
325.962	29.87
326.175	87.21
326.388	36.01
326.601	40.11
326.814	103.59
327.027	122.02
327.24	93.35
327.453	-23.38
327.666	60.59
327.879	79.02
328.092	138.41
328.305	93.35
328.518	66.73
328.731	-37.72
328.944	7.34
329.157	46.25
329.37	56.49
329.583	105.64
329.796	160.94
330.009	9.39
330.222	5.29
330.435	109.74
330.648	58.54
330.861	74.92
331.073	76.97
331.286	60.59
331.499	50.35
331.712	-33.62
331.925	19.63
332.138	81.07
332.35	101.55
332.563	-25.43
332.776	115.88
332.989	-15.19
333.202	31.91
333.414	70.83
333.627	15.53
333.84	17.58
334.053	81.07
334.265	7.34
334.478	17.58
334.691	56.49
334.903	3.24
335.116	33.96
335.329	27.82
335.541	66.73
335.754	83.11
335.966	-47.96
336.179	72.87
336.392	107.69
336.604	38.06
336.817	60.59
337.029	60.59
337.242	87.21
337.454	89.26
337.667	119.98
337.88	68.78
338.092	44.2
338.305	85.16
338.517	-13.14
338.729	97.45
338.942	68.78
339.154	52.39
339.367	9.39
339.579	66.73
339.792	46.25
340.004	44.2
340.217	21.67
340.429	93.35
340.641	-13.14
340.854	76.97
341.066	-13.14
341.278	74.92
341.491	128.17
341.703	25.77
341.915	15.53
342.128	113.83
342.34	19.63
342.552	48.3
342.764	29.87
342.977	46.25
343.189	87.21
343.401	54.44
343.613	-19.29
343.826	5.29
344.038	99.5
344.25	19.63
344.462	62.63
344.674	68.78
344.886	62.63
345.099	48.3
345.311	79.02
345.523	31.91
345.735	1.19
345.947	117.93
346.159	64.68
346.371	-31.57
346.583	38.06
346.795	109.74
347.007	40.11
347.219	91.31
347.431	70.83
347.643	29.87
347.855	-45.91
348.067	89.26
348.279	-19.29
348.491	27.82
348.703	5.29
348.915	-9.05
349.127	40.11
349.339	85.16
349.551	31.91
349.763	68.78
349.975	33.96
350.187	89.26
350.399	83.11
350.61	93.35
350.822	-17.24
351.034	-9.05
351.246	68.78
351.458	101.55
351.669	160.94
351.881	134.31
352.093	38.06
352.305	150.7
352.517	66.73
352.728	156.84
352.94	7.34
353.152	95.4
353.363	1.19
353.575	44.2
353.787	91.31
353.999	-37.72
354.21	148.65
354.422	-7
354.633	23.72
354.845	109.74
355.057	36.01
355.268	31.91
355.48	38.06
355.692	7.34
355.903	3.24
356.115	-35.67
356.326	-52.05
356.538	64.68
356.749	81.07
356.961	130.22
357.172	50.35
357.384	9.39
357.595	124.07
357.807	33.96
358.018	36.01
358.23	-4.95
358.441	158.89
358.653	126.12
358.864	19.63
359.075	48.3
359.287	27.82
359.498	79.02
359.709	70.83
359.921	58.54
360.132	64.68
360.344	33.96
360.555	60.59
360.766	81.07
360.977	81.07
361.189	79.02
361.4	33.96
361.611	128.17
361.823	179.37
362.034	44.2
362.245	-31.57
362.456	85.16
362.667	60.59
362.879	81.07
363.09	111.78
363.301	113.83
363.512	11.43
363.723	48.3
363.935	107.69
364.146	50.35
364.357	72.87
364.568	19.63
364.779	83.11
364.99	91.31
365.201	58.54
365.412	140.46
365.623	25.77
365.834	36.01
366.045	58.54
366.256	64.68
366.467	58.54
366.678	-25.43
366.889	-4.95
367.1	50.35
367.311	64.68
367.522	-9.05
367.733	60.59
367.944	91.31
368.155	52.39
368.366	79.02
368.577	122.02
368.788	189.61
368.999	33.96
369.209	83.11
369.42	117.93
369.631	126.12
369.842	87.21
370.053	11.43
370.264	52.39
370.474	52.39
370.685	50.35
370.896	113.83
371.107	136.36
371.317	21.67
371.528	36.01
371.739	17.58
371.95	89.26
372.16	87.21
372.371	23.72
372.582	101.55
372.792	113.83
373.003	126.12
373.214	68.78
373.424	105.64
373.635	23.72
373.846	191.66
374.056	21.67
374.267	68.78
374.477	56.49
374.688	50.35
374.898	70.83
375.109	66.73
375.319	66.73
375.53	99.5
375.74	36.01
375.951	81.07
376.161	101.55
376.372	62.63
376.582	27.82
376.793	56.49
377.003	40.11
377.214	68.78
377.424	29.87
377.635	89.26
377.845	27.82
378.055	113.83
378.266	15.53
378.476	83.11
378.686	17.58
378.897	40.11
379.107	91.31
379.317	130.22
379.528	9.39
379.738	105.64
379.948	115.88
380.158	140.46
380.369	79.02
380.579	-41.81
380.789	27.82
380.999	124.07
381.21	74.92
381.42	101.55
381.63	13.48
381.84	68.78
382.05	72.87
382.261	109.74
382.471	74.92
382.681	25.77
382.891	142.5
383.101	122.02
383.311	58.54
383.521	68.78
383.731	119.98
383.941	105.64
384.151	-4.95
384.361	19.63
384.571	60.59
384.781	95.4
384.991	144.55
385.201	130.22
385.411	76.97
385.621	66.73
385.831	60.59
386.041	113.83
386.251	115.88
386.461	119.98
386.671	95.4
386.881	97.45
387.091	85.16
387.301	93.35
387.511	13.48
387.72	91.31
387.93	93.35
388.14	27.82
388.35	11.43
388.56	124.07
388.769	79.02
388.979	50.35
389.189	81.07
389.399	56.49
389.609	89.26
389.818	152.74
390.028	97.45
390.238	68.78
390.447	-0.85
390.657	83.11
390.867	111.78
391.076	79.02
391.286	52.39
391.496	31.91
391.705	105.64
391.915	162.98
392.125	89.26
392.334	117.93
392.544	138.41
392.753	105.64
392.963	101.55
393.172	27.82
393.382	-47.96
393.591	119.98
393.801	83.11
394.01	197.8
394.22	62.63
394.429	72.87
394.639	48.3
394.848	160.94
395.058	76.97
395.267	89.26
395.477	66.73
395.686	31.91
395.895	160.94
396.105	187.56
396.314	62.63
396.524	56.49
396.733	72.87
396.942	97.45
397.152	148.65
397.361	156.84
397.57	87.21
397.78	83.11
397.989	115.88
398.198	154.79
398.407	72.87
398.617	97.45
398.826	81.07
399.035	60.59
399.244	68.78
399.453	83.11
399.663	91.31
399.872	171.18
400.081	60.59
400.29	167.08
400.499	83.11
400.708	111.78
400.917	76.97
401.127	160.94
401.336	107.69
401.545	140.46
401.754	246.95
401.963	224.42
402.172	138.41
402.381	138.41
402.59	115.88
402.799	154.79
403.008	152.74
403.217	197.8
403.426	203.94
403.635	134.31
403.844	179.37
404.053	85.16
404.262	171.18
404.471	193.7
404.68	197.8
404.888	179.37
405.097	236.71
405.306	167.08
405.515	156.84
405.724	222.38
405.933	201.9
406.142	232.62
406.35	279.72
406.559	189.61
406.768	214.18
406.977	238.76
407.185	222.38
407.394	216.23
407.603	191.66
407.812	214.18
408.02	347.3
408.229	273.57
408.438	238.76
408.646	167.08
408.855	310.44
409.064	289.96
409.272	257.19
409.481	335.01
409.69	267.43
409.898	306.34
410.107	382.12
410.315	404.64
410.524	332.97
410.733	470.18
410.941	306.34
411.15	468.13
411.358	443.56
411.567	504.99
411.775	433.32
411.984	468.13
412.192	541.86
412.401	562.34
412.609	648.35
412.818	638.11
413.026	611.49
413.234	578.72
413.443	623.78
413.651	568.48
413.86	715.94
414.068	736.42
414.276	742.56
414.485	715.94
414.693	777.37
414.901	863.39
415.11	896.16
415.318	814.24
415.526	949.4
415.734	894.11
415.943	857.25
416.151	1021.08
416.359	943.26
416.567	926.88
416.776	1139.87
416.984	1193.11
417.192	1272.98
417.4	1232.02
417.608	1195.16
417.817	1240.22
418.025	1260.7
418.233	1334.42
418.441	1287.32
418.649	1424.53
418.857	1528.98
419.065	1635.47
419.273	1524.88
419.481	1604.75
419.689	1739.92
419.897	1741.97
420.105	1868.94
420.313	1784.98
420.521	1979.53
420.729	2045.07
420.937	1969.29
421.145	2104.46
421.353	2219.14
421.561	2243.72
421.769	2321.54
421.977	2323.59
422.185	2497.67
422.393	2550.92
422.601	2772.1
422.809	2671.75
423.017	2684.03
423.224	2890.88
423.432	3054.72
423.64	2950.27
423.848	3300.47
424.056	3271.8
424.263	3472.5
424.471	3529.84
424.679	3531.89
424.887	3556.47
425.094	3716.21
425.302	3708.02
425.51	3816.56
425.718	4160.62
425.925	4002.93
426.133	4351.08
426.341	4482.15
426.548	4734.05
426.756	4766.82
426.964	4895.84
427.171	5125.21
427.379	5137.5
427.586	5219.42
427.794	5389.4
428.001	5588.05
428.209	5909.58
428.417	5807.19
428.624	6378.57
428.832	6206.54
429.039	6257.74
429.247	6272.07
429.454	6818.88
429.662	7308.35
429.869	6747.2
430.076	7398.46
430.284	6890.56
430.491	7461.94
430.699	7928.88
430.906	7881.78
431.114	8006.7
431.321	8201.26
431.528	8457.26
431.736	8901.67
431.943	9356.32
432.15	9038.88
432.358	9116.7
432.565	9495.58
432.772	9524.25
432.979	10124.3
433.187	10288.14
433.394	10322.96
433.601	10984.45
433.808	11181.06
434.016	11023.36
434.223	11465.72
434.43	12164.08
434.637	11903.99
434.844	12684.27
435.052	12884.97
435.259	12903.4
435.466	12932.07
435.673	12852.2
435.88	13741.02
436.087	14482.38
436.294	14470.09
436.501	13990.87
436.708	14347.22
436.915	14658.51
437.122	15385.54
437.329	15530.94
437.537	15973.3
437.743	16321.46
437.95	16243.63
438.157	16972.71
438.364	17415.07
438.571	17494.94
438.778	17699.74
438.985	19004.3
439.192	18385.81
439.399	19104.65
439.606	18494.35
439.813	19934.07
440.02	20794.22
440.227	20501.36
440.433	20530.03
440.64	20951.91
440.847	20638.58
441.054	21453.67
441.261	23065.42
441.467	22348.63
441.674	23149.39
441.881	24013.63
442.088	23780.16
442.294	23329.61
442.501	24050.49
442.708	24585.01
442.914	25746.21
443.121	26888.98
443.328	26180.38
443.534	27607.81
443.741	27093.77
443.948	26731.28
444.154	28683
444.361	28617.46
444.568	28383.99
444.774	28812.02
444.981	28732.15
445.187	29700.84
445.394	31019.73
445.6	30733.01
445.807	33573.55
446.013	32627.38
446.22	33061.55
446.426	33782.44
446.633	34620.06
446.839	36219.52
447.046	34380.45
447.252	36139.65
447.459	36262.53
447.665	36002.44
447.871	37669.48
448.078	39111.25
448.284	37024.37
448.491	38494.82
448.697	39782.99
448.903	40741.44
449.11	40720.96
449.316	40047.18
449.522	41060.92
449.728	42089
449.935	42304.04
450.141	41951.79
450.347	43379.22
450.553	42254.89
450.76	41998.89
450.966	43678.22
451.172	43416.08
451.378	44679.68
451.584	44010
451.791	44519.94
451.997	44476.93
452.203	45423.09
452.409	45408.76
452.615	44933.63
452.821	43403.8
453.027	43348.5
453.233	45494.77
453.44	43543.06
453.646	44292.61
453.852	44440.07
454.058	44917.25
454.264	43500.05
454.47	44562.95
454.676	43244.05
454.882	45251.06
455.088	41177.65
455.294	41800.24
455.5	42564.13
455.705	42994.2
455.911	41226.81
456.117	40583.74
456.323	40137.29
456.529	37993.06
456.735	39686.73
456.941	38507.1
457.147	38191.72
457.352	37057.14
457.558	36590.2
457.764	36221.57
457.97	35861.13
458.176	34914.97
458.381	34955.93
458.587	33231.54
458.793	33551.02
458.999	31746.76
459.204	33925.8
459.41	33069.75
459.616	31191.76
459.821	30855.89
460.027	30837.46
460.233	30055.14
460.438	28494.58
460.644	29070.06
460.85	27769.6
461.055	27194.12
461.261	27239.18
461.466	25217.83
461.672	24142.65
461.878	26075.93
462.083	24427.32
462.289	23839.55
462.494	23835.45
462.7	22479.7
462.905	21838.69
463.111	22926.16
463.316	22856.53
463.522	22365.01
463.727	22213.46
463.932	22520.66
464.138	21881.69
464.343	22154.07
464.549	21633.89
464.754	22385.49
464.959	21826.4
465.165	21834.59
465.37	20732.78
465.575	20444.02
465.781	21283.69
465.986	21341.03
466.191	20495.22
