Data from USB4F104151__65__13-05-52-561.txt Node

Date: Fri Mar 14 13:05:52 EDT 2025
User: louis
Spectrometer: USB4F10415
Trigger mode: 4
Integration Time (sec): 4.000000E-2
Scans to average: 1
Electric dark correction enabled: true
Nonlinearity correction enabled: false
Boxcar width: 0
XAxis mode: Wavelengths
Number of Pixels in Spectrum: 3648
>>>>>Begin Spectral Data<<<<<
178.204	-186.02
178.424	-186.02
178.644	-186.02
178.864	-257.7
179.084	-181.93
179.304	-13.99
179.524	20.82
179.744	0.34
179.964	41.3
180.184	8.53
180.404	20.82
180.624	22.87
180.844	33.11
181.064	-44.71
181.283	-26.28
181.503	-24.23
181.723	-38.57
181.943	-50.86
182.163	104.79
182.383	-11.95
182.602	63.83
182.822	14.68
183.042	49.49
183.262	35.16
183.482	84.31
183.701	18.77
183.921	33.11
184.141	6.49
184.361	65.88
184.58	74.07
184.8	-22.19
185.02	-5.8
185.239	110.93
185.459	41.3
185.679	67.92
185.898	-69.29
186.118	80.21
186.338	-24.23
186.557	31.06
186.777	47.44
186.997	2.39
187.216	-34.47
187.436	82.26
187.655	57.68
187.875	47.44
188.095	31.06
188.314	78.16
188.534	94.55
188.753	2.39
188.973	104.79
189.192	117.08
189.412	35.16
189.631	-30.38
189.851	45.4
190.07	112.98
190.29	6.49
190.509	-30.38
190.729	45.4
190.948	90.45
191.168	155.99
191.387	127.32
191.607	41.3
191.826	61.78
192.045	61.78
192.265	-1.71
192.484	106.84
192.704	-3.75
192.923	35.16
193.142	147.8
193.362	57.68
193.581	39.25
193.8	82.26
194.02	76.12
194.239	2.39
194.458	69.97
194.678	-7.85
194.897	84.31
195.116	57.68
195.335	-44.71
195.555	39.25
195.774	53.59
195.993	49.49
196.212	16.73
196.432	41.3
196.651	-32.43
196.87	49.49
197.089	176.47
197.308	69.97
197.528	82.26
197.747	-3.75
197.966	76.12
198.185	110.93
198.404	-30.38
198.623	33.11
198.842	35.16
199.062	110.93
199.281	104.79
199.5	65.88
199.719	-20.14
199.938	41.3
200.157	129.36
200.376	104.79
200.595	96.6
200.814	63.83
201.033	59.73
201.252	80.21
201.471	35.16
201.69	106.84
201.909	12.63
202.128	74.07
202.347	4.44
202.566	37.2
202.785	-30.38
203.004	51.54
203.223	176.47
203.442	24.92
203.661	43.35
203.879	-7.85
204.098	43.35
204.317	33.11
204.536	4.44
204.755	-54.95
204.974	92.5
205.193	51.54
205.411	119.12
205.63	104.79
205.849	0.34
206.068	6.49
206.287	-7.85
206.505	59.73
206.724	29.01
206.943	63.83
207.162	12.63
207.381	4.44
207.599	37.2
207.818	78.16
208.037	0.34
208.255	51.54
208.474	-36.52
208.693	86.36
208.911	-20.14
209.13	33.11
209.349	51.54
209.567	67.92
209.786	76.12
210.005	53.59
210.223	0.34
210.442	-61.1
210.661	41.3
210.879	45.4
211.098	61.78
211.316	-32.43
211.535	121.17
211.753	31.06
211.972	-5.8
212.191	-24.23
212.409	22.87
212.628	74.07
212.846	20.82
213.065	-9.9
213.283	98.64
213.502	-9.9
213.72	51.54
213.938	59.73
214.157	51.54
214.375	57.68
214.594	-7.85
214.812	45.4
215.031	18.77
215.249	-30.38
215.467	90.45
215.686	41.3
215.904	65.88
216.122	18.77
216.341	119.12
216.559	49.49
216.778	45.4
216.996	74.07
217.214	-34.47
217.432	0.34
217.651	33.11
217.869	-3.75
218.087	35.16
218.306	43.35
218.524	57.68
218.742	49.49
218.96	117.08
219.179	-1.71
219.397	108.88
219.615	121.17
219.833	49.49
220.051	35.16
220.27	45.4
220.488	20.82
220.706	41.3
220.924	-30.38
221.142	14.68
221.36	39.25
221.578	18.77
221.796	61.78
222.015	43.35
222.233	61.78
222.451	86.36
222.669	-11.95
222.887	82.26
223.105	10.58
223.323	-18.09
223.541	-44.71
223.759	22.87
223.977	31.06
224.195	67.92
224.413	143.7
224.631	31.06
224.849	51.54
225.067	194.9
225.285	-22.19
225.503	12.63
225.721	-24.23
225.939	47.44
226.157	10.58
226.375	149.84
226.592	-38.57
226.81	-3.75
227.028	2.39
227.246	49.49
227.464	100.69
227.682	96.6
227.9	72.02
228.117	39.25
228.335	63.83
228.553	80.21
228.771	72.02
228.989	61.78
229.206	69.97
229.424	-26.28
229.642	-59.05
229.86	69.97
230.077	61.78
230.295	10.58
230.513	49.49
230.731	98.64
230.948	63.83
231.166	123.22
231.384	-7.85
231.601	-79.53
231.819	147.8
232.037	110.93
232.254	4.44
232.472	59.73
232.689	-48.81
232.907	57.68
233.125	10.58
233.342	-28.33
233.56	57.68
233.777	-71.34
233.995	-7.85
234.213	74.07
234.43	49.49
234.648	33.11
234.865	-40.62
235.083	145.75
235.3	98.64
235.518	63.83
235.735	69.97
235.953	82.26
236.17	51.54
236.388	35.16
236.605	-9.9
236.822	76.12
237.04	119.12
237.257	51.54
237.475	-40.62
237.692	18.77
237.909	33.11
238.127	41.3
238.344	-3.75
238.562	74.07
238.779	-9.9
238.996	-36.52
239.214	35.16
239.431	110.93
239.648	8.53
239.865	0.34
240.083	69.97
240.3	125.27
240.517	14.68
240.735	31.06
240.952	108.88
241.169	76.12
241.386	100.69
241.603	12.63
241.821	-67.24
242.038	61.78
242.255	76.12
242.472	49.49
242.689	67.92
242.907	51.54
243.124	8.53
243.341	43.35
243.558	18.77
243.775	10.58
243.992	10.58
244.209	35.16
244.426	108.88
244.643	37.2
244.86	26.96
245.078	-16.04
245.295	72.02
245.512	45.4
245.729	98.64
245.946	37.2
246.163	24.92
246.38	61.78
246.597	39.25
246.814	16.73
247.031	43.35
247.248	26.96
247.464	6.49
247.681	2.39
247.898	41.3
248.115	37.2
248.332	-7.85
248.549	4.44
248.766	119.12
248.983	51.54
249.2	26.96
249.417	106.84
249.633	57.68
249.85	41.3
250.067	57.68
250.284	57.68
250.501	108.88
250.717	74.07
250.934	-54.95
251.151	-34.47
251.368	67.92
251.585	94.55
251.801	104.79
252.018	35.16
252.235	90.45
252.451	-18.09
252.668	90.45
252.885	18.77
253.102	90.45
253.318	12.63
253.535	18.77
253.752	-20.14
253.968	2.39
254.185	-65.19
254.401	59.73
254.618	106.84
254.835	88.4
255.051	123.22
255.268	18.77
255.484	12.63
255.701	-36.52
255.917	31.06
256.134	20.82
256.351	10.58
256.567	-24.23
256.784	-1.71
257	-24.23
257.217	4.44
257.433	45.4
257.65	49.49
257.866	59.73
258.082	-13.99
258.299	8.53
258.515	94.55
258.732	104.79
258.948	-20.14
259.165	45.4
259.381	67.92
259.597	47.44
259.814	14.68
260.03	76.12
260.246	-7.85
260.463	26.96
260.679	39.25
260.895	10.58
261.112	74.07
261.328	65.88
261.544	10.58
261.761	82.26
261.977	53.59
262.193	33.11
262.409	76.12
262.626	92.5
262.842	16.73
263.058	-26.28
263.274	57.68
263.49	-11.95
263.707	69.97
263.923	-13.99
264.139	-7.85
264.355	53.59
264.571	102.74
264.787	26.96
265.004	100.69
265.22	35.16
265.436	51.54
265.652	0.34
265.868	49.49
266.084	18.77
266.3	80.21
266.516	-7.85
266.732	24.92
266.948	45.4
267.164	2.39
267.38	35.16
267.596	43.35
267.812	88.4
268.028	33.11
268.244	-7.85
268.46	67.92
268.676	74.07
268.892	78.16
269.108	67.92
269.324	115.03
269.54	-28.33
269.756	47.44
269.972	12.63
270.188	39.25
270.403	53.59
270.619	26.96
270.835	63.83
271.051	37.2
271.267	22.87
271.483	51.54
271.698	102.74
271.914	12.63
272.13	8.53
272.346	18.77
272.562	90.45
272.777	90.45
272.993	-20.14
273.209	41.3
273.425	127.32
273.64	57.68
273.856	18.77
274.072	-1.71
274.287	-28.33
274.503	84.31
274.719	24.92
274.934	24.92
275.15	-57
275.366	26.96
275.581	2.39
275.797	-11.95
276.012	63.83
276.228	33.11
276.444	35.16
276.659	65.88
276.875	-7.85
277.09	33.11
277.306	16.73
277.521	57.68
277.737	8.53
277.952	51.54
278.168	49.49
278.383	53.59
278.599	33.11
278.814	-1.71
279.03	102.74
279.245	155.99
279.461	35.16
279.676	43.35
279.892	80.21
280.107	33.11
280.322	76.12
280.538	18.77
280.753	-3.75
280.969	29.01
281.184	-24.23
281.399	80.21
281.615	108.88
281.83	14.68
282.045	55.64
282.26	-7.85
282.476	108.88
282.691	112.98
282.906	16.73
283.122	90.45
283.337	-42.67
283.552	90.45
283.767	51.54
283.983	90.45
284.198	12.63
284.413	74.07
284.628	-13.99
284.843	102.74
285.058	43.35
285.274	51.54
285.489	-5.8
285.704	57.68
285.919	31.06
286.134	74.07
286.349	84.31
286.564	12.63
286.779	78.16
286.995	-30.38
287.21	-26.28
287.425	112.98
287.64	-3.75
287.855	43.35
288.07	53.59
288.285	82.26
288.5	16.73
288.715	67.92
288.93	65.88
289.145	-7.85
289.36	41.3
289.575	84.31
289.79	49.49
290.004	82.26
290.219	53.59
290.434	20.82
290.649	18.77
290.864	76.12
291.079	49.49
291.294	4.44
291.509	76.12
291.724	78.16
291.938	-18.09
292.153	45.4
292.368	61.78
292.583	0.34
292.798	100.69
293.012	98.64
293.227	35.16
293.442	63.83
293.657	51.54
293.871	108.88
294.086	80.21
294.301	92.5
294.516	65.88
294.73	88.4
294.945	-36.52
295.16	0.34
295.374	53.59
295.589	143.7
295.804	-30.38
296.018	96.6
296.233	49.49
296.447	-24.23
296.662	22.87
296.877	74.07
297.091	80.21
297.306	74.07
297.52	29.01
297.735	0.34
297.949	69.97
298.164	63.83
298.378	86.36
298.593	67.92
298.807	8.53
299.022	29.01
299.236	69.97
299.451	84.31
299.665	18.77
299.88	35.16
300.094	67.92
300.309	39.25
300.523	-11.95
300.737	-13.99
300.952	76.12
301.166	57.68
301.381	24.92
301.595	4.44
301.809	88.4
302.024	4.44
302.238	6.49
302.452	133.46
302.667	67.92
302.881	84.31
303.095	117.08
303.309	90.45
303.524	29.01
303.738	-1.71
303.952	53.59
304.166	102.74
304.381	-93.87
304.595	106.84
304.809	-50.86
305.023	49.49
305.237	49.49
305.452	-11.95
305.666	14.68
305.88	51.54
306.094	51.54
306.308	82.26
306.522	6.49
306.736	59.73
306.95	61.78
307.164	10.58
307.379	72.02
307.593	98.64
307.807	-3.75
308.021	14.68
308.235	-32.43
308.449	33.11
308.663	41.3
308.877	123.22
309.091	47.44
309.305	51.54
309.519	-52.91
309.733	43.35
309.947	-36.52
310.161	-18.09
310.374	-11.95
310.588	45.4
310.802	55.64
311.016	49.49
311.23	67.92
311.444	12.63
311.658	57.68
311.872	153.94
312.085	45.4
312.299	43.35
312.513	16.73
312.727	24.92
312.941	51.54
313.154	53.59
313.368	-9.9
313.582	92.5
313.796	72.02
314.009	78.16
314.223	98.64
314.437	41.3
314.651	100.69
314.864	-44.71
315.078	57.68
315.292	37.2
315.505	31.06
315.719	53.59
315.933	10.58
316.146	57.68
316.36	16.73
316.573	90.45
316.787	117.08
317.001	29.01
317.214	-30.38
317.428	41.3
317.641	49.49
317.855	80.21
318.068	51.54
318.282	41.3
318.495	123.22
318.709	41.3
318.922	41.3
319.136	96.6
319.349	102.74
319.563	86.36
319.776	39.25
319.99	-40.62
320.203	96.6
320.417	57.68
320.63	131.41
320.843	123.22
321.057	76.12
321.27	59.73
321.483	57.68
321.697	41.3
321.91	43.35
322.124	33.11
322.337	55.64
322.55	26.96
322.763	41.3
322.977	45.4
323.19	45.4
323.403	-50.86
323.617	12.63
323.83	139.6
324.043	41.3
324.256	55.64
324.469	16.73
324.683	127.32
324.896	16.73
325.109	35.16
325.322	51.54
325.535	-3.75
325.748	69.97
325.962	14.68
326.175	82.26
326.388	49.49
326.601	16.73
326.814	49.49
327.027	76.12
327.24	78.16
327.453	8.53
327.666	53.59
327.879	74.07
328.092	57.68
328.305	31.06
328.518	-5.8
328.731	135.51
328.944	-9.9
329.157	57.68
329.37	69.97
329.583	149.84
329.796	123.22
330.009	69.97
330.222	90.45
330.435	53.59
330.648	65.88
330.861	41.3
331.073	-16.04
331.286	24.92
331.499	35.16
331.712	74.07
331.925	45.4
332.138	51.54
332.35	143.7
332.563	41.3
332.776	145.75
332.989	24.92
333.202	49.49
333.414	55.64
333.627	12.63
333.84	47.44
334.053	108.88
334.265	-13.99
334.478	129.36
334.691	-1.71
334.903	61.78
335.116	-50.86
335.329	69.97
335.541	129.36
335.754	141.65
335.966	-9.9
336.179	57.68
336.392	45.4
336.604	45.4
336.817	100.69
337.029	20.82
337.242	90.45
337.454	33.11
337.667	14.68
337.88	90.45
338.092	61.78
338.305	76.12
338.517	10.58
338.729	131.41
338.942	102.74
339.154	26.96
339.367	18.77
339.579	59.73
339.792	-40.62
340.004	80.21
340.217	-24.23
340.429	84.31
340.641	8.53
340.854	-30.38
341.066	57.68
341.278	98.64
341.491	76.12
341.703	82.26
341.915	37.2
342.128	112.98
342.34	8.53
342.552	55.64
342.764	-9.9
342.977	35.16
343.189	55.64
343.401	72.02
343.613	-9.9
343.826	18.77
344.038	-9.9
344.25	76.12
344.462	4.44
344.674	92.5
344.886	0.34
345.099	74.07
345.311	24.92
345.523	-63.15
345.735	43.35
345.947	65.88
346.159	8.53
346.371	41.3
346.583	145.75
346.795	82.26
347.007	39.25
347.219	96.6
347.431	2.39
347.643	108.88
347.855	-57
348.067	158.03
348.279	-7.85
348.491	24.92
348.703	82.26
348.915	94.55
349.127	-59.05
349.339	51.54
349.551	37.2
349.763	84.31
349.975	86.36
350.187	74.07
350.399	80.21
350.61	41.3
350.822	24.92
351.034	69.97
351.246	69.97
351.458	65.88
351.669	84.31
351.881	127.32
352.093	65.88
352.305	108.88
352.517	57.68
352.728	65.88
352.94	22.87
353.152	94.55
353.363	53.59
353.575	143.7
353.787	94.55
353.999	108.88
354.21	29.01
354.422	39.25
354.633	14.68
354.845	59.73
355.057	57.68
355.268	61.78
355.48	8.53
355.692	92.5
355.903	49.49
356.115	12.63
356.326	-20.14
356.538	43.35
356.749	86.36
356.961	110.93
357.172	72.02
357.384	72.02
357.595	110.93
357.807	-46.76
358.018	16.73
358.23	90.45
358.441	149.84
358.653	104.79
358.864	-32.43
359.075	76.12
359.287	119.12
359.498	57.68
359.709	90.45
359.921	84.31
360.132	94.55
360.344	67.92
360.555	-40.62
360.766	123.22
360.977	72.02
361.189	67.92
361.4	37.2
361.611	35.16
361.823	69.97
362.034	119.12
362.245	8.53
362.456	0.34
362.667	80.21
362.879	51.54
363.09	61.78
363.301	69.97
363.512	123.22
363.723	33.11
363.935	35.16
364.146	57.68
364.357	8.53
364.568	108.88
364.779	-73.39
364.99	102.74
365.201	-13.99
365.412	102.74
365.623	-5.8
365.834	10.58
366.045	26.96
366.256	49.49
366.467	121.17
366.678	92.5
366.889	94.55
367.1	35.16
367.311	18.77
367.522	94.55
367.733	106.84
367.944	115.03
368.155	57.68
368.366	67.92
368.577	16.73
368.788	110.93
368.999	67.92
369.209	84.31
369.42	160.08
369.631	184.66
369.842	41.3
370.053	57.68
370.264	149.84
370.474	-40.62
370.685	94.55
370.896	78.16
371.107	108.88
371.317	98.64
371.528	57.68
371.739	121.17
371.95	94.55
372.16	59.73
372.371	12.63
372.582	39.25
372.792	135.51
373.003	88.4
373.214	55.64
373.424	74.07
373.635	10.58
373.846	76.12
374.056	45.4
374.267	135.51
374.477	76.12
374.688	10.58
374.898	24.92
375.109	26.96
375.319	102.74
375.53	115.03
375.74	80.21
375.951	129.36
376.161	59.73
376.372	112.98
376.582	24.92
376.793	12.63
377.003	-7.85
377.214	-38.57
377.424	100.69
377.635	80.21
377.845	57.68
378.055	80.21
378.266	63.83
378.476	8.53
378.686	65.88
378.897	115.03
379.107	92.5
379.317	76.12
379.528	65.88
379.738	94.55
379.948	90.45
380.158	74.07
380.369	119.12
380.579	110.93
380.789	41.3
380.999	143.7
381.21	65.88
381.42	92.5
381.63	76.12
381.84	43.35
382.05	98.64
382.261	76.12
382.471	166.23
382.681	53.59
382.891	121.17
383.101	98.64
383.311	8.53
383.521	49.49
383.731	139.6
383.941	125.27
384.151	94.55
384.361	88.4
384.571	117.08
384.781	92.5
384.991	100.69
385.201	203.09
385.411	37.2
385.621	151.89
385.831	29.01
386.041	47.44
386.251	67.92
386.461	139.6
386.671	67.92
386.881	67.92
387.091	63.83
387.301	67.92
387.511	80.21
387.72	35.16
387.93	115.03
388.14	14.68
388.35	26.96
388.56	74.07
388.769	151.89
388.979	72.02
389.189	-3.75
389.399	74.07
389.609	100.69
389.818	94.55
390.028	108.88
390.238	125.27
390.447	4.44
390.657	10.58
390.867	51.54
391.076	-22.19
391.286	10.58
391.496	115.03
391.705	131.41
391.915	127.32
392.125	164.18
392.334	45.4
392.544	112.98
392.753	127.32
392.963	53.59
393.172	106.84
393.382	6.49
393.591	141.65
393.801	110.93
394.01	213.33
394.22	84.31
394.429	102.74
394.639	78.16
394.848	102.74
395.058	96.6
395.267	90.45
395.477	158.03
395.686	143.7
395.895	260.43
396.105	223.57
396.314	65.88
396.524	139.6
396.733	190.8
396.942	119.12
397.152	139.6
397.361	151.89
397.57	115.03
397.78	80.21
397.989	98.64
398.198	158.03
398.407	127.32
398.617	145.75
398.826	149.84
399.035	110.93
399.244	108.88
399.453	106.84
399.663	57.68
399.872	98.64
400.081	86.36
400.29	205.14
400.499	174.42
400.708	180.56
400.917	139.6
401.127	123.22
401.336	160.08
401.545	272.72
401.754	94.55
401.963	219.47
402.172	196.95
402.381	141.65
402.59	125.27
402.799	121.17
403.008	139.6
403.217	207.19
403.426	125.27
403.635	84.31
403.844	190.8
404.053	178.51
404.262	184.66
404.471	278.87
404.68	264.53
404.888	196.95
405.097	141.65
405.306	174.42
405.515	248.15
405.724	235.86
405.933	219.47
406.142	250.19
406.35	270.67
406.559	248.15
406.768	190.8
406.977	315.73
407.185	242
407.394	250.19
407.603	141.65
407.812	264.53
408.02	287.06
408.229	192.85
408.438	305.49
408.646	289.1
408.855	305.49
409.064	344.4
409.272	317.78
409.481	340.3
409.69	368.98
409.898	287.06
410.107	375.12
410.315	373.07
410.524	395.6
410.733	424.27
410.941	379.22
411.15	434.51
411.358	467.28
411.567	541.01
411.775	506.19
411.984	428.37
412.192	563.53
412.401	610.64
412.609	592.2
412.818	579.92
413.026	577.87
413.234	571.72
413.443	534.86
413.651	610.64
413.86	678.22
414.068	815.43
414.276	700.75
414.485	737.61
414.693	837.96
414.901	860.49
415.11	811.34
415.318	809.29
415.526	897.35
415.734	952.65
415.943	934.22
416.151	1020.23
416.359	1018.18
416.567	1032.52
416.776	1032.52
416.984	1108.29
417.192	1182.02
417.4	1239.36
417.608	1143.11
417.817	1216.83
418.025	1343.81
418.233	1417.54
418.441	1306.95
418.649	1296.71
418.857	1507.65
419.065	1634.62
419.273	1550.65
419.481	1605.95
419.689	1808.7
419.897	1792.31
420.105	1900.86
420.313	1882.42
420.521	1939.77
420.729	2085.17
420.937	1982.78
421.145	2163
421.353	2189.62
421.561	2287.92
421.769	2310.45
421.977	2408.75
422.185	2375.99
422.393	2412.85
422.601	2720.04
422.809	2691.37
423.017	2707.76
423.224	2808.11
423.432	2861.35
423.64	3008.81
423.848	3215.65
424.056	3170.6
424.263	3447.07
424.471	3389.73
424.679	3465.5
424.887	3703.07
425.094	3866.91
425.302	3721.5
425.51	3942.68
425.718	4083.99
425.925	4131.09
426.133	4243.73
426.341	4598.03
426.548	4649.23
426.756	4579.6
426.964	4745.48
427.171	5140.74
427.379	5325.06
427.586	5187.85
427.794	5366.02
428.001	5673.21
428.209	5955.83
428.417	5804.28
428.624	6269.17
428.832	5998.84
429.039	6320.37
429.247	6164.73
429.454	6748.4
429.662	7221.48
429.869	6791.41
430.076	7319.78
430.284	7178.47
430.491	7504.1
430.699	7882.97
430.906	7854.3
431.114	7987.42
431.321	8157.4
431.528	8364.25
431.736	8839.37
431.943	9285.83
432.15	9033.93
432.358	9148.62
432.565	9652.42
432.772	9631.94
432.979	10254.52
433.187	10240.19
433.394	10231.99
433.601	11276.46
433.808	11028.65
434.016	11067.56
434.223	11700.39
434.43	12234.91
434.637	12017.82
434.844	12638.36
435.052	12877.97
435.259	12933.26
435.466	13082.77
435.673	12820.63
435.88	13619.33
436.087	14473.34
436.294	14403.71
436.501	13955.2
436.708	14471.29
436.915	14970.99
437.122	15718.5
437.329	15368.3
437.537	16164.96
437.743	16146.53
437.95	16054.37
438.157	16820.31
438.364	17395.79
438.571	17500.23
438.778	17694.79
438.985	19345.45
439.192	18378.81
439.399	19046.45
439.606	18489.4
439.813	19441.71
440.02	20863
440.227	20625.43
440.433	20475.93
440.64	20805.66
440.847	20699.16
441.054	21358.61
441.261	22566.91
441.467	22468.61
441.674	22915.06
441.881	23971.82
442.088	23699.44
442.294	23502.83
442.501	23992.3
442.708	24684.51
442.914	25634.77
443.121	26560.45
443.328	25868.23
443.534	27494.32
443.741	26691.52
443.948	26607.55
444.154	28497.83
444.361	28360.61
444.568	28506.02
444.774	28788.64
444.981	28534.69
445.187	30048.14
445.394	31143.8
445.6	30728.06
445.807	33648.47
446.013	32112.49
446.22	32720.74
446.426	34273.1
446.633	34238.28
446.839	35411.77
447.046	34271.05
447.252	36040.5
447.459	35997.49
447.665	35927.86
447.871	37498.65
448.078	39192.32
448.284	37367.58
448.491	38268.69
448.697	39792.37
448.903	40595.18
449.11	40777.45
449.316	39991.03
449.522	40308.46
449.728	42075.86
449.935	42264.27
450.141	42149.59
450.347	43175.62
450.553	42004.18
450.76	42557.13
450.966	43859.64
451.172	43165.38
451.378	44283.57
451.584	43194.05
451.791	44572.33
451.997	44943.02
452.203	45317.79
452.409	45514.4
452.615	44850.86
452.821	43591.36
453.027	43224.77
453.233	45295.27
453.44	43777.72
453.646	44254.9
453.852	44721.83
454.058	44998.31
454.264	43566.78
454.47	44377.78
454.676	43443.9
454.882	44793.51
455.088	41045.73
455.294	41672.41
455.5	42047.19
455.705	42909.38
455.911	41189.09
456.117	40183.54
456.323	39698.17
456.529	38145.81
456.735	39319.29
456.941	38397.71
457.147	38033.17
457.352	36808.48
457.558	36341.55
457.764	36253.48
457.97	35921.71
458.176	35112.77
458.381	35073.85
458.587	33367.9
458.793	33230.68
458.999	31434.61
459.204	33863.5
459.41	33138.52
459.616	30814.08
459.821	31004.54
460.027	30863.23
460.233	30121.87
460.438	28829.6
460.644	28888.99
460.85	27375.54
461.055	26967.99
461.261	27115.45
461.466	24993.75
461.672	24440.8
461.878	26419.14
462.083	24301.54
462.289	23908.33
462.494	23863.27
462.7	22458.37
462.905	21817.35
463.111	22771.71
463.316	22579.2
463.522	22657.02
463.727	22597.63
463.932	22228.99
464.138	22151.17
464.343	22167.56
464.549	21536.78
464.754	22181.89
464.959	22106.12
465.165	21846.02
465.37	21069.84
465.575	20314.14
465.781	21413.9
465.986	21348.37
466.191	20662.3
466.397	20095.01
466.602	19089.46
