Data from USB4F104151__89__13-06-20-957.txt Node

Date: Fri Mar 14 13:06:20 EDT 2025
User: louis
Spectrometer: USB4F10415
Trigger mode: 4
Integration Time (sec): 4.000000E-2
Scans to average: 1
Electric dark correction enabled: true
Nonlinearity correction enabled: false
Boxcar width: 0
XAxis mode: Wavelengths
Number of Pixels in Spectrum: 3648
>>>>>Begin Spectral Data<<<<<
178.204	-185.17
178.424	-185.17
178.644	-185.17
178.864	-179.03
179.084	-172.88
179.304	-47.96
179.524	19.63
179.744	-29.52
179.964	31.91
180.184	-0.85
180.404	62.63
180.624	-43.86
180.844	23.72
181.064	-35.67
181.283	101.55
181.503	-74.58
181.723	-7
181.943	27.82
182.163	36.01
182.383	5.29
182.602	19.63
182.822	25.77
183.042	5.29
183.262	19.63
183.482	-0.85
183.701	3.24
183.921	40.11
184.141	48.3
184.361	70.83
184.58	126.12
184.8	23.72
185.02	-0.85
185.239	33.96
185.459	44.2
185.679	76.97
185.898	-74.58
186.118	74.92
186.338	52.39
186.557	111.78
186.777	27.82
186.997	5.29
187.216	-2.9
187.436	117.93
187.655	60.59
187.875	9.39
188.095	48.3
188.314	126.12
188.534	136.36
188.753	-9.05
188.973	27.82
189.192	97.45
189.412	85.16
189.631	50.35
189.851	60.59
190.07	85.16
190.29	21.67
190.509	42.15
190.729	-29.52
190.948	103.59
191.168	238.76
191.387	19.63
191.607	25.77
191.826	13.48
192.045	56.49
192.265	68.78
192.484	54.44
192.704	101.55
192.923	-70.48
193.142	173.22
193.362	124.07
193.581	66.73
193.8	36.01
194.02	111.78
194.239	54.44
194.458	81.07
194.678	27.82
194.897	-7
195.116	7.34
195.335	46.25
195.555	27.82
195.774	23.72
195.993	119.98
196.212	44.2
196.432	23.72
196.651	50.35
196.87	13.48
197.089	134.31
197.308	138.41
197.528	46.25
197.747	-45.91
197.966	29.87
198.185	85.16
198.404	23.72
198.623	56.49
198.842	1.19
199.062	134.31
199.281	160.94
199.5	83.11
199.719	60.59
199.938	119.98
200.157	93.35
200.376	130.22
200.595	44.2
200.814	44.2
201.033	11.43
201.252	101.55
201.471	27.82
201.69	27.82
201.909	105.64
202.128	15.53
202.347	70.83
202.566	38.06
202.785	44.2
203.004	81.07
203.223	144.55
203.442	72.87
203.661	-62.29
203.879	70.83
204.098	126.12
204.317	7.34
204.536	111.78
204.755	128.17
204.974	68.78
205.193	68.78
205.411	160.94
205.63	79.02
205.849	105.64
206.068	109.74
206.287	-17.24
206.505	62.63
206.724	-17.24
206.943	25.77
207.162	115.88
207.381	52.39
207.599	76.97
207.818	29.87
208.037	-78.68
208.255	56.49
208.474	1.19
208.693	42.15
208.911	19.63
209.13	64.68
209.349	72.87
209.567	91.31
209.786	21.67
210.005	72.87
210.223	76.97
210.442	-72.53
210.661	7.34
210.879	-2.9
211.098	9.39
211.316	46.25
211.535	113.83
211.753	23.72
211.972	62.63
212.191	19.63
212.409	103.59
212.628	93.35
212.846	42.15
213.065	60.59
213.283	66.73
213.502	-11.09
213.72	5.29
213.938	111.78
214.157	-9.05
214.375	48.3
214.594	21.67
214.812	62.63
215.031	44.2
215.249	-45.91
215.467	15.53
215.686	31.91
215.904	113.83
216.122	130.22
216.341	81.07
216.559	-27.48
216.778	52.39
216.996	105.64
217.214	52.39
217.432	29.87
217.651	62.63
217.869	17.58
218.087	70.83
218.306	38.06
218.524	54.44
218.742	15.53
218.96	11.43
219.179	38.06
219.397	52.39
219.615	81.07
219.833	36.01
220.051	17.58
220.27	107.69
220.488	66.73
220.706	3.24
220.924	29.87
221.142	48.3
221.36	54.44
221.578	52.39
221.796	-4.95
222.015	-13.14
222.233	48.3
222.451	70.83
222.669	23.72
222.887	36.01
223.105	27.82
223.323	105.64
223.541	5.29
223.759	44.2
223.977	111.78
224.195	60.59
224.413	46.25
224.631	60.59
224.849	83.11
225.067	162.98
225.285	29.87
225.503	46.25
225.721	-0.85
225.939	11.43
226.157	5.29
226.375	150.7
226.592	-19.29
226.81	85.16
227.028	74.92
227.246	52.39
227.464	97.45
227.682	132.26
227.9	36.01
228.117	60.59
228.335	124.07
228.553	15.53
228.771	27.82
228.989	142.5
229.206	74.92
229.424	-4.95
229.642	33.96
229.86	5.29
230.077	119.98
230.295	38.06
230.513	93.35
230.731	60.59
230.948	154.79
231.166	101.55
231.384	-0.85
231.601	-29.52
231.819	105.64
232.037	29.87
232.254	23.72
232.472	36.01
232.689	36.01
232.907	1.19
233.125	-2.9
233.342	-13.14
233.56	56.49
233.777	46.25
233.995	-15.19
234.213	60.59
234.43	5.29
234.648	25.77
234.865	76.97
235.083	81.07
235.3	58.54
235.518	93.35
235.735	136.36
235.953	48.3
236.17	52.39
236.388	1.19
236.605	64.68
236.822	95.4
237.04	21.67
237.257	60.59
237.475	-70.48
237.692	101.55
237.909	111.78
238.127	42.15
238.344	76.97
238.562	29.87
238.779	56.49
238.996	21.67
239.214	29.87
239.431	79.02
239.648	93.35
239.865	81.07
240.083	97.45
240.3	111.78
240.517	-86.87
240.735	76.97
240.952	93.35
241.169	111.78
241.386	9.39
241.603	48.3
241.821	-19.29
242.038	62.63
242.255	46.25
242.472	40.11
242.689	66.73
242.907	93.35
243.124	83.11
243.341	19.63
243.558	-4.95
243.775	19.63
243.992	-2.9
244.209	132.26
244.426	124.07
244.643	13.48
244.86	93.35
245.078	85.16
245.295	56.49
245.512	25.77
245.729	-0.85
245.946	93.35
246.163	87.21
246.38	9.39
246.597	27.82
246.814	68.78
247.031	5.29
247.248	48.3
247.464	15.53
247.681	44.2
247.898	81.07
248.115	109.74
248.332	-13.14
248.549	27.82
248.766	89.26
248.983	21.67
249.2	111.78
249.417	85.16
249.633	52.39
249.85	52.39
250.067	60.59
250.284	52.39
250.501	15.53
250.717	40.11
250.934	68.78
251.151	3.24
251.368	103.59
251.585	81.07
251.801	74.92
252.018	54.44
252.235	68.78
252.451	-60.24
252.668	33.96
252.885	68.78
253.102	60.59
253.318	44.2
253.535	66.73
253.752	74.92
253.968	11.43
254.185	36.01
254.401	52.39
254.618	93.35
254.835	9.39
255.051	64.68
255.268	101.55
255.484	58.54
255.701	79.02
255.917	117.93
256.134	9.39
256.351	-9.05
256.567	-9.05
256.784	46.25
257	-45.91
257.217	40.11
257.433	95.4
257.65	99.5
257.866	87.21
258.082	-4.95
258.299	5.29
258.515	105.64
258.732	50.35
258.948	36.01
259.165	101.55
259.381	-4.95
259.597	27.82
259.814	58.54
260.03	-27.48
260.246	68.78
260.463	115.88
260.679	68.78
260.895	-9.05
261.112	70.83
261.328	13.48
261.544	38.06
261.761	54.44
261.977	52.39
262.193	-43.86
262.409	38.06
262.626	9.39
262.842	46.25
263.058	-43.86
263.274	107.69
263.49	36.01
263.707	29.87
263.923	60.59
264.139	-35.67
264.355	-2.9
264.571	152.74
264.787	79.02
265.004	113.83
265.22	72.87
265.436	-15.19
265.652	-33.62
265.868	33.96
266.084	48.3
266.3	79.02
266.516	31.91
266.732	21.67
266.948	-13.14
267.164	76.97
267.38	68.78
267.596	99.5
267.812	68.78
268.028	64.68
268.244	52.39
268.46	7.34
268.676	64.68
268.892	23.72
269.108	-4.95
269.324	31.91
269.54	66.73
269.756	62.63
269.972	-4.95
270.188	-66.39
270.403	-2.9
270.619	42.15
270.835	70.83
271.051	62.63
271.267	-2.9
271.483	40.11
271.698	128.17
271.914	-13.14
272.13	97.45
272.346	-13.14
272.562	56.49
272.777	54.44
272.993	27.82
273.209	-7
273.425	21.67
273.64	58.54
273.856	103.59
274.072	-4.95
274.287	36.01
274.503	27.82
274.719	40.11
274.934	33.96
275.15	-74.58
275.366	128.17
275.581	-9.05
275.797	103.59
276.012	50.35
276.228	52.39
276.444	89.26
276.659	72.87
276.875	-15.19
277.09	93.35
277.306	56.49
277.521	167.08
277.737	124.07
277.952	111.78
278.168	44.2
278.383	105.64
278.599	19.63
278.814	25.77
279.03	60.59
279.245	70.83
279.461	21.67
279.676	81.07
279.892	11.43
280.107	11.43
280.322	31.91
280.538	36.01
280.753	3.24
280.969	93.35
281.184	31.91
281.399	148.65
281.615	48.3
281.83	62.63
282.045	-17.24
282.26	17.58
282.476	60.59
282.691	-62.29
282.906	105.64
283.122	97.45
283.337	9.39
283.552	83.11
283.767	44.2
283.983	99.5
284.198	66.73
284.413	52.39
284.628	23.72
284.843	11.43
285.058	5.29
285.274	66.73
285.489	21.67
285.704	87.21
285.919	-4.95
286.134	-13.14
286.349	-9.05
286.564	40.11
286.779	105.64
286.995	42.15
287.21	-27.48
287.425	25.77
287.64	50.35
287.855	72.87
288.07	-7
288.285	144.55
288.5	68.78
288.715	76.97
288.93	89.26
289.145	21.67
289.36	50.35
289.575	115.88
289.79	40.11
290.004	81.07
290.219	85.16
290.434	42.15
290.649	-23.38
290.864	-23.38
291.079	29.87
291.294	103.59
291.509	7.34
291.724	56.49
291.938	50.35
292.153	60.59
292.368	93.35
292.583	44.2
292.798	109.74
293.012	-13.14
293.227	74.92
293.442	134.31
293.657	187.56
293.871	140.46
294.086	113.83
294.301	52.39
294.516	138.41
294.73	-19.29
294.945	23.72
295.16	5.29
295.374	72.87
295.589	54.44
295.804	13.48
296.018	3.24
296.233	115.88
296.447	44.2
296.662	-11.09
296.877	85.16
297.091	93.35
297.306	-17.24
297.52	50.35
297.735	36.01
297.949	15.53
298.164	3.24
298.378	99.5
298.593	29.87
298.807	33.96
299.022	54.44
299.236	105.64
299.451	-2.9
299.665	58.54
299.88	19.63
300.094	5.29
300.309	1.19
300.523	23.72
300.737	56.49
300.952	68.78
301.166	38.06
301.381	52.39
301.595	29.87
301.809	-0.85
302.024	33.96
302.238	79.02
302.452	109.74
302.667	29.87
302.881	85.16
303.095	31.91
303.309	93.35
303.524	54.44
303.738	52.39
303.952	42.15
304.166	97.45
304.381	-21.33
304.595	119.98
304.809	-13.14
305.023	76.97
305.237	23.72
305.452	36.01
305.666	-4.95
305.88	60.59
306.094	70.83
306.308	-21.33
306.522	66.73
306.736	128.17
306.95	3.24
307.164	36.01
307.379	21.67
307.593	-9.05
307.807	66.73
308.021	31.91
308.235	76.97
308.449	5.29
308.663	44.2
308.877	62.63
309.091	50.35
309.305	103.59
309.519	-13.14
309.733	189.61
309.947	27.82
310.161	99.5
310.374	81.07
310.588	132.26
310.802	56.49
311.016	56.49
311.23	15.53
311.444	-4.95
311.658	58.54
311.872	70.83
312.085	115.88
312.299	48.3
312.513	113.83
312.727	70.83
312.941	36.01
313.154	158.89
313.368	-21.33
313.582	85.16
313.796	85.16
314.009	3.24
314.223	115.88
314.437	76.97
314.651	74.92
314.864	85.16
315.078	-4.95
315.292	23.72
315.505	113.83
315.719	97.45
315.933	113.83
316.146	128.17
316.36	-7
316.573	101.55
316.787	72.87
317.001	56.49
317.214	-4.95
317.428	58.54
317.641	70.83
317.855	64.68
318.068	33.96
318.282	76.97
318.495	97.45
318.709	79.02
318.922	15.53
319.136	119.98
319.349	48.3
319.563	42.15
319.776	56.49
319.99	27.82
320.203	83.11
320.417	3.24
320.63	74.92
320.843	134.31
321.057	79.02
321.27	93.35
321.483	105.64
321.697	107.69
321.91	-21.33
322.124	134.31
322.337	52.39
322.55	31.91
322.763	54.44
322.977	44.2
323.19	3.24
323.403	52.39
323.617	48.3
323.83	113.83
324.043	50.35
324.256	99.5
324.469	-15.19
324.683	42.15
324.896	87.21
325.109	17.58
325.322	-37.72
325.535	68.78
325.748	99.5
325.962	64.68
326.175	36.01
326.388	103.59
326.601	79.02
326.814	138.41
327.027	72.87
327.24	126.12
327.453	-27.48
327.666	128.17
327.879	48.3
328.092	76.97
328.305	122.02
328.518	50.35
328.731	17.58
328.944	36.01
329.157	58.54
329.37	103.59
329.583	93.35
329.796	103.59
330.009	-37.72
330.222	95.4
330.435	29.87
330.648	85.16
330.861	31.91
331.073	119.98
331.286	99.5
331.499	60.59
331.712	19.63
331.925	76.97
332.138	111.78
332.35	115.88
332.563	31.91
332.776	72.87
332.989	40.11
333.202	40.11
333.414	44.2
333.627	44.2
333.84	9.39
334.053	117.93
334.265	60.59
334.478	52.39
334.691	21.67
334.903	126.12
335.116	11.43
335.329	-4.95
335.541	68.78
335.754	113.83
335.966	60.59
336.179	91.31
336.392	33.96
336.604	36.01
336.817	23.72
337.029	64.68
337.242	46.25
337.454	-0.85
337.667	23.72
337.88	95.4
338.092	17.58
338.305	89.26
338.517	99.5
338.729	105.64
338.942	40.11
339.154	46.25
339.367	25.77
339.579	64.68
339.792	87.21
340.004	60.59
340.217	27.82
340.429	7.34
340.641	42.15
340.854	3.24
341.066	3.24
341.278	97.45
341.491	93.35
341.703	25.77
341.915	27.82
342.128	101.55
342.34	99.5
342.552	-47.96
342.764	-7
342.977	97.45
343.189	50.35
343.401	70.83
343.613	23.72
343.826	21.67
344.038	15.53
344.25	29.87
344.462	54.44
344.674	48.3
344.886	-19.29
345.099	101.55
345.311	54.44
345.523	56.49
345.735	29.87
345.947	79.02
346.159	99.5
346.371	87.21
346.583	95.4
346.795	81.07
347.007	40.11
347.219	-0.85
347.431	66.73
347.643	169.13
347.855	9.39
348.067	76.97
348.279	-37.72
348.491	29.87
348.703	5.29
348.915	46.25
349.127	19.63
349.339	87.21
349.551	1.19
349.763	101.55
349.975	44.2
350.187	134.31
350.399	115.88
350.61	60.59
350.822	1.19
351.034	54.44
351.246	17.58
351.458	-37.72
351.669	76.97
351.881	220.33
352.093	42.15
352.305	119.98
352.517	79.02
352.728	52.39
352.94	74.92
353.152	85.16
353.363	48.3
353.575	103.59
353.787	203.94
353.999	19.63
354.21	138.41
354.422	60.59
354.633	89.26
354.845	27.82
355.057	126.12
355.268	109.74
355.48	19.63
355.692	15.53
355.903	93.35
356.115	25.77
356.326	9.39
356.538	117.93
356.749	70.83
356.961	124.07
357.172	109.74
357.384	40.11
357.595	91.31
357.807	19.63
358.018	54.44
358.23	21.67
358.441	97.45
358.653	54.44
358.864	74.92
359.075	38.06
359.287	66.73
359.498	54.44
359.709	74.92
359.921	101.55
360.132	85.16
360.344	60.59
360.555	36.01
360.766	76.97
360.977	95.4
361.189	85.16
361.4	79.02
361.611	60.59
361.823	146.6
362.034	56.49
362.245	-31.57
362.456	27.82
362.667	-21.33
362.879	46.25
363.09	58.54
363.301	109.74
363.512	29.87
363.723	70.83
363.935	42.15
364.146	79.02
364.357	56.49
364.568	74.92
364.779	44.2
364.99	93.35
365.201	7.34
365.412	38.06
365.623	11.43
365.834	33.96
366.045	93.35
366.256	40.11
366.467	109.74
366.678	48.3
366.889	50.35
367.1	33.96
367.311	103.59
367.522	42.15
367.733	68.78
367.944	111.78
368.155	5.29
368.366	58.54
368.577	64.68
368.788	162.98
368.999	5.29
369.209	126.12
369.42	208.04
369.631	87.21
369.842	89.26
370.053	62.63
370.264	36.01
370.474	85.16
370.685	33.96
370.896	60.59
371.107	99.5
371.317	99.5
371.528	54.44
371.739	74.92
371.95	89.26
372.16	87.21
372.371	-11.09
372.582	42.15
372.792	101.55
373.003	124.07
373.214	38.06
373.424	91.31
373.635	23.72
373.846	74.92
374.056	99.5
374.267	99.5
374.477	165.03
374.688	3.24
374.898	62.63
375.109	60.59
375.319	25.77
375.53	109.74
375.74	76.97
375.951	99.5
376.161	42.15
376.372	117.93
376.582	3.24
376.793	46.25
377.003	44.2
377.214	93.35
377.424	54.44
377.635	5.29
377.845	33.96
378.055	113.83
378.266	19.63
378.476	109.74
378.686	70.83
378.897	50.35
379.107	72.87
379.317	64.68
379.528	85.16
379.738	91.31
379.948	5.29
380.158	175.27
380.369	165.03
380.579	70.83
380.789	40.11
380.999	117.93
381.21	85.16
381.42	76.97
381.63	46.25
381.84	50.35
382.05	74.92
382.261	103.59
382.471	101.55
382.681	19.63
382.891	187.56
383.101	68.78
383.311	21.67
383.521	46.25
383.731	111.78
383.941	105.64
384.151	117.93
384.361	85.16
384.571	48.3
384.781	42.15
384.991	70.83
385.201	113.83
385.411	150.7
385.621	117.93
385.831	70.83
386.041	72.87
386.251	-23.38
386.461	62.63
386.671	87.21
386.881	79.02
387.091	76.97
387.301	126.12
387.511	91.31
387.72	79.02
387.93	72.87
388.14	25.77
388.35	107.69
388.56	46.25
388.769	124.07
388.979	105.64
389.189	-13.14
389.399	109.74
389.609	173.22
389.818	93.35
390.028	60.59
390.238	142.5
390.447	23.72
390.657	173.22
390.867	66.73
391.076	29.87
391.286	140.46
391.496	62.63
391.705	74.92
391.915	103.59
392.125	62.63
392.334	52.39
392.544	60.59
392.753	107.69
392.963	126.12
393.172	93.35
393.382	33.96
393.591	144.55
393.801	111.78
394.01	216.23
394.22	89.26
394.429	42.15
394.639	140.46
394.848	130.22
395.058	81.07
395.267	60.59
395.477	56.49
395.686	179.37
395.895	136.36
396.105	183.46
396.314	74.92
396.524	144.55
396.733	42.15
396.942	85.16
397.152	72.87
397.361	101.55
397.57	115.88
397.78	62.63
397.989	62.63
398.198	177.32
398.407	54.44
398.617	111.78
398.826	97.45
399.035	97.45
399.244	122.02
399.453	126.12
399.663	101.55
399.872	150.7
400.081	81.07
400.29	126.12
400.499	42.15
400.708	152.74
400.917	111.78
401.127	89.26
401.336	138.41
401.545	232.62
401.754	95.4
401.963	175.27
402.172	101.55
402.381	62.63
402.59	109.74
402.799	87.21
403.008	154.79
403.217	142.5
403.426	140.46
403.635	160.94
403.844	128.17
404.053	111.78
404.262	156.84
404.471	249
404.68	154.79
404.888	171.18
405.097	70.83
405.306	193.7
405.515	160.94
405.724	154.79
405.933	146.6
406.142	238.76
406.35	214.18
406.559	179.37
406.768	203.94
406.977	298.15
407.185	255.14
407.394	244.9
407.603	201.9
407.812	165.03
408.02	259.24
408.229	203.94
408.438	185.51
408.646	289.96
408.855	289.96
409.064	353.45
409.272	283.81
409.481	326.82
409.69	316.58
409.898	220.33
410.107	353.45
410.315	289.96
410.524	308.39
410.733	386.21
410.941	294.05
411.15	527.52
411.358	347.3
411.567	488.61
411.775	398.5
411.984	404.64
412.192	445.6
412.401	445.6
412.609	502.95
412.818	511.14
413.026	457.89
413.234	486.56
413.443	515.23
413.651	531.62
413.86	564.39
414.068	603.3
414.276	724.13
414.485	625.83
414.693	681.12
414.901	613.54
415.11	781.47
415.318	713.89
415.526	634.02
415.734	746.66
415.943	804
416.151	830.62
416.359	875.68
416.567	926.88
416.776	867.49
416.984	959.64
417.192	1057.95
417.4	920.73
417.608	918.68
417.817	1027.23
418.025	1148.06
418.233	1150.11
418.441	1027.23
418.649	1168.54
418.857	1291.41
419.065	1408.15
419.273	1338.52
419.481	1291.41
419.689	1404.05
419.897	1465.49
420.105	1563.79
420.313	1498.26
420.521	1510.55
420.729	1684.62
420.937	1623.19
421.145	1682.58
421.353	1791.12
421.561	1852.56
421.769	1942.67
421.977	2002.06
422.185	2032.78
422.393	2118.79
422.601	2315.4
422.809	2149.51
423.017	2303.11
423.224	2292.87
423.432	2550.92
423.64	2462.85
423.848	2788.48
424.056	2587.78
424.263	2708.61
424.471	2802.82
424.679	2989.18
424.887	3060.86
425.094	3124.35
425.302	3073.15
425.51	3165.31
425.718	3275.9
425.925	3251.32
426.133	3505.27
426.341	3755.12
426.548	3888.24
426.756	3763.31
426.964	3765.36
427.171	4068.46
427.379	4232.3
427.586	4392.04
427.794	4461.67
428.001	4611.17
428.209	4949.09
428.417	4734.05
428.624	5090.4
428.832	5256.28
429.039	5082.21
429.247	5086.3
429.454	5612.63
429.662	5938.26
429.869	5600.34
430.076	6026.32
430.284	5827.67
430.491	6059.09
430.699	6237.26
430.906	6417.48
431.114	6499.4
431.321	6530.12
431.528	6935.62
431.736	7029.82
431.943	7568.44
432.15	7390.27
432.358	7267.39
432.565	7883.83
432.772	7611.45
432.979	8358.96
433.187	8512.55
433.394	8389.67
433.601	8956.96
433.808	9073.7
434.016	9065.5
434.223	9305.12
434.43	9772.05
434.637	9698.33
434.844	10245.13
435.052	10669.06
435.259	10335.24
435.466	10437.64
435.673	10361.87
435.88	10941.44
436.087	11721.72
436.294	11736.06
436.501	11387.9
436.708	11711.48
436.915	12096.5
437.122	12538.86
437.329	12502
437.537	12856.29
437.743	13136.87
437.95	13173.73
438.157	13855.7
438.364	14015.44
438.571	14224.34
438.778	14586.83
438.985	15780.79
439.192	14924.74
439.399	15381.44
439.606	15338.43
439.813	15887.29
440.02	17056.68
440.227	16774.06
440.433	16395.18
440.64	17099.69
440.847	16731.05
441.054	17363.87
441.261	18535.31
441.467	18330.51
441.674	18574.22
441.881	19237.77
442.088	19237.77
442.294	19327.88
442.501	19618.69
442.708	20001.66
442.914	20890.48
443.121	21570.4
443.328	21160.81
443.534	22512.47
443.741	21830.49
443.948	21334.89
444.154	23239.5
444.361	23294.79
444.568	23640.9
444.774	23509.83
444.981	23575.36
445.187	24339.26
445.394	25439.01
445.6	24871.73
445.807	27308.81
446.013	26299.16
446.22	26893.07
446.426	27953.92
446.633	27835.14
446.839	28934.9
447.046	27972.35
447.252	29401.83
447.459	29551.34
447.665	29686.5
447.871	30544.6
448.078	31648.46
448.284	30567.13
448.491	31451.85
448.697	32750.26
448.903	33340.08
449.11	33180.34
449.316	32750.26
449.522	33245.87
449.728	34357.92
449.935	34603.67
450.141	34499.23
450.347	35429.01
450.553	34288.29
450.76	34749.08
450.966	35969.67
451.172	35687.05
451.378	36442.75
451.584	36145.8
451.791	36563.58
451.997	36440.7
452.203	37235.31
452.409	36952.69
452.615	37270.13
452.821	35611.28
453.027	35162.77
453.233	37372.53
453.44	35797.64
453.646	36283.01
453.852	36665.98
454.058	37192.31
454.264	35719.82
454.47	36559.48
454.676	35930.76
454.882	37466.73
455.088	33594.03
455.294	34173.6
455.5	34663.07
455.705	35566.22
455.911	34079.39
456.117	33221.3
456.323	32760.5
456.529	31214.29
456.735	32613.05
456.941	31638.22
457.147	30931.67
457.352	30085.86
457.558	29842.15
457.764	29985.51
457.97	29450.99
458.176	29020.91
458.381	28924.66
458.587	27771.65
458.793	27683.59
458.999	25813.79
459.204	27812.61
459.41	27075.34
459.616	25430.82
459.821	25353
460.027	25428.77
460.233	24603.44
460.438	23853.89
460.644	24007.48
460.85	22604.63
461.055	22365.01
461.261	22426.45
461.466	20636.53
461.672	20054.9
461.878	21435.24
462.083	19991.42
462.289	19747.71
462.494	19598.21
462.7	18531.22
462.905	18045.85
463.111	18803.6
463.316	18606.99
463.522	18109.33
463.727	18568.08
463.932	18303.89
464.138	18000.79
464.343	17902.49
464.549	17521.57
464.754	18215.83
464.959	17994.65
465.165	17994.65
465.37	17150.88
465.575	16518.06
465.781	17494.94
465.986	17466.27
466.191	16956.33
466.397	16595.89
466.602	15772.6
466.807	16503.73
