Data from USB4F104151__100__13-06-32-916.txt Node

Date: Fri Mar 14 13:06:32 EDT 2025
User: louis
Spectrometer: USB4F10415
Trigger mode: 4
Integration Time (sec): 4.000000E-2
Scans to average: 1
Electric dark correction enabled: true
Nonlinearity correction enabled: false
Boxcar width: 0
XAxis mode: Wavelengths
Number of Pixels in Spectrum: 3648
>>>>>Begin Spectral Data<<<<<
178.204	-126.46
178.424	-126.46
178.644	-126.46
178.864	-216.57
179.084	-237.05
179.304	-67.07
179.524	25.09
179.744	-28.16
179.964	4.61
180.184	12.8
180.404	6.66
180.624	47.62
180.844	20.99
181.064	-19.97
181.283	20.99
181.503	-15.87
181.723	-7.68
181.943	-69.12
182.163	96.77
182.383	43.52
182.602	23.04
182.822	72.19
183.042	-30.21
183.262	-3.58
183.482	-38.4
183.701	-22.02
183.921	64
184.141	-7.68
184.361	41.47
184.58	-40.45
184.8	-15.87
185.02	10.75
185.239	37.38
185.459	64
185.679	8.7
185.898	-60.93
186.118	94.72
186.338	-17.92
186.557	53.76
186.777	-24.06
186.997	31.23
187.216	37.38
187.436	86.53
187.655	49.66
187.875	-15.87
188.095	-24.06
188.314	59.9
188.534	88.57
188.753	-22.02
188.973	-3.58
189.192	66.05
189.412	55.81
189.631	109.05
189.851	18.94
190.07	90.62
190.29	-3.58
190.509	-30.21
190.729	47.62
190.948	-28.16
191.168	190.97
191.387	109.05
191.607	-48.64
191.826	70.14
192.045	8.7
192.265	18.94
192.484	25.09
192.704	-30.21
192.923	-54.78
193.142	98.81
193.362	84.48
193.581	59.9
193.8	92.67
194.02	31.23
194.239	20.99
194.458	4.61
194.678	41.47
194.897	-11.78
195.116	14.85
195.335	-9.73
195.555	49.66
195.774	78.33
195.993	139.77
196.212	-11.78
196.432	-7.68
196.651	29.18
196.87	4.61
197.089	86.53
197.308	20.99
197.528	55.81
197.747	-108.03
197.966	6.66
198.185	68.09
198.404	14.85
198.623	-1.54
198.842	-3.58
199.062	111.1
199.281	-11.78
199.5	-38.4
199.719	23.04
199.938	35.33
200.157	45.57
200.376	59.9
200.595	41.47
200.814	-42.5
201.033	-3.58
201.252	121.34
201.471	96.77
201.69	102.91
201.909	-15.87
202.128	43.52
202.347	8.7
202.566	84.48
202.785	-28.16
203.004	-28.16
203.223	111.1
203.442	0.51
203.661	33.28
203.879	10.75
204.098	-5.63
204.317	37.38
204.536	104.96
204.755	12.8
204.974	84.48
205.193	4.61
205.411	129.53
205.63	29.18
205.849	72.19
206.068	-17.92
206.287	-58.88
206.505	68.09
206.724	12.8
206.943	-15.87
207.162	39.42
207.381	51.71
207.599	2.56
207.818	-11.78
208.037	-15.87
208.255	53.76
208.474	55.81
208.693	66.05
208.911	51.71
209.13	-3.58
209.349	45.57
209.567	86.53
209.786	86.53
210.005	86.53
210.223	-52.74
210.442	-36.35
210.661	31.23
210.879	-48.64
211.098	12.8
211.316	80.38
211.535	47.62
211.753	47.62
211.972	35.33
212.191	-11.78
212.409	78.33
212.628	84.48
212.846	-36.35
213.065	109.05
213.283	94.72
213.502	-38.4
213.72	12.8
213.938	66.05
214.157	12.8
214.375	39.42
214.594	45.57
214.812	-28.16
215.031	59.9
215.249	-7.68
215.467	70.14
215.686	4.61
215.904	82.43
216.122	41.47
216.341	86.53
216.559	-1.54
216.778	78.33
216.996	27.14
217.214	31.23
217.432	-7.68
217.651	-67.07
217.869	-7.68
218.087	64
218.306	55.81
218.524	14.85
218.742	-5.63
218.96	98.81
219.179	59.9
219.397	-24.06
219.615	0.51
219.833	-26.11
220.051	-1.54
220.27	49.66
220.488	100.86
220.706	78.33
220.924	57.86
221.142	31.23
221.36	6.66
221.578	18.94
221.796	18.94
222.015	84.48
222.233	37.38
222.451	80.38
222.669	-3.58
222.887	98.81
223.105	-1.54
223.323	49.66
223.541	-24.06
223.759	80.38
223.977	-7.68
224.195	53.76
224.413	92.67
224.631	96.77
224.849	37.38
225.067	92.67
225.285	-22.02
225.503	39.42
225.721	-97.79
225.939	-24.06
226.157	-60.93
226.375	104.96
226.592	-42.5
226.81	10.75
227.028	47.62
227.246	145.92
227.464	-9.73
227.682	8.7
227.9	10.75
228.117	29.18
228.335	-15.87
228.553	14.85
228.771	-67.07
228.989	31.23
229.206	31.23
229.424	70.14
229.642	-26.11
229.86	-30.21
230.077	59.9
230.295	51.71
230.513	-5.63
230.731	41.47
230.948	82.43
231.166	72.19
231.384	-17.92
231.601	35.33
231.819	61.95
232.037	-69.12
232.254	4.61
232.472	-19.97
232.689	-11.78
232.907	25.09
233.125	-26.11
233.342	-40.45
233.56	31.23
233.777	-52.74
233.995	35.33
234.213	102.91
234.43	33.28
234.648	-11.78
234.865	10.75
235.083	-3.58
235.3	20.99
235.518	25.09
235.735	-11.78
235.953	53.76
236.17	4.61
236.388	57.86
236.605	-50.69
236.822	82.43
237.04	33.28
237.257	6.66
237.475	-89.6
237.692	47.62
237.909	-7.68
238.127	-5.63
238.344	8.7
238.562	27.14
238.779	4.61
238.996	-40.45
239.214	8.7
239.431	31.23
239.648	29.18
239.865	70.14
240.083	57.86
240.3	-34.3
240.517	-26.11
240.735	-26.11
240.952	121.34
241.169	31.23
241.386	-36.35
241.603	78.33
241.821	45.57
242.038	25.09
242.255	35.33
242.472	-24.06
242.689	51.71
242.907	49.66
243.124	37.38
243.341	-3.58
243.558	-1.54
243.775	20.99
243.992	35.33
244.209	29.18
244.426	141.82
244.643	45.57
244.86	4.61
245.078	66.05
245.295	16.9
245.512	-1.54
245.729	-26.11
245.946	25.09
246.163	70.14
246.38	39.42
246.597	-54.78
246.814	10.75
247.031	88.57
247.248	4.61
247.464	25.09
247.681	-36.35
247.898	-15.87
248.115	66.05
248.332	-36.35
248.549	20.99
248.766	135.68
248.983	86.53
249.2	23.04
249.417	78.33
249.633	-54.78
249.85	94.72
250.067	70.14
250.284	45.57
250.501	20.99
250.717	70.14
250.934	-22.02
251.151	10.75
251.368	107.01
251.585	39.42
251.801	-9.73
252.018	23.04
252.235	20.99
252.451	-48.64
252.668	-13.82
252.885	0.51
253.102	90.62
253.318	72.19
253.535	76.29
253.752	-65.02
253.968	27.14
254.185	-32.26
254.401	-15.87
254.618	29.18
254.835	66.05
255.051	41.47
255.268	23.04
255.484	88.57
255.701	39.42
255.917	47.62
256.134	12.8
256.351	51.71
256.567	18.94
256.784	-42.5
257	-52.74
257.217	80.38
257.433	111.1
257.65	-13.82
257.866	109.05
258.082	29.18
258.299	31.23
258.515	33.28
258.732	0.51
258.948	33.28
259.165	-17.92
259.381	-3.58
259.597	31.23
259.814	49.66
260.03	-1.54
260.246	-19.97
260.463	43.52
260.679	41.47
260.895	51.71
261.112	47.62
261.328	-30.21
261.544	-42.5
261.761	143.87
261.977	14.85
262.193	37.38
262.409	111.1
262.626	55.81
262.842	51.71
263.058	2.56
263.274	41.47
263.49	66.05
263.707	14.85
263.923	84.48
264.139	25.09
264.355	70.14
264.571	53.76
264.787	27.14
265.004	66.05
265.22	55.81
265.436	-7.68
265.652	-13.82
265.868	23.04
266.084	14.85
266.3	29.18
266.516	-67.07
266.732	55.81
266.948	55.81
267.164	-36.35
267.38	-9.73
267.596	80.38
267.812	47.62
268.028	-9.73
268.244	-34.3
268.46	66.05
268.676	102.91
268.892	20.99
269.108	-1.54
269.324	-22.02
269.54	-69.12
269.756	61.95
269.972	-40.45
270.188	23.04
270.403	-5.63
270.619	-38.4
270.835	41.47
271.051	92.67
271.267	20.99
271.483	20.99
271.698	6.66
271.914	37.38
272.13	37.38
272.346	-19.97
272.562	0.51
272.777	145.92
272.993	25.09
273.209	20.99
273.425	10.75
273.64	-24.06
273.856	152.06
274.072	-28.16
274.287	39.42
274.503	33.28
274.719	78.33
274.934	70.14
275.15	33.28
275.366	-24.06
275.581	8.7
275.797	-46.59
276.012	2.56
276.228	-26.11
276.444	12.8
276.659	98.81
276.875	-17.92
277.09	45.57
277.306	16.9
277.521	-19.97
277.737	12.8
277.952	-1.54
278.168	96.77
278.383	6.66
278.599	-50.69
278.814	98.81
279.03	57.86
279.245	49.66
279.461	31.23
279.676	0.51
279.892	14.85
280.107	-17.92
280.322	53.76
280.538	33.28
280.753	-11.78
280.969	80.38
281.184	90.62
281.399	86.53
281.615	20.99
281.83	78.33
282.045	31.23
282.26	-11.78
282.476	55.81
282.691	39.42
282.906	-38.4
283.122	8.7
283.337	68.09
283.552	33.28
283.767	29.18
283.983	68.09
284.198	-1.54
284.413	88.57
284.628	-22.02
284.843	37.38
285.058	33.28
285.274	4.61
285.489	-19.97
285.704	41.47
285.919	-11.78
286.134	23.04
286.349	20.99
286.564	57.86
286.779	45.57
286.995	88.57
287.21	107.01
287.425	84.48
287.64	12.8
287.855	64
288.07	37.38
288.285	66.05
288.5	29.18
288.715	68.09
288.93	18.94
289.145	43.52
289.36	88.57
289.575	-3.58
289.79	78.33
290.004	4.61
290.219	8.7
290.434	12.8
290.649	12.8
290.864	61.95
291.079	12.8
291.294	14.85
291.509	-11.78
291.724	20.99
291.938	59.9
292.153	-22.02
292.368	66.05
292.583	18.94
292.798	70.14
293.012	20.99
293.227	143.87
293.442	-44.54
293.657	82.43
293.871	59.9
294.086	-60.93
294.301	123.39
294.516	107.01
294.73	55.81
294.945	2.56
295.16	4.61
295.374	88.57
295.589	45.57
295.804	-17.92
296.018	66.05
296.233	29.18
296.447	61.95
296.662	4.61
296.877	74.24
297.091	135.68
297.306	53.76
297.52	-36.35
297.735	49.66
297.949	27.14
298.164	-3.58
298.378	-34.3
298.593	49.66
298.807	-3.58
299.022	-32.26
299.236	80.38
299.451	39.42
299.665	55.81
299.88	43.52
300.094	-19.97
300.309	64
300.523	12.8
300.737	57.86
300.952	39.42
301.166	27.14
301.381	8.7
301.595	10.75
301.809	59.9
302.024	25.09
302.238	53.76
302.452	100.86
302.667	-48.64
302.881	68.09
303.095	113.15
303.309	37.38
303.524	-36.35
303.738	39.42
303.952	10.75
304.166	23.04
304.381	-46.59
304.595	133.63
304.809	12.8
305.023	16.9
305.237	27.14
305.452	39.42
305.666	41.47
305.88	78.33
306.094	43.52
306.308	31.23
306.522	72.19
306.736	41.47
306.95	125.44
307.164	8.7
307.379	43.52
307.593	68.09
307.807	74.24
308.021	61.95
308.235	127.49
308.449	-9.73
308.663	18.94
308.877	127.49
309.091	8.7
309.305	-11.78
309.519	-24.06
309.733	18.94
309.947	12.8
310.161	29.18
310.374	31.23
310.588	64
310.802	-75.26
311.016	31.23
311.23	57.86
311.444	33.28
311.658	49.66
311.872	61.95
312.085	145.92
312.299	96.77
312.513	141.82
312.727	37.38
312.941	-44.54
313.154	94.72
313.368	80.38
313.582	0.51
313.796	14.85
314.009	76.29
314.223	45.57
314.437	119.29
314.651	43.52
314.864	39.42
315.078	20.99
315.292	-28.16
315.505	-7.68
315.719	100.86
315.933	23.04
316.146	76.29
316.36	-24.06
316.573	90.62
316.787	129.53
317.001	64
317.214	-24.06
317.428	23.04
317.641	-17.92
317.855	16.9
318.068	74.24
318.282	55.81
318.495	94.72
318.709	72.19
318.922	78.33
319.136	76.29
319.349	37.38
319.563	31.23
319.776	4.61
319.99	18.94
320.203	49.66
320.417	2.56
320.63	55.81
320.843	78.33
321.057	53.76
321.27	-34.3
321.483	72.19
321.697	33.28
321.91	41.47
322.124	14.85
322.337	-7.68
322.55	20.99
322.763	-5.63
322.977	18.94
323.19	29.18
323.403	82.43
323.617	20.99
323.83	57.86
324.043	-1.54
324.256	49.66
324.469	16.9
324.683	102.91
324.896	-32.26
325.109	4.61
325.322	-3.58
325.535	57.86
325.748	57.86
325.962	41.47
326.175	45.57
326.388	14.85
326.601	41.47
326.814	12.8
327.027	53.76
327.24	82.43
327.453	-19.97
327.666	80.38
327.879	47.62
328.092	37.38
328.305	141.82
328.518	33.28
328.731	10.75
328.944	94.72
329.157	-3.58
329.37	39.42
329.583	127.49
329.796	74.24
330.009	33.28
330.222	68.09
330.435	68.09
330.648	78.33
330.861	53.76
331.073	76.29
331.286	78.33
331.499	49.66
331.712	-34.3
331.925	-5.63
332.138	70.14
332.35	78.33
332.563	39.42
332.776	45.57
332.989	-24.06
333.202	16.9
333.414	55.81
333.627	23.04
333.84	-1.54
334.053	66.05
334.265	20.99
334.478	80.38
334.691	8.7
334.903	-32.26
335.116	8.7
335.329	66.05
335.541	12.8
335.754	166.4
335.966	12.8
336.179	23.04
336.392	0.51
336.604	39.42
336.817	94.72
337.029	49.66
337.242	57.86
337.454	31.23
337.667	25.09
337.88	88.57
338.092	45.57
338.305	29.18
338.517	14.85
338.729	113.15
338.942	72.19
339.154	-77.31
339.367	18.94
339.579	33.28
339.792	-26.11
340.004	51.71
340.217	8.7
340.429	8.7
340.641	2.56
340.854	14.85
341.066	-3.58
341.278	68.09
341.491	139.77
341.703	-1.54
341.915	-5.63
342.128	117.25
342.34	41.47
342.552	-28.16
342.764	23.04
342.977	12.8
343.189	29.18
343.401	123.39
343.613	4.61
343.826	6.66
344.038	20.99
344.25	39.42
344.462	-38.4
344.674	-1.54
344.886	27.14
345.099	51.71
345.311	-3.58
345.523	-11.78
345.735	-36.35
345.947	64
346.159	-22.02
346.371	104.96
346.583	12.8
346.795	164.35
347.007	-42.5
347.219	-28.16
347.431	53.76
347.643	104.96
347.855	25.09
348.067	2.56
348.279	-32.26
348.491	37.38
348.703	72.19
348.915	74.24
349.127	4.61
349.339	53.76
349.551	64
349.763	72.19
349.975	53.76
350.187	51.71
350.399	53.76
350.61	29.18
350.822	92.67
351.034	41.47
351.246	39.42
351.458	70.14
351.669	33.28
351.881	74.24
352.093	88.57
352.305	113.15
352.517	139.77
352.728	47.62
352.94	61.95
353.152	96.77
353.363	-7.68
353.575	47.62
353.787	37.38
353.999	6.66
354.21	135.68
354.422	-112.13
354.633	43.52
354.845	68.09
355.057	98.81
355.268	45.57
355.48	78.33
355.692	12.8
355.903	37.38
356.115	25.09
356.326	20.99
356.538	82.43
356.749	45.57
356.961	100.86
357.172	104.96
357.384	41.47
357.595	143.87
357.807	-9.73
358.018	-60.93
358.23	-1.54
358.441	100.86
358.653	31.23
358.864	74.24
359.075	76.29
359.287	96.77
359.498	45.57
359.709	33.28
359.921	35.33
360.132	-11.78
360.344	82.43
360.555	14.85
360.766	45.57
360.977	49.66
361.189	20.99
361.4	27.14
361.611	96.77
361.823	18.94
362.034	25.09
362.245	-32.26
362.456	-42.5
362.667	76.29
362.879	29.18
363.09	141.82
363.301	131.58
363.512	113.15
363.723	29.18
363.935	29.18
364.146	20.99
364.357	53.76
364.568	61.95
364.779	16.9
364.99	37.38
365.201	154.11
365.412	39.42
365.623	16.9
365.834	45.57
366.045	16.9
366.256	55.81
366.467	74.24
366.678	72.19
366.889	14.85
367.1	55.81
367.311	94.72
367.522	80.38
367.733	74.24
367.944	41.47
368.155	107.01
368.366	82.43
368.577	86.53
368.788	94.72
368.999	92.67
369.209	16.9
369.42	150.01
369.631	107.01
369.842	74.24
370.053	10.75
370.264	115.2
370.474	4.61
370.685	16.9
370.896	-17.92
371.107	70.14
371.317	61.95
371.528	6.66
371.739	117.25
371.95	61.95
372.16	107.01
372.371	20.99
372.582	2.56
372.792	94.72
373.003	49.66
373.214	29.18
373.424	86.53
373.635	-67.07
373.846	121.34
374.056	115.2
374.267	141.82
374.477	109.05
374.688	-40.45
374.898	72.19
375.109	23.04
375.319	55.81
375.53	102.91
375.74	160.25
375.951	59.9
376.161	47.62
376.372	102.91
376.582	51.71
376.793	57.86
377.003	8.7
377.214	6.66
377.424	33.28
377.635	96.77
377.845	41.47
378.055	78.33
378.266	47.62
378.476	53.76
378.686	107.01
378.897	55.81
379.107	115.2
379.317	80.38
379.528	47.62
379.738	104.96
379.948	6.66
380.158	57.86
380.369	59.9
380.579	20.99
380.789	29.18
380.999	137.73
381.21	61.95
381.42	70.14
381.63	129.53
381.84	-1.54
382.05	66.05
382.261	70.14
382.471	70.14
382.681	-11.78
382.891	35.33
383.101	14.85
383.311	14.85
383.521	31.23
383.731	98.81
383.941	66.05
384.151	96.77
384.361	27.14
384.571	80.38
384.781	96.77
384.991	66.05
385.201	70.14
385.411	131.58
385.621	80.38
385.831	90.62
386.041	70.14
386.251	61.95
386.461	59.9
386.671	43.52
386.881	123.39
387.091	53.76
387.301	162.3
387.511	84.48
387.72	121.34
387.93	68.09
388.14	-34.3
388.35	-3.58
388.56	152.06
388.769	96.77
388.979	123.39
389.189	43.52
389.399	70.14
389.609	39.42
389.818	94.72
390.028	80.38
390.238	100.86
390.447	-24.06
390.657	121.34
390.867	47.62
391.076	76.29
391.286	20.99
391.496	94.72
391.705	59.9
391.915	113.15
392.125	70.14
392.334	37.38
392.544	94.72
392.753	64
392.963	33.28
393.172	43.52
393.382	16.9
393.591	152.06
393.801	102.91
394.01	143.87
394.22	139.77
394.429	88.57
394.639	20.99
394.848	141.82
395.058	96.77
395.267	88.57
395.477	74.24
395.686	76.29
395.895	121.34
396.105	168.45
396.314	90.62
396.524	49.66
396.733	80.38
396.942	178.69
397.152	70.14
397.361	137.73
397.57	164.35
397.78	86.53
397.989	115.2
398.198	227.84
398.407	111.1
398.617	139.77
398.826	168.45
399.035	154.11
399.244	113.15
399.453	31.23
399.663	152.06
399.872	168.45
400.081	107.01
400.29	195.07
400.499	131.58
400.708	201.21
400.917	154.11
401.127	37.38
401.336	131.58
401.545	203.26
401.754	111.1
401.963	166.4
402.172	137.73
402.381	127.49
402.59	188.93
402.799	197.12
403.008	156.16
403.217	162.3
403.426	184.83
403.635	74.24
403.844	174.59
404.053	197.12
404.262	162.3
404.471	172.54
404.68	94.72
404.888	236.03
405.097	115.2
405.306	180.73
405.515	201.21
405.724	111.1
405.933	209.4
406.142	174.59
406.35	238.08
406.559	279.04
406.768	248.32
406.977	285.18
407.185	256.51
407.394	205.31
407.603	156.16
407.812	279.04
408.02	354.81
408.229	342.52
408.438	254.46
408.646	180.73
408.855	422.39
409.064	276.99
409.272	227.84
409.481	358.91
409.69	338.43
409.898	348.67
410.107	432.63
410.315	457.21
410.524	430.59
410.733	471.54
410.941	416.25
411.15	475.64
411.358	532.98
411.567	563.7
411.775	532.98
411.984	522.74
412.192	621.05
412.401	506.36
412.609	639.48
412.818	643.57
413.026	651.77
413.234	610.81
413.443	692.73
413.651	745.97
413.86	664.05
414.068	831.99
414.276	784.88
414.485	711.16
414.693	807.41
414.901	981.49
415.11	915.95
415.318	823.8
415.526	981.49
415.734	948.72
415.943	1055.22
416.151	1130.99
416.359	1171.95
416.567	1085.94
416.776	1317.36
416.984	1282.54
417.192	1327.6
417.4	1188.33
417.608	1180.14
417.817	1333.74
418.025	1407.47
418.233	1571.3
418.441	1538.54
418.649	1485.29
418.857	1663.46
419.065	1821.16
419.273	1751.53
419.481	1739.24
419.689	1997.28
419.897	1966.56
420.105	2093.54
420.313	2068.96
420.521	2075.1
420.729	2128.35
420.937	2191.84
421.145	2423.26
421.353	2499.03
421.561	2554.33
421.769	2595.29
421.977	2621.91
422.185	2873.81
422.393	2912.72
422.601	2998.74
422.809	3150.29
423.017	2965.97
423.224	3199.44
423.432	3297.74
423.64	3322.32
423.848	3531.21
424.056	3762.63
424.263	3877.32
424.471	3879.36
424.679	4018.63
424.887	4192.7
425.094	4243.9
425.302	4229.57
425.51	4362.69
425.718	4463.04
425.925	4561.34
426.133	4985.27
426.341	5134.77
426.548	5335.47
426.756	5327.28
426.964	5333.42
427.171	5552.56
427.379	5769.64
427.586	5816.74
427.794	6136.23
428.001	6377.89
428.209	6513.05
428.417	6527.39
428.624	7156.11
428.832	7106.96
429.039	7029.14
429.247	7063.96
429.454	7766.41
429.662	8003.97
429.869	7631.24
430.076	8165.76
430.284	7917.96
430.491	8245.63
430.699	8561.02
430.906	8870.26
431.114	9003.38
431.321	9023.86
431.528	9404.78
431.736	10008.94
431.943	10402.15
432.15	10092.9
432.358	10164.58
432.565	10887.51
432.772	10907.99
432.979	11286.87
433.187	11704.65
433.394	11551.06
433.601	12329.28
433.808	12464.45
434.016	12335.43
434.223	12855.61
434.43	13535.54
434.637	13441.33
434.844	14309.67
435.052	14483.75
435.259	14399.78
435.466	14582.05
435.673	14213.42
435.88	15200.54
436.087	15993.1
436.294	16019.72
436.501	15653.14
436.708	16304.39
436.915	16793.86
437.122	17567.99
437.329	17178.87
437.537	17762.54
437.743	18282.73
437.95	18098.41
438.157	19159.26
438.364	19615.96
438.571	19517.65
438.778	20062.41
438.985	21577.91
439.192	20785.35
439.399	21477.56
439.606	20916.42
439.813	22120.62
440.02	23660.69
440.227	22798.5
440.433	22638.76
440.64	23398.55
440.847	23455.9
441.054	23951.51
441.261	25649.27
441.467	25313.41
441.674	25712.76
441.881	26660.97
442.088	26450.03
442.294	26458.22
442.501	27140.19
442.708	27619.42
442.914	28868.68
443.121	29933.62
443.328	28952.65
443.534	31221.8
443.741	30169.14
443.948	29816.89
444.154	32290.84
444.361	31836.19
444.568	32253.97
444.774	32174.1
444.981	32491.54
445.187	33431.55
445.394	34736.11
445.6	34242.55
445.807	37679.04
446.013	36032.47
446.22	36917.2
446.426	38100.92
446.633	38199.23
446.839	40202.14
447.046	38512.56
447.252	40712.08
447.459	40173.47
447.665	40501.14
447.871	41643.91
448.078	44068.7
448.284	41516.93
448.491	42884.98
448.697	44502.87
448.903	45600.58
449.11	45508.43
449.316	44638.04
449.522	45801.29
449.728	46772.02
449.935	47097.65
450.141	46802.74
450.347	48164.64
450.553	46720.82
450.76	47349.55
450.966	48969.49
451.172	48615.19
451.378	49563.4
451.584	48428.83
451.791	50018.05
451.997	49950.47
452.203	50747.13
452.409	50267.9
452.615	49954.57
452.821	48871.19
453.027	48248.61
453.233	50286.34
453.44	48715.54
453.646	49198.87
453.852	48914.2
454.058	50063.11
454.264	48699.16
454.47	50134.79
454.676	48215.84
454.882	49833.74
455.088	45715.27
455.294	46554.94
455.5	47347.5
455.705	47898.41
455.911	45983.55
456.117	44898.13
456.323	44525.4
456.529	42362.75
456.735	44070.75
456.941	42977.14
457.147	42313.59
457.352	40906.64
457.558	40697.75
457.764	40628.12
457.97	39966.62
458.176	39329.7
458.381	39499.69
458.587	37119.95
458.793	37187.53
458.999	35465.19
459.204	38129.59
459.41	36548.56
459.616	34392.05
459.821	34738.16
460.027	34213.88
460.233	33859.58
460.438	31895.58
460.644	32325.65
460.85	30687.28
461.055	30437.42
461.261	30474.29
461.466	28026.96
461.672	27357.28
461.878	29063.24
462.083	27222.11
462.289	26769.51
462.494	26386.54
462.7	25163.9
462.905	24627.34
463.111	25434.24
463.316	25548.92
463.522	25380.99
463.727	24950.92
463.932	24866.95
464.138	24842.37
464.343	24502.41
464.549	23638.17
464.754	24858.76
464.959	24737.93
465.165	24625.29
465.37	23589.02
465.575	22968.48
465.781	23701.65
465.986	23543.96
466.191	23058.59
466.397	22679.72
