Data from USB4F104151__57__13-05-41-002.txt Node

Date: Fri Mar 14 13:05:41 EDT 2025
User: louis
Spectrometer: USB4F10415
Trigger mode: 4
Integration Time (sec): 4.000000E-2
Scans to average: 1
Electric dark correction enabled: true
Nonlinearity correction enabled: false
Boxcar width: 0
XAxis mode: Wavelengths
Number of Pixels in Spectrum: 3648
>>>>>Begin Spectral Data<<<<<
178.204	-200.19
178.424	-200.19
178.644	-200.19
178.864	-128.51
179.084	-192
179.304	-22.02
179.524	-52.74
179.744	-58.88
179.964	12.8
180.184	-38.4
180.404	-58.88
180.624	102.91
180.844	53.76
181.064	-19.97
181.283	29.18
181.503	47.62
181.723	4.61
181.943	6.66
182.163	111.1
182.383	14.85
182.602	64
182.822	102.91
183.042	84.48
183.262	45.57
183.482	12.8
183.701	14.85
183.921	68.09
184.141	-83.45
184.361	96.77
184.58	-5.63
184.8	37.38
185.02	92.67
185.239	104.96
185.459	41.47
185.679	109.05
185.898	29.18
186.118	104.96
186.338	29.18
186.557	94.72
186.777	0.51
186.997	72.19
187.216	41.47
187.436	117.25
187.655	20.99
187.875	53.76
188.095	35.33
188.314	76.29
188.534	141.82
188.753	23.04
188.973	74.24
189.192	119.29
189.412	10.75
189.631	10.75
189.851	82.43
190.07	51.71
190.29	35.33
190.509	96.77
190.729	59.9
190.948	102.91
191.168	213.5
191.387	41.47
191.607	2.56
191.826	49.66
192.045	84.48
192.265	27.14
192.484	51.71
192.704	82.43
192.923	10.75
193.142	141.82
193.362	64
193.581	59.9
193.8	113.15
194.02	57.86
194.239	51.71
194.458	117.25
194.678	70.14
194.897	43.52
195.116	127.49
195.335	72.19
195.555	164.35
195.774	109.05
195.993	117.25
196.212	43.52
196.432	80.38
196.651	100.86
196.87	70.14
197.089	100.86
197.308	154.11
197.528	2.56
197.747	-17.92
197.966	-9.73
198.185	109.05
198.404	10.75
198.623	94.72
198.842	133.63
199.062	78.33
199.281	84.48
199.5	80.38
199.719	104.96
199.938	55.81
200.157	98.81
200.376	88.57
200.595	78.33
200.814	84.48
201.033	29.18
201.252	66.05
201.471	-11.78
201.69	45.57
201.909	90.62
202.128	55.81
202.347	78.33
202.566	55.81
202.785	37.38
203.004	-7.68
203.223	121.34
203.442	20.99
203.661	39.42
203.879	16.9
204.098	86.53
204.317	12.8
204.536	125.44
204.755	76.29
204.974	-1.54
205.193	123.39
205.411	109.05
205.63	102.91
205.849	35.33
206.068	64
206.287	31.23
206.505	143.87
206.724	-3.58
206.943	51.71
207.162	94.72
207.381	86.53
207.599	109.05
207.818	117.25
208.037	45.57
208.255	74.24
208.474	61.95
208.693	92.67
208.911	10.75
209.13	123.39
209.349	68.09
209.567	33.28
209.786	94.72
210.005	-17.92
210.223	43.52
210.442	20.99
210.661	76.29
210.879	119.29
211.098	25.09
211.316	119.29
211.535	133.63
211.753	31.23
211.972	47.62
212.191	55.81
212.409	100.86
212.628	145.92
212.846	-19.97
213.065	66.05
213.283	150.01
213.502	12.8
213.72	94.72
213.938	53.76
214.157	59.9
214.375	111.1
214.594	16.9
214.812	72.19
215.031	14.85
215.249	68.09
215.467	-24.06
215.686	107.01
215.904	43.52
216.122	61.95
216.341	68.09
216.559	-24.06
216.778	78.33
216.996	100.86
217.214	-11.78
217.432	53.76
217.651	-28.16
217.869	51.71
218.087	-24.06
218.306	59.9
218.524	29.18
218.742	84.48
218.96	141.82
219.179	25.09
219.397	14.85
219.615	164.35
219.833	121.34
220.051	61.95
220.27	84.48
220.488	-19.97
220.706	84.48
220.924	39.42
221.142	86.53
221.36	100.86
221.578	53.76
221.796	-7.68
222.015	31.23
222.233	70.14
222.451	111.1
222.669	78.33
222.887	61.95
223.105	-5.63
223.323	61.95
223.541	-3.58
223.759	88.57
223.977	90.62
224.195	80.38
224.413	115.2
224.631	84.48
224.849	80.38
225.067	61.95
225.285	20.99
225.503	84.48
225.721	35.33
225.939	29.18
226.157	64
226.375	152.06
226.592	14.85
226.81	29.18
227.028	117.25
227.246	197.12
227.464	6.66
227.682	111.1
227.9	45.57
228.117	76.29
228.335	57.86
228.553	39.42
228.771	107.01
228.989	125.44
229.206	-11.78
229.424	51.71
229.642	8.7
229.86	33.28
230.077	86.53
230.295	45.57
230.513	180.73
230.731	115.2
230.948	98.81
231.166	109.05
231.384	68.09
231.601	86.53
231.819	55.81
232.037	31.23
232.254	-24.06
232.472	119.29
232.689	12.8
232.907	84.48
233.125	84.48
233.342	39.42
233.56	68.09
233.777	100.86
233.995	16.9
234.213	109.05
234.43	55.81
234.648	61.95
234.865	49.66
235.083	96.77
235.3	51.71
235.518	39.42
235.735	66.05
235.953	135.68
236.17	14.85
236.388	-30.21
236.605	125.44
236.822	133.63
237.04	23.04
237.257	66.05
237.475	23.04
237.692	123.39
237.909	66.05
238.127	64
238.344	102.91
238.562	43.52
238.779	4.61
238.996	33.28
239.214	98.81
239.431	84.48
239.648	-32.26
239.865	96.77
240.083	39.42
240.3	-44.54
240.517	16.9
240.735	70.14
240.952	133.63
241.169	39.42
241.386	70.14
241.603	47.62
241.821	20.99
242.038	47.62
242.255	64
242.472	-54.78
242.689	72.19
242.907	123.39
243.124	84.48
243.341	72.19
243.558	45.57
243.775	10.75
243.992	-15.87
244.209	174.59
244.426	127.49
244.643	92.67
244.86	31.23
245.078	49.66
245.295	94.72
245.512	76.29
245.729	35.33
245.946	47.62
246.163	41.47
246.38	43.52
246.597	76.29
246.814	51.71
247.031	76.29
247.248	33.28
247.464	113.15
247.681	70.14
247.898	72.19
248.115	111.1
248.332	-30.21
248.549	141.82
248.766	68.09
248.983	43.52
249.2	72.19
249.417	84.48
249.633	94.72
249.85	14.85
250.067	88.57
250.284	39.42
250.501	94.72
250.717	70.14
250.934	45.57
251.151	72.19
251.368	29.18
251.585	139.77
251.801	82.43
252.018	2.56
252.235	90.62
252.451	41.47
252.668	18.94
252.885	139.77
253.102	45.57
253.318	80.38
253.535	35.33
253.752	78.33
253.968	-1.54
254.185	43.52
254.401	45.57
254.618	117.25
254.835	72.19
255.051	129.53
255.268	18.94
255.484	2.56
255.701	31.23
255.917	100.86
256.134	49.66
256.351	35.33
256.567	18.94
256.784	2.56
257	18.94
257.217	104.96
257.433	57.86
257.65	90.62
257.866	76.29
258.082	23.04
258.299	39.42
258.515	72.19
258.732	51.71
258.948	92.67
259.165	43.52
259.381	29.18
259.597	137.73
259.814	27.14
260.03	102.91
260.246	10.75
260.463	92.67
260.679	64
260.895	104.96
261.112	98.81
261.328	64
261.544	23.04
261.761	98.81
261.977	27.14
262.193	-36.35
262.409	70.14
262.626	45.57
262.842	98.81
263.058	51.71
263.274	74.24
263.49	29.18
263.707	90.62
263.923	88.57
264.139	4.61
264.355	53.76
264.571	193.02
264.787	70.14
265.004	18.94
265.22	2.56
265.436	70.14
265.652	80.38
265.868	121.34
266.084	0.51
266.3	68.09
266.516	-13.82
266.732	20.99
266.948	76.29
267.164	102.91
267.38	0.51
267.596	72.19
267.812	164.35
268.028	59.9
268.244	51.71
268.46	-1.54
268.676	-71.17
268.892	80.38
269.108	33.28
269.324	18.94
269.54	4.61
269.756	37.38
269.972	70.14
270.188	86.53
270.403	51.71
270.619	18.94
270.835	94.72
271.051	-11.78
271.267	61.95
271.483	88.57
271.698	104.96
271.914	70.14
272.13	94.72
272.346	23.04
272.562	35.33
272.777	20.99
272.993	70.14
273.209	117.25
273.425	72.19
273.64	-1.54
273.856	64
274.072	23.04
274.287	-15.87
274.503	111.1
274.719	76.29
274.934	92.67
275.15	-19.97
275.366	76.29
275.581	-1.54
275.797	23.04
276.012	55.81
276.228	94.72
276.444	102.91
276.659	86.53
276.875	109.05
277.09	-15.87
277.306	100.86
277.521	119.29
277.737	33.28
277.952	127.49
278.168	76.29
278.383	68.09
278.599	14.85
278.814	86.53
279.03	25.09
279.245	143.87
279.461	4.61
279.676	147.97
279.892	27.14
280.107	27.14
280.322	109.05
280.538	76.29
280.753	-13.82
280.969	141.82
281.184	61.95
281.399	104.96
281.615	80.38
281.83	10.75
282.045	57.86
282.26	47.62
282.476	27.14
282.691	119.29
282.906	113.15
283.122	53.76
283.337	55.81
283.552	57.86
283.767	82.43
283.983	104.96
284.198	12.8
284.413	117.25
284.628	16.9
284.843	111.1
285.058	35.33
285.274	0.51
285.489	-5.63
285.704	88.57
285.919	88.57
286.134	80.38
286.349	61.95
286.564	72.19
286.779	152.06
286.995	76.29
287.21	20.99
287.425	102.91
287.64	47.62
287.855	129.53
288.07	35.33
288.285	92.67
288.5	35.33
288.715	74.24
288.93	66.05
289.145	31.23
289.36	76.29
289.575	90.62
289.79	141.82
290.004	27.14
290.219	74.24
290.434	-26.11
290.649	55.81
290.864	66.05
291.079	27.14
291.294	107.01
291.509	86.53
291.724	-3.58
291.938	51.71
292.153	133.63
292.368	-50.69
292.583	12.8
292.798	76.29
293.012	31.23
293.227	27.14
293.442	10.75
293.657	27.14
293.871	88.57
294.086	53.76
294.301	176.64
294.516	123.39
294.73	51.71
294.945	2.56
295.16	47.62
295.374	135.68
295.589	107.01
295.804	6.66
296.018	135.68
296.233	137.73
296.447	74.24
296.662	-11.78
296.877	59.9
297.091	68.09
297.306	64
297.52	96.77
297.735	135.68
297.949	53.76
298.164	43.52
298.378	2.56
298.593	74.24
298.807	84.48
299.022	117.25
299.236	31.23
299.451	53.76
299.665	10.75
299.88	-22.02
300.094	45.57
300.309	37.38
300.523	66.05
300.737	-30.21
300.952	102.91
301.166	141.82
301.381	16.9
301.595	41.47
301.809	117.25
302.024	113.15
302.238	-22.02
302.452	86.53
302.667	51.71
302.881	84.48
303.095	104.96
303.309	76.29
303.524	49.66
303.738	59.9
303.952	53.76
304.166	72.19
304.381	-46.59
304.595	141.82
304.809	64
305.023	68.09
305.237	53.76
305.452	121.34
305.666	68.09
305.88	92.67
306.094	113.15
306.308	78.33
306.522	72.19
306.736	92.67
306.95	162.3
307.164	33.28
307.379	14.85
307.593	117.25
307.807	127.49
308.021	123.39
308.235	72.19
308.449	57.86
308.663	74.24
308.877	92.67
309.091	78.33
309.305	109.05
309.519	-62.98
309.733	64
309.947	80.38
310.161	68.09
310.374	154.11
310.588	74.24
310.802	41.47
311.016	8.7
311.23	72.19
311.444	4.61
311.658	66.05
311.872	74.24
312.085	147.97
312.299	152.06
312.513	90.62
312.727	64
312.941	57.86
313.154	14.85
313.368	10.75
313.582	74.24
313.796	70.14
314.009	27.14
314.223	113.15
314.437	111.1
314.651	90.62
314.864	102.91
315.078	68.09
315.292	111.1
315.505	68.09
315.719	86.53
315.933	43.52
316.146	66.05
316.36	88.57
316.573	133.63
316.787	119.29
317.001	80.38
317.214	53.76
317.428	119.29
317.641	31.23
317.855	84.48
318.068	96.77
318.282	33.28
318.495	84.48
318.709	76.29
318.922	92.67
319.136	160.25
319.349	117.25
319.563	53.76
319.776	61.95
319.99	-22.02
320.203	115.2
320.417	51.71
320.63	80.38
320.843	113.15
321.057	72.19
321.27	-9.73
321.483	66.05
321.697	111.1
321.91	107.01
322.124	129.53
322.337	23.04
322.55	10.75
322.763	94.72
322.977	74.24
323.19	80.38
323.403	107.01
323.617	82.43
323.83	131.58
324.043	23.04
324.256	80.38
324.469	12.8
324.683	119.29
324.896	55.81
325.109	82.43
325.322	-9.73
325.535	113.15
325.748	18.94
325.962	-17.92
326.175	51.71
326.388	94.72
326.601	104.96
326.814	27.14
327.027	70.14
327.24	129.53
327.453	6.66
327.666	39.42
327.879	53.76
328.092	80.38
328.305	43.52
328.518	33.28
328.731	82.43
328.944	86.53
329.157	127.49
329.37	76.29
329.583	49.66
329.796	55.81
330.009	33.28
330.222	53.76
330.435	104.96
330.648	-7.68
330.861	72.19
331.073	78.33
331.286	66.05
331.499	111.1
331.712	27.14
331.925	68.09
332.138	72.19
332.35	92.67
332.563	80.38
332.776	127.49
332.989	37.38
333.202	-22.02
333.414	68.09
333.627	125.44
333.84	125.44
334.053	78.33
334.265	43.52
334.478	43.52
334.691	102.91
334.903	27.14
335.116	27.14
335.329	37.38
335.541	109.05
335.754	154.11
335.966	37.38
336.179	18.94
336.392	86.53
336.604	64
336.817	55.81
337.029	156.16
337.242	72.19
337.454	123.39
337.667	102.91
337.88	59.9
338.092	61.95
338.305	61.95
338.517	92.67
338.729	129.53
338.942	125.44
339.154	59.9
339.367	18.94
339.579	86.53
339.792	4.61
340.004	70.14
340.217	18.94
340.429	104.96
340.641	49.66
340.854	18.94
341.066	29.18
341.278	80.38
341.491	98.81
341.703	41.47
341.915	72.19
342.128	45.57
342.34	121.34
342.552	78.33
342.764	18.94
342.977	59.9
343.189	84.48
343.401	72.19
343.613	20.99
343.826	72.19
344.038	102.91
344.25	94.72
344.462	80.38
344.674	53.76
344.886	-3.58
345.099	41.47
345.311	51.71
345.523	53.76
345.735	-5.63
345.947	70.14
346.159	102.91
346.371	90.62
346.583	31.23
346.795	154.11
347.007	66.05
347.219	55.81
347.431	68.09
347.643	88.57
347.855	84.48
348.067	98.81
348.279	59.9
348.491	137.73
348.703	102.91
348.915	53.76
349.127	86.53
349.339	94.72
349.551	23.04
349.763	141.82
349.975	43.52
350.187	92.67
350.399	125.44
350.61	115.2
350.822	6.66
351.034	43.52
351.246	86.53
351.458	100.86
351.669	113.15
351.881	158.21
352.093	57.86
352.305	137.73
352.517	55.81
352.728	43.52
352.94	55.81
353.152	119.29
353.363	27.14
353.575	45.57
353.787	68.09
353.999	104.96
354.21	166.4
354.422	51.71
354.633	35.33
354.845	4.61
355.057	82.43
355.268	45.57
355.48	141.82
355.692	59.9
355.903	61.95
356.115	27.14
356.326	4.61
356.538	92.67
356.749	94.72
356.961	166.4
357.172	64
357.384	29.18
357.595	125.44
357.807	45.57
358.018	59.9
358.23	12.8
358.441	80.38
358.653	92.67
358.864	33.28
359.075	4.61
359.287	147.97
359.498	82.43
359.709	129.53
359.921	72.19
360.132	107.01
360.344	100.86
360.555	47.62
360.766	45.57
360.977	53.76
361.189	117.25
361.4	117.25
361.611	92.67
361.823	94.72
362.034	143.87
362.245	-36.35
362.456	49.66
362.667	88.57
362.879	80.38
363.09	119.29
363.301	123.39
363.512	86.53
363.723	174.59
363.935	82.43
364.146	107.01
364.357	70.14
364.568	98.81
364.779	-13.82
364.99	170.49
365.201	59.9
365.412	53.76
365.623	-46.59
365.834	137.73
366.045	76.29
366.256	119.29
366.467	76.29
366.678	113.15
366.889	64
367.1	129.53
367.311	107.01
367.522	92.67
367.733	49.66
367.944	147.97
368.155	125.44
368.366	127.49
368.577	111.1
368.788	125.44
368.999	43.52
369.209	141.82
369.42	190.97
369.631	209.4
369.842	59.9
370.053	111.1
370.264	156.16
370.474	92.67
370.685	41.47
370.896	45.57
371.107	160.25
371.317	100.86
371.528	45.57
371.739	131.58
371.95	127.49
372.16	123.39
372.371	61.95
372.582	23.04
372.792	53.76
373.003	78.33
373.214	111.1
373.424	119.29
373.635	37.38
373.846	59.9
374.056	100.86
374.267	117.25
374.477	61.95
374.688	96.77
374.898	80.38
375.109	10.75
375.319	51.71
375.53	57.86
375.74	96.77
375.951	139.77
376.161	150.01
376.372	133.63
376.582	-71.17
376.793	92.67
377.003	-30.21
377.214	27.14
377.424	55.81
377.635	59.9
377.845	-5.63
378.055	156.16
378.266	125.44
378.476	4.61
378.686	145.92
378.897	18.94
379.107	117.25
379.317	64
379.528	86.53
379.738	176.64
379.948	-3.58
380.158	92.67
380.369	72.19
380.579	86.53
380.789	125.44
380.999	94.72
381.21	41.47
381.42	193.02
381.63	76.29
381.84	43.52
382.05	94.72
382.261	125.44
382.471	51.71
382.681	61.95
382.891	129.53
383.101	53.76
383.311	43.52
383.521	68.09
383.731	141.82
383.941	137.73
384.151	61.95
384.361	82.43
384.571	76.29
384.781	152.06
384.991	94.72
385.201	164.35
385.411	96.77
385.621	92.67
385.831	37.38
386.041	76.29
386.251	72.19
386.461	109.05
386.671	84.48
386.881	109.05
387.091	37.38
387.301	92.67
387.511	45.57
387.72	51.71
387.93	80.38
388.14	12.8
388.35	41.47
388.56	113.15
388.769	180.73
388.979	127.49
389.189	96.77
389.399	68.09
389.609	199.16
389.818	123.39
390.028	131.58
390.238	96.77
390.447	102.91
390.657	107.01
390.867	137.73
391.076	2.56
391.286	29.18
391.496	59.9
391.705	39.42
391.915	117.25
392.125	113.15
392.334	115.2
392.544	96.77
392.753	104.96
392.963	117.25
393.172	86.53
393.382	127.49
393.591	225.79
393.801	64
394.01	141.82
394.22	100.86
394.429	125.44
394.639	100.86
394.848	72.19
395.058	-1.54
395.267	113.15
395.477	107.01
395.686	125.44
395.895	178.69
396.105	199.16
396.314	119.29
396.524	121.34
396.733	150.01
396.942	109.05
397.152	102.91
397.361	119.29
397.57	123.39
397.78	135.68
397.989	154.11
398.198	266.75
398.407	92.67
398.617	176.64
398.826	125.44
399.035	100.86
399.244	117.25
399.453	172.54
399.663	119.29
399.872	180.73
400.081	84.48
400.29	176.64
400.499	66.05
400.708	182.78
400.917	82.43
401.127	55.81
401.336	111.1
401.545	203.26
401.754	199.16
401.963	135.68
402.172	92.67
402.381	201.21
402.59	158.21
402.799	123.39
403.008	211.45
403.217	154.11
403.426	279.04
403.635	150.01
403.844	133.63
404.053	145.92
404.262	227.84
404.471	260.6
404.68	193.02
404.888	205.31
405.097	195.07
405.306	225.79
405.515	199.16
405.724	109.05
405.933	289.28
406.142	217.6
406.35	260.6
406.559	225.79
406.768	197.12
406.977	209.4
407.185	242.17
407.394	246.27
407.603	217.6
407.812	291.32
408.02	266.75
408.229	272.89
408.438	248.32
408.646	233.98
408.855	289.28
409.064	346.62
409.272	293.37
409.481	356.86
409.69	340.47
409.898	350.71
410.107	344.57
410.315	371.19
410.524	358.91
410.733	442.87
410.941	379.39
411.15	412.15
411.358	352.76
411.567	418.3
411.775	545.27
411.984	414.2
412.192	469.5
412.401	485.88
412.609	612.85
412.818	567.8
413.026	535.03
413.234	598.52
413.443	514.55
413.651	555.51
413.86	643.57
414.068	690.68
414.276	766.45
414.485	793.08
414.693	831.99
414.901	846.32
415.11	842.23
415.318	864.75
415.526	817.65
415.734	913.91
415.943	961.01
416.151	934.39
416.359	967.15
416.567	965.11
416.776	944.63
416.984	1108.46
417.192	1153.52
417.4	1067.5
417.608	1141.23
417.817	1145.33
418.025	1307.12
418.233	1405.42
418.441	1288.68
418.649	1343.98
418.857	1421.8
419.065	1575.4
419.273	1520.1
419.481	1438.19
419.689	1733.09
419.897	1554.92
420.105	1706.47
420.313	1804.77
420.521	1841.64
420.729	1780.2
420.937	1921.51
421.145	2083.3
421.353	2093.54
421.561	2251.23
421.769	2255.33
421.977	2300.38
422.185	2408.92
422.393	2474.46
422.601	2587.1
422.809	2482.65
423.017	2656.73
423.224	2736.6
423.432	2806.23
423.64	2875.86
423.848	3062.23
424.056	2986.45
424.263	3176.91
424.471	3330.51
424.679	3312.08
424.887	3387.85
425.094	3514.83
425.302	3541.45
425.51	3740.1
425.718	3828.17
425.925	3903.94
426.133	3957.19
426.341	4227.52
426.548	4409.79
426.756	4323.77
426.964	4630.97
427.171	4587.96
427.379	4899.25
427.586	5171.63
427.794	5106.1
428.001	5278.13
428.209	5607.85
428.417	5360.05
428.624	5792.17
428.832	5910.95
429.039	5853.61
429.247	5831.08
429.454	6470.05
429.662	6758.81
429.869	6375.84
430.076	6752.66
430.284	6570.4
430.491	6793.62
430.699	7352.72
430.906	7391.63
431.114	7508.37
431.321	7795.08
431.528	7911.82
431.736	8604.03
431.943	8688
432.15	8524.16
432.358	8792.44
432.565	9212.28
432.772	8851.83
432.979	9550.19
433.187	9699.69
433.394	9580.91
433.601	10520.93
433.808	10334.56
434.016	10469.73
434.223	10682.72
434.43	11368.79
434.637	11147.61
434.844	11841.87
435.052	12273.99
435.259	12017.99
435.466	12079.43
435.673	12034.38
435.88	12699.97
436.087	13406.52
436.294	13429.04
436.501	13336.88
436.708	13566.26
436.915	13945.13
437.122	14631.2
437.329	14641.44
437.537	15057.18
437.743	15096.09
437.95	15003.93
438.157	16206.09
438.364	16472.32
438.571	16496.9
438.778	16537.86
438.985	17948.91
439.192	17221.88
439.399	18022.64
439.606	17432.82
439.813	18385.13
440.02	19488.98
440.227	19388.63
440.433	19241.18
440.64	19609.81
440.847	19534.04
441.054	19945.68
441.261	21432.5
441.467	20883.65
441.674	21815.48
441.881	22139.05
442.088	22675.62
442.294	21899.44
442.501	22771.88
442.708	22849.7
442.914	23783.57
443.121	25024.64
443.328	24400.01
443.534	25950.32
443.741	25573.5
443.948	25061.51
444.154	27005.03
444.361	26990.69
444.568	27023.46
444.774	26873.96
444.981	27312.22
445.187	28155.99
445.394	29130.82
445.6	29130.82
445.807	31655.96
446.013	30478.38
446.22	30705.71
446.426	31797.27
446.633	32221.2
446.839	33605.63
447.046	32233.49
447.252	33757.18
447.459	34017.27
447.665	33548.29
447.871	35379.17
448.078	36945.87
448.284	34981.87
448.491	36235.22
448.697	37218.25
448.903	38205.37
449.11	38516.66
449.316	37404.61
449.522	38242.23
449.728	39448.49
449.935	39495.59
450.141	39860.13
450.347	40744.85
450.553	39092.14
450.76	40105.88
450.966	41107.34
451.172	40503.19
451.378	41817.99
451.584	41232.27
451.791	41916.29
451.997	41725.83
452.203	42647.41
452.409	42491.77
452.615	42176.38
452.821	40587.16
453.027	40556.44
453.233	42082.17
453.44	40662.93
453.646	41551.75
453.852	41502.6
454.058	41858.95
454.264	40771.47
454.47	42014.59
454.676	41193.36
454.882	42485.62
455.088	38629.3
455.294	39385
455.5	39604.13
455.705	40652.69
455.911	38531
456.117	37601.22
456.323	37330.89
456.529	35149.8
456.735	37025.74
456.941	36188.12
457.147	35624.93
457.352	34574.32
457.558	34134.01
457.764	34283.51
457.97	33495.04
458.176	32817.16
458.381	33103.88
458.587	31336.48
458.793	31330.34
458.999	29741.11
459.204	31633.44
459.41	31045.67
459.616	28753.99
459.821	28889.16
460.027	28706.89
460.233	28190.8
460.438	26929.25
460.644	27103.33
460.85	26005.62
461.055	25458.81
461.261	25409.66
461.466	23533.72
461.672	22792.36
461.878	24357
462.083	22829.22
462.289	22448.3
462.494	22030.51
462.7	20990.14
462.905	20443.34
463.111	21491.9
463.316	21414.07
463.522	20736.2
463.727	20961.47
463.932	20758.72
464.138	21016.77
464.343	21018.82
464.549	19910.86
464.754	20854.98
464.959	20707.52
465.165	20302.03
465.37	19816.66
465.575	19011.81
465.781	19855.57
