Data from USB4F104151__71__13-06-01-361.txt Node

Date: Fri Mar 14 13:06:01 EDT 2025
User: louis
Spectrometer: USB4F10415
Trigger mode: 4
Integration Time (sec): 4.000000E-2
Scans to average: 1
Electric dark correction enabled: true
Nonlinearity correction enabled: false
Boxcar width: 0
XAxis mode: Wavelengths
Number of Pixels in Spectrum: 3648
>>>>>Begin Spectral Data<<<<<
178.204	-180.9
178.424	-180.9
178.644	-180.9
178.864	-137.9
179.084	-242.34
179.304	-88.75
179.524	-15.02
179.744	1.37
179.964	97.62
180.184	48.47
180.404	3.41
180.624	9.56
180.844	-23.21
181.064	-58.03
181.283	-19.11
181.503	-25.26
181.723	68.95
181.943	-78.51
182.163	75.09
182.383	-29.35
182.602	9.56
182.822	68.95
183.042	27.99
183.262	-17.07
183.482	27.99
183.701	-4.78
183.921	105.81
184.141	-17.07
184.361	64.85
184.58	23.89
184.8	32.08
185.02	-31.4
185.239	77.14
185.459	93.52
185.679	58.71
185.898	15.7
186.118	87.38
186.338	81.24
186.557	64.85
186.777	30.04
186.997	77.14
187.216	120.15
187.436	109.91
187.655	-17.07
187.875	34.13
188.095	-17.07
188.314	105.81
188.534	66.9
188.753	13.65
188.973	114
189.192	105.81
189.412	89.43
189.631	23.89
189.851	-6.83
190.07	23.89
190.29	-15.02
190.509	38.23
190.729	-6.83
190.948	89.43
191.168	214.35
191.387	79.19
191.607	66.9
191.826	46.42
192.045	-23.21
192.265	7.51
192.484	81.24
192.704	-4.78
192.923	48.47
193.142	146.77
193.362	13.65
193.581	52.56
193.8	23.89
194.02	73.04
194.239	-47.79
194.458	58.71
194.678	42.32
194.897	50.52
195.116	95.57
195.335	54.61
195.555	91.48
195.774	34.13
195.993	27.99
196.212	-66.22
196.432	-0.68
196.651	21.84
196.87	62.8
197.089	97.62
197.308	68.95
197.528	73.04
197.747	48.47
197.966	-4.78
198.185	54.61
198.404	1.37
198.623	83.28
198.842	114
199.062	91.48
199.281	68.95
199.5	77.14
199.719	60.76
199.938	34.13
200.157	30.04
200.376	1.37
200.595	68.95
200.814	34.13
201.033	-0.68
201.252	87.38
201.471	77.14
201.69	77.14
201.909	-25.26
202.128	118.1
202.347	66.9
202.566	81.24
202.785	21.84
203.004	23.89
203.223	97.62
203.442	42.32
203.661	64.85
203.879	5.46
204.098	132.44
204.317	15.7
204.536	97.62
204.755	-19.11
204.974	71
205.193	54.61
205.411	114
205.63	32.08
205.849	32.08
206.068	3.41
206.287	73.04
206.505	73.04
206.724	23.89
206.943	7.51
207.162	7.51
207.381	15.7
207.599	89.43
207.818	62.8
208.037	46.42
208.255	50.52
208.474	157.01
208.693	30.04
208.911	40.28
209.13	66.9
209.349	23.89
209.567	21.84
209.786	97.62
210.005	93.52
210.223	-2.73
210.442	77.14
210.661	62.8
210.879	50.52
211.098	36.18
211.316	89.43
211.535	13.65
211.753	23.89
211.972	60.76
212.191	5.46
212.409	71
212.628	60.76
212.846	-25.26
213.065	34.13
213.283	60.76
213.502	-10.92
213.72	97.62
213.938	68.95
214.157	-4.78
214.375	148.82
214.594	23.89
214.812	99.67
215.031	116.05
215.249	58.71
215.467	32.08
215.686	1.37
215.904	97.62
216.122	50.52
216.341	81.24
216.559	1.37
216.778	54.61
216.996	56.66
217.214	-23.21
217.432	66.9
217.651	-35.5
217.869	21.84
218.087	142.68
218.306	71
218.524	27.99
218.742	1.37
218.96	73.04
219.179	-53.93
219.397	64.85
219.615	148.82
219.833	15.7
220.051	11.61
220.27	38.23
220.488	30.04
220.706	-0.68
220.924	-33.45
221.142	89.43
221.36	36.18
221.578	89.43
221.796	-17.07
222.015	64.85
222.233	-25.26
222.451	73.04
222.669	30.04
222.887	56.66
223.105	-39.59
223.323	-70.31
223.541	77.14
223.759	75.09
223.977	25.94
224.195	46.42
224.413	93.52
224.631	44.37
224.849	116.05
225.067	50.52
225.285	-0.68
225.503	32.08
225.721	-49.83
225.939	23.89
226.157	66.9
226.375	71
226.592	-25.26
226.81	42.32
227.028	9.56
227.246	214.35
227.464	75.09
227.682	152.91
227.9	75.09
228.117	-8.87
228.335	60.76
228.553	-2.73
228.771	15.7
228.989	62.8
229.206	23.89
229.424	56.66
229.642	38.23
229.86	-8.87
230.077	87.38
230.295	91.48
230.513	60.76
230.731	60.76
230.948	165.2
231.166	95.57
231.384	83.28
231.601	66.9
231.819	105.81
232.037	38.23
232.254	-2.73
232.472	7.51
232.689	-21.16
232.907	66.9
233.125	3.41
233.342	52.56
233.56	-43.69
233.777	9.56
233.995	-4.78
234.213	83.28
234.43	17.75
234.648	73.04
234.865	3.41
235.083	105.81
235.3	-8.87
235.518	87.38
235.735	91.48
235.953	138.58
236.17	62.8
236.388	30.04
236.605	122.2
236.822	122.2
237.04	60.76
237.257	-47.79
237.475	44.37
237.692	-6.83
237.909	-4.78
238.127	-6.83
238.344	87.38
238.562	60.76
238.779	-15.02
238.996	34.13
239.214	56.66
239.431	81.24
239.648	64.85
239.865	17.75
240.083	81.24
240.3	62.8
240.517	-58.03
240.735	73.04
240.952	79.19
241.169	21.84
241.386	3.41
241.603	48.47
241.821	-0.68
242.038	68.95
242.255	64.85
242.472	-12.97
242.689	91.48
242.907	15.7
243.124	75.09
243.341	42.32
243.558	-64.17
243.775	1.37
243.992	-23.21
244.209	-17.07
244.426	101.72
244.643	73.04
244.86	-4.78
245.078	68.95
245.295	-4.78
245.512	95.57
245.729	89.43
245.946	109.91
246.163	23.89
246.38	97.62
246.597	-12.97
246.814	-51.88
247.031	79.19
247.248	50.52
247.464	79.19
247.681	21.84
247.898	60.76
248.115	32.08
248.332	-25.26
248.549	66.9
248.766	157.01
248.983	103.76
249.2	42.32
249.417	79.19
249.633	15.7
249.85	66.9
250.067	23.89
250.284	66.9
250.501	103.76
250.717	116.05
250.934	-41.64
251.151	81.24
251.368	52.56
251.585	124.24
251.801	15.7
252.018	54.61
252.235	66.9
252.451	32.08
252.668	-45.74
252.885	42.32
253.102	93.52
253.318	-45.74
253.535	-62.12
253.752	58.71
253.968	116.05
254.185	46.42
254.401	103.76
254.618	60.76
254.835	68.95
255.051	179.54
255.268	25.94
255.484	44.37
255.701	-17.07
255.917	62.8
256.134	54.61
256.351	48.47
256.567	-15.02
256.784	81.24
257	13.65
257.217	27.99
257.433	3.41
257.65	97.62
257.866	54.61
258.082	114
258.299	54.61
258.515	19.8
258.732	50.52
258.948	-0.68
259.165	13.65
259.381	52.56
259.597	40.28
259.814	30.04
260.03	42.32
260.246	-21.16
260.463	60.76
260.679	128.34
260.895	124.24
261.112	-15.02
261.328	-31.4
261.544	81.24
261.761	50.52
261.977	58.71
262.193	-43.69
262.409	99.67
262.626	62.8
262.842	66.9
263.058	7.51
263.274	71
263.49	56.66
263.707	105.81
263.923	52.56
264.139	50.52
264.355	36.18
264.571	142.68
264.787	66.9
265.004	32.08
265.22	64.85
265.436	15.7
265.652	7.51
265.868	7.51
266.084	7.51
266.3	81.24
266.516	34.13
266.732	122.2
266.948	15.7
267.164	9.56
267.38	97.62
267.596	71
267.812	87.38
268.028	73.04
268.244	-21.16
268.46	144.72
268.676	-12.97
268.892	81.24
269.108	13.65
269.324	-6.83
269.54	-25.26
269.756	64.85
269.972	58.71
270.188	44.37
270.403	64.85
270.619	73.04
270.835	-6.83
271.051	56.66
271.267	75.09
271.483	91.48
271.698	62.8
271.914	25.94
272.13	25.94
272.346	5.46
272.562	1.37
272.777	95.57
272.993	44.37
273.209	42.32
273.425	101.72
273.64	79.19
273.856	56.66
274.072	83.28
274.287	-6.83
274.503	-17.07
274.719	169.3
274.934	-53.93
275.15	-25.26
275.366	73.04
275.581	44.37
275.797	42.32
276.012	19.8
276.228	30.04
276.444	130.39
276.659	132.44
276.875	17.75
277.09	34.13
277.306	-8.87
277.521	136.53
277.737	3.41
277.952	48.47
278.168	81.24
278.383	64.85
278.599	85.33
278.814	50.52
279.03	7.51
279.245	99.67
279.461	15.7
279.676	42.32
279.892	-12.97
280.107	9.56
280.322	9.56
280.538	40.28
280.753	-29.35
280.969	142.68
281.184	50.52
281.399	64.85
281.615	58.71
281.83	87.38
282.045	15.7
282.26	60.76
282.476	93.52
282.691	91.48
282.906	27.99
283.122	48.47
283.337	-0.68
283.552	87.38
283.767	32.08
283.983	73.04
284.198	17.75
284.413	60.76
284.628	-8.87
284.843	-17.07
285.058	25.94
285.274	34.13
285.489	23.89
285.704	32.08
285.919	15.7
286.134	64.85
286.349	-33.45
286.564	105.81
286.779	91.48
286.995	48.47
287.21	23.89
287.425	116.05
287.64	73.04
287.855	77.14
288.07	32.08
288.285	52.56
288.5	44.37
288.715	36.18
288.93	40.28
289.145	73.04
289.36	114
289.575	71
289.79	5.46
290.004	3.41
290.219	93.52
290.434	7.51
290.649	-78.51
290.864	38.23
291.079	64.85
291.294	107.86
291.509	40.28
291.724	21.84
291.938	87.38
292.153	142.68
292.368	19.8
292.583	77.14
292.798	21.84
293.012	114
293.227	118.1
293.442	-23.21
293.657	120.15
293.871	187.73
294.086	13.65
294.301	64.85
294.516	122.2
294.73	25.94
294.945	48.47
295.16	44.37
295.374	60.76
295.589	105.81
295.804	46.42
296.018	-8.87
296.233	140.63
296.447	25.94
296.662	23.89
296.877	-0.68
297.091	19.8
297.306	46.42
297.52	-0.68
297.735	17.75
297.949	64.85
298.164	62.8
298.378	83.28
298.593	50.52
298.807	3.41
299.022	46.42
299.236	93.52
299.451	68.95
299.665	34.13
299.88	77.14
300.094	99.67
300.309	71
300.523	-6.83
300.737	95.57
300.952	-23.21
301.166	109.91
301.381	19.8
301.595	-17.07
301.809	116.05
302.024	-25.26
302.238	25.94
302.452	64.85
302.667	71
302.881	179.54
303.095	99.67
303.309	73.04
303.524	21.84
303.738	-8.87
303.952	-15.02
304.166	62.8
304.381	-45.74
304.595	62.8
304.809	-29.35
305.023	44.37
305.237	30.04
305.452	58.71
305.666	34.13
305.88	173.39
306.094	71
306.308	-17.07
306.522	126.29
306.736	89.43
306.95	62.8
307.164	30.04
307.379	-17.07
307.593	114
307.807	-0.68
308.021	81.24
308.235	79.19
308.449	-43.69
308.663	66.9
308.877	23.89
309.091	64.85
309.305	169.3
309.519	-0.68
309.733	17.75
309.947	-21.16
310.161	152.91
310.374	130.39
310.588	138.58
310.802	40.28
311.016	50.52
311.23	-6.83
311.444	75.09
311.658	3.41
311.872	142.68
312.085	27.99
312.299	68.95
312.513	66.9
312.727	52.56
312.941	-49.83
313.154	91.48
313.368	-4.78
313.582	52.56
313.796	9.56
314.009	-2.73
314.223	91.48
314.437	73.04
314.651	73.04
314.864	64.85
315.078	89.43
315.292	44.37
315.505	1.37
315.719	34.13
315.933	58.71
316.146	64.85
316.36	46.42
316.573	71
316.787	103.76
317.001	73.04
317.214	42.32
317.428	11.61
317.641	-8.87
317.855	36.18
318.068	7.51
318.282	50.52
318.495	56.66
318.709	122.2
318.922	83.28
319.136	79.19
319.349	136.53
319.563	-49.83
319.776	21.84
319.99	-47.79
320.203	58.71
320.417	38.23
320.63	15.7
320.843	157.01
321.057	87.38
321.27	77.14
321.483	-4.78
321.697	132.44
321.91	32.08
322.124	99.67
322.337	25.94
322.55	116.05
322.763	17.75
322.977	56.66
323.19	54.61
323.403	54.61
323.617	87.38
323.83	77.14
324.043	48.47
324.256	27.99
324.469	-21.16
324.683	114
324.896	32.08
325.109	62.8
325.322	27.99
325.535	60.76
325.748	-15.02
325.962	32.08
326.175	19.8
326.388	73.04
326.601	122.2
326.814	-27.31
327.027	73.04
327.24	107.86
327.453	-4.78
327.666	89.43
327.879	95.57
328.092	107.86
328.305	-10.92
328.518	101.72
328.731	-4.78
328.944	71
329.157	9.56
329.37	44.37
329.583	181.59
329.796	118.1
330.009	3.41
330.222	27.99
330.435	-31.4
330.648	83.28
330.861	40.28
331.073	1.37
331.286	97.62
331.499	62.8
331.712	-15.02
331.925	19.8
332.138	56.66
332.35	138.58
332.563	50.52
332.776	89.43
332.989	73.04
333.202	27.99
333.414	40.28
333.627	-12.97
333.84	75.09
334.053	-0.68
334.265	11.61
334.478	97.62
334.691	27.99
334.903	75.09
335.116	1.37
335.329	-17.07
335.541	7.51
335.754	130.39
335.966	5.46
336.179	97.62
336.392	44.37
336.604	19.8
336.817	60.76
337.029	48.47
337.242	68.95
337.454	77.14
337.667	-6.83
337.88	38.23
338.092	79.19
338.305	-41.64
338.517	85.33
338.729	126.29
338.942	99.67
339.154	32.08
339.367	58.71
339.579	73.04
339.792	77.14
340.004	93.52
340.217	32.08
340.429	-8.87
340.641	66.9
340.854	-17.07
341.066	30.04
341.278	150.87
341.491	118.1
341.703	105.81
341.915	19.8
342.128	32.08
342.34	42.32
342.552	7.51
342.764	54.61
342.977	58.71
343.189	81.24
343.401	114
343.613	-17.07
343.826	21.84
344.038	36.18
344.25	46.42
344.462	81.24
344.674	34.13
344.886	-25.26
345.099	116.05
345.311	83.28
345.523	58.71
345.735	19.8
345.947	-0.68
346.159	52.56
346.371	42.32
346.583	19.8
346.795	140.63
347.007	54.61
347.219	126.29
347.431	-8.87
347.643	144.72
347.855	13.65
348.067	109.91
348.279	-43.69
348.491	87.38
348.703	81.24
348.915	38.23
349.127	27.99
349.339	114
349.551	36.18
349.763	116.05
349.975	101.72
350.187	202.07
350.399	109.91
350.61	60.76
350.822	77.14
351.034	93.52
351.246	52.56
351.458	165.2
351.669	19.8
351.881	-17.07
352.093	77.14
352.305	105.81
352.517	64.85
352.728	111.96
352.94	81.24
353.152	38.23
353.363	15.7
353.575	42.32
353.787	44.37
353.999	54.61
354.21	118.1
354.422	95.57
354.633	75.09
354.845	36.18
355.057	64.85
355.268	77.14
355.48	1.37
355.692	25.94
355.903	107.86
356.115	-4.78
356.326	103.76
356.538	103.76
356.749	83.28
356.961	142.68
357.172	122.2
357.384	15.7
357.595	181.59
357.807	15.7
358.018	17.75
358.23	-23.21
358.441	114
358.653	136.53
358.864	75.09
359.075	66.9
359.287	89.43
359.498	64.85
359.709	99.67
359.921	-8.87
360.132	23.89
360.344	36.18
360.555	34.13
360.766	75.09
360.977	34.13
361.189	60.76
361.4	42.32
361.611	130.39
361.823	95.57
362.034	75.09
362.245	44.37
362.456	30.04
362.667	68.95
362.879	-4.78
363.09	111.96
363.301	38.23
363.512	58.71
363.723	44.37
363.935	15.7
364.146	109.91
364.357	30.04
364.568	56.66
364.779	-96.94
364.99	107.86
365.201	50.52
365.412	154.96
365.623	32.08
365.834	21.84
366.045	58.71
366.256	107.86
366.467	101.72
366.678	64.85
366.889	60.76
367.1	13.65
367.311	103.76
367.522	9.56
367.733	93.52
367.944	134.48
368.155	40.28
368.366	1.37
368.577	68.95
368.788	118.1
368.999	-23.21
369.209	146.77
369.42	75.09
369.631	169.3
369.842	42.32
370.053	58.71
370.264	107.86
370.474	97.62
370.685	75.09
370.896	79.19
371.107	122.2
371.317	101.72
371.528	66.9
371.739	64.85
371.95	58.71
372.16	189.78
372.371	27.99
372.582	71
372.792	71
373.003	50.52
373.214	154.96
373.424	114
373.635	101.72
373.846	79.19
374.056	95.57
374.267	44.37
374.477	111.96
374.688	54.61
374.898	3.41
375.109	44.37
375.319	7.51
375.53	165.2
375.74	101.72
375.951	105.81
376.161	118.1
376.372	97.62
376.582	27.99
376.793	56.66
377.003	105.81
377.214	81.24
377.424	64.85
377.635	32.08
377.845	87.38
378.055	128.34
378.266	23.89
378.476	73.04
378.686	105.81
378.897	116.05
379.107	138.58
379.317	81.24
379.528	42.32
379.738	157.01
379.948	58.71
380.158	83.28
380.369	71
380.579	99.67
380.789	73.04
380.999	68.95
381.21	50.52
381.42	136.53
381.63	50.52
381.84	89.43
382.05	38.23
382.261	136.53
382.471	73.04
382.681	140.63
382.891	27.99
383.101	46.42
383.311	52.56
383.521	97.62
383.731	60.76
383.941	132.44
384.151	95.57
384.361	-29.35
384.571	114
384.781	118.1
384.991	206.16
385.201	83.28
385.411	54.61
385.621	52.56
385.831	64.85
386.041	1.37
386.251	105.81
386.461	40.28
386.671	19.8
386.881	56.66
387.091	111.96
387.301	114
387.511	60.76
387.72	34.13
387.93	138.58
388.14	-33.45
388.35	66.9
388.56	11.61
388.769	58.71
388.979	128.34
389.189	32.08
389.399	128.34
389.609	50.52
389.818	73.04
390.028	95.57
390.238	36.18
390.447	91.48
390.657	105.81
390.867	93.52
391.076	66.9
391.286	105.81
391.496	105.81
391.705	-23.21
391.915	157.01
392.125	64.85
392.334	91.48
392.544	126.29
392.753	122.2
392.963	36.18
393.172	144.72
393.382	19.8
393.591	103.76
393.801	89.43
394.01	120.15
394.22	130.39
394.429	105.81
394.639	77.14
394.848	81.24
395.058	105.81
395.267	54.61
395.477	140.63
395.686	122.2
395.895	173.39
396.105	134.48
396.314	134.48
396.524	138.58
396.733	161.11
396.942	165.2
397.152	52.56
397.361	210.26
397.57	159.06
397.78	87.38
397.989	124.24
398.198	224.59
398.407	81.24
398.617	83.28
398.826	64.85
399.035	148.82
399.244	171.35
399.453	101.72
399.663	206.16
399.872	130.39
400.081	93.52
400.29	220.5
400.499	142.68
400.708	220.5
400.917	224.59
401.127	130.39
401.336	122.2
401.545	261.46
401.754	154.96
401.963	146.77
402.172	150.87
402.381	144.72
402.59	62.8
402.799	99.67
403.008	150.87
403.217	101.72
403.426	167.25
403.635	171.35
403.844	228.69
404.053	126.29
404.262	163.15
404.471	210.26
404.68	130.39
404.888	138.58
405.097	200.02
405.306	265.55
405.515	232.79
405.724	255.31
405.933	265.55
406.142	138.58
406.35	222.55
406.559	193.87
406.768	210.26
406.977	302.42
407.185	232.79
407.394	212.31
407.603	175.44
407.812	281.94
408.02	249.17
408.229	310.61
408.438	363.86
408.646	294.22
408.855	329.04
409.064	388.43
409.272	343.38
409.481	394.58
409.69	398.67
409.898	376.14
410.107	433.49
410.315	449.87
410.524	396.62
410.733	419.15
410.941	462.16
411.15	382.29
411.358	564.56
411.567	552.27
411.775	449.87
411.984	501.07
412.192	578.89
412.401	486.73
412.609	580.94
412.818	677.19
413.026	679.24
413.234	666.96
413.443	662.86
413.651	617.8
413.86	691.53
414.068	736.59
414.276	740.68
414.485	732.49
414.693	777.55
414.901	904.52
415.11	879.94
415.318	871.75
415.526	935.24
415.734	996.68
415.943	1006.92
416.151	1094.98
416.359	1019.21
416.567	1099.08
416.776	1164.61
416.984	1277.25
417.192	1299.78
417.4	1254.72
417.608	1219.91
417.817	1248.58
418.025	1383.74
418.233	1563.97
418.441	1430.85
418.649	1572.16
418.857	1645.88
419.065	1654.08
419.273	1600.83
419.481	1779
419.689	1738.04
419.897	1801.53
420.105	2016.57
420.313	1957.18
420.521	2157.88
420.729	2061.62
420.937	2215.22
421.145	2178.36
421.353	2368.82
421.561	2407.73
421.769	2557.23
421.977	2723.12
422.185	2626.86
422.393	2811.18
422.601	2940.2
422.809	2835.75
423.017	3003.69
423.224	3112.23
423.432	3233.06
423.64	3288.36
423.848	3456.29
424.056	3357.99
424.263	3736.86
424.471	3734.81
424.679	3638.56
424.887	4013.34
425.094	4023.58
425.302	3919.13
425.51	4222.23
425.718	4322.58
425.925	4586.77
426.133	4685.07
426.341	4814.09
426.548	5072.14
426.756	5121.29
426.964	5176.58
427.171	5299.46
427.379	5457.15
427.586	5641.47
427.794	5897.47
428.001	6135.03
428.209	6409.46
428.417	6294.77
428.624	6618.35
428.832	6663.41
429.039	6782.19
429.247	6794.48
429.454	7345.38
429.662	7765.21
429.869	7392.48
430.076	7853.28
430.284	7290.09
430.491	7867.61
430.699	8260.82
430.906	8170.71
431.114	8342.74
431.321	8805.58
431.528	8891.6
431.736	9503.94
431.943	9921.73
432.15	9469.12
432.358	9923.77
432.565	10241.21
432.772	10421.43
432.979	10724.53
433.187	11224.23
433.394	10976.43
433.601	11783.33
433.808	11957.41
434.016	11488.42
434.223	12223.64
434.43	12979.34
434.637	12709.01
434.844	13425.8
435.052	13700.23
435.259	13673.6
435.466	13577.35
435.673	13649.03
435.88	14546.04
436.087	15324.27
436.294	15461.48
436.501	14851.19
436.708	15324.27
436.915	15946.85
437.122	16835.67
437.329	16467.03
437.537	17151.06
437.743	17177.68
437.95	17323.08
438.157	18148.42
438.364	18775.09
438.571	18465.85
438.778	18639.93
438.985	20876.31
439.192	19661.87
439.399	20247.58
439.606	19926.05
439.813	21126.16
440.02	22500.35
440.227	21836.81
440.433	21904.39
440.64	22318.08
440.847	22160.39
441.054	22811.64
441.261	24335.33
441.467	23952.36
441.674	24396.77
441.881	25422.8
442.088	25240.53
442.294	25220.05
442.501	25533.39
442.708	26188.74
442.914	27085.75
443.121	28343.2
443.328	27775.92
443.534	29836.17
443.741	28875.68
443.948	28496.8
444.154	30262.15
444.361	30475.14
444.568	30632.83
444.774	30561.15
444.981	30882.69
445.187	31734.64
445.394	32981.85
445.6	32682.85
445.807	36178.73
446.013	34159.44
446.22	35076.93
446.426	36412.2
446.633	36895.52
446.839	37813.01
447.046	36442.92
447.252	38214.41
447.459	38433.55
447.665	38640.39
447.871	40282.86
448.078	41911
448.284	39813.88
448.491	40850.15
448.697	42552.01
448.903	43569.85
449.11	43340.48
449.316	42785.48
449.522	43123.4
449.728	44415.66
449.935	44866.22
450.141	44966.57
450.347	46418.58
450.553	44583.6
450.76	44634.8
450.966	46869.13
451.172	46193.3
451.378	47329.92
451.584	46445.2
451.791	47534.72
451.997	47362.69
452.203	48310.9
452.409	48089.72
452.615	48429.68
452.821	46162.58
453.027	45894.3
453.233	48265.84
453.44	46287.51
453.646	47082.12
453.852	47485.57
454.058	48288.37
454.264	46570.13
454.47	47440.51
454.676	46359.19
454.882	48061.05
455.088	43629.24
455.294	44534.45
455.5	45451.94
455.705	45974.17
455.911	44016.31
456.117	42904.26
456.323	42488.53
456.529	40497.9
456.735	42480.33
456.941	41097.95
457.147	40454.89
457.352	39234.3
457.558	38773.51
457.764	38771.46
457.97	38517.51
458.176	37288.73
458.381	37776.15
458.587	35896.11
458.793	35783.48
458.999	33917.78
459.204	36637.48
459.41	35320.63
459.616	32944.99
459.821	33147.74
460.027	32832.35
460.233	32213.87
460.438	30718.85
460.644	31236.98
460.85	29383.57
461.055	29225.88
461.261	28640.16
461.466	26950.59
461.672	26063.82
461.878	27831.21
462.083	25762.76
462.289	25570.26
462.494	25252.82
462.7	24196.07
462.905	23692.27
463.111	24359.91
463.316	24343.52
463.522	23915.5
463.727	23669.74
463.932	23833.58
464.138	23546.86
464.343	23759.85
464.549	22838.26
464.754	24046.57
464.959	23579.63
465.165	23301.11
465.37	22752.25
465.575	21826.57
465.781	22828.02
465.986	22801.4
466.191	22064.13
466.397	21425.17
466.602	20542.49
466.807	21034
467.012	21185.55
467.218	21322.77
