Data from USB4F104151__30__13-04-49-967.txt Node

Date: Fri Mar 14 13:04:49 EDT 2025
User: louis
Spectrometer: USB4F10415
Trigger mode: 4
Integration Time (sec): 4.000000E-2
Scans to average: 1
Electric dark correction enabled: true
Nonlinearity correction enabled: false
Boxcar width: 0
XAxis mode: Wavelengths
Number of Pixels in Spectrum: 3648
>>>>>Begin Spectral Data<<<<<
178.204	-157.86
178.424	-157.86
178.644	-157.86
178.864	-215.21
179.084	-221.35
179.304	-18.6
179.524	-10.41
179.744	-14.51
179.964	20.31
180.184	-30.89
180.404	28.5
180.624	-16.55
180.844	-14.51
181.064	-10.41
181.283	44.88
181.503	-24.75
181.723	46.93
181.943	-28.84
182.163	59.22
182.383	-2.22
182.602	79.7
182.822	110.42
183.042	87.89
183.262	14.17
183.482	-28.84
183.701	-20.65
183.921	83.8
184.141	-63.66
184.361	69.46
184.58	28.5
184.8	57.17
185.02	-0.17
185.239	38.74
185.459	-24.75
185.679	55.12
185.898	-8.36
186.118	79.7
186.338	61.27
186.557	26.45
186.777	28.5
186.997	-22.7
187.216	38.74
187.436	59.22
187.655	71.51
187.875	85.84
188.095	55.12
188.314	96.08
188.534	114.52
188.753	1.88
188.973	77.65
189.192	10.07
189.412	34.64
189.631	124.76
189.851	24.4
190.07	96.08
190.29	10.07
190.509	36.69
190.729	42.84
190.948	48.98
191.168	182.1
191.387	104.28
191.607	-24.75
191.826	94.04
192.045	-30.89
192.265	38.74
192.484	40.79
192.704	30.55
192.923	36.69
193.142	153.43
193.362	73.56
193.581	147.28
193.8	120.66
194.02	81.75
194.239	30.55
194.458	94.04
194.678	-14.51
194.897	69.46
195.116	61.27
195.335	-22.7
195.555	3.93
195.774	20.31
195.993	128.85
196.212	55.12
196.432	57.17
196.651	46.93
196.87	12.12
197.089	194.39
197.308	128.85
197.528	34.64
197.747	48.98
197.966	110.42
198.185	96.08
198.404	-39.08
198.623	63.32
198.842	46.93
199.062	-18.6
199.281	108.37
199.5	3.93
199.719	71.51
199.938	55.12
200.157	128.85
200.376	67.41
200.595	91.99
200.814	55.12
201.033	67.41
201.252	36.69
201.471	79.7
201.69	81.75
201.909	79.7
202.128	40.79
202.347	75.6
202.566	24.4
202.785	-26.79
203.004	26.45
203.223	135
203.442	69.46
203.661	26.45
203.879	44.88
204.098	122.71
204.317	-37.03
204.536	100.18
204.755	149.33
204.974	38.74
205.193	46.93
205.411	112.47
205.63	83.8
205.849	30.55
206.068	28.5
206.287	48.98
206.505	46.93
206.724	77.65
206.943	-16.55
207.162	98.13
207.381	53.08
207.599	-67.75
207.818	53.08
208.037	53.08
208.255	34.64
208.474	73.56
208.693	44.88
208.911	3.93
209.13	69.46
209.349	46.93
209.567	91.99
209.786	73.56
210.005	40.79
210.223	55.12
210.442	-22.7
210.661	30.55
210.879	46.93
211.098	5.97
211.316	63.32
211.535	155.47
211.753	-14.51
211.972	65.36
212.191	3.93
212.409	34.64
212.628	73.56
212.846	1.88
213.065	20.31
213.283	143.19
213.502	-32.94
213.72	42.84
213.938	57.17
214.157	26.45
214.375	130.9
214.594	46.93
214.812	87.89
215.031	81.75
215.249	-4.27
215.467	98.13
215.686	55.12
215.904	42.84
216.122	102.23
216.341	89.94
216.559	55.12
216.778	98.13
216.996	110.42
217.214	38.74
217.432	30.55
217.651	-30.89
217.869	59.22
218.087	8.02
218.306	94.04
218.524	65.36
218.742	57.17
218.96	77.65
219.179	75.6
219.397	30.55
219.615	169.81
219.833	96.08
220.051	5.97
220.27	71.51
220.488	81.75
220.706	24.4
220.924	-12.46
221.142	40.79
221.36	28.5
221.578	28.5
221.796	20.31
222.015	135
222.233	132.95
222.451	48.98
222.669	-10.41
222.887	126.8
223.105	96.08
223.323	-12.46
223.541	67.41
223.759	-4.27
223.977	63.32
224.195	85.84
224.413	79.7
224.631	71.51
224.849	44.88
225.067	87.89
225.285	8.02
225.503	-24.75
225.721	-24.75
225.939	-0.17
226.157	-47.27
226.375	173.91
226.592	69.46
226.81	14.17
227.028	40.79
227.246	163.67
227.464	94.04
227.682	36.69
227.9	32.6
228.117	38.74
228.335	85.84
228.553	8.02
228.771	85.84
228.989	71.51
229.206	94.04
229.424	-16.55
229.642	12.12
229.86	-2.22
230.077	44.88
230.295	-4.27
230.513	85.84
230.731	63.32
230.948	104.28
231.166	169.81
231.384	98.13
231.601	38.74
231.819	126.8
232.037	75.6
232.254	26.45
232.472	55.12
232.689	-39.08
232.907	8.02
233.125	53.08
233.342	63.32
233.56	-12.46
233.777	12.12
233.995	65.36
234.213	36.69
234.43	42.84
234.648	89.94
234.865	-16.55
235.083	81.75
235.3	55.12
235.518	75.6
235.735	106.32
235.953	44.88
236.17	22.36
236.388	57.17
236.605	-39.08
236.822	48.98
237.04	143.19
237.257	61.27
237.475	44.88
237.692	55.12
237.909	-28.84
238.127	28.5
238.344	59.22
238.562	59.22
238.779	26.45
238.996	-22.7
239.214	38.74
239.431	102.23
239.648	-20.65
239.865	30.55
240.083	69.46
240.3	65.36
240.517	36.69
240.735	89.94
240.952	55.12
241.169	57.17
241.386	53.08
241.603	16.21
241.821	-20.65
242.038	71.51
242.255	-6.31
242.472	44.88
242.689	24.4
242.907	124.76
243.124	85.84
243.341	40.79
243.558	26.45
243.775	28.5
243.992	-43.18
244.209	112.47
244.426	91.99
244.643	114.52
244.86	16.21
245.078	102.23
245.295	61.27
245.512	24.4
245.729	91.99
245.946	8.02
246.163	42.84
246.38	89.94
246.597	30.55
246.814	53.08
247.031	65.36
247.248	38.74
247.464	81.75
247.681	91.99
247.898	89.94
248.115	14.17
248.332	63.32
248.549	63.32
248.766	126.8
248.983	89.94
249.2	137.04
249.417	55.12
249.633	53.08
249.85	57.17
250.067	1.88
250.284	48.98
250.501	89.94
250.717	110.42
250.934	-12.46
251.151	44.88
251.368	51.03
251.585	51.03
251.801	40.79
252.018	-8.36
252.235	73.56
252.451	1.88
252.668	44.88
252.885	8.02
253.102	12.12
253.318	85.84
253.535	85.84
253.752	-2.22
253.968	-26.79
254.185	-0.17
254.401	53.08
254.618	94.04
254.835	55.12
255.051	110.42
255.268	48.98
255.484	55.12
255.701	24.4
255.917	36.69
256.134	36.69
256.351	98.13
256.567	16.21
256.784	22.36
257	63.32
257.217	61.27
257.433	30.55
257.65	32.6
257.866	137.04
258.082	-61.61
258.299	44.88
258.515	51.03
258.732	-28.84
258.948	79.7
259.165	67.41
259.381	-20.65
259.597	100.18
259.814	-20.65
260.03	94.04
260.246	85.84
260.463	55.12
260.679	112.47
260.895	65.36
261.112	14.17
261.328	63.32
261.544	-51.37
261.761	157.52
261.977	53.08
262.193	-10.41
262.409	104.28
262.626	110.42
262.842	85.84
263.058	40.79
263.274	175.95
263.49	98.13
263.707	46.93
263.923	73.56
264.139	-0.17
264.355	-0.17
264.571	79.7
264.787	46.93
265.004	30.55
265.22	104.28
265.436	30.55
265.652	63.32
265.868	-4.27
266.084	3.93
266.3	98.13
266.516	75.6
266.732	116.56
266.948	34.64
267.164	79.7
267.38	40.79
267.596	96.08
267.812	114.52
268.028	30.55
268.244	59.22
268.46	40.79
268.676	42.84
268.892	3.93
269.108	24.4
269.324	20.31
269.54	30.55
269.756	73.56
269.972	-20.65
270.188	85.84
270.403	-0.17
270.619	89.94
270.835	-4.27
271.051	40.79
271.267	22.36
271.483	32.6
271.698	57.17
271.914	5.97
272.13	57.17
272.346	53.08
272.562	48.98
272.777	83.8
272.993	-16.55
273.209	61.27
273.425	69.46
273.64	-37.03
273.856	120.66
274.072	63.32
274.287	36.69
274.503	126.8
274.719	26.45
274.934	53.08
275.15	10.07
275.366	12.12
275.581	18.26
275.797	24.4
276.012	40.79
276.228	34.64
276.444	67.41
276.659	53.08
276.875	57.17
277.09	-12.46
277.306	10.07
277.521	53.08
277.737	79.7
277.952	1.88
278.168	40.79
278.383	81.75
278.599	-20.65
278.814	28.5
279.03	18.26
279.245	94.04
279.461	20.31
279.676	120.66
279.892	36.69
280.107	-12.46
280.322	24.4
280.538	77.65
280.753	30.55
280.969	40.79
281.184	5.97
281.399	73.56
281.615	57.17
281.83	1.88
282.045	-6.31
282.26	44.88
282.476	59.22
282.691	102.23
282.906	40.79
283.122	61.27
283.337	87.89
283.552	102.23
283.767	46.93
283.983	36.69
284.198	55.12
284.413	46.93
284.628	30.55
284.843	55.12
285.058	40.79
285.274	169.81
285.489	-41.13
285.704	89.94
285.919	55.12
286.134	28.5
286.349	10.07
286.564	69.46
286.779	135
286.995	-0.17
287.21	-34.99
287.425	135
287.64	-8.36
287.855	-30.89
288.07	20.31
288.285	147.28
288.5	61.27
288.715	69.46
288.93	40.79
289.145	20.31
289.36	73.56
289.575	16.21
289.79	71.51
290.004	104.28
290.219	30.55
290.434	73.56
290.649	67.41
290.864	26.45
291.079	18.26
291.294	79.7
291.509	59.22
291.724	79.7
291.938	100.18
292.153	24.4
292.368	16.21
292.583	120.66
292.798	-26.79
293.012	40.79
293.227	40.79
293.442	12.12
293.657	149.33
293.871	96.08
294.086	48.98
294.301	22.36
294.516	57.17
294.73	83.8
294.945	20.31
295.16	44.88
295.374	22.36
295.589	110.42
295.804	98.13
296.018	51.03
296.233	114.52
296.447	110.42
296.662	-30.89
296.877	85.84
297.091	28.5
297.306	61.27
297.52	-2.22
297.735	71.51
297.949	12.12
298.164	46.93
298.378	20.31
298.593	18.26
298.807	77.65
299.022	98.13
299.236	114.52
299.451	-14.51
299.665	63.32
299.88	-0.17
300.094	71.51
300.309	75.6
300.523	61.27
300.737	63.32
300.952	83.8
301.166	48.98
301.381	55.12
301.595	14.17
301.809	114.52
302.024	8.02
302.238	61.27
302.452	98.13
302.667	20.31
302.881	57.17
303.095	61.27
303.309	40.79
303.524	22.36
303.738	-4.27
303.952	-8.36
304.166	94.04
304.381	8.02
304.595	104.28
304.809	55.12
305.023	-34.99
305.237	83.8
305.452	22.36
305.666	141.14
305.88	20.31
306.094	132.95
306.308	79.7
306.522	-26.79
306.736	79.7
306.95	102.23
307.164	55.12
307.379	8.02
307.593	63.32
307.807	75.6
308.021	116.56
308.235	122.71
308.449	-24.75
308.663	32.6
308.877	188.24
309.091	30.55
309.305	102.23
309.519	28.5
309.733	94.04
309.947	28.5
310.161	61.27
310.374	63.32
310.588	94.04
310.802	26.45
311.016	36.69
311.23	73.56
311.444	-47.27
311.658	28.5
311.872	159.57
312.085	180.05
312.299	59.22
312.513	75.6
312.727	26.45
312.941	20.31
313.154	44.88
313.368	40.79
313.582	91.99
313.796	89.94
314.009	32.6
314.223	69.46
314.437	89.94
314.651	57.17
314.864	30.55
315.078	46.93
315.292	44.88
315.505	51.03
315.719	79.7
315.933	106.32
316.146	63.32
316.36	-10.41
316.573	77.65
316.787	71.51
317.001	30.55
317.214	-26.79
317.428	110.42
317.641	16.21
317.855	87.89
318.068	-14.51
318.282	55.12
318.495	122.71
318.709	77.65
318.922	5.97
319.136	79.7
319.349	94.04
319.563	-0.17
319.776	112.47
319.99	-16.55
320.203	16.21
320.417	32.6
320.63	85.84
320.843	188.24
321.057	32.6
321.27	53.08
321.483	69.46
321.697	200.53
321.91	139.09
322.124	112.47
322.337	20.31
322.55	38.74
322.763	26.45
322.977	14.17
323.19	-4.27
323.403	69.46
323.617	87.89
323.83	69.46
324.043	42.84
324.256	-12.46
324.469	89.94
324.683	61.27
324.896	40.79
325.109	61.27
325.322	-18.6
325.535	51.03
325.748	194.39
325.962	24.4
326.175	30.55
326.388	165.71
326.601	130.9
326.814	14.17
327.027	55.12
327.24	151.38
327.453	-32.94
327.666	65.36
327.879	87.89
328.092	89.94
328.305	106.32
328.518	32.6
328.731	59.22
328.944	73.56
329.157	36.69
329.37	175.95
329.583	159.57
329.796	145.24
330.009	48.98
330.222	161.62
330.435	53.08
330.648	65.36
330.861	87.89
331.073	96.08
331.286	139.09
331.499	77.65
331.712	57.17
331.925	83.8
332.138	71.51
332.35	159.57
332.563	46.93
332.776	87.89
332.989	22.36
333.202	161.62
333.414	30.55
333.627	137.04
333.84	94.04
334.053	36.69
334.265	63.32
334.478	16.21
334.691	65.36
334.903	12.12
335.116	53.08
335.329	48.98
335.541	106.32
335.754	161.62
335.966	112.47
336.179	44.88
336.392	59.22
336.604	89.94
336.817	30.55
337.029	55.12
337.242	26.45
337.454	130.9
337.667	26.45
337.88	165.71
338.092	48.98
338.305	85.84
338.517	16.21
338.729	130.9
338.942	108.37
339.154	26.45
339.367	-24.75
339.579	120.66
339.792	-24.75
340.004	85.84
340.217	89.94
340.429	75.6
340.641	71.51
340.854	36.69
341.066	44.88
341.278	110.42
341.491	61.27
341.703	16.21
341.915	3.93
342.128	128.85
342.34	69.46
342.552	42.84
342.764	106.32
342.977	71.51
343.189	48.98
343.401	20.31
343.613	20.31
343.826	-26.79
344.038	14.17
344.25	85.84
344.462	22.36
344.674	18.26
344.886	16.21
345.099	55.12
345.311	38.74
345.523	12.12
345.735	-22.7
345.947	122.71
346.159	102.23
346.371	32.6
346.583	28.5
346.795	122.71
347.007	28.5
347.219	59.22
347.431	38.74
347.643	94.04
347.855	69.46
348.067	96.08
348.279	28.5
348.491	30.55
348.703	44.88
348.915	124.76
349.127	34.64
349.339	63.32
349.551	40.79
349.763	77.65
349.975	44.88
350.187	30.55
350.399	132.95
350.61	63.32
350.822	65.36
351.034	81.75
351.246	85.84
351.458	151.38
351.669	77.65
351.881	65.36
352.093	61.27
352.305	87.89
352.517	73.56
352.728	46.93
352.94	116.56
353.152	42.84
353.363	36.69
353.575	46.93
353.787	77.65
353.999	59.22
354.21	110.42
354.422	40.79
354.633	83.8
354.845	63.32
355.057	-0.17
355.268	94.04
355.48	110.42
355.692	24.4
355.903	42.84
356.115	-8.36
356.326	24.4
356.538	89.94
356.749	126.8
356.961	182.1
357.172	36.69
357.384	24.4
357.595	184.15
357.807	104.28
358.018	65.36
358.23	63.32
358.441	65.36
358.653	143.19
358.864	87.89
359.075	40.79
359.287	55.12
359.498	151.38
359.709	104.28
359.921	46.93
360.132	79.7
360.344	149.33
360.555	67.41
360.766	24.4
360.977	10.07
361.189	59.22
361.4	118.61
361.611	87.89
361.823	75.6
362.034	91.99
362.245	-32.94
362.456	48.98
362.667	83.8
362.879	38.74
363.09	55.12
363.301	91.99
363.512	34.64
363.723	48.98
363.935	10.07
364.146	65.36
364.357	24.4
364.568	91.99
364.779	18.26
364.99	77.65
365.201	57.17
365.412	122.71
365.623	118.61
365.834	69.46
366.045	75.6
366.256	128.85
366.467	85.84
366.678	89.94
366.889	-4.27
367.1	34.64
367.311	124.76
367.522	65.36
367.733	67.41
367.944	63.32
368.155	24.4
368.366	110.42
368.577	75.6
368.788	85.84
368.999	-8.36
369.209	91.99
369.42	116.56
369.631	77.65
369.842	22.36
370.053	81.75
370.264	116.56
370.474	-57.51
370.685	-2.22
370.896	46.93
371.107	132.95
371.317	147.28
371.528	18.26
371.739	155.47
371.95	122.71
372.16	167.76
372.371	44.88
372.582	69.46
372.792	112.47
373.003	65.36
373.214	75.6
373.424	104.28
373.635	22.36
373.846	89.94
374.056	106.32
374.267	79.7
374.477	77.65
374.688	53.08
374.898	79.7
375.109	69.46
375.319	91.99
375.53	63.32
375.74	34.64
375.951	71.51
376.161	120.66
376.372	135
376.582	18.26
376.793	112.47
377.003	-0.17
377.214	96.08
377.424	28.5
377.635	79.7
377.845	79.7
378.055	106.32
378.266	-34.99
378.476	-20.65
378.686	87.89
378.897	175.95
379.107	100.18
379.317	106.32
379.528	10.07
379.738	59.22
379.948	61.27
380.158	124.76
380.369	108.37
380.579	63.32
380.789	26.45
380.999	73.56
381.21	77.65
381.42	192.34
381.63	91.99
381.84	159.57
382.05	151.38
382.261	71.51
382.471	55.12
382.681	59.22
382.891	55.12
383.101	126.8
383.311	87.89
383.521	44.88
383.731	75.6
383.941	178
384.151	77.65
384.361	40.79
384.571	48.98
384.781	71.51
384.991	106.32
385.201	208.72
385.411	87.89
385.621	75.6
385.831	132.95
386.041	110.42
386.251	71.51
386.461	143.19
386.671	81.75
386.881	145.24
387.091	102.23
387.301	104.28
387.511	128.85
387.72	91.99
387.93	147.28
388.14	3.93
388.35	87.89
388.56	173.91
388.769	155.47
388.979	96.08
389.189	36.69
389.399	91.99
389.609	143.19
389.818	87.89
390.028	5.97
390.238	89.94
390.447	40.79
390.657	81.75
390.867	75.6
391.076	14.17
391.286	71.51
391.496	69.46
391.705	98.13
391.915	122.71
392.125	132.95
392.334	153.43
392.544	38.74
392.753	83.8
392.963	28.5
393.172	153.43
393.382	77.65
393.591	126.8
393.801	102.23
394.01	120.66
394.22	118.61
394.429	75.6
394.639	145.24
394.848	102.23
395.058	110.42
395.267	94.04
395.477	102.23
395.686	175.95
395.895	190.29
396.105	163.67
396.314	124.76
396.524	85.84
396.733	110.42
396.942	143.19
397.152	159.57
397.361	214.87
397.57	63.32
397.78	171.86
397.989	126.8
398.198	175.95
398.407	110.42
398.617	112.47
398.826	143.19
399.035	112.47
399.244	182.1
399.453	130.9
399.663	171.86
399.872	89.94
400.081	87.89
400.29	216.91
400.499	96.08
400.708	182.1
400.917	204.63
401.127	106.32
401.336	149.33
401.545	208.72
401.754	225.11
401.963	208.72
402.172	79.7
402.381	180.05
402.59	143.19
402.799	151.38
403.008	126.8
403.217	171.86
403.426	149.33
403.635	169.81
403.844	212.82
404.053	116.56
404.262	100.18
404.471	237.39
404.68	175.95
404.888	186.19
405.097	149.33
405.306	190.29
405.515	206.67
405.724	157.52
405.933	282.45
406.142	216.91
406.35	304.98
406.559	175.95
406.768	266.07
406.977	337.74
407.185	216.91
407.394	229.2
407.603	239.44
407.812	206.67
408.02	380.75
408.229	280.4
408.438	278.35
408.646	274.26
408.855	309.07
409.064	343.89
409.272	329.55
409.481	425.81
409.69	298.83
409.898	298.83
410.107	390.99
410.315	317.26
410.524	411.47
410.733	470.86
410.941	360.27
411.15	405.33
411.358	440.14
411.567	526.16
411.775	462.67
411.984	479.05
412.192	589.64
412.401	542.54
412.609	556.88
412.818	667.47
413.026	597.84
413.234	565.07
413.443	694.09
413.651	620.36
413.86	636.75
414.068	769.87
414.276	741.19
414.485	745.29
414.693	794.44
414.901	868.17
415.11	864.07
415.318	849.74
415.526	943.94
415.734	1019.72
415.943	905.03
416.151	1034.05
416.359	1025.86
416.567	1081.16
416.776	1062.73
416.984	1314.63
417.192	1339.2
417.4	1158.98
417.608	1140.55
417.817	1314.63
418.025	1261.38
418.233	1398.59
418.441	1308.48
418.649	1445.7
418.857	1597.24
419.065	1525.57
419.273	1615.68
419.481	1681.21
419.689	1777.47
419.897	1789.75
420.105	1838.91
420.313	1847.1
420.521	1959.74
420.729	2025.27
420.937	2031.41
421.145	2094.9
421.353	2299.7
421.561	2414.38
421.769	2420.53
421.977	2506.54
422.185	2522.93
422.393	2688.81
422.601	2717.48
422.809	2694.96
423.017	2895.66
423.224	2969.38
423.432	2998.06
423.64	3041.06
423.848	3303.2
424.056	3274.53
424.263	3469.09
424.471	3487.52
424.679	3526.43
424.887	3733.28
425.094	3839.77
425.302	3839.77
425.51	3925.79
425.718	4124.44
425.925	4134.68
426.133	4206.36
426.341	4437.78
426.548	4726.54
426.756	4773.64
426.964	4796.17
427.171	5089.03
427.379	5383.94
427.586	5445.38
427.794	5467.91
428.001	5781.25
428.209	6137.59
428.417	5926.65
428.624	6340.34
428.832	6319.86
429.039	6373.11
429.247	6317.81
429.454	7034.6
429.662	7229.16
429.869	6917.87
430.076	7216.87
430.284	7083.75
430.491	7378.66
430.699	7913.18
430.906	7806.69
431.114	8052.44
431.321	8197.85
431.528	8494.8
431.736	9189.07
431.943	9416.39
432.15	9182.92
432.358	9103.05
432.565	9635.52
432.772	9813.7
432.979	10180.28
433.187	10354.36
433.394	10362.55
433.601	11284.14
433.808	11095.72
434.016	11196.07
434.223	11624.1
434.43	12258.97
434.637	12119.71
434.844	12752.53
435.052	13098.64
435.259	12934.8
435.466	12938.9
435.673	13029.01
435.88	13891.2
436.087	14528.12
436.294	14653.05
436.501	14337.66
436.708	14474.87
436.915	15181.42
437.122	15734.37
437.329	15761
437.537	16281.18
437.743	16549.46
437.95	16438.87
438.157	17114.7
438.364	17593.93
438.571	17634.89
438.778	17655.37
438.985	19582.51
439.192	18607.67
439.399	19338.8
439.606	18826.81
439.813	19836.45
440.02	21222.93
440.227	20801.05
440.433	20577.82
440.64	21218.83
440.847	21253.65
441.054	21663.24
441.261	23139.83
441.467	22748.67
441.674	23432.69
441.881	23977.45
442.088	24276.45
442.294	23776.75
442.501	24380.9
442.708	24884.7
442.914	26002.89
443.121	27067.83
443.328	26187.21
443.534	28222.89
443.741	27110.84
443.948	26860.99
444.154	28837.28
444.361	29095.32
444.568	28986.78
444.774	29224.34
444.981	29466
445.187	30088.59
445.394	31749.49
445.6	31354.23
445.807	34143.56
446.013	32935.26
446.22	32998.75
446.426	34190.67
446.633	34657.6
446.839	35966.26
447.046	34618.69
447.252	36427.05
447.459	36408.62
447.665	36465.96
447.871	37807.38
448.078	39466.24
448.284	38016.27
448.491	39128.32
448.697	40289.52
448.903	41153.76
449.11	41125.09
449.316	40596.71
449.522	41030.88
449.728	42235.09
449.935	42396.88
450.141	42443.98
450.347	43707.58
450.553	42323.15
450.76	43070.66
450.966	43859.13
451.172	43547.84
451.378	45124.77
451.584	44123.32
451.791	45477.02
451.997	44829.87
452.203	45786.27
452.409	46007.45
452.615	45313.19
452.821	44160.18
453.027	43027.65
453.233	45464.74
453.44	44299.44
453.646	44631.21
453.852	44436.66
454.058	45632.67
454.264	44164.28
454.47	45151.4
454.676	43961.53
454.882	45167.78
455.088	41358.56
455.294	42018
455.5	42706.12
455.705	43087.04
455.911	41641.18
456.117	40467.69
456.323	40320.24
456.529	38167.82
456.735	39736.57
456.941	38647.05
457.147	38364.43
457.352	36984.1
457.558	36660.52
457.764	36611.37
457.97	35839.28
458.176	35321.15
458.381	35503.42
458.587	33273.18
458.793	33776.98
458.999	31968.62
459.204	34096.46
459.41	33082.72
459.616	30985.6
459.821	31321.46
460.027	30721.41
460.233	30238.09
460.438	28579.23
460.644	29171.1
460.85	27708.85
461.055	27448.75
461.261	27164.09
461.466	25353.68
461.672	24829.4
461.878	26236.36
462.083	24540.64
462.289	23916.01
462.494	23899.62
462.7	22576.64
462.905	21812.74
463.111	22937.08
463.316	23025.14
463.522	22584.83
463.727	22470.14
463.932	22660.6
464.138	22132.23
464.343	22191.62
464.549	21628.43
464.754	22400.51
464.959	22162.95
465.165	22101.51
465.37	21083.67
465.575	20344.35
465.781	21429.77
465.986	21284.37
466.191	21030.42
