Data from USB4F104151__59__13-05-41-561.txt Node

Date: Fri Mar 14 13:05:41 EDT 2025
User: louis
Spectrometer: USB4F10415
Trigger mode: 4
Integration Time (sec): 4.000000E-2
Scans to average: 1
Electric dark correction enabled: true
Nonlinearity correction enabled: false
Boxcar width: 0
XAxis mode: Wavelengths
Number of Pixels in Spectrum: 3648
>>>>>Begin Spectral Data<<<<<
178.204	-205.14
178.424	-205.14
178.644	-205.14
178.864	-145.75
179.084	-90.45
179.304	-90.45
179.524	16.04
179.744	-49.49
179.964	75.43
180.184	-16.73
180.404	16.04
180.624	13.99
180.844	-0.34
181.064	-33.11
181.283	20.14
181.503	38.57
181.723	9.9
181.943	-53.59
182.163	134.82
182.383	-26.96
182.602	26.28
182.822	81.58
183.042	18.09
183.262	38.57
183.482	65.19
183.701	-8.53
183.921	71.34
184.141	-0.34
184.361	30.38
184.58	63.15
184.8	-14.68
185.02	73.39
185.239	83.63
185.459	20.14
185.679	-10.58
185.898	-8.53
186.118	44.71
186.338	83.63
186.557	1.71
186.777	24.23
186.997	89.77
187.216	-37.2
187.436	106.15
187.655	13.99
187.875	48.81
188.095	24.23
188.314	79.53
188.534	57
188.753	75.43
188.973	44.71
189.192	102.06
189.412	16.04
189.631	52.91
189.851	65.19
190.07	118.44
190.29	-18.77
190.509	-24.92
190.729	24.23
190.948	30.38
191.168	200.36
191.387	48.81
191.607	59.05
191.826	5.8
192.045	-53.59
192.265	50.86
192.484	52.91
192.704	104.11
192.923	36.52
193.142	69.29
193.362	30.38
193.581	20.14
193.8	48.81
194.02	102.06
194.239	-29.01
194.458	75.43
194.678	20.14
194.897	1.71
195.116	85.67
195.335	11.95
195.555	44.71
195.774	54.95
195.993	77.48
196.212	61.1
196.432	18.09
196.651	34.47
196.87	-0.34
197.089	157.35
197.308	5.8
197.528	65.19
197.747	16.04
197.966	-74.07
198.185	97.96
198.404	-53.59
198.623	50.86
198.842	54.95
199.062	65.19
199.281	118.44
199.5	16.04
199.719	71.34
199.938	59.05
200.157	61.1
200.376	22.19
200.595	159.4
200.814	52.91
201.033	-78.16
201.252	95.91
201.471	67.24
201.69	52.91
201.909	93.87
202.128	61.1
202.347	48.81
202.566	85.67
202.785	93.87
203.004	-4.44
203.223	28.33
203.442	71.34
203.661	-61.78
203.879	54.95
204.098	97.96
204.317	22.19
204.536	79.53
204.755	16.04
204.974	126.63
205.193	83.63
205.411	186.02
205.63	100.01
205.849	57
206.068	-16.73
206.287	11.95
206.505	89.77
206.724	-53.59
206.943	5.8
207.162	-102.74
207.381	-2.39
207.599	28.33
207.818	50.86
208.037	22.19
208.255	24.23
208.474	11.95
208.693	46.76
208.911	48.81
209.13	61.1
209.349	73.39
209.567	61.1
209.786	192.17
210.005	9.9
210.223	5.8
210.442	30.38
210.661	46.76
210.879	-12.63
211.098	28.33
211.316	69.29
211.535	93.87
211.753	71.34
211.972	36.52
212.191	26.28
212.409	28.33
212.628	22.19
212.846	-98.64
213.065	22.19
213.283	61.1
213.502	93.87
213.72	-33.11
213.938	54.95
214.157	52.91
214.375	42.67
214.594	9.9
214.812	97.96
215.031	-55.64
215.249	-74.07
215.467	3.75
215.686	67.24
215.904	28.33
216.122	24.23
216.341	87.72
216.559	26.28
216.778	79.53
216.996	87.72
217.214	32.43
217.432	16.04
217.651	26.28
217.869	46.76
218.087	34.47
218.306	-31.06
218.524	44.71
218.742	28.33
218.96	95.91
219.179	-8.53
219.397	65.19
219.615	118.44
219.833	30.38
220.051	20.14
220.27	61.1
220.488	28.33
220.706	20.14
220.924	-18.77
221.142	73.39
221.36	7.85
221.578	22.19
221.796	28.33
222.015	69.29
222.233	16.04
222.451	145.06
222.669	5.8
222.887	128.68
223.105	-12.63
223.323	52.91
223.541	-26.96
223.759	79.53
223.977	38.57
224.195	32.43
224.413	85.67
224.631	52.91
224.849	65.19
225.067	102.06
225.285	63.15
225.503	61.1
225.721	-37.2
225.939	20.14
226.157	61.1
226.375	147.11
226.592	36.52
226.81	-20.82
227.028	87.72
227.246	157.35
227.464	-0.34
227.682	97.96
227.9	89.77
228.117	54.95
228.335	42.67
228.553	124.58
228.771	69.29
228.989	-12.63
229.206	114.34
229.424	-0.34
229.642	83.63
229.86	-8.53
230.077	83.63
230.295	61.1
230.513	42.67
230.731	89.77
230.948	95.91
231.166	93.87
231.384	18.09
231.601	7.85
231.819	163.5
232.037	32.43
232.254	32.43
232.472	7.85
232.689	42.67
232.907	93.87
233.125	-29.01
233.342	-33.11
233.56	-29.01
233.777	-6.49
233.995	67.24
234.213	75.43
234.43	-45.4
234.648	34.47
234.865	52.91
235.083	48.81
235.3	100.01
235.518	81.58
235.735	97.96
235.953	155.3
236.17	-12.63
236.388	36.52
236.605	44.71
236.822	89.77
237.04	167.59
237.257	59.05
237.475	46.76
237.692	85.67
237.909	97.96
238.127	3.75
238.344	61.1
238.562	97.96
238.779	40.62
238.996	-88.4
239.214	-49.49
239.431	87.72
239.648	28.33
239.865	52.91
240.083	61.1
240.3	-14.68
240.517	34.47
240.735	-4.44
240.952	87.72
241.169	75.43
241.386	1.71
241.603	-45.4
241.821	77.48
242.038	73.39
242.255	57
242.472	42.67
242.689	36.52
242.907	28.33
243.124	126.63
243.341	34.47
243.558	40.62
243.775	3.75
243.992	3.75
244.209	46.76
244.426	89.77
244.643	30.38
244.86	-26.96
245.078	18.09
245.295	52.91
245.512	-10.58
245.729	13.99
245.946	24.23
246.163	138.92
246.38	89.77
246.597	52.91
246.814	-29.01
247.031	26.28
247.248	34.47
247.464	112.3
247.681	13.99
247.898	57
248.115	32.43
248.332	-6.49
248.549	85.67
248.766	136.87
248.983	46.76
249.2	26.28
249.417	83.63
249.633	-12.63
249.85	93.87
250.067	46.76
250.284	97.96
250.501	77.48
250.717	97.96
250.934	1.71
251.151	9.9
251.368	69.29
251.585	69.29
251.801	73.39
252.018	-29.01
252.235	97.96
252.451	42.67
252.668	42.67
252.885	81.58
253.102	42.67
253.318	20.14
253.535	-8.53
253.752	48.81
253.968	11.95
254.185	-2.39
254.401	5.8
254.618	61.1
254.835	-20.82
255.051	61.1
255.268	54.95
255.484	5.8
255.701	22.19
255.917	24.23
256.134	54.95
256.351	46.76
256.567	28.33
256.784	28.33
257	-29.01
257.217	26.28
257.433	1.71
257.65	48.81
257.866	22.19
258.082	-49.49
258.299	-4.44
258.515	93.87
258.732	32.43
258.948	-14.68
259.165	-0.34
259.381	73.39
259.597	46.76
259.814	32.43
260.03	89.77
260.246	48.81
260.463	110.25
260.679	89.77
260.895	-108.88
261.112	44.71
261.328	18.09
261.544	44.71
261.761	73.39
261.977	9.9
262.193	-29.01
262.409	93.87
262.626	112.3
262.842	-61.78
263.058	69.29
263.274	61.1
263.49	11.95
263.707	38.57
263.923	57
264.139	3.75
264.355	28.33
264.571	77.48
264.787	5.8
265.004	77.48
265.22	-76.12
265.436	7.85
265.652	57
265.868	50.86
266.084	-0.34
266.3	65.19
266.516	44.71
266.732	1.71
266.948	24.23
267.164	63.15
267.38	77.48
267.596	93.87
267.812	134.82
268.028	44.71
268.244	-31.06
268.46	77.48
268.676	-4.44
268.892	48.81
269.108	-14.68
269.324	54.95
269.54	1.71
269.756	73.39
269.972	-35.16
270.188	20.14
270.403	-22.87
270.619	-16.73
270.835	32.43
271.051	48.81
271.267	-8.53
271.483	46.76
271.698	-4.44
271.914	69.29
272.13	44.71
272.346	108.2
272.562	100.01
272.777	46.76
272.993	54.95
273.209	28.33
273.425	93.87
273.64	-2.39
273.856	-6.49
274.072	28.33
274.287	34.47
274.503	34.47
274.719	81.58
274.934	48.81
275.15	-8.53
275.366	26.28
275.581	54.95
275.797	38.57
276.012	57
276.228	30.38
276.444	81.58
276.659	-0.34
276.875	40.62
277.09	81.58
277.306	40.62
277.521	140.97
277.737	81.58
277.952	112.3
278.168	46.76
278.383	22.19
278.599	77.48
278.814	57
279.03	-24.92
279.245	106.15
279.461	85.67
279.676	106.15
279.892	44.71
280.107	-53.59
280.322	24.23
280.538	114.34
280.753	30.38
280.969	18.09
281.184	28.33
281.399	102.06
281.615	69.29
281.83	85.67
282.045	-49.49
282.26	-2.39
282.476	91.82
282.691	102.06
282.906	28.33
283.122	18.09
283.337	16.04
283.552	52.91
283.767	9.9
283.983	108.2
284.198	32.43
284.413	93.87
284.628	3.75
284.843	143.02
285.058	77.48
285.274	89.77
285.489	-29.01
285.704	52.91
285.919	-12.63
286.134	61.1
286.349	42.67
286.564	-37.2
286.779	71.34
286.995	91.82
287.21	-10.58
287.425	52.91
287.64	-4.44
287.855	81.58
288.07	-4.44
288.285	77.48
288.5	100.01
288.715	20.14
288.93	69.29
289.145	73.39
289.36	83.63
289.575	52.91
289.79	50.86
290.004	32.43
290.219	38.57
290.434	20.14
290.649	3.75
290.864	52.91
291.079	34.47
291.294	102.06
291.509	38.57
291.724	-45.4
291.938	-51.54
292.153	87.72
292.368	36.52
292.583	65.19
292.798	102.06
293.012	48.81
293.227	83.63
293.442	-8.53
293.657	79.53
293.871	102.06
294.086	95.91
294.301	81.58
294.516	85.67
294.73	61.1
294.945	-4.44
295.16	7.85
295.374	61.1
295.589	65.19
295.804	-26.96
296.018	24.23
296.233	124.58
296.447	89.77
296.662	52.91
296.877	136.87
297.091	48.81
297.306	57
297.52	81.58
297.735	46.76
297.949	69.29
298.164	36.52
298.378	108.2
298.593	-18.77
298.807	22.19
299.022	24.23
299.236	77.48
299.451	67.24
299.665	38.57
299.88	48.81
300.094	24.23
300.309	110.25
300.523	18.09
300.737	13.99
300.952	71.34
301.166	130.73
301.381	-31.06
301.595	7.85
301.809	18.09
302.024	36.52
302.238	-2.39
302.452	57
302.667	61.1
302.881	73.39
303.095	83.63
303.309	59.05
303.524	-20.82
303.738	48.81
303.952	-18.77
304.166	50.86
304.381	-4.44
304.595	42.67
304.809	52.91
305.023	63.15
305.237	67.24
305.452	59.05
305.666	108.2
305.88	102.06
306.094	30.38
306.308	18.09
306.522	16.04
306.736	79.53
306.95	52.91
307.164	36.52
307.379	-29.01
307.593	100.01
307.807	81.58
308.021	52.91
308.235	77.48
308.449	46.76
308.663	40.62
308.877	69.29
309.091	73.39
309.305	38.57
309.519	-33.11
309.733	116.39
309.947	-37.2
310.161	83.63
310.374	85.67
310.588	110.25
310.802	85.67
311.016	93.87
311.23	7.85
311.444	-0.34
311.658	46.76
311.872	38.57
312.085	91.82
312.299	110.25
312.513	67.24
312.727	147.11
312.941	18.09
313.154	79.53
313.368	5.8
313.582	48.81
313.796	52.91
314.009	28.33
314.223	167.59
314.437	44.71
314.651	69.29
314.864	67.24
315.078	-16.73
315.292	36.52
315.505	22.19
315.719	132.78
315.933	61.1
316.146	63.15
316.36	-29.01
316.573	65.19
316.787	46.76
317.001	95.91
317.214	32.43
317.428	30.38
317.641	-10.58
317.855	-10.58
318.068	59.05
318.282	77.48
318.495	16.04
318.709	-4.44
318.922	44.71
319.136	73.39
319.349	138.92
319.563	46.76
319.776	22.19
319.99	16.04
320.203	61.1
320.417	48.81
320.63	44.71
320.843	116.39
321.057	42.67
321.27	71.34
321.483	118.44
321.697	143.02
321.91	7.85
322.124	91.82
322.337	63.15
322.55	65.19
322.763	77.48
322.977	-18.77
323.19	18.09
323.403	18.09
323.617	102.06
323.83	114.34
324.043	57
324.256	63.15
324.469	44.71
324.683	50.86
324.896	-37.2
325.109	61.1
325.322	34.47
325.535	81.58
325.748	95.91
325.962	54.95
326.175	22.19
326.388	63.15
326.601	118.44
326.814	11.95
327.027	87.72
327.24	157.35
327.453	-0.34
327.666	81.58
327.879	73.39
328.092	42.67
328.305	50.86
328.518	11.95
328.731	65.19
328.944	106.15
329.157	22.19
329.37	-0.34
329.583	122.54
329.796	136.87
330.009	3.75
330.222	118.44
330.435	44.71
330.648	48.81
330.861	81.58
331.073	13.99
331.286	97.96
331.499	71.34
331.712	20.14
331.925	-20.82
332.138	71.34
332.35	118.44
332.563	-16.73
332.776	106.15
332.989	-49.49
333.202	52.91
333.414	110.25
333.627	89.77
333.84	40.62
334.053	38.57
334.265	-88.4
334.478	50.86
334.691	46.76
334.903	54.95
335.116	-16.73
335.329	20.14
335.541	100.01
335.754	102.06
335.966	85.67
336.179	57
336.392	100.01
336.604	42.67
336.817	28.33
337.029	63.15
337.242	52.91
337.454	44.71
337.667	73.39
337.88	134.82
338.092	138.92
338.305	104.11
338.517	22.19
338.729	36.52
338.942	61.1
339.154	40.62
339.367	87.72
339.579	48.81
339.792	89.77
340.004	120.49
340.217	30.38
340.429	110.25
340.641	36.52
340.854	24.23
341.066	-35.16
341.278	122.54
341.491	77.48
341.703	3.75
341.915	79.53
342.128	42.67
342.34	128.68
342.552	40.62
342.764	112.3
342.977	44.71
343.189	50.86
343.401	118.44
343.613	38.57
343.826	46.76
344.038	54.95
344.25	18.09
344.462	24.23
344.674	46.76
344.886	11.95
345.099	54.95
345.311	36.52
345.523	110.25
345.735	50.86
345.947	106.15
346.159	46.76
346.371	22.19
346.583	5.8
346.795	87.72
347.007	1.71
347.219	67.24
347.431	36.52
347.643	87.72
347.855	-10.58
348.067	77.48
348.279	79.53
348.491	67.24
348.703	-33.11
348.915	38.57
349.127	-49.49
349.339	104.11
349.551	32.43
349.763	93.87
349.975	77.48
350.187	73.39
350.399	52.91
350.61	91.82
350.822	-4.44
351.034	65.19
351.246	28.33
351.458	9.9
351.669	81.58
351.881	122.54
352.093	87.72
352.305	136.87
352.517	97.96
352.728	91.82
352.94	75.43
353.152	-0.34
353.363	28.33
353.575	24.23
353.787	85.67
353.999	116.39
354.21	104.11
354.422	42.67
354.633	40.62
354.845	38.57
355.057	57
355.268	89.77
355.48	175.78
355.692	93.87
355.903	71.34
356.115	13.99
356.326	9.9
356.538	91.82
356.749	136.87
356.961	136.87
357.172	61.1
357.384	63.15
357.595	116.39
357.807	50.86
358.018	5.8
358.23	87.72
358.441	100.01
358.653	40.62
358.864	73.39
359.075	40.62
359.287	153.26
359.498	112.3
359.709	-10.58
359.921	71.34
360.132	61.1
360.344	44.71
360.555	5.8
360.766	73.39
360.977	24.23
361.189	102.06
361.4	28.33
361.611	85.67
361.823	100.01
362.034	48.81
362.245	50.86
362.456	5.8
362.667	52.91
362.879	52.91
363.09	83.63
363.301	118.44
363.512	-2.39
363.723	26.28
363.935	61.1
364.146	16.04
364.357	-12.63
364.568	110.25
364.779	-33.11
364.99	93.87
365.201	-16.73
365.412	9.9
365.623	-35.16
365.834	87.72
366.045	48.81
366.256	95.91
366.467	40.62
366.678	77.48
366.889	67.24
367.1	116.39
367.311	95.91
367.522	108.2
367.733	54.95
367.944	102.06
368.155	11.95
368.366	50.86
368.577	63.15
368.788	81.58
368.999	-0.34
369.209	108.2
369.42	145.06
369.631	143.02
369.842	151.21
370.053	38.57
370.264	93.87
370.474	89.77
370.685	97.96
370.896	-18.77
371.107	114.34
371.317	163.5
371.528	59.05
371.739	100.01
371.95	67.24
372.16	106.15
372.371	1.71
372.582	85.67
372.792	97.96
373.003	71.34
373.214	110.25
373.424	1.71
373.635	3.75
373.846	71.34
374.056	3.75
374.267	24.23
374.477	59.05
374.688	-29.01
374.898	77.48
375.109	48.81
375.319	126.63
375.53	79.53
375.74	71.34
375.951	52.91
376.161	61.1
376.372	118.44
376.582	30.38
376.793	52.91
377.003	69.29
377.214	120.49
377.424	57
377.635	77.48
377.845	20.14
378.055	79.53
378.266	95.91
378.476	46.76
378.686	79.53
378.897	71.34
379.107	85.67
379.317	36.52
379.528	77.48
379.738	91.82
379.948	71.34
380.158	30.38
380.369	22.19
380.579	63.15
380.789	50.86
380.999	104.11
381.21	114.34
381.42	130.73
381.63	102.06
381.84	44.71
382.05	95.91
382.261	104.11
382.471	151.21
382.681	-10.58
382.891	110.25
383.101	36.52
383.311	9.9
383.521	71.34
383.731	77.48
383.941	75.43
384.151	102.06
384.361	73.39
384.571	77.48
384.781	20.14
384.991	120.49
385.201	136.87
385.411	69.29
385.621	83.63
385.831	57
386.041	67.24
386.251	69.29
386.461	108.2
386.671	112.3
386.881	147.11
387.091	20.14
387.301	89.77
387.511	22.19
387.72	167.59
387.93	87.72
388.14	69.29
388.35	30.38
388.56	181.93
388.769	79.53
388.979	104.11
389.189	44.71
389.399	65.19
389.609	149.16
389.818	73.39
390.028	145.06
390.238	140.97
390.447	-14.68
390.657	85.67
390.867	13.99
391.076	63.15
391.286	13.99
391.496	54.95
391.705	28.33
391.915	124.58
392.125	128.68
392.334	-18.77
392.544	124.58
392.753	20.14
392.963	50.86
393.172	116.39
393.382	63.15
393.591	95.91
393.801	9.9
394.01	194.22
394.22	149.16
394.429	102.06
394.639	110.25
394.848	147.11
395.058	102.06
395.267	77.48
395.477	97.96
395.686	124.58
395.895	169.64
396.105	224.94
396.314	171.69
396.524	59.05
396.733	161.45
396.942	188.07
397.152	89.77
397.361	54.95
397.57	118.44
397.78	91.82
397.989	177.83
398.198	169.64
398.407	167.59
398.617	77.48
398.826	112.3
399.035	97.96
399.244	151.21
399.453	124.58
399.663	151.21
399.872	126.63
400.081	67.24
400.29	212.65
400.499	138.92
400.708	186.02
400.917	110.25
401.127	159.4
401.336	128.68
401.545	126.63
401.754	226.98
401.963	151.21
402.172	134.82
402.381	128.68
402.59	120.49
402.799	206.5
403.008	226.98
403.217	167.59
403.426	104.11
403.635	122.54
403.844	114.34
404.053	151.21
404.262	95.91
404.471	210.6
404.68	188.07
404.888	169.64
405.097	167.59
405.306	202.41
405.515	233.13
405.724	196.26
405.933	208.55
406.142	155.3
406.35	286.37
406.559	200.36
406.768	210.6
406.977	325.29
407.185	243.37
407.394	233.13
407.603	132.78
407.812	188.07
408.02	253.61
408.229	325.29
408.438	370.34
408.646	208.55
408.855	276.13
409.064	353.96
409.272	353.96
409.481	421.54
409.69	290.47
409.898	300.71
410.107	415.4
410.315	358.05
410.524	331.43
410.733	439.97
410.941	448.16
411.15	425.64
411.358	433.83
411.567	519.84
411.775	460.45
411.984	456.36
412.192	593.57
412.401	474.79
412.609	630.43
412.818	525.99
413.026	609.95
413.234	530.08
413.443	636.58
413.651	530.08
413.86	550.56
414.068	716.45
414.276	736.93
414.485	648.86
414.693	810.65
414.901	818.85
415.11	847.52
415.318	861.85
415.526	810.65
415.734	890.53
415.943	902.81
416.151	876.19
416.359	949.92
416.567	982.68
416.776	962.2
416.984	1068.7
417.192	1103.51
417.4	1132.19
417.608	1162.9
417.817	1203.86
418.025	1234.58
418.233	1351.32
418.441	1347.22
418.649	1230.49
418.857	1476.24
419.065	1599.12
419.273	1384.09
419.481	1529.49
419.689	1578.64
419.897	1719.95
420.105	1689.23
420.313	1752.72
420.521	1873.55
420.729	1926.8
420.937	1885.84
421.145	1941.13
421.353	2117.26
421.561	2238.09
421.769	2156.17
421.977	2199.18
422.185	2250.38
422.393	2381.45
422.601	2610.82
422.809	2625.15
423.017	2596.48
423.224	2727.55
423.432	2788.99
423.64	2840.19
423.848	3098.24
424.056	2965.12
424.263	3313.27
424.471	3249.79
424.679	3317.37
424.887	3456.63
425.094	3434.1
425.302	3604.08
425.51	3683.95
425.718	3896.94
425.925	3901.04
426.133	3968.62
426.341	4142.7
426.548	4361.83
426.756	4515.43
426.964	4402.79
427.171	4681.32
427.379	4882.02
427.586	4855.39
427.794	5113.44
428.001	5359.19
428.209	5557.85
428.417	5439.06
428.624	5746.26
428.832	5893.71
429.039	5860.95
429.247	5817.94
429.454	6381.13
429.662	6696.52
429.869	6395.47
430.076	6884.93
430.284	6680.13
430.491	6968.9
430.699	7272
430.906	7337.53
431.114	7339.58
431.321	7687.73
431.528	7728.69
431.736	8269.36
431.943	8771.11
432.15	8554.02
432.358	8695.33
432.565	9227.81
432.772	8881.7
432.979	9522.71
433.187	9616.92
433.394	9715.22
433.601	10257.93
433.808	10425.87
434.016	10307.09
434.223	10718.73
434.43	11361.79
434.637	11245.06
434.844	11814.39
435.052	12086.77
435.259	12115.44
435.466	12054
435.673	12144.11
435.88	12688.87
436.087	13299.17
436.294	13481.44
436.501	13184.48
436.708	13452.77
436.915	14118.36
437.122	14409.17
437.329	14618.06
437.537	15160.77
437.743	15107.52
437.95	14839.24
438.157	15965.62
438.364	16100.79
438.571	16238
438.778	16455.09
438.985	17880.47
439.192	17448.35
439.399	18019.74
439.606	17546.65
439.813	18668.94
440.02	19420.55
440.227	19393.92
440.433	18986.38
440.64	19604.86
440.847	19408.26
441.054	20006.27
441.261	21331.3
441.467	21048.68
441.674	21484.9
441.881	22537.55
442.088	22224.22
442.294	22119.77
442.501	22658.38
442.708	23094.6
442.914	24030.52
443.121	24685.87
443.328	24280.38
443.534	26354.97
443.741	25257.26
443.948	24866.1
444.154	26823.95
444.361	26637.59
444.568	26750.23
444.774	26512.66
444.981	27356.43
445.187	27766.02
445.394	29416.68
445.6	28454.14
445.807	31759.56
446.013	30305.5
446.22	30743.77
446.426	31921.35
446.633	32533.69
446.839	33520.81
447.046	31997.12
447.252	33703.08
447.459	33889.45
447.665	33813.67
447.871	35523.72
448.078	36596.86
448.284	34983.06
448.491	36265.09
448.697	37385.33
448.903	37940.33
449.11	38153.32
449.316	37166.2
449.522	38419.55
449.728	39273.56
449.935	39724.11
450.141	39609.42
450.347	40309.83
450.553	39138.39
450.76	39834.7
450.966	41360.44
451.172	40600.64
451.378	41907.24
451.584	41008.18
451.791	42075.18
451.997	41460.79
452.203	42447.91
452.409	42759.2
452.615	42091.56
452.821	40657.98
453.027	40406.08
453.233	42382.37
453.44	40971.32
453.646	41108.54
453.852	41462.83
454.058	42187.81
454.264	40686.65
454.47	41563.18
454.676	40817.72
454.882	42077.22
455.088	38505.57
455.294	39066.71
455.5	39830.6
455.705	40213.57
455.911	38853.72
456.117	37624.94
456.323	37356.66
456.529	35579.02
456.735	36902.01
456.941	36041.86
457.147	35140.75
457.352	34569.37
457.558	34002.08
457.764	33875.11
457.97	33496.24
458.176	32808.12
458.381	32728.25
458.587	31214.8
458.793	31495.37
458.999	29531.37
459.204	31786.18
459.41	30846.16
459.616	28742.9
459.821	28996.85
460.027	28814.58
460.233	27835.65
460.438	26793.23
460.644	27206.92
460.85	25687.33
461.055	25441.57
461.261	25414.95
461.466	23178.57
461.672	22701.39
461.878	24315.19
462.083	22875.47
462.289	22449.49
462.494	22148.44
462.7	21130.6
462.905	20557.17
463.111	21359.97
463.316	21488.99
463.522	20876.65
463.727	20952.43
463.932	20692.33
464.138	20798.83
464.343	20907.37
464.549	20082.04
464.754	20632.94
464.959	20628.85
465.165	20252.02
465.37	19824
465.575	19066.25
465.781	19764.61
465.986	19926.39
466.191	19326.34
466.397	18730.38
466.602	17853.85
466.807	18550.16
