Data from USB4F104151__36__13-05-05-844.txt Node

Date: Fri Mar 14 13:05:05 EDT 2025
User: louis
Spectrometer: USB4F10415
Trigger mode: 4
Integration Time (sec): 4.000000E-2
Scans to average: 1
Electric dark correction enabled: true
Nonlinearity correction enabled: false
Boxcar width: 0
XAxis mode: Wavelengths
Number of Pixels in Spectrum: 3648
>>>>>Begin Spectral Data<<<<<
178.204	-117.08
178.424	-117.08
178.644	-117.08
178.864	-178.51
179.084	-190.8
179.304	-8.53
179.524	22.19
179.744	-49.49
179.964	71.34
180.184	16.04
180.404	-26.96
180.624	28.33
180.844	-39.25
181.064	-26.96
181.283	22.19
181.503	11.95
181.723	-20.82
181.943	-86.36
182.163	97.96
182.383	61.1
182.602	20.14
182.822	249.51
183.042	40.62
183.262	-4.44
183.482	24.23
183.701	71.34
183.921	28.33
184.141	22.19
184.361	46.76
184.58	44.71
184.8	22.19
185.02	48.81
185.239	167.59
185.459	161.45
185.679	89.77
185.898	87.72
186.118	89.77
186.338	134.82
186.557	28.33
186.777	-35.16
186.997	7.85
187.216	-37.2
187.436	128.68
187.655	75.43
187.875	65.19
188.095	46.76
188.314	75.43
188.534	89.77
188.753	59.05
188.973	36.52
189.192	87.72
189.412	36.52
189.631	28.33
189.851	52.91
190.07	89.77
190.29	32.43
190.509	-12.63
190.729	143.02
190.948	79.53
191.168	186.02
191.387	63.15
191.607	-41.3
191.826	-20.82
192.045	-12.63
192.265	114.34
192.484	-29.01
192.704	110.25
192.923	24.23
193.142	183.98
193.362	59.05
193.581	112.3
193.8	26.28
194.02	136.87
194.239	-20.82
194.458	22.19
194.678	65.19
194.897	50.86
195.116	30.38
195.335	11.95
195.555	93.87
195.774	116.39
195.993	93.87
196.212	57
196.432	-2.39
196.651	32.43
196.87	40.62
197.089	204.46
197.308	85.67
197.528	130.73
197.747	13.99
197.966	69.29
198.185	122.54
198.404	38.57
198.623	102.06
198.842	85.67
199.062	77.48
199.281	126.63
199.5	85.67
199.719	67.24
199.938	30.38
200.157	69.29
200.376	83.63
200.595	44.71
200.814	44.71
201.033	28.33
201.252	48.81
201.471	71.34
201.69	95.91
201.909	118.44
202.128	110.25
202.347	30.38
202.566	13.99
202.785	40.62
203.004	36.52
203.223	181.93
203.442	77.48
203.661	13.99
203.879	48.81
204.098	63.15
204.317	-49.49
204.536	54.95
204.755	44.71
204.974	89.77
205.193	85.67
205.411	155.3
205.63	93.87
205.849	100.01
206.068	118.44
206.287	67.24
206.505	71.34
206.724	-24.92
206.943	38.57
207.162	-12.63
207.381	118.44
207.599	5.8
207.818	69.29
208.037	16.04
208.255	26.28
208.474	46.76
208.693	91.82
208.911	-12.63
209.13	122.54
209.349	71.34
209.567	114.34
209.786	20.14
210.005	69.29
210.223	71.34
210.442	-0.34
210.661	79.53
210.879	42.67
211.098	20.14
211.316	40.62
211.535	83.63
211.753	95.91
211.972	44.71
212.191	9.9
212.409	71.34
212.628	61.1
212.846	24.23
213.065	132.78
213.283	46.76
213.502	-22.87
213.72	93.87
213.938	87.72
214.157	48.81
214.375	48.81
214.594	89.77
214.812	18.09
215.031	124.58
215.249	63.15
215.467	13.99
215.686	57
215.904	95.91
216.122	-10.58
216.341	89.77
216.559	106.15
216.778	38.57
216.996	87.72
217.214	32.43
217.432	93.87
217.651	16.04
217.869	89.77
218.087	59.05
218.306	9.9
218.524	79.53
218.742	34.47
218.96	102.06
219.179	147.11
219.397	104.11
219.615	169.64
219.833	46.76
220.051	5.8
220.27	110.25
220.488	-0.34
220.706	34.47
220.924	42.67
221.142	67.24
221.36	48.81
221.578	5.8
221.796	36.52
222.015	30.38
222.233	-72.02
222.451	145.06
222.669	57
222.887	54.95
223.105	48.81
223.323	93.87
223.541	5.8
223.759	77.48
223.977	20.14
224.195	104.11
224.413	87.72
224.631	67.24
224.849	95.91
225.067	120.49
225.285	32.43
225.503	-8.53
225.721	-26.96
225.939	57
226.157	44.71
226.375	231.08
226.592	22.19
226.81	36.52
227.028	114.34
227.246	112.3
227.464	38.57
227.682	63.15
227.9	71.34
228.117	-8.53
228.335	114.34
228.553	46.76
228.771	46.76
228.989	87.72
229.206	73.39
229.424	69.29
229.642	44.71
229.86	73.39
230.077	102.06
230.295	83.63
230.513	104.11
230.731	57
230.948	110.25
231.166	46.76
231.384	-16.73
231.601	-14.68
231.819	77.48
232.037	61.1
232.254	57
232.472	32.43
232.689	16.04
232.907	116.39
233.125	59.05
233.342	-12.63
233.56	77.48
233.777	34.47
233.995	-20.82
234.213	83.63
234.43	38.57
234.648	71.34
234.865	67.24
235.083	13.99
235.3	11.95
235.518	128.68
235.735	85.67
235.953	163.5
236.17	13.99
236.388	108.2
236.605	24.23
236.822	85.67
237.04	57
237.257	91.82
237.475	46.76
237.692	26.28
237.909	11.95
238.127	42.67
238.344	57
238.562	71.34
238.779	42.67
238.996	59.05
239.214	104.11
239.431	36.52
239.648	57
239.865	28.33
240.083	11.95
240.3	36.52
240.517	-12.63
240.735	69.29
240.952	132.78
241.169	38.57
241.386	26.28
241.603	102.06
241.821	-33.11
242.038	67.24
242.255	83.63
242.472	26.28
242.689	112.3
242.907	81.58
243.124	57
243.341	38.57
243.558	-26.96
243.775	-20.82
243.992	-37.2
244.209	30.38
244.426	93.87
244.643	52.91
244.86	44.71
245.078	87.72
245.295	79.53
245.512	63.15
245.729	26.28
245.946	32.43
246.163	65.19
246.38	44.71
246.597	67.24
246.814	5.8
247.031	30.38
247.248	140.97
247.464	83.63
247.681	-29.01
247.898	52.91
248.115	48.81
248.332	50.86
248.549	102.06
248.766	153.26
248.983	69.29
249.2	5.8
249.417	48.81
249.633	77.48
249.85	48.81
250.067	16.04
250.284	118.44
250.501	100.01
250.717	71.34
250.934	-39.25
251.151	-4.44
251.368	69.29
251.585	104.11
251.801	71.34
252.018	61.1
252.235	34.47
252.451	118.44
252.668	-63.83
252.885	30.38
253.102	59.05
253.318	-41.3
253.535	44.71
253.752	1.71
253.968	50.86
254.185	11.95
254.401	28.33
254.618	91.82
254.835	16.04
255.051	171.69
255.268	100.01
255.484	75.43
255.701	132.78
255.917	36.52
256.134	36.52
256.351	67.24
256.567	-31.06
256.784	42.67
257	-51.54
257.217	108.2
257.433	87.72
257.65	89.77
257.866	44.71
258.082	36.52
258.299	-6.49
258.515	140.97
258.732	-12.63
258.948	95.91
259.165	59.05
259.381	3.75
259.597	87.72
259.814	30.38
260.03	100.01
260.246	63.15
260.463	100.01
260.679	140.97
260.895	44.71
261.112	65.19
261.328	38.57
261.544	32.43
261.761	114.34
261.977	-12.63
262.193	-12.63
262.409	20.14
262.626	50.86
262.842	36.52
263.058	30.38
263.274	36.52
263.49	79.53
263.707	69.29
263.923	89.77
264.139	5.8
264.355	38.57
264.571	130.73
264.787	13.99
265.004	18.09
265.22	54.95
265.436	93.87
265.652	28.33
265.868	40.62
266.084	71.34
266.3	79.53
266.516	3.75
266.732	30.38
266.948	24.23
267.164	36.52
267.38	50.86
267.596	46.76
267.812	118.44
268.028	65.19
268.244	54.95
268.46	87.72
268.676	44.71
268.892	36.52
269.108	61.1
269.324	59.05
269.54	3.75
269.756	102.06
269.972	24.23
270.188	126.63
270.403	11.95
270.619	50.86
270.835	89.77
271.051	44.71
271.267	22.19
271.483	63.15
271.698	128.68
271.914	36.52
272.13	91.82
272.346	114.34
272.562	48.81
272.777	118.44
272.993	95.91
273.209	46.76
273.425	73.39
273.64	13.99
273.856	85.67
274.072	102.06
274.287	48.81
274.503	9.9
274.719	40.62
274.934	85.67
275.15	42.67
275.366	46.76
275.581	24.23
275.797	38.57
276.012	22.19
276.228	91.82
276.444	11.95
276.659	114.34
276.875	38.57
277.09	1.71
277.306	112.3
277.521	50.86
277.737	136.87
277.952	97.96
278.168	143.02
278.383	36.52
278.599	87.72
278.814	71.34
279.03	67.24
279.245	118.44
279.461	106.15
279.676	155.3
279.892	-2.39
280.107	3.75
280.322	20.14
280.538	22.19
280.753	30.38
280.969	167.59
281.184	52.91
281.399	79.53
281.615	134.82
281.83	163.5
282.045	13.99
282.26	134.82
282.476	116.39
282.691	83.63
282.906	40.62
283.122	97.96
283.337	52.91
283.552	97.96
283.767	69.29
283.983	61.1
284.198	38.57
284.413	100.01
284.628	16.04
284.843	106.15
285.058	65.19
285.274	71.34
285.489	-51.54
285.704	104.11
285.919	40.62
286.134	93.87
286.349	13.99
286.564	-12.63
286.779	69.29
286.995	9.9
287.21	50.86
287.425	57
287.64	5.8
287.855	7.85
288.07	42.67
288.285	116.39
288.5	134.82
288.715	112.3
288.93	7.85
289.145	28.33
289.36	93.87
289.575	-0.34
289.79	89.77
290.004	7.85
290.219	81.58
290.434	46.76
290.649	71.34
290.864	104.11
291.079	-16.73
291.294	89.77
291.509	77.48
291.724	44.71
291.938	46.76
292.153	20.14
292.368	38.57
292.583	28.33
292.798	44.71
293.012	134.82
293.227	149.16
293.442	69.29
293.657	136.87
293.871	61.1
294.086	46.76
294.301	114.34
294.516	130.73
294.73	87.72
294.945	-0.34
295.16	48.81
295.374	132.78
295.589	130.73
295.804	-12.63
296.018	122.54
296.233	112.3
296.447	93.87
296.662	81.58
296.877	97.96
297.091	73.39
297.306	34.47
297.52	38.57
297.735	46.76
297.949	116.39
298.164	54.95
298.378	71.34
298.593	-22.87
298.807	-10.58
299.022	145.06
299.236	79.53
299.451	11.95
299.665	24.23
299.88	75.43
300.094	11.95
300.309	44.71
300.523	40.62
300.737	-6.49
300.952	52.91
301.166	52.91
301.381	48.81
301.595	59.05
301.809	52.91
302.024	93.87
302.238	44.71
302.452	61.1
302.667	34.47
302.881	79.53
303.095	44.71
303.309	134.82
303.524	61.1
303.738	-8.53
303.952	59.05
304.166	-6.49
304.381	3.75
304.595	69.29
304.809	5.8
305.023	97.96
305.237	9.9
305.452	83.63
305.666	95.91
305.88	57
306.094	122.54
306.308	110.25
306.522	97.96
306.736	83.63
306.95	73.39
307.164	114.34
307.379	77.48
307.593	-2.39
307.807	104.11
308.021	38.57
308.235	42.67
308.449	32.43
308.663	36.52
308.877	159.4
309.091	87.72
309.305	122.54
309.519	-4.44
309.733	118.44
309.947	73.39
310.161	106.15
310.374	9.9
310.588	151.21
310.802	79.53
311.016	30.38
311.23	93.87
311.444	44.71
311.658	26.28
311.872	104.11
312.085	165.54
312.299	65.19
312.513	122.54
312.727	93.87
312.941	46.76
313.154	40.62
313.368	5.8
313.582	79.53
313.796	89.77
314.009	91.82
314.223	165.54
314.437	11.95
314.651	38.57
314.864	97.96
315.078	32.43
315.292	-18.77
315.505	18.09
315.719	79.53
315.933	87.72
316.146	73.39
316.36	-10.58
316.573	155.3
316.787	196.26
317.001	79.53
317.214	28.33
317.428	28.33
317.641	30.38
317.855	75.43
318.068	57
318.282	108.2
318.495	130.73
318.709	89.77
318.922	54.95
319.136	97.96
319.349	132.78
319.563	7.85
319.776	20.14
319.99	71.34
320.203	30.38
320.417	89.77
320.63	63.15
320.843	136.87
321.057	124.58
321.27	48.81
321.483	118.44
321.697	183.98
321.91	75.43
322.124	48.81
322.337	48.81
322.55	71.34
322.763	97.96
322.977	108.2
323.19	67.24
323.403	30.38
323.617	71.34
323.83	54.95
324.043	5.8
324.256	97.96
324.469	22.19
324.683	69.29
324.896	38.57
325.109	69.29
325.322	59.05
325.535	38.57
325.748	97.96
325.962	67.24
326.175	95.91
326.388	59.05
326.601	110.25
326.814	138.92
327.027	28.33
327.24	59.05
327.453	28.33
327.666	65.19
327.879	91.82
328.092	85.67
328.305	73.39
328.518	38.57
328.731	61.1
328.944	128.68
329.157	65.19
329.37	110.25
329.583	136.87
329.796	116.39
330.009	11.95
330.222	112.3
330.435	38.57
330.648	79.53
330.861	44.71
331.073	30.38
331.286	159.4
331.499	71.34
331.712	-4.44
331.925	75.43
332.138	61.1
332.35	128.68
332.563	-24.92
332.776	97.96
332.989	59.05
333.202	63.15
333.414	16.04
333.627	77.48
333.84	97.96
334.053	83.63
334.265	59.05
334.478	5.8
334.691	38.57
334.903	61.1
335.116	61.1
335.329	50.86
335.541	50.86
335.754	155.3
335.966	36.52
336.179	95.91
336.392	61.1
336.604	46.76
336.817	87.72
337.029	67.24
337.242	48.81
337.454	28.33
337.667	87.72
337.88	93.87
338.092	93.87
338.305	122.54
338.517	18.09
338.729	116.39
338.942	85.67
339.154	-37.2
339.367	-35.16
339.579	63.15
339.792	46.76
340.004	97.96
340.217	22.19
340.429	54.95
340.641	42.67
340.854	71.34
341.066	50.86
341.278	83.63
341.491	147.11
341.703	126.63
341.915	26.28
342.128	122.54
342.34	40.62
342.552	61.1
342.764	118.44
342.977	91.82
343.189	104.11
343.401	104.11
343.613	30.38
343.826	44.71
344.038	34.47
344.25	118.44
344.462	26.28
344.674	95.91
344.886	9.9
345.099	32.43
345.311	59.05
345.523	42.67
345.735	-57.68
345.947	69.29
346.159	71.34
346.371	65.19
346.583	44.71
346.795	143.02
347.007	65.19
347.219	75.43
347.431	13.99
347.643	44.71
347.855	63.15
348.067	116.39
348.279	52.91
348.491	52.91
348.703	79.53
348.915	38.57
349.127	22.19
349.339	38.57
349.551	130.73
349.763	61.1
349.975	83.63
350.187	91.82
350.399	97.96
350.61	93.87
350.822	57
351.034	38.57
351.246	52.91
351.458	79.53
351.669	87.72
351.881	89.77
352.093	118.44
352.305	110.25
352.517	87.72
352.728	44.71
352.94	122.54
353.152	89.77
353.363	7.85
353.575	16.04
353.787	95.91
353.999	79.53
354.21	91.82
354.422	22.19
354.633	69.29
354.845	48.81
355.057	-0.34
355.268	67.24
355.48	106.15
355.692	114.34
355.903	57
356.115	46.76
356.326	75.43
356.538	102.06
356.749	48.81
356.961	79.53
357.172	52.91
357.384	36.52
357.595	175.78
357.807	106.15
358.018	16.04
358.23	71.34
358.441	122.54
358.653	42.67
358.864	11.95
359.075	22.19
359.287	61.1
359.498	151.21
359.709	93.87
359.921	36.52
360.132	61.1
360.344	130.73
360.555	44.71
360.766	36.52
360.977	48.81
361.189	67.24
361.4	87.72
361.611	65.19
361.823	50.86
362.034	85.67
362.245	13.99
362.456	73.39
362.667	85.67
362.879	24.23
363.09	28.33
363.301	75.43
363.512	11.95
363.723	85.67
363.935	102.06
364.146	93.87
364.357	87.72
364.568	118.44
364.779	61.1
364.99	130.73
365.201	54.95
365.412	106.15
365.623	36.52
365.834	97.96
366.045	20.14
366.256	77.48
366.467	114.34
366.678	54.95
366.889	126.63
367.1	63.15
367.311	69.29
367.522	104.11
367.733	169.64
367.944	71.34
368.155	85.67
368.366	85.67
368.577	120.49
368.788	130.73
368.999	126.63
369.209	102.06
369.42	130.73
369.631	163.5
369.842	130.73
370.053	30.38
370.264	110.25
370.474	50.86
370.685	79.53
370.896	71.34
371.107	106.15
371.317	69.29
371.528	153.26
371.739	120.49
371.95	132.78
372.16	40.62
372.371	-29.01
372.582	38.57
372.792	52.91
373.003	89.77
373.214	67.24
373.424	165.54
373.635	3.75
373.846	151.21
374.056	52.91
374.267	120.49
374.477	81.58
374.688	28.33
374.898	71.34
375.109	50.86
375.319	52.91
375.53	102.06
375.74	54.95
375.951	48.81
376.161	110.25
376.372	79.53
376.582	28.33
376.793	77.48
377.003	85.67
377.214	128.68
377.424	75.43
377.635	85.67
377.845	46.76
378.055	155.3
378.266	20.14
378.476	69.29
378.686	3.75
378.897	112.3
379.107	151.21
379.317	120.49
379.528	118.44
379.738	120.49
379.948	-86.36
380.158	110.25
380.369	85.67
380.579	118.44
380.789	18.09
380.999	102.06
381.21	83.63
381.42	147.11
381.63	114.34
381.84	69.29
382.05	65.19
382.261	77.48
382.471	110.25
382.681	38.57
382.891	126.63
383.101	81.58
383.311	36.52
383.521	87.72
383.731	89.77
383.941	44.71
384.151	104.11
384.361	114.34
384.571	118.44
384.781	128.68
384.991	69.29
385.201	157.35
385.411	32.43
385.621	132.78
385.831	136.87
386.041	38.57
386.251	161.45
386.461	153.26
386.671	40.62
386.881	140.97
387.091	87.72
387.301	44.71
387.511	63.15
387.72	151.21
387.93	87.72
388.14	-4.44
388.35	81.58
388.56	61.1
388.769	83.63
388.979	65.19
389.189	102.06
389.399	36.52
389.609	95.91
389.818	104.11
390.028	181.93
390.238	85.67
390.447	42.67
390.657	163.5
390.867	59.05
391.076	5.8
391.286	73.39
391.496	114.34
391.705	171.69
391.915	120.49
392.125	153.26
392.334	38.57
392.544	157.35
392.753	48.81
392.963	116.39
393.172	18.09
393.382	11.95
393.591	128.68
393.801	46.76
394.01	118.44
394.22	116.39
394.429	153.26
394.639	157.35
394.848	122.54
395.058	87.72
395.267	114.34
395.477	71.34
395.686	93.87
395.895	167.59
396.105	224.94
396.314	85.67
396.524	149.16
396.733	48.81
396.942	143.02
397.152	188.07
397.361	124.58
397.57	159.4
397.78	71.34
397.989	52.91
398.198	202.41
398.407	204.46
398.617	79.53
398.826	93.87
399.035	116.39
399.244	89.77
399.453	63.15
399.663	118.44
399.872	241.32
400.081	157.35
400.29	151.21
400.499	192.17
400.708	179.88
400.917	97.96
401.127	157.35
401.336	118.44
401.545	202.41
401.754	163.5
401.963	165.54
402.172	122.54
402.381	163.5
402.59	136.87
402.799	79.53
403.008	163.5
403.217	259.75
403.426	204.46
403.635	147.11
403.844	151.21
404.053	110.25
404.262	167.59
404.471	243.37
404.68	278.18
404.888	194.22
405.097	202.41
405.306	173.74
405.515	214.7
405.724	188.07
405.933	267.94
406.142	233.13
406.35	216.74
406.559	241.32
406.768	147.11
406.977	226.98
407.185	267.94
407.394	339.62
407.603	216.74
407.812	214.7
408.02	347.81
408.229	298.66
408.438	243.37
408.646	233.13
408.855	259.75
409.064	302.76
409.272	290.47
409.481	450.21
409.69	390.82
409.898	319.14
410.107	374.44
410.315	462.5
410.524	388.77
410.733	362.15
410.941	396.96
411.15	448.16
411.358	462.5
411.567	470.69
411.775	499.36
411.984	392.87
412.192	534.18
412.401	575.14
412.609	562.85
412.818	550.56
413.026	652.96
413.234	503.46
413.443	568.99
413.651	612
413.86	646.82
414.068	679.58
414.276	775.84
414.485	706.21
414.693	777.89
414.901	827.04
415.11	829.09
415.318	816.8
415.526	851.61
415.734	888.48
415.943	865.95
416.151	921.24
416.359	853.66
416.567	898.72
416.776	929.44
416.984	1035.93
417.192	1128.09
417.4	1068.7
417.608	1072.79
417.817	1173.14
418.025	1224.34
418.233	1281.69
418.441	1242.78
418.649	1238.68
418.857	1396.37
419.065	1408.66
419.273	1404.57
419.481	1496.72
419.689	1539.73
419.897	1584.79
420.105	1662.61
420.313	1578.64
420.521	1840.78
420.729	1746.58
420.937	1851.02
421.145	1783.44
421.353	2004.62
421.561	2092.68
421.769	2133.64
421.977	2303.62
422.185	2266.76
422.393	2281.1
422.601	2524.8
422.809	2508.42
423.017	2446.98
423.224	2604.67
423.432	2655.87
423.64	2707.07
423.848	2997.88
424.056	2850.43
424.263	3176.06
424.471	2969.21
424.679	3229.31
424.887	3325.56
425.094	3432.05
425.302	3554.93
425.51	3518.07
425.718	3772.02
425.925	3812.98
426.133	3735.15
426.341	4173.42
426.548	4245.1
426.756	4241
426.964	4386.41
427.171	4517.48
427.379	4601.44
427.586	4775.52
427.794	5060.19
428.001	5213.79
428.209	5281.37
428.417	5248.6
428.624	5676.63
428.832	5764.69
429.039	5680.72
429.247	5684.82
429.454	6211.15
429.662	6659.65
429.869	6061.65
430.076	6678.08
430.284	6596.17
430.491	6649.41
430.699	7106.11
430.906	7069.25
431.114	7024.19
431.321	7392.83
431.528	7575.1
431.736	8117.81
431.943	8318.51
432.15	8220.21
432.358	8291.88
432.565	8685.09
432.772	8355.37
432.979	9178.65
433.187	9381.4
433.394	9448.99
433.601	9960.98
433.808	9938.45
434.016	9983.51
434.223	10337.8
434.43	11027.97
434.637	10694.15
434.844	11273.73
435.052	11687.42
435.259	11585.02
435.466	12015.09
435.673	11587.07
435.88	12283.38
436.087	12948.97
436.294	12922.34
436.501	12875.24
436.708	12928.49
436.915	13370.85
437.122	14138.83
437.329	14065.11
437.537	14515.66
437.743	14425.55
437.95	14509.52
438.157	15478.21
438.364	15838.65
438.571	15781.31
438.778	15959.48
438.985	17294.75
439.192	16457.14
439.399	17333.67
439.606	16862.63
439.813	17929.63
440.02	18787.72
440.227	18578.83
440.433	18486.67
440.64	19221.89
440.847	19053.96
441.054	19287.43
441.261	20489.59
441.467	20428.15
441.674	21036.39
441.881	21286.25
442.088	21480.8
442.294	21142.89
442.501	21820.77
442.708	22498.64
442.914	23045.45
443.121	24192.31
443.328	23520.58
443.534	25249.07
443.741	24577.33
443.948	24339.77
444.154	25818.4
444.361	25578.79
444.568	26037.53
444.774	25892.13
444.981	26090.78
445.187	26971.41
445.394	28124.41
445.6	27782.4
445.807	30698.71
446.013	29265.13
446.22	29488.36
446.426	31055.06
446.633	31141.07
446.839	32558.27
447.046	30645.46
447.252	32814.26
447.459	33017.01
447.665	32328.89
447.871	33930.4
448.078	35638.41
448.284	33983.65
448.491	34804.89
448.697	35867.78
448.903	36914.3
449.11	37022.84
449.316	36273.28
449.522	36871.29
449.728	37940.33
449.935	38356.07
450.141	38278.24
450.347	39224.4
450.553	38413.41
450.76	38636.64
450.966	39427.15
451.172	39562.32
451.378	40338.5
451.584	39533.65
451.791	40569.92
451.997	40369.22
452.203	41284.66
452.409	40879.16
452.615	41081.91
452.821	39418.96
453.027	39128.15
453.233	41008.18
453.44	39177.3
453.646	39601.23
453.852	40275.01
454.058	40969.27
454.264	39367.76
454.47	40195.14
454.676	39584.85
454.882	40782.91
455.088	37350.51
455.294	37731.43
455.5	38620.25
455.705	38704.22
455.911	37401.71
456.117	36476.03
456.323	35820.68
456.529	34249.89
456.735	35853.45
456.941	34978.96
457.147	33914.02
457.352	32943.28
457.558	33023.15
457.764	32971.96
457.97	32472.25
458.176	31759.56
458.381	31759.56
458.587	29900
458.793	30242.01
458.999	28341.5
459.204	30403.8
459.41	29662.44
459.616	27798.79
459.821	27739.4
460.027	28042.49
460.233	27086.09
460.438	25734.43
460.644	26438.94
460.85	24720.69
461.055	24530.23
461.261	24372.53
461.466	22437.2
461.672	21984.6
461.878	23473.48
462.083	21695.84
462.289	21663.07
462.494	21173.61
462.7	20407.67
462.905	20098.42
463.111	20465.01
463.316	20737.39
463.522	20186.49
463.727	20186.49
463.932	20000.12
464.138	19955.07
464.343	19905.91
464.549	19309.96
464.754	19975.55
464.959	19848.57
465.165	19723.65
465.37	19084.68
465.575	18089.37
465.781	19221.89
465.986	19137.93
