Data from USB4F104151__49__13-05-24-044.txt Node

Date: Fri Mar 14 13:05:24 EDT 2025
User: louis
Spectrometer: USB4F10415
Trigger mode: 4
Integration Time (sec): 4.000000E-2
Scans to average: 1
Electric dark correction enabled: true
Nonlinearity correction enabled: false
Boxcar width: 0
XAxis mode: Wavelengths
Number of Pixels in Spectrum: 3648
>>>>>Begin Spectral Data<<<<<
178.204	-141.99
178.424	-141.99
178.644	-141.99
178.864	-176.81
179.084	-221.86
179.304	23.89
179.524	-33.45
179.744	48.47
179.964	9.56
180.184	32.08
180.404	-10.92
180.624	-21.16
180.844	-4.78
181.064	-80.55
181.283	48.47
181.503	-49.83
181.723	38.23
181.943	-33.45
182.163	138.58
182.383	-23.21
182.602	81.24
182.822	97.62
183.042	81.24
183.262	-25.26
183.482	-23.21
183.701	58.71
183.921	25.94
184.141	-0.68
184.361	136.53
184.58	75.09
184.8	36.18
185.02	58.71
185.239	-0.68
185.459	-35.5
185.679	34.13
185.898	-43.69
186.118	95.57
186.338	-31.4
186.557	44.37
186.777	30.04
186.997	11.61
187.216	56.66
187.436	81.24
187.655	77.14
187.875	21.85
188.095	-29.35
188.314	32.08
188.534	85.33
188.753	-4.78
188.973	48.47
189.192	48.47
189.412	52.56
189.631	40.28
189.851	-6.83
190.07	44.37
190.29	-45.74
190.509	-35.5
190.729	11.61
190.948	15.7
191.168	292.18
191.387	64.85
191.607	38.23
191.826	58.71
192.045	-4.78
192.265	52.56
192.484	50.52
192.704	-31.4
192.923	-35.5
193.142	105.81
193.362	-15.02
193.581	32.08
193.8	91.48
194.02	19.8
194.239	23.89
194.458	144.72
194.678	9.56
194.897	73.04
195.116	-47.79
195.335	146.77
195.555	36.18
195.774	42.32
195.993	-8.87
196.212	118.1
196.432	3.41
196.651	56.66
196.87	58.71
197.089	159.06
197.308	-17.07
197.528	32.08
197.747	40.28
197.966	-39.59
198.185	89.43
198.404	48.47
198.623	64.85
198.842	89.43
199.062	83.28
199.281	52.56
199.5	17.75
199.719	36.18
199.938	128.34
200.157	58.71
200.376	40.28
200.595	-2.73
200.814	-21.16
201.033	-2.73
201.252	99.67
201.471	3.41
201.69	-15.02
201.909	15.7
202.128	62.8
202.347	48.47
202.566	73.04
202.785	32.08
203.004	-8.87
203.223	124.24
203.442	-4.78
203.661	-37.55
203.879	30.04
204.098	32.08
204.317	23.89
204.536	42.32
204.755	19.8
204.974	128.34
205.193	105.81
205.411	171.35
205.63	66.9
205.849	-17.07
206.068	7.51
206.287	3.41
206.505	107.86
206.724	40.28
206.943	15.7
207.162	-51.88
207.381	93.52
207.599	64.85
207.818	95.57
208.037	21.85
208.255	64.85
208.474	40.28
208.693	64.85
208.911	-21.16
209.13	-12.97
209.349	71
209.567	105.81
209.786	114
210.005	21.85
210.223	44.37
210.442	36.18
210.661	-4.78
210.879	-2.73
211.098	21.85
211.316	91.48
211.535	40.28
211.753	83.28
211.972	19.8
212.191	-90.79
212.409	-31.4
212.628	48.47
212.846	-17.07
213.065	73.04
213.283	56.66
213.502	15.7
213.72	81.24
213.938	68.95
214.157	3.41
214.375	40.28
214.594	-17.07
214.812	36.18
215.031	23.89
215.249	5.46
215.467	73.04
215.686	-49.83
215.904	38.23
216.122	79.19
216.341	114
216.559	32.08
216.778	93.52
216.996	32.08
217.214	-2.73
217.432	7.51
217.651	-37.55
217.869	34.13
218.087	56.66
218.306	-53.93
218.524	75.09
218.742	-76.46
218.96	-17.07
219.179	5.46
219.397	7.51
219.615	116.05
219.833	15.7
220.051	64.85
220.27	75.09
220.488	54.61
220.706	34.13
220.924	5.46
221.142	32.08
221.36	38.23
221.578	-15.02
221.796	19.8
222.015	44.37
222.233	9.56
222.451	50.52
222.669	-70.31
222.887	97.62
223.105	-37.55
223.323	50.52
223.541	95.57
223.759	-25.26
223.977	42.32
224.195	163.15
224.413	68.95
224.631	7.51
224.849	-25.26
225.067	148.82
225.285	48.47
225.503	32.08
225.721	-113.32
225.939	-0.68
226.157	60.76
226.375	146.77
226.592	-45.74
226.81	1.37
227.028	21.85
227.246	11.61
227.464	38.23
227.682	79.19
227.9	27.99
228.117	-12.97
228.335	25.94
228.553	89.43
228.771	93.52
228.989	34.13
229.206	58.71
229.424	30.04
229.642	23.89
229.86	21.85
230.077	62.8
230.295	-8.87
230.513	169.3
230.731	87.38
230.948	189.78
231.166	126.29
231.384	95.57
231.601	3.41
231.819	50.52
232.037	-45.74
232.254	15.7
232.472	23.89
232.689	-10.92
232.907	23.89
233.125	19.8
233.342	44.37
233.56	-12.97
233.777	109.91
233.995	19.8
234.213	146.77
234.43	-35.5
234.648	56.66
234.865	32.08
235.083	-0.68
235.3	58.71
235.518	107.86
235.735	68.95
235.953	109.91
236.17	-41.64
236.388	-51.88
236.605	44.37
236.822	13.65
237.04	71
237.257	13.65
237.475	3.41
237.692	1.37
237.909	79.19
238.127	73.04
238.344	48.47
238.562	32.08
238.779	30.04
238.996	-27.31
239.214	19.8
239.431	66.9
239.648	-4.78
239.865	71
240.083	27.99
240.3	19.8
240.517	44.37
240.735	66.9
240.952	97.62
241.169	54.61
241.386	7.51
241.603	23.89
241.821	-62.12
242.038	64.85
242.255	101.72
242.472	-35.5
242.689	40.28
242.907	142.68
243.124	50.52
243.341	-15.02
243.558	-68.27
243.775	-64.17
243.992	-25.26
244.209	19.8
244.426	179.54
244.643	23.89
244.86	50.52
245.078	68.95
245.295	66.9
245.512	73.04
245.729	11.61
245.946	58.71
246.163	7.51
246.38	15.7
246.597	-10.92
246.814	44.37
247.031	25.94
247.248	52.56
247.464	81.24
247.681	105.81
247.898	58.71
248.115	-4.78
248.332	5.46
248.549	97.62
248.766	77.14
248.983	42.32
249.2	7.51
249.417	83.28
249.633	-43.69
249.85	-49.83
250.067	87.38
250.284	27.99
250.501	30.04
250.717	-6.83
250.934	-4.78
251.151	34.13
251.368	3.41
251.585	83.28
251.801	42.32
252.018	-94.89
252.235	50.52
252.451	-21.16
252.668	60.76
252.885	5.46
253.102	122.2
253.318	52.56
253.535	-66.22
253.752	-4.78
253.968	42.32
254.185	23.89
254.401	-58.03
254.618	58.71
254.835	-31.4
255.051	99.67
255.268	1.37
255.484	46.42
255.701	56.66
255.917	-17.07
256.134	-41.64
256.351	128.34
256.567	-35.5
256.784	34.13
257	25.94
257.217	11.61
257.433	27.99
257.65	19.8
257.866	56.66
258.082	-25.26
258.299	-19.11
258.515	48.47
258.732	-33.45
258.948	44.37
259.165	62.8
259.381	-62.12
259.597	64.85
259.814	-6.83
260.03	-27.31
260.246	36.18
260.463	136.53
260.679	111.96
260.895	50.52
261.112	126.29
261.328	36.18
261.544	-41.64
261.761	75.09
261.977	-17.07
262.193	-82.6
262.409	126.29
262.626	81.24
262.842	19.8
263.058	-55.98
263.274	101.72
263.49	42.32
263.707	-4.78
263.923	40.28
264.139	-17.07
264.355	48.47
264.571	77.14
264.787	34.13
265.004	3.41
265.22	38.23
265.436	56.66
265.652	7.51
265.868	-8.87
266.084	-21.16
266.3	3.41
266.516	-43.69
266.732	50.52
266.948	-17.07
267.164	58.71
267.38	66.9
267.596	95.57
267.812	81.24
268.028	64.85
268.244	64.85
268.46	81.24
268.676	42.32
268.892	58.71
269.108	-17.07
269.324	-33.45
269.54	-10.92
269.756	91.48
269.972	-41.64
270.188	3.41
270.403	-10.92
270.619	-21.16
270.835	38.23
271.051	71
271.267	1.37
271.483	60.76
271.698	25.94
271.914	64.85
272.13	-29.35
272.346	11.61
272.562	101.72
272.777	60.76
272.993	42.32
273.209	81.24
273.425	68.95
273.64	27.99
273.856	40.28
274.072	36.18
274.287	3.41
274.503	52.56
274.719	124.24
274.934	66.9
275.15	-10.92
275.366	15.7
275.581	-19.11
275.797	-33.45
276.012	-8.87
276.228	79.19
276.444	-6.83
276.659	77.14
276.875	60.76
277.09	11.61
277.306	15.7
277.521	73.04
277.737	58.71
277.952	54.61
278.168	-2.73
278.383	-6.83
278.599	95.57
278.814	118.1
279.03	56.66
279.245	64.85
279.461	-2.73
279.676	60.76
279.892	-41.64
280.107	-39.59
280.322	19.8
280.538	91.48
280.753	73.04
280.969	34.13
281.184	38.23
281.399	46.42
281.615	-25.26
281.83	25.94
282.045	-68.27
282.26	19.8
282.476	42.32
282.691	120.15
282.906	68.95
283.122	-21.16
283.337	-29.35
283.552	146.77
283.767	-0.68
283.983	40.28
284.198	5.46
284.413	48.47
284.628	9.56
284.843	-6.83
285.058	1.37
285.274	44.37
285.489	21.85
285.704	66.9
285.919	7.51
286.134	64.85
286.349	66.9
286.564	-15.02
286.779	101.72
286.995	44.37
287.21	-21.16
287.425	58.71
287.64	-6.83
287.855	114
288.07	9.56
288.285	60.76
288.5	54.61
288.715	81.24
288.93	-35.5
289.145	42.32
289.36	66.9
289.575	1.37
289.79	56.66
290.004	-6.83
290.219	79.19
290.434	48.47
290.649	1.37
290.864	66.9
291.079	105.81
291.294	40.28
291.509	64.85
291.724	77.14
291.938	73.04
292.153	30.04
292.368	21.85
292.583	-2.73
292.798	-8.87
293.012	1.37
293.227	34.13
293.442	-58.03
293.657	99.67
293.871	32.08
294.086	7.51
294.301	97.62
294.516	85.33
294.73	36.18
294.945	-70.31
295.16	36.18
295.374	30.04
295.589	15.7
295.804	34.13
296.018	5.46
296.233	79.19
296.447	38.23
296.662	23.89
296.877	54.61
297.091	138.58
297.306	25.94
297.52	23.89
297.735	60.76
297.949	114
298.164	21.85
298.378	-8.87
298.593	-25.26
298.807	30.04
299.022	-33.45
299.236	48.47
299.451	85.33
299.665	-45.74
299.88	87.38
300.094	-8.87
300.309	32.08
300.523	17.75
300.737	-15.02
300.952	3.41
301.166	48.47
301.381	56.66
301.595	-25.26
301.809	40.28
302.024	23.89
302.238	-47.79
302.452	66.9
302.667	-6.83
302.881	146.77
303.095	89.43
303.309	58.71
303.524	-35.5
303.738	-10.92
303.952	-17.07
304.166	83.28
304.381	-70.31
304.595	122.2
304.809	17.75
305.023	62.8
305.237	-19.11
305.452	42.32
305.666	73.04
305.88	50.52
306.094	34.13
306.308	-74.41
306.522	73.04
306.736	9.56
306.95	11.61
307.164	30.04
307.379	-21.16
307.593	165.2
307.807	83.28
308.021	-0.68
308.235	15.7
308.449	17.75
308.663	-19.11
308.877	91.48
309.091	1.37
309.305	40.28
309.519	-25.26
309.733	56.66
309.947	-117.42
310.161	44.37
310.374	-23.21
310.588	36.18
310.802	34.13
311.016	42.32
311.23	36.18
311.444	-23.21
311.658	64.85
311.872	58.71
312.085	60.76
312.299	81.24
312.513	34.13
312.727	64.85
312.941	-10.92
313.154	122.2
313.368	-4.78
313.582	30.04
313.796	40.28
314.009	73.04
314.223	126.29
314.437	17.75
314.651	89.43
314.864	77.14
315.078	-21.16
315.292	-0.68
315.505	-17.07
315.719	66.9
315.933	-23.21
316.146	93.52
316.36	-49.83
316.573	44.37
316.787	36.18
317.001	-0.68
317.214	103.76
317.428	11.61
317.641	-105.13
317.855	48.47
318.068	7.51
318.282	9.56
318.495	130.39
318.709	91.48
318.922	73.04
319.136	114
319.349	30.04
319.563	17.75
319.776	15.7
319.99	-33.45
320.203	75.09
320.417	42.32
320.63	109.91
320.843	79.19
321.057	99.67
321.27	23.89
321.483	25.94
321.697	73.04
321.91	-39.59
322.124	-2.73
322.337	-33.45
322.55	5.46
322.763	56.66
322.977	32.08
323.19	42.32
323.403	64.85
323.617	89.43
323.83	23.89
324.043	25.94
324.256	97.62
324.469	91.48
324.683	23.89
324.896	40.28
325.109	40.28
325.322	46.42
325.535	15.7
325.748	85.33
325.962	-98.99
326.175	40.28
326.388	132.44
326.601	97.62
326.814	-4.78
327.027	42.32
327.24	122.2
327.453	-60.07
327.666	30.04
327.879	77.14
328.092	109.91
328.305	68.95
328.518	-35.5
328.731	44.37
328.944	40.28
329.157	73.04
329.37	11.61
329.583	105.81
329.796	120.15
330.009	23.89
330.222	27.99
330.435	122.2
330.648	32.08
330.861	99.67
331.073	73.04
331.286	77.14
331.499	27.99
331.712	-6.83
331.925	-12.97
332.138	7.51
332.35	81.24
332.563	3.41
332.776	79.19
332.989	36.18
333.202	71
333.414	48.47
333.627	9.56
333.84	62.8
334.053	-37.55
334.265	56.66
334.478	50.52
334.691	50.52
334.903	34.13
335.116	7.51
335.329	66.9
335.541	81.24
335.754	75.09
335.966	50.52
336.179	21.85
336.392	9.56
336.604	23.89
336.817	93.52
337.029	77.14
337.242	-74.41
337.454	138.58
337.667	27.99
337.88	83.28
338.092	52.56
338.305	75.09
338.517	56.66
338.729	134.48
338.942	116.05
339.154	17.75
339.367	-105.13
339.579	85.33
339.792	19.8
340.004	34.13
340.217	40.28
340.429	58.71
340.641	32.08
340.854	42.32
341.066	91.48
341.278	87.38
341.491	77.14
341.703	38.23
341.915	-29.35
342.128	5.46
342.34	48.47
342.552	-6.83
342.764	71
342.977	52.56
343.189	89.43
343.401	-19.11
343.613	38.23
343.826	165.2
344.038	-84.65
344.25	66.9
344.462	75.09
344.674	99.67
344.886	50.52
345.099	5.46
345.311	-2.73
345.523	27.99
345.735	-37.55
345.947	-6.83
346.159	52.56
346.371	71
346.583	38.23
346.795	93.52
347.007	-8.87
347.219	-41.64
347.431	40.28
347.643	73.04
347.855	17.75
348.067	9.56
348.279	17.75
348.491	93.52
348.703	-15.02
348.915	38.23
349.127	52.56
349.339	56.66
349.551	46.42
349.763	54.61
349.975	17.75
350.187	64.85
350.399	50.52
350.61	99.67
350.822	50.52
351.034	75.09
351.246	64.85
351.458	30.04
351.669	32.08
351.881	85.33
352.093	34.13
352.305	148.82
352.517	42.32
352.728	21.85
352.94	68.95
353.152	48.47
353.363	9.56
353.575	34.13
353.787	79.19
353.999	132.44
354.21	21.85
354.422	46.42
354.633	-10.92
354.845	32.08
355.057	83.28
355.268	81.24
355.48	46.42
355.692	89.43
355.903	3.41
356.115	40.28
356.326	-53.93
356.538	75.09
356.749	68.95
356.961	83.28
357.172	9.56
357.384	32.08
357.595	97.62
357.807	50.52
358.018	54.61
358.23	27.99
358.441	42.32
358.653	46.42
358.864	60.76
359.075	36.18
359.287	34.13
359.498	105.81
359.709	44.37
359.921	-35.5
360.132	19.8
360.344	32.08
360.555	11.61
360.766	73.04
360.977	73.04
361.189	36.18
361.4	101.72
361.611	95.57
361.823	46.42
362.034	73.04
362.245	36.18
362.456	-12.97
362.667	15.7
362.879	23.89
363.09	30.04
363.301	-2.73
363.512	-2.73
363.723	36.18
363.935	-4.78
364.146	48.47
364.357	23.89
364.568	19.8
364.779	27.99
364.99	42.32
365.201	-10.92
365.412	75.09
365.623	-68.27
365.834	50.52
366.045	7.51
366.256	79.19
366.467	25.94
366.678	66.9
366.889	58.71
367.1	38.23
367.311	101.72
367.522	91.48
367.733	54.61
367.944	25.94
368.155	25.94
368.366	44.37
368.577	95.57
368.788	38.23
368.999	-37.55
369.209	60.76
369.42	109.91
369.631	93.52
369.842	93.52
370.053	40.28
370.264	85.33
370.474	89.43
370.685	60.76
370.896	118.1
371.107	58.71
371.317	91.48
371.528	97.62
371.739	32.08
371.95	40.28
372.16	48.47
372.371	60.76
372.582	58.71
372.792	-41.64
373.003	93.52
373.214	27.99
373.424	15.7
373.635	1.37
373.846	11.61
374.056	95.57
374.267	81.24
374.477	-23.21
374.688	-0.68
374.898	73.04
375.109	152.92
375.319	71
375.53	40.28
375.74	50.52
375.951	17.75
376.161	66.9
376.372	105.81
376.582	-12.97
376.793	62.8
377.003	68.95
377.214	48.47
377.424	77.14
377.635	62.8
377.845	-55.98
378.055	11.61
378.266	5.46
378.476	1.37
378.686	34.13
378.897	34.13
379.107	44.37
379.317	54.61
379.528	46.42
379.738	122.2
379.948	40.28
380.158	114
380.369	19.8
380.579	85.33
380.789	85.33
380.999	34.13
381.21	13.65
381.42	132.44
381.63	17.75
381.84	62.8
382.05	75.09
382.261	111.96
382.471	148.82
382.681	40.28
382.891	77.14
383.101	97.62
383.311	3.41
383.521	23.89
383.731	60.76
383.941	42.32
384.151	60.76
384.361	60.76
384.571	27.99
384.781	50.52
384.991	91.48
385.201	140.63
385.411	97.62
385.621	93.52
385.831	7.51
386.041	64.85
386.251	48.47
386.461	73.04
386.671	81.24
386.881	105.81
387.091	48.47
387.301	97.62
387.511	50.52
387.72	105.81
387.93	64.85
388.14	-62.12
388.35	101.72
388.56	89.43
388.769	138.58
388.979	52.56
389.189	30.04
389.399	124.24
389.609	150.87
389.818	99.67
390.028	38.23
390.238	85.33
390.447	-41.64
390.657	118.1
390.867	134.48
391.076	-19.11
391.286	52.56
391.496	32.08
391.705	56.66
391.915	120.15
392.125	122.2
392.334	56.66
392.544	109.91
392.753	81.24
392.963	87.38
393.172	79.19
393.382	116.05
393.591	116.05
393.801	91.48
394.01	195.92
394.22	60.76
394.429	7.51
394.639	54.61
394.848	111.96
395.058	101.72
395.267	85.33
395.477	140.63
395.686	114
395.895	171.35
396.105	154.96
396.314	122.2
396.524	81.24
396.733	122.2
396.942	140.63
397.152	91.48
397.361	97.62
397.57	79.19
397.78	91.48
397.989	32.08
398.198	122.2
398.407	93.52
398.617	68.95
398.826	150.87
399.035	34.13
399.244	146.77
399.453	103.76
399.663	75.09
399.872	56.66
400.081	34.13
400.29	89.43
400.499	75.09
400.708	128.34
400.917	83.28
401.127	77.14
401.336	46.42
401.545	140.63
401.754	144.72
401.963	128.34
402.172	79.19
402.381	64.85
402.59	87.38
402.799	122.2
403.008	167.25
403.217	157.01
403.426	118.1
403.635	75.09
403.844	50.52
404.053	17.75
404.262	44.37
404.471	169.3
404.68	124.24
404.888	124.24
405.097	99.67
405.306	138.58
405.515	206.16
405.724	58.71
405.933	118.1
406.142	171.35
406.35	146.77
406.559	138.58
406.768	114
406.977	253.27
407.185	200.02
407.394	165.2
407.603	46.42
407.812	232.79
408.02	179.54
408.229	89.43
408.438	265.55
408.646	99.67
408.855	165.2
409.064	185.68
409.272	179.54
409.481	283.99
409.69	173.39
409.898	253.27
410.107	183.63
410.315	232.79
410.524	283.99
410.733	286.03
410.941	261.46
411.15	374.1
411.358	355.66
411.567	320.85
411.775	378.19
411.984	335.18
412.192	380.24
412.401	365.9
412.609	415.06
412.818	496.97
413.026	480.59
413.234	427.34
413.443	359.76
413.651	443.73
413.86	521.55
414.068	582.99
414.276	605.52
414.485	533.84
414.693	607.56
414.901	660.81
415.11	601.42
415.318	642.38
415.526	623.95
415.734	679.24
415.943	681.29
416.151	671.05
416.359	726.35
416.567	816.46
416.776	879.94
416.984	773.45
417.192	777.55
417.4	857.42
417.608	802.12
417.817	830.79
418.025	955.72
418.233	968.01
418.441	984.39
418.649	972.1
418.857	1166.66
419.065	1174.85
419.273	1039.69
419.481	1262.91
419.689	1174.85
419.897	1350.98
420.105	1281.35
420.313	1365.31
420.521	1393.98
420.729	1457.47
420.937	1471.81
421.145	1498.43
421.353	1604.92
421.561	1682.75
421.769	1762.62
421.977	1688.89
422.185	1662.27
422.393	1916.22
422.601	1918.26
422.809	1867.06
423.017	2063.67
423.224	1989.94
423.432	2000.18
423.64	2153.78
423.848	2350.39
424.056	2194.74
424.263	2454.83
424.471	2438.45
424.679	2585.9
424.887	2643.24
425.094	2770.22
425.302	2735.4
425.51	2929.96
425.718	2753.84
425.925	2907.43
426.133	3015.98
426.341	3296.55
426.548	3341.6
426.756	3396.9
426.964	3454.24
427.171	3673.37
427.379	3573.02
427.586	3677.47
427.794	3976.47
428.001	4001.05
428.209	4085.02
428.417	4322.58
428.624	4476.18
428.832	4334.87
429.039	4316.44
429.247	4412.69
429.454	4812.04
429.662	5096.71
429.869	4754.7
430.076	5383.43
430.284	5072.14
430.491	5348.61
430.699	5600.51
430.906	5627.14
431.114	5469.44
431.321	5885.18
431.528	5915.9
431.736	6284.53
431.943	6647.02
432.15	6487.28
432.358	6657.26
432.565	6708.46
432.772	6847.72
432.979	7195.88
433.187	7347.43
433.394	7218.41
433.601	7865.57
433.808	7875.81
434.016	7933.15
434.223	8053.98
434.43	8471.76
434.637	8346.84
434.844	8987.85
435.052	9166.03
435.259	9264.33
435.466	9286.86
435.673	9131.21
435.88	9774.27
436.087	10509.49
436.294	10378.42
436.501	9962.69
436.708	10245.31
436.915	10521.78
437.122	10927.28
437.329	11107.5
437.537	11488.42
437.743	11570.34
437.95	11355.3
438.157	12014.75
438.364	12395.67
438.571	12450.97
438.778	12545.17
438.985	13685.89
439.192	13087.89
439.399	13755.52
439.606	13198.48
439.813	14099.58
440.02	14982.26
440.227	14414.97
440.433	14488.7
440.64	15015.02
440.847	15107.18
441.054	15244.4
441.261	16129.12
441.467	15928.42
441.674	16215.13
441.881	16763.99
442.088	16761.94
442.294	16569.43
442.501	17445.96
442.708	17550.41
442.914	18136.13
443.121	19201.07
443.328	18816.05
443.534	19821.61
443.741	19176.5
443.948	19184.69
444.154	20319.26
444.361	20364.32
444.568	20567.07
444.774	20556.83
444.981	20704.28
445.187	21398.54
445.394	22217.73
445.6	22000.65
445.807	24232.93
446.013	23172.08
446.22	23077.88
446.426	24624.09
446.633	24816.6
446.839	25459.66
447.046	24179.68
447.252	25813.96
447.459	25463.76
447.665	25545.68
447.871	26790.84
448.078	27982.76
448.284	26680.25
448.491	27599.79
448.697	28435.36
448.903	29234.07
449.11	29363.09
449.316	28695.46
449.522	29062.04
449.728	30305.16
449.935	29948.81
450.141	30270.34
450.347	31075.2
450.553	30094.22
450.76	30352.26
450.966	31116.15
451.172	31224.7
451.378	31755.12
451.584	31337.34
451.791	32060.27
451.997	32197.48
452.203	32744.29
452.409	32615.27
452.615	32168.81
452.821	31114.11
453.027	30698.37
453.233	32426.85
453.44	31044.48
453.646	31699.83
453.852	32082.8
454.058	32531.3
454.264	31611.76
454.47	32224.11
454.676	31247.22
454.882	32547.68
455.088	29445.01
455.294	30335.88
455.5	30407.56
455.705	31101.82
455.911	29891.47
456.117	29287.32
456.323	28603.3
456.529	27157.43
456.735	28709.79
456.941	27827.12
457.147	27040.7
457.352	26440.64
457.558	26164.17
457.764	26371.01
457.97	25914.31
458.176	25424.85
458.381	25166.81
458.587	23962.6
458.793	23868.39
458.999	22774.78
459.204	24503.26
459.41	23813.1
459.616	22105.09
459.821	22045.7
460.027	21980.17
460.233	21875.72
460.438	20370.46
460.644	20655.13
460.85	19655.72
461.055	19493.93
461.261	19385.39
461.466	18158.66
461.672	17636.42
461.878	18607.16
462.083	17531.98
462.289	17218.64
462.494	16952.4
462.7	16237.66
462.905	15934.56
463.111	16256.09
463.316	16417.88
463.522	16041.06
463.727	15909.99
463.932	15875.17
464.138	15684.71
464.343	15758.44
464.549	15309.93
464.754	15955.04
464.959	15484.01
465.165	15494.25
465.37	14924.91
465.575	14433.4
465.781	15223.92
465.986	15576.17
466.191	14660.73
466.397	14468.22
466.602	13808.77
466.807	14412.92
467.012	14357.63
467.218	14146.69
467.423	14253.18
