Data from USB4F104151__54__13-05-35-162.txt Node

Date: Fri Mar 14 13:05:35 EDT 2025
User: louis
Spectrometer: USB4F10415
Trigger mode: 4
Integration Time (sec): 4.000000E-2
Scans to average: 1
Electric dark correction enabled: true
Nonlinearity correction enabled: false
Boxcar width: 0
XAxis mode: Wavelengths
Number of Pixels in Spectrum: 3648
>>>>>Begin Spectral Data<<<<<
178.204	-207.02
178.424	-207.02
178.644	-207.02
178.864	-96.43
179.084	-219.3
179.304	-2.22
179.524	12.12
179.744	36.69
179.964	69.46
180.184	22.36
180.404	-34.99
180.624	-18.6
180.844	18.26
181.064	-69.8
181.283	-49.32
181.503	-61.61
181.723	77.65
181.943	-10.41
182.163	126.8
182.383	57.17
182.602	34.64
182.822	53.08
183.042	24.4
183.262	34.64
183.482	8.02
183.701	28.5
183.921	26.45
184.141	-41.13
184.361	79.7
184.58	100.18
184.8	-57.51
185.02	5.97
185.239	114.52
185.459	8.02
185.679	112.47
185.898	22.36
186.118	81.75
186.338	3.93
186.557	28.5
186.777	-57.51
186.997	-32.94
187.216	40.79
187.436	106.32
187.655	53.08
187.875	48.98
188.095	79.7
188.314	24.4
188.534	38.74
188.753	-28.84
188.973	44.88
189.192	28.5
189.412	-20.65
189.631	94.04
189.851	110.42
190.07	135
190.29	-45.23
190.509	8.02
190.729	-55.47
190.948	100.18
191.168	192.34
191.387	75.6
191.607	-18.6
191.826	16.21
192.045	-2.22
192.265	-12.46
192.484	55.12
192.704	20.31
192.923	14.17
193.142	163.67
193.362	145.24
193.581	102.23
193.8	69.46
194.02	126.8
194.239	81.75
194.458	71.51
194.678	48.98
194.897	89.94
195.116	20.31
195.335	85.84
195.555	94.04
195.774	-22.7
195.993	12.12
196.212	83.8
196.432	32.6
196.651	-47.27
196.87	59.22
197.089	135
197.308	46.93
197.528	114.52
197.747	-61.61
197.966	30.55
198.185	128.85
198.404	36.69
198.623	106.32
198.842	42.84
199.062	61.27
199.281	98.13
199.5	38.74
199.719	12.12
199.938	110.42
200.157	94.04
200.376	42.84
200.595	202.58
200.814	83.8
201.033	28.5
201.252	42.84
201.471	83.8
201.69	102.23
201.909	120.66
202.128	104.28
202.347	32.6
202.566	42.84
202.785	-14.51
203.004	28.5
203.223	175.95
203.442	-2.22
203.661	8.02
203.879	69.46
204.098	130.9
204.317	-14.51
204.536	106.32
204.755	5.97
204.974	81.75
205.193	87.89
205.411	135
205.63	61.27
205.849	128.85
206.068	91.99
206.287	36.69
206.505	57.17
206.724	69.46
206.943	57.17
207.162	-4.27
207.381	114.52
207.599	8.02
207.818	38.74
208.037	53.08
208.255	22.36
208.474	-2.22
208.693	34.64
208.911	1.88
209.13	42.84
209.349	65.36
209.567	59.22
209.786	145.24
210.005	30.55
210.223	32.6
210.442	-12.46
210.661	16.21
210.879	44.88
211.098	-37.03
211.316	40.79
211.535	112.47
211.753	100.18
211.972	30.55
212.191	-20.65
212.409	96.08
212.628	-10.41
212.846	36.69
213.065	44.88
213.283	94.04
213.502	48.98
213.72	96.08
213.938	85.84
214.157	46.93
214.375	71.51
214.594	-41.13
214.812	139.09
215.031	59.22
215.249	28.5
215.467	20.31
215.686	-14.51
215.904	75.6
216.122	85.84
216.341	126.8
216.559	14.17
216.778	48.98
216.996	77.65
217.214	44.88
217.432	-2.22
217.651	-26.79
217.869	18.26
218.087	87.89
218.306	28.5
218.524	83.8
218.742	1.88
218.96	24.4
219.179	28.5
219.397	36.69
219.615	96.08
219.833	24.4
220.051	42.84
220.27	139.09
220.488	116.56
220.706	89.94
220.924	8.02
221.142	-8.36
221.36	12.12
221.578	85.84
221.796	44.88
222.015	42.84
222.233	36.69
222.451	79.7
222.669	32.6
222.887	20.31
223.105	26.45
223.323	-12.46
223.541	22.36
223.759	91.99
223.977	139.09
224.195	61.27
224.413	71.51
224.631	22.36
224.849	114.52
225.067	65.36
225.285	-41.13
225.503	59.22
225.721	-94.38
225.939	-12.46
226.157	65.36
226.375	128.85
226.592	20.31
226.81	-0.17
227.028	22.36
227.246	71.51
227.464	32.6
227.682	-4.27
227.9	12.12
228.117	94.04
228.335	-2.22
228.553	-12.46
228.771	38.74
228.989	24.4
229.206	63.32
229.424	18.26
229.642	30.55
229.86	48.98
230.077	102.23
230.295	24.4
230.513	73.56
230.731	8.02
230.948	91.99
231.166	40.79
231.384	-8.36
231.601	-14.51
231.819	112.47
232.037	-2.22
232.254	30.55
232.472	5.97
232.689	-34.99
232.907	79.7
233.125	36.69
233.342	5.97
233.56	-37.03
233.777	51.03
233.995	36.69
234.213	79.7
234.43	14.17
234.648	114.52
234.865	10.07
235.083	96.08
235.3	87.89
235.518	112.47
235.735	182.1
235.953	118.61
236.17	30.55
236.388	63.32
236.605	81.75
236.822	108.37
237.04	61.27
237.257	73.56
237.475	-4.27
237.692	59.22
237.909	-20.65
238.127	48.98
238.344	65.36
238.562	46.93
238.779	-65.71
238.996	65.36
239.214	38.74
239.431	20.31
239.648	42.84
239.865	63.32
240.083	155.47
240.3	-2.22
240.517	10.07
240.735	12.12
240.952	67.41
241.169	20.31
241.386	44.88
241.603	63.32
241.821	3.93
242.038	94.04
242.255	102.23
242.472	46.93
242.689	46.93
242.907	30.55
243.124	61.27
243.341	44.88
243.558	8.02
243.775	-32.94
243.992	-63.66
244.209	53.08
244.426	110.42
244.643	38.74
244.86	12.12
245.078	51.03
245.295	79.7
245.512	91.99
245.729	32.6
245.946	91.99
246.163	59.22
246.38	53.08
246.597	36.69
246.814	44.88
247.031	48.98
247.248	-6.31
247.464	159.57
247.681	145.24
247.898	20.31
248.115	53.08
248.332	-2.22
248.549	-12.46
248.766	79.7
248.983	53.08
249.2	-8.36
249.417	40.79
249.633	65.36
249.85	65.36
250.067	-49.32
250.284	69.46
250.501	67.41
250.717	85.84
250.934	44.88
251.151	16.21
251.368	34.64
251.585	40.79
251.801	16.21
252.018	-71.85
252.235	46.93
252.451	87.89
252.668	-43.18
252.885	79.7
253.102	96.08
253.318	38.74
253.535	18.26
253.752	10.07
253.968	10.07
254.185	16.21
254.401	77.65
254.618	87.89
254.835	48.98
255.051	106.32
255.268	18.26
255.484	51.03
255.701	3.93
255.917	87.89
256.134	14.17
256.351	30.55
256.567	18.26
256.784	24.4
257	-22.7
257.217	118.61
257.433	38.74
257.65	48.98
257.866	30.55
258.082	-41.13
258.299	122.71
258.515	83.8
258.732	61.27
258.948	-0.17
259.165	75.6
259.381	65.36
259.597	89.94
259.814	22.36
260.03	44.88
260.246	85.84
260.463	40.79
260.679	63.32
260.895	151.38
261.112	46.93
261.328	14.17
261.544	36.69
261.761	147.28
261.977	120.66
262.193	-4.27
262.409	180.05
262.626	26.45
262.842	69.46
263.058	-0.17
263.274	36.69
263.49	61.27
263.707	71.51
263.923	73.56
264.139	51.03
264.355	59.22
264.571	85.84
264.787	63.32
265.004	48.98
265.22	-0.17
265.436	38.74
265.652	-37.03
265.868	85.84
266.084	5.97
266.3	46.93
266.516	59.22
266.732	61.27
266.948	51.03
267.164	34.64
267.38	83.8
267.596	26.45
267.812	161.62
268.028	36.69
268.244	14.17
268.46	-37.03
268.676	-28.84
268.892	77.65
269.108	-82.09
269.324	16.21
269.54	-24.75
269.756	79.7
269.972	20.31
270.188	67.41
270.403	40.79
270.619	26.45
270.835	63.32
271.051	32.6
271.267	75.6
271.483	-43.18
271.698	65.36
271.914	44.88
272.13	69.46
272.346	34.64
272.562	69.46
272.777	44.88
272.993	69.46
273.209	-4.27
273.425	63.32
273.64	-2.22
273.856	163.67
274.072	143.19
274.287	-22.7
274.503	77.65
274.719	77.65
274.934	3.93
275.15	-2.22
275.366	55.12
275.581	-26.79
275.797	44.88
276.012	51.03
276.228	22.36
276.444	118.61
276.659	141.14
276.875	51.03
277.09	26.45
277.306	28.5
277.521	79.7
277.737	79.7
277.952	59.22
278.168	-49.32
278.383	137.04
278.599	-14.51
278.814	137.04
279.03	32.6
279.245	94.04
279.461	46.93
279.676	130.9
279.892	-41.13
280.107	59.22
280.322	-30.89
280.538	143.19
280.753	-6.31
280.969	63.32
281.184	8.02
281.399	104.28
281.615	-12.46
281.83	91.99
282.045	59.22
282.26	-37.03
282.476	100.18
282.691	132.95
282.906	73.56
283.122	5.97
283.337	-0.17
283.552	57.17
283.767	24.4
283.983	120.66
284.198	20.31
284.413	96.08
284.628	8.02
284.843	63.32
285.058	118.61
285.274	57.17
285.489	-6.31
285.704	42.84
285.919	44.88
286.134	71.51
286.349	91.99
286.564	36.69
286.779	57.17
286.995	38.74
287.21	3.93
287.425	71.51
287.64	34.64
287.855	44.88
288.07	-10.41
288.285	71.51
288.5	94.04
288.715	96.08
288.93	69.46
289.145	-4.27
289.36	126.8
289.575	28.5
289.79	116.56
290.004	26.45
290.219	139.09
290.434	-28.84
290.649	53.08
290.864	-18.6
291.079	69.46
291.294	77.65
291.509	40.79
291.724	-20.65
291.938	12.12
292.153	63.32
292.368	-2.22
292.583	1.88
292.798	-14.51
293.012	100.18
293.227	106.32
293.442	79.7
293.657	100.18
293.871	135
294.086	8.02
294.301	71.51
294.516	87.89
294.73	61.27
294.945	-18.6
295.16	-8.36
295.374	106.32
295.589	16.21
295.804	-6.31
296.018	8.02
296.233	137.04
296.447	55.12
296.662	53.08
296.877	81.75
297.091	110.42
297.306	55.12
297.52	44.88
297.735	69.46
297.949	1.88
298.164	77.65
298.378	73.56
298.593	-43.18
298.807	81.75
299.022	-34.99
299.236	69.46
299.451	38.74
299.665	-43.18
299.88	22.36
300.094	98.13
300.309	71.51
300.523	5.97
300.737	-18.6
300.952	3.93
301.166	32.6
301.381	-32.94
301.595	24.4
301.809	12.12
302.024	48.98
302.238	46.93
302.452	67.41
302.667	-0.17
302.881	-14.51
303.095	30.55
303.309	53.08
303.524	-32.94
303.738	42.84
303.952	63.32
304.166	38.74
304.381	-16.55
304.595	163.67
304.809	14.17
305.023	-45.23
305.237	18.26
305.452	12.12
305.666	20.31
305.88	89.94
306.094	26.45
306.308	116.56
306.522	30.55
306.736	28.5
306.95	53.08
307.164	18.26
307.379	-14.51
307.593	106.32
307.807	106.32
308.021	135
308.235	20.31
308.449	-4.27
308.663	-4.27
308.877	159.57
309.091	42.84
309.305	106.32
309.519	-24.75
309.733	77.65
309.947	-12.46
310.161	36.69
310.374	81.75
310.588	79.7
310.802	34.64
311.016	96.08
311.23	100.18
311.444	10.07
311.658	-51.37
311.872	61.27
312.085	63.32
312.299	137.04
312.513	63.32
312.727	89.94
312.941	28.5
313.154	63.32
313.368	98.13
313.582	34.64
313.796	28.5
314.009	55.12
314.223	79.7
314.437	-12.46
314.651	63.32
314.864	40.79
315.078	36.69
315.292	20.31
315.505	81.75
315.719	34.64
315.933	96.08
316.146	51.03
316.36	-24.75
316.573	46.93
316.787	96.08
317.001	81.75
317.214	-41.13
317.428	96.08
317.641	44.88
317.855	73.56
318.068	96.08
318.282	42.84
318.495	55.12
318.709	124.76
318.922	38.74
319.136	94.04
319.349	57.17
319.563	-26.79
319.776	44.88
319.99	69.46
320.203	89.94
320.417	57.17
320.63	89.94
320.843	130.9
321.057	36.69
321.27	71.51
321.483	87.89
321.697	106.32
321.91	16.21
322.124	48.98
322.337	44.88
322.55	55.12
322.763	12.12
322.977	83.8
323.19	87.89
323.403	73.56
323.617	77.65
323.83	22.36
324.043	32.6
324.256	-0.17
324.469	-71.85
324.683	77.65
324.896	12.12
325.109	106.32
325.322	-0.17
325.535	57.17
325.748	61.27
325.962	26.45
326.175	-4.27
326.388	51.03
326.601	-14.51
326.814	-20.65
327.027	24.4
327.24	169.81
327.453	12.12
327.666	22.36
327.879	85.84
328.092	81.75
328.305	-12.46
328.518	44.88
328.731	32.6
328.944	-8.36
329.157	87.89
329.37	3.93
329.583	165.71
329.796	87.89
330.009	81.75
330.222	8.02
330.435	32.6
330.648	77.65
330.861	73.56
331.073	53.08
331.286	67.41
331.499	79.7
331.712	73.56
331.925	110.42
332.138	10.07
332.35	10.07
332.563	34.64
332.776	157.52
332.989	38.74
333.202	67.41
333.414	44.88
333.627	20.31
333.84	32.6
334.053	53.08
334.265	51.03
334.478	79.7
334.691	87.89
334.903	10.07
335.116	38.74
335.329	5.97
335.541	63.32
335.754	102.23
335.966	-4.27
336.179	32.6
336.392	34.64
336.604	24.4
336.817	87.89
337.029	100.18
337.242	5.97
337.454	63.32
337.667	8.02
337.88	75.6
338.092	120.66
338.305	69.46
338.517	20.31
338.729	-4.27
338.942	73.56
339.154	44.88
339.367	-26.79
339.579	69.46
339.792	98.13
340.004	63.32
340.217	14.17
340.429	135
340.641	-16.55
340.854	73.56
341.066	-8.36
341.278	139.09
341.491	87.89
341.703	57.17
341.915	46.93
342.128	30.55
342.34	59.22
342.552	44.88
342.764	16.21
342.977	69.46
343.189	38.74
343.401	55.12
343.613	-102.57
343.826	75.6
344.038	87.89
344.25	89.94
344.462	5.97
344.674	61.27
344.886	57.17
345.099	20.31
345.311	94.04
345.523	71.51
345.735	-12.46
345.947	98.13
346.159	79.7
346.371	63.32
346.583	81.75
346.795	186.19
347.007	28.5
347.219	87.89
347.431	75.6
347.643	94.04
347.855	-20.65
348.067	81.75
348.279	8.02
348.491	147.28
348.703	155.47
348.915	26.45
349.127	-59.56
349.339	69.46
349.551	-20.65
349.763	110.42
349.975	94.04
350.187	100.18
350.399	20.31
350.61	96.08
350.822	38.74
351.034	63.32
351.246	-14.51
351.458	65.36
351.669	106.32
351.881	126.8
352.093	85.84
352.305	110.42
352.517	87.89
352.728	161.62
352.94	65.36
353.152	73.56
353.363	3.93
353.575	143.19
353.787	20.31
353.999	28.5
354.21	61.27
354.422	79.7
354.633	77.65
354.845	46.93
355.057	57.17
355.268	73.56
355.48	118.61
355.692	28.5
355.903	51.03
356.115	-2.22
356.326	38.74
356.538	102.23
356.749	5.97
356.961	79.7
357.172	34.64
357.384	-18.6
357.595	137.04
357.807	26.45
358.018	55.12
358.23	81.75
358.441	175.95
358.653	40.79
358.864	63.32
359.075	-12.46
359.287	98.13
359.498	96.08
359.709	61.27
359.921	69.46
360.132	79.7
360.344	112.47
360.555	44.88
360.766	79.7
360.977	3.93
361.189	130.9
361.4	30.55
361.611	44.88
361.823	132.95
362.034	73.56
362.245	104.28
362.456	48.98
362.667	85.84
362.879	81.75
363.09	38.74
363.301	53.08
363.512	89.94
363.723	28.5
363.935	85.84
364.146	77.65
364.357	36.69
364.568	126.8
364.779	20.31
364.99	106.32
365.201	85.84
365.412	18.26
365.623	42.84
365.834	112.47
366.045	51.03
366.256	96.08
366.467	106.32
366.678	100.18
366.889	71.51
367.1	57.17
367.311	38.74
367.522	-12.46
367.733	85.84
367.944	30.55
368.155	85.84
368.366	94.04
368.577	108.37
368.788	63.32
368.999	-0.17
369.209	81.75
369.42	108.37
369.631	77.65
369.842	36.69
370.053	-12.46
370.264	71.51
370.474	10.07
370.685	44.88
370.896	102.23
371.107	137.04
371.317	63.32
371.528	18.26
371.739	53.08
371.95	32.6
372.16	151.38
372.371	59.22
372.582	128.85
372.792	71.51
373.003	102.23
373.214	34.64
373.424	106.32
373.635	51.03
373.846	106.32
374.056	57.17
374.267	110.42
374.477	40.79
374.688	-16.55
374.898	61.27
375.109	81.75
375.319	79.7
375.53	143.19
375.74	85.84
375.951	59.22
376.161	81.75
376.372	143.19
376.582	-8.36
376.793	110.42
377.003	42.84
377.214	28.5
377.424	22.36
377.635	53.08
377.845	44.88
378.055	149.33
378.266	53.08
378.476	14.17
378.686	114.52
378.897	26.45
379.107	112.47
379.317	110.42
379.528	67.41
379.738	149.33
379.948	-32.94
380.158	102.23
380.369	73.56
380.579	63.32
380.789	67.41
380.999	94.04
381.21	85.84
381.42	89.94
381.63	38.74
381.84	65.36
382.05	46.93
382.261	55.12
382.471	114.52
382.681	3.93
382.891	175.95
383.101	57.17
383.311	-47.27
383.521	12.12
383.731	182.1
383.941	83.8
384.151	106.32
384.361	67.41
384.571	44.88
384.781	114.52
384.991	126.8
385.201	110.42
385.411	65.36
385.621	-4.27
385.831	16.21
386.041	22.36
386.251	81.75
386.461	159.57
386.671	5.97
386.881	143.19
387.091	14.17
387.301	63.32
387.511	73.56
387.72	100.18
387.93	120.66
388.14	65.36
388.35	16.21
388.56	24.4
388.769	83.8
388.979	5.97
389.189	77.65
389.399	36.69
389.609	46.93
389.818	89.94
390.028	112.47
390.238	71.51
390.447	42.84
390.657	61.27
390.867	-6.31
391.076	100.18
391.286	34.64
391.496	24.4
391.705	77.65
391.915	130.9
392.125	153.43
392.334	79.7
392.544	143.19
392.753	12.12
392.963	104.28
393.172	118.61
393.382	77.65
393.591	206.67
393.801	38.74
394.01	96.08
394.22	145.24
394.429	75.6
394.639	44.88
394.848	161.62
395.058	135
395.267	63.32
395.477	104.28
395.686	91.99
395.895	104.28
396.105	200.53
396.314	108.37
396.524	34.64
396.733	81.75
396.942	159.57
397.152	42.84
397.361	128.85
397.57	112.47
397.78	53.08
397.989	85.84
398.198	188.24
398.407	100.18
398.617	135
398.826	79.7
399.035	67.41
399.244	120.66
399.453	114.52
399.663	126.8
399.872	130.9
400.081	94.04
400.29	171.86
400.499	161.62
400.708	135
400.917	77.65
401.127	171.86
401.336	75.6
401.545	227.15
401.754	169.81
401.963	163.67
402.172	81.75
402.381	14.17
402.59	141.14
402.799	139.09
403.008	196.43
403.217	116.56
403.426	94.04
403.635	30.55
403.844	137.04
404.053	114.52
404.262	75.6
404.471	175.95
404.68	124.76
404.888	143.19
405.097	122.71
405.306	106.32
405.515	139.09
405.724	227.15
405.933	190.29
406.142	200.53
406.35	257.87
406.559	178
406.768	247.63
406.977	241.49
407.185	126.8
407.394	196.43
407.603	169.81
407.812	266.07
408.02	272.21
408.229	245.59
408.438	229.2
408.646	141.14
408.855	200.53
409.064	239.44
409.272	302.93
409.481	395.09
409.69	272.21
409.898	259.92
410.107	196.43
410.315	335.7
410.524	300.88
410.733	421.71
410.941	364.37
411.15	397.14
411.358	388.94
411.567	382.8
411.775	347.98
411.984	329.55
412.192	491.34
412.401	356.18
412.609	440.14
412.818	456.53
413.026	454.48
413.234	493.39
413.443	495.44
413.651	501.58
413.86	483.15
414.068	528.21
414.276	612.17
414.485	556.88
414.693	644.94
414.901	679.75
415.11	644.94
415.318	626.51
415.526	751.43
415.734	696.14
415.943	728.91
416.151	827.21
416.359	767.82
416.567	845.64
416.776	823.11
416.984	929.61
417.192	857.93
417.4	927.56
417.608	872.26
417.817	1003.33
418.025	986.95
418.233	1044.29
418.441	1027.91
418.649	966.47
418.857	1238.85
419.065	1259.33
419.273	1036.1
419.481	1240.9
419.689	1257.28
419.897	1392.45
420.105	1259.33
420.313	1462.08
420.521	1400.64
420.729	1341.25
420.937	1509.18
421.145	1570.62
421.353	1617.72
421.561	1806.14
421.769	1693.5
421.977	1847.1
422.185	1918.78
422.393	1888.06
422.601	2019.13
422.809	2023.22
423.017	1916.73
423.224	2187.06
423.432	2336.56
423.64	2135.86
423.848	2510.64
424.056	2373.43
424.263	2578.22
424.471	2506.54
424.679	2623.28
424.887	2723.63
425.094	2809.64
425.302	2930.47
425.51	2983.72
425.718	3053.35
425.925	3151.65
426.133	3053.35
426.341	3327.78
426.548	3649.31
426.756	3403.55
426.964	3634.97
427.171	3667.74
427.379	3925.79
427.586	3915.55
427.794	4034.33
428.001	4208.41
428.209	4417.3
428.417	4353.81
428.624	4644.62
428.832	4519.7
429.039	4634.38
429.247	4591.38
429.454	4943.63
429.662	5353.22
429.869	4980.49
430.076	5408.51
430.284	5371.65
430.491	5496.58
430.699	5965.56
430.906	5807.87
431.114	5816.06
431.321	6239.99
431.528	6029.05
431.736	6532.85
431.943	6983.4
432.15	6606.58
432.358	6852.33
432.565	7210.73
432.772	7050.99
432.979	7528.16
433.187	7605.99
433.394	7741.15
433.601	8099.55
433.808	8416.98
434.016	8210.14
434.223	8496.85
434.43	9053.9
434.637	8896.21
434.844	9512.64
435.052	9656
435.259	9623.23
435.466	9701.06
435.673	9539.27
435.88	10049.21
436.087	10778.29
436.294	10620.6
436.501	10444.47
436.708	10653.36
436.915	11191.98
437.122	11667.11
437.329	11523.75
437.537	12054.17
437.743	11996.83
437.95	11972.25
438.157	12508.82
438.364	12824.21
438.571	12889.74
438.778	12977.81
438.985	14380.67
439.192	13776.52
439.399	14249.6
439.606	13647.49
439.813	14685.81
440.02	15355.5
440.227	15185.52
440.433	15216.24
440.64	15548.01
440.847	15347.31
441.054	15906.4
441.261	16895.57
441.467	16744.02
441.674	17088.08
441.881	17688.14
442.088	17436.24
442.294	17516.11
442.501	18019.91
442.708	18165.31
442.914	18886.2
443.121	19893.8
443.328	19052.08
443.534	20504.09
443.741	20088.35
443.948	19930.66
444.154	21345.81
444.361	21374.48
444.568	21274.13
444.774	21597.71
444.981	21771.79
445.187	22222.34
445.394	23205.36
445.6	23000.57
445.807	24929.75
446.013	23954.92
446.22	24088.04
446.426	25308.63
446.633	25783.76
446.839	26695.1
447.046	25454.03
447.252	26785.21
447.459	27125.18
447.665	26684.86
447.871	28059.05
448.078	28960.16
448.284	28052.91
448.491	28472.74
448.697	29732.24
448.903	30184.84
449.11	30217.61
449.316	29889.93
449.522	30653.83
449.728	31190.39
449.935	31638.9
450.141	31376.76
450.347	32124.27
450.553	31182.2
450.76	31851.89
450.966	32597.35
451.172	32451.94
451.378	33189.21
451.584	32173.42
451.791	33324.38
451.997	33236.31
452.203	33770.83
452.409	33715.54
452.615	33420.63
452.821	32798.05
453.027	32161.13
453.233	33766.74
453.44	32593.25
453.646	33189.21
453.852	33236.31
454.058	33312.09
454.264	32451.94
454.47	33629.52
454.676	32640.36
454.882	33662.29
455.088	30641.54
455.294	31225.21
455.5	31860.08
455.705	32083.31
455.911	30989.69
456.117	30365.06
456.323	29769.1
456.529	28386.72
456.735	29244.82
456.941	28618.14
457.147	28138.92
457.352	27434.42
457.558	27192.76
457.764	27280.82
457.97	26619.33
458.176	26211.78
458.381	26328.52
458.587	24575.45
458.793	25034.2
458.999	24075.75
459.204	25122.26
459.41	24382.95
459.616	22930.94
459.821	23045.62
460.027	22791.67
460.233	22156.8
460.438	21245.46
460.644	21749.26
460.85	20360.73
461.055	20182.56
461.261	20373.02
461.466	18726.46
461.672	18134.59
461.878	19412.53
462.083	18067.01
462.289	17698.38
462.494	17487.43
462.7	16799.32
462.905	16229.98
463.111	16799.32
463.316	17038.93
463.522	16553.56
463.727	16791.13
463.932	16729.69
464.138	16217.69
464.343	16424.54
464.549	16250.46
464.754	16592.47
464.959	16367.2
465.165	16313.95
465.37	15670.89
465.575	15261.29
465.781	15674.98
465.986	15791.72
466.191	15210.09
466.397	14872.18
466.602	14317.18
466.807	14925.43
