Data from USB4F104151__80__13-06-08-759.txt Node

Date: Fri Mar 14 13:06:08 EDT 2025
User: louis
Spectrometer: USB4F10415
Trigger mode: 4
Integration Time (sec): 4.000000E-2
Scans to average: 1
Electric dark correction enabled: true
Nonlinearity correction enabled: false
Boxcar width: 0
XAxis mode: Wavelengths
Number of Pixels in Spectrum: 3648
>>>>>Begin Spectral Data<<<<<
178.204	-170.15
178.424	-170.15
178.644	-170.15
178.864	-161.96
179.084	-209.06
179.304	-26.79
179.524	-39.08
179.744	46.93
179.964	30.55
180.184	46.93
180.404	-57.51
180.624	30.55
180.844	46.93
181.064	-59.56
181.283	-30.89
181.503	-0.17
181.723	12.12
181.943	-28.84
182.163	59.22
182.383	16.21
182.602	116.56
182.822	108.37
183.042	83.8
183.262	-30.89
183.482	-4.27
183.701	-28.84
183.921	32.6
184.141	81.75
184.361	94.04
184.58	16.21
184.8	98.13
185.02	-39.08
185.239	22.36
185.459	24.4
185.679	75.6
185.898	-26.79
186.118	118.61
186.338	73.56
186.557	102.23
186.777	-47.27
186.997	10.07
187.216	110.42
187.436	94.04
187.655	48.98
187.875	65.36
188.095	34.64
188.314	67.41
188.534	42.84
188.753	-10.41
188.973	63.32
189.192	94.04
189.412	14.17
189.631	14.17
189.851	85.84
190.07	102.23
190.29	1.88
190.509	-0.17
190.729	-22.7
190.948	77.65
191.168	241.49
191.387	53.08
191.607	-34.99
191.826	79.7
192.045	18.26
192.265	12.12
192.484	108.37
192.704	32.6
192.923	10.07
193.142	210.77
193.362	46.93
193.581	67.41
193.8	18.26
194.02	67.41
194.239	42.84
194.458	59.22
194.678	12.12
194.897	100.18
195.116	40.79
195.335	36.69
195.555	75.6
195.774	36.69
195.993	42.84
196.212	10.07
196.432	65.36
196.651	87.89
196.87	1.88
197.089	149.33
197.308	34.64
197.528	44.88
197.747	-39.08
197.966	79.7
198.185	69.46
198.404	3.93
198.623	61.27
198.842	28.5
199.062	100.18
199.281	100.18
199.5	42.84
199.719	57.17
199.938	118.61
200.157	53.08
200.376	104.28
200.595	102.23
200.814	42.84
201.033	55.12
201.252	8.02
201.471	44.88
201.69	102.23
201.909	-10.41
202.128	85.84
202.347	20.31
202.566	16.21
202.785	55.12
203.004	-47.27
203.223	126.8
203.442	116.56
203.661	3.93
203.879	83.8
204.098	137.04
204.317	-43.18
204.536	75.6
204.755	83.8
204.974	-43.18
205.193	-6.31
205.411	51.03
205.63	-6.31
205.849	51.03
206.068	18.26
206.287	94.04
206.505	1.88
206.724	1.88
206.943	-30.89
207.162	116.56
207.381	59.22
207.599	10.07
207.818	67.41
208.037	18.26
208.255	3.93
208.474	42.84
208.693	61.27
208.911	14.17
209.13	44.88
209.349	75.6
209.567	98.13
209.786	108.37
210.005	69.46
210.223	10.07
210.442	-28.84
210.661	69.46
210.879	8.02
211.098	16.21
211.316	22.36
211.535	77.65
211.753	5.97
211.972	63.32
212.191	110.42
212.409	83.8
212.628	89.94
212.846	46.93
213.065	34.64
213.283	153.43
213.502	18.26
213.72	75.6
213.938	-22.7
214.157	30.55
214.375	12.12
214.594	57.17
214.812	71.51
215.031	46.93
215.249	51.03
215.467	8.02
215.686	10.07
215.904	73.56
216.122	42.84
216.341	102.23
216.559	79.7
216.778	81.75
216.996	122.71
217.214	36.69
217.432	-4.27
217.651	1.88
217.869	75.6
218.087	83.8
218.306	30.55
218.524	28.5
218.742	16.21
218.96	85.84
219.179	42.84
219.397	38.74
219.615	108.37
219.833	57.17
220.051	26.45
220.27	102.23
220.488	55.12
220.706	79.7
220.924	3.93
221.142	69.46
221.36	48.98
221.578	77.65
221.796	20.31
222.015	40.79
222.233	20.31
222.451	100.18
222.669	77.65
222.887	61.27
223.105	5.97
223.323	28.5
223.541	53.08
223.759	14.17
223.977	32.6
224.195	104.28
224.413	75.6
224.631	26.45
224.849	69.46
225.067	104.28
225.285	42.84
225.503	83.8
225.721	14.17
225.939	30.55
226.157	28.5
226.375	141.14
226.592	59.22
226.81	51.03
227.028	108.37
227.246	63.32
227.464	5.97
227.682	83.8
227.9	30.55
228.117	91.99
228.335	36.69
228.553	48.98
228.771	20.31
228.989	48.98
229.206	69.46
229.424	-6.31
229.642	-57.51
229.86	71.51
230.077	102.23
230.295	-20.65
230.513	124.76
230.731	106.32
230.948	65.36
231.166	120.66
231.384	18.26
231.601	28.5
231.819	94.04
232.037	-2.22
232.254	-30.89
232.472	51.03
232.689	55.12
232.907	91.99
233.125	5.97
233.342	81.75
233.56	22.36
233.777	100.18
233.995	30.55
234.213	112.47
234.43	40.79
234.648	1.88
234.865	12.12
235.083	28.5
235.3	-49.32
235.518	79.7
235.735	18.26
235.953	77.65
236.17	30.55
236.388	1.88
236.605	79.7
236.822	100.18
237.04	40.79
237.257	10.07
237.475	-28.84
237.692	18.26
237.909	48.98
238.127	83.8
238.344	42.84
238.562	59.22
238.779	1.88
238.996	16.21
239.214	34.64
239.431	149.33
239.648	42.84
239.865	104.28
240.083	73.56
240.3	40.79
240.517	5.97
240.735	34.64
240.952	96.08
241.169	38.74
241.386	48.98
241.603	73.56
241.821	75.6
242.038	75.6
242.255	-10.41
242.472	-16.55
242.689	91.99
242.907	83.8
243.124	118.61
243.341	34.64
243.558	-39.08
243.775	40.79
243.992	-45.23
244.209	108.37
244.426	116.56
244.643	36.69
244.86	59.22
245.078	51.03
245.295	26.45
245.512	26.45
245.729	63.32
245.946	67.41
246.163	83.8
246.38	34.64
246.597	-32.94
246.814	-8.36
247.031	-14.51
247.248	63.32
247.464	59.22
247.681	28.5
247.898	98.13
248.115	91.99
248.332	42.84
248.549	108.37
248.766	42.84
248.983	118.61
249.2	51.03
249.417	28.5
249.633	42.84
249.85	18.26
250.067	55.12
250.284	57.17
250.501	-22.7
250.717	53.08
250.934	-14.51
251.151	65.36
251.368	3.93
251.585	12.12
251.801	96.08
252.018	3.93
252.235	63.32
252.451	85.84
252.668	38.74
252.885	96.08
253.102	51.03
253.318	12.12
253.535	-26.79
253.752	141.14
253.968	53.08
254.185	-14.51
254.401	73.56
254.618	94.04
254.835	-77.99
255.051	116.56
255.268	178
255.484	100.18
255.701	85.84
255.917	30.55
256.134	3.93
256.351	18.26
256.567	-55.47
256.784	96.08
257	30.55
257.217	141.14
257.433	118.61
257.65	85.84
257.866	75.6
258.082	-71.85
258.299	77.65
258.515	34.64
258.732	14.17
258.948	1.88
259.165	16.21
259.381	40.79
259.597	85.84
259.814	1.88
260.03	40.79
260.246	77.65
260.463	73.56
260.679	-34.99
260.895	83.8
261.112	89.94
261.328	-4.27
261.544	-71.85
261.761	141.14
261.977	22.36
262.193	-51.37
262.409	75.6
262.626	98.13
262.842	69.46
263.058	44.88
263.274	46.93
263.49	38.74
263.707	67.41
263.923	5.97
264.139	-6.31
264.355	59.22
264.571	96.08
264.787	-6.31
265.004	36.69
265.22	57.17
265.436	-26.79
265.652	94.04
265.868	30.55
266.084	26.45
266.3	102.23
266.516	-47.27
266.732	59.22
266.948	26.45
267.164	96.08
267.38	65.36
267.596	85.84
267.812	141.14
268.028	55.12
268.244	61.27
268.46	26.45
268.676	51.03
268.892	145.24
269.108	12.12
269.324	3.93
269.54	34.64
269.756	65.36
269.972	22.36
270.188	42.84
270.403	-39.08
270.619	22.36
270.835	-20.65
271.051	28.5
271.267	1.88
271.483	-22.7
271.698	124.76
271.914	69.46
272.13	44.88
272.346	48.98
272.562	12.12
272.777	108.37
272.993	-30.89
273.209	102.23
273.425	53.08
273.64	1.88
273.856	132.95
274.072	-6.31
274.287	-26.79
274.503	71.51
274.719	153.43
274.934	48.98
275.15	30.55
275.366	71.51
275.581	63.32
275.797	77.65
276.012	26.45
276.228	18.26
276.444	-22.7
276.659	71.51
276.875	59.22
277.09	42.84
277.306	89.94
277.521	128.85
277.737	51.03
277.952	34.64
278.168	69.46
278.383	77.65
278.599	20.31
278.814	36.69
279.03	26.45
279.245	132.95
279.461	40.79
279.676	14.17
279.892	12.12
280.107	75.6
280.322	-43.18
280.538	36.69
280.753	85.84
280.969	12.12
281.184	-2.22
281.399	141.14
281.615	38.74
281.83	59.22
282.045	22.36
282.26	34.64
282.476	42.84
282.691	44.88
282.906	46.93
283.122	24.4
283.337	-32.94
283.552	3.93
283.767	16.21
283.983	20.31
284.198	22.36
284.413	102.23
284.628	-12.46
284.843	32.6
285.058	112.47
285.274	20.31
285.489	32.6
285.704	53.08
285.919	42.84
286.134	34.64
286.349	-8.36
286.564	-2.22
286.779	69.46
286.995	85.84
287.21	-41.13
287.425	59.22
287.64	26.45
287.855	63.32
288.07	-51.37
288.285	102.23
288.5	57.17
288.715	83.8
288.93	59.22
289.145	59.22
289.36	102.23
289.575	12.12
289.79	173.91
290.004	65.36
290.219	57.17
290.434	44.88
290.649	53.08
290.864	-8.36
291.079	42.84
291.294	83.8
291.509	65.36
291.724	34.64
291.938	-20.65
292.153	63.32
292.368	28.5
292.583	14.17
292.798	-43.18
293.012	32.6
293.227	-4.27
293.442	36.69
293.657	94.04
293.871	85.84
294.086	61.27
294.301	75.6
294.516	135
294.73	22.36
294.945	-86.19
295.16	-4.27
295.374	132.95
295.589	26.45
295.804	18.26
296.018	83.8
296.233	100.18
296.447	42.84
296.662	30.55
296.877	112.47
297.091	14.17
297.306	83.8
297.52	10.07
297.735	89.94
297.949	-20.65
298.164	34.64
298.378	32.6
298.593	-14.51
298.807	8.02
299.022	53.08
299.236	34.64
299.451	-34.99
299.665	24.4
299.88	53.08
300.094	32.6
300.309	94.04
300.523	151.38
300.737	108.37
300.952	-18.6
301.166	51.03
301.381	14.17
301.595	34.64
301.809	44.88
302.024	-77.99
302.238	-14.51
302.452	53.08
302.667	71.51
302.881	124.76
303.095	91.99
303.309	44.88
303.524	26.45
303.738	87.89
303.952	-2.22
304.166	96.08
304.381	-12.46
304.595	73.56
304.809	44.88
305.023	28.5
305.237	48.98
305.452	34.64
305.666	46.93
305.88	71.51
306.094	77.65
306.308	106.32
306.522	135
306.736	175.95
306.95	12.12
307.164	44.88
307.379	75.6
307.593	143.19
307.807	24.4
308.021	61.27
308.235	53.08
308.449	51.03
308.663	130.9
308.877	171.86
309.091	-30.89
309.305	67.41
309.519	26.45
309.733	85.84
309.947	-2.22
310.161	-2.22
310.374	18.26
310.588	120.66
310.802	69.46
311.016	12.12
311.23	83.8
311.444	18.26
311.658	30.55
311.872	57.17
312.085	71.51
312.299	98.13
312.513	116.56
312.727	63.32
312.941	-14.51
313.154	55.12
313.368	63.32
313.582	20.31
313.796	34.64
314.009	63.32
314.223	71.51
314.437	28.5
314.651	51.03
314.864	34.64
315.078	32.6
315.292	65.36
315.505	42.84
315.719	67.41
315.933	69.46
316.146	20.31
316.36	26.45
316.573	63.32
316.787	16.21
317.001	87.89
317.214	-53.42
317.428	71.51
317.641	20.31
317.855	-16.55
318.068	94.04
318.282	57.17
318.495	153.43
318.709	46.93
318.922	26.45
319.136	87.89
319.349	30.55
319.563	89.94
319.776	69.46
319.99	-24.75
320.203	110.42
320.417	34.64
320.63	67.41
320.843	132.95
321.057	38.74
321.27	81.75
321.483	79.7
321.697	124.76
321.91	46.93
322.124	87.89
322.337	132.95
322.55	-10.41
322.763	53.08
322.977	18.26
323.19	81.75
323.403	44.88
323.617	34.64
323.83	126.8
324.043	10.07
324.256	53.08
324.469	-32.94
324.683	106.32
324.896	20.31
325.109	3.93
325.322	30.55
325.535	141.14
325.748	147.28
325.962	51.03
326.175	30.55
326.388	44.88
326.601	81.75
326.814	32.6
327.027	83.8
327.24	94.04
327.453	14.17
327.666	104.28
327.879	87.89
328.092	-4.27
328.305	98.13
328.518	38.74
328.731	14.17
328.944	59.22
329.157	42.84
329.37	46.93
329.583	69.46
329.796	94.04
330.009	-28.84
330.222	110.42
330.435	57.17
330.648	30.55
330.861	71.51
331.073	61.27
331.286	-24.75
331.499	75.6
331.712	-51.37
331.925	51.03
332.138	87.89
332.35	151.38
332.563	-0.17
332.776	1.88
332.989	5.97
333.202	8.02
333.414	-0.17
333.627	81.75
333.84	102.23
334.053	55.12
334.265	32.6
334.478	83.8
334.691	137.04
334.903	12.12
335.116	81.75
335.329	98.13
335.541	67.41
335.754	157.52
335.966	32.6
336.179	-24.75
336.392	81.75
336.604	53.08
336.817	61.27
337.029	104.28
337.242	75.6
337.454	83.8
337.667	126.8
337.88	51.03
338.092	-14.51
338.305	3.93
338.517	10.07
338.729	132.95
338.942	69.46
339.154	14.17
339.367	53.08
339.579	44.88
339.792	1.88
340.004	42.84
340.217	69.46
340.429	51.03
340.641	16.21
340.854	44.88
341.066	14.17
341.278	83.8
341.491	124.76
341.703	46.93
341.915	-18.6
342.128	28.5
342.34	-12.46
342.552	71.51
342.764	5.97
342.977	67.41
343.189	63.32
343.401	36.69
343.613	-24.75
343.826	75.6
344.038	3.93
344.25	46.93
344.462	3.93
344.674	85.84
344.886	102.23
345.099	137.04
345.311	67.41
345.523	69.46
345.735	28.5
345.947	110.42
346.159	94.04
346.371	145.24
346.583	18.26
346.795	155.47
347.007	46.93
347.219	135
347.431	-49.32
347.643	126.8
347.855	67.41
348.067	79.7
348.279	55.12
348.491	48.98
348.703	46.93
348.915	28.5
349.127	-4.27
349.339	-4.27
349.551	46.93
349.763	42.84
349.975	40.79
350.187	118.61
350.399	85.84
350.61	24.4
350.822	30.55
351.034	81.75
351.246	20.31
351.458	124.76
351.669	18.26
351.881	108.37
352.093	77.65
352.305	59.22
352.517	102.23
352.728	128.85
352.94	44.88
353.152	51.03
353.363	63.32
353.575	112.47
353.787	102.23
353.999	42.84
354.21	100.18
354.422	61.27
354.633	18.26
354.845	28.5
355.057	12.12
355.268	102.23
355.48	42.84
355.692	55.12
355.903	55.12
356.115	28.5
356.326	-0.17
356.538	57.17
356.749	53.08
356.961	124.76
357.172	24.4
357.384	12.12
357.595	149.33
357.807	-0.17
358.018	36.69
358.23	42.84
358.441	161.62
358.653	89.94
358.864	42.84
359.075	87.89
359.287	122.71
359.498	81.75
359.709	-16.55
359.921	40.79
360.132	94.04
360.344	71.51
360.555	26.45
360.766	128.85
360.977	-2.22
361.189	63.32
361.4	85.84
361.611	124.76
361.823	141.14
362.034	69.46
362.245	-24.75
362.456	12.12
362.667	135
362.879	87.89
363.09	63.32
363.301	48.98
363.512	51.03
363.723	-22.7
363.935	-2.22
364.146	28.5
364.357	57.17
364.568	89.94
364.779	-26.79
364.99	85.84
365.201	104.28
365.412	75.6
365.623	30.55
365.834	63.32
366.045	81.75
366.256	12.12
366.467	55.12
366.678	61.27
366.889	108.37
367.1	102.23
367.311	104.28
367.522	57.17
367.733	89.94
367.944	124.76
368.155	51.03
368.366	77.65
368.577	83.8
368.788	151.38
368.999	1.88
369.209	83.8
369.42	116.56
369.631	192.34
369.842	126.8
370.053	14.17
370.264	63.32
370.474	-32.94
370.685	83.8
370.896	55.12
371.107	40.79
371.317	20.31
371.528	75.6
371.739	100.18
371.95	153.43
372.16	91.99
372.371	12.12
372.582	36.69
372.792	26.45
373.003	126.8
373.214	100.18
373.424	102.23
373.635	63.32
373.846	71.51
374.056	79.7
374.267	87.89
374.477	20.31
374.688	26.45
374.898	89.94
375.109	59.22
375.319	51.03
375.53	46.93
375.74	108.37
375.951	1.88
376.161	77.65
376.372	106.32
376.582	18.26
376.793	59.22
377.003	3.93
377.214	44.88
377.424	79.7
377.635	-4.27
377.845	57.17
378.055	77.65
378.266	-6.31
378.476	18.26
378.686	126.8
378.897	149.33
379.107	151.38
379.317	42.84
379.528	51.03
379.738	75.6
379.948	28.5
380.158	108.37
380.369	73.56
380.579	87.89
380.789	16.21
380.999	36.69
381.21	91.99
381.42	57.17
381.63	122.71
381.84	69.46
382.05	75.6
382.261	34.64
382.471	153.43
382.681	18.26
382.891	108.37
383.101	69.46
383.311	10.07
383.521	51.03
383.731	106.32
383.941	61.27
384.151	40.79
384.361	8.02
384.571	57.17
384.781	124.76
384.991	116.56
385.201	87.89
385.411	141.14
385.621	147.28
385.831	30.55
386.041	79.7
386.251	132.95
386.461	38.74
386.671	26.45
386.881	48.98
387.091	67.41
387.301	114.52
387.511	81.75
387.72	38.74
387.93	48.98
388.14	10.07
388.35	151.38
388.56	83.8
388.769	202.58
388.979	1.88
389.189	-34.99
389.399	69.46
389.609	65.36
389.818	149.33
390.028	91.99
390.238	83.8
390.447	53.08
390.657	96.08
390.867	102.23
391.076	46.93
391.286	38.74
391.496	-4.27
391.705	16.21
391.915	110.42
392.125	102.23
392.334	104.28
392.544	182.1
392.753	100.18
392.963	28.5
393.172	87.89
393.382	14.17
393.591	214.87
393.801	67.41
394.01	149.33
394.22	20.31
394.429	85.84
394.639	94.04
394.848	85.84
395.058	57.17
395.267	46.93
395.477	106.32
395.686	89.94
395.895	198.48
396.105	126.8
396.314	132.95
396.524	44.88
396.733	98.13
396.942	151.38
397.152	102.23
397.361	130.9
397.57	145.24
397.78	85.84
397.989	137.04
398.198	208.72
398.407	98.13
398.617	106.32
398.826	173.91
399.035	-0.17
399.244	116.56
399.453	132.95
399.663	69.46
399.872	151.38
400.081	61.27
400.29	194.39
400.499	69.46
400.708	200.53
400.917	81.75
401.127	151.38
401.336	112.47
401.545	132.95
401.754	167.76
401.963	110.42
402.172	77.65
402.381	110.42
402.59	104.28
402.799	190.29
403.008	173.91
403.217	198.48
403.426	165.71
403.635	188.24
403.844	139.09
404.053	178
404.262	118.61
404.471	239.44
404.68	180.05
404.888	151.38
405.097	159.57
405.306	163.67
405.515	175.95
405.724	233.3
405.933	151.38
406.142	192.34
406.35	239.44
406.559	233.3
406.768	255.83
406.977	184.15
407.185	241.49
407.394	214.87
407.603	196.43
407.812	251.73
408.02	294.74
408.229	202.58
408.438	216.91
408.646	182.1
408.855	300.88
409.064	227.15
409.272	313.17
409.481	335.7
409.69	278.35
409.898	317.26
410.107	362.32
410.315	333.65
410.524	337.74
410.733	339.79
410.941	364.37
411.15	411.47
411.358	395.09
411.567	448.33
411.775	456.53
411.984	497.49
412.192	530.25
412.401	458.57
412.609	542.54
412.818	577.36
413.026	583.5
413.234	505.68
413.443	646.99
413.651	526.16
413.86	589.64
414.068	755.53
414.276	653.13
414.485	610.12
414.693	700.23
414.901	782.15
415.11	800.59
415.318	753.48
415.526	855.88
415.734	868.17
415.943	823.11
416.151	952.13
416.359	843.59
416.567	995.14
416.776	960.33
416.984	1124.16
417.192	1093.44
417.4	1029.96
417.608	989
417.817	1113.92
418.025	1242.95
418.233	1298.24
418.441	1206.08
418.649	1312.58
418.857	1341.25
419.065	1546.05
419.273	1347.39
419.481	1457.98
419.689	1488.7
419.897	1615.68
420.105	1691.45
420.313	1707.84
420.521	1711.93
420.729	1791.8
420.937	1767.23
421.145	1881.91
421.353	1972.02
421.561	2101.05
421.769	2172.72
421.977	2230.07
422.185	2273.07
422.393	2348.85
422.601	2545.45
422.809	2434.86
423.017	2527.02
423.224	2670.38
423.432	2662.19
423.64	2717.48
423.848	2821.93
424.056	2836.27
424.263	3172.13
424.471	3067.69
424.679	3186.47
424.887	3288.87
425.094	3499.81
425.302	3460.9
425.51	3630.88
425.718	3749.66
425.925	3698.46
426.133	3981.08
426.341	4011.8
426.548	4138.77
426.756	4218.64
426.964	4296.47
427.171	4534.03
427.379	4716.3
427.586	4728.59
427.794	4914.95
428.001	5175.05
428.209	5205.77
428.417	5191.43
428.624	5635.84
428.832	5736.19
429.039	5435.14
429.247	5607.17
429.454	6149.88
429.662	6590.19
429.869	6113.02
430.076	6526.71
430.284	6407.92
430.491	6708.97
430.699	7024.36
430.906	7100.14
431.114	7184.1
431.321	7395.04
431.528	7577.31
431.736	7845.6
431.943	8357.59
432.15	8191.7
432.358	8183.51
432.565	8865.49
432.772	8654.55
432.979	9166.54
433.187	9162.44
433.394	9221.83
433.601	9987.77
433.808	9969.34
434.016	10010.3
434.223	10423.99
434.43	11046.57
434.637	10720.95
434.844	11382.44
435.052	11583.14
435.259	11507.37
435.466	11703.97
435.673	11648.68
435.88	12263.07
436.087	12715.67
436.294	12947.09
436.501	12908.18
436.708	12879.5
436.915	13438.6
437.122	13936.26
437.329	14151.29
437.537	14548.6
437.743	14657.14
437.95	14399.1
438.157	15220.33
438.364	15855.2
438.571	15619.69
438.778	15693.41
438.985	17294.93
439.192	16655.96
439.399	17204.81
439.606	16860.76
439.813	17745.48
440.02	18734.65
440.227	18540.09
440.433	18208.32
440.64	19097.14
440.847	18910.77
441.054	19283.5
441.261	20561.44
441.467	20049.44
441.674	20749.85
441.881	21354
442.088	21620.24
442.294	21505.55
442.501	21966.34
442.708	22169.09
442.914	23164.4
443.121	23881.19
443.328	23344.63
443.534	24917.47
443.741	24333.79
443.948	24352.23
444.154	26086.86
444.361	25695.69
444.568	25740.75
444.774	25748.94
444.981	25814.48
445.187	27051.45
445.394	28288.42
445.6	28016.04
445.807	30473.6
446.013	28937.63
446.22	29832.59
446.426	30975.36
446.633	31139.19
446.839	32435.56
447.046	30686.59
447.252	32572.77
447.459	32406.89
447.665	32413.03
447.871	34061.65
448.078	35278.14
448.284	33668.44
448.491	34420.04
448.697	36046.13
448.903	36689.19
449.11	36783.4
449.316	36117.81
449.522	37131.55
449.728	37850.39
449.935	37786.9
450.141	38034.7
450.347	39144.7
450.553	37649.69
450.76	38464.78
450.966	40000.75
451.172	39218.43
451.378	40135.92
451.584	39253.25
451.791	40539.37
451.997	40506.6
452.203	41207.01
452.409	41229.54
452.615	41067.75
452.821	39507.19
453.027	39060.74
453.233	41198.82
453.44	39664.89
453.646	39920.88
453.852	40166.64
454.058	40733.93
454.264	39439.61
454.47	40772.84
454.676	39521.53
454.882	41305.31
455.088	37313.82
455.294	38096.14
455.5	38655.24
455.705	38749.45
455.911	37397.79
456.117	36664.61
456.323	36230.44
456.529	34399.56
456.735	35657.01
456.941	34739.52
457.147	34305.35
457.352	33449.3
457.558	33131.87
457.764	33144.16
457.97	32611.68
458.176	31767.92
458.381	31952.24
458.587	30285.19
458.793	30326.15
458.999	28837.28
459.204	30598.53
459.41	29816.21
459.616	28011.95
459.821	27755.95
460.027	27901.36
460.233	27098.55
460.438	26164.68
460.644	26299.84
460.85	25101.78
461.055	24638.94
461.261	24792.54
461.466	22889.98
461.672	22025.73
461.878	23766.51
462.083	22126.08
462.289	21859.85
462.494	21579.28
462.7	20790.81
462.905	19899.94
463.111	20710.94
463.316	20868.63
463.522	20071.97
463.727	20354.59
463.932	20456.99
464.138	20067.88
464.343	19990.05
464.549	19605.03
464.754	20010.53
464.959	19936.81
465.165	19953.19
465.37	19308.08
465.575	18478.65
465.781	19164.72
465.986	19361.33
466.191	18492.99
466.397	18333.25
466.602	17391.18
