Data from USB4F104151__75__13-06-02-800.txt Node

Date: Fri Mar 14 13:06:02 EDT 2025
User: louis
Spectrometer: USB4F10415
Trigger mode: 4
Integration Time (sec): 4.000000E-2
Scans to average: 1
Electric dark correction enabled: true
Nonlinearity correction enabled: false
Boxcar width: 0
XAxis mode: Wavelengths
Number of Pixels in Spectrum: 3648
>>>>>Begin Spectral Data<<<<<
178.204	-150.01
178.424	-150.01
178.644	-150.01
178.864	-256.51
179.084	-207.36
179.304	11.78
179.524	-10.75
179.744	-51.71
179.964	-8.7
180.184	1.54
180.404	69.12
180.624	-10.75
180.844	-10.75
181.064	-27.14
181.283	15.87
181.503	-51.71
181.723	73.21
181.943	-4.61
182.163	97.79
182.383	-29.18
182.602	46.59
182.822	-33.28
183.042	7.68
183.262	-66.05
183.482	-6.66
183.701	-4.61
183.921	97.79
184.141	-14.85
184.361	50.69
184.58	56.83
184.8	58.88
185.02	40.45
185.239	130.56
185.459	15.87
185.679	60.93
185.898	-100.86
186.118	7.68
186.338	99.84
186.557	30.21
186.777	24.06
186.997	-14.85
187.216	17.92
187.436	146.94
187.655	101.89
187.875	97.79
188.095	19.97
188.314	58.88
188.534	60.93
188.753	11.78
188.973	151.04
189.192	44.54
189.412	65.02
189.631	60.93
189.851	7.68
190.07	60.93
190.29	26.11
190.509	44.54
190.729	52.74
190.948	58.88
191.168	130.56
191.387	77.31
191.607	34.3
191.826	75.26
192.045	28.16
192.265	46.59
192.484	50.69
192.704	5.63
192.923	-47.62
193.142	101.89
193.362	56.83
193.581	93.69
193.8	112.13
194.02	128.51
194.239	17.92
194.458	-10.75
194.678	32.26
194.897	-20.99
195.116	73.21
195.335	11.78
195.555	11.78
195.774	46.59
195.993	58.88
196.212	38.4
196.432	79.36
196.651	46.59
196.87	30.21
197.089	91.65
197.308	36.35
197.528	19.97
197.747	48.64
197.966	60.93
198.185	48.64
198.404	44.54
198.623	60.93
198.842	69.12
199.062	118.27
199.281	75.26
199.5	65.02
199.719	-0.51
199.938	34.3
200.157	120.32
200.376	34.3
200.595	71.17
200.814	48.64
201.033	34.3
201.252	79.36
201.471	50.69
201.69	85.5
201.909	89.6
202.128	-14.85
202.347	13.82
202.566	46.59
202.785	-61.95
203.004	65.02
203.223	153.09
203.442	1.54
203.661	-10.75
203.879	99.84
204.098	67.07
204.317	1.54
204.536	52.74
204.755	128.51
204.974	38.4
205.193	67.07
205.411	75.26
205.63	65.02
205.849	95.74
206.068	99.84
206.287	24.06
206.505	142.85
206.724	42.5
206.943	44.54
207.162	79.36
207.381	50.69
207.599	11.78
207.818	17.92
208.037	17.92
208.255	79.36
208.474	30.21
208.693	48.64
208.911	-43.52
209.13	44.54
209.349	81.41
209.567	22.02
209.786	65.02
210.005	34.3
210.223	17.92
210.442	-10.75
210.661	95.74
210.879	13.82
211.098	24.06
211.316	81.41
211.535	101.89
211.753	15.87
211.972	42.5
212.191	-84.48
212.409	7.68
212.628	91.65
212.846	-4.61
213.065	38.4
213.283	110.08
213.502	120.32
213.72	38.4
213.938	83.45
214.157	122.37
214.375	79.36
214.594	-29.18
214.812	-16.9
215.031	97.79
215.249	-39.42
215.467	95.74
215.686	-20.99
215.904	126.46
216.122	67.07
216.341	142.85
216.559	65.02
216.778	134.65
216.996	181.76
217.214	-25.09
217.432	-4.61
217.651	-10.75
217.869	42.5
218.087	-14.85
218.306	38.4
218.524	85.5
218.742	17.92
218.96	79.36
219.179	56.83
219.397	34.3
219.615	65.02
219.833	110.08
220.051	-8.7
220.27	118.27
220.488	69.12
220.706	42.5
220.924	32.26
221.142	42.5
221.36	-4.61
221.578	93.69
221.796	13.82
222.015	48.64
222.233	17.92
222.451	171.52
222.669	-84.48
222.887	110.08
223.105	44.54
223.323	44.54
223.541	19.97
223.759	50.69
223.977	40.45
224.195	50.69
224.413	108.03
224.631	54.78
224.849	52.74
225.067	99.84
225.285	-23.04
225.503	50.69
225.721	32.26
225.939	62.98
226.157	140.8
226.375	73.21
226.592	-12.8
226.81	108.03
227.028	101.89
227.246	136.7
227.464	40.45
227.682	81.41
227.9	52.74
228.117	87.55
228.335	-0.51
228.553	17.92
228.771	40.45
228.989	19.97
229.206	71.17
229.424	1.54
229.642	-12.8
229.86	85.5
230.077	87.55
230.295	48.64
230.513	17.92
230.731	46.59
230.948	167.42
231.166	97.79
231.384	22.02
231.601	36.35
231.819	146.94
232.037	36.35
232.254	118.27
232.472	48.64
232.689	-0.51
232.907	48.64
233.125	19.97
233.342	-14.85
233.56	22.02
233.777	-20.99
233.995	52.74
234.213	103.93
234.43	67.07
234.648	105.98
234.865	46.59
235.083	-4.61
235.3	7.68
235.518	134.65
235.735	130.56
235.953	87.55
236.17	13.82
236.388	44.54
236.605	48.64
236.822	87.55
237.04	60.93
237.257	30.21
237.475	22.02
237.692	30.21
237.909	73.21
238.127	126.46
238.344	7.68
238.562	46.59
238.779	-33.28
238.996	15.87
239.214	46.59
239.431	105.98
239.648	3.58
239.865	38.4
240.083	30.21
240.3	-0.51
240.517	32.26
240.735	22.02
240.952	101.89
241.169	142.85
241.386	60.93
241.603	28.16
241.821	50.69
242.038	36.35
242.255	108.03
242.472	22.02
242.689	65.02
242.907	46.59
243.124	108.03
243.341	11.78
243.558	5.63
243.775	-45.57
243.992	1.54
244.209	134.65
244.426	46.59
244.643	71.17
244.86	28.16
245.078	7.68
245.295	75.26
245.512	85.5
245.729	7.68
245.946	28.16
246.163	56.83
246.38	77.31
246.597	13.82
246.814	54.78
247.031	44.54
247.248	44.54
247.464	42.5
247.681	65.02
247.898	60.93
248.115	38.4
248.332	5.63
248.549	112.13
248.766	99.84
248.983	52.74
249.2	34.3
249.417	42.5
249.633	-10.75
249.85	65.02
250.067	97.79
250.284	1.54
250.501	69.12
250.717	177.66
250.934	-43.52
251.151	56.83
251.368	103.93
251.585	140.8
251.801	32.26
252.018	99.84
252.235	79.36
252.451	83.45
252.668	-31.23
252.885	54.78
253.102	60.93
253.318	62.98
253.535	11.78
253.752	-49.66
253.968	77.31
254.185	15.87
254.401	26.11
254.618	46.59
254.835	5.63
255.051	114.17
255.268	77.31
255.484	42.5
255.701	48.64
255.917	97.79
256.134	32.26
256.351	81.41
256.567	65.02
256.784	89.6
257	56.83
257.217	-6.66
257.433	60.93
257.65	40.45
257.866	87.55
258.082	-18.94
258.299	-35.33
258.515	77.31
258.732	-12.8
258.948	-39.42
259.165	44.54
259.381	11.78
259.597	32.26
259.814	46.59
260.03	7.68
260.246	24.06
260.463	81.41
260.679	22.02
260.895	69.12
261.112	13.82
261.328	48.64
261.544	5.63
261.761	157.18
261.977	-4.61
262.193	-27.14
262.409	58.88
262.626	38.4
262.842	77.31
263.058	11.78
263.274	108.03
263.49	83.45
263.707	69.12
263.923	-0.51
264.139	-41.47
264.355	79.36
264.571	116.22
264.787	85.5
265.004	134.65
265.22	-25.09
265.436	30.21
265.652	9.73
265.868	71.17
266.084	24.06
266.3	91.65
266.516	83.45
266.732	52.74
266.948	48.64
267.164	69.12
267.38	101.89
267.596	40.45
267.812	124.41
268.028	85.5
268.244	-18.94
268.46	81.41
268.676	15.87
268.892	85.5
269.108	44.54
269.324	-86.53
269.54	-18.94
269.756	101.89
269.972	9.73
270.188	36.35
270.403	-8.7
270.619	34.3
270.835	91.65
271.051	28.16
271.267	-98.81
271.483	75.26
271.698	32.26
271.914	79.36
272.13	42.5
272.346	108.03
272.562	32.26
272.777	112.13
272.993	40.45
273.209	9.73
273.425	-2.56
273.64	7.68
273.856	79.36
274.072	110.08
274.287	7.68
274.503	54.78
274.719	-2.56
274.934	40.45
275.15	-12.8
275.366	50.69
275.581	-78.33
275.797	67.07
276.012	13.82
276.228	95.74
276.444	-37.38
276.659	134.65
276.875	28.16
277.09	95.74
277.306	52.74
277.521	101.89
277.737	54.78
277.952	93.69
278.168	142.85
278.383	32.26
278.599	32.26
278.814	95.74
279.03	46.59
279.245	85.5
279.461	42.5
279.676	93.69
279.892	-12.8
280.107	38.4
280.322	-8.7
280.538	24.06
280.753	-16.9
280.969	-14.85
281.184	52.74
281.399	148.99
281.615	13.82
281.83	36.35
282.045	-31.23
282.26	17.92
282.476	58.88
282.691	142.85
282.906	103.93
283.122	67.07
283.337	67.07
283.552	-16.9
283.767	-12.8
283.983	67.07
284.198	62.98
284.413	54.78
284.628	67.07
284.843	38.4
285.058	85.5
285.274	108.03
285.489	52.74
285.704	69.12
285.919	15.87
286.134	60.93
286.349	60.93
286.564	56.83
286.779	91.65
286.995	77.31
287.21	-41.47
287.425	22.02
287.64	11.78
287.855	30.21
288.07	-12.8
288.285	-4.61
288.5	36.35
288.715	62.98
288.93	1.54
289.145	52.74
289.36	93.69
289.575	11.78
289.79	85.5
290.004	17.92
290.219	44.54
290.434	38.4
290.649	36.35
290.864	65.02
291.079	13.82
291.294	62.98
291.509	50.69
291.724	38.4
291.938	85.5
292.153	79.36
292.368	9.73
292.583	85.5
292.798	40.45
293.012	32.26
293.227	1.54
293.442	73.21
293.657	52.74
293.871	93.69
294.086	-53.76
294.301	151.04
294.516	77.31
294.73	77.31
294.945	65.02
295.16	-6.66
295.374	40.45
295.589	118.27
295.804	1.54
296.018	40.45
296.233	169.47
296.447	11.78
296.662	40.45
296.877	19.97
297.091	69.12
297.306	73.21
297.52	3.58
297.735	15.87
297.949	34.3
298.164	75.26
298.378	54.78
298.593	5.63
298.807	9.73
299.022	-4.61
299.236	-18.94
299.451	60.93
299.665	22.02
299.88	38.4
300.094	52.74
300.309	130.56
300.523	77.31
300.737	54.78
300.952	26.11
301.166	44.54
301.381	40.45
301.595	60.93
301.809	1.54
302.024	69.12
302.238	52.74
302.452	136.7
302.667	40.45
302.881	110.08
303.095	108.03
303.309	81.41
303.524	22.02
303.738	28.16
303.952	-20.99
304.166	71.17
304.381	40.45
304.595	71.17
304.809	69.12
305.023	87.55
305.237	69.12
305.452	-16.9
305.666	110.08
305.88	36.35
306.094	105.98
306.308	77.31
306.522	99.84
306.736	60.93
306.95	40.45
307.164	151.04
307.379	3.58
307.593	48.64
307.807	144.89
308.021	97.79
308.235	-4.61
308.449	46.59
308.663	50.69
308.877	153.09
309.091	46.59
309.305	69.12
309.519	5.63
309.733	118.27
309.947	11.78
310.161	75.26
310.374	26.11
310.588	187.9
310.802	30.21
311.016	30.21
311.23	101.89
311.444	40.45
311.658	19.97
311.872	38.4
312.085	136.7
312.299	108.03
312.513	93.69
312.727	79.36
312.941	19.97
313.154	93.69
313.368	83.45
313.582	56.83
313.796	7.68
314.009	34.3
314.223	3.58
314.437	69.12
314.651	7.68
314.864	5.63
315.078	73.21
315.292	-6.66
315.505	34.3
315.719	-2.56
315.933	32.26
316.146	17.92
316.36	9.73
316.573	167.42
316.787	30.21
317.001	-0.51
317.214	32.26
317.428	79.36
317.641	-55.81
317.855	-2.56
318.068	-0.51
318.282	28.16
318.495	89.6
318.709	38.4
318.922	13.82
319.136	56.83
319.349	151.04
319.563	71.17
319.776	105.98
319.99	-43.52
320.203	30.21
320.417	36.35
320.63	48.64
320.843	144.89
321.057	99.84
321.27	101.89
321.483	-12.8
321.697	95.74
321.91	65.02
322.124	85.5
322.337	52.74
322.55	34.3
322.763	118.27
322.977	17.92
323.19	30.21
323.403	105.98
323.617	17.92
323.83	52.74
324.043	28.16
324.256	-18.94
324.469	91.65
324.683	81.41
324.896	71.17
325.109	60.93
325.322	97.79
325.535	93.69
325.748	118.27
325.962	32.26
326.175	-27.14
326.388	50.69
326.601	87.55
326.814	110.08
327.027	91.65
327.24	79.36
327.453	-18.94
327.666	36.35
327.879	81.41
328.092	85.5
328.305	95.74
328.518	79.36
328.731	105.98
328.944	62.98
329.157	7.68
329.37	24.06
329.583	108.03
329.796	95.74
330.009	46.59
330.222	144.89
330.435	83.45
330.648	62.98
330.861	85.5
331.073	36.35
331.286	146.94
331.499	87.55
331.712	-16.9
331.925	-0.51
332.138	140.8
332.35	138.75
332.563	-27.14
332.776	87.55
332.989	44.54
333.202	3.58
333.414	34.3
333.627	83.45
333.84	77.31
334.053	112.13
334.265	22.02
334.478	28.16
334.691	46.59
334.903	144.89
335.116	15.87
335.329	19.97
335.541	50.69
335.754	194.05
335.966	1.54
336.179	95.74
336.392	40.45
336.604	62.98
336.817	24.06
337.029	138.75
337.242	34.3
337.454	36.35
337.667	93.69
337.88	116.22
338.092	48.64
338.305	105.98
338.517	46.59
338.729	44.54
338.942	124.41
339.154	81.41
339.367	11.78
339.579	22.02
339.792	26.11
340.004	50.69
340.217	85.5
340.429	58.88
340.641	1.54
340.854	5.63
341.066	62.98
341.278	116.22
341.491	85.5
341.703	38.4
341.915	7.68
342.128	71.17
342.34	126.46
342.552	11.78
342.764	60.93
342.977	11.78
343.189	65.02
343.401	71.17
343.613	-16.9
343.826	26.11
344.038	58.88
344.25	101.89
344.462	19.97
344.674	44.54
344.886	11.78
345.099	26.11
345.311	126.46
345.523	85.5
345.735	65.02
345.947	-2.56
346.159	81.41
346.371	89.6
346.583	48.64
346.795	177.66
347.007	22.02
347.219	101.89
347.431	62.98
347.643	134.65
347.855	46.59
348.067	116.22
348.279	-43.52
348.491	87.55
348.703	28.16
348.915	32.26
349.127	-2.56
349.339	46.59
349.551	44.54
349.763	151.04
349.975	40.45
350.187	93.69
350.399	89.6
350.61	58.88
350.822	77.31
351.034	30.21
351.246	38.4
351.458	81.41
351.669	44.54
351.881	36.35
352.093	75.26
352.305	50.69
352.517	69.12
352.728	142.85
352.94	22.02
353.152	79.36
353.363	87.55
353.575	120.32
353.787	116.22
353.999	7.68
354.21	165.37
354.422	60.93
354.633	22.02
354.845	118.27
355.057	48.64
355.268	48.64
355.48	75.26
355.692	-12.8
355.903	13.82
356.115	11.78
356.326	-12.8
356.538	81.41
356.749	155.13
356.961	146.94
357.172	60.93
357.384	54.78
357.595	89.6
357.807	85.5
358.018	11.78
358.23	159.23
358.441	169.47
358.653	97.79
358.864	75.26
359.075	-12.8
359.287	24.06
359.498	62.98
359.709	93.69
359.921	28.16
360.132	89.6
360.344	11.78
360.555	116.22
360.766	67.07
360.977	103.93
361.189	151.04
361.4	28.16
361.611	118.27
361.823	65.02
362.034	132.61
362.245	-35.33
362.456	28.16
362.667	142.85
362.879	81.41
363.09	38.4
363.301	26.11
363.512	-0.51
363.723	79.36
363.935	13.82
364.146	85.5
364.357	1.54
364.568	83.45
364.779	15.87
364.99	140.8
365.201	36.35
365.412	146.94
365.623	46.59
365.834	40.45
366.045	46.59
366.256	208.38
366.467	77.31
366.678	87.55
366.889	85.5
367.1	52.74
367.311	136.7
367.522	44.54
367.733	122.37
367.944	144.89
368.155	52.74
368.366	52.74
368.577	79.36
368.788	138.75
368.999	38.4
369.209	122.37
369.42	136.7
369.631	202.24
369.842	124.41
370.053	30.21
370.264	140.8
370.474	52.74
370.685	50.69
370.896	105.98
371.107	130.56
371.317	95.74
371.528	19.97
371.739	192
371.95	65.02
372.16	118.27
372.371	56.83
372.582	58.88
372.792	112.13
373.003	85.5
373.214	75.26
373.424	89.6
373.635	46.59
373.846	89.6
374.056	46.59
374.267	130.56
374.477	62.98
374.688	105.98
374.898	81.41
375.109	32.26
375.319	89.6
375.53	81.41
375.74	144.89
375.951	87.55
376.161	93.69
376.372	114.17
376.582	42.5
376.793	110.08
377.003	83.45
377.214	56.83
377.424	71.17
377.635	50.69
377.845	30.21
378.055	118.27
378.266	38.4
378.476	7.68
378.686	77.31
378.897	28.16
379.107	169.47
379.317	116.22
379.528	73.21
379.738	118.27
379.948	34.3
380.158	69.12
380.369	108.03
380.579	118.27
380.789	38.4
380.999	132.61
381.21	79.36
381.42	136.7
381.63	75.26
381.84	101.89
382.05	126.46
382.261	134.65
382.471	87.55
382.681	124.41
382.891	60.93
383.101	67.07
383.311	3.58
383.521	95.74
383.731	54.78
383.941	122.37
384.151	79.36
384.361	67.07
384.571	103.93
384.781	28.16
384.991	155.13
385.201	105.98
385.411	103.93
385.621	77.31
385.831	26.11
386.041	95.74
386.251	138.75
386.461	171.52
386.671	46.59
386.881	142.85
387.091	5.63
387.301	46.59
387.511	163.33
387.72	91.65
387.93	105.98
388.14	-45.57
388.35	32.26
388.56	120.32
388.769	97.79
388.979	116.22
389.189	69.12
389.399	30.21
389.609	198.14
389.818	77.31
390.028	142.85
390.238	62.98
390.447	11.78
390.657	130.56
390.867	105.98
391.076	62.98
391.286	136.7
391.496	132.61
391.705	132.61
391.915	69.12
392.125	175.61
392.334	56.83
392.544	110.08
392.753	42.5
392.963	65.02
393.172	112.13
393.382	38.4
393.591	157.18
393.801	97.79
394.01	140.8
394.22	120.32
394.429	46.59
394.639	32.26
394.848	165.37
395.058	101.89
395.267	95.74
395.477	110.08
395.686	103.93
395.895	101.89
396.105	235
396.314	126.46
396.524	112.13
396.733	79.36
396.942	146.94
397.152	126.46
397.361	130.56
397.57	138.75
397.78	148.99
397.989	118.27
398.198	208.38
398.407	161.28
398.617	153.09
398.826	130.56
399.035	87.55
399.244	151.04
399.453	144.89
399.663	159.23
399.872	128.51
400.081	114.17
400.29	216.57
400.499	77.31
400.708	93.69
400.917	192
401.127	99.84
401.336	103.93
401.545	230.91
401.754	144.89
401.963	235
402.172	216.57
402.381	144.89
402.59	114.17
402.799	208.38
403.008	249.34
403.217	142.85
403.426	173.57
403.635	83.45
403.844	192
404.053	161.28
404.262	228.86
404.471	290.3
404.68	142.85
404.888	175.61
405.097	208.38
405.306	161.28
405.515	175.61
405.724	134.65
405.933	183.81
406.142	275.96
406.35	292.35
406.559	280.06
406.768	286.2
406.977	415.23
407.185	275.96
407.394	202.24
407.603	212.48
407.812	314.88
408.02	300.54
408.229	304.64
408.438	325.12
408.646	298.49
408.855	298.49
409.064	380.41
409.272	368.12
409.481	443.9
409.69	302.59
409.898	359.93
410.107	433.66
410.315	462.33
410.524	409.08
410.733	429.56
410.941	431.61
411.15	478.71
411.358	497.14
411.567	544.25
411.775	423.42
411.984	529.91
412.192	585.21
412.401	538.1
412.609	691.7
412.818	626.17
413.026	673.27
413.234	597.49
413.443	783.86
413.651	626.17
413.86	796.15
414.068	738.8
414.276	824.82
414.485	841.2
414.693	894.45
414.901	906.74
415.11	867.83
415.318	982.51
415.526	962.03
415.734	1002.99
415.943	990.7
416.151	1035.76
416.359	1129.97
416.567	1082.86
416.776	1195.5
416.984	1191.41
417.192	1289.71
417.4	1283.56
417.608	1308.14
417.817	1431.02
418.025	1455.59
418.233	1506.79
418.441	1471.98
418.649	1519.08
418.857	1601
419.065	1611.24
419.273	1641.96
419.481	1789.41
419.689	1732.07
419.897	1770.98
420.105	2018.79
420.313	1983.97
420.521	2018.79
420.729	2160.1
420.937	2106.85
421.145	2266.59
421.353	2354.65
421.561	2489.82
421.769	2614.74
421.977	2749.91
422.185	2751.96
422.393	2846.16
422.601	2895.32
422.809	2860.5
423.017	2960.85
423.224	3139.02
423.432	3161.55
423.64	3266
423.848	3509.71
424.056	3442.12
424.263	3585.48
424.471	3644.87
424.679	3802.57
424.887	3888.58
425.094	4150.72
425.302	4111.81
425.51	4324.8
425.718	4435.39
425.925	4531.64
426.133	4496.83
426.341	4871.61
426.548	5293.49
426.756	5127.6
426.964	5017.01
427.171	5610.92
427.379	5473.71
427.586	5625.26
427.794	5729.7
428.001	6008.23
428.209	6380.96
428.417	6256.03
428.624	6641.05
428.832	6534.56
429.039	6614.43
429.247	6725.02
429.454	7318.93
429.662	7808.39
429.869	7347.6
430.076	7841.16
430.284	7662.99
430.491	7857.54
430.699	8355.2
430.906	8426.88
431.114	8392.06
431.321	8912.25
431.528	9135.48
431.736	9661.8
431.943	9905.51
432.15	9737.58
432.358	9678.19
432.565	10268
432.772	10202.47
432.979	10845.53
433.187	10980.7
433.394	10917.21
433.601	11720.01
433.808	11849.04
434.016	11707.73
434.223	12369.22
434.43	13126.97
434.637	12725.57
434.844	13471.03
435.052	13602.1
435.259	13624.62
435.466	13802.8
435.673	13774.13
435.88	14767.39
436.087	15281.43
436.294	15373.59
436.501	15174.94
436.708	15279.38
436.915	15854.86
437.122	16479.49
437.329	16442.63
437.537	17198.33
437.743	17181.95
437.95	17212.67
438.157	18105.58
438.364	18826.46
438.571	18748.64
438.778	19113.18
438.985	20626.63
439.192	19578.07
439.399	20421.83
439.606	19969.23
439.813	21173.44
440.02	22355.11
440.227	21679.29
440.433	21673.14
440.64	22359.21
440.847	22357.16
441.054	23143.58
441.261	24292.49
441.467	24249.49
441.674	24607.88
441.881	25519.23
442.088	25576.57
442.294	25021.57
442.501	25914.48
442.708	26518.64
442.914	27563.1
443.121	28742.73
443.328	27956.31
443.534	29957.17
443.741	29047.88
443.948	28587.08
444.154	30762.03
444.361	30364.72
444.568	30876.71
444.774	30641.2
444.981	31228.96
445.187	32091.16
445.394	33373.19
445.6	33231.88
445.807	36201.43
446.013	34532.34
446.22	35255.27
446.426	36508.63
446.633	36627.41
446.839	38204.35
447.046	36514.77
447.252	38677.43
447.459	38552.5
447.665	38450.1
447.871	40272.79
448.078	41790.34
448.284	40065.95
448.491	41061.26
448.697	42564.47
448.903	43697
449.11	43588.45
449.316	42912.63
449.522	43660.13
449.728	44782.42
449.935	45456.2
450.141	45507.4
450.347	46144.32
450.553	44936.02
450.76	45482.83
450.966	46996.27
451.172	46265.15
451.378	47782.69
451.584	46768.95
451.791	47762.22
451.997	48032.55
452.203	48468.76
452.409	48612.12
452.615	48323.36
452.821	46615.35
453.027	46400.32
453.233	48855.83
453.44	47020.85
453.646	47487.79
453.852	47620.91
454.058	48515.87
454.264	46807.86
454.47	48069.41
454.676	46869.3
454.882	48571.16
455.088	44319.58
455.294	45386.57
455.5	45638.47
455.705	46068.55
455.911	43983.71
456.117	43430.76
456.323	42632.05
456.529	40878.99
456.735	42707.83
456.941	41743.24
457.147	41100.17
457.352	40145.82
457.558	38648.75
457.764	39226.28
457.97	38411.19
458.176	37465.03
458.381	37776.32
458.587	35607.52
458.793	36127.7
458.999	33764.35
459.204	36506.58
459.41	35503.07
459.616	33268.74
459.821	33244.16
460.027	33098.76
460.233	32261.14
460.438	30852.14
460.644	30794.79
460.85	29527.1
461.055	29344.83
461.261	29051.97
461.466	26999.91
461.672	26176.62
461.878	27935.83
462.083	26565.74
462.289	25875.57
462.494	25336.96
462.7	24401.04
462.905	23817.36
463.111	24519.82
463.316	24575.11
463.522	23811.22
463.727	24063.12
463.932	23706.77
464.138	24005.78
464.343	23520.41
464.549	23196.83
464.754	23889.04
464.959	23540.89
465.165	23614.62
465.37	22541.48
465.575	22086.83
465.781	22723.75
465.986	23096.48
466.191	22099.12
466.397	21601.46
