Data from USB4F104151__87__13-06-20-237.txt Node

Date: Fri Mar 14 13:06:20 EDT 2025
User: louis
Spectrometer: USB4F10415
Trigger mode: 4
Integration Time (sec): 4.000000E-2
Scans to average: 1
Electric dark correction enabled: true
Nonlinearity correction enabled: false
Boxcar width: 0
XAxis mode: Wavelengths
Number of Pixels in Spectrum: 3648
>>>>>Begin Spectral Data<<<<<
178.204	-236.03
178.424	-236.03
178.644	-236.03
178.864	-154.11
179.084	-168.45
179.304	9.73
179.524	44.54
179.744	-20.99
179.964	-4.61
180.184	17.92
180.404	-6.66
180.624	54.78
180.844	52.74
181.064	11.78
181.283	-25.09
181.503	-129.53
181.723	-4.61
181.943	-64
182.163	65.02
182.383	67.07
182.602	99.84
182.822	116.22
183.042	58.88
183.262	-37.38
183.482	30.21
183.701	67.07
183.921	81.41
184.141	38.4
184.361	42.5
184.58	95.74
184.8	71.17
185.02	60.93
185.239	69.12
185.459	3.58
185.679	83.45
185.898	17.92
186.118	79.36
186.338	-39.42
186.557	87.55
186.777	32.26
186.997	30.21
187.216	-6.66
187.436	142.85
187.655	83.45
187.875	89.6
188.095	67.07
188.314	60.93
188.534	105.98
188.753	5.63
188.973	44.54
189.192	69.12
189.412	44.54
189.631	75.26
189.851	116.22
190.07	83.45
190.29	-2.56
190.509	-29.18
190.729	-14.85
190.948	101.89
191.168	220.67
191.387	120.32
191.607	71.17
191.826	69.12
192.045	-39.42
192.265	116.22
192.484	32.26
192.704	67.07
192.923	24.06
193.142	198.14
193.362	28.16
193.581	144.89
193.8	101.89
194.02	77.31
194.239	65.02
194.458	93.69
194.678	-41.47
194.897	85.5
195.116	28.16
195.335	62.98
195.555	9.73
195.774	24.06
195.993	58.88
196.212	36.35
196.432	46.59
196.651	38.4
196.87	79.36
197.089	122.37
197.308	65.02
197.528	134.65
197.747	71.17
197.966	58.88
198.185	116.22
198.404	11.78
198.623	19.97
198.842	99.84
199.062	95.74
199.281	165.37
199.5	9.73
199.719	5.63
199.938	67.07
200.157	69.12
200.376	142.85
200.595	108.03
200.814	48.64
201.033	46.59
201.252	93.69
201.471	7.68
201.69	77.31
201.909	73.21
202.128	50.69
202.347	75.26
202.566	75.26
202.785	-27.14
203.004	5.63
203.223	140.8
203.442	91.65
203.661	-29.18
203.879	81.41
204.098	75.26
204.317	-6.66
204.536	26.11
204.755	40.45
204.974	73.21
205.193	-16.9
205.411	95.74
205.63	114.17
205.849	44.54
206.068	26.11
206.287	22.02
206.505	22.02
206.724	13.82
206.943	62.98
207.162	36.35
207.381	42.5
207.599	-6.66
207.818	28.16
208.037	-4.61
208.255	-53.76
208.474	32.26
208.693	103.93
208.911	-14.85
209.13	85.5
209.349	36.35
209.567	67.07
209.786	122.37
210.005	26.11
210.223	28.16
210.442	-35.33
210.661	58.88
210.879	46.59
211.098	122.37
211.316	108.03
211.535	77.31
211.753	9.73
211.972	79.36
212.191	-14.85
212.409	73.21
212.628	142.85
212.846	-0.51
213.065	110.08
213.283	50.69
213.502	32.26
213.72	36.35
213.938	77.31
214.157	26.11
214.375	46.59
214.594	-8.7
214.812	116.22
215.031	93.69
215.249	30.21
215.467	60.93
215.686	9.73
215.904	142.85
216.122	40.45
216.341	124.41
216.559	1.54
216.778	36.35
216.996	54.78
217.214	22.02
217.432	-43.52
217.651	-10.75
217.869	9.73
218.087	124.41
218.306	-20.99
218.524	105.98
218.742	1.54
218.96	42.5
219.179	-23.04
219.397	105.98
219.615	108.03
219.833	67.07
220.051	1.54
220.27	89.6
220.488	99.84
220.706	52.74
220.924	-27.14
221.142	36.35
221.36	52.74
221.578	17.92
221.796	118.27
222.015	81.41
222.233	22.02
222.451	118.27
222.669	-43.52
222.887	132.61
223.105	24.06
223.323	-16.9
223.541	58.88
223.759	44.54
223.977	67.07
224.195	95.74
224.413	58.88
224.631	87.55
224.849	9.73
225.067	167.42
225.285	71.17
225.503	-8.7
225.721	-35.33
225.939	-18.94
226.157	73.21
226.375	169.47
226.592	50.69
226.81	42.5
227.028	67.07
227.246	93.69
227.464	13.82
227.682	56.83
227.9	54.78
228.117	85.5
228.335	30.21
228.553	-6.66
228.771	112.13
228.989	105.98
229.206	46.59
229.424	52.74
229.642	67.07
229.86	62.98
230.077	40.45
230.295	32.26
230.513	110.08
230.731	69.12
230.948	56.83
231.166	44.54
231.384	-4.61
231.601	-25.09
231.819	148.99
232.037	-6.66
232.254	-4.61
232.472	136.7
232.689	-23.04
232.907	101.89
233.125	-57.86
233.342	-2.56
233.56	-4.61
233.777	19.97
233.995	42.5
234.213	81.41
234.43	15.87
234.648	85.5
234.865	5.63
235.083	103.93
235.3	-6.66
235.518	42.5
235.735	114.17
235.953	95.74
236.17	5.63
236.388	32.26
236.605	58.88
236.822	120.32
237.04	-35.33
237.257	83.45
237.475	44.54
237.692	105.98
237.909	40.45
238.127	42.5
238.344	83.45
238.562	28.16
238.779	52.74
238.996	28.16
239.214	58.88
239.431	50.69
239.648	93.69
239.865	91.65
240.083	83.45
240.3	-16.9
240.517	-23.04
240.735	46.59
240.952	85.5
241.169	67.07
241.386	44.54
241.603	-6.66
241.821	-33.28
242.038	124.41
242.255	26.11
242.472	5.63
242.689	126.46
242.907	132.61
243.124	77.31
243.341	50.69
243.558	69.12
243.775	13.82
243.992	-51.71
244.209	83.45
244.426	163.33
244.643	91.65
244.86	60.93
245.078	22.02
245.295	-4.61
245.512	-6.66
245.729	54.78
245.946	32.26
246.163	5.63
246.38	75.26
246.597	108.03
246.814	11.78
247.031	-14.85
247.248	26.11
247.464	89.6
247.681	75.26
247.898	116.22
248.115	-20.99
248.332	13.82
248.549	105.98
248.766	128.51
248.983	89.6
249.2	71.17
249.417	132.61
249.633	-25.09
249.85	60.93
250.067	46.59
250.284	112.13
250.501	134.65
250.717	34.3
250.934	-20.99
251.151	165.37
251.368	60.93
251.585	58.88
251.801	97.79
252.018	-2.56
252.235	108.03
252.451	-29.18
252.668	-2.56
252.885	116.22
253.102	97.79
253.318	-18.94
253.535	9.73
253.752	-0.51
253.968	54.78
254.185	26.11
254.401	-14.85
254.618	30.21
254.835	19.97
255.051	116.22
255.268	36.35
255.484	7.68
255.701	83.45
255.917	69.12
256.134	-23.04
256.351	34.3
256.567	-41.47
256.784	71.17
257	1.54
257.217	73.21
257.433	44.54
257.65	87.55
257.866	101.89
258.082	-37.38
258.299	30.21
258.515	24.06
258.732	40.45
258.948	-37.38
259.165	50.69
259.381	-16.9
259.597	85.5
259.814	9.73
260.03	42.5
260.246	13.82
260.463	105.98
260.679	99.84
260.895	48.64
261.112	151.04
261.328	83.45
261.544	36.35
261.761	79.36
261.977	1.54
262.193	-0.51
262.409	83.45
262.626	11.78
262.842	89.6
263.058	-31.23
263.274	110.08
263.49	19.97
263.707	34.3
263.923	99.84
264.139	71.17
264.355	-25.09
264.571	132.61
264.787	-16.9
265.004	81.41
265.22	77.31
265.436	28.16
265.652	-37.38
265.868	-39.42
266.084	9.73
266.3	44.54
266.516	-53.76
266.732	157.18
266.948	-2.56
267.164	95.74
267.38	42.5
267.596	95.74
267.812	202.24
268.028	-39.42
268.244	60.93
268.46	22.02
268.676	54.78
268.892	93.69
269.108	69.12
269.324	-0.51
269.54	30.21
269.756	40.45
269.972	1.54
270.188	28.16
270.403	1.54
270.619	34.3
270.835	85.5
271.051	-12.8
271.267	32.26
271.483	-45.57
271.698	60.93
271.914	-6.66
272.13	69.12
272.346	13.82
272.562	13.82
272.777	22.02
272.993	52.74
273.209	22.02
273.425	134.65
273.64	24.06
273.856	81.41
274.072	62.98
274.287	-31.23
274.503	132.61
274.719	60.93
274.934	62.98
275.15	62.98
275.366	30.21
275.581	-20.99
275.797	103.93
276.012	9.73
276.228	-12.8
276.444	56.83
276.659	79.36
276.875	1.54
277.09	-18.94
277.306	46.59
277.521	3.58
277.737	99.84
277.952	17.92
278.168	34.3
278.383	1.54
278.599	30.21
278.814	116.22
279.03	22.02
279.245	79.36
279.461	38.4
279.676	48.64
279.892	-0.51
280.107	-33.28
280.322	52.74
280.538	11.78
280.753	-29.18
280.969	91.65
281.184	-12.8
281.399	87.55
281.615	58.88
281.83	58.88
282.045	83.45
282.26	-33.28
282.476	-23.04
282.691	95.74
282.906	77.31
283.122	26.11
283.337	38.4
283.552	9.73
283.767	26.11
283.983	60.93
284.198	-31.23
284.413	69.12
284.628	-23.04
284.843	95.74
285.058	58.88
285.274	-14.85
285.489	60.93
285.704	17.92
285.919	-12.8
286.134	-16.9
286.349	97.79
286.564	83.45
286.779	108.03
286.995	56.83
287.21	58.88
287.425	75.26
287.64	36.35
287.855	71.17
288.07	-33.28
288.285	58.88
288.5	89.6
288.715	91.65
288.93	99.84
289.145	-29.18
289.36	124.41
289.575	3.58
289.79	87.55
290.004	54.78
290.219	144.89
290.434	44.54
290.649	26.11
290.864	108.03
291.079	17.92
291.294	34.3
291.509	32.26
291.724	112.13
291.938	38.4
292.153	24.06
292.368	-8.7
292.583	101.89
292.798	99.84
293.012	7.68
293.227	60.93
293.442	60.93
293.657	73.21
293.871	105.98
294.086	69.12
294.301	91.65
294.516	79.36
294.73	101.89
294.945	-12.8
295.16	44.54
295.374	52.74
295.589	69.12
295.804	-14.85
296.018	77.31
296.233	62.98
296.447	126.46
296.662	11.78
296.877	79.36
297.091	77.31
297.306	105.98
297.52	-35.33
297.735	19.97
297.949	19.97
298.164	87.55
298.378	48.64
298.593	5.63
298.807	48.64
299.022	101.89
299.236	114.17
299.451	48.64
299.665	50.69
299.88	103.93
300.094	28.16
300.309	116.22
300.523	54.78
300.737	56.83
300.952	1.54
301.166	89.6
301.381	87.55
301.595	17.92
301.809	-31.23
302.024	75.26
302.238	50.69
302.452	161.28
302.667	9.73
302.881	73.21
303.095	103.93
303.309	38.4
303.524	69.12
303.738	103.93
303.952	52.74
304.166	48.64
304.381	-45.57
304.595	112.13
304.809	17.92
305.023	3.58
305.237	-41.47
305.452	97.79
305.666	62.98
305.88	3.58
306.094	110.08
306.308	97.79
306.522	112.13
306.736	97.79
306.95	114.17
307.164	62.98
307.379	17.92
307.593	7.68
307.807	142.85
308.021	95.74
308.235	71.17
308.449	65.02
308.663	1.54
308.877	89.6
309.091	67.07
309.305	65.02
309.519	-33.28
309.733	124.41
309.947	19.97
310.161	81.41
310.374	103.93
310.588	87.55
310.802	19.97
311.016	140.8
311.23	75.26
311.444	9.73
311.658	17.92
311.872	118.27
312.085	71.17
312.299	69.12
312.513	120.32
312.727	97.79
312.941	32.26
313.154	22.02
313.368	110.08
313.582	67.07
313.796	22.02
314.009	95.74
314.223	89.6
314.437	1.54
314.651	95.74
314.864	9.73
315.078	58.88
315.292	-31.23
315.505	-10.75
315.719	110.08
315.933	110.08
316.146	60.93
316.36	-27.14
316.573	151.04
316.787	-2.56
317.001	56.83
317.214	28.16
317.428	34.3
317.641	-2.56
317.855	60.93
318.068	103.93
318.282	13.82
318.495	128.51
318.709	124.41
318.922	60.93
319.136	120.32
319.349	112.13
319.563	-29.18
319.776	17.92
319.99	65.02
320.203	132.61
320.417	19.97
320.63	52.74
320.843	-18.94
321.057	48.64
321.27	28.16
321.483	124.41
321.697	134.65
321.91	105.98
322.124	101.89
322.337	50.69
322.55	101.89
322.763	71.17
322.977	44.54
323.19	65.02
323.403	1.54
323.617	-20.99
323.83	83.45
324.043	77.31
324.256	99.84
324.469	-0.51
324.683	120.32
324.896	34.3
325.109	112.13
325.322	-23.04
325.535	89.6
325.748	50.69
325.962	71.17
326.175	65.02
326.388	69.12
326.601	95.74
326.814	11.78
327.027	144.89
327.24	132.61
327.453	71.17
327.666	99.84
327.879	161.28
328.092	101.89
328.305	50.69
328.518	-14.85
328.731	7.68
328.944	48.64
329.157	50.69
329.37	44.54
329.583	116.22
329.796	75.26
330.009	-35.33
330.222	103.93
330.435	95.74
330.648	83.45
330.861	85.5
331.073	83.45
331.286	124.41
331.499	42.5
331.712	67.07
331.925	42.5
332.138	75.26
332.35	105.98
332.563	87.55
332.776	60.93
332.989	42.5
333.202	77.31
333.414	77.31
333.627	32.26
333.84	24.06
334.053	103.93
334.265	-18.94
334.478	-8.7
334.691	40.45
334.903	52.74
335.116	58.88
335.329	124.41
335.541	73.21
335.754	157.18
335.966	67.07
336.179	75.26
336.392	-8.7
336.604	67.07
336.817	50.69
337.029	79.36
337.242	-20.99
337.454	58.88
337.667	1.54
337.88	155.13
338.092	38.4
338.305	138.75
338.517	17.92
338.729	26.11
338.942	101.89
339.154	11.78
339.367	-27.14
339.579	17.92
339.792	28.16
340.004	73.21
340.217	75.26
340.429	38.4
340.641	38.4
340.854	28.16
341.066	52.74
341.278	103.93
341.491	175.61
341.703	28.16
341.915	-12.8
342.128	11.78
342.34	130.56
342.552	-18.94
342.764	42.5
342.977	22.02
343.189	58.88
343.401	116.22
343.613	44.54
343.826	17.92
344.038	26.11
344.25	134.65
344.462	83.45
344.674	81.41
344.886	28.16
345.099	-8.7
345.311	108.03
345.523	99.84
345.735	-8.7
345.947	26.11
346.159	83.45
346.371	11.78
346.583	126.46
346.795	85.5
347.007	26.11
347.219	38.4
347.431	24.06
347.643	126.46
347.855	75.26
348.067	91.65
348.279	42.5
348.491	67.07
348.703	93.69
348.915	15.87
349.127	-27.14
349.339	62.98
349.551	87.55
349.763	101.89
349.975	79.36
350.187	69.12
350.399	79.36
350.61	99.84
350.822	11.78
351.034	101.89
351.246	75.26
351.458	110.08
351.669	79.36
351.881	91.65
352.093	65.02
352.305	138.75
352.517	116.22
352.728	87.55
352.94	30.21
353.152	52.74
353.363	1.54
353.575	130.56
353.787	167.42
353.999	50.69
354.21	103.93
354.422	42.5
354.633	79.36
354.845	71.17
355.057	48.64
355.268	62.98
355.48	67.07
355.692	-8.7
355.903	-23.04
356.115	116.22
356.326	-16.9
356.538	105.98
356.749	101.89
356.961	151.04
357.172	34.3
357.384	77.31
357.595	99.84
357.807	46.59
358.018	36.35
358.23	26.11
358.441	87.55
358.653	140.8
358.864	73.21
359.075	58.88
359.287	99.84
359.498	175.61
359.709	62.98
359.921	81.41
360.132	62.98
360.344	60.93
360.555	-23.04
360.766	103.93
360.977	56.83
361.189	114.17
361.4	95.74
361.611	44.54
361.823	108.03
362.034	75.26
362.245	15.87
362.456	36.35
362.667	62.98
362.879	-10.75
363.09	-12.8
363.301	71.17
363.512	93.69
363.723	91.65
363.935	1.54
364.146	95.74
364.357	40.45
364.568	22.02
364.779	-27.14
364.99	132.61
365.201	24.06
365.412	134.65
365.623	-0.51
365.834	87.55
366.045	-16.9
366.256	116.22
366.467	26.11
366.678	132.61
366.889	30.21
367.1	103.93
367.311	85.5
367.522	93.69
367.733	26.11
367.944	93.69
368.155	36.35
368.366	126.46
368.577	91.65
368.788	69.12
368.999	69.12
369.209	87.55
369.42	153.09
369.631	128.51
369.842	28.16
370.053	67.07
370.264	128.51
370.474	79.36
370.685	138.75
370.896	28.16
371.107	118.27
371.317	77.31
371.528	60.93
371.739	87.55
371.95	87.55
372.16	89.6
372.371	60.93
372.582	42.5
372.792	71.17
373.003	73.21
373.214	52.74
373.424	99.84
373.635	34.3
373.846	146.94
374.056	73.21
374.267	71.17
374.477	87.55
374.688	50.69
374.898	44.54
375.109	62.98
375.319	130.56
375.53	42.5
375.74	77.31
375.951	-10.75
376.161	126.46
376.372	181.76
376.582	5.63
376.793	42.5
377.003	67.07
377.214	54.78
377.424	87.55
377.635	71.17
377.845	75.26
378.055	103.93
378.266	26.11
378.476	34.3
378.686	73.21
378.897	69.12
379.107	93.69
379.317	110.08
379.528	62.98
379.738	52.74
379.948	-31.23
380.158	165.37
380.369	69.12
380.579	120.32
380.789	40.45
380.999	87.55
381.21	122.37
381.42	116.22
381.63	-64
381.84	204.28
382.05	93.69
382.261	157.18
382.471	159.23
382.681	46.59
382.891	110.08
383.101	128.51
383.311	17.92
383.521	38.4
383.731	132.61
383.941	148.99
384.151	54.78
384.361	28.16
384.571	75.26
384.781	128.51
384.991	105.98
385.201	108.03
385.411	120.32
385.621	34.3
385.831	54.78
386.041	73.21
386.251	128.51
386.461	99.84
386.671	89.6
386.881	65.02
387.091	56.83
387.301	148.99
387.511	108.03
387.72	103.93
387.93	60.93
388.14	95.74
388.35	163.33
388.56	194.05
388.769	126.46
388.979	24.06
389.189	11.78
389.399	50.69
389.609	122.37
389.818	89.6
390.028	101.89
390.238	116.22
390.447	101.89
390.657	75.26
390.867	73.21
391.076	36.35
391.286	89.6
391.496	65.02
391.705	99.84
391.915	24.06
392.125	50.69
392.334	38.4
392.544	120.32
392.753	173.57
392.963	81.41
393.172	58.88
393.382	60.93
393.591	95.74
393.801	56.83
394.01	151.04
394.22	79.36
394.429	56.83
394.639	118.27
394.848	204.28
395.058	67.07
395.267	75.26
395.477	103.93
395.686	81.41
395.895	163.33
396.105	157.18
396.314	114.17
396.524	91.65
396.733	179.71
396.942	165.37
397.152	99.84
397.361	189.95
397.57	110.08
397.78	103.93
397.989	189.95
398.198	259.58
398.407	97.79
398.617	151.04
398.826	73.21
399.035	134.65
399.244	157.18
399.453	77.31
399.663	65.02
399.872	151.04
400.081	-23.04
400.29	192
400.499	91.65
400.708	204.28
400.917	77.31
401.127	130.56
401.336	112.13
401.545	228.86
401.754	112.13
401.963	142.85
402.172	181.76
402.381	36.35
402.59	148.99
402.799	136.7
403.008	200.19
403.217	167.42
403.426	216.57
403.635	46.59
403.844	126.46
404.053	232.96
404.262	151.04
404.471	220.67
404.68	130.56
404.888	204.28
405.097	89.6
405.306	177.66
405.515	138.75
405.724	237.05
405.933	218.62
406.142	151.04
406.35	245.24
406.559	161.28
406.768	214.52
406.977	263.68
407.185	255.48
407.394	206.33
407.603	132.61
407.812	284.16
408.02	267.77
408.229	265.72
408.438	253.44
408.646	151.04
408.855	230.91
409.064	349.69
409.272	255.48
409.481	318.97
409.69	290.3
409.898	292.35
410.107	339.45
410.315	339.45
410.524	314.88
410.733	359.93
410.941	337.4
411.15	298.49
411.358	333.31
411.567	476.66
411.775	388.6
411.984	394.75
412.192	507.38
412.401	462.33
412.609	527.86
412.818	474.62
413.026	523.77
413.234	493.05
413.443	515.58
413.651	460.28
413.86	517.62
414.068	624.12
414.276	617.97
414.485	546.3
414.693	583.16
414.901	673.27
415.11	742.9
415.318	695.8
415.526	736.76
415.734	722.42
415.943	771.57
416.151	894.45
416.359	830.96
416.567	824.82
416.776	843.25
416.984	925.17
417.192	1041.9
417.4	951.79
417.608	970.23
417.817	1023.47
418.025	1066.48
418.233	1254.89
418.441	1154.54
418.649	1142.25
418.857	1138.16
419.065	1279.47
419.273	1238.51
419.481	1312.24
419.689	1512.94
419.897	1459.69
420.105	1379.82
420.313	1461.74
420.521	1697.25
420.729	1570.28
420.937	1684.97
421.145	1617.38
421.353	1934.82
421.561	1924.58
421.769	1938.91
421.977	1943.01
422.185	1934.82
422.393	2110.94
422.601	2270.69
422.809	2221.53
423.017	2233.82
423.224	2293.21
423.432	2495.96
423.64	2395.61
423.848	2741.72
424.056	2545.11
424.263	2852.31
424.471	2665.94
424.679	2756.05
424.887	3048.91
425.094	2987.47
425.302	3028.43
425.51	2991.57
425.718	3315.15
425.925	3104.21
426.133	3487.18
426.341	3734.98
426.548	3739.08
426.756	3732.94
426.964	3788.23
427.171	4064.71
427.379	4109.76
427.586	4234.69
427.794	4339.13
428.001	4515.26
428.209	4769.21
428.417	4523.45
428.624	5129.65
428.832	5049.78
429.039	5158.32
429.247	4982.2
429.454	5361.07
429.662	5746.09
429.869	5467.56
430.076	5979.56
430.284	5770.66
430.491	6006.18
430.699	6159.78
430.906	6317.47
431.114	6372.77
431.321	6751.64
431.528	6710.68
431.736	6991.25
431.943	7325.07
432.15	7210.39
432.358	7562.64
432.565	7777.67
432.772	7648.65
432.979	8199.55
433.187	8275.33
433.394	8318.34
433.601	8668.54
433.808	8912.25
434.016	8930.68
434.223	9112.95
434.43	9569.65
434.637	9571.69
434.844	10032.49
435.052	10462.56
435.259	10386.79
435.466	10505.57
435.673	10077.54
435.88	10902.87
436.087	11523.41
436.294	11566.42
436.501	11408.72
436.708	11445.59
436.915	11920.71
437.122	12289.35
437.329	12391.75
437.537	12735.81
437.743	12928.31
437.95	12907.84
438.157	13372.72
438.364	14101.8
438.571	14198.06
438.778	13972.78
438.985	15508.76
439.192	14646.56
439.399	15265.05
439.606	14937.37
439.813	15701.26
440.02	16968.96
440.227	16549.12
440.433	16342.28
440.64	16964.86
440.847	16733.44
441.054	17014.01
441.261	18605.28
441.467	18017.52
441.674	18394.34
441.881	19510.49
442.088	19109.08
442.294	18918.62
442.501	19215.58
442.708	19756.24
442.914	20937.92
443.121	21277.88
443.328	21030.08
443.534	22504.62
443.741	21437.62
443.948	21411
444.154	22983.84
444.361	22721.7
444.568	22895.78
444.774	23098.53
444.981	23325.85
445.187	24237.2
445.394	24921.22
445.6	24665.22
445.807	27481.18
446.013	26207.34
446.22	26408.05
446.426	27335.77
446.633	27808.86
446.839	28931.14
447.046	27728.98
447.252	29219.91
447.459	28925
447.665	29180.99
447.871	30399.54
448.078	31833.11
448.284	30268.47
448.491	30884.9
448.697	32279.57
448.903	32701.45
449.11	33405.95
449.316	32351.25
449.522	32748.56
449.728	34067.45
449.935	34145.27
450.141	34280.44
450.347	35109.86
450.553	33862.65
450.76	34429.94
450.966	35224.55
451.172	35251.17
451.378	35904.48
451.584	35253.22
451.791	36178.9
451.997	35888.09
452.203	36709.33
452.409	36862.93
452.615	36817.87
452.821	35361.76
453.027	34917.36
453.233	37143.5
453.44	35361.76
453.646	35927
453.852	36330.45
454.058	36565.97
454.264	35429.35
454.47	36139.99
454.676	35484.64
454.882	36709.33
455.088	33422.34
455.294	34057.21
455.5	34503.67
455.705	34890.73
455.911	33479.68
456.117	32742.41
456.323	32527.38
456.529	30612.52
456.735	32371.73
456.941	31345.7
457.147	30721.07
457.352	30028.85
457.558	29430.85
457.764	29742.14
457.97	29322.3
458.176	28777.54
458.381	28621.9
458.587	27169.89
458.793	27364.45
458.999	25451.64
459.204	27563.1
459.41	27008.1
459.616	25181.31
459.821	25050.24
460.027	24749.19
460.233	24300.69
460.438	23180.45
460.644	23571.61
460.85	22504.62
461.055	22371.5
461.261	21888.18
461.466	20329.67
461.672	19641.56
461.878	21423.29
462.083	19793.11
462.289	19471.57
462.494	19289.31
462.7	18459.88
462.905	17865.97
463.111	18541.8
463.316	18636
463.522	18060.52
463.727	18429.16
463.932	17986.8
464.138	17865.97
464.343	18062.57
464.549	17272.06
464.754	17988.85
464.959	17902.83
465.165	17616.12
465.37	17198.33
465.575	16678.15
465.781	17186.04
