Data from USB4F104151__96__13-06-31-476.txt Node

Date: Fri Mar 14 13:06:31 EDT 2025
User: louis
Spectrometer: USB4F10415
Trigger mode: 4
Integration Time (sec): 4.000000E-2
Scans to average: 1
Electric dark correction enabled: true
Nonlinearity correction enabled: false
Boxcar width: 0
XAxis mode: Wavelengths
Number of Pixels in Spectrum: 3648
>>>>>Begin Spectral Data<<<<<
178.204	-150.18
178.424	-150.18
178.644	-150.18
178.864	-205.48
179.084	-195.24
179.304	-62.12
179.524	-43.69
179.744	-2.73
179.964	27.99
180.184	9.56
180.404	34.13
180.624	38.23
180.844	32.08
181.064	-10.92
181.283	-15.02
181.503	-19.11
181.723	11.61
181.943	-41.64
182.163	95.57
182.383	77.14
182.602	77.14
182.822	146.77
183.042	58.71
183.262	64.85
183.482	56.66
183.701	32.08
183.921	105.81
184.141	-8.87
184.361	68.95
184.58	73.04
184.8	52.56
185.02	3.41
185.239	142.68
185.459	58.71
185.679	118.1
185.898	-45.74
186.118	126.29
186.338	58.71
186.557	85.33
186.777	52.56
186.997	48.47
187.216	-33.45
187.436	103.76
187.655	48.47
187.875	132.44
188.095	32.08
188.314	52.56
188.534	124.24
188.753	60.76
188.973	85.33
189.192	46.42
189.412	5.46
189.631	77.14
189.851	21.85
190.07	38.23
190.29	52.56
190.509	44.37
190.729	64.85
190.948	48.47
191.168	191.83
191.387	56.66
191.607	68.95
191.826	44.37
192.045	56.66
192.265	11.61
192.484	7.51
192.704	-10.92
192.923	-2.73
193.142	91.48
193.362	66.9
193.581	109.91
193.8	60.76
194.02	-0.68
194.239	44.37
194.458	89.43
194.678	36.18
194.897	42.32
195.116	-19.11
195.335	62.8
195.555	132.44
195.774	85.33
195.993	60.76
196.212	5.46
196.432	23.89
196.651	11.61
196.87	30.04
197.089	200.02
197.308	46.42
197.528	101.72
197.747	-10.92
197.966	101.72
198.185	87.38
198.404	56.66
198.623	5.46
198.842	118.1
199.062	68.95
199.281	130.39
199.5	44.37
199.719	71
199.938	97.62
200.157	134.48
200.376	83.28
200.595	-4.78
200.814	73.04
201.033	36.18
201.252	97.62
201.471	13.65
201.69	60.76
201.909	60.76
202.128	93.52
202.347	95.57
202.566	64.85
202.785	27.99
203.004	-33.45
203.223	157.01
203.442	64.85
203.661	32.08
203.879	11.61
204.098	75.09
204.317	13.65
204.536	99.67
204.755	89.43
204.974	140.63
205.193	150.87
205.411	130.39
205.63	81.24
205.849	36.18
206.068	19.8
206.287	30.04
206.505	36.18
206.724	75.09
206.943	81.24
207.162	-17.07
207.381	95.57
207.599	-12.97
207.818	-41.64
208.037	75.09
208.255	19.8
208.474	46.42
208.693	52.56
208.911	-37.55
209.13	62.8
209.349	71
209.567	38.23
209.786	40.28
210.005	-2.73
210.223	-19.11
210.442	36.18
210.661	77.14
210.879	3.41
211.098	36.18
211.316	44.37
211.535	73.04
211.753	71
211.972	114
212.191	11.61
212.409	-6.83
212.628	46.42
212.846	36.18
213.065	73.04
213.283	93.52
213.502	34.13
213.72	-2.73
213.938	46.42
214.157	136.53
214.375	81.24
214.594	-19.11
214.812	32.08
215.031	58.71
215.249	68.95
215.467	114
215.686	68.95
215.904	32.08
216.122	-41.64
216.341	152.92
216.559	97.62
216.778	89.43
216.996	64.85
217.214	-12.97
217.432	17.75
217.651	-0.68
217.869	77.14
218.087	-0.68
218.306	36.18
218.524	101.72
218.742	62.8
218.96	13.65
219.179	42.32
219.397	99.67
219.615	89.43
219.833	46.42
220.051	68.95
220.27	77.14
220.488	15.7
220.706	116.05
220.924	99.67
221.142	11.61
221.36	79.19
221.578	101.72
221.796	103.76
222.015	1.37
222.233	85.33
222.451	52.56
222.669	25.94
222.887	77.14
223.105	50.52
223.323	81.24
223.541	-49.83
223.759	105.81
223.977	64.85
224.195	126.29
224.413	66.9
224.631	126.29
224.849	116.05
225.067	114
225.285	27.99
225.503	71
225.721	21.85
225.939	48.47
226.157	103.76
226.375	150.87
226.592	-2.73
226.81	77.14
227.028	87.38
227.246	118.1
227.464	58.71
227.682	103.76
227.9	21.85
228.117	13.65
228.335	71
228.553	3.41
228.771	44.37
228.989	44.37
229.206	15.7
229.424	-33.45
229.642	93.52
229.86	-55.98
230.077	9.56
230.295	23.89
230.513	114
230.731	34.13
230.948	136.53
231.166	71
231.384	52.56
231.601	11.61
231.819	136.53
232.037	58.71
232.254	-15.02
232.472	71
232.689	-19.11
232.907	60.76
233.125	87.38
233.342	21.85
233.56	-68.27
233.777	50.52
233.995	19.8
234.213	95.57
234.43	52.56
234.648	21.85
234.865	30.04
235.083	97.62
235.3	30.04
235.518	134.48
235.735	109.91
235.953	48.47
236.17	54.61
236.388	7.51
236.605	17.75
236.822	116.05
237.04	91.48
237.257	44.37
237.475	50.52
237.692	30.04
237.909	87.38
238.127	-29.35
238.344	66.9
238.562	54.61
238.779	-119.46
238.996	-43.69
239.214	7.51
239.431	54.61
239.648	11.61
239.865	46.42
240.083	68.95
240.3	38.23
240.517	50.52
240.735	36.18
240.952	97.62
241.169	95.57
241.386	-2.73
241.603	-2.73
241.821	-2.73
242.038	77.14
242.255	87.38
242.472	19.8
242.689	64.85
242.907	62.8
243.124	32.08
243.341	5.46
243.558	46.42
243.775	-4.78
243.992	75.09
244.209	34.13
244.426	179.54
244.643	36.18
244.86	-10.92
245.078	58.71
245.295	73.04
245.512	-4.78
245.729	21.85
245.946	36.18
246.163	15.7
246.38	101.72
246.597	52.56
246.814	9.56
247.031	120.15
247.248	46.42
247.464	109.91
247.681	40.28
247.898	54.61
248.115	105.81
248.332	23.89
248.549	89.43
248.766	163.15
248.983	23.89
249.2	19.8
249.417	68.95
249.633	15.7
249.85	75.09
250.067	-10.92
250.284	68.95
250.501	64.85
250.717	101.72
250.934	-0.68
251.151	44.37
251.368	52.56
251.585	44.37
251.801	77.14
252.018	27.99
252.235	68.95
252.451	-35.5
252.668	7.51
252.885	83.28
253.102	32.08
253.318	11.61
253.535	-41.64
253.752	23.89
253.968	-15.02
254.185	-10.92
254.401	77.14
254.618	-68.27
254.835	-15.02
255.051	99.67
255.268	13.65
255.484	40.28
255.701	152.92
255.917	68.95
256.134	-19.11
256.351	-33.45
256.567	9.56
256.784	-33.45
257	-37.55
257.217	101.72
257.433	46.42
257.65	75.09
257.866	54.61
258.082	-12.97
258.299	75.09
258.515	77.14
258.732	91.48
258.948	38.23
259.165	52.56
259.381	58.71
259.597	68.95
259.814	48.47
260.03	101.72
260.246	85.33
260.463	126.29
260.679	42.32
260.895	77.14
261.112	-2.73
261.328	83.28
261.544	27.99
261.761	165.2
261.977	-66.22
262.193	-12.97
262.409	15.7
262.626	27.99
262.842	46.42
263.058	58.71
263.274	146.77
263.49	34.13
263.707	91.48
263.923	11.61
264.139	15.7
264.355	91.48
264.571	87.38
264.787	32.08
265.004	118.1
265.22	3.41
265.436	36.18
265.652	85.33
265.868	83.28
266.084	32.08
266.3	50.52
266.516	38.23
266.732	68.95
266.948	44.37
267.164	89.43
267.38	11.61
267.596	68.95
267.812	95.57
268.028	52.56
268.244	44.37
268.46	71
268.676	7.51
268.892	50.52
269.108	79.19
269.324	1.37
269.54	11.61
269.756	17.75
269.972	-27.31
270.188	1.37
270.403	75.09
270.619	56.66
270.835	23.89
271.051	109.91
271.267	114
271.483	7.51
271.698	73.04
271.914	62.8
272.13	58.71
272.346	42.32
272.562	68.95
272.777	87.38
272.993	5.46
273.209	-2.73
273.425	77.14
273.64	-6.83
273.856	36.18
274.072	30.04
274.287	42.32
274.503	73.04
274.719	62.8
274.934	44.37
275.15	-41.64
275.366	68.95
275.581	-21.16
275.797	38.23
276.012	36.18
276.228	17.75
276.444	46.42
276.659	163.15
276.875	1.37
277.09	40.28
277.306	38.23
277.521	87.38
277.737	56.66
277.952	122.2
278.168	44.37
278.383	105.81
278.599	77.14
278.814	64.85
279.03	27.99
279.245	200.02
279.461	42.32
279.676	114
279.892	-10.92
280.107	-0.68
280.322	21.85
280.538	66.9
280.753	60.76
280.969	38.23
281.184	-6.83
281.399	138.58
281.615	54.61
281.83	23.89
282.045	13.65
282.26	40.28
282.476	83.28
282.691	62.8
282.906	109.91
283.122	-25.26
283.337	99.67
283.552	21.85
283.767	19.8
283.983	40.28
284.198	13.65
284.413	13.65
284.628	71
284.843	46.42
285.058	52.56
285.274	32.08
285.489	-58.03
285.704	46.42
285.919	23.89
286.134	60.76
286.349	52.56
286.564	87.38
286.779	161.11
286.995	7.51
287.21	-53.93
287.425	81.24
287.64	97.62
287.855	58.71
288.07	-2.73
288.285	128.34
288.5	42.32
288.715	5.46
288.93	21.85
289.145	66.9
289.36	114
289.575	91.48
289.79	79.19
290.004	87.38
290.219	42.32
290.434	13.65
290.649	36.18
290.864	38.23
291.079	13.65
291.294	23.89
291.509	79.19
291.724	38.23
291.938	58.71
292.153	77.14
292.368	-4.78
292.583	50.52
292.798	58.71
293.012	87.38
293.227	91.48
293.442	15.7
293.657	171.35
293.871	73.04
294.086	75.09
294.301	13.65
294.516	146.77
294.73	-17.07
294.945	-2.73
295.16	126.29
295.374	79.19
295.589	38.23
295.804	52.56
296.018	95.57
296.233	154.96
296.447	62.8
296.662	-8.87
296.877	109.91
297.091	21.85
297.306	-27.31
297.52	-37.55
297.735	118.1
297.949	81.24
298.164	42.32
298.378	60.76
298.593	27.99
298.807	-12.97
299.022	25.94
299.236	87.38
299.451	77.14
299.665	-23.21
299.88	56.66
300.094	95.57
300.309	85.33
300.523	93.52
300.737	50.52
300.952	1.37
301.166	44.37
301.381	-23.21
301.595	-21.16
301.809	56.66
302.024	46.42
302.238	-64.17
302.452	83.28
302.667	42.32
302.881	7.51
303.095	25.94
303.309	71
303.524	42.32
303.738	120.15
303.952	21.85
304.166	30.04
304.381	-25.26
304.595	23.89
304.809	81.24
305.023	85.33
305.237	5.46
305.452	60.76
305.666	71
305.88	54.61
306.094	66.9
306.308	116.05
306.522	48.47
306.736	23.89
306.95	93.52
307.164	79.19
307.379	89.43
307.593	87.38
307.807	97.62
308.021	36.18
308.235	89.43
308.449	-10.92
308.663	75.09
308.877	165.2
309.091	9.56
309.305	62.8
309.519	-76.46
309.733	111.96
309.947	-17.07
310.161	122.2
310.374	11.61
310.588	87.38
310.802	60.76
311.016	1.37
311.23	64.85
311.444	130.39
311.658	71
311.872	60.76
312.085	68.95
312.299	118.1
312.513	73.04
312.727	118.1
312.941	-29.35
313.154	85.33
313.368	44.37
313.582	111.96
313.796	68.95
314.009	32.08
314.223	118.1
314.437	105.81
314.651	97.62
314.864	15.7
315.078	99.67
315.292	5.46
315.505	64.85
315.719	103.76
315.933	-2.73
316.146	89.43
316.36	-21.16
316.573	89.43
316.787	83.28
317.001	124.24
317.214	3.41
317.428	-2.73
317.641	-12.97
317.855	93.52
318.068	11.61
318.282	40.28
318.495	204.11
318.709	36.18
318.922	81.24
319.136	107.86
319.349	99.67
319.563	111.96
319.776	101.72
319.99	11.61
320.203	58.71
320.417	105.81
320.63	93.52
320.843	185.68
321.057	-2.73
321.27	83.28
321.483	42.32
321.697	32.08
321.91	73.04
322.124	21.85
322.337	52.56
322.55	19.8
322.763	40.28
322.977	68.95
323.19	48.47
323.403	77.14
323.617	97.62
323.83	60.76
324.043	52.56
324.256	46.42
324.469	-84.65
324.683	97.62
324.896	-35.5
325.109	89.43
325.322	11.61
325.535	52.56
325.748	27.99
325.962	34.13
326.175	77.14
326.388	81.24
326.601	103.76
326.814	19.8
327.027	77.14
327.24	68.95
327.453	19.8
327.666	116.05
327.879	109.91
328.092	11.61
328.305	105.81
328.518	15.7
328.731	13.65
328.944	81.24
329.157	93.52
329.37	62.8
329.583	85.33
329.796	142.68
330.009	73.04
330.222	89.43
330.435	48.47
330.648	44.37
330.861	64.85
331.073	25.94
331.286	114
331.499	109.91
331.712	77.14
331.925	68.95
332.138	122.2
332.35	134.48
332.563	42.32
332.776	79.19
332.989	68.95
333.202	7.51
333.414	138.58
333.627	54.61
333.84	-23.21
334.053	46.42
334.265	66.9
334.478	3.41
334.691	34.13
334.903	136.53
335.116	66.9
335.329	93.52
335.541	9.56
335.754	157.01
335.966	-17.07
336.179	83.28
336.392	93.52
336.604	-33.45
336.817	161.11
337.029	146.77
337.242	60.76
337.454	87.38
337.667	75.09
337.88	77.14
338.092	77.14
338.305	13.65
338.517	68.95
338.729	142.68
338.942	83.28
339.154	30.04
339.367	30.04
339.579	-19.11
339.792	23.89
340.004	103.76
340.217	-4.78
340.429	81.24
340.641	38.23
340.854	21.85
341.066	101.72
341.278	21.85
341.491	109.91
341.703	103.76
341.915	1.37
342.128	27.99
342.34	64.85
342.552	1.37
342.764	-43.69
342.977	40.28
343.189	97.62
343.401	120.15
343.613	40.28
343.826	134.48
344.038	-51.88
344.25	60.76
344.462	-25.26
344.674	83.28
344.886	48.47
345.099	183.63
345.311	118.1
345.523	23.89
345.735	-4.78
345.947	30.04
346.159	68.95
346.371	-21.16
346.583	77.14
346.795	154.96
347.007	-60.07
347.219	85.33
347.431	54.61
347.643	134.48
347.855	13.65
348.067	54.61
348.279	46.42
348.491	48.47
348.703	13.65
348.915	19.8
349.127	25.94
349.339	91.48
349.551	56.66
349.763	34.13
349.975	54.61
350.187	36.18
350.399	193.87
350.61	87.38
350.822	-2.73
351.034	126.29
351.246	-12.97
351.458	148.82
351.669	68.95
351.881	144.72
352.093	27.99
352.305	87.38
352.517	44.37
352.728	116.05
352.94	36.18
353.152	27.99
353.363	40.28
353.575	56.66
353.787	99.67
353.999	44.37
354.21	111.96
354.422	-35.5
354.633	52.56
354.845	34.13
355.057	77.14
355.268	62.8
355.48	91.48
355.692	50.52
355.903	89.43
356.115	105.81
356.326	5.46
356.538	91.48
356.749	150.87
356.961	116.05
357.172	32.08
357.384	17.75
357.595	187.73
357.807	19.8
358.018	5.46
358.23	60.76
358.441	154.96
358.653	103.76
358.864	50.52
359.075	56.66
359.287	85.33
359.498	124.24
359.709	150.87
359.921	54.61
360.132	7.51
360.344	77.14
360.555	81.24
360.766	111.96
360.977	19.8
361.189	103.76
361.4	-66.22
361.611	19.8
361.823	120.15
362.034	105.81
362.245	52.56
362.456	71
362.667	40.28
362.879	11.61
363.09	89.43
363.301	118.1
363.512	44.37
363.723	128.34
363.935	93.52
364.146	68.95
364.357	81.24
364.568	95.57
364.779	36.18
364.99	77.14
365.201	-0.68
365.412	85.33
365.623	-10.92
365.834	101.72
366.045	99.67
366.256	87.38
366.467	122.2
366.678	-4.78
366.889	36.18
367.1	62.8
367.311	154.96
367.522	48.47
367.733	150.87
367.944	101.72
368.155	44.37
368.366	126.29
368.577	56.66
368.788	130.39
368.999	40.28
369.209	27.99
369.42	167.25
369.631	148.82
369.842	130.39
370.053	23.89
370.264	85.33
370.474	46.42
370.685	40.28
370.896	58.71
371.107	114
371.317	71
371.528	44.37
371.739	163.15
371.95	32.08
372.16	126.29
372.371	32.08
372.582	73.04
372.792	114
373.003	62.8
373.214	1.37
373.424	73.04
373.635	13.65
373.846	118.1
374.056	40.28
374.267	87.38
374.477	122.2
374.688	60.76
374.898	89.43
375.109	101.72
375.319	66.9
375.53	136.53
375.74	95.57
375.951	136.53
376.161	140.63
376.372	128.34
376.582	109.91
376.793	42.32
377.003	91.48
377.214	52.56
377.424	79.19
377.635	46.42
377.845	64.85
378.055	148.82
378.266	64.85
378.476	38.23
378.686	101.72
378.897	11.61
379.107	44.37
379.317	48.47
379.528	17.75
379.738	101.72
379.948	15.7
380.158	89.43
380.369	79.19
380.579	97.62
380.789	66.9
380.999	79.19
381.21	48.47
381.42	138.58
381.63	11.61
381.84	179.54
382.05	54.61
382.261	101.72
382.471	44.37
382.681	3.41
382.891	120.15
383.101	120.15
383.311	32.08
383.521	27.99
383.731	107.86
383.941	56.66
384.151	38.23
384.361	111.96
384.571	32.08
384.781	105.81
384.991	109.91
385.201	212.31
385.411	150.87
385.621	107.86
385.831	111.96
386.041	44.37
386.251	95.57
386.461	152.92
386.671	52.56
386.881	7.51
387.091	99.67
387.301	142.68
387.511	171.35
387.72	140.63
387.93	99.67
388.14	27.99
388.35	138.58
388.56	187.73
388.769	111.96
388.979	44.37
389.189	50.52
389.399	38.23
389.609	91.48
389.818	146.77
390.028	177.49
390.238	159.06
390.447	50.52
390.657	64.85
390.867	73.04
391.076	3.41
391.286	79.19
391.496	73.04
391.705	44.37
391.915	187.73
392.125	93.52
392.334	5.46
392.544	144.72
392.753	93.52
392.963	122.2
393.172	75.09
393.382	73.04
393.591	181.59
393.801	77.14
394.01	228.69
394.22	136.53
394.429	142.68
394.639	87.38
394.848	142.68
395.058	120.15
395.267	152.92
395.477	85.33
395.686	159.06
395.895	189.78
396.105	134.48
396.314	159.06
396.524	52.56
396.733	48.47
396.942	111.96
397.152	204.11
397.361	138.58
397.57	126.29
397.78	138.58
397.989	169.3
398.198	195.92
398.407	138.58
398.617	87.38
398.826	68.95
399.035	68.95
399.244	105.81
399.453	126.29
399.663	208.21
399.872	222.55
400.081	154.96
400.29	159.06
400.499	216.4
400.708	224.59
400.917	103.76
401.127	109.91
401.336	185.68
401.545	283.99
401.754	228.69
401.963	134.48
402.172	148.82
402.381	191.83
402.59	163.15
402.799	167.25
403.008	138.58
403.217	208.21
403.426	212.31
403.635	132.44
403.844	183.63
404.053	132.44
404.262	202.07
404.471	224.59
404.68	189.78
404.888	154.96
405.097	232.79
405.306	218.45
405.515	253.27
405.724	216.4
405.933	286.03
406.142	361.81
406.35	247.12
406.559	298.32
406.768	218.45
406.977	296.27
407.185	357.71
407.394	255.31
407.603	292.18
407.812	255.31
408.02	425.29
408.229	365.9
408.438	351.57
408.646	236.88
408.855	372.05
409.064	345.42
409.272	380.24
409.481	406.86
409.69	339.28
409.898	415.06
410.107	410.96
410.315	496.97
410.524	443.73
410.733	546.13
410.941	453.97
411.15	499.02
411.358	548.17
411.567	677.19
411.775	505.17
411.984	531.79
412.192	607.56
412.401	640.33
412.609	716.11
412.818	654.67
413.026	675.15
413.234	701.77
413.443	699.72
413.651	818.5
413.86	791.88
414.068	757.07
414.276	804.17
414.485	810.31
414.693	910.66
414.901	992.58
415.11	845.13
415.318	1000.77
415.526	1054.02
415.734	1019.21
415.943	1115.46
416.151	1113.41
416.359	1133.89
416.567	1127.75
416.776	1168.71
416.984	1314.11
417.192	1213.76
417.4	1307.97
417.608	1367.36
417.817	1318.21
418.025	1457.47
418.233	1647.93
418.441	1559.87
418.649	1568.06
418.857	1729.85
419.065	1824.06
419.273	1756.47
419.481	1828.15
419.689	1924.41
419.897	1991.99
420.105	2096.44
420.313	2135.35
420.521	2342.19
420.729	2260.27
420.937	2274.61
421.145	2381.1
421.353	2397.49
421.561	2690.35
421.769	2692.4
421.977	2792.75
422.185	2819.37
422.393	2868.52
422.601	3050.79
422.809	3036.45
423.017	3077.41
423.224	3198.24
423.432	3388.71
423.64	3347.75
423.848	3700
424.056	3534.11
424.263	3902.75
424.471	3816.73
424.679	3847.45
424.887	4226.32
425.094	4338.96
425.302	4177.17
425.51	4523.28
425.718	4660.49
425.925	4672.78
426.133	4926.73
426.341	5123.34
426.548	5373.19
426.756	5465.35
426.964	5418.24
427.171	5604.61
427.379	5848.32
427.586	5817.6
427.794	6034.68
428.001	6395.12
428.209	6790.38
428.417	6767.85
428.624	7105.77
428.832	7126.25
429.039	7068.91
429.247	6888.68
429.454	7701.73
429.662	8203.48
429.869	7728.35
430.076	8228.06
430.284	8047.83
430.491	8342.74
430.699	8746.19
430.906	8912.08
431.114	9020.62
431.321	9317.58
431.528	9422.02
431.736	10034.36
431.943	10448.05
432.15	10206.39
432.358	10497.21
432.565	10861.74
432.772	10914.99
432.979	11539.62
433.187	11539.62
433.394	11609.25
433.601	12340.38
433.808	12610.71
434.016	12371.1
434.223	13100.17
434.43	13872.26
434.637	13405.32
434.844	14335.1
435.052	14523.51
435.259	14417.02
435.466	14765.17
435.673	14425.21
435.88	15504.49
436.087	16280.67
436.294	16180.32
436.501	15879.27
436.708	16239.71
436.915	16917.59
437.122	17407.05
437.329	17439.82
437.537	17742.92
437.743	18375.74
437.95	18193.47
438.157	19156.02
438.364	19670.06
438.571	19854.37
438.778	19895.33
438.985	21558.28
439.192	20800.54
439.399	21543.95
439.606	21249.04
439.813	22387.71
440.02	23708.65
440.227	23352.31
440.433	23043.06
440.64	23823.34
440.847	23319.54
441.054	24046.57
441.261	25813.96
441.467	25531.34
441.674	26033.1
441.881	26928.06
442.088	26891.19
442.294	26684.35
442.501	27343.8
442.708	27898.8
442.914	28756.89
443.121	30243.72
443.328	29690.77
443.534	31624.05
443.741	30514.05
443.948	30083.98
444.154	32506.73
444.361	32050.03
444.568	32457.57
444.774	32170.86
444.981	32455.53
445.187	33610.58
445.394	35089.21
445.6	34784.07
445.807	37831.44
446.013	36512.55
446.22	37020.45
446.426	38253.33
446.633	38753.03
446.839	40383.21
447.046	38605.58
447.252	40495.85
447.459	40866.53
447.665	40577.77
447.871	42500.81
448.078	43936.44
448.284	41935.57
448.491	43014.85
448.697	44958.38
448.903	45832.86
449.11	45793.95
449.316	44913.32
449.522	45746.84
449.728	47137.41
449.935	47665.79
450.141	47526.53
450.347	48321.14
450.553	47104.65
450.76	47635.07
450.966	49261.16
451.172	48886.38
451.378	50274.9
451.584	49029.74
451.791	50559.57
451.997	49760.86
452.203	50940.49
452.409	50950.73
452.615	50391.64
452.821	48820.84
453.027	48413.3
453.233	51001.93
453.44	49001.07
453.646	49408.61
453.852	49615.46
454.058	50690.64
454.264	48921.19
454.47	50311.77
454.676	48917.1
454.882	50381.4
455.088	46467.73
455.294	47004.3
455.5	47790.72
455.705	48122.49
455.911	46516.88
456.117	45054.63
456.323	44825.26
456.529	42595.02
456.735	44427.95
456.941	43713.21
457.147	42709.71
457.352	41409.25
457.558	41016.04
457.764	40923.88
457.97	40237.81
458.176	39783.16
458.381	39555.83
458.587	37581.59
458.793	37554.97
458.999	35709.75
459.204	38267.66
459.41	36883.23
459.616	34493.25
459.821	35208
460.027	34251.59
460.233	34046.8
460.438	32389.99
460.644	32449.38
460.85	31165.31
461.055	30698.37
461.261	30397.32
461.466	28156.84
461.672	27655.09
461.878	29250.45
462.083	27282.36
462.289	27124.66
462.494	26893.24
462.7	25785.29
462.905	24691.68
463.111	25402.32
463.316	25699.28
463.522	25197.52
463.727	25310.16
463.932	24988.63
464.138	24761.31
464.343	25021.4
464.549	24245.22
464.754	24996.82
464.959	24927.19
465.165	24849.37
465.37	23923.69
465.575	23122.93
465.781	24083.43
465.986	24187.88
466.191	23256.05
