Data from USB4F104151__2__13-04-07-412.txt Node

Date: Fri Mar 14 13:04:07 EDT 2025
User: louis
Spectrometer: USB4F10415
Trigger mode: 4
Integration Time (sec): 4.000000E-2
Scans to average: 1
Electric dark correction enabled: true
Nonlinearity correction enabled: false
Boxcar width: 0
XAxis mode: Wavelengths
Number of Pixels in Spectrum: 3648
>>>>>Begin Spectral Data<<<<<
178.204	-199.85
178.424	-199.85
178.644	-199.85
178.864	-150.7
179.084	-150.7
179.304	-42.15
179.524	13.14
179.744	41.81
179.964	62.29
180.184	-44.2
180.404	60.24
180.624	-21.67
180.844	13.14
181.064	-93.35
181.283	-36.01
181.503	25.43
181.723	21.33
181.943	33.62
182.163	88.92
182.383	82.77
182.602	13.14
182.822	39.76
183.042	58.2
183.262	-48.3
183.482	25.43
183.701	58.2
183.921	60.24
184.141	-7.34
184.361	72.53
184.58	54.1
184.8	68.44
185.02	54.1
185.239	35.67
185.459	-15.53
185.679	146.26
185.898	-56.49
186.118	60.24
186.338	-15.53
186.557	50
186.777	-31.91
186.997	11.09
187.216	21.33
187.436	142.16
187.655	68.44
187.875	47.96
188.095	19.29
188.314	39.76
188.534	138.07
188.753	-87.21
188.973	31.57
189.192	35.67
189.412	39.76
189.631	76.63
189.851	84.82
190.07	74.58
190.29	76.63
190.509	64.34
190.729	25.43
190.948	88.92
191.168	183.12
191.387	88.92
191.607	-27.82
191.826	37.72
192.045	-48.3
192.265	35.67
192.484	-11.43
192.704	76.63
192.923	9.05
193.142	144.21
193.362	33.62
193.581	68.44
193.8	4.95
194.02	33.62
194.239	78.68
194.458	7
194.678	70.48
194.897	-42.15
195.116	95.06
195.335	25.43
195.555	95.06
195.774	-31.91
195.993	43.86
196.212	27.48
196.432	9.05
196.651	11.09
196.87	39.76
197.089	105.3
197.308	82.77
197.528	72.53
197.747	4.95
197.966	-27.82
198.185	117.59
198.404	2.9
198.623	58.2
198.842	-25.77
199.062	45.91
199.281	-7.34
199.5	82.77
199.719	78.68
199.938	95.06
200.157	70.48
200.376	9.05
200.595	72.53
200.814	76.63
201.033	50
201.252	45.91
201.471	-25.77
201.69	25.43
201.909	80.72
202.128	15.19
202.347	25.43
202.566	80.72
202.785	-23.72
203.004	33.62
203.223	156.5
203.442	33.62
203.661	62.29
203.879	4.95
204.098	43.86
204.317	-11.43
204.536	39.76
204.755	41.81
204.974	60.24
205.193	41.81
205.411	101.2
205.63	39.76
205.849	66.39
206.068	33.62
206.287	29.52
206.505	56.15
206.724	41.81
206.943	-23.72
207.162	-13.48
207.381	-1.19
207.599	31.57
207.818	-5.29
208.037	41.81
208.255	-1.19
208.474	-15.53
208.693	15.19
208.911	50
209.13	68.44
209.349	54.1
209.567	19.29
209.786	74.58
210.005	95.06
210.223	47.96
210.442	7
210.661	45.91
210.879	0.85
211.098	0.85
211.316	58.2
211.535	93.01
211.753	21.33
211.972	78.68
212.191	9.05
212.409	35.67
212.628	33.62
212.846	-21.67
213.065	88.92
213.283	113.49
213.502	0.85
213.72	68.44
213.938	33.62
214.157	-15.53
214.375	39.76
214.594	-56.49
214.812	78.68
215.031	84.82
215.249	107.35
215.467	27.48
215.686	17.24
215.904	109.4
216.122	60.24
216.341	-42.15
216.559	31.57
216.778	58.2
216.996	68.44
217.214	41.81
217.432	4.95
217.651	-19.63
217.869	-33.96
218.087	31.57
218.306	41.81
218.524	47.96
218.742	33.62
218.96	121.68
219.179	-17.58
219.397	-40.11
219.615	115.54
219.833	64.34
220.051	27.48
220.27	82.77
220.488	60.24
220.706	37.72
220.924	76.63
221.142	7
221.36	-7.34
221.578	74.58
221.796	41.81
222.015	-5.29
222.233	-23.72
222.451	90.96
222.669	45.91
222.887	-21.67
223.105	19.29
223.323	33.62
223.541	43.86
223.759	13.14
223.977	-1.19
224.195	109.4
224.413	82.77
224.631	56.15
224.849	41.81
225.067	9.05
225.285	-27.82
225.503	62.29
225.721	-38.06
225.939	45.91
226.157	52.05
226.375	54.1
226.592	-25.77
226.81	74.58
227.028	52.05
227.246	54.1
227.464	82.77
227.682	25.43
227.9	78.68
228.117	-27.82
228.335	39.76
228.553	117.59
228.771	41.81
228.989	37.72
229.206	78.68
229.424	45.91
229.642	-46.25
229.86	-11.43
230.077	54.1
230.295	74.58
230.513	68.44
230.731	13.14
230.948	125.78
231.166	70.48
231.384	-31.91
231.601	-52.39
231.819	82.77
232.037	9.05
232.254	-54.44
232.472	-40.11
232.689	17.24
232.907	66.39
233.125	52.05
233.342	70.48
233.56	-1.19
233.777	4.95
233.995	11.09
234.213	13.14
234.43	78.68
234.648	9.05
234.865	31.57
235.083	-27.82
235.3	90.96
235.518	-23.72
235.735	97.11
235.953	117.59
236.17	-58.54
236.388	60.24
236.605	58.2
236.822	52.05
237.04	72.53
237.257	82.77
237.475	-25.77
237.692	19.29
237.909	125.78
238.127	27.48
238.344	144.21
238.562	60.24
238.779	66.39
238.996	43.86
239.214	47.96
239.431	109.4
239.648	52.05
239.865	21.33
240.083	125.78
240.3	9.05
240.517	-5.29
240.735	-13.48
240.952	78.68
241.169	25.43
241.386	37.72
241.603	-5.29
241.821	-54.44
242.038	123.73
242.255	29.52
242.472	-29.87
242.689	144.21
242.907	54.1
243.124	11.09
243.341	-17.58
243.558	27.48
243.775	23.38
243.992	-40.11
244.209	50
244.426	111.44
244.643	39.76
244.86	9.05
245.078	82.77
245.295	15.19
245.512	76.63
245.729	-72.87
245.946	60.24
246.163	4.95
246.38	-13.48
246.597	113.49
246.814	-46.25
247.031	78.68
247.248	13.14
247.464	17.24
247.681	47.96
247.898	35.67
248.115	13.14
248.332	-3.24
248.549	23.38
248.766	21.33
248.983	23.38
249.2	66.39
249.417	90.96
249.633	50
249.85	115.54
250.067	45.91
250.284	-15.53
250.501	15.19
250.717	93.01
250.934	9.05
251.151	56.15
251.368	-11.43
251.585	64.34
251.801	-25.77
252.018	-23.72
252.235	60.24
252.451	25.43
252.668	50
252.885	45.91
253.102	-36.01
253.318	50
253.535	9.05
253.752	-19.63
253.968	-46.25
254.185	13.14
254.401	11.09
254.618	41.81
254.835	68.44
255.051	41.81
255.268	109.4
255.484	33.62
255.701	47.96
255.917	97.11
256.134	7
256.351	-36.01
256.567	21.33
256.784	2.9
257	-19.63
257.217	9.05
257.433	37.72
257.65	29.52
257.866	52.05
258.082	-36.01
258.299	19.29
258.515	90.96
258.732	-83.11
258.948	-38.06
259.165	33.62
259.381	-68.78
259.597	21.33
259.814	43.86
260.03	-25.77
260.246	27.48
260.463	27.48
260.679	72.53
260.895	-3.24
261.112	0.85
261.328	35.67
261.544	74.58
261.761	62.29
261.977	27.48
262.193	27.48
262.409	58.2
262.626	25.43
262.842	54.1
263.058	-3.24
263.274	19.29
263.49	23.38
263.707	95.06
263.923	33.62
264.139	41.81
264.355	50
264.571	84.82
264.787	62.29
265.004	23.38
265.22	4.95
265.436	39.76
265.652	15.19
265.868	-3.24
266.084	21.33
266.3	13.14
266.516	58.2
266.732	19.29
266.948	56.15
267.164	66.39
267.38	-64.68
267.596	-7.34
267.812	140.12
268.028	-1.19
268.244	37.72
268.46	0.85
268.676	-17.58
268.892	11.09
269.108	9.05
269.324	4.95
269.54	37.72
269.756	54.1
269.972	-31.91
270.188	45.91
270.403	-50.35
270.619	41.81
270.835	35.67
271.051	-38.06
271.267	35.67
271.483	33.62
271.698	21.33
271.914	99.16
272.13	4.95
272.346	82.77
272.562	19.29
272.777	82.77
272.993	31.57
273.209	17.24
273.425	80.72
273.64	-23.72
273.856	39.76
274.072	13.14
274.287	52.05
274.503	62.29
274.719	68.44
274.934	-7.34
275.15	-5.29
275.366	82.77
275.581	-40.11
275.797	78.68
276.012	60.24
276.228	-15.53
276.444	11.09
276.659	33.62
276.875	15.19
277.09	64.34
277.306	39.76
277.521	93.01
277.737	21.33
277.952	86.87
278.168	9.05
278.383	39.76
278.599	35.67
278.814	9.05
279.03	29.52
279.245	121.68
279.461	27.48
279.676	-23.72
279.892	-38.06
280.107	62.29
280.322	25.43
280.538	50
280.753	-13.48
280.969	60.24
281.184	-33.96
281.399	66.39
281.615	80.72
281.83	109.4
282.045	-21.67
282.26	66.39
282.476	33.62
282.691	72.53
282.906	7
283.122	21.33
283.337	7
283.552	64.34
283.767	-21.67
283.983	2.9
284.198	58.2
284.413	31.57
284.628	11.09
284.843	37.72
285.058	45.91
285.274	41.81
285.489	-5.29
285.704	41.81
285.919	-31.91
286.134	-1.19
286.349	-64.68
286.564	-5.29
286.779	17.24
286.995	-5.29
287.21	-85.16
287.425	117.59
287.64	54.1
287.855	86.87
288.07	-33.96
288.285	43.86
288.5	105.3
288.715	86.87
288.93	0.85
289.145	11.09
289.36	35.67
289.575	21.33
289.79	0.85
290.004	4.95
290.219	9.05
290.434	-68.78
290.649	66.39
290.864	9.05
291.079	-21.67
291.294	50
291.509	41.81
291.724	29.52
291.938	-46.25
292.153	54.1
292.368	4.95
292.583	47.96
292.798	58.2
293.012	50
293.227	66.39
293.442	-1.19
293.657	58.2
293.871	164.69
294.086	50
294.301	70.48
294.516	52.05
294.73	50
294.945	21.33
295.16	-54.44
295.374	66.39
295.589	13.14
295.804	11.09
296.018	23.38
296.233	41.81
296.447	19.29
296.662	68.44
296.877	54.1
297.091	25.43
297.306	9.05
297.52	-31.91
297.735	15.19
297.949	64.34
298.164	90.96
298.378	-5.29
298.593	-7.34
298.807	-1.19
299.022	39.76
299.236	41.81
299.451	-36.01
299.665	-19.63
299.88	-46.25
300.094	19.29
300.309	41.81
300.523	21.33
300.737	21.33
300.952	4.95
301.166	25.43
301.381	-64.68
301.595	37.72
301.809	0.85
302.024	-7.34
302.238	62.29
302.452	35.67
302.667	4.95
302.881	88.92
303.095	47.96
303.309	41.81
303.524	-5.29
303.738	33.62
303.952	-60.59
304.166	-13.48
304.381	-44.2
304.595	158.55
304.809	-54.44
305.023	109.4
305.237	80.72
305.452	-48.3
305.666	115.54
305.88	90.96
306.094	29.52
306.308	60.24
306.522	74.58
306.736	41.81
306.95	56.15
307.164	9.05
307.379	33.62
307.593	76.63
307.807	11.09
308.021	54.1
308.235	52.05
308.449	-5.29
308.663	-7.34
308.877	74.58
309.091	45.91
309.305	93.01
309.519	4.95
309.733	138.07
309.947	-23.72
310.161	0.85
310.374	-40.11
310.588	-15.53
310.802	2.9
311.016	2.9
311.23	25.43
311.444	43.86
311.658	-1.19
311.872	119.64
312.085	74.58
312.299	66.39
312.513	21.33
312.727	54.1
312.941	-17.58
313.154	113.49
313.368	107.35
313.582	47.96
313.796	23.38
314.009	43.86
314.223	93.01
314.437	-11.43
314.651	62.29
314.864	82.77
315.078	17.24
315.292	41.81
315.505	13.14
315.719	-5.29
315.933	60.24
316.146	15.19
316.36	-72.87
316.573	29.52
316.787	50
317.001	27.48
317.214	-46.25
317.428	66.39
317.641	-29.87
317.855	19.29
318.068	25.43
318.282	27.48
318.495	78.68
318.709	37.72
318.922	50
319.136	78.68
319.349	41.81
319.563	21.33
319.776	13.14
319.99	-38.06
320.203	47.96
320.417	-9.39
320.63	52.05
320.843	138.07
321.057	23.38
321.27	41.81
321.483	58.2
321.697	99.16
321.91	31.57
322.124	9.05
322.337	68.44
322.55	0.85
322.763	-3.24
322.977	45.91
323.19	9.05
323.403	37.72
323.617	58.2
323.83	107.35
324.043	95.06
324.256	-7.34
324.469	-52.39
324.683	111.44
324.896	4.95
325.109	107.35
325.322	-9.39
325.535	-7.34
325.748	64.34
325.962	39.76
326.175	56.15
326.388	52.05
326.601	0.85
326.814	99.16
327.027	-60.59
327.24	66.39
327.453	-58.54
327.666	-42.15
327.879	123.73
328.092	52.05
328.305	90.96
328.518	54.1
328.731	-52.39
328.944	-19.63
329.157	86.87
329.37	-38.06
329.583	115.54
329.796	43.86
330.009	-1.19
330.222	74.58
330.435	66.39
330.648	-11.43
330.861	17.24
331.073	-19.63
331.286	29.52
331.499	82.77
331.712	21.33
331.925	27.48
332.138	27.48
332.35	74.58
332.563	-19.63
332.776	58.2
332.989	25.43
333.202	-38.06
333.414	90.96
333.627	9.05
333.84	60.24
334.053	9.05
334.265	58.2
334.478	-40.11
334.691	27.48
334.903	19.29
335.116	-68.78
335.329	13.14
335.541	60.24
335.754	64.34
335.966	-19.63
336.179	25.43
336.392	-44.2
336.604	2.9
336.817	95.06
337.029	68.44
337.242	21.33
337.454	62.29
337.667	33.62
337.88	101.2
338.092	103.25
338.305	50
338.517	25.43
338.729	86.87
338.942	95.06
339.154	-19.63
339.367	-109.74
339.579	-5.29
339.792	4.95
340.004	37.72
340.217	29.52
340.429	13.14
340.641	-3.24
340.854	-5.29
341.066	-89.26
341.278	0.85
341.491	72.53
341.703	82.77
341.915	41.81
342.128	66.39
342.34	52.05
342.552	-15.53
342.764	50
342.977	-9.39
343.189	50
343.401	17.24
343.613	23.38
343.826	17.24
344.038	-11.43
344.25	-7.34
344.462	23.38
344.674	35.67
344.886	-11.43
345.099	47.96
345.311	97.11
345.523	99.16
345.735	-9.39
345.947	-3.24
346.159	64.34
346.371	-29.87
346.583	27.48
346.795	68.44
347.007	-27.82
347.219	60.24
347.431	35.67
347.643	27.48
347.855	-44.2
348.067	2.9
348.279	7
348.491	58.2
348.703	-1.19
348.915	23.38
349.127	-46.25
349.339	86.87
349.551	-56.49
349.763	11.09
349.975	86.87
350.187	60.24
350.399	103.25
350.61	56.15
350.822	-19.63
351.034	43.86
351.246	56.15
351.458	13.14
351.669	80.72
351.881	68.44
352.093	74.58
352.305	86.87
352.517	33.62
352.728	72.53
352.94	54.1
353.152	74.58
353.363	52.05
353.575	109.4
353.787	88.92
353.999	62.29
354.21	-3.24
354.422	-25.77
354.633	25.43
354.845	-1.19
355.057	45.91
355.268	27.48
355.48	39.76
355.692	-15.53
355.903	-21.67
356.115	33.62
356.326	-40.11
356.538	93.01
356.749	47.96
356.961	107.35
357.172	0.85
357.384	2.9
357.595	133.97
357.807	13.14
358.018	33.62
358.23	13.14
358.441	29.52
358.653	76.63
358.864	15.19
359.075	-40.11
359.287	-21.67
359.498	76.63
359.709	35.67
359.921	-31.91
360.132	7
360.344	-23.72
360.555	-36.01
360.766	64.34
360.977	33.62
361.189	70.48
361.4	21.33
361.611	105.3
361.823	76.63
362.034	0.85
362.245	50
362.456	4.95
362.667	45.91
362.879	-27.82
363.09	119.64
363.301	27.48
363.512	101.2
363.723	43.86
363.935	31.57
364.146	37.72
364.357	-3.24
364.568	43.86
364.779	-11.43
364.99	72.53
365.201	21.33
365.412	58.2
365.623	-62.63
365.834	25.43
366.045	52.05
366.256	33.62
366.467	9.05
366.678	70.48
366.889	37.72
367.1	58.2
367.311	82.77
367.522	21.33
367.733	19.29
367.944	-5.29
368.155	58.2
368.366	74.58
368.577	90.96
368.788	99.16
368.999	-23.72
369.209	0.85
369.42	111.44
369.631	123.73
369.842	-5.29
370.053	35.67
370.264	58.2
370.474	15.19
370.685	-5.29
370.896	37.72
371.107	43.86
371.317	2.9
371.528	33.62
371.739	47.96
371.95	56.15
372.16	43.86
372.371	23.38
372.582	-27.82
372.792	52.05
373.003	-9.39
373.214	27.48
373.424	68.44
373.635	-66.73
373.846	156.5
374.056	103.25
374.267	82.77
374.477	-3.24
374.688	47.96
374.898	60.24
375.109	9.05
375.319	27.48
375.53	88.92
375.74	9.05
375.951	74.58
376.161	68.44
376.372	62.29
376.582	25.43
376.793	33.62
377.003	-7.34
377.214	27.48
377.424	21.33
377.635	9.05
377.845	39.76
378.055	52.05
378.266	-81.07
378.476	74.58
378.686	15.19
378.897	21.33
379.107	82.77
379.317	31.57
379.528	4.95
379.738	62.29
379.948	68.44
380.158	76.63
380.369	47.96
380.579	54.1
380.789	31.57
380.999	31.57
381.21	27.48
381.42	29.52
381.63	-42.15
381.84	99.16
382.05	64.34
382.261	74.58
382.471	99.16
382.681	-29.87
382.891	54.1
383.101	97.11
383.311	-15.53
383.521	7
383.731	80.72
383.941	39.76
384.151	58.2
384.361	19.29
384.571	41.81
384.781	43.86
384.991	78.68
385.201	113.49
385.411	41.81
385.621	72.53
385.831	27.48
386.041	111.44
386.251	62.29
386.461	9.05
386.671	66.39
386.881	-3.24
387.091	17.24
387.301	74.58
387.511	37.72
387.72	45.91
387.93	47.96
388.14	-7.34
388.35	9.05
388.56	84.82
388.769	66.39
388.979	50
389.189	27.48
389.399	47.96
389.609	70.48
389.818	84.82
390.028	111.44
390.238	4.95
390.447	19.29
390.657	82.77
390.867	2.9
391.076	27.48
391.286	-31.91
391.496	52.05
391.705	0.85
391.915	54.1
392.125	66.39
392.334	54.1
392.544	144.21
392.753	50
392.963	4.95
393.172	115.54
393.382	37.72
393.591	133.97
393.801	-11.43
394.01	101.2
394.22	66.39
394.429	-23.72
394.639	35.67
394.848	66.39
395.058	37.72
395.267	109.4
395.477	62.29
395.686	90.96
395.895	109.4
396.105	183.12
396.314	68.44
396.524	90.96
396.733	-3.24
396.942	66.39
397.152	45.91
397.361	41.81
397.57	90.96
397.78	33.62
397.989	47.96
398.198	95.06
398.407	45.91
398.617	103.25
398.826	54.1
399.035	43.86
399.244	33.62
399.453	45.91
399.663	62.29
399.872	50
400.081	107.35
400.29	164.69
400.499	13.14
400.708	76.63
400.917	54.1
401.127	84.82
401.336	101.2
401.545	189.27
401.754	164.69
401.963	164.69
402.172	62.29
402.381	50
402.59	39.76
402.799	90.96
403.008	131.92
403.217	70.48
403.426	127.83
403.635	99.16
403.844	60.24
404.053	95.06
404.262	74.58
404.471	138.07
404.68	97.11
404.888	70.48
405.097	140.12
405.306	125.78
405.515	176.98
405.724	78.68
405.933	156.5
406.142	99.16
406.35	197.46
406.559	144.21
406.768	111.44
406.977	224.08
407.185	136.02
407.394	191.31
407.603	80.72
407.812	174.93
408.02	191.31
408.229	131.92
408.438	172.88
408.646	117.59
408.855	150.36
409.064	228.18
409.272	183.12
409.481	230.23
409.69	256.85
409.898	150.36
410.107	234.32
410.315	277.33
410.524	289.62
410.733	279.38
410.941	293.71
411.15	351.06
411.358	279.38
411.567	371.54
411.775	308.05
411.984	334.67
412.192	314.19
412.401	336.72
412.609	404.3
412.818	326.48
413.026	371.54
413.234	410.45
413.443	402.26
413.651	371.54
413.86	445.26
414.068	533.33
414.276	504.65
414.485	385.87
414.693	547.66
414.901	600.91
415.11	480.08
415.318	600.91
415.526	490.32
415.734	574.28
415.943	566.09
416.151	758.6
416.359	631.63
416.567	729.93
416.776	697.16
416.984	785.23
417.192	822.09
417.4	707.4
417.608	674.64
417.817	774.99
418.025	813.9
418.233	893.77
418.441	861
418.649	949.06
418.857	912.2
419.065	1076.04
419.273	1010.5
419.481	977.73
419.689	1192.77
419.897	1160
420.105	1164.1
420.313	1262.4
420.521	1297.22
420.729	1293.12
420.937	1364.8
421.145	1297.22
421.353	1411.9
421.561	1598.27
421.769	1532.73
421.977	1585.98
422.185	1616.7
422.393	1647.42
422.601	1831.74
422.809	1772.35
423.017	1811.26
423.224	1944.38
423.432	1934.14
423.64	1938.23
423.848	2097.97
424.056	2048.82
424.263	2233.14
424.471	2149.17
424.679	2200.37
424.887	2366.26
425.094	2433.84
425.302	2417.46
425.51	2511.66
425.718	2747.18
425.925	2646.83
426.133	2679.6
426.341	2999.08
426.548	3091.24
426.756	3181.35
426.964	3228.45
427.171	3255.08
427.379	3375.91
427.586	3412.77
427.794	3478.3
428.001	3658.53
428.209	3828.51
428.417	3676.96
428.624	4051.74
428.832	3932.95
429.039	3961.62
429.247	4035.35
429.454	4434.71
429.662	4723.47
429.869	4236.05
430.076	4743.95
430.284	4637.45
430.491	4786.96
430.699	5051.14
430.906	5063.43
431.114	5079.82
431.321	5317.38
431.528	5382.92
431.736	5688.06
431.943	6202.1
432.15	5872.38
432.358	5931.77
432.565	6343.41
432.772	6116.09
432.979	6517.49
433.187	6642.42
433.394	6724.33
433.601	7090.92
433.808	7127.78
434.016	7078.63
434.223	7449.32
434.43	8012.51
434.637	7820
434.844	8223.45
435.052	8321.75
435.259	8366.81
435.466	8403.67
435.673	8299.22
435.88	8725.2
436.087	9296.58
436.294	9362.12
436.501	9175.75
436.708	9097.93
436.915	9540.29
437.122	10187.45
437.329	9956.03
437.537	10459.83
437.743	10474.17
437.95	10500.79
438.157	11014.83
438.364	11455.14
438.571	11489.96
438.778	11438.76
438.985	12307.1
439.192	12071.58
439.399	12329.63
439.606	11967.13
439.813	12862.1
440.02	13892.23
440.227	13351.56
440.433	13271.69
440.64	13597.32
440.847	13357.71
441.054	13908.61
441.261	14862.96
441.467	14711.41
441.674	14824.05
441.881	15469.16
442.088	15409.77
442.294	15192.69
442.501	15841.89
442.708	15975.01
442.914	16790.1
443.121	17504.84
443.328	16872.02
443.534	18086.47
443.741	17644.1
443.948	17281.61
444.154	18768.44
444.361	18534.97
444.568	18567.74
444.774	18596.41
444.981	18944.56
445.187	19520.04
445.394	20116
445.6	20001.32
445.807	21862.92
446.013	21031.44
446.22	21334.54
446.426	22354.43
446.633	22194.69
446.839	23149.04
447.046	22329.86
447.252	23314.93
447.459	23450.1
447.665	23558.64
447.871	24670.68
448.078	25866.7
448.284	24007.14
448.491	24840.67
448.697	25862.6
448.903	26395.07
449.11	26102.22
449.316	25809.36
449.522	26513.86
449.728	27386.29
449.935	27742.64
450.141	27433.39
450.347	28049.83
450.553	27193.78
450.76	27865.52
450.966	28381.6
451.172	27980.2
451.378	29057.43
451.584	28486.05
451.791	29118.87
451.997	28889.5
452.203	29221.27
452.409	29667.73
452.615	29174.17
452.821	28000.68
453.027	27972.01
453.233	29403.54
453.44	27949.48
453.646	28189.1
453.852	28631.46
454.058	29227.42
454.264	28336.55
454.47	28461.48
454.676	27767.21
454.882	29000.09
455.088	26386.88
455.294	26929.59
455.5	26999.23
455.705	27564.46
455.911	26474.95
456.117	25876.94
456.323	25199.06
456.529	24140.26
456.735	25141.72
456.941	24811.99
457.147	24465.89
457.352	23298.55
457.558	23306.74
457.764	23091.7
457.97	22747.64
458.176	22358.53
458.381	22338.05
458.587	21451.28
458.793	21062.16
458.999	19943.97
459.204	21586.44
459.41	21074.45
459.616	19657.26
459.821	19460.65
460.027	19657.26
460.233	18975.28
460.438	18391.61
460.644	18315.84
460.85	17615.43
461.055	17134.16
461.261	17228.37
461.466	16048.74
461.672	15473.26
461.878	16407.13
462.083	15278.7
462.289	15180.4
462.494	14729.84
462.7	14277.24
462.905	13886.08
463.111	14357.11
463.316	14682.74
463.522	14021.25
463.727	14103.17
463.932	14154.37
464.138	14129.79
464.343	14049.92
464.549	13677.19
464.754	14148.22
464.959	14172.8
465.165	13939.33
465.37	13310.6
465.575	12901.01
465.781	13429.38
465.986	13486.73
466.191	12950.16
466.397	12618.39
466.602	12079.77
466.807	12589.72
467.012	12853.91
467.218	12667.54
467.423	12399.26
467.628	12714.64
467.833	13126.29
468.038	12577.43
468.244	12208.8
468.449	12864.15
468.654	12485.27
468.859	11991.71
