Data from USB4F104151__56__13-05-40-642.txt Node

Date: Fri Mar 14 13:05:40 EDT 2025
User: louis
Spectrometer: USB4F10415
Trigger mode: 4
Integration Time (sec): 4.000000E-2
Scans to average: 1
Electric dark correction enabled: true
Nonlinearity correction enabled: false
Boxcar width: 0
XAxis mode: Wavelengths
Number of Pixels in Spectrum: 3648
>>>>>Begin Spectral Data<<<<<
178.204	-154.96
178.424	-154.96
178.644	-154.96
178.864	-222.55
179.084	-109.91
179.304	33.45
179.524	25.26
179.744	17.07
179.964	68.27
180.184	2.73
180.404	-56.66
180.624	-23.89
180.844	19.11
181.064	-46.42
181.283	15.02
181.503	-23.89
181.723	-30.04
181.943	-81.24
182.163	17.07
182.383	10.92
182.602	92.84
182.822	82.6
183.042	2.73
183.262	39.59
183.482	10.92
183.701	10.92
183.921	74.41
184.141	12.97
184.361	131.75
184.58	39.59
184.8	72.36
185.02	76.46
185.239	129.7
185.459	94.89
185.679	117.42
185.898	-9.56
186.118	86.7
186.338	74.41
186.557	51.88
186.777	-9.56
186.997	45.74
187.216	62.12
187.436	109.23
187.655	55.98
187.875	51.88
188.095	33.45
188.314	80.55
188.534	43.69
188.753	121.51
188.973	68.27
189.192	123.56
189.412	90.79
189.631	92.84
189.851	25.26
190.07	109.23
190.29	4.78
190.509	96.94
190.729	33.45
190.948	90.79
191.168	133.8
191.387	107.18
191.607	43.69
191.826	-1.37
192.045	23.21
192.265	88.75
192.484	19.11
192.704	-34.13
192.923	10.92
193.142	125.61
193.362	41.64
193.581	96.94
193.8	137.9
194.02	31.4
194.239	41.64
194.458	58.03
194.678	37.55
194.897	96.94
195.116	21.16
195.335	15.02
195.555	-9.56
195.774	8.87
195.993	27.31
196.212	15.02
196.432	-52.56
196.651	78.51
196.87	33.45
197.089	119.46
197.308	-27.99
197.528	141.99
197.747	66.22
197.966	58.03
198.185	109.23
198.404	60.07
198.623	64.17
198.842	129.7
199.062	88.75
199.281	35.5
199.5	76.46
199.719	80.55
199.938	37.55
200.157	125.61
200.376	133.8
200.595	80.55
200.814	17.07
201.033	21.16
201.252	64.17
201.471	72.36
201.69	129.7
201.909	60.07
202.128	137.9
202.347	31.4
202.566	55.98
202.785	86.7
203.004	-34.13
203.223	238.25
203.442	92.84
203.661	19.11
203.879	66.22
204.098	47.79
204.317	4.78
204.536	10.92
204.755	88.75
204.974	2.73
205.193	55.98
205.411	154.28
205.63	141.99
205.849	31.4
206.068	10.92
206.287	43.69
206.505	55.98
206.724	-71
206.943	12.97
207.162	39.59
207.381	68.27
207.599	8.87
207.818	-13.65
208.037	90.79
208.255	94.89
208.474	45.74
208.693	103.08
208.911	43.69
209.13	-32.08
209.349	66.22
209.567	80.55
209.786	156.33
210.005	82.6
210.223	15.02
210.442	2.73
210.661	137.9
210.879	76.46
211.098	98.99
211.316	74.41
211.535	8.87
211.753	23.21
211.972	66.22
212.191	15.02
212.409	80.55
212.628	60.07
212.846	51.88
213.065	109.23
213.283	86.7
213.502	-15.7
213.72	66.22
213.938	-1.37
214.157	90.79
214.375	39.59
214.594	41.64
214.812	115.37
215.031	33.45
215.249	35.5
215.467	92.84
215.686	51.88
215.904	78.51
216.122	35.5
216.341	135.85
216.559	76.46
216.778	58.03
216.996	96.94
217.214	60.07
217.432	-11.61
217.651	-15.7
217.869	74.41
218.087	37.55
218.306	8.87
218.524	88.75
218.742	-9.56
218.96	55.98
219.179	101.03
219.397	72.36
219.615	115.37
219.833	109.23
220.051	4.78
220.27	49.83
220.488	133.8
220.706	-1.37
220.924	17.07
221.142	8.87
221.36	64.17
221.578	27.31
221.796	92.84
222.015	33.45
222.233	74.41
222.451	141.99
222.669	33.45
222.887	6.83
223.105	-5.46
223.323	78.51
223.541	15.02
223.759	31.4
223.977	78.51
224.195	158.38
224.413	66.22
224.631	4.78
224.849	76.46
225.067	162.47
225.285	-17.75
225.503	17.07
225.721	25.26
225.939	23.21
226.157	64.17
226.375	137.9
226.592	101.03
226.81	27.31
227.028	117.42
227.246	88.75
227.464	101.03
227.682	41.64
227.9	62.12
228.117	4.78
228.335	12.97
228.553	-1.37
228.771	137.9
228.989	96.94
229.206	37.55
229.424	19.11
229.642	31.4
229.86	72.36
230.077	127.66
230.295	-13.65
230.513	107.18
230.731	105.13
230.948	51.88
231.166	121.51
231.384	39.59
231.601	37.55
231.819	139.94
232.037	47.79
232.254	47.79
232.472	64.17
232.689	0.68
232.907	78.51
233.125	31.4
233.342	41.64
233.56	43.69
233.777	74.41
233.995	17.07
234.213	141.99
234.43	19.11
234.648	64.17
234.865	-27.99
235.083	146.09
235.3	2.73
235.518	-13.65
235.735	92.84
235.953	103.08
236.17	98.99
236.388	8.87
236.605	39.59
236.822	47.79
237.04	39.59
237.257	60.07
237.475	33.45
237.692	33.45
237.909	39.59
238.127	64.17
238.344	64.17
238.562	39.59
238.779	51.88
238.996	-30.04
239.214	127.66
239.431	119.46
239.648	12.97
239.865	35.5
240.083	55.98
240.3	6.83
240.517	10.92
240.735	-21.85
240.952	76.46
241.169	0.68
241.386	49.83
241.603	19.11
241.821	82.6
242.038	88.75
242.255	115.37
242.472	6.83
242.689	121.51
242.907	131.75
243.124	62.12
243.341	23.21
243.558	19.11
243.775	68.27
243.992	-27.99
244.209	64.17
244.426	141.99
244.643	164.52
244.86	60.07
245.078	74.41
245.295	-17.75
245.512	80.55
245.729	27.31
245.946	72.36
246.163	6.83
246.38	23.21
246.597	53.93
246.814	33.45
247.031	43.69
247.248	117.42
247.464	49.83
247.681	62.12
247.898	76.46
248.115	113.32
248.332	-32.08
248.549	107.18
248.766	144.04
248.983	39.59
249.2	39.59
249.417	60.07
249.633	72.36
249.85	58.03
250.067	-5.46
250.284	78.51
250.501	111.27
250.717	64.17
250.934	0.68
251.151	19.11
251.368	25.26
251.585	25.26
251.801	47.79
252.018	-40.28
252.235	107.18
252.451	27.31
252.668	64.17
252.885	166.57
253.102	103.08
253.318	92.84
253.535	-9.56
253.752	27.31
253.968	62.12
254.185	19.11
254.401	17.07
254.618	47.79
254.835	0.68
255.051	119.46
255.268	76.46
255.484	88.75
255.701	66.22
255.917	84.65
256.134	-1.37
256.351	82.6
256.567	47.79
256.784	31.4
257	33.45
257.217	41.64
257.433	8.87
257.65	53.93
257.866	68.27
258.082	-54.61
258.299	62.12
258.515	74.41
258.732	-21.85
258.948	39.59
259.165	45.74
259.381	19.11
259.597	90.79
259.814	51.88
260.03	51.88
260.246	17.07
260.463	139.94
260.679	23.21
260.895	49.83
261.112	96.94
261.328	74.41
261.544	-15.7
261.761	150.18
261.977	21.16
262.193	-75.09
262.409	96.94
262.626	82.6
262.842	80.55
263.058	49.83
263.274	127.66
263.49	96.94
263.707	86.7
263.923	131.75
264.139	15.02
264.355	66.22
264.571	107.18
264.787	27.31
265.004	117.42
265.22	64.17
265.436	68.27
265.652	25.26
265.868	80.55
266.084	4.78
266.3	53.93
266.516	8.87
266.732	47.79
266.948	80.55
267.164	72.36
267.38	-42.32
267.596	76.46
267.812	107.18
268.028	115.37
268.244	115.37
268.46	119.46
268.676	31.4
268.892	131.75
269.108	31.4
269.324	70.31
269.54	-38.23
269.756	68.27
269.972	8.87
270.188	80.55
270.403	-5.46
270.619	41.64
270.835	88.75
271.051	76.46
271.267	-68.95
271.483	70.31
271.698	55.98
271.914	55.98
272.13	23.21
272.346	60.07
272.562	60.07
272.777	55.98
272.993	10.92
273.209	23.21
273.425	-5.46
273.64	27.31
273.856	17.07
274.072	66.22
274.287	49.83
274.503	62.12
274.719	119.46
274.934	0.68
275.15	45.74
275.366	105.13
275.581	62.12
275.797	55.98
276.012	15.02
276.228	135.85
276.444	31.4
276.659	74.41
276.875	35.5
277.09	41.64
277.306	25.26
277.521	55.98
277.737	47.79
277.952	160.42
278.168	92.84
278.383	76.46
278.599	121.51
278.814	15.02
279.03	105.13
279.245	76.46
279.461	62.12
279.676	76.46
279.892	6.83
280.107	72.36
280.322	-13.65
280.538	82.6
280.753	33.45
280.969	45.74
281.184	29.35
281.399	72.36
281.615	74.41
281.83	90.79
282.045	43.69
282.26	39.59
282.476	10.92
282.691	72.36
282.906	17.07
283.122	-1.37
283.337	113.32
283.552	72.36
283.767	23.21
283.983	109.23
284.198	125.61
284.413	53.93
284.628	6.83
284.843	31.4
285.058	43.69
285.274	92.84
285.489	43.69
285.704	23.21
285.919	21.16
286.134	43.69
286.349	80.55
286.564	90.79
286.779	103.08
286.995	60.07
287.21	10.92
287.425	72.36
287.64	66.22
287.855	101.03
288.07	-15.7
288.285	172.71
288.5	101.03
288.715	72.36
288.93	10.92
289.145	21.16
289.36	80.55
289.575	15.02
289.79	119.46
290.004	8.87
290.219	156.33
290.434	51.88
290.649	19.11
290.864	66.22
291.079	47.79
291.294	109.23
291.509	105.13
291.724	43.69
291.938	-7.51
292.153	55.98
292.368	19.11
292.583	21.16
292.798	49.83
293.012	64.17
293.227	74.41
293.442	0.68
293.657	101.03
293.871	90.79
294.086	137.9
294.301	68.27
294.516	76.46
294.73	82.6
294.945	-15.7
295.16	49.83
295.374	66.22
295.589	113.32
295.804	150.18
296.018	31.4
296.233	109.23
296.447	162.47
296.662	6.83
296.877	172.71
297.091	84.65
297.306	25.26
297.52	35.5
297.735	43.69
297.949	39.59
298.164	72.36
298.378	-13.65
298.593	25.26
298.807	62.12
299.022	58.03
299.236	80.55
299.451	19.11
299.665	37.55
299.88	76.46
300.094	23.21
300.309	23.21
300.523	76.46
300.737	123.56
300.952	92.84
301.166	121.51
301.381	17.07
301.595	8.87
301.809	35.5
302.024	53.93
302.238	23.21
302.452	74.41
302.667	39.59
302.881	90.79
303.095	51.88
303.309	101.03
303.524	27.31
303.738	101.03
303.952	88.75
304.166	47.79
304.381	-19.8
304.595	217.77
304.809	23.21
305.023	121.51
305.237	15.02
305.452	68.27
305.666	103.08
305.88	29.35
306.094	109.23
306.308	66.22
306.522	49.83
306.736	27.31
306.95	80.55
307.164	33.45
307.379	19.11
307.593	211.62
307.807	129.7
308.021	113.32
308.235	72.36
308.449	45.74
308.663	31.4
308.877	174.76
309.091	80.55
309.305	105.13
309.519	-17.75
309.733	47.79
309.947	49.83
310.161	86.7
310.374	74.41
310.588	80.55
310.802	-13.65
311.016	39.59
311.23	70.31
311.444	53.93
311.658	76.46
311.872	74.41
312.085	109.23
312.299	131.75
312.513	17.07
312.727	53.93
312.941	-17.75
313.154	21.16
313.368	121.51
313.582	84.65
313.796	49.83
314.009	66.22
314.223	131.75
314.437	74.41
314.651	82.6
314.864	0.68
315.078	47.79
315.292	8.87
315.505	45.74
315.719	21.16
315.933	105.13
316.146	68.27
316.36	15.02
316.573	80.55
316.787	92.84
317.001	-15.7
317.214	-34.13
317.428	88.75
317.641	-1.37
317.855	39.59
318.068	41.64
318.282	86.7
318.495	78.51
318.709	107.18
318.922	107.18
319.136	96.94
319.349	137.9
319.563	8.87
319.776	76.46
319.99	47.79
320.203	27.31
320.417	68.27
320.63	19.11
320.843	121.51
321.057	31.4
321.27	12.97
321.483	92.84
321.697	113.32
321.91	111.27
322.124	127.66
322.337	49.83
322.55	23.21
322.763	96.94
322.977	49.83
323.19	15.02
323.403	94.89
323.617	10.92
323.83	92.84
324.043	70.31
324.256	88.75
324.469	33.45
324.683	146.09
324.896	76.46
325.109	113.32
325.322	72.36
325.535	103.08
325.748	45.74
325.962	88.75
326.175	168.62
326.388	53.93
326.601	27.31
326.814	27.31
327.027	103.08
327.24	139.94
327.453	-13.65
327.666	96.94
327.879	49.83
328.092	58.03
328.305	105.13
328.518	-17.75
328.731	-17.75
328.944	88.75
329.157	70.31
329.37	27.31
329.583	76.46
329.796	105.13
330.009	66.22
330.222	55.98
330.435	111.27
330.648	64.17
330.861	82.6
331.073	8.87
331.286	131.75
331.499	80.55
331.712	-11.61
331.925	-27.99
332.138	58.03
332.35	101.03
332.563	53.93
332.776	121.51
332.989	84.65
333.202	49.83
333.414	51.88
333.627	58.03
333.84	-7.51
334.053	37.55
334.265	70.31
334.478	68.27
334.691	41.64
334.903	68.27
335.116	78.51
335.329	62.12
335.541	113.32
335.754	129.7
335.966	-11.61
336.179	68.27
336.392	111.27
336.604	92.84
336.817	88.75
337.029	12.97
337.242	66.22
337.454	98.99
337.667	90.79
337.88	139.94
338.092	103.08
338.305	111.27
338.517	76.46
338.729	60.07
338.942	64.17
339.154	17.07
339.367	29.35
339.579	101.03
339.792	27.31
340.004	121.51
340.217	27.31
340.429	80.55
340.641	45.74
340.854	2.73
341.066	39.59
341.278	84.65
341.491	121.51
341.703	96.94
341.915	-46.42
342.128	129.7
342.34	49.83
342.552	43.69
342.764	25.26
342.977	10.92
343.189	33.45
343.401	66.22
343.613	49.83
343.826	92.84
344.038	31.4
344.25	101.03
344.462	60.07
344.674	37.55
344.886	23.21
345.099	74.41
345.311	66.22
345.523	96.94
345.735	21.16
345.947	105.13
346.159	51.88
346.371	37.55
346.583	107.18
346.795	193.19
347.007	-15.7
347.219	15.02
347.431	31.4
347.643	105.13
347.855	66.22
348.067	74.41
348.279	49.83
348.491	23.21
348.703	45.74
348.915	80.55
349.127	-11.61
349.339	10.92
349.551	6.83
349.763	15.02
349.975	58.03
350.187	58.03
350.399	180.9
350.61	55.98
350.822	45.74
351.034	-15.7
351.246	41.64
351.458	113.32
351.669	105.13
351.881	125.61
352.093	82.6
352.305	58.03
352.517	2.73
352.728	121.51
352.94	94.89
353.152	133.8
353.363	45.74
353.575	101.03
353.787	131.75
353.999	66.22
354.21	131.75
354.422	-7.51
354.633	45.74
354.845	80.55
355.057	121.51
355.268	82.6
355.48	166.57
355.692	74.41
355.903	96.94
356.115	-34.13
356.326	47.79
356.538	135.85
356.749	62.12
356.961	137.9
357.172	39.59
357.384	-5.46
357.595	115.37
357.807	115.37
358.018	88.75
358.23	92.84
358.441	125.61
358.653	41.64
358.864	80.55
359.075	-27.99
359.287	98.99
359.498	137.9
359.709	62.12
359.921	58.03
360.132	6.83
360.344	60.07
360.555	10.92
360.766	115.37
360.977	74.41
361.189	90.79
361.4	17.07
361.611	96.94
361.823	80.55
362.034	135.85
362.245	23.21
362.456	51.88
362.667	144.04
362.879	53.93
363.09	80.55
363.301	31.4
363.512	74.41
363.723	21.16
363.935	74.41
364.146	43.69
364.357	96.94
364.568	-23.89
364.779	76.46
364.99	182.95
365.201	58.03
365.412	45.74
365.623	37.55
365.834	82.6
366.045	88.75
366.256	92.84
366.467	88.75
366.678	21.16
366.889	37.55
367.1	66.22
367.311	107.18
367.522	82.6
367.733	146.09
367.944	74.41
368.155	82.6
368.366	39.59
368.577	60.07
368.788	191.14
368.999	39.59
369.209	115.37
369.42	162.47
369.631	107.18
369.842	105.13
370.053	6.83
370.264	64.17
370.474	29.35
370.685	121.51
370.896	78.51
371.107	117.42
371.317	125.61
371.528	51.88
371.739	107.18
371.95	45.74
372.16	148.14
372.371	39.59
372.582	74.41
372.792	82.6
373.003	82.6
373.214	92.84
373.424	72.36
373.635	88.75
373.846	62.12
374.056	88.75
374.267	66.22
374.477	103.08
374.688	15.02
374.898	55.98
375.109	19.11
375.319	41.64
375.53	172.71
375.74	98.99
375.951	2.73
376.161	123.56
376.372	47.79
376.582	78.51
376.793	96.94
377.003	35.5
377.214	88.75
377.424	94.89
377.635	94.89
377.845	76.46
378.055	107.18
378.266	47.79
378.476	90.79
378.686	96.94
378.897	4.78
379.107	94.89
379.317	129.7
379.528	113.32
379.738	160.42
379.948	31.4
380.158	121.51
380.369	156.33
380.579	115.37
380.789	17.07
380.999	10.92
381.21	133.8
381.42	154.28
381.63	70.31
381.84	139.94
382.05	141.99
382.261	96.94
382.471	88.75
382.681	90.79
382.891	141.99
383.101	115.37
383.311	35.5
383.521	68.27
383.731	168.62
383.941	8.87
384.151	-15.7
384.361	33.45
384.571	72.36
384.781	94.89
384.991	150.18
385.201	86.7
385.411	4.78
385.621	86.7
385.831	76.46
386.041	123.56
386.251	60.07
386.461	125.61
386.671	43.69
386.881	92.84
387.091	111.27
387.301	127.66
387.511	98.99
387.72	117.42
387.93	76.46
388.14	41.64
388.35	105.13
388.56	148.14
388.769	189.1
388.979	41.64
389.189	35.5
389.399	94.89
389.609	76.46
389.818	103.08
390.028	82.6
390.238	137.9
390.447	166.57
390.657	62.12
390.867	84.65
391.076	72.36
391.286	121.51
391.496	80.55
391.705	35.5
391.915	141.99
392.125	107.18
392.334	74.41
392.544	119.46
392.753	92.84
392.963	80.55
393.172	121.51
393.382	101.03
393.591	127.66
393.801	66.22
394.01	129.7
394.22	98.99
394.429	111.27
394.639	88.75
394.848	98.99
395.058	94.89
395.267	121.51
395.477	141.99
395.686	96.94
395.895	168.62
396.105	129.7
396.314	129.7
396.524	162.47
396.733	58.03
396.942	178.86
397.152	154.28
397.361	139.94
397.57	121.51
397.78	139.94
397.989	127.66
398.198	180.9
398.407	141.99
398.617	84.65
398.826	139.94
399.035	117.42
399.244	101.03
399.453	146.09
399.663	49.83
399.872	125.61
400.081	107.18
400.29	228.01
400.499	80.55
400.708	174.76
400.917	88.75
401.127	60.07
401.336	137.9
401.545	248.49
401.754	164.52
401.963	252.58
402.172	82.6
402.381	113.32
402.59	170.66
402.799	92.84
403.008	137.9
403.217	174.76
403.426	236.2
403.635	170.66
403.844	213.67
404.053	256.68
404.262	158.38
404.471	256.68
404.68	209.58
404.888	129.7
405.097	154.28
405.306	207.53
405.515	205.48
405.724	205.48
405.933	232.1
406.142	240.3
406.35	232.1
406.559	230.06
406.768	207.53
406.977	295.59
407.185	283.3
407.394	268.97
407.603	238.25
407.812	314.02
408.02	297.64
408.229	275.11
408.438	299.69
408.646	164.52
408.855	244.39
409.064	309.93
409.272	311.97
409.481	359.08
409.69	260.77
409.898	326.31
410.107	395.94
410.315	400.04
410.524	400.04
410.733	397.99
410.941	436.9
411.15	484
411.358	510.63
411.567	500.39
411.775	461.48
411.984	436.9
412.192	479.91
412.401	486.05
412.609	602.79
412.818	574.11
413.026	537.25
413.234	524.96
413.443	666.27
413.651	647.84
413.86	584.35
414.068	744.1
414.276	705.18
414.485	690.85
414.693	776.86
414.901	916.12
415.11	789.15
415.318	791.2
415.526	793.25
415.734	860.83
415.943	869.02
416.151	1002.14
416.359	916.12
416.567	991.9
416.776	973.47
416.984	1047.19
417.192	1057.43
417.4	1088.15
417.608	1100.44
417.817	1118.87
418.025	1219.22
418.233	1317.53
418.441	1258.14
418.649	1309.33
418.857	1383.06
419.065	1401.49
419.273	1426.07
419.481	1612.43
419.689	1624.72
419.897	1618.58
420.105	1667.73
420.313	1827.47
420.521	1796.75
420.729	1782.42
420.937	1827.47
421.145	1966.73
421.353	2126.47
421.561	2185.87
421.769	2210.44
421.977	2265.74
422.185	2329.22
422.393	2439.81
422.601	2464.39
422.809	2521.73
423.017	2531.97
423.224	2714.24
423.432	2759.3
423.64	2628.23
423.848	3089.02
424.056	2984.57
424.263	3234.43
424.471	3185.27
424.679	3306.1
424.887	3449.46
425.094	3547.76
425.302	3515
425.51	3666.55
425.718	3746.42
425.925	3838.58
426.133	3981.93
426.341	4248.17
426.548	4375.14
426.756	4457.06
426.964	4528.74
427.171	4756.07
427.379	4817.51
427.586	4782.69
427.794	5065.31
428.001	5298.78
428.209	5603.93
428.417	5474.9
428.624	5786.19
428.832	5849.68
429.039	5882.45
429.247	5927.5
429.454	6376.01
429.662	6726.21
429.869	6203.98
430.076	6894.15
430.284	6683.2
430.491	6963.78
430.699	7225.92
430.906	7264.83
431.114	7412.28
431.321	7535.16
431.528	7707.19
431.736	8139.31
431.943	8460.84
432.15	8442.41
432.358	8505.9
432.565	8956.45
432.772	8874.53
432.979	9204.25
433.187	9452.06
433.394	9443.87
433.601	10148.37
433.808	10347.02
434.016	10258.96
434.223	10664.46
434.43	11203.07
434.637	11037.19
434.844	11817.46
435.052	11950.58
435.259	12046.83
435.466	11973.11
435.673	11942.39
435.88	12722.66
436.087	13205.99
436.294	13388.25
436.501	13093.35
436.708	13314.53
436.915	13705.69
437.122	14399.95
437.329	14373.33
437.537	14664.14
437.743	15126.98
437.95	14981.57
438.157	15636.92
438.364	16163.25
438.571	16163.25
438.778	16386.48
438.985	17854.87
439.192	17060.26
439.399	17482.14
439.606	17291.68
439.813	18282.9
440.02	19263.88
440.227	19151.24
440.433	18995.59
440.64	19632.51
440.847	19224.97
441.054	20074.87
441.261	21182.82
441.467	20715.89
441.674	21518.69
441.881	22155.61
442.088	22163.8
442.294	22075.74
442.501	22333.78
442.708	22907.21
442.914	23742.78
443.121	24781.1
443.328	24191.29
443.534	26112.28
443.741	24985.9
443.948	24946.99
444.154	26587.41
444.361	26599.7
444.568	26554.65
444.774	26622.23
444.981	26968.34
445.187	27953.41
445.394	29094.13
445.6	28416.25
445.807	31336.65
446.013	29796.58
446.22	30316.76
446.426	31852.74
446.633	32051.39
446.839	33071.28
447.046	31240.4
447.252	33214.64
447.459	33622.19
447.665	33224.88
447.871	34830.49
448.078	36010.12
448.284	34861.21
448.491	35403.92
448.697	37075.06
448.903	37752.94
449.11	37972.07
449.316	37003.38
449.522	37548.14
449.728	38996.06
449.935	39131.22
450.141	39204.95
450.347	39974.98
450.553	38836.31
450.76	39356.5
450.966	40572.99
451.172	40276.04
451.378	41506.87
451.584	40181.83
451.791	41648.18
451.997	41117.75
452.203	41900.08
452.409	42090.54
452.615	41730.09
452.821	40458.31
453.027	39882.83
453.233	42117.16
453.44	40544.32
453.646	41125.94
453.852	40994.87
454.058	41799.72
454.264	40626.24
454.47	41662.51
454.676	40435.78
454.882	41822.25
455.088	38406.24
455.294	38692.96
455.5	39383.12
455.705	39925.83
455.911	38047.85
456.117	37482.61
456.323	37009.53
456.529	35356.82
456.735	36671.61
456.941	35539.08
457.147	35023
457.352	34463.9
457.558	33996.96
457.764	33943.72
457.97	33364.14
458.176	32596.15
458.381	32741.56
458.587	31029.46
458.793	30636.25
458.999	29063.41
459.204	31215.82
459.41	30628.06
459.616	28449.02
459.821	28852.47
460.027	28238.08
460.233	27760.9
460.438	26493.21
460.644	26749.2
460.85	25923.87
461.055	25092.4
461.261	25123.12
461.466	23112.01
461.672	22718.8
461.878	24250.68
462.083	22262.1
462.289	22030.68
462.494	21889.37
462.7	20894.06
462.905	20580.72
463.111	21154.15
463.316	21133.67
463.522	20881.77
463.727	20986.22
463.932	20613.49
464.138	20220.28
464.343	20554.1
464.549	19753.34
464.754	20625.78
464.959	20302.2
465.165	20306.29
465.37	19325.32
465.575	18833.8
465.781	19894.65
465.986	19448.19
