Data from USB4F104151__73__13-06-02-040.txt Node

Date: Fri Mar 14 13:06:02 EDT 2025
User: louis
Spectrometer: USB4F10415
Trigger mode: 4
Integration Time (sec): 4.000000E-2
Scans to average: 1
Electric dark correction enabled: true
Nonlinearity correction enabled: false
Boxcar width: 0
XAxis mode: Wavelengths
Number of Pixels in Spectrum: 3648
>>>>>Begin Spectral Data<<<<<
178.204	-208.89
178.424	-208.89
178.644	-208.89
178.864	-184.32
179.084	-141.31
179.304	4.1
179.524	22.53
179.744	0
179.964	-36.86
180.184	4.1
180.404	81.92
180.624	-47.1
180.844	2.05
181.064	-24.58
181.283	-16.38
181.503	-38.91
181.723	49.15
181.943	-22.53
182.163	90.11
182.383	-28.67
182.602	28.67
182.822	34.82
183.042	92.16
183.262	22.53
183.482	-92.16
183.701	-30.72
183.921	-20.48
184.141	-22.53
184.361	14.34
184.58	96.25
184.8	55.3
185.02	14.34
185.239	40.96
185.459	-20.48
185.679	22.53
185.898	-24.58
186.118	45.06
186.338	67.58
186.557	51.2
186.777	-94.21
186.997	-32.77
187.216	16.38
187.436	114.69
187.655	22.53
187.875	51.2
188.095	-4.1
188.314	12.29
188.534	79.87
188.753	-20.48
188.973	75.77
189.192	75.77
189.412	32.77
189.631	26.62
189.851	-34.82
190.07	65.53
190.29	-34.82
190.509	-8.19
190.729	-8.19
190.948	43.01
191.168	186.37
191.387	100.35
191.607	-16.38
191.826	49.15
192.045	-28.67
192.265	-10.24
192.484	8.19
192.704	75.77
192.923	16.38
193.142	149.5
193.362	49.15
193.581	49.15
193.8	51.2
194.02	131.07
194.239	45.06
194.458	86.01
194.678	40.96
194.897	59.39
195.116	57.34
195.335	-22.53
195.555	108.54
195.774	63.49
195.993	10.24
196.212	-8.19
196.432	-22.53
196.651	-8.19
196.87	49.15
197.089	106.49
197.308	100.35
197.528	92.16
197.747	26.62
197.966	-6.14
198.185	186.37
198.404	-26.62
198.623	49.15
198.842	53.25
199.062	45.06
199.281	110.59
199.5	96.25
199.719	51.2
199.938	63.49
200.157	81.92
200.376	79.87
200.595	45.06
200.814	102.4
201.033	-45.06
201.252	49.15
201.471	-28.67
201.69	32.77
201.909	-14.34
202.128	73.73
202.347	4.1
202.566	20.48
202.785	-55.3
203.004	-16.38
203.223	155.65
203.442	53.25
203.661	61.44
203.879	34.82
204.098	71.68
204.317	-22.53
204.536	53.25
204.755	6.14
204.974	86.01
205.193	32.77
205.411	122.88
205.63	98.3
205.849	69.63
206.068	10.24
206.287	24.58
206.505	43.01
206.724	-16.38
206.943	30.72
207.162	32.77
207.381	36.86
207.599	-20.48
207.818	49.15
208.037	10.24
208.255	6.14
208.474	10.24
208.693	49.15
208.911	0
209.13	10.24
209.349	86.01
209.567	0
209.786	26.62
210.005	61.44
210.223	24.58
210.442	-79.87
210.661	-40.96
210.879	63.49
211.098	71.68
211.316	12.29
211.535	94.21
211.753	49.15
211.972	16.38
212.191	8.19
212.409	32.77
212.628	43.01
212.846	-45.06
213.065	20.48
213.283	14.34
213.502	2.05
213.72	-6.14
213.938	61.44
214.157	12.29
214.375	55.3
214.594	38.91
214.812	34.82
215.031	49.15
215.249	67.58
215.467	12.29
215.686	16.38
215.904	-16.38
216.122	20.48
216.341	63.49
216.559	-32.77
216.778	75.77
216.996	57.34
217.214	26.62
217.432	-12.29
217.651	-36.86
217.869	28.67
218.087	10.24
218.306	63.49
218.524	81.92
218.742	2.05
218.96	-20.48
219.179	-2.05
219.397	83.97
219.615	165.89
219.833	-16.38
220.051	-26.62
220.27	69.63
220.488	-4.1
220.706	83.97
220.924	-18.43
221.142	-24.58
221.36	73.73
221.578	-73.73
221.796	14.34
222.015	24.58
222.233	20.48
222.451	106.49
222.669	-24.58
222.887	47.1
223.105	-10.24
223.323	49.15
223.541	12.29
223.759	26.62
223.977	49.15
224.195	75.77
224.413	98.3
224.631	43.01
224.849	-24.58
225.067	110.59
225.285	30.72
225.503	-4.1
225.721	-40.96
225.939	-32.77
226.157	20.48
226.375	167.93
226.592	-71.68
226.81	12.29
227.028	98.3
227.246	147.45
227.464	12.29
227.682	116.73
227.9	43.01
228.117	40.96
228.335	24.58
228.553	10.24
228.771	16.38
228.989	59.39
229.206	6.14
229.424	45.06
229.642	51.2
229.86	36.86
230.077	69.63
230.295	-8.19
230.513	43.01
230.731	65.53
230.948	4.1
231.166	106.49
231.384	-28.67
231.601	-18.43
231.819	75.77
232.037	30.72
232.254	-77.82
232.472	-22.53
232.689	-22.53
232.907	92.16
233.125	102.4
233.342	-8.19
233.56	36.86
233.777	-22.53
233.995	0
234.213	49.15
234.43	8.19
234.648	69.63
234.865	57.34
235.083	36.86
235.3	32.77
235.518	75.77
235.735	112.64
235.953	34.82
236.17	-20.48
236.388	67.58
236.605	4.1
236.822	10.24
237.04	169.98
237.257	43.01
237.475	32.77
237.692	73.73
237.909	-16.38
238.127	65.53
238.344	10.24
238.562	98.3
238.779	-47.1
238.996	0
239.214	36.86
239.431	51.2
239.648	20.48
239.865	65.53
240.083	-8.19
240.3	6.14
240.517	75.77
240.735	49.15
240.952	-2.05
241.169	61.44
241.386	83.97
241.603	40.96
241.821	-22.53
242.038	47.1
242.255	65.53
242.472	26.62
242.689	65.53
242.907	122.88
243.124	-28.67
243.341	18.43
243.558	0
243.775	-43.01
243.992	16.38
244.209	-47.1
244.426	38.91
244.643	-8.19
244.86	24.58
245.078	69.63
245.295	20.48
245.512	65.53
245.729	-43.01
245.946	172.03
246.163	16.38
246.38	69.63
246.597	49.15
246.814	6.14
247.031	-4.1
247.248	16.38
247.464	8.19
247.681	53.25
247.898	38.91
248.115	77.82
248.332	-22.53
248.549	90.11
248.766	133.12
248.983	0
249.2	-26.62
249.417	126.97
249.633	36.86
249.85	26.62
250.067	-4.1
250.284	112.64
250.501	88.06
250.717	59.39
250.934	-2.05
251.151	36.86
251.368	10.24
251.585	45.06
251.801	106.49
252.018	-16.38
252.235	61.44
252.451	-6.14
252.668	4.1
252.885	100.35
253.102	90.11
253.318	47.1
253.535	24.58
253.752	16.38
253.968	0
254.185	0
254.401	94.21
254.618	-34.82
254.835	10.24
255.051	96.25
255.268	73.73
255.484	108.54
255.701	2.05
255.917	73.73
256.134	-36.86
256.351	24.58
256.567	30.72
256.784	14.34
257	30.72
257.217	-47.1
257.433	83.97
257.65	34.82
257.866	120.83
258.082	-14.34
258.299	-4.1
258.515	73.73
258.732	-24.58
258.948	-32.77
259.165	81.92
259.381	40.96
259.597	40.96
259.814	16.38
260.03	32.77
260.246	96.25
260.463	-45.06
260.679	18.43
260.895	-8.19
261.112	122.88
261.328	-26.62
261.544	-26.62
261.761	38.91
261.977	-38.91
262.193	-24.58
262.409	51.2
262.626	73.73
262.842	26.62
263.058	-51.2
263.274	40.96
263.49	75.77
263.707	108.54
263.923	94.21
264.139	67.58
264.355	32.77
264.571	96.25
264.787	88.06
265.004	100.35
265.22	59.39
265.436	18.43
265.652	12.29
265.868	73.73
266.084	-28.67
266.3	26.62
266.516	12.29
266.732	51.2
266.948	-32.77
267.164	59.39
267.38	131.07
267.596	16.38
267.812	77.82
268.028	-40.96
268.244	0
268.46	36.86
268.676	26.62
268.892	59.39
269.108	24.58
269.324	20.48
269.54	53.25
269.756	47.1
269.972	-38.91
270.188	32.77
270.403	-30.72
270.619	32.77
270.835	51.2
271.051	65.53
271.267	-14.34
271.483	24.58
271.698	61.44
271.914	2.05
272.13	-45.06
272.346	71.68
272.562	69.63
272.777	63.49
272.993	34.82
273.209	10.24
273.425	-67.58
273.64	32.77
273.856	47.1
274.072	18.43
274.287	47.1
274.503	20.48
274.719	86.01
274.934	20.48
275.15	4.1
275.366	24.58
275.581	-55.3
275.797	73.73
276.012	55.3
276.228	106.49
276.444	43.01
276.659	83.97
276.875	-40.96
277.09	32.77
277.306	-10.24
277.521	-6.14
277.737	-45.06
277.952	34.82
278.168	57.34
278.383	-30.72
278.599	32.77
278.814	57.34
279.03	102.4
279.245	118.78
279.461	83.97
279.676	28.67
279.892	-12.29
280.107	20.48
280.322	10.24
280.538	-30.72
280.753	32.77
280.969	65.53
281.184	-32.77
281.399	124.93
281.615	-2.05
281.83	73.73
282.045	-20.48
282.26	24.58
282.476	8.19
282.691	120.83
282.906	20.48
283.122	-57.34
283.337	0
283.552	-18.43
283.767	-14.34
283.983	59.39
284.198	26.62
284.413	-22.53
284.628	-65.54
284.843	-38.91
285.058	69.63
285.274	55.3
285.489	-43.01
285.704	47.1
285.919	-18.43
286.134	73.73
286.349	-4.1
286.564	22.53
286.779	122.88
286.995	63.49
287.21	45.06
287.425	100.35
287.64	14.34
287.855	47.1
288.07	12.29
288.285	38.91
288.5	81.92
288.715	92.16
288.93	24.58
289.145	-28.67
289.36	59.39
289.575	32.77
289.79	92.16
290.004	-6.14
290.219	116.73
290.434	14.34
290.649	40.96
290.864	36.86
291.079	43.01
291.294	36.86
291.509	8.19
291.724	-18.43
291.938	-18.43
292.153	-16.38
292.368	47.1
292.583	98.3
292.798	63.49
293.012	-14.34
293.227	75.77
293.442	18.43
293.657	122.88
293.871	71.68
294.086	-16.38
294.301	69.63
294.516	53.25
294.73	106.49
294.945	26.62
295.16	73.73
295.374	118.78
295.589	24.58
295.804	24.58
296.018	77.82
296.233	47.1
296.447	59.39
296.662	81.92
296.877	69.63
297.091	57.34
297.306	77.82
297.52	57.34
297.735	57.34
297.949	12.29
298.164	69.63
298.378	8.19
298.593	-6.14
298.807	14.34
299.022	-28.67
299.236	57.34
299.451	43.01
299.665	83.97
299.88	53.25
300.094	16.38
300.309	8.19
300.523	20.48
300.737	-30.72
300.952	18.43
301.166	-10.24
301.381	38.91
301.595	108.54
301.809	45.06
302.024	88.06
302.238	-16.38
302.452	81.92
302.667	-14.34
302.881	124.93
303.095	90.11
303.309	-40.96
303.524	12.29
303.738	-16.38
303.952	-26.62
304.166	83.97
304.381	-20.48
304.595	24.58
304.809	34.82
305.023	59.39
305.237	-14.34
305.452	-6.14
305.666	88.06
305.88	43.01
306.094	75.77
306.308	30.72
306.522	67.58
306.736	26.62
306.95	92.16
307.164	14.34
307.379	83.97
307.593	16.38
307.807	90.11
308.021	47.1
308.235	22.53
308.449	26.62
308.663	163.84
308.877	92.16
309.091	24.58
309.305	90.11
309.519	-12.29
309.733	104.45
309.947	-16.38
310.161	86.01
310.374	8.19
310.588	53.25
310.802	34.82
311.016	40.96
311.23	16.38
311.444	34.82
311.658	67.58
311.872	-2.05
312.085	102.4
312.299	86.01
312.513	75.77
312.727	49.15
312.941	-40.96
313.154	-2.05
313.368	-38.91
313.582	2.05
313.796	79.87
314.009	36.86
314.223	0
314.437	10.24
314.651	108.54
314.864	-32.77
315.078	-45.06
315.292	32.77
315.505	6.14
315.719	20.48
315.933	90.11
316.146	30.72
316.36	0
316.573	90.11
316.787	2.05
317.001	18.43
317.214	-8.19
317.428	112.64
317.641	-6.14
317.855	102.4
318.068	8.19
318.282	86.01
318.495	126.97
318.709	102.4
318.922	59.39
319.136	63.49
319.349	-4.1
319.563	14.34
319.776	43.01
319.99	49.15
320.203	92.16
320.417	32.77
320.63	28.67
320.843	100.35
321.057	18.43
321.27	59.39
321.483	53.25
321.697	126.97
321.91	36.86
322.124	-18.43
322.337	16.38
322.55	-45.06
322.763	26.62
322.977	59.39
323.19	26.62
323.403	10.24
323.617	24.58
323.83	-20.48
324.043	-49.15
324.256	18.43
324.469	2.05
324.683	57.34
324.896	14.34
325.109	75.77
325.322	57.34
325.535	43.01
325.748	40.96
325.962	57.34
326.175	26.62
326.388	49.15
326.601	90.11
326.814	65.53
327.027	43.01
327.24	145.41
327.453	-86.01
327.666	40.96
327.879	32.77
328.092	0
328.305	55.3
328.518	92.16
328.731	8.19
328.944	98.3
329.157	83.97
329.37	-12.29
329.583	122.88
329.796	86.01
330.009	-2.05
330.222	102.4
330.435	-12.29
330.648	-28.67
330.861	110.59
331.073	96.25
331.286	75.77
331.499	59.39
331.712	2.05
331.925	30.72
332.138	26.62
332.35	73.73
332.563	2.05
332.776	135.17
332.989	18.43
333.202	67.58
333.414	53.25
333.627	53.25
333.84	112.64
334.053	-65.54
334.265	16.38
334.478	22.53
334.691	43.01
334.903	81.92
335.116	32.77
335.329	26.62
335.541	43.01
335.754	100.35
335.966	45.06
336.179	83.97
336.392	12.29
336.604	34.82
336.817	63.49
337.029	96.25
337.242	36.86
337.454	90.11
337.667	-26.62
337.88	40.96
338.092	90.11
338.305	2.05
338.517	38.91
338.729	77.82
338.942	4.1
339.154	-8.19
339.367	63.49
339.579	90.11
339.792	16.38
340.004	59.39
340.217	-18.43
340.429	63.49
340.641	26.62
340.854	86.01
341.066	-47.1
341.278	86.01
341.491	157.69
341.703	73.73
341.915	28.67
342.128	43.01
342.34	47.1
342.552	49.15
342.764	59.39
342.977	51.2
343.189	69.63
343.401	28.67
343.613	98.3
343.826	122.88
344.038	-32.77
344.25	94.21
344.462	45.06
344.674	51.2
344.886	81.92
345.099	75.77
345.311	43.01
345.523	-34.82
345.735	-18.43
345.947	59.39
346.159	51.2
346.371	4.1
346.583	-4.1
346.795	167.93
347.007	18.43
347.219	98.3
347.431	-53.25
347.643	63.49
347.855	43.01
348.067	83.97
348.279	45.06
348.491	24.58
348.703	63.49
348.915	51.2
349.127	126.97
349.339	69.63
349.551	36.86
349.763	71.68
349.975	79.87
350.187	90.11
350.399	114.69
350.61	120.83
350.822	14.34
351.034	36.86
351.246	-12.29
351.458	139.26
351.669	79.87
351.881	88.06
352.093	57.34
352.305	57.34
352.517	28.67
352.728	57.34
352.94	75.77
353.152	102.4
353.363	26.62
353.575	141.31
353.787	77.82
353.999	90.11
354.21	169.98
354.422	18.43
354.633	59.39
354.845	-8.19
355.057	24.58
355.268	63.49
355.48	116.73
355.692	40.96
355.903	2.05
356.115	8.19
356.326	2.05
356.538	143.36
356.749	79.87
356.961	94.21
357.172	10.24
357.384	18.43
357.595	92.16
357.807	114.69
358.018	4.1
358.23	79.87
358.441	118.78
358.653	63.49
358.864	69.63
359.075	40.96
359.287	137.21
359.498	-2.05
359.709	81.92
359.921	69.63
360.132	12.29
360.344	-16.38
360.555	-28.67
360.766	190.46
360.977	59.39
361.189	100.35
361.4	43.01
361.611	151.55
361.823	43.01
362.034	32.77
362.245	-16.38
362.456	77.82
362.667	90.11
362.879	36.86
363.09	104.45
363.301	102.4
363.512	108.54
363.723	65.53
363.935	26.62
364.146	118.78
364.357	-6.14
364.568	20.48
364.779	2.05
364.99	108.54
365.201	-8.19
365.412	108.54
365.623	-18.43
365.834	94.21
366.045	61.44
366.256	73.73
366.467	81.92
366.678	43.01
366.889	-20.48
367.1	67.58
367.311	122.88
367.522	45.06
367.733	69.63
367.944	65.53
368.155	126.97
368.366	24.58
368.577	88.06
368.788	141.31
368.999	34.82
369.209	8.19
369.42	61.44
369.631	143.36
369.842	71.68
370.053	47.1
370.264	106.49
370.474	81.92
370.685	36.86
370.896	61.44
371.107	118.78
371.317	114.69
371.528	141.31
371.739	110.59
371.95	49.15
372.16	36.86
372.371	36.86
372.582	69.63
372.792	86.01
373.003	67.58
373.214	-51.2
373.424	137.21
373.635	129.02
373.846	88.06
374.056	75.77
374.267	69.63
374.477	-2.05
374.688	53.25
374.898	69.63
375.109	102.4
375.319	71.68
375.53	24.58
375.74	92.16
375.951	49.15
376.161	67.58
376.372	92.16
376.582	10.24
376.793	90.11
377.003	73.73
377.214	69.63
377.424	139.26
377.635	51.2
377.845	100.35
378.055	92.16
378.266	-8.19
378.476	40.96
378.686	20.48
378.897	81.92
379.107	55.3
379.317	61.44
379.528	73.73
379.738	59.39
379.948	28.67
380.158	112.64
380.369	16.38
380.579	81.92
380.789	51.2
380.999	122.88
381.21	139.26
381.42	120.83
381.63	67.58
381.84	65.53
382.05	40.96
382.261	83.97
382.471	96.25
382.681	24.58
382.891	61.44
383.101	77.82
383.311	45.06
383.521	106.49
383.731	75.77
383.941	100.35
384.151	108.54
384.361	104.45
384.571	135.17
384.781	67.58
384.991	120.83
385.201	212.99
385.411	131.07
385.621	106.49
385.831	61.44
386.041	106.49
386.251	90.11
386.461	184.32
386.671	65.53
386.881	69.63
387.091	30.72
387.301	73.73
387.511	-22.53
387.72	106.49
387.93	114.69
388.14	38.91
388.35	55.3
388.56	118.78
388.769	71.68
388.979	63.49
389.189	47.1
389.399	71.68
389.609	83.97
389.818	180.22
390.028	75.77
390.238	86.01
390.447	77.82
390.657	83.97
390.867	65.53
391.076	-47.1
391.286	116.73
391.496	63.49
391.705	67.58
391.915	161.79
392.125	126.97
392.334	71.68
392.544	36.86
392.753	106.49
392.963	32.77
393.172	133.12
393.382	10.24
393.591	172.03
393.801	102.4
394.01	88.06
394.22	157.69
394.429	106.49
394.639	116.73
394.848	55.3
395.058	92.16
395.267	155.65
395.477	147.45
395.686	172.03
395.895	92.16
396.105	120.83
396.314	129.02
396.524	75.77
396.733	98.3
396.942	86.01
397.152	102.4
397.361	135.17
397.57	77.82
397.78	71.68
397.989	135.17
398.198	174.08
398.407	133.12
398.617	163.84
398.826	137.21
399.035	151.55
399.244	212.99
399.453	116.73
399.663	73.73
399.872	159.74
400.081	104.45
400.29	118.78
400.499	122.88
400.708	159.74
400.917	129.02
401.127	165.89
401.336	178.17
401.545	196.61
401.754	157.69
401.963	153.6
402.172	159.74
402.381	114.69
402.59	141.31
402.799	163.84
403.008	229.37
403.217	135.17
403.426	182.27
403.635	165.89
403.844	88.06
404.053	172.03
404.262	108.54
404.471	188.41
404.68	202.75
404.888	192.51
405.097	149.5
405.306	147.45
405.515	223.23
405.724	196.61
405.933	180.22
406.142	223.23
406.35	241.66
406.559	219.13
406.768	135.17
406.977	339.96
407.185	247.8
407.394	305.15
407.603	245.76
407.812	303.1
408.02	342.01
408.229	376.83
408.438	264.19
408.646	223.23
408.855	292.86
409.064	425.98
409.272	264.19
409.481	335.87
409.69	346.11
409.898	356.35
410.107	403.45
410.315	378.87
410.524	382.97
410.733	438.27
410.941	419.83
411.15	497.66
411.358	458.75
411.567	425.98
411.775	405.5
411.984	542.71
412.192	600.05
412.401	577.53
412.609	632.82
412.818	608.25
413.026	634.87
413.234	595.96
413.443	686.07
413.651	575.48
413.86	722.93
414.068	784.37
414.276	761.84
414.485	772.08
414.693	854
414.901	919.54
415.11	923.63
415.318	837.62
415.526	925.68
415.734	985.07
415.943	1042.42
416.151	1134.57
416.359	1023.98
416.567	1030.13
416.776	1159.15
416.984	1232.88
417.192	1286.12
417.4	1267.69
417.608	1214.45
417.817	1329.13
418.025	1398.76
418.233	1542.12
418.441	1351.66
418.649	1476.59
418.857	1675.24
419.065	1677.29
419.273	1601.51
419.481	1695.72
419.689	1939.43
419.897	1914.85
420.105	1738.73
420.313	2004.96
420.521	2144.22
420.729	2062.3
420.937	2222.05
421.145	2287.58
421.353	2359.26
421.561	2588.63
421.769	2578.39
421.977	2584.54
422.185	2682.84
422.393	2762.71
422.601	2881.49
422.809	2777.05
423.017	2926.55
423.224	3043.28
423.432	3170.26
423.64	3235.79
423.848	3514.31
424.056	3432.4
424.263	3616.71
424.471	3649.48
424.679	3770.31
424.887	3962.82
425.094	3880.9
425.302	4163.52
425.51	4239.3
425.718	4335.55
425.925	4493.24
426.133	4460.48
426.341	4655.03
426.548	5074.87
426.756	4970.42
426.964	5044.15
427.171	5345.2
427.379	5492.65
427.586	5500.84
427.794	5808.04
428.001	5990.31
428.209	6102.95
428.417	6172.58
428.624	6686.62
428.832	6645.66
429.039	6635.42
429.247	6653.85
429.454	7282.58
429.662	7724.94
429.869	7260.05
430.076	7724.94
430.284	7526.29
430.491	7829.38
430.699	8241.03
430.906	8427.39
431.114	8454.01
431.321	8923
431.528	8923
431.736	9580.4
431.943	9930.6
432.15	9434.99
432.358	9781.1
432.565	10190.69
432.772	10094.44
432.979	10809.18
433.187	10880.86
433.394	11122.52
433.601	11628.37
433.808	11718.48
434.016	11736.91
434.223	12269.38
434.43	13162.3
434.637	12756.8
434.844	13725.49
435.052	13815.6
435.259	13596.46
435.466	13909.8
435.673	13805.36
435.88	14536.48
436.087	15384.34
436.294	15208.22
436.501	14919.45
436.708	15068.95
436.915	15992.59
437.122	16746.24
437.329	16506.63
437.537	17035
437.743	17297.14
437.95	17436.41
438.157	17987.31
438.364	18564.84
438.571	18607.84
438.778	18726.63
438.985	20489.93
439.192	19963.6
439.399	20223.69
439.606	19965.65
439.813	21135.04
440.02	22441.64
440.227	21890.74
440.433	21485.24
440.64	22484.65
440.847	22120.11
441.054	22720.17
441.261	24510.09
441.467	23953.04
441.674	24563.34
441.881	25648.76
442.088	25210.5
442.294	25108.1
442.501	25902.71
442.708	26021.49
442.914	27315.81
443.121	28413.52
443.328	27876.95
443.534	29666.88
443.741	29236.8
443.948	28204.63
444.154	30565.93
444.361	30316.08
444.568	30774.83
444.774	30662.19
444.981	30785.07
445.187	31675.93
445.394	33009.16
445.6	32822.8
445.807	36087.26
446.013	34717.17
446.22	34971.11
446.426	36191.7
446.633	36754.9
446.839	38178.23
447.046	35921.37
447.252	38237.62
447.459	38679.99
447.665	38501.81
447.871	40236.44
448.078	41995.65
448.284	39693.73
448.491	40951.18
448.697	42610.04
448.903	43226.48
449.11	43654.5
449.316	42769.78
449.522	43636.07
449.728	44879.19
449.935	45258.06
450.141	44950.87
450.347	46087.49
450.553	44674.39
450.76	45618.5
450.966	46978.36
451.172	46120.26
451.378	46996.79
451.584	46368.06
451.791	47762.73
451.997	47451.44
452.203	48590.11
452.409	48340.25
452.615	47983.91
452.821	46107.97
453.027	45940.03
453.233	48667.93
453.44	46800.18
453.646	46933.3
453.852	47205.68
454.058	48583.96
454.264	46818.61
454.47	47658.28
454.676	46611.77
454.882	48280.86
455.088	43992.42
455.294	45004.11
455.5	45288.78
455.705	45514.06
455.911	44070.24
456.117	43132.27
456.323	42810.74
456.529	40760.72
456.735	42425.72
456.941	41340.3
457.147	40394.14
457.352	39443.88
457.558	39120.3
457.764	39415.21
457.97	38258.1
458.176	37696.96
458.381	37684.67
458.587	35571.17
458.793	36040.15
458.999	33943.03
459.204	36718.03
459.41	35167.72
459.616	33076.74
459.821	33062.41
460.027	32906.76
460.233	32265.75
460.438	30629.42
460.644	31233.57
460.85	29523.52
461.055	29095.49
461.261	29277.76
461.466	26723.94
461.672	25998.96
461.878	28149.33
462.083	25978.48
462.289	25335.42
462.494	25284.22
462.7	24397.45
462.905	23735.96
463.111	24186.51
463.316	24424.08
463.522	24141.46
463.727	23834.26
463.932	23998.1
464.138	23932.56
464.343	23789.2
464.549	23088.8
464.754	23727.77
464.959	23651.99
465.165	23307.93
465.37	22580.9
465.575	21784.24
465.781	22881.95
465.986	22662.82
466.191	21788.34
466.397	21628.6
