Data from USB4F104151__26__13-04-46-328.txt Node

Date: Fri Mar 14 13:04:46 EDT 2025
User: louis
Spectrometer: USB4F10415
Trigger mode: 4
Integration Time (sec): 4.000000E-2
Scans to average: 1
Electric dark correction enabled: true
Nonlinearity correction enabled: false
Boxcar width: 0
XAxis mode: Wavelengths
Number of Pixels in Spectrum: 3648
>>>>>Begin Spectral Data<<<<<
178.204	-176.3
178.424	-176.3
178.644	-176.3
178.864	-192.68
179.084	-223.4
179.304	-28.84
179.524	-18.6
179.744	-10.41
179.964	18.26
180.184	53.08
180.404	-6.31
180.624	-32.94
180.844	-6.31
181.064	-12.46
181.283	16.21
181.503	10.07
181.723	18.26
181.943	-75.95
182.163	108.37
182.383	-6.31
182.602	116.56
182.822	51.03
183.042	1.88
183.262	106.32
183.482	20.31
183.701	26.45
183.921	10.07
184.141	-88.23
184.361	89.94
184.58	-8.36
184.8	38.74
185.02	30.55
185.239	30.55
185.459	30.55
185.679	-53.42
185.898	-59.56
186.118	-12.46
186.338	48.98
186.557	1.88
186.777	-32.94
186.997	-4.27
187.216	-2.22
187.436	85.84
187.655	51.03
187.875	59.22
188.095	24.4
188.314	8.02
188.534	65.36
188.753	28.5
188.973	87.89
189.192	102.23
189.412	10.07
189.631	1.88
189.851	12.12
190.07	69.46
190.29	38.74
190.509	26.45
190.729	-30.89
190.948	46.93
191.168	233.3
191.387	112.47
191.607	-45.23
191.826	55.12
192.045	-43.18
192.265	-0.17
192.484	3.93
192.704	-24.75
192.923	-6.31
193.142	122.71
193.362	55.12
193.581	40.79
193.8	67.41
194.02	-45.23
194.239	-32.94
194.458	16.21
194.678	-30.89
194.897	8.02
195.116	94.04
195.335	51.03
195.555	71.51
195.774	85.84
195.993	63.32
196.212	3.93
196.432	-26.79
196.651	20.31
196.87	12.12
197.089	173.91
197.308	38.74
197.528	91.99
197.747	-63.66
197.966	-41.13
198.185	36.69
198.404	12.12
198.623	28.5
198.842	128.85
199.062	26.45
199.281	28.5
199.5	38.74
199.719	85.84
199.938	108.37
200.157	59.22
200.376	-4.27
200.595	75.6
200.814	73.56
201.033	3.93
201.252	28.5
201.471	120.66
201.69	59.22
201.909	24.4
202.128	24.4
202.347	51.03
202.566	44.88
202.785	-30.89
203.004	-4.27
203.223	124.76
203.442	61.27
203.661	1.88
203.879	112.47
204.098	36.69
204.317	-30.89
204.536	18.26
204.755	-26.79
204.974	18.26
205.193	108.37
205.411	75.6
205.63	26.45
205.849	65.36
206.068	-4.27
206.287	118.61
206.505	18.26
206.724	18.26
206.943	-71.85
207.162	3.93
207.381	48.98
207.599	3.93
207.818	34.64
208.037	85.84
208.255	-69.8
208.474	18.26
208.693	34.64
208.911	38.74
209.13	-0.17
209.349	73.56
209.567	24.4
209.786	44.88
210.005	83.8
210.223	28.5
210.442	-43.18
210.661	61.27
210.879	20.31
211.098	3.93
211.316	120.66
211.535	59.22
211.753	91.99
211.972	-4.27
212.191	22.36
212.409	18.26
212.628	42.84
212.846	-30.89
213.065	63.32
213.283	147.28
213.502	-39.08
213.72	38.74
213.938	57.17
214.157	59.22
214.375	-4.27
214.594	-18.6
214.812	34.64
215.031	-12.46
215.249	3.93
215.467	51.03
215.686	20.31
215.904	22.36
216.122	-32.94
216.341	173.91
216.559	51.03
216.778	61.27
216.996	36.69
217.214	79.7
217.432	-28.84
217.651	-53.42
217.869	55.12
218.087	20.31
218.306	-2.22
218.524	32.6
218.742	10.07
218.96	28.5
219.179	16.21
219.397	-45.23
219.615	85.84
219.833	51.03
220.051	-28.84
220.27	55.12
220.488	67.41
220.706	8.02
220.924	87.89
221.142	96.08
221.36	-8.36
221.578	87.89
221.796	102.23
222.015	32.6
222.233	20.31
222.451	104.28
222.669	42.84
222.887	-26.79
223.105	-37.03
223.323	65.36
223.541	-18.6
223.759	44.88
223.977	-4.27
224.195	116.56
224.413	18.26
224.631	91.99
224.849	22.36
225.067	10.07
225.285	-8.36
225.503	32.6
225.721	-53.42
225.939	-47.27
226.157	26.45
226.375	147.28
226.592	-67.75
226.81	34.64
227.028	46.93
227.246	96.08
227.464	79.7
227.682	89.94
227.9	91.99
228.117	46.93
228.335	100.18
228.553	53.08
228.771	110.42
228.989	51.03
229.206	61.27
229.424	51.03
229.642	-47.27
229.86	71.51
230.077	48.98
230.295	12.12
230.513	124.76
230.731	-4.27
230.948	112.47
231.166	83.8
231.384	34.64
231.601	38.74
231.819	141.14
232.037	38.74
232.254	10.07
232.472	73.56
232.689	-20.65
232.907	63.32
233.125	87.89
233.342	-4.27
233.56	-39.08
233.777	26.45
233.995	-2.22
234.213	132.95
234.43	94.04
234.648	18.26
234.865	-6.31
235.083	30.55
235.3	63.32
235.518	12.12
235.735	22.36
235.953	163.67
236.17	30.55
236.388	-8.36
236.605	48.98
236.822	32.6
237.04	22.36
237.257	67.41
237.475	75.6
237.692	26.45
237.909	-20.65
238.127	-63.66
238.344	51.03
238.562	77.65
238.779	38.74
238.996	22.36
239.214	22.36
239.431	26.45
239.648	-10.41
239.865	1.88
240.083	34.64
240.3	67.41
240.517	-63.66
240.735	28.5
240.952	75.6
241.169	77.65
241.386	26.45
241.603	63.32
241.821	-26.79
242.038	91.99
242.255	18.26
242.472	-22.7
242.689	79.7
242.907	63.32
243.124	-8.36
243.341	38.74
243.558	-43.18
243.775	48.98
243.992	-57.51
244.209	14.17
244.426	71.51
244.643	10.07
244.86	-8.36
245.078	83.8
245.295	-2.22
245.512	53.08
245.729	-6.31
245.946	53.08
246.163	12.12
246.38	20.31
246.597	83.8
246.814	42.84
247.031	51.03
247.248	85.84
247.464	40.79
247.681	10.07
247.898	116.56
248.115	-20.65
248.332	-30.89
248.549	75.6
248.766	91.99
248.983	51.03
249.2	14.17
249.417	26.45
249.633	18.26
249.85	28.5
250.067	-37.03
250.284	38.74
250.501	18.26
250.717	30.55
250.934	-53.42
251.151	67.41
251.368	-18.6
251.585	38.74
251.801	61.27
252.018	81.75
252.235	71.51
252.451	48.98
252.668	42.84
252.885	118.61
253.102	42.84
253.318	87.89
253.535	-0.17
253.752	-2.22
253.968	-55.47
254.185	-55.47
254.401	32.6
254.618	51.03
254.835	-6.31
255.051	77.65
255.268	30.55
255.484	8.02
255.701	-22.7
255.917	51.03
256.134	69.46
256.351	85.84
256.567	-77.99
256.784	-4.27
257	-43.18
257.217	-14.51
257.433	91.99
257.65	40.79
257.866	75.6
258.082	53.08
258.299	30.55
258.515	14.17
258.732	-22.7
258.948	59.22
259.165	-10.41
259.381	42.84
259.597	46.93
259.814	-16.55
260.03	16.21
260.246	24.4
260.463	48.98
260.679	34.64
260.895	20.31
261.112	110.42
261.328	30.55
261.544	-34.99
261.761	161.62
261.977	26.45
262.193	5.97
262.409	55.12
262.626	28.5
262.842	22.36
263.058	-14.51
263.274	67.41
263.49	3.93
263.707	40.79
263.923	10.07
264.139	-57.51
264.355	-8.36
264.571	108.37
264.787	12.12
265.004	81.75
265.22	-6.31
265.436	65.36
265.652	-4.27
265.868	5.97
266.084	-80.04
266.3	34.64
266.516	-26.79
266.732	61.27
266.948	34.64
267.164	38.74
267.38	30.55
267.596	44.88
267.812	151.38
268.028	16.21
268.244	34.64
268.46	61.27
268.676	-43.18
268.892	85.84
269.108	-26.79
269.324	-55.47
269.54	-82.09
269.756	12.12
269.972	-55.47
270.188	14.17
270.403	44.88
270.619	18.26
270.835	81.75
271.051	61.27
271.267	-4.27
271.483	-43.18
271.698	67.41
271.914	77.65
272.13	1.88
272.346	-2.22
272.562	10.07
272.777	94.04
272.993	26.45
273.209	10.07
273.425	67.41
273.64	-4.27
273.856	87.89
274.072	53.08
274.287	1.88
274.503	85.84
274.719	12.12
274.934	44.88
275.15	-39.08
275.366	-53.42
275.581	-28.84
275.797	57.17
276.012	53.08
276.228	28.5
276.444	75.6
276.659	79.7
276.875	-22.7
277.09	3.93
277.306	-2.22
277.521	-14.51
277.737	-12.46
277.952	46.93
278.168	3.93
278.383	1.88
278.599	32.6
278.814	36.69
279.03	42.84
279.245	44.88
279.461	20.31
279.676	34.64
279.892	51.03
280.107	79.7
280.322	-59.56
280.538	38.74
280.753	-12.46
280.969	81.75
281.184	94.04
281.399	83.8
281.615	5.97
281.83	14.17
282.045	-45.23
282.26	34.64
282.476	145.24
282.691	51.03
282.906	53.08
283.122	-32.94
283.337	1.88
283.552	85.84
283.767	12.12
283.983	22.36
284.198	-43.18
284.413	59.22
284.628	32.6
284.843	73.56
285.058	118.61
285.274	-34.99
285.489	-39.08
285.704	14.17
285.919	-34.99
286.134	-28.84
286.349	1.88
286.564	8.02
286.779	116.56
286.995	73.56
287.21	-43.18
287.425	110.42
287.64	57.17
287.855	10.07
288.07	-94.38
288.285	110.42
288.5	110.42
288.715	55.12
288.93	-39.08
289.145	46.93
289.36	46.93
289.575	48.98
289.79	61.27
290.004	-32.94
290.219	32.6
290.434	10.07
290.649	42.84
290.864	55.12
291.079	-43.18
291.294	102.23
291.509	32.6
291.724	-0.17
291.938	-0.17
292.153	48.98
292.368	89.94
292.583	18.26
292.798	85.84
293.012	55.12
293.227	5.97
293.442	36.69
293.657	79.7
293.871	85.84
294.086	-55.47
294.301	178
294.516	81.75
294.73	28.5
294.945	20.31
295.16	34.64
295.374	65.36
295.589	116.56
295.804	24.4
296.018	75.6
296.233	42.84
296.447	51.03
296.662	-16.55
296.877	24.4
297.091	61.27
297.306	-26.79
297.52	-12.46
297.735	26.45
297.949	53.08
298.164	85.84
298.378	59.22
298.593	44.88
298.807	36.69
299.022	100.18
299.236	104.28
299.451	3.93
299.665	-43.18
299.88	12.12
300.094	-22.7
300.309	42.84
300.523	42.84
300.737	59.22
300.952	-4.27
301.166	-45.23
301.381	55.12
301.595	71.51
301.809	34.64
302.024	-37.03
302.238	-12.46
302.452	38.74
302.667	59.22
302.881	67.41
303.095	16.21
303.309	55.12
303.524	12.12
303.738	34.64
303.952	73.56
304.166	18.26
304.381	-45.23
304.595	57.17
304.809	18.26
305.023	53.08
305.237	83.8
305.452	30.55
305.666	85.84
305.88	87.89
306.094	18.26
306.308	34.64
306.522	38.74
306.736	-30.89
306.95	14.17
307.164	14.17
307.379	96.08
307.593	42.84
307.807	89.94
308.021	-10.41
308.235	116.56
308.449	44.88
308.663	85.84
308.877	100.18
309.091	5.97
309.305	-4.27
309.519	24.4
309.733	96.08
309.947	-45.23
310.161	83.8
310.374	65.36
310.588	14.17
310.802	3.93
311.016	10.07
311.23	1.88
311.444	5.97
311.658	149.33
311.872	87.89
312.085	-6.31
312.299	48.98
312.513	96.08
312.727	34.64
312.941	-32.94
313.154	77.65
313.368	34.64
313.582	42.84
313.796	108.37
314.009	38.74
314.223	-6.31
314.437	77.65
314.651	32.6
314.864	-71.85
315.078	-2.22
315.292	28.5
315.505	59.22
315.719	59.22
315.933	46.93
316.146	10.07
316.36	120.66
316.573	100.18
316.787	77.65
317.001	63.32
317.214	3.93
317.428	61.27
317.641	-63.66
317.855	85.84
318.068	28.5
318.282	79.7
318.495	71.51
318.709	34.64
318.922	18.26
319.136	110.42
319.349	157.52
319.563	3.93
319.776	53.08
319.99	-4.27
320.203	53.08
320.417	-12.46
320.63	-6.31
320.843	124.76
321.057	46.93
321.27	46.93
321.483	46.93
321.697	77.65
321.91	83.8
322.124	18.26
322.337	44.88
322.55	-39.08
322.763	83.8
322.977	18.26
323.19	-16.55
323.403	67.41
323.617	63.32
323.83	122.71
324.043	-47.27
324.256	69.46
324.469	-14.51
324.683	38.74
324.896	36.69
325.109	42.84
325.322	20.31
325.535	38.74
325.748	81.75
325.962	-2.22
326.175	42.84
326.388	59.22
326.601	87.89
326.814	-4.27
327.027	18.26
327.24	85.84
327.453	-8.36
327.666	12.12
327.879	96.08
328.092	1.88
328.305	10.07
328.518	85.84
328.731	32.6
328.944	-12.46
329.157	-20.65
329.37	53.08
329.583	42.84
329.796	77.65
330.009	1.88
330.222	75.6
330.435	34.64
330.648	67.41
330.861	22.36
331.073	116.56
331.286	-4.27
331.499	5.97
331.712	-30.89
331.925	102.23
332.138	5.97
332.35	5.97
332.563	-39.08
332.776	85.84
332.989	18.26
333.202	44.88
333.414	28.5
333.627	8.02
333.84	34.64
334.053	83.8
334.265	8.02
334.478	14.17
334.691	5.97
334.903	-0.17
335.116	53.08
335.329	20.31
335.541	81.75
335.754	118.61
335.966	81.75
336.179	24.4
336.392	5.97
336.604	12.12
336.817	26.45
337.029	59.22
337.242	51.03
337.454	100.18
337.667	18.26
337.88	118.61
338.092	-8.36
338.305	67.41
338.517	44.88
338.729	104.28
338.942	149.33
339.154	22.36
339.367	-37.03
339.579	77.65
339.792	61.27
340.004	75.6
340.217	14.17
340.429	79.7
340.641	-16.55
340.854	36.69
341.066	40.79
341.278	-47.27
341.491	8.02
341.703	42.84
341.915	12.12
342.128	-0.17
342.34	-77.99
342.552	67.41
342.764	34.64
342.977	28.5
343.189	51.03
343.401	118.61
343.613	-55.47
343.826	10.07
344.038	46.93
344.25	71.51
344.462	38.74
344.674	106.32
344.886	-14.51
345.099	71.51
345.311	40.79
345.523	42.84
345.735	-41.13
345.947	96.08
346.159	-26.79
346.371	73.56
346.583	26.45
346.795	112.47
347.007	32.6
347.219	65.36
347.431	38.74
347.643	102.23
347.855	28.5
348.067	77.65
348.279	55.12
348.491	77.65
348.703	143.19
348.915	18.26
349.127	24.4
349.339	42.84
349.551	79.7
349.763	59.22
349.975	75.6
350.187	67.41
350.399	44.88
350.61	38.74
350.822	20.31
351.034	51.03
351.246	91.99
351.458	53.08
351.669	48.98
351.881	-43.18
352.093	51.03
352.305	77.65
352.517	59.22
352.728	116.56
352.94	40.79
353.152	85.84
353.363	51.03
353.575	14.17
353.787	-6.31
353.999	57.17
354.21	96.08
354.422	26.45
354.633	59.22
354.845	46.93
355.057	104.28
355.268	55.12
355.48	53.08
355.692	-10.41
355.903	26.45
356.115	12.12
356.326	-14.51
356.538	108.37
356.749	51.03
356.961	157.52
357.172	14.17
357.384	14.17
357.595	75.6
357.807	3.93
358.018	26.45
358.23	22.36
358.441	108.37
358.653	36.69
358.864	-49.32
359.075	10.07
359.287	34.64
359.498	61.27
359.709	44.88
359.921	-8.36
360.132	28.5
360.344	48.98
360.555	-59.56
360.766	34.64
360.977	40.79
361.189	36.69
361.4	-2.22
361.611	126.8
361.823	135
362.034	22.36
362.245	8.02
362.456	1.88
362.667	104.28
362.879	12.12
363.09	-0.17
363.301	79.7
363.512	61.27
363.723	-22.7
363.935	-12.46
364.146	116.56
364.357	51.03
364.568	69.46
364.779	-0.17
364.99	124.76
365.201	14.17
365.412	44.88
365.623	48.98
365.834	46.93
366.045	-2.22
366.256	120.66
366.467	87.89
366.678	34.64
366.889	32.6
367.1	30.55
367.311	87.89
367.522	-22.7
367.733	87.89
367.944	141.14
368.155	36.69
368.366	110.42
368.577	34.64
368.788	57.17
368.999	46.93
369.209	87.89
369.42	161.62
369.631	126.8
369.842	59.22
370.053	14.17
370.264	77.65
370.474	-2.22
370.685	63.32
370.896	14.17
371.107	77.65
371.317	22.36
371.528	32.6
371.739	71.51
371.95	67.41
372.16	106.32
372.371	18.26
372.582	24.4
372.792	153.43
373.003	38.74
373.214	34.64
373.424	96.08
373.635	55.12
373.846	100.18
374.056	-0.17
374.267	83.8
374.477	73.56
374.688	20.31
374.898	38.74
375.109	42.84
375.319	40.79
375.53	98.13
375.74	44.88
375.951	-20.65
376.161	55.12
376.372	61.27
376.582	12.12
376.793	42.84
377.003	-8.36
377.214	38.74
377.424	98.13
377.635	44.88
377.845	53.08
378.055	67.41
378.266	51.03
378.476	-4.27
378.686	69.46
378.897	-12.46
379.107	-22.7
379.317	34.64
379.528	44.88
379.738	141.14
379.948	8.02
380.158	126.8
380.369	61.27
380.579	34.64
380.789	-4.27
380.999	-2.22
381.21	102.23
381.42	128.85
381.63	36.69
381.84	87.89
382.05	30.55
382.261	51.03
382.471	53.08
382.681	-26.79
382.891	46.93
383.101	51.03
383.311	-22.7
383.521	28.5
383.731	24.4
383.941	67.41
384.151	14.17
384.361	20.31
384.571	71.51
384.781	94.04
384.991	108.37
385.201	120.66
385.411	40.79
385.621	67.41
385.831	77.65
386.041	85.84
386.251	98.13
386.461	100.18
386.671	65.36
386.881	-39.08
387.091	36.69
387.301	132.95
387.511	57.17
387.72	53.08
387.93	48.98
388.14	26.45
388.35	67.41
388.56	28.5
388.769	34.64
388.979	132.95
389.189	20.31
389.399	67.41
389.609	59.22
389.818	120.66
390.028	81.75
390.238	75.6
390.447	34.64
390.657	46.93
390.867	75.6
391.076	57.17
391.286	100.18
391.496	51.03
391.705	75.6
391.915	147.28
392.125	141.14
392.334	102.23
392.544	116.56
392.753	67.41
392.963	61.27
393.172	55.12
393.382	44.88
393.591	77.65
393.801	44.88
394.01	112.47
394.22	32.6
394.429	34.64
394.639	16.21
394.848	173.91
395.058	59.22
395.267	5.97
395.477	124.76
395.686	91.99
395.895	159.57
396.105	165.71
396.314	83.8
396.524	104.28
396.733	34.64
396.942	130.9
397.152	79.7
397.361	77.65
397.57	112.47
397.78	128.85
397.989	79.7
398.198	206.67
398.407	108.37
398.617	51.03
398.826	108.37
399.035	46.93
399.244	188.24
399.453	59.22
399.663	132.95
399.872	124.76
400.081	85.84
400.29	110.42
400.499	118.61
400.708	124.76
400.917	77.65
401.127	73.56
401.336	124.76
401.545	157.52
401.754	132.95
401.963	173.91
402.172	75.6
402.381	91.99
402.59	22.36
402.799	175.95
403.008	149.33
403.217	67.41
403.426	151.38
403.635	30.55
403.844	104.28
404.053	102.23
404.262	145.24
404.471	206.67
404.68	180.05
404.888	114.52
405.097	120.66
405.306	165.71
405.515	227.15
405.724	171.86
405.933	259.92
406.142	243.54
406.35	202.58
406.559	268.11
406.768	204.63
406.977	165.71
407.185	210.77
407.394	223.06
407.603	145.24
407.812	161.62
408.02	274.26
408.229	200.53
408.438	210.77
408.646	264.02
408.855	196.43
409.064	231.25
409.272	276.31
409.481	329.55
409.69	325.46
409.898	247.63
410.107	411.47
410.315	339.79
410.524	350.03
410.733	323.41
410.941	376.66
411.15	374.61
411.358	376.66
411.567	456.53
411.775	407.38
411.984	411.47
412.192	393.04
412.401	319.31
412.609	532.3
412.818	483.15
413.026	556.88
413.234	497.49
413.443	487.25
413.651	530.25
413.86	603.98
414.068	632.65
414.276	610.12
414.485	608.08
414.693	667.47
414.901	677.71
415.11	673.61
415.318	667.47
415.526	669.52
415.734	808.78
415.943	843.59
416.151	837.45
416.359	888.65
416.567	767.82
416.776	853.83
416.984	968.52
417.192	905.03
417.4	962.37
417.608	978.76
417.817	1025.86
418.025	1052.49
418.233	1189.7
418.441	1187.65
418.649	1079.11
418.857	1232.71
419.065	1400.64
419.273	1244.99
419.481	1343.3
419.689	1437.5
419.897	1548.09
420.105	1490.75
420.313	1587.01
420.521	1531.71
420.729	1525.57
420.937	1593.15
421.145	1838.91
421.353	1902.39
421.561	1926.97
421.769	2008.89
421.977	1912.63
422.185	2033.46
422.393	2113.33
422.601	2330.42
422.809	2240.31
423.017	2350.9
423.224	2471.73
423.432	2422.58
423.64	2406.19
423.848	2715.44
424.056	2625.33
424.263	2879.27
424.471	2772.78
424.679	2996.01
424.887	2934.57
425.094	3252
425.302	2998.06
425.51	3202.85
425.718	3309.35
425.925	3389.22
426.133	3467.04
426.341	3761.95
426.548	3983.13
426.756	3878.68
426.964	3933.98
427.171	4097.81
427.379	4173.59
427.586	4343.57
427.794	4368.15
428.001	4863.76
428.209	4869.9
428.417	4871.95
428.624	5246.73
428.832	5261.06
429.039	5068.55
429.247	5125.9
429.454	5728
429.662	6153.98
429.869	5549.82
430.076	6047.48
430.284	5850.88
430.491	6164.22
430.699	6428.4
430.906	6545.14
431.114	6532.85
431.321	6899.44
431.528	6936.3
431.736	7429.86
431.943	7696.1
432.15	7638.75
432.358	7659.23
432.565	8148.7
432.772	8011.48
432.979	8355.54
433.187	8707.79
433.394	8466.13
433.601	9238.22
433.808	9346.76
434.016	9240.26
434.223	9516.74
434.43	9946.81
434.637	10002.11
434.844	10434.23
435.052	10858.16
435.259	10653.36
435.466	10766
435.673	10628.79
435.88	11259.56
436.087	11871.9
436.294	12230.3
436.501	11798.18
436.708	11947.68
436.915	12447.38
437.122	13168.27
437.329	12813.97
437.537	13299.34
437.743	13631.11
437.95	13442.7
438.157	14112.38
438.364	14251.64
438.571	14489.21
438.778	14485.11
438.985	15980.13
439.192	15242.86
439.399	15914.59
439.606	15486.57
439.813	16250.46
440.02	17567.31
440.227	17028.69
440.433	16995.92
440.64	17423.95
440.847	17411.66
441.054	17684.04
441.261	19121.71
441.467	18644.54
441.674	19127.86
441.881	19588.65
442.088	19795.5
442.294	19629.61
442.501	19936.81
442.708	20553.24
442.914	21321.23
443.121	22289.92
443.328	21399.05
443.534	23090.68
443.741	22425.09
443.948	22081.03
444.154	24014.31
444.361	23363.06
444.568	23739.88
444.774	23883.24
444.981	24198.63
445.187	25173.46
445.394	25894.35
445.6	25415.12
445.807	28200.36
446.013	26971.58
446.22	27389.36
446.426	28675.49
446.633	28493.22
446.839	29875.6
447.046	28902.81
447.252	29975.95
447.459	30215.56
447.665	29957.52
447.871	31341.94
448.078	32867.68
448.284	31018.36
448.491	31800.69
448.697	33416.54
448.903	33832.27
449.11	34223.44
449.316	33535.32
449.522	34008.4
449.728	34938.18
449.935	35325.24
450.141	35478.84
450.347	35894.58
450.553	34889.02
450.76	35501.37
450.966	36629.8
451.172	35781.94
451.378	36918.56
451.584	36212.01
451.791	37834
451.997	37391.64
452.203	37846.29
452.409	37727.51
452.615	37811.48
452.821	36398.38
453.027	35872.05
453.233	37924.11
453.44	36275.5
453.646	37072.16
453.852	37090.59
454.058	37664.02
454.264	36525.35
454.47	36971.81
454.676	36373.8
454.882	37524.76
455.088	34383.18
455.294	34936.13
455.5	35417.4
455.705	35790.13
455.911	34260.3
456.117	33867.09
456.323	33351
456.529	31538.55
456.735	32849.25
456.941	31802.74
457.147	31513.97
457.352	30416.26
457.558	30741.89
457.764	30739.84
457.97	29834.64
458.176	29347.22
458.381	28947.87
458.587	27710.89
458.793	27458.99
458.999	26271.17
459.204	28114.34
459.41	27368.88
459.616	25472.46
459.821	25771.47
460.027	25509.33
460.233	24819.16
460.438	23768.55
460.644	23866.86
460.85	22892.02
461.055	22412.8
461.261	22590.97
461.466	20807.19
461.672	20213.28
461.878	21405.2
462.083	20252.19
462.289	19891.75
462.494	19551.79
462.7	18419.26
462.905	18363.97
463.111	18910.77
463.316	18966.07
463.522	18597.43
463.727	18634.3
463.932	18677.3
464.138	18282.05
464.343	18574.91
464.549	17794.63
464.754	18394.68
464.959	18282.05
465.165	17909.32
465.37	17067.6
465.575	16627.29
465.781	17643.08
465.986	17735.24
466.191	17135.18
466.397	16817.75
466.602	15855.2
466.807	16643.67
467.012	16408.15
