Data from USB4F104151__47__13-05-23-164.txt Node

Date: Fri Mar 14 13:05:23 EDT 2025
User: louis
Spectrometer: USB4F10415
Trigger mode: 4
Integration Time (sec): 4.000000E-2
Scans to average: 1
Electric dark correction enabled: true
Nonlinearity correction enabled: false
Boxcar width: 0
XAxis mode: Wavelengths
Number of Pixels in Spectrum: 3648
>>>>>Begin Spectral Data<<<<<
178.204	-242.51
178.424	-242.51
178.644	-242.51
178.864	-103.25
179.084	-185.17
179.304	-7
179.524	19.63
179.744	-2.9
179.964	31.91
180.184	9.39
180.404	1.19
180.624	-62.29
180.844	13.48
181.064	-39.76
181.283	62.63
181.503	-68.44
181.723	42.15
181.943	-47.96
182.163	91.31
182.383	-80.72
182.602	85.16
182.822	76.97
183.042	-4.95
183.262	-21.33
183.482	-47.96
183.701	-11.09
183.921	13.48
184.141	11.43
184.361	87.21
184.58	60.59
184.8	85.16
185.02	-52.05
185.239	-4.95
185.459	23.72
185.679	72.87
185.898	-21.33
186.118	74.92
186.338	33.96
186.557	-29.52
186.777	33.96
186.997	27.82
187.216	44.2
187.436	99.5
187.655	56.49
187.875	72.87
188.095	-9.05
188.314	74.92
188.534	52.39
188.753	38.06
188.973	15.53
189.192	126.12
189.412	9.39
189.631	58.54
189.851	11.43
190.07	162.98
190.29	-21.33
190.509	48.3
190.729	3.24
190.948	38.06
191.168	201.9
191.387	9.39
191.607	-35.67
191.826	60.59
192.045	21.67
192.265	21.67
192.484	74.92
192.704	33.96
192.923	-7
193.142	50.35
193.362	44.2
193.581	81.07
193.8	5.29
194.02	50.35
194.239	89.26
194.458	74.92
194.678	9.39
194.897	9.39
195.116	58.54
195.335	3.24
195.555	83.11
195.774	-19.29
195.993	42.15
196.212	-64.34
196.432	15.53
196.651	33.96
196.87	21.67
197.089	87.21
197.308	70.83
197.528	-0.85
197.747	-33.62
197.966	23.72
198.185	3.24
198.404	11.43
198.623	27.82
198.842	83.11
199.062	44.2
199.281	1.19
199.5	42.15
199.719	21.67
199.938	-19.29
200.157	117.93
200.376	85.16
200.595	44.2
200.814	46.25
201.033	-35.67
201.252	-7
201.471	-31.57
201.69	46.25
201.909	74.92
202.128	54.44
202.347	15.53
202.566	44.2
202.785	9.39
203.004	-97.11
203.223	113.83
203.442	1.19
203.661	-47.96
203.879	-66.39
204.098	-4.95
204.317	-43.86
204.536	-7
204.755	3.24
204.974	-19.29
205.193	33.96
205.411	68.78
205.63	62.63
205.849	29.87
206.068	33.96
206.287	-39.76
206.505	40.11
206.724	58.54
206.943	-29.52
207.162	31.91
207.381	-97.11
207.599	23.72
207.818	48.3
208.037	-41.81
208.255	-23.38
208.474	-13.14
208.693	23.72
208.911	21.67
209.13	36.01
209.349	64.68
209.567	1.19
209.786	91.31
210.005	91.31
210.223	19.63
210.442	-45.91
210.661	27.82
210.879	40.11
211.098	9.39
211.316	87.21
211.535	74.92
211.753	-23.38
211.972	89.26
212.191	-72.53
212.409	54.44
212.628	31.91
212.846	-39.76
213.065	-9.05
213.283	44.2
213.502	42.15
213.72	54.44
213.938	21.67
214.157	7.34
214.375	56.49
214.594	33.96
214.812	54.44
215.031	91.31
215.249	70.83
215.467	-62.29
215.686	-19.29
215.904	72.87
216.122	72.87
216.341	27.82
216.559	91.31
216.778	72.87
216.996	103.59
217.214	9.39
217.432	38.06
217.651	-29.52
217.869	70.83
218.087	-7
218.306	-39.76
218.524	46.25
218.742	21.67
218.96	-7
219.179	-17.24
219.397	29.87
219.615	165.03
219.833	9.39
220.051	27.82
220.27	60.59
220.488	87.21
220.706	91.31
220.924	33.96
221.142	-11.09
221.36	-19.29
221.578	44.2
221.796	40.11
222.015	-19.29
222.233	81.07
222.451	74.92
222.669	3.24
222.887	17.58
223.105	-52.05
223.323	-13.14
223.541	-27.48
223.759	58.54
223.977	21.67
224.195	68.78
224.413	87.21
224.631	83.11
224.849	15.53
225.067	48.3
225.285	-37.72
225.503	-25.43
225.721	-99.16
225.939	42.15
226.157	-11.09
226.375	132.26
226.592	-60.24
226.81	-15.19
227.028	33.96
227.246	46.25
227.464	52.39
227.682	25.77
227.9	91.31
228.117	42.15
228.335	83.11
228.553	40.11
228.771	85.16
228.989	5.29
229.206	21.67
229.424	1.19
229.642	56.49
229.86	27.82
230.077	1.19
230.295	36.01
230.513	46.25
230.731	68.78
230.948	27.82
231.166	105.64
231.384	29.87
231.601	44.2
231.819	115.88
232.037	-4.95
232.254	-68.44
232.472	-4.95
232.689	3.24
232.907	52.39
233.125	23.72
233.342	50.35
233.56	-15.19
233.777	66.73
233.995	1.19
234.213	87.21
234.43	19.63
234.648	23.72
234.865	-76.63
235.083	31.91
235.3	-41.81
235.518	91.31
235.735	87.21
235.953	29.87
236.17	21.67
236.388	23.72
236.605	31.91
236.822	44.2
237.04	-0.85
237.257	21.67
237.475	19.63
237.692	42.15
237.909	42.15
238.127	-4.95
238.344	136.36
238.562	-2.9
238.779	-25.43
238.996	-121.68
239.214	-64.34
239.431	83.11
239.648	-0.85
239.865	11.43
240.083	31.91
240.3	-9.05
240.517	-58.2
240.735	-19.29
240.952	128.17
241.169	130.22
241.386	1.19
241.603	-4.95
241.821	-7
242.038	66.73
242.255	17.58
242.472	-15.19
242.689	19.63
242.907	48.3
243.124	-15.19
243.341	46.25
243.558	-13.14
243.775	3.24
243.992	-39.76
244.209	70.83
244.426	54.44
244.643	19.63
244.86	40.11
245.078	23.72
245.295	62.63
245.512	79.02
245.729	27.82
245.946	48.3
246.163	42.15
246.38	23.72
246.597	29.87
246.814	58.54
247.031	-4.95
247.248	23.72
247.464	58.54
247.681	-19.29
247.898	109.74
248.115	64.68
248.332	-9.05
248.549	66.73
248.766	74.92
248.983	-15.19
249.2	9.39
249.417	27.82
249.633	79.02
249.85	85.16
250.067	1.19
250.284	-41.81
250.501	93.35
250.717	17.58
250.934	38.06
251.151	-15.19
251.368	-17.24
251.585	52.39
251.801	72.87
252.018	1.19
252.235	109.74
252.451	-58.2
252.668	15.53
252.885	58.54
253.102	83.11
253.318	50.35
253.535	-27.48
253.752	5.29
253.968	70.83
254.185	64.68
254.401	76.97
254.618	-17.24
254.835	13.48
255.051	111.78
255.268	33.96
255.484	-15.19
255.701	134.31
255.917	44.2
256.134	-23.38
256.351	33.96
256.567	15.53
256.784	23.72
257	-15.19
257.217	9.39
257.433	81.07
257.65	33.96
257.866	152.74
258.082	1.19
258.299	19.63
258.515	-23.38
258.732	29.87
258.948	25.77
259.165	66.73
259.381	5.29
259.597	95.4
259.814	60.59
260.03	40.11
260.246	29.87
260.463	66.73
260.679	62.63
260.895	115.88
261.112	3.24
261.328	11.43
261.544	-13.14
261.761	68.78
261.977	5.29
262.193	-25.43
262.409	74.92
262.626	13.48
262.842	25.77
263.058	-7
263.274	136.36
263.49	87.21
263.707	85.16
263.923	5.29
264.139	-19.29
264.355	76.97
264.571	66.73
264.787	29.87
265.004	101.55
265.22	13.48
265.436	-4.95
265.652	15.53
265.868	91.31
266.084	-62.29
266.3	83.11
266.516	27.82
266.732	-19.29
266.948	-13.14
267.164	11.43
267.38	7.34
267.596	27.82
267.812	64.68
268.028	1.19
268.244	13.48
268.46	13.48
268.676	11.43
268.892	9.39
269.108	15.53
269.324	-66.39
269.54	7.34
269.756	83.11
269.972	25.77
270.188	13.48
270.403	66.73
270.619	1.19
270.835	-0.85
271.051	99.5
271.267	50.35
271.483	-33.62
271.698	23.72
271.914	-37.72
272.13	44.2
272.346	48.3
272.562	-47.96
272.777	50.35
272.993	9.39
273.209	5.29
273.425	79.02
273.64	-23.38
273.856	33.96
274.072	-70.48
274.287	56.49
274.503	81.07
274.719	101.55
274.934	1.19
275.15	36.01
275.366	40.11
275.581	60.59
275.797	-7
276.012	21.67
276.228	60.59
276.444	31.91
276.659	27.82
276.875	-13.14
277.09	42.15
277.306	-27.48
277.521	113.83
277.737	5.29
277.952	87.21
278.168	1.19
278.383	60.59
278.599	-25.43
278.814	44.2
279.03	27.82
279.245	181.42
279.461	58.54
279.676	95.4
279.892	-4.95
280.107	-23.38
280.322	-4.95
280.538	21.67
280.753	36.01
280.969	62.63
281.184	5.29
281.399	36.01
281.615	19.63
281.83	89.26
282.045	-43.86
282.26	19.63
282.476	-23.38
282.691	83.11
282.906	-7
283.122	44.2
283.337	-39.76
283.552	27.82
283.767	42.15
283.983	17.58
284.198	19.63
284.413	19.63
284.628	17.58
284.843	91.31
285.058	124.07
285.274	91.31
285.489	-64.34
285.704	89.26
285.919	-33.62
286.134	3.24
286.349	-29.52
286.564	-23.38
286.779	25.77
286.995	5.29
287.21	17.58
287.425	64.68
287.64	36.01
287.855	101.55
288.07	1.19
288.285	58.54
288.5	81.07
288.715	58.54
288.93	60.59
289.145	7.34
289.36	60.59
289.575	7.34
289.79	42.15
290.004	19.63
290.219	50.35
290.434	95.4
290.649	-50
290.864	29.87
291.079	62.63
291.294	87.21
291.509	50.35
291.724	9.39
291.938	101.55
292.153	-25.43
292.368	-15.19
292.583	9.39
292.798	29.87
293.012	29.87
293.227	-41.81
293.442	11.43
293.657	68.78
293.871	74.92
294.086	7.34
294.301	109.74
294.516	66.73
294.73	85.16
294.945	-47.96
295.16	-7
295.374	76.97
295.589	42.15
295.804	91.31
296.018	-21.33
296.233	113.83
296.447	33.96
296.662	-33.62
296.877	111.78
297.091	13.48
297.306	40.11
297.52	40.11
297.735	44.2
297.949	33.96
298.164	5.29
298.378	-7
298.593	-31.57
298.807	-64.34
299.022	29.87
299.236	60.59
299.451	-47.96
299.665	38.06
299.88	-2.9
300.094	76.97
300.309	-11.09
300.523	-43.86
300.737	-23.38
300.952	29.87
301.166	66.73
301.381	25.77
301.595	7.34
301.809	-4.95
302.024	48.3
302.238	33.96
302.452	113.83
302.667	-23.38
302.881	25.77
303.095	85.16
303.309	-2.9
303.524	-7
303.738	74.92
303.952	-27.48
304.166	50.35
304.381	-58.2
304.595	21.67
304.809	72.87
305.023	-25.43
305.237	25.77
305.452	46.25
305.666	52.39
305.88	107.69
306.094	58.54
306.308	91.31
306.522	60.59
306.736	15.53
306.95	54.44
307.164	17.58
307.379	87.21
307.593	25.77
307.807	9.39
308.021	52.39
308.235	70.83
308.449	1.19
308.663	-13.14
308.877	165.03
309.091	-2.9
309.305	70.83
309.519	-31.57
309.733	48.3
309.947	-47.96
310.161	60.59
310.374	31.91
310.588	107.69
310.802	-4.95
311.016	42.15
311.23	64.68
311.444	19.63
311.658	85.16
311.872	91.31
312.085	85.16
312.299	23.72
312.513	62.63
312.727	42.15
312.941	-39.76
313.154	40.11
313.368	74.92
313.582	115.88
313.796	44.2
314.009	46.25
314.223	-13.14
314.437	23.72
314.651	38.06
314.864	23.72
315.078	66.73
315.292	1.19
315.505	3.24
315.719	17.58
315.933	87.21
316.146	-62.29
316.36	13.48
316.573	52.39
316.787	13.48
317.001	46.25
317.214	-0.85
317.428	5.29
317.641	-21.33
317.855	17.58
318.068	27.82
318.282	50.35
318.495	179.37
318.709	1.19
318.922	-9.05
319.136	140.46
319.349	74.92
319.563	13.48
319.776	103.59
319.99	-103.25
320.203	62.63
320.417	72.87
320.63	74.92
320.843	124.07
321.057	-7
321.27	38.06
321.483	-23.38
321.697	-7
321.91	54.44
322.124	25.77
322.337	99.5
322.55	101.55
322.763	29.87
322.977	25.77
323.19	-50
323.403	-17.24
323.617	38.06
323.83	62.63
324.043	56.49
324.256	42.15
324.469	21.67
324.683	76.97
324.896	56.49
325.109	-27.48
325.322	-58.2
325.535	74.92
325.748	46.25
325.962	11.43
326.175	17.58
326.388	38.06
326.601	-27.48
326.814	17.58
327.027	-17.24
327.24	109.74
327.453	-39.76
327.666	58.54
327.879	113.83
328.092	79.02
328.305	19.63
328.518	13.48
328.731	-45.91
328.944	-23.38
329.157	74.92
329.37	17.58
329.583	91.31
329.796	54.44
330.009	-7
330.222	9.39
330.435	89.26
330.648	62.63
330.861	-7
331.073	36.01
331.286	50.35
331.499	52.39
331.712	38.06
331.925	50.35
332.138	3.24
332.35	93.35
332.563	48.3
332.776	85.16
332.989	-31.57
333.202	31.91
333.414	44.2
333.627	44.2
333.84	9.39
334.053	66.73
334.265	5.29
334.478	15.53
334.691	85.16
334.903	-11.09
335.116	-15.19
335.329	-31.57
335.541	74.92
335.754	171.18
335.966	-37.72
336.179	7.34
336.392	-56.15
336.604	81.07
336.817	42.15
337.029	-7
337.242	42.15
337.454	3.24
337.667	40.11
337.88	140.46
338.092	29.87
338.305	91.31
338.517	44.2
338.729	150.7
338.942	23.72
339.154	-25.43
339.367	19.63
339.579	25.77
339.792	11.43
340.004	60.59
340.217	1.19
340.429	-2.9
340.641	68.78
340.854	-13.14
341.066	62.63
341.278	101.55
341.491	52.39
341.703	-0.85
341.915	-47.96
342.128	132.26
342.34	-2.9
342.552	42.15
342.764	33.96
342.977	1.19
343.189	44.2
343.401	29.87
343.613	-31.57
343.826	3.24
344.038	-29.52
344.25	-29.52
344.462	-2.9
344.674	19.63
344.886	-13.14
345.099	46.25
345.311	66.73
345.523	-13.14
345.735	-7
345.947	17.58
346.159	13.48
346.371	58.54
346.583	19.63
346.795	171.18
347.007	66.73
347.219	60.59
347.431	27.82
347.643	107.69
347.855	42.15
348.067	19.63
348.279	-7
348.491	7.34
348.703	76.97
348.915	38.06
349.127	38.06
349.339	44.2
349.551	-7
349.763	68.78
349.975	-13.14
350.187	97.45
350.399	64.68
350.61	25.77
350.822	93.35
351.034	36.01
351.246	-17.24
351.458	25.77
351.669	64.68
351.881	17.58
352.093	21.67
352.305	95.4
352.517	48.3
352.728	-27.48
352.94	-41.81
353.152	27.82
353.363	58.54
353.575	11.43
353.787	52.39
353.999	33.96
354.21	89.26
354.422	-35.67
354.633	-25.43
354.845	58.54
355.057	38.06
355.268	19.63
355.48	119.98
355.692	-23.38
355.903	25.77
356.115	9.39
356.326	-47.96
356.538	97.45
356.749	56.49
356.961	17.58
357.172	7.34
357.384	48.3
357.595	124.07
357.807	5.29
358.018	3.24
358.23	-33.62
358.441	117.93
358.653	-31.57
358.864	19.63
359.075	-56.15
359.287	72.87
359.498	33.96
359.709	109.74
359.921	23.72
360.132	11.43
360.344	58.54
360.555	50.35
360.766	109.74
360.977	72.87
361.189	113.83
361.4	17.58
361.611	64.68
361.823	79.02
362.034	42.15
362.245	-4.95
362.456	42.15
362.667	27.82
362.879	31.91
363.09	36.01
363.301	-11.09
363.512	9.39
363.723	9.39
363.935	40.11
364.146	66.73
364.357	62.63
364.568	21.67
364.779	9.39
364.99	165.03
365.201	25.77
365.412	101.55
365.623	-0.85
365.834	9.39
366.045	9.39
366.256	66.73
366.467	107.69
366.678	-15.19
366.889	42.15
367.1	50.35
367.311	146.6
367.522	15.53
367.733	58.54
367.944	66.73
368.155	29.87
368.366	66.73
368.577	66.73
368.788	105.64
368.999	-39.76
369.209	42.15
369.42	160.94
369.631	93.35
369.842	87.21
370.053	66.73
370.264	44.2
370.474	76.97
370.685	17.58
370.896	13.48
371.107	56.49
371.317	50.35
371.528	60.59
371.739	27.82
371.95	38.06
372.16	70.83
372.371	-4.95
372.582	9.39
372.792	42.15
373.003	-0.85
373.214	15.53
373.424	97.45
373.635	33.96
373.846	79.02
374.056	54.44
374.267	83.11
374.477	-37.72
374.688	-2.9
374.898	54.44
375.109	50.35
375.319	-2.9
375.53	117.93
375.74	58.54
375.951	21.67
376.161	42.15
376.372	105.64
376.582	50.35
376.793	44.2
377.003	29.87
377.214	50.35
377.424	60.59
377.635	19.63
377.845	25.77
378.055	117.93
378.266	62.63
378.476	36.01
378.686	66.73
378.897	42.15
379.107	44.2
379.317	93.35
379.528	46.25
379.738	79.02
379.948	-15.19
380.158	50.35
380.369	64.68
380.579	27.82
380.789	46.25
380.999	54.44
381.21	126.12
381.42	85.16
381.63	-35.67
381.84	117.93
382.05	40.11
382.261	58.54
382.471	79.02
382.681	50.35
382.891	79.02
383.101	46.25
383.311	68.78
383.521	-27.48
383.731	-54.1
383.941	109.74
384.151	-4.95
384.361	38.06
384.571	66.73
384.781	5.29
384.991	99.5
385.201	54.44
385.411	101.55
385.621	91.31
385.831	-23.38
386.041	3.24
386.251	62.63
386.461	85.16
386.671	-13.14
386.881	91.31
387.091	15.53
387.301	109.74
387.511	-7
387.72	99.5
387.93	52.39
388.14	40.11
388.35	52.39
388.56	31.91
388.769	134.31
388.979	-7
389.189	44.2
389.399	7.34
389.609	-4.95
389.818	29.87
390.028	46.25
390.238	93.35
390.447	25.77
390.657	70.83
390.867	9.39
391.076	42.15
391.286	99.5
391.496	33.96
391.705	54.44
391.915	44.2
392.125	128.17
392.334	111.78
392.544	101.55
392.753	72.87
392.963	-47.96
393.172	29.87
393.382	58.54
393.591	68.78
393.801	66.73
394.01	128.17
394.22	101.55
394.429	140.46
394.639	54.44
394.848	99.5
395.058	99.5
395.267	50.35
395.477	62.63
395.686	31.91
395.895	181.42
396.105	124.07
396.314	101.55
396.524	93.35
396.733	44.2
396.942	101.55
397.152	60.59
397.361	119.98
397.57	21.67
397.78	13.48
397.989	117.93
398.198	205.99
398.407	54.44
398.617	68.78
398.826	74.92
399.035	58.54
399.244	150.7
399.453	148.65
399.663	72.87
399.872	156.84
400.081	87.21
400.29	79.02
400.499	-13.14
400.708	66.73
400.917	27.82
401.127	72.87
401.336	91.31
401.545	158.89
401.754	158.89
401.963	60.59
402.172	124.07
402.381	103.59
402.59	17.58
402.799	62.63
403.008	175.27
403.217	97.45
403.426	40.11
403.635	54.44
403.844	60.59
404.053	91.31
404.262	91.31
404.471	85.16
404.68	130.22
404.888	103.59
405.097	148.65
405.306	214.18
405.515	242.85
405.724	109.74
405.933	183.46
406.142	187.56
406.35	222.38
406.559	226.47
406.768	142.5
406.977	197.8
407.185	193.7
407.394	162.98
407.603	76.97
407.812	152.74
408.02	191.66
408.229	226.47
408.438	208.04
408.646	179.37
408.855	222.38
409.064	216.23
409.272	160.94
409.481	171.18
409.69	191.66
409.898	220.33
410.107	326.82
410.315	310.44
410.524	255.14
410.733	255.14
410.941	302.25
411.15	373.92
411.358	308.39
411.567	378.02
411.775	339.11
411.984	314.53
412.192	398.5
412.401	337.06
412.609	443.56
412.818	402.6
413.026	369.83
413.234	443.56
413.443	472.23
413.651	429.22
413.86	515.23
414.068	576.67
414.276	566.43
414.485	488.61
414.693	513.19
414.901	586.91
415.11	674.98
415.318	584.87
415.526	631.97
415.734	775.33
415.943	674.98
416.151	636.06
416.359	615.59
416.567	672.93
416.776	699.55
416.984	787.61
417.192	902.3
417.4	781.47
417.608	801.95
417.817	857.25
418.025	969.88
418.233	1033.37
418.441	896.16
418.649	1029.27
418.857	1076.38
419.065	1148.06
419.273	1068.19
419.481	1123.48
419.689	1168.54
419.897	1281.18
420.105	1203.35
420.313	1410.2
420.521	1254.55
420.729	1440.92
420.937	1383.57
421.145	1387.67
421.353	1629.33
421.561	1643.67
421.769	1553.55
421.977	1621.14
422.185	1748.11
422.393	1852.56
422.601	1926.29
422.809	1901.71
423.017	1934.48
423.224	2008.2
423.432	2122.89
423.64	2012.3
423.848	2368.65
424.056	2131.08
424.263	2421.89
424.471	2446.47
424.679	2518.15
424.887	2659.46
425.094	2753.66
425.302	2679.94
425.51	2837.63
425.718	2964.61
425.925	2899.07
426.133	2784.38
426.341	3155.07
426.548	3259.51
426.756	3267.7
426.964	3327.1
427.171	3439.73
427.379	3630.2
427.586	3724.4
427.794	3656.82
428.001	3978.35
428.209	4273.26
428.417	4084.84
428.624	4387.94
428.832	4478.05
429.039	4330.6
429.247	4316.26
429.454	4867.17
429.662	5117.02
429.869	4770.91
430.076	5162.08
430.284	4750.43
430.491	5211.23
430.699	5489.75
430.906	5358.68
431.114	5571.67
431.321	5798.99
431.528	5909.58
431.736	6171.72
431.943	6573.13
432.15	6335.56
432.358	6597.7
432.565	6812.74
432.772	6759.49
432.979	7027.78
433.187	7326.78
433.394	7212.09
433.601	7715.89
433.808	7740.47
434.016	7783.48
434.223	8152.11
434.43	8395.82
434.637	8352.81
434.844	8819.75
435.052	9083.94
435.259	9124.9
435.466	9004.07
435.673	9012.26
435.88	9638.94
436.087	9950.23
436.294	10034.19
436.501	9839.64
436.708	10292.24
436.915	10314.77
437.122	10939.4
437.329	10581
437.537	11131.9
437.743	11379.71
437.95	11179.01
438.157	11889.65
438.364	12289.01
438.571	12258.29
438.778	12254.19
438.985	13589.47
439.192	12940.26
439.399	13366.24
439.606	13169.63
439.813	13888.47
440.02	14848.97
440.227	14320.59
440.433	14162.9
440.64	14707.66
440.847	14449.61
441.054	14996.42
441.261	16116.66
441.467	15940.54
441.674	15868.86
441.881	16837.55
442.088	16655.28
442.294	16530.35
442.501	16931.75
442.708	17445.79
442.914	18187.16
443.121	18973.58
443.328	18297.75
443.534	19549.06
443.741	18967.43
443.948	18611.09
444.154	19975.03
444.361	20243.32
444.568	20128.63
444.774	20261.75
444.981	20251.51
445.187	21257.06
445.394	22012.76
445.6	21697.38
445.807	23835.45
446.013	22545.23
446.22	23003.98
446.426	24058.68
446.633	24191.8
446.839	24978.22
447.046	24025.92
447.252	25570.08
447.459	25393.96
447.665	25174.83
447.871	26628.88
448.078	27699.97
448.284	26321.69
448.491	26944.27
448.697	28152.57
448.903	28717.81
449.11	28736.24
449.316	27923.2
449.522	28926.71
449.728	29776.61
449.935	29715.17
450.141	29977.31
450.347	30493.4
450.553	29743.84
450.76	29858.53
450.966	30599.9
451.172	30464.73
451.378	31296.21
451.584	31056.59
451.791	31644.36
451.997	31619.78
452.203	32094.91
452.409	32117.44
452.615	32053.95
452.821	30784.21
453.027	30630.62
453.233	32453.31
453.44	30767.83
453.646	31290.06
453.852	31419.08
454.058	31795.91
454.264	30943.95
454.47	31660.74
454.676	30806.74
454.882	31980.23
455.088	29158.13
455.294	29614.82
455.5	30196.45
455.705	31032.02
455.911	29106.93
456.117	28693.24
456.323	28369.66
456.529	26714.9
456.735	28109.57
456.941	27568.9
457.147	27179.79
457.352	26116.89
457.558	25699.11
457.764	26200.86
457.97	25606.95
458.176	24890.16
458.381	24632.11
458.587	23483.2
458.793	23601.99
458.999	22612.82
459.204	24175.42
459.41	23270.22
459.616	21910.36
459.821	22031.19
460.027	21678.94
460.233	21173.1
460.438	20327.28
460.644	20652.91
460.85	19524.48
461.055	19108.74
461.261	18957.19
461.466	17730.46
461.672	17251.24
461.878	18482.06
462.083	17292.19
462.289	17019.81
462.494	16999.34
462.7	15969.21
462.905	15631.29
463.111	16319.41
463.316	16430
463.522	15700.92
463.727	15805.37
463.932	15926.2
464.138	15809.47
464.343	15653.82
464.549	15164.36
464.754	15754.17
464.959	15698.88
465.165	15565.76
465.37	14689.23
465.575	14525.39
465.781	14982.09
465.986	15303.62
466.191	14640.08
466.397	14177.23
466.602	13601.76
466.807	14128.08
467.012	14128.08
467.218	14019.54
467.423	13943.77
467.628	14087.12
467.833	14658.51
