Data from USB4F104151__91__13-06-25-157.txt Node

Date: Fri Mar 14 13:06:25 EDT 2025
User: louis
Spectrometer: USB4F10415
Trigger mode: 4
Integration Time (sec): 4.000000E-2
Scans to average: 1
Electric dark correction enabled: true
Nonlinearity correction enabled: false
Boxcar width: 0
XAxis mode: Wavelengths
Number of Pixels in Spectrum: 3648
>>>>>Begin Spectral Data<<<<<
178.204	-161.79
178.424	-161.79
178.644	-161.79
178.864	-129.02
179.084	-194.56
179.304	-24.58
179.524	12.29
179.744	-0
179.964	51.2
180.184	53.25
180.404	-40.96
180.624	-43.01
180.844	-18.43
181.064	-30.72
181.283	-4.1
181.503	-10.24
181.723	55.3
181.943	-26.62
182.163	88.06
182.383	-16.38
182.602	-0
182.822	36.86
183.042	53.25
183.262	-0
183.482	40.96
183.701	-10.24
183.921	32.77
184.141	34.82
184.361	88.06
184.58	102.4
184.8	129.02
185.02	6.14
185.239	53.25
185.459	61.44
185.679	106.49
185.898	-24.58
186.118	100.35
186.338	61.44
186.557	49.15
186.777	36.86
186.997	53.25
187.216	-30.72
187.436	131.07
187.655	104.45
187.875	59.39
188.095	43.01
188.314	79.87
188.534	20.48
188.753	-10.24
188.973	94.21
189.192	47.1
189.412	47.1
189.631	43.01
189.851	38.91
190.07	133.12
190.29	67.58
190.509	-8.19
190.729	2.05
190.948	47.1
191.168	196.6
191.387	47.1
191.607	14.34
191.826	61.44
192.045	53.25
192.265	30.72
192.484	71.68
192.704	-10.24
192.923	-0
193.142	86.01
193.362	24.58
193.581	167.93
193.8	114.69
194.02	83.97
194.239	67.58
194.458	36.86
194.678	81.92
194.897	10.24
195.116	40.96
195.335	32.77
195.555	79.87
195.774	38.91
195.993	20.48
196.212	6.14
196.432	-12.29
196.651	24.58
196.87	49.15
197.089	114.69
197.308	147.45
197.528	129.02
197.747	-57.34
197.966	4.1
198.185	90.11
198.404	-6.14
198.623	51.2
198.842	96.25
199.062	120.83
199.281	100.35
199.5	65.53
199.719	57.34
199.938	69.63
200.157	106.49
200.376	40.96
200.595	63.49
200.814	14.34
201.033	98.3
201.252	59.39
201.471	34.82
201.69	100.35
201.909	83.97
202.128	53.25
202.347	65.53
202.566	51.2
202.785	71.68
203.004	34.82
203.223	106.49
203.442	30.72
203.661	-43.01
203.879	65.53
204.098	8.19
204.317	12.29
204.536	104.45
204.755	90.11
204.974	34.82
205.193	8.19
205.411	153.6
205.63	43.01
205.849	-0
206.068	38.91
206.287	71.68
206.505	139.26
206.724	53.25
206.943	79.87
207.162	22.53
207.381	90.11
207.599	106.49
207.818	77.82
208.037	38.91
208.255	90.11
208.474	133.12
208.693	-30.72
208.911	40.96
209.13	106.49
209.349	51.2
209.567	139.26
209.786	61.44
210.005	79.87
210.223	8.19
210.442	-61.44
210.661	86.01
210.879	-34.82
211.098	26.62
211.316	-2.05
211.535	59.39
211.753	63.49
211.972	153.6
212.191	-40.96
212.409	69.63
212.628	22.53
212.846	-18.43
213.065	8.19
213.283	126.97
213.502	40.96
213.72	-43.01
213.938	2.05
214.157	-18.43
214.375	92.16
214.594	71.68
214.812	88.06
215.031	79.87
215.249	100.35
215.467	79.87
215.686	14.34
215.904	65.53
216.122	51.2
216.341	114.69
216.559	43.01
216.778	94.21
216.996	55.3
217.214	55.3
217.432	65.53
217.651	10.24
217.869	-10.24
218.087	14.34
218.306	14.34
218.524	40.96
218.742	40.96
218.96	110.59
219.179	14.34
219.397	38.91
219.615	141.31
219.833	-32.77
220.051	-16.38
220.27	112.64
220.488	112.64
220.706	40.96
220.924	-10.24
221.142	79.87
221.36	98.3
221.578	53.25
221.796	71.68
222.015	55.3
222.233	24.58
222.451	110.59
222.669	47.1
222.887	120.83
223.105	20.48
223.323	4.1
223.541	63.49
223.759	90.11
223.977	79.87
224.195	124.93
224.413	61.44
224.631	20.48
224.849	51.2
225.067	206.84
225.285	-40.96
225.503	30.72
225.721	-55.3
225.939	38.91
226.157	-4.1
226.375	122.88
226.592	-24.58
226.81	30.72
227.028	55.3
227.246	38.91
227.464	-0
227.682	129.02
227.9	53.25
228.117	98.3
228.335	38.91
228.553	51.2
228.771	49.15
228.989	36.86
229.206	36.86
229.424	114.69
229.642	45.06
229.86	94.21
230.077	53.25
230.295	-34.82
230.513	32.77
230.731	16.38
230.948	28.67
231.166	102.4
231.384	16.38
231.601	75.77
231.819	149.5
232.037	96.25
232.254	-0
232.472	83.97
232.689	71.68
232.907	79.87
233.125	86.01
233.342	53.25
233.56	-34.82
233.777	-32.77
233.995	4.1
234.213	61.44
234.43	57.34
234.648	47.1
234.865	45.06
235.083	104.45
235.3	59.39
235.518	104.45
235.735	120.83
235.953	-38.91
236.17	-4.1
236.388	-4.1
236.605	4.1
236.822	133.12
237.04	90.11
237.257	71.68
237.475	49.15
237.692	14.34
237.909	57.34
238.127	2.05
238.344	10.24
238.562	122.88
238.779	-34.82
238.996	49.15
239.214	57.34
239.431	88.06
239.648	6.14
239.865	18.43
240.083	86.01
240.3	34.82
240.517	-40.96
240.735	86.01
240.952	43.01
241.169	-2.05
241.386	18.43
241.603	18.43
241.821	4.1
242.038	96.25
242.255	59.39
242.472	43.01
242.689	71.68
242.907	75.77
243.124	57.34
243.341	108.54
243.558	36.86
243.775	2.05
243.992	-51.2
244.209	73.73
244.426	98.3
244.643	122.88
244.86	63.49
245.078	47.1
245.295	14.34
245.512	-8.19
245.729	55.3
245.946	28.67
246.163	4.1
246.38	75.77
246.597	-53.25
246.814	81.92
247.031	88.06
247.248	55.3
247.464	34.82
247.681	55.3
247.898	112.64
248.115	88.06
248.332	-28.67
248.549	71.68
248.766	38.91
248.983	100.35
249.2	106.49
249.417	51.2
249.633	40.96
249.85	69.63
250.067	6.14
250.284	122.88
250.501	40.96
250.717	98.3
250.934	22.53
251.151	83.97
251.368	16.38
251.585	55.3
251.801	20.48
252.018	-36.86
252.235	145.41
252.451	20.48
252.668	-6.14
252.885	122.88
253.102	112.64
253.318	47.1
253.535	73.73
253.752	112.64
253.968	49.15
254.185	-26.62
254.401	-10.24
254.618	90.11
254.835	28.67
255.051	94.21
255.268	36.86
255.484	79.87
255.701	14.34
255.917	129.02
256.134	53.25
256.351	40.96
256.567	-102.4
256.784	49.15
257	-16.38
257.217	129.02
257.433	81.92
257.65	36.86
257.866	30.72
258.082	47.1
258.299	69.63
258.515	110.59
258.732	38.91
258.948	4.1
259.165	57.34
259.381	14.34
259.597	12.29
259.814	59.39
260.03	43.01
260.246	4.1
260.463	47.1
260.679	36.86
260.895	45.06
261.112	114.69
261.328	90.11
261.544	6.14
261.761	92.16
261.977	18.43
262.193	2.05
262.409	65.53
262.626	59.39
262.842	49.15
263.058	24.58
263.274	102.4
263.49	100.35
263.707	30.72
263.923	77.82
264.139	-16.38
264.355	22.53
264.571	71.68
264.787	18.43
265.004	106.49
265.22	83.97
265.436	69.63
265.652	59.39
265.868	98.3
266.084	-28.67
266.3	40.96
266.516	-14.34
266.732	28.67
266.948	86.01
267.164	47.1
267.38	12.29
267.596	-10.24
267.812	18.43
268.028	38.91
268.244	-16.38
268.46	55.3
268.676	-43.01
268.892	135.17
269.108	77.82
269.324	57.34
269.54	-53.25
269.756	18.43
269.972	34.82
270.188	69.63
270.403	61.44
270.619	10.24
270.835	-12.29
271.051	124.93
271.267	-16.38
271.483	53.25
271.698	24.58
271.914	18.43
272.13	137.21
272.346	98.3
272.562	178.17
272.777	114.69
272.993	-10.24
273.209	28.67
273.425	49.15
273.64	47.1
273.856	55.3
274.072	73.73
274.287	-92.16
274.503	90.11
274.719	172.03
274.934	67.58
275.15	20.48
275.366	36.86
275.581	30.72
275.797	16.38
276.012	83.97
276.228	36.86
276.444	143.36
276.659	126.97
276.875	32.77
277.09	98.3
277.306	59.39
277.521	73.73
277.737	122.88
277.952	30.72
278.168	92.16
278.383	22.53
278.599	55.3
278.814	-8.19
279.03	24.58
279.245	24.58
279.461	69.63
279.676	149.5
279.892	-12.29
280.107	-43.01
280.322	8.19
280.538	98.3
280.753	-4.1
280.969	110.59
281.184	45.06
281.399	53.25
281.615	73.73
281.83	59.39
282.045	20.48
282.26	18.43
282.476	75.77
282.691	67.58
282.906	143.36
283.122	57.34
283.337	51.2
283.552	-2.05
283.767	51.2
283.983	100.35
284.198	-6.14
284.413	22.53
284.628	47.1
284.843	36.86
285.058	116.73
285.274	51.2
285.489	12.29
285.704	90.11
285.919	6.14
286.134	32.77
286.349	10.24
286.564	36.86
286.779	77.82
286.995	6.14
287.21	-16.38
287.425	47.1
287.64	55.3
287.855	49.15
288.07	14.34
288.285	49.15
288.5	67.58
288.715	63.49
288.93	-14.34
289.145	47.1
289.36	139.26
289.575	-38.91
289.79	24.58
290.004	61.44
290.219	114.69
290.434	24.58
290.649	-2.05
290.864	38.91
291.079	104.45
291.294	96.25
291.509	98.3
291.724	106.49
291.938	30.72
292.153	10.24
292.368	2.05
292.583	83.97
292.798	100.35
293.012	14.34
293.227	28.67
293.442	69.63
293.657	24.58
293.871	90.11
294.086	104.45
294.301	163.84
294.516	88.06
294.73	83.97
294.945	40.96
295.16	79.87
295.374	77.82
295.589	12.29
295.804	20.48
296.018	38.91
296.233	79.87
296.447	65.53
296.662	20.48
296.877	59.39
297.091	40.96
297.306	20.48
297.52	65.53
297.735	79.87
297.949	14.34
298.164	43.01
298.378	43.01
298.593	55.3
298.807	79.87
299.022	83.97
299.236	106.49
299.451	45.06
299.665	2.05
299.88	32.77
300.094	79.87
300.309	12.29
300.523	6.14
300.737	-20.48
300.952	47.1
301.166	124.93
301.381	59.39
301.595	22.53
301.809	22.53
302.024	40.96
302.238	26.62
302.452	47.1
302.667	-67.58
302.881	124.93
303.095	79.87
303.309	24.58
303.524	-0
303.738	38.91
303.952	-43.01
304.166	108.54
304.381	-26.62
304.595	100.35
304.809	94.21
305.023	73.73
305.237	73.73
305.452	8.19
305.666	106.49
305.88	71.68
306.094	100.35
306.308	65.53
306.522	92.16
306.736	90.11
306.95	63.49
307.164	71.68
307.379	71.68
307.593	65.53
307.807	92.16
308.021	108.54
308.235	120.83
308.449	43.01
308.663	69.63
308.877	124.93
309.091	36.86
309.305	122.88
309.519	-53.25
309.733	141.31
309.947	45.06
310.161	65.53
310.374	71.68
310.588	178.17
310.802	43.01
311.016	24.58
311.23	61.44
311.444	-8.19
311.658	18.43
311.872	79.87
312.085	63.49
312.299	77.82
312.513	77.82
312.727	-26.62
312.941	55.3
313.154	51.2
313.368	24.58
313.582	73.73
313.796	55.3
314.009	22.53
314.223	71.68
314.437	61.44
314.651	49.15
314.864	57.34
315.078	71.68
315.292	49.15
315.505	8.19
315.719	83.97
315.933	-14.34
316.146	65.53
316.36	36.86
316.573	81.92
316.787	53.25
317.001	106.49
317.214	-8.19
317.428	71.68
317.641	79.87
317.855	49.15
318.068	151.55
318.282	45.06
318.495	65.53
318.709	43.01
318.922	8.19
319.136	88.06
319.349	118.78
319.563	30.72
319.776	86.01
319.99	-26.62
320.203	106.49
320.417	114.69
320.63	65.53
320.843	122.88
321.057	81.92
321.27	63.49
321.483	67.58
321.697	116.73
321.91	51.2
322.124	43.01
322.337	63.49
322.55	34.82
322.763	92.16
322.977	4.1
323.19	-6.14
323.403	51.2
323.617	49.15
323.83	57.34
324.043	106.49
324.256	4.1
324.469	-2.05
324.683	145.41
324.896	45.06
325.109	65.53
325.322	14.34
325.535	102.4
325.748	110.59
325.962	57.34
326.175	22.53
326.388	73.73
326.601	96.25
326.814	14.34
327.027	75.77
327.24	153.6
327.453	40.96
327.666	90.11
327.879	83.97
328.092	32.77
328.305	20.48
328.518	49.15
328.731	30.72
328.944	14.34
329.157	34.82
329.37	45.06
329.583	28.67
329.796	155.65
330.009	67.58
330.222	120.83
330.435	114.69
330.648	86.01
330.861	47.1
331.073	16.38
331.286	22.53
331.499	49.15
331.712	-10.24
331.925	47.1
332.138	104.45
332.35	106.49
332.563	-59.39
332.776	120.83
332.989	24.58
333.202	116.73
333.414	94.21
333.627	88.06
333.84	43.01
334.053	57.34
334.265	71.68
334.478	-6.14
334.691	51.2
334.903	55.3
335.116	40.96
335.329	20.48
335.541	57.34
335.754	163.84
335.966	49.15
336.179	22.53
336.392	86.01
336.604	81.92
336.817	-14.34
337.029	49.15
337.242	49.15
337.454	81.92
337.667	53.25
337.88	190.46
338.092	40.96
338.305	129.02
338.517	69.63
338.729	51.2
338.942	30.72
339.154	69.63
339.367	-18.43
339.579	83.97
339.792	-14.34
340.004	114.69
340.217	34.82
340.429	90.11
340.641	-16.38
340.854	16.38
341.066	-16.38
341.278	47.1
341.491	135.17
341.703	30.72
341.915	-20.48
342.128	47.1
342.34	137.21
342.552	98.3
342.764	108.54
342.977	22.53
343.189	38.91
343.401	8.19
343.613	-32.77
343.826	139.26
344.038	-22.53
344.25	38.91
344.462	106.49
344.674	32.77
344.886	-18.43
345.099	47.1
345.311	67.58
345.523	96.25
345.735	-24.58
345.947	-0
346.159	83.97
346.371	65.53
346.583	-10.24
346.795	153.6
347.007	22.53
347.219	108.54
347.431	81.92
347.643	110.59
347.855	10.24
348.067	79.87
348.279	22.53
348.491	49.15
348.703	151.55
348.915	34.82
349.127	36.86
349.339	10.24
349.551	73.73
349.763	92.16
349.975	51.2
350.187	102.4
350.399	104.45
350.61	69.63
350.822	-2.05
351.034	47.1
351.246	63.49
351.458	122.88
351.669	55.3
351.881	129.02
352.093	73.73
352.305	139.26
352.517	43.01
352.728	116.73
352.94	100.35
353.152	104.45
353.363	-24.58
353.575	51.2
353.787	79.87
353.999	51.2
354.21	159.74
354.422	26.62
354.633	67.58
354.845	135.17
355.057	133.12
355.268	45.06
355.48	100.35
355.692	51.2
355.903	55.3
356.115	8.19
356.326	-32.77
356.538	120.83
356.749	120.83
356.961	137.21
357.172	120.83
357.384	65.53
357.595	120.83
357.807	71.68
358.018	96.25
358.23	67.58
358.441	96.25
358.653	98.3
358.864	116.73
359.075	26.62
359.287	57.34
359.498	120.83
359.709	67.58
359.921	-0
360.132	57.34
360.344	86.01
360.555	12.29
360.766	55.3
360.977	40.96
361.189	131.07
361.4	63.49
361.611	83.97
361.823	96.25
362.034	47.1
362.245	69.63
362.456	49.15
362.667	55.3
362.879	-38.91
363.09	-22.53
363.301	98.3
363.512	67.58
363.723	8.19
363.935	38.91
364.146	16.38
364.357	-4.1
364.568	63.49
364.779	8.19
364.99	53.25
365.201	55.3
365.412	65.53
365.623	-30.72
365.834	83.97
366.045	61.44
366.256	137.21
366.467	88.06
366.678	67.58
366.889	73.73
367.1	79.87
367.311	90.11
367.522	30.72
367.733	137.21
367.944	69.63
368.155	12.29
368.366	96.25
368.577	116.73
368.788	22.53
368.999	24.58
369.209	86.01
369.42	106.49
369.631	188.41
369.842	124.93
370.053	36.86
370.264	57.34
370.474	-43.01
370.685	45.06
370.896	83.97
371.107	129.02
371.317	106.49
371.528	104.45
371.739	98.3
371.95	96.25
372.16	71.68
372.371	81.92
372.582	14.34
372.792	92.16
373.003	108.54
373.214	96.25
373.424	63.49
373.635	30.72
373.846	90.11
374.056	88.06
374.267	57.34
374.477	65.53
374.688	55.3
374.898	112.64
375.109	106.49
375.319	79.87
375.53	129.02
375.74	55.3
375.951	83.97
376.161	34.82
376.372	108.54
376.582	86.01
376.793	167.93
377.003	51.2
377.214	47.1
377.424	51.2
377.635	98.3
377.845	53.25
378.055	155.65
378.266	18.43
378.476	75.77
378.686	38.91
378.897	59.39
379.107	67.58
379.317	69.63
379.528	49.15
379.738	51.2
379.948	59.39
380.158	53.25
380.369	69.63
380.579	43.01
380.789	161.79
380.999	6.14
381.21	104.45
381.42	55.3
381.63	102.4
381.84	104.45
382.05	116.73
382.261	73.73
382.471	114.69
382.681	63.49
382.891	83.97
383.101	65.53
383.311	75.77
383.521	145.41
383.731	34.82
383.941	133.12
384.151	51.2
384.361	36.86
384.571	63.49
384.781	63.49
384.991	63.49
385.201	137.21
385.411	112.64
385.621	129.02
385.831	116.73
386.041	55.3
386.251	28.67
386.461	126.97
386.671	47.1
386.881	98.3
387.091	59.39
387.301	65.53
387.511	55.3
387.72	92.16
387.93	124.93
388.14	69.63
388.35	26.62
388.56	88.06
388.769	145.41
388.979	106.49
389.189	57.34
389.399	112.64
389.609	96.25
389.818	65.53
390.028	53.25
390.238	77.82
390.447	86.01
390.657	6.14
390.867	63.49
391.076	53.25
391.286	129.02
391.496	96.25
391.705	73.73
391.915	83.97
392.125	206.84
392.334	-2.05
392.544	137.21
392.753	10.24
392.963	18.43
393.172	100.35
393.382	102.4
393.591	188.41
393.801	24.58
394.01	118.78
394.22	169.98
394.429	92.16
394.639	22.53
394.848	163.84
395.058	106.49
395.267	32.77
395.477	71.68
395.686	45.06
395.895	186.37
396.105	161.79
396.314	116.73
396.524	110.59
396.733	47.1
396.942	180.22
397.152	155.65
397.361	188.41
397.57	129.02
397.78	106.49
397.989	96.25
398.198	219.13
398.407	90.11
398.617	96.25
398.826	79.87
399.035	172.03
399.244	114.69
399.453	92.16
399.663	120.83
399.872	135.17
400.081	135.17
400.29	198.65
400.499	65.53
400.708	143.36
400.917	157.69
401.127	90.11
401.336	126.97
401.545	157.69
401.754	165.89
401.963	153.6
402.172	149.5
402.381	120.83
402.59	167.93
402.799	137.21
403.008	182.27
403.217	227.32
403.426	200.7
403.635	100.35
403.844	157.69
404.053	202.75
404.262	194.56
404.471	227.32
404.68	247.8
404.888	155.65
405.097	137.21
405.306	153.6
405.515	145.41
405.724	165.89
405.933	198.65
406.142	202.75
406.35	210.94
406.559	165.89
406.768	149.5
406.977	290.81
407.185	223.23
407.394	245.76
407.603	141.31
407.812	237.56
408.02	288.76
408.229	282.62
408.438	227.32
408.646	198.65
408.855	264.19
409.064	274.43
409.272	292.86
409.481	368.63
409.69	256
409.898	317.44
410.107	493.56
410.315	378.87
410.524	397.31
410.733	366.59
410.941	452.6
411.15	407.55
411.358	485.37
411.567	450.55
411.775	428.03
411.984	477.18
412.192	548.86
412.401	456.7
412.609	600.05
412.818	598.01
413.026	610.29
413.234	587.77
413.443	559.1
413.651	542.71
413.86	628.73
414.068	784.37
414.276	827.38
414.485	604.15
414.693	761.84
414.901	804.85
415.11	862.19
415.318	815.09
415.526	876.53
415.734	847.86
415.943	772.08
416.151	1017.84
416.359	890.87
416.567	1083.38
416.776	1015.79
416.984	1083.38
417.192	1126.38
417.4	1169.39
417.608	1083.38
417.817	993.26
418.025	1206.25
418.233	1302.51
418.441	1255.4
418.649	1292.27
418.857	1476.59
419.065	1497.07
419.273	1372.14
419.481	1548.26
419.689	1554.41
419.897	1689.57
420.105	1652.71
420.313	1755.11
420.521	1841.12
420.729	1742.82
420.937	1892.32
421.145	1929.19
421.353	2029.54
421.561	2164.7
421.769	2111.46
421.977	2246.62
422.185	2312.16
422.393	2420.7
422.601	2535.39
422.809	2514.91
423.017	2699.22
423.224	2672.6
423.432	2760.66
423.64	2717.65
423.848	2961.36
424.056	3080.14
424.263	3155.92
424.471	3190.74
424.679	3184.59
424.887	3446.73
425.094	3495.88
425.302	3373
425.51	3733.45
425.718	3774.41
425.925	3745.73
426.133	3852.23
426.341	4243.39
426.548	4300.73
426.756	4284.35
426.964	4454.33
427.171	4636.6
427.379	4722.62
427.586	4767.67
427.794	5033.91
428.001	5199.79
428.209	5408.69
428.417	5375.92
428.624	5777.32
428.832	5818.28
429.039	5805.99
429.247	5664.68
429.454	6305.7
429.662	6614.94
429.869	6238.11
430.076	6887.32
430.284	6512.54
430.491	6758.3
430.699	7126.93
430.906	7255.95
431.114	7305.1
431.321	7571.34
431.528	7772.04
431.736	8036.23
431.943	8429.44
432.15	8222.59
432.358	8435.58
432.565	8888.18
432.772	8853.37
432.979	9215.86
433.187	9475.95
433.394	9355.12
433.601	10129.25
433.808	10319.71
434.016	10143.59
434.223	10606.43
434.43	11302.74
434.637	11220.82
434.844	11564.88
435.052	11978.57
435.259	11724.62
435.466	12089.16
435.673	11677.52
435.88	12676.93
436.087	13383.48
436.294	13301.56
436.501	13051.7
436.708	13524.79
436.915	13645.62
437.122	14260.01
437.329	14524.19
437.537	14786.33
437.743	14997.28
437.95	14866.21
438.157	15499.03
438.364	16178.95
438.571	16213.77
438.778	16170.76
438.985	17782.51
439.192	17055.48
439.399	17608.44
439.606	17256.18
439.813	18245.35
440.02	19398.36
440.227	18951.9
440.433	18685.67
440.64	19310.3
440.847	19392.22
441.054	19672.79
441.261	21288.64
441.467	20883.14
441.674	20989.63
441.881	21929.65
442.088	21794.48
442.294	21847.73
442.501	22124.21
442.708	22961.83
442.914	23586.46
443.121	24626.82
443.328	24233.61
443.534	25882.23
443.741	25106.05
443.948	24784.52
444.154	26482.28
444.361	26494.57
444.568	26472.04
444.774	26365.55
444.981	26822.25
445.187	27549.28
445.394	28964.42
445.6	28352.08
445.807	31378.98
446.013	29851.19
446.22	30111.28
446.426	31483.42
446.633	31962.65
446.839	33050.12
447.046	31460.9
447.252	33261.06
447.459	33482.24
447.665	33318.4
447.871	34692.59
448.078	36347.35
448.284	34541.04
448.491	35366.37
448.697	37148.11
448.903	37670.34
449.11	37811.65
449.316	37111.24
449.522	37563.84
449.728	38706.61
449.935	39079.34
450.141	39390.63
450.347	40332.7
450.553	38864.3
450.76	39644.58
450.966	40691.09
451.172	40398.23
451.378	41086.35
451.584	40705.43
451.791	41457.03
451.997	41510.28
452.203	41969.02
452.409	41942.4
452.615	41821.57
452.821	40091.04
453.027	40119.71
453.233	42577.27
453.44	40611.22
453.646	41221.51
453.852	41557.38
454.058	42132.86
454.264	40289.69
454.47	41469.32
454.676	40674.71
454.882	42038.65
455.088	38563.25
455.294	39204.27
455.5	39437.73
455.705	40285.59
455.911	38661.55
456.117	37752.26
456.323	37131.72
456.529	35427.81
456.735	36941.26
456.941	35913.18
457.147	35597.79
457.352	34555.38
457.558	34235.89
457.764	34067.96
457.97	33457.67
458.176	32716.3
458.381	32921.1
458.587	31409.7
458.793	31303.2
458.999	29781.56
459.204	31796.76
459.41	30807.59
459.616	29023.81
459.821	29038.15
460.027	28733
460.233	28143.19
460.438	26918.5
460.644	27051.62
460.85	25652.86
461.055	25575.03
461.261	25257.6
461.466	23262.88
461.672	22787.75
461.878	24370.83
462.083	22847.14
462.289	22357.67
462.494	22304.43
462.7	21266.11
462.905	20864.71
463.111	21249.72
463.316	21391.03
463.522	21073.6
463.727	20954.82
463.932	20897.47
464.138	20405.96
464.343	20807.36
464.549	20221.64
464.754	20823.75
464.959	20668.1
465.165	20422.34
465.37	19721.94
465.575	19146.46
465.781	19730.13
465.986	19863.25
466.191	19248.86
466.397	18880.22
466.602	17954.54
