Data from USB4F104151__25__11-51-29-189.txt Node

Date: Fri Mar 14 11:51:29 EDT 2025
User: louis
Spectrometer: USB4F10415
Trigger mode: 4
Integration Time (sec): 2.000000E-2
Scans to average: 1
Electric dark correction enabled: true
Nonlinearity correction enabled: false
Boxcar width: 0
XAxis mode: Wavelengths
Number of Pixels in Spectrum: 3648
>>>>>Begin Spectral Data<<<<<
178.204	-44.88
178.424	-44.88
178.644	-44.88
178.864	-18.26
179.084	-44.88
179.304	73.9
179.524	-14.17
179.744	0.17
179.964	28.84
180.184	-32.6
180.404	-40.79
180.624	-28.5
180.844	0.17
181.064	-30.55
181.283	65.71
181.503	-16.21
181.723	-5.97
181.943	14.51
182.163	61.61
182.383	-40.79
182.602	77.99
182.822	45.23
183.042	102.57
183.262	-24.4
183.482	0.17
183.701	-18.26
183.921	94.38
184.141	-16.21
184.361	30.89
184.58	57.51
184.8	86.19
185.02	43.18
185.239	22.7
185.459	67.75
185.679	32.94
185.898	-36.69
186.118	22.7
186.338	-10.07
186.557	14.51
186.777	73.9
186.997	4.27
187.216	57.51
187.436	77.99
187.655	59.56
187.875	114.86
188.095	43.18
188.314	43.18
188.534	141.48
188.753	4.27
188.973	2.22
189.192	73.9
189.412	10.41
189.631	77.99
189.851	57.51
190.07	2.22
190.29	0.17
190.509	90.28
190.729	41.13
190.948	75.95
191.168	116.9
191.387	12.46
191.607	0.17
191.826	24.75
192.045	26.79
192.265	67.75
192.484	8.36
192.704	24.75
192.923	55.47
193.142	32.94
193.362	24.75
193.581	51.37
193.8	75.95
194.02	6.31
194.239	55.47
194.458	43.18
194.678	-42.84
194.897	32.94
195.116	94.38
195.335	106.67
195.555	77.99
195.774	65.71
195.993	65.71
196.212	-8.02
196.432	-67.41
196.651	45.23
196.87	20.65
197.089	59.56
197.308	22.7
197.528	77.99
197.747	37.03
197.966	18.6
198.185	51.37
198.404	-16.21
198.623	45.23
198.842	10.41
199.062	-14.17
199.281	82.09
199.5	41.13
199.719	84.14
199.938	8.36
200.157	63.66
200.376	-1.88
200.595	45.23
200.814	4.27
201.033	39.08
201.252	49.32
201.471	-26.45
201.69	75.95
201.909	28.84
202.128	39.08
202.347	30.89
202.566	28.84
202.785	-20.31
203.004	-3.93
203.223	88.23
203.442	98.47
203.661	-42.84
203.879	2.22
204.098	65.71
204.317	30.89
204.536	61.61
204.755	22.7
204.974	12.46
205.193	49.32
205.411	67.75
205.63	71.85
205.849	10.41
206.068	55.47
206.287	71.85
206.505	-8.02
206.724	28.84
206.943	80.04
207.162	4.27
207.381	6.31
207.599	18.6
207.818	22.7
208.037	39.08
208.255	32.94
208.474	86.19
208.693	106.67
208.911	32.94
209.13	20.65
209.349	73.9
209.567	53.42
209.786	61.61
210.005	-18.26
210.223	2.22
210.442	-12.12
210.661	6.31
210.879	20.65
211.098	-69.46
211.316	65.71
211.535	43.18
211.753	37.03
211.972	39.08
212.191	-14.17
212.409	53.42
212.628	80.04
212.846	-38.74
213.065	47.27
213.283	75.95
213.502	-48.98
213.72	6.31
213.938	71.85
214.157	47.27
214.375	71.85
214.594	98.47
214.812	28.84
215.031	47.27
215.249	26.79
215.467	51.37
215.686	24.75
215.904	22.7
216.122	-14.17
216.341	18.6
216.559	-18.26
216.778	96.43
216.996	102.57
217.214	61.61
217.432	34.99
217.651	53.42
217.869	59.56
218.087	34.99
218.306	43.18
218.524	39.08
218.742	84.14
218.96	10.41
219.179	-48.98
219.397	22.7
219.615	51.37
219.833	6.31
220.051	-42.84
220.27	-20.31
220.488	28.84
220.706	125.1
220.924	14.51
221.142	86.19
221.36	73.9
221.578	8.36
221.796	37.03
222.015	53.42
222.233	-59.22
222.451	82.09
222.669	-40.79
222.887	32.94
223.105	-57.17
223.323	16.55
223.541	-1.88
223.759	49.32
223.977	8.36
224.195	59.56
224.413	61.61
224.631	108.71
224.849	16.55
225.067	20.65
225.285	20.65
225.503	53.42
225.721	-16.21
225.939	10.41
226.157	-5.97
226.375	98.47
226.592	22.7
226.81	30.89
227.028	10.41
227.246	43.18
227.464	-24.4
227.682	53.42
227.9	80.04
228.117	41.13
228.335	55.47
228.553	22.7
228.771	41.13
228.989	45.23
229.206	65.71
229.424	88.23
229.642	-30.55
229.86	12.46
230.077	37.03
230.295	22.7
230.513	10.41
230.731	43.18
230.948	32.94
231.166	22.7
231.384	65.71
231.601	43.18
231.819	57.51
232.037	77.99
232.254	-34.64
232.472	-48.98
232.689	26.79
232.907	75.95
233.125	71.85
233.342	26.79
233.56	-18.26
233.777	14.51
233.995	-12.12
234.213	16.55
234.43	-1.88
234.648	14.51
234.865	57.51
235.083	26.79
235.3	53.42
235.518	14.51
235.735	-5.97
235.953	32.94
236.17	37.03
236.388	-16.21
236.605	-3.93
236.822	86.19
237.04	71.85
237.257	28.84
237.475	14.51
237.692	86.19
237.909	14.51
238.127	80.04
238.344	67.75
238.562	82.09
238.779	-8.02
238.996	-32.6
239.214	10.41
239.431	153.77
239.648	69.8
239.865	65.71
240.083	10.41
240.3	80.04
240.517	41.13
240.735	90.28
240.952	57.51
241.169	114.86
241.386	59.56
241.603	94.38
241.821	61.61
242.038	14.51
242.255	55.47
242.472	-32.6
242.689	10.41
242.907	28.84
243.124	73.9
243.341	0.17
243.558	55.47
243.775	94.38
243.992	-8.02
244.209	57.51
244.426	77.99
244.643	49.32
244.86	34.99
245.078	49.32
245.295	10.41
245.512	20.65
245.729	-18.26
245.946	92.33
246.163	61.61
246.38	65.71
246.597	26.79
246.814	22.7
247.031	67.75
247.248	43.18
247.464	4.27
247.681	32.94
247.898	75.95
248.115	69.8
248.332	65.71
248.549	100.52
248.766	80.04
248.983	-26.45
249.2	2.22
249.417	92.33
249.633	-8.02
249.85	32.94
250.067	-8.02
250.284	-22.36
250.501	6.31
250.717	0.17
250.934	-16.21
251.151	24.75
251.368	96.43
251.585	51.37
251.801	67.75
252.018	-59.22
252.235	57.51
252.451	-5.97
252.668	30.89
252.885	24.75
253.102	71.85
253.318	14.51
253.535	14.51
253.752	22.7
253.968	37.03
254.185	-40.79
254.401	18.6
254.618	24.75
254.835	69.8
255.051	-10.07
255.268	90.28
255.484	47.27
255.701	90.28
255.917	45.23
256.134	49.32
256.351	37.03
256.567	-36.69
256.784	32.94
257	-36.69
257.217	14.51
257.433	55.47
257.65	77.99
257.866	43.18
258.082	6.31
258.299	-1.88
258.515	47.27
258.732	37.03
258.948	-8.02
259.165	61.61
259.381	10.41
259.597	18.6
259.814	-10.07
260.03	-5.97
260.246	57.51
260.463	55.47
260.679	26.79
260.895	53.42
261.112	-3.93
261.328	71.85
261.544	92.33
261.761	90.28
261.977	69.8
262.193	45.23
262.409	30.89
262.626	-16.21
262.842	51.37
263.058	-3.93
263.274	57.51
263.49	-26.45
263.707	55.47
263.923	-46.93
264.139	12.46
264.355	61.61
264.571	4.27
264.787	82.09
265.004	53.42
265.22	-8.02
265.436	16.55
265.652	41.13
265.868	14.51
266.084	59.56
266.3	57.51
266.516	-3.93
266.732	47.27
266.948	-16.21
267.164	6.31
267.38	45.23
267.596	37.03
267.812	4.27
268.028	0.17
268.244	-40.79
268.46	37.03
268.676	-5.97
268.892	18.6
269.108	-91.99
269.324	30.89
269.54	-55.12
269.756	116.9
269.972	18.6
270.188	45.23
270.403	-22.36
270.619	-5.97
270.835	118.95
271.051	49.32
271.267	28.84
271.483	12.46
271.698	69.8
271.914	82.09
272.13	-5.97
272.346	4.27
272.562	20.65
272.777	104.62
272.993	-8.02
273.209	12.46
273.425	30.89
273.64	-1.88
273.856	37.03
274.072	24.75
274.287	-51.03
274.503	14.51
274.719	63.66
274.934	69.8
275.15	-14.17
275.366	67.75
275.581	-63.32
275.797	133.29
276.012	-1.88
276.228	-1.88
276.444	-28.5
276.659	39.08
276.875	59.56
277.09	16.55
277.306	22.7
277.521	39.08
277.737	6.31
277.952	34.99
278.168	116.9
278.383	6.31
278.599	53.42
278.814	8.36
279.03	28.84
279.245	67.75
279.461	12.46
279.676	30.89
279.892	84.14
280.107	73.9
280.322	-40.79
280.538	80.04
280.753	39.08
280.969	45.23
281.184	34.99
281.399	100.52
281.615	61.61
281.83	34.99
282.045	53.42
282.26	30.89
282.476	39.08
282.691	71.85
282.906	108.71
283.122	65.71
283.337	24.75
283.552	18.6
283.767	-61.27
283.983	37.03
284.198	20.65
284.413	94.38
284.628	4.27
284.843	16.55
285.058	6.31
285.274	18.6
285.489	14.51
285.704	55.47
285.919	47.27
286.134	-32.6
286.349	-46.93
286.564	-16.21
286.779	12.46
286.995	-10.07
287.21	-5.97
287.425	37.03
287.64	45.23
287.855	32.94
288.07	45.23
288.285	49.32
288.5	-79.7
288.715	106.67
288.93	6.31
289.145	8.36
289.36	-8.02
289.575	43.18
289.79	-1.88
290.004	32.94
290.219	69.8
290.434	77.99
290.649	0.17
290.864	45.23
291.079	73.9
291.294	-1.88
291.509	-24.4
291.724	6.31
291.938	47.27
292.153	2.22
292.368	43.18
292.583	61.61
292.798	8.36
293.012	104.62
293.227	45.23
293.442	45.23
293.657	49.32
293.871	-30.55
294.086	123.05
294.301	121
294.516	73.9
294.73	67.75
294.945	10.41
295.16	92.33
295.374	73.9
295.589	104.62
295.804	32.94
296.018	20.65
296.233	63.66
296.447	-3.93
296.662	16.55
296.877	98.47
297.091	63.66
297.306	12.46
297.52	39.08
297.735	114.86
297.949	32.94
298.164	-38.74
298.378	71.85
298.593	51.37
298.807	30.89
299.022	-10.07
299.236	57.51
299.451	86.19
299.665	45.23
299.88	53.42
300.094	57.51
300.309	-20.31
300.523	18.6
300.737	-3.93
300.952	51.37
301.166	55.47
301.381	-65.36
301.595	32.94
301.809	61.61
302.024	43.18
302.238	18.6
302.452	125.1
302.667	-8.02
302.881	51.37
303.095	67.75
303.309	8.36
303.524	55.47
303.738	37.03
303.952	14.51
304.166	71.85
304.381	55.47
304.595	82.09
304.809	57.51
305.023	22.7
305.237	67.75
305.452	12.46
305.666	51.37
305.88	37.03
306.094	32.94
306.308	116.9
306.522	18.6
306.736	37.03
306.95	104.62
307.164	-1.88
307.379	-12.12
307.593	92.33
307.807	8.36
308.021	51.37
308.235	49.32
308.449	8.36
308.663	12.46
308.877	12.46
309.091	47.27
309.305	96.43
309.519	4.27
309.733	49.32
309.947	32.94
310.161	47.27
310.374	61.61
310.588	65.71
310.802	-18.26
311.016	22.7
311.23	86.19
311.444	10.41
311.658	53.42
311.872	67.75
312.085	59.56
312.299	65.71
312.513	20.65
312.727	-96.08
312.941	39.08
313.154	137.38
313.368	39.08
313.582	10.41
313.796	-10.07
314.009	118.95
314.223	80.04
314.437	0.17
314.651	10.41
314.864	0.17
315.078	37.03
315.292	22.7
315.505	59.56
315.719	106.67
315.933	45.23
316.146	2.22
316.36	10.41
316.573	14.51
316.787	71.85
317.001	24.75
317.214	-20.31
317.428	14.51
317.641	12.46
317.855	24.75
318.068	55.47
318.282	37.03
318.495	59.56
318.709	39.08
318.922	0.17
319.136	22.7
319.349	49.32
319.563	-34.64
319.776	10.41
319.99	59.56
320.203	84.14
320.417	71.85
320.63	10.41
320.843	88.23
321.057	80.04
321.27	63.66
321.483	49.32
321.697	90.28
321.91	96.43
322.124	77.99
322.337	-12.12
322.55	41.13
322.763	86.19
322.977	82.09
323.19	41.13
323.403	65.71
323.617	86.19
323.83	121
324.043	41.13
324.256	-1.88
324.469	16.55
324.683	47.27
324.896	-79.7
325.109	45.23
325.322	-42.84
325.535	65.71
325.748	49.32
325.962	37.03
326.175	-71.51
326.388	49.32
326.601	55.47
326.814	59.56
327.027	41.13
327.24	47.27
327.453	-24.4
327.666	30.89
327.879	-5.97
328.092	73.9
328.305	69.8
328.518	45.23
328.731	6.31
328.944	92.33
329.157	77.99
329.37	73.9
329.583	47.27
329.796	51.37
330.009	49.32
330.222	14.51
330.435	32.94
330.648	67.75
330.861	-5.97
331.073	57.51
331.286	47.27
331.499	59.56
331.712	-53.08
331.925	37.03
332.138	-10.07
332.35	-14.17
332.563	10.41
332.776	39.08
332.989	59.56
333.202	75.95
333.414	18.6
333.627	34.99
333.84	67.75
334.053	-8.02
334.265	77.99
334.478	77.99
334.691	92.33
334.903	129.19
335.116	16.55
335.329	69.8
335.541	45.23
335.754	102.57
335.966	2.22
336.179	41.13
336.392	-14.17
336.604	86.19
336.817	49.32
337.029	71.85
337.242	45.23
337.454	43.18
337.667	45.23
337.88	84.14
338.092	61.61
338.305	34.99
338.517	41.13
338.729	129.19
338.942	32.94
339.154	65.71
339.367	51.37
339.579	104.62
339.792	20.65
340.004	22.7
340.217	34.99
340.429	0.17
340.641	43.18
340.854	0.17
341.066	37.03
341.278	-38.74
341.491	98.47
341.703	41.13
341.915	32.94
342.128	90.28
342.34	8.36
342.552	61.61
342.764	34.99
342.977	63.66
343.189	63.66
343.401	41.13
343.613	-20.31
343.826	28.84
344.038	24.75
344.25	49.32
344.462	20.65
344.674	51.37
344.886	63.66
345.099	-1.88
345.311	-3.93
345.523	-5.97
345.735	4.27
345.947	39.08
346.159	51.37
346.371	28.84
346.583	4.27
346.795	114.86
347.007	61.61
347.219	28.84
347.431	24.75
347.643	96.43
347.855	94.38
348.067	151.72
348.279	123.05
348.491	22.7
348.703	75.95
348.915	86.19
349.127	-12.12
349.339	39.08
349.551	65.71
349.763	39.08
349.975	14.51
350.187	61.61
350.399	59.56
350.61	88.23
350.822	30.89
351.034	61.61
351.246	55.47
351.458	77.99
351.669	63.66
351.881	41.13
352.093	37.03
352.305	51.37
352.517	82.09
352.728	176.3
352.94	-59.22
353.152	18.6
353.363	131.24
353.575	67.75
353.787	82.09
353.999	49.32
354.21	127.14
354.422	8.36
354.633	84.14
354.845	55.47
355.057	73.9
355.268	41.13
355.48	8.36
355.692	45.23
355.903	22.7
356.115	10.41
356.326	65.71
356.538	77.99
356.749	-16.21
356.961	51.37
357.172	22.7
357.384	88.23
357.595	32.94
357.807	20.65
358.018	94.38
358.23	80.04
358.441	82.09
358.653	22.7
358.864	24.75
359.075	28.84
359.287	-8.02
359.498	39.08
359.709	37.03
359.921	20.65
360.132	114.86
360.344	49.32
360.555	61.61
360.766	0.17
360.977	-8.02
361.189	67.75
361.4	45.23
361.611	55.47
361.823	63.66
362.034	61.61
362.245	53.42
362.456	69.8
362.667	57.51
362.879	80.04
363.09	37.03
363.301	123.05
363.512	34.99
363.723	-44.88
363.935	49.32
364.146	65.71
364.357	14.51
364.568	112.81
364.779	-8.02
364.99	41.13
365.201	24.75
365.412	104.62
365.623	-16.21
365.834	71.85
366.045	94.38
366.256	28.84
366.467	18.6
366.678	32.94
366.889	32.94
367.1	26.79
367.311	65.71
367.522	67.75
367.733	63.66
367.944	82.09
368.155	24.75
368.366	67.75
368.577	43.18
368.788	100.52
368.999	80.04
369.209	34.99
369.42	34.99
369.631	59.56
369.842	82.09
370.053	32.94
370.264	104.62
370.474	30.89
370.685	28.84
370.896	100.52
371.107	84.14
371.317	37.03
371.528	86.19
371.739	65.71
371.95	80.04
372.16	-1.88
372.371	2.22
372.582	8.36
372.792	59.56
373.003	65.71
373.214	84.14
373.424	104.62
373.635	-36.69
373.846	100.52
374.056	45.23
374.267	75.95
374.477	16.55
374.688	14.51
374.898	26.79
375.109	43.18
375.319	75.95
375.53	37.03
375.74	41.13
375.951	34.99
376.161	77.99
376.372	94.38
376.582	14.51
376.793	18.6
377.003	84.14
377.214	24.75
377.424	45.23
377.635	73.9
377.845	22.7
378.055	45.23
378.266	12.46
378.476	63.66
378.686	32.94
378.897	32.94
379.107	51.37
379.317	-12.12
379.528	55.47
379.738	34.99
379.948	92.33
380.158	116.9
380.369	77.99
380.579	30.89
380.789	32.94
380.999	55.47
381.21	75.95
381.42	57.51
381.63	22.7
381.84	88.23
382.05	24.75
382.261	61.61
382.471	98.47
382.681	39.08
382.891	98.47
383.101	6.31
383.311	-8.02
383.521	-3.93
383.731	104.62
383.941	0.17
384.151	55.47
384.361	73.9
384.571	-36.69
384.781	43.18
384.991	90.28
385.201	125.1
385.411	157.86
385.621	77.99
385.831	49.32
386.041	37.03
386.251	39.08
386.461	98.47
386.671	100.52
386.881	118.95
387.091	24.75
387.301	22.7
387.511	133.29
387.72	43.18
387.93	-10.07
388.14	6.31
388.35	55.47
388.56	30.89
388.769	47.27
388.979	30.89
389.189	18.6
389.399	71.85
389.609	77.99
389.818	59.56
390.028	57.51
390.238	112.81
390.447	22.7
390.657	59.56
390.867	61.61
391.076	30.89
391.286	166.06
391.496	82.09
391.705	30.89
391.915	155.82
392.125	67.75
392.334	55.47
392.544	28.84
392.753	92.33
392.963	0.17
393.172	75.95
393.382	94.38
393.591	34.99
393.801	37.03
394.01	131.24
394.22	121
394.429	108.71
394.639	39.08
394.848	116.9
395.058	86.19
395.267	110.76
395.477	98.47
395.686	116.9
395.895	96.43
396.105	211.11
396.314	84.14
396.524	94.38
396.733	108.71
396.942	104.62
397.152	125.1
397.361	151.72
397.57	69.8
397.78	73.9
397.989	4.27
398.198	94.38
398.407	166.06
398.617	39.08
398.826	114.86
399.035	100.52
399.244	100.52
399.453	34.99
399.663	94.38
399.872	153.77
400.081	73.9
400.29	192.68
400.499	102.57
400.708	133.29
400.917	135.34
401.127	67.75
401.336	147.62
401.545	204.97
401.754	22.7
401.963	106.67
402.172	67.75
402.381	51.37
402.59	139.43
402.799	116.9
403.008	147.62
403.217	94.38
403.426	133.29
403.635	149.67
403.844	84.14
404.053	104.62
404.262	73.9
404.471	196.78
404.68	112.81
404.888	149.67
405.097	118.95
405.306	112.81
405.515	161.96
405.724	161.96
405.933	174.25
406.142	129.19
406.35	223.4
406.559	98.47
406.768	145.58
406.977	198.82
407.185	186.54
407.394	172.2
407.603	106.67
407.812	245.93
408.02	217.26
408.229	196.78
408.438	155.82
408.646	202.92
408.855	219.3
409.064	168.1
409.272	213.16
409.481	225.45
409.69	207.02
409.898	239.78
410.107	274.6
410.315	260.26
410.524	225.45
410.733	301.22
410.941	286.89
411.15	395.43
411.358	278.69
411.567	399.52
411.775	401.57
411.984	387.24
412.192	370.85
412.401	405.67
412.609	448.68
412.818	360.61
413.026	346.28
413.234	463.01
413.443	460.96
413.651	471.2
413.86	557.22
414.068	528.55
414.276	544.93
414.485	540.83
414.693	538.79
414.901	592.03
415.11	645.28
415.318	661.66
415.526	598.18
415.734	571.55
415.943	667.81
416.151	690.34
416.359	694.43
416.567	708.77
416.776	743.58
416.984	772.25
417.192	833.69
417.4	825.5
417.608	813.21
417.817	911.52
418.025	919.71
418.233	940.19
418.441	1083.55
418.649	991.39
418.857	993.44
419.065	1091.74
419.273	1171.61
419.481	1169.56
419.689	1253.53
419.897	1261.72
420.105	1241.24
420.313	1183.9
420.521	1351.83
420.729	1329.3
420.937	1341.59
421.145	1452.18
421.353	1521.81
421.561	1654.93
421.769	1663.12
421.977	1642.64
422.185	1699.98
422.393	1767.57
422.601	1929.36
422.809	1890.45
423.017	1790.1
423.224	2064.52
423.432	2080.91
423.64	2087.05
423.848	2289.8
424.056	2162.83
424.263	2244.74
424.471	2369.67
424.679	2470.02
424.887	2533.51
425.094	2562.18
425.302	2699.39
425.51	2715.78
425.718	2814.08
425.925	2871.42
426.133	2939.01
426.341	3156.09
426.548	3246.2
426.756	3201.15
426.964	3215.48
427.171	3311.74
427.379	3582.07
427.586	3659.89
427.794	3778.67
428.001	3852.4
428.209	4139.12
428.417	3977.33
428.624	4253.8
428.832	4284.52
429.039	4208.75
429.247	4294.76
429.454	4751.46
429.662	4980.83
429.869	4647.01
430.076	5093.47
430.284	4812.9
430.491	5179.48
430.699	5453.91
430.906	5269.59
431.114	5460.06
431.321	5439.58
431.528	5734.48
431.736	6070.35
431.943	6443.08
432.15	6078.54
432.358	6336.59
432.565	6639.69
432.772	6588.49
432.979	7100.48
433.187	6987.84
433.394	7141.44
433.601	7551.03
433.808	7675.96
434.016	7514.17
434.223	7831.6
434.43	8286.25
434.637	8312.88
434.844	8833.06
435.052	8814.63
435.259	8968.23
435.466	8837.16
435.673	8745
435.88	9502.75
436.087	9822.23
436.294	9736.21
436.501	9553.94
436.708	9992.21
436.915	10276.88
437.122	10604.55
437.329	10479.63
437.537	11067.39
437.743	11296.77
437.95	10813.45
438.157	11374.59
438.364	12017.65
438.571	11993.08
438.778	12013.56
438.985	13162.47
439.192	12853.22
439.399	12931.05
439.606	12900.33
439.813	13508.57
440.02	14383.06
440.227	14348.24
440.433	14079.96
440.64	14272.46
440.847	14307.28
441.054	14657.48
441.261	15536.06
441.467	15706.04
441.674	15955.9
441.881	16304.05
442.088	16408.5
442.294	16392.11
442.501	16588.72
442.708	16938.92
442.914	17313.7
443.121	18192.28
443.328	18024.34
443.534	19222.41
443.741	18530.19
443.948	18116.5
444.154	19371.91
444.361	19570.56
444.568	19683.2
444.774	19486.59
444.981	19967.87
445.187	20567.92
445.394	20928.36
445.6	21161.83
445.807	22943.56
446.013	22097.75
446.22	22507.35
446.426	23293.77
446.633	23459.65
446.839	24254.26
447.046	23326.53
447.252	24936.24
447.459	24432.44
447.665	24766.26
447.871	25765.67
448.078	26771.22
448.284	25800.48
448.491	26246.94
448.697	27418.38
448.903	27612.93
449.11	27895.55
449.316	27537.16
449.522	27901.7
449.728	28462.84
449.935	28978.93
450.141	28665.59
450.347	29429.48
450.553	28346.11
450.76	28692.21
450.966	30064.35
451.172	29523.69
451.378	30156.51
451.584	29558.5
451.791	30099.17
451.997	30193.37
452.203	31055.57
452.409	30605.02
452.615	30858.96
452.821	29499.11
453.027	29320.94
453.233	30523.1
453.44	29619.94
453.646	29804.26
453.852	30101.22
454.058	30480.09
454.264	29505.26
454.47	30220
454.676	29361.9
454.882	30183.13
455.088	28096.25
455.294	28032.77
455.5	28602.1
455.705	28925.68
455.911	27619.08
456.117	27225.87
456.323	26793.75
456.529	25362.22
456.735	26318.62
456.941	25958.17
457.147	25378.6
457.352	24493.88
457.558	24469.3
457.764	24569.65
457.97	24104.76
458.176	23476.04
458.381	23224.14
458.587	22296.41
458.793	22644.56
458.999	21088.1
459.204	22804.3
459.41	21968.73
459.616	20545.39
459.821	20692.85
460.027	20434.8
460.233	20019.07
460.438	19111.82
460.644	19302.28
460.85	18581.39
461.055	18120.6
461.261	18089.88
461.466	16742.32
461.672	16299.95
461.878	17217.44
462.083	16363.44
462.289	15802.3
462.494	15671.23
462.7	15069.12
462.905	14743.5
463.111	15194.05
463.316	15286.21
463.522	14954.44
463.727	14798.79
463.932	15087.56
464.138	14673.87
464.343	14841.8
464.549	14311.38
464.754	14962.63
464.959	14637
465.165	14694.35
465.37	14026.71
465.575	13717.47
465.781	14188.5
465.986	14176.21
466.191	13619.16
466.397	13633.5
466.602	12822.5
466.807	13481.95
467.012	13377.5
467.218	13250.53
467.423	13010.92
467.628	13184.99
467.833	13635.55
468.038	13338.59
468.244	12881.89
