Data from USB4F104151__50__11-51-54-306.txt Node

Date: Fri Mar 14 11:51:54 EDT 2025
User: louis
Spectrometer: USB4F10415
Trigger mode: 4
Integration Time (sec): 2.000000E-2
Scans to average: 1
Electric dark correction enabled: true
Nonlinearity correction enabled: false
Boxcar width: 0
XAxis mode: Wavelengths
Number of Pixels in Spectrum: 3648
>>>>>Begin Spectral Data<<<<<
178.204	-75.43
178.424	-75.43
178.644	-75.43
178.864	-34.47
179.084	-65.19
179.304	-73.39
179.524	20.82
179.744	-3.75
179.964	-79.53
180.184	88.4
180.404	33.11
180.624	29.01
180.844	45.4
181.064	-36.52
181.283	14.68
181.503	-5.8
181.723	-32.43
181.943	-9.9
182.163	49.49
182.383	-7.85
182.602	47.44
182.822	37.2
183.042	-1.71
183.262	12.63
183.482	12.63
183.701	-22.19
183.921	53.59
184.141	41.3
184.361	43.35
184.58	39.25
184.8	31.06
185.02	4.44
185.239	31.06
185.459	33.11
185.679	22.87
185.898	47.44
186.118	-24.23
186.338	4.44
186.557	-13.99
186.777	59.73
186.997	96.6
187.216	6.49
187.436	39.25
187.655	6.49
187.875	51.54
188.095	0.34
188.314	59.73
188.534	29.01
188.753	-24.23
188.973	47.44
189.192	65.88
189.412	14.68
189.631	16.73
189.851	10.58
190.07	86.36
190.29	0.34
190.509	24.92
190.729	102.74
190.948	26.96
191.168	108.88
191.387	67.92
191.607	-50.86
191.826	-11.95
192.045	65.88
192.265	26.96
192.484	29.01
192.704	53.59
192.923	-18.09
193.142	90.45
193.362	20.82
193.581	2.39
193.8	-65.19
194.02	78.16
194.239	92.5
194.458	78.16
194.678	49.49
194.897	31.06
195.116	-3.75
195.335	43.35
195.555	-32.43
195.774	20.82
195.993	51.54
196.212	31.06
196.432	2.39
196.651	20.82
196.87	-11.95
197.089	-24.23
197.308	2.39
197.528	10.58
197.747	39.25
197.966	-32.43
198.185	4.44
198.404	53.59
198.623	20.82
198.842	74.07
199.062	-11.95
199.281	47.44
199.5	82.26
199.719	49.49
199.938	33.11
200.157	18.77
200.376	-18.09
200.595	112.98
200.814	55.64
201.033	33.11
201.252	20.82
201.471	53.59
201.69	72.02
201.909	10.58
202.128	4.44
202.347	51.54
202.566	31.06
202.785	16.73
203.004	4.44
203.223	39.25
203.442	37.2
203.661	-18.09
203.879	-9.9
204.098	78.16
204.317	24.92
204.536	78.16
204.755	-95.91
204.974	78.16
205.193	37.2
205.411	76.12
205.63	24.92
205.849	43.35
206.068	-46.76
206.287	-1.71
206.505	39.25
206.724	69.97
206.943	-9.9
207.162	26.96
207.381	115.03
207.599	20.82
207.818	31.06
208.037	8.53
208.255	-1.71
208.474	53.59
208.693	8.53
208.911	90.45
209.13	22.87
209.349	61.78
209.567	41.3
209.786	41.3
210.005	0.34
210.223	88.4
210.442	-48.81
210.661	43.35
210.879	16.73
211.098	14.68
211.316	-9.9
211.535	63.83
211.753	10.58
211.972	43.35
212.191	-11.95
212.409	31.06
212.628	10.58
212.846	-65.19
213.065	20.82
213.283	-36.52
213.502	-1.71
213.72	12.63
213.938	10.58
214.157	-54.95
214.375	10.58
214.594	51.54
214.812	-42.67
215.031	59.73
215.249	4.44
215.467	-34.47
215.686	-3.75
215.904	63.83
216.122	69.97
216.341	-28.33
216.559	69.97
216.778	2.39
216.996	-69.29
217.214	29.01
217.432	2.39
217.651	39.25
217.869	31.06
218.087	-1.71
218.306	65.88
218.524	49.49
218.742	6.49
218.96	-7.85
219.179	-5.8
219.397	82.26
219.615	82.26
219.833	-5.8
220.051	-1.71
220.27	90.45
220.488	49.49
220.706	-34.47
220.924	0.34
221.142	55.64
221.36	-18.09
221.578	90.45
221.796	31.06
222.015	-5.8
222.233	31.06
222.451	61.78
222.669	20.82
222.887	84.31
223.105	10.58
223.323	-24.23
223.541	-46.76
223.759	37.2
223.977	18.77
224.195	78.16
224.413	37.2
224.631	94.55
224.849	26.96
225.067	135.51
225.285	80.21
225.503	-3.75
225.721	16.73
225.939	-13.99
226.157	-26.28
226.375	88.4
226.592	8.53
226.81	29.01
227.028	-1.71
227.246	18.77
227.464	-9.9
227.682	59.73
227.9	4.44
228.117	53.59
228.335	-122.54
228.553	-1.71
228.771	135.51
228.989	57.68
229.206	-54.95
229.424	53.59
229.642	-13.99
229.86	24.92
230.077	115.03
230.295	-7.85
230.513	24.92
230.731	53.59
230.948	76.12
231.166	88.4
231.384	-1.71
231.601	14.68
231.819	78.16
232.037	49.49
232.254	-79.53
232.472	92.5
232.689	18.77
232.907	63.83
233.125	10.58
233.342	59.73
233.56	4.44
233.777	-16.04
233.995	53.59
234.213	49.49
234.43	10.58
234.648	100.69
234.865	29.01
235.083	6.49
235.3	74.07
235.518	45.4
235.735	31.06
235.953	31.06
236.17	18.77
236.388	22.87
236.605	-16.04
236.822	20.82
237.04	55.64
237.257	24.92
237.475	-69.29
237.692	29.01
237.909	-61.1
238.127	-30.38
238.344	74.07
238.562	65.88
238.779	20.82
238.996	-16.04
239.214	53.59
239.431	41.3
239.648	-1.71
239.865	57.68
240.083	61.78
240.3	22.87
240.517	-11.95
240.735	45.4
240.952	16.73
241.169	69.97
241.386	24.92
241.603	-22.19
241.821	51.54
242.038	121.17
242.255	8.53
242.472	-5.8
242.689	-7.85
242.907	-34.47
243.124	-16.04
243.341	4.44
243.558	-13.99
243.775	-3.75
243.992	26.96
244.209	65.88
244.426	26.96
244.643	76.12
244.86	94.55
245.078	67.92
245.295	57.68
245.512	78.16
245.729	37.2
245.946	0.34
246.163	-18.09
246.38	59.73
246.597	22.87
246.814	53.59
247.031	-69.29
247.248	-13.99
247.464	55.64
247.681	31.06
247.898	90.45
248.115	65.88
248.332	31.06
248.549	100.69
248.766	65.88
248.983	26.96
249.2	53.59
249.417	26.96
249.633	8.53
249.85	-9.9
250.067	-7.85
250.284	41.3
250.501	47.44
250.717	45.4
250.934	16.73
251.151	-11.95
251.368	10.58
251.585	18.77
251.801	20.82
252.018	-20.14
252.235	39.25
252.451	20.82
252.668	59.73
252.885	69.97
253.102	82.26
253.318	-57
253.535	-13.99
253.752	33.11
253.968	4.44
254.185	57.68
254.401	-7.85
254.618	65.88
254.835	86.36
255.051	76.12
255.268	-54.95
255.484	4.44
255.701	20.82
255.917	20.82
256.134	51.54
256.351	0.34
256.567	-44.71
256.784	4.44
257	-24.23
257.217	98.64
257.433	-73.39
257.65	-24.23
257.866	20.82
258.082	26.96
258.299	35.16
258.515	20.82
258.732	8.53
258.948	74.07
259.165	86.36
259.381	-9.9
259.597	49.49
259.814	10.58
260.03	-3.75
260.246	72.02
260.463	82.26
260.679	61.78
260.895	4.44
261.112	49.49
261.328	-3.75
261.544	35.16
261.761	12.63
261.977	4.44
262.193	61.78
262.409	61.78
262.626	41.3
262.842	33.11
263.058	-95.91
263.274	4.44
263.49	63.83
263.707	115.03
263.923	-18.09
264.139	-59.05
264.355	8.53
264.571	86.36
264.787	37.2
265.004	86.36
265.22	-57
265.436	33.11
265.652	-11.95
265.868	43.35
266.084	-5.8
266.3	-20.14
266.516	-89.77
266.732	20.82
266.948	55.64
267.164	-13.99
267.38	65.88
267.596	88.4
267.812	29.01
268.028	-16.04
268.244	22.87
268.46	39.25
268.676	-11.95
268.892	31.06
269.108	2.39
269.324	-11.95
269.54	-18.09
269.756	4.44
269.972	22.87
270.188	102.74
270.403	-22.19
270.619	18.77
270.835	-22.19
271.051	0.34
271.267	-52.91
271.483	37.2
271.698	10.58
271.914	37.2
272.13	33.11
272.346	59.73
272.562	-1.71
272.777	47.44
272.993	33.11
273.209	16.73
273.425	45.4
273.64	92.5
273.856	88.4
274.072	10.58
274.287	-7.85
274.503	31.06
274.719	26.96
274.934	0.34
275.15	14.68
275.366	74.07
275.581	-34.47
275.797	63.83
276.012	20.82
276.228	43.35
276.444	-16.04
276.659	55.64
276.875	26.96
277.09	20.82
277.306	-7.85
277.521	110.93
277.737	26.96
277.952	53.59
278.168	26.96
278.383	20.82
278.599	-32.43
278.814	0.34
279.03	-7.85
279.245	49.49
279.461	-22.19
279.676	53.59
279.892	37.2
280.107	8.53
280.322	74.07
280.538	24.92
280.753	14.68
280.969	72.02
281.184	39.25
281.399	108.88
281.615	2.39
281.83	55.64
282.045	-11.95
282.26	4.44
282.476	98.64
282.691	-28.33
282.906	47.44
283.122	-1.71
283.337	47.44
283.552	88.4
283.767	20.82
283.983	0.34
284.198	-71.34
284.413	29.01
284.628	61.78
284.843	82.26
285.058	35.16
285.274	41.3
285.489	2.39
285.704	8.53
285.919	72.02
286.134	74.07
286.349	-42.67
286.564	8.53
286.779	84.31
286.995	10.58
287.21	37.2
287.425	45.4
287.64	26.96
287.855	82.26
288.07	-59.05
288.285	51.54
288.5	12.63
288.715	69.97
288.93	-16.04
289.145	53.59
289.36	31.06
289.575	67.92
289.79	26.96
290.004	55.64
290.219	24.92
290.434	41.3
290.649	65.88
290.864	-3.75
291.079	33.11
291.294	10.58
291.509	72.02
291.724	65.88
291.938	8.53
292.153	29.01
292.368	14.68
292.583	43.35
292.798	-20.14
293.012	-1.71
293.227	59.73
293.442	26.96
293.657	84.31
293.871	72.02
294.086	100.69
294.301	41.3
294.516	31.06
294.73	-5.8
294.945	-34.47
295.16	-7.85
295.374	88.4
295.589	65.88
295.804	12.63
296.018	6.49
296.233	98.64
296.447	51.54
296.662	29.01
296.877	35.16
297.091	-34.47
297.306	33.11
297.52	49.49
297.735	74.07
297.949	-3.75
298.164	2.39
298.378	65.88
298.593	18.77
298.807	74.07
299.022	37.2
299.236	-26.28
299.451	26.96
299.665	10.58
299.88	18.77
300.094	20.82
300.309	14.68
300.523	2.39
300.737	59.73
300.952	47.44
301.166	74.07
301.381	33.11
301.595	6.49
301.809	12.63
302.024	61.78
302.238	18.77
302.452	18.77
302.667	-75.43
302.881	90.45
303.095	69.97
303.309	119.12
303.524	-40.62
303.738	20.82
303.952	-20.14
304.166	22.87
304.381	33.11
304.595	82.26
304.809	90.45
305.023	51.54
305.237	-1.71
305.452	0.34
305.666	-13.99
305.88	14.68
306.094	72.02
306.308	35.16
306.522	29.01
306.736	24.92
306.95	18.77
307.164	-42.67
307.379	-59.05
307.593	-46.76
307.807	-3.75
308.021	80.21
308.235	29.01
308.449	86.36
308.663	-7.85
308.877	74.07
309.091	24.92
309.305	16.73
309.519	-38.57
309.733	67.92
309.947	-20.14
310.161	76.12
310.374	20.82
310.588	-22.19
310.802	41.3
311.016	12.63
311.23	61.78
311.444	39.25
311.658	-13.99
311.872	43.35
312.085	69.97
312.299	39.25
312.513	49.49
312.727	20.82
312.941	37.2
313.154	24.92
313.368	6.49
313.582	100.69
313.796	39.25
314.009	45.4
314.223	-16.04
314.437	53.59
314.651	10.58
314.864	84.31
315.078	-24.23
315.292	-71.34
315.505	4.44
315.719	41.3
315.933	2.39
316.146	10.58
316.36	-22.19
316.573	-42.67
316.787	22.87
317.001	65.88
317.214	33.11
317.428	47.44
317.641	31.06
317.855	39.25
318.068	104.79
318.282	10.58
318.495	86.36
318.709	-1.71
318.922	65.88
319.136	76.12
319.349	51.54
319.563	51.54
319.776	26.96
319.99	-7.85
320.203	86.36
320.417	24.92
320.63	55.64
320.843	51.54
321.057	53.59
321.27	-3.75
321.483	51.54
321.697	125.27
321.91	-26.28
322.124	6.49
322.337	31.06
322.55	84.31
322.763	14.68
322.977	67.92
323.19	108.88
323.403	4.44
323.617	45.4
323.83	67.92
324.043	76.12
324.256	69.97
324.469	45.4
324.683	45.4
324.896	-44.71
325.109	49.49
325.322	-11.95
325.535	18.77
325.748	20.82
325.962	-48.81
326.175	-5.8
326.388	84.31
326.601	29.01
326.814	57.68
327.027	104.79
327.24	51.54
327.453	18.77
327.666	-13.99
327.879	-9.9
328.092	12.63
328.305	78.16
328.518	88.4
328.731	41.3
328.944	29.01
329.157	57.68
329.37	88.4
329.583	0.34
329.796	41.3
330.009	31.06
330.222	69.97
330.435	47.44
330.648	67.92
330.861	78.16
331.073	47.44
331.286	78.16
331.499	31.06
331.712	63.83
331.925	43.35
332.138	18.77
332.35	-5.8
332.563	92.5
332.776	78.16
332.989	-1.71
333.202	12.63
333.414	65.88
333.627	33.11
333.84	-52.91
334.053	-7.85
334.265	-11.95
334.478	67.92
334.691	47.44
334.903	26.96
335.116	82.26
335.329	20.82
335.541	57.68
335.754	-7.85
335.966	72.02
336.179	-18.09
336.392	49.49
336.604	31.06
336.817	0.34
337.029	65.88
337.242	10.58
337.454	63.83
337.667	-3.75
337.88	96.6
338.092	4.44
338.305	35.16
338.517	121.17
338.729	76.12
338.942	41.3
339.154	106.84
339.367	45.4
339.579	12.63
339.792	76.12
340.004	67.92
340.217	22.87
340.429	33.11
340.641	26.96
340.854	123.22
341.066	20.82
341.278	123.22
341.491	72.02
341.703	-22.19
341.915	59.73
342.128	37.2
342.34	100.69
342.552	51.54
342.764	53.59
342.977	41.3
343.189	57.68
343.401	67.92
343.613	10.58
343.826	37.2
344.038	39.25
344.25	31.06
344.462	37.2
344.674	82.26
344.886	-18.09
345.099	-1.71
345.311	2.39
345.523	-32.43
345.735	41.3
345.947	-40.62
346.159	-5.8
346.371	84.31
346.583	10.58
346.795	4.44
347.007	49.49
347.219	205.14
347.431	20.82
347.643	57.68
347.855	12.63
348.067	8.53
348.279	78.16
348.491	92.5
348.703	49.49
348.915	47.44
349.127	-32.43
349.339	106.84
349.551	49.49
349.763	86.36
349.975	84.31
350.187	112.98
350.399	69.97
350.61	65.88
350.822	37.2
351.034	18.77
351.246	41.3
351.458	72.02
351.669	26.96
351.881	-20.14
352.093	106.84
352.305	53.59
352.517	94.55
352.728	78.16
352.94	37.2
353.152	90.45
353.363	57.68
353.575	102.74
353.787	2.39
353.999	-16.04
354.21	8.53
354.422	0.34
354.633	-7.85
354.845	65.88
355.057	22.87
355.268	41.3
355.48	45.4
355.692	-28.33
355.903	82.26
356.115	67.92
356.326	22.87
356.538	14.68
356.749	92.5
356.961	121.17
357.172	-32.43
357.384	98.64
357.595	65.88
357.807	-20.14
358.018	20.82
358.23	4.44
358.441	33.11
358.653	78.16
358.864	-24.23
359.075	-38.57
359.287	55.64
359.498	20.82
359.709	-18.09
359.921	49.49
360.132	0.34
360.344	22.87
360.555	-18.09
360.766	43.35
360.977	53.59
361.189	-48.81
361.4	-7.85
361.611	26.96
361.823	-46.76
362.034	84.31
362.245	-3.75
362.456	-18.09
362.667	61.78
362.879	43.35
363.09	55.64
363.301	69.97
363.512	72.02
363.723	2.39
363.935	33.11
364.146	26.96
364.357	8.53
364.568	-1.71
364.779	102.74
364.99	117.08
365.201	31.06
365.412	31.06
365.623	33.11
365.834	49.49
366.045	63.83
366.256	31.06
366.467	53.59
366.678	69.97
366.889	-13.99
367.1	0.34
367.311	18.77
367.522	45.4
367.733	51.54
367.944	112.98
368.155	59.73
368.366	45.4
368.577	29.01
368.788	96.6
368.999	65.88
369.209	22.87
369.42	65.88
369.631	190.8
369.842	12.63
370.053	-13.99
370.264	121.17
370.474	80.21
370.685	51.54
370.896	69.97
371.107	35.16
371.317	74.07
371.528	20.82
371.739	69.97
371.95	57.68
372.16	14.68
372.371	43.35
372.582	98.64
372.792	31.06
373.003	65.88
373.214	78.16
373.424	10.58
373.635	33.11
373.846	110.93
374.056	47.44
374.267	24.92
374.477	72.02
374.688	31.06
374.898	80.21
375.109	76.12
375.319	74.07
375.53	69.97
375.74	80.21
375.951	41.3
376.161	67.92
376.372	74.07
376.582	49.49
376.793	10.58
377.003	69.97
377.214	-5.8
377.424	45.4
377.635	-26.28
377.845	61.78
378.055	78.16
378.266	72.02
378.476	55.64
378.686	35.16
378.897	76.12
379.107	18.77
379.317	63.83
379.528	55.64
379.738	78.16
379.948	57.68
380.158	-1.71
380.369	72.02
380.579	41.3
380.789	14.68
380.999	39.25
381.21	78.16
381.42	61.78
381.63	-28.33
381.84	59.73
382.05	10.58
382.261	84.31
382.471	82.26
382.681	-3.75
382.891	57.68
383.101	80.21
383.311	49.49
383.521	51.54
383.731	2.39
383.941	-20.14
384.151	39.25
384.361	20.82
384.571	63.83
384.781	45.4
384.991	-28.33
385.201	33.11
385.411	74.07
385.621	65.88
385.831	69.97
386.041	43.35
386.251	69.97
386.461	82.26
386.671	4.44
386.881	74.07
387.091	119.12
387.301	102.74
387.511	65.88
387.72	20.82
387.93	4.44
388.14	90.45
388.35	100.69
388.56	55.64
388.769	72.02
388.979	55.64
389.189	14.68
389.399	10.58
389.609	-69.29
389.818	43.35
390.028	74.07
390.238	51.54
390.447	-1.71
390.657	-11.95
390.867	29.01
391.076	47.44
391.286	55.64
391.496	76.12
391.705	82.26
391.915	115.03
392.125	135.51
392.334	57.68
392.544	69.97
392.753	106.84
392.963	37.2
393.172	69.97
393.382	108.88
393.591	57.68
393.801	61.78
394.01	108.88
394.22	65.88
394.429	41.3
394.639	37.2
394.848	41.3
395.058	86.36
395.267	-9.9
395.477	39.25
395.686	86.36
395.895	151.89
396.105	39.25
396.314	69.97
396.524	47.44
396.733	129.36
396.942	110.93
397.152	108.88
397.361	164.18
397.57	106.84
397.78	133.46
397.989	74.07
398.198	137.56
398.407	90.45
398.617	84.31
398.826	61.78
399.035	53.59
399.244	53.59
399.453	133.46
399.663	78.16
399.872	125.27
400.081	51.54
400.29	108.88
400.499	55.64
400.708	125.27
400.917	45.4
401.127	123.22
401.336	127.32
401.545	149.84
401.754	31.06
401.963	153.94
402.172	65.88
402.381	155.99
402.59	65.88
402.799	139.6
403.008	84.31
403.217	170.32
403.426	149.84
403.635	57.68
403.844	151.89
404.053	196.95
404.262	59.73
404.471	133.46
404.68	88.4
404.888	143.7
405.097	102.74
405.306	153.94
405.515	168.27
405.724	125.27
405.933	196.95
406.142	198.99
406.35	149.84
406.559	178.51
406.768	151.89
406.977	112.98
407.185	201.04
407.394	174.42
407.603	112.98
407.812	182.61
408.02	231.76
408.229	155.99
408.438	242
408.646	201.04
408.855	217.43
409.064	174.42
409.272	244.05
409.481	256.34
409.69	233.81
409.898	256.34
410.107	282.96
410.315	309.58
410.524	217.43
410.733	254.29
410.941	231.76
411.15	411.98
411.358	287.06
411.567	325.97
411.775	391.5
411.984	325.97
412.192	328.02
412.401	344.4
412.609	295.25
412.818	416.08
413.026	328.02
413.234	389.46
413.443	446.8
413.651	432.46
413.86	483.66
414.068	491.85
414.276	465.23
414.485	530.77
414.693	545.1
414.901	543.05
415.11	616.78
415.318	561.48
415.526	620.88
415.734	725.32
415.943	627.02
416.151	704.84
416.359	522.57
416.567	700.75
416.776	741.71
416.984	741.71
417.192	823.62
417.4	801.1
417.608	803.15
417.817	901.45
418.025	942.41
418.233	905.54
418.441	1059.14
418.649	1044.81
418.857	1108.29
419.065	1040.71
419.273	1149.25
419.481	1112.39
419.689	1155.4
419.897	1243.46
420.105	1313.09
420.313	1306.95
420.521	1411.39
420.729	1370.43
420.937	1403.2
421.145	1487.17
421.353	1601.85
421.561	1597.76
421.769	1665.34
421.977	1712.44
422.185	1775.93
422.393	1855.8
422.601	1933.62
422.809	1747.26
423.017	1988.92
423.224	2074.93
423.432	2036.02
423.64	2048.31
423.848	2386.22
424.056	2197.81
424.263	2382.13
424.471	2406.7
424.679	2437.42
424.887	2580.78
425.094	2642.22
425.302	2681.13
425.51	2756.91
425.718	2847.02
425.925	2834.73
426.133	2918.7
426.341	3127.59
426.548	3236.13
426.756	3363.11
426.964	3369.25
427.171	3506.46
427.379	3637.53
427.586	3686.69
427.794	3901.72
428.001	3846.43
428.209	4143.38
428.417	3983.64
428.624	4335.89
428.832	4440.34
429.039	4249.88
429.247	4471.06
429.454	4686.09
429.662	5128.46
429.869	4800.78
430.076	5099.78
430.284	4870.41
430.491	5200.13
430.699	5380.36
430.906	5386.5
431.114	5603.58
431.321	5724.41
431.528	5859.58
431.736	6119.67
431.943	6422.77
432.15	6435.06
432.358	6303.99
432.565	6691.06
432.772	6766.83
432.979	7125.22
433.187	7123.18
433.394	6953.2
433.601	7663.84
433.808	7629.02
434.016	7655.65
434.223	7981.28
434.43	8493.27
434.637	8370.39
434.844	8970.44
435.052	8913.1
435.259	8876.24
435.466	8999.12
435.673	8941.77
435.88	9435.33
436.087	10033.34
436.294	9824.45
436.501	9857.21
436.708	9926.85
436.915	10393.78
437.122	10737.84
437.329	10735.79
437.537	10936.49
437.743	11262.12
437.95	11079.85
438.157	11772.07
438.364	12040.35
438.571	12202.14
438.778	12259.48
438.985	13527.17
439.192	12685.46
439.399	13355.15
439.606	12970.13
439.813	13695.11
440.02	14522.49
440.227	14289.02
440.433	14401.66
440.64	14499.96
440.847	14473.34
441.054	14903.41
441.261	15663.21
441.467	15657.06
441.674	15806.56
441.881	16545.88
442.088	16486.49
442.294	16230.49
442.501	16613.46
442.708	17229.9
442.914	17944.64
443.121	18432.06
443.328	17971.27
443.534	19312.69
443.741	18821.17
443.948	18622.52
444.154	19970.08
444.361	19918.89
444.568	19871.78
444.774	19863.59
444.981	20121.63
445.187	20717.59
445.394	21680.14
445.6	21544.97
445.807	23318.51
446.013	22245.38
446.22	22753.27
446.426	23584.75
446.633	23871.47
446.839	24690.65
447.046	23470.06
447.252	24942.55
447.459	24975.32
447.665	24735.71
447.871	25905.1
448.078	27289.52
448.284	25948.11
448.491	26476.48
448.697	27506.61
448.903	27824.04
449.11	28071.85
449.316	27940.78
449.522	27932.59
449.728	28921.76
449.935	29286.29
450.141	29288.34
450.347	29804.43
450.553	28977.05
450.76	28878.75
450.966	30201.74
451.172	30001.04
451.378	30689.15
451.584	29894.54
451.791	30754.69
451.997	30498.69
452.203	30969.72
452.409	31190.91
452.615	31227.77
452.821	29892.49
453.027	29493.14
453.233	31078.27
453.44	30027.66
453.646	30175.11
453.852	30369.67
454.058	30795.65
454.264	30044.04
454.47	30703.49
454.676	29499.28
454.882	30775.17
455.088	28039.08
455.294	28258.21
455.5	28606.37
455.705	28864.41
455.911	27901.87
456.117	27242.42
456.323	27015.1
456.529	25534.42
456.735	26816.44
456.941	26126.28
457.147	25819.08
457.352	24797.15
457.558	24676.32
457.764	24868.83
457.97	24448.99
458.176	23549.93
458.381	23617.52
458.587	22779.9
458.793	22523.9
458.999	21245.97
459.204	22724.6
459.41	22298.63
459.616	20854.81
459.821	20920.34
460.027	20633.63
460.233	20463.65
460.438	19556.39
460.644	19464.24
460.85	18364.48
461.055	18317.37
461.261	18352.19
461.466	16801.88
461.672	16427.1
461.878	17557.58
462.083	16380
462.289	15972.45
462.494	15894.63
462.7	15083.63
462.905	14653.56
463.111	15388.78
463.316	15628.39
463.522	15161.45
463.727	15222.89
463.932	14956.66
464.138	14758
464.343	15020.14
464.549	14399.61
464.754	15014
464.959	14719.09
465.165	14907.51
465.37	14362.75
465.575	13715.59
465.781	14348.41
465.986	14516.34
466.191	13885.57
466.397	13615.24
466.602	12902.54
466.807	13643.91
467.012	13480.07
467.218	13226.12
467.423	13242.51
467.628	13410.44
467.833	14004.35
468.038	13486.22
