Data from USB4F104151__70__11-52-39-461.txt Node

Date: Fri Mar 14 11:52:39 EDT 2025
User: louis
Spectrometer: USB4F10415
Trigger mode: 4
Integration Time (sec): 2.000000E-2
Scans to average: 1
Electric dark correction enabled: true
Nonlinearity correction enabled: false
Boxcar width: 0
XAxis mode: Wavelengths
Number of Pixels in Spectrum: 3648
>>>>>Begin Spectral Data<<<<<
178.204	-139.43
178.424	-139.43
178.644	-139.43
178.864	-80.04
179.084	-170.15
179.304	-24.75
179.524	44.88
179.744	1.88
179.964	5.97
180.184	1.88
180.404	-6.31
180.624	24.4
180.844	-12.46
181.064	-34.99
181.283	65.36
181.503	-59.56
181.723	-6.31
181.943	-59.56
182.163	-59.56
182.383	-45.23
182.602	44.88
182.822	-12.46
183.042	48.98
183.262	-49.32
183.482	-14.51
183.701	-22.7
183.921	-84.14
184.141	-47.27
184.361	38.74
184.58	61.27
184.8	10.07
185.02	-41.13
185.239	26.45
185.459	18.26
185.679	3.93
185.898	-26.79
186.118	53.08
186.338	5.97
186.557	44.88
186.777	-30.89
186.997	48.98
187.216	51.03
187.436	34.64
187.655	-12.46
187.875	14.17
188.095	16.21
188.314	81.75
188.534	-65.71
188.753	3.93
188.973	-45.23
189.192	67.41
189.412	40.79
189.631	-16.55
189.851	-10.41
190.07	38.74
190.29	-30.89
190.509	10.07
190.729	20.31
190.948	38.74
191.168	63.32
191.387	87.89
191.607	-53.42
191.826	42.84
192.045	-49.32
192.265	1.88
192.484	34.64
192.704	-55.47
192.923	-102.57
193.142	12.12
193.362	12.12
193.581	48.98
193.8	-14.51
194.02	124.76
194.239	24.4
194.458	91.99
194.678	1.88
194.897	-22.7
195.116	-34.99
195.335	8.02
195.555	12.12
195.774	30.55
195.993	-12.46
196.212	8.02
196.432	-6.31
196.651	5.97
196.87	5.97
197.089	28.5
197.308	38.74
197.528	38.74
197.747	-6.31
197.966	10.07
198.185	8.02
198.404	-16.55
198.623	20.31
198.842	-34.99
199.062	30.55
199.281	-18.6
199.5	-22.7
199.719	-0.17
199.938	16.21
200.157	51.03
200.376	-30.89
200.595	22.36
200.814	-2.22
201.033	32.6
201.252	75.6
201.471	-18.6
201.69	55.12
201.909	-32.94
202.128	-2.22
202.347	20.31
202.566	14.17
202.785	-28.84
203.004	-30.89
203.223	51.03
203.442	-37.03
203.661	-55.47
203.879	85.84
204.098	91.99
204.317	-39.08
204.536	-6.31
204.755	-0.17
204.974	-20.65
205.193	94.04
205.411	89.94
205.63	5.97
205.849	-4.27
206.068	-20.65
206.287	-0.17
206.505	28.5
206.724	-18.6
206.943	16.21
207.162	-12.46
207.381	63.32
207.599	14.17
207.818	-6.31
208.037	44.88
208.255	12.12
208.474	57.17
208.693	-10.41
208.911	59.22
209.13	20.31
209.349	-37.03
209.567	18.26
209.786	65.36
210.005	3.93
210.223	-16.55
210.442	-41.13
210.661	5.97
210.879	-0.17
211.098	-0.17
211.316	16.21
211.535	34.64
211.753	30.55
211.972	-18.6
212.191	36.69
212.409	-14.51
212.628	40.79
212.846	42.84
213.065	-22.7
213.283	30.55
213.502	-18.6
213.72	22.36
213.938	-2.22
214.157	30.55
214.375	-22.7
214.594	14.17
214.812	44.88
215.031	28.5
215.249	36.69
215.467	-6.31
215.686	-10.41
215.904	34.64
216.122	-45.23
216.341	10.07
216.559	14.17
216.778	3.93
216.996	14.17
217.214	28.5
217.432	-65.71
217.651	12.12
217.869	5.97
218.087	-14.51
218.306	-8.36
218.524	14.17
218.742	-30.89
218.96	100.18
219.179	-37.03
219.397	-20.65
219.615	-6.31
219.833	8.02
220.051	-14.51
220.27	46.93
220.488	-4.27
220.706	-10.41
220.924	-28.84
221.142	36.69
221.36	16.21
221.578	8.02
221.796	22.36
222.015	69.46
222.233	-0.17
222.451	26.45
222.669	-63.66
222.887	3.93
223.105	1.88
223.323	-24.75
223.541	-16.55
223.759	61.27
223.977	12.12
224.195	-0.17
224.413	48.98
224.631	28.5
224.849	-2.22
225.067	79.7
225.285	42.84
225.503	46.93
225.721	-59.56
225.939	-12.46
226.157	24.4
226.375	75.6
226.592	-22.7
226.81	-2.22
227.028	-24.75
227.246	20.31
227.464	5.97
227.682	5.97
227.9	-6.31
228.117	20.31
228.335	-53.42
228.553	-57.51
228.771	-14.51
228.989	12.12
229.206	67.41
229.424	12.12
229.642	-26.79
229.86	-32.94
230.077	-0.17
230.295	-10.41
230.513	3.93
230.731	-30.89
230.948	28.5
231.166	87.89
231.384	10.07
231.601	10.07
231.819	12.12
232.037	-0.17
232.254	40.79
232.472	44.88
232.689	-69.8
232.907	34.64
233.125	-37.03
233.342	22.36
233.56	-67.75
233.777	-10.41
233.995	-39.08
234.213	34.64
234.43	20.31
234.648	14.17
234.865	24.4
235.083	18.26
235.3	12.12
235.518	-71.85
235.735	34.64
235.953	-37.03
236.17	-20.65
236.388	-10.41
236.605	-45.23
236.822	89.94
237.04	104.28
237.257	40.79
237.475	5.97
237.692	38.74
237.909	3.93
238.127	-26.79
238.344	-20.65
238.562	-0.17
238.779	26.45
238.996	-26.79
239.214	12.12
239.431	-28.84
239.648	-88.23
239.865	34.64
240.083	44.88
240.3	46.93
240.517	-34.99
240.735	-22.7
240.952	40.79
241.169	34.64
241.386	3.93
241.603	40.79
241.821	26.45
242.038	-47.27
242.255	16.21
242.472	20.31
242.689	26.45
242.907	-41.13
243.124	-37.03
243.341	26.45
243.558	71.51
243.775	42.84
243.992	-2.22
244.209	46.93
244.426	30.55
244.643	30.55
244.86	-61.61
245.078	28.5
245.295	38.74
245.512	8.02
245.729	20.31
245.946	16.21
246.163	-16.55
246.38	79.7
246.597	12.12
246.814	12.12
247.031	-51.37
247.248	-12.46
247.464	112.47
247.681	-10.41
247.898	16.21
248.115	3.93
248.332	-10.41
248.549	-2.22
248.766	10.07
248.983	91.99
249.2	-37.03
249.417	28.5
249.633	36.69
249.85	40.79
250.067	14.17
250.284	-30.89
250.501	26.45
250.717	-6.31
250.934	-39.08
251.151	59.22
251.368	20.31
251.585	79.7
251.801	14.17
252.018	3.93
252.235	18.26
252.451	16.21
252.668	28.5
252.885	-18.6
253.102	-41.13
253.318	-63.66
253.535	-2.22
253.752	10.07
253.968	-4.27
254.185	24.4
254.401	-20.65
254.618	16.21
254.835	22.36
255.051	34.64
255.268	8.02
255.484	34.64
255.701	22.36
255.917	46.93
256.134	18.26
256.351	26.45
256.567	46.93
256.784	-75.95
257	-45.23
257.217	-4.27
257.433	3.93
257.65	-45.23
257.866	-2.22
258.082	-71.85
258.299	18.26
258.515	20.31
258.732	1.88
258.948	40.79
259.165	26.45
259.381	-24.75
259.597	46.93
259.814	38.74
260.03	-59.56
260.246	-41.13
260.463	3.93
260.679	102.23
260.895	-10.41
261.112	-45.23
261.328	-18.6
261.544	57.17
261.761	61.27
261.977	-4.27
262.193	-39.08
262.409	24.4
262.626	-47.27
262.842	59.22
263.058	1.88
263.274	46.93
263.49	53.08
263.707	-6.31
263.923	-71.85
264.139	-41.13
264.355	-12.46
264.571	34.64
264.787	16.21
265.004	-6.31
265.22	-6.31
265.436	30.55
265.652	26.45
265.868	61.27
266.084	-41.13
266.3	-24.75
266.516	14.17
266.732	-65.71
266.948	-8.36
267.164	-6.31
267.38	57.17
267.596	8.02
267.812	75.6
268.028	32.6
268.244	61.27
268.46	-18.6
268.676	65.36
268.892	24.4
269.108	-22.7
269.324	-12.46
269.54	-63.66
269.756	36.69
269.972	18.26
270.188	1.88
270.403	-73.9
270.619	55.12
270.835	-2.22
271.051	-24.75
271.267	-57.51
271.483	30.55
271.698	-47.27
271.914	36.69
272.13	-96.43
272.346	34.64
272.562	-2.22
272.777	-16.55
272.993	-4.27
273.209	-0.17
273.425	-51.37
273.64	-16.55
273.856	-18.6
274.072	-4.27
274.287	30.55
274.503	30.55
274.719	10.07
274.934	-41.13
275.15	-96.43
275.366	-4.27
275.581	-26.79
275.797	24.4
276.012	-37.03
276.228	8.02
276.444	-57.51
276.659	-6.31
276.875	-10.41
277.09	51.03
277.306	16.21
277.521	-49.32
277.737	24.4
277.952	34.64
278.168	-30.89
278.383	14.17
278.599	14.17
278.814	28.5
279.03	20.31
279.245	-14.51
279.461	65.36
279.676	32.6
279.892	26.45
280.107	22.36
280.322	-84.14
280.538	-18.6
280.753	3.93
280.969	-39.08
281.184	16.21
281.399	34.64
281.615	44.88
281.83	89.94
282.045	-67.75
282.26	18.26
282.476	59.22
282.691	10.07
282.906	57.17
283.122	81.75
283.337	-32.94
283.552	-0.17
283.767	-22.7
283.983	65.36
284.198	-63.66
284.413	-12.46
284.628	-39.08
284.843	-22.7
285.058	-20.65
285.274	18.26
285.489	14.17
285.704	79.7
285.919	-8.36
286.134	87.89
286.349	-77.99
286.564	-0.17
286.779	38.74
286.995	48.98
287.21	-57.51
287.425	63.32
287.64	18.26
287.855	79.7
288.07	-12.46
288.285	51.03
288.5	32.6
288.715	-18.6
288.93	34.64
289.145	-53.42
289.36	14.17
289.575	63.32
289.79	-8.36
290.004	-4.27
290.219	30.55
290.434	14.17
290.649	-12.46
290.864	110.42
291.079	-8.36
291.294	22.36
291.509	-24.75
291.724	36.69
291.938	61.27
292.153	34.64
292.368	-41.13
292.583	28.5
292.798	-22.7
293.012	53.08
293.227	63.32
293.442	-10.41
293.657	-24.75
293.871	34.64
294.086	5.97
294.301	71.51
294.516	46.93
294.73	61.27
294.945	-63.66
295.16	22.36
295.374	16.21
295.589	-2.22
295.804	12.12
296.018	30.55
296.233	69.46
296.447	1.88
296.662	-55.47
296.877	16.21
297.091	-51.37
297.306	44.88
297.52	-18.6
297.735	48.98
297.949	32.6
298.164	-12.46
298.378	-6.31
298.593	-10.41
298.807	-32.94
299.022	8.02
299.236	32.6
299.451	44.88
299.665	8.02
299.88	-26.79
300.094	75.6
300.309	1.88
300.523	-24.75
300.737	3.93
300.952	42.84
301.166	48.98
301.381	65.36
301.595	-51.37
301.809	8.02
302.024	-18.6
302.238	-24.75
302.452	18.26
302.667	32.6
302.881	14.17
303.095	18.26
303.309	12.12
303.524	16.21
303.738	24.4
303.952	-22.7
304.166	59.22
304.381	1.88
304.595	-28.84
304.809	51.03
305.023	10.07
305.237	30.55
305.452	-37.03
305.666	-6.31
305.88	22.36
306.094	-30.89
306.308	-14.51
306.522	10.07
306.736	83.8
306.95	61.27
307.164	128.85
307.379	-4.27
307.593	14.17
307.807	-22.7
308.021	-69.8
308.235	-28.84
308.449	-4.27
308.663	-2.22
308.877	59.22
309.091	-2.22
309.305	12.12
309.519	-0.17
309.733	10.07
309.947	-16.55
310.161	-39.08
310.374	-4.27
310.588	-8.36
310.802	5.97
311.016	-37.03
311.23	28.5
311.444	3.93
311.658	-57.51
311.872	30.55
312.085	22.36
312.299	8.02
312.513	-14.51
312.727	14.17
312.941	22.36
313.154	-37.03
313.368	16.21
313.582	-37.03
313.796	-22.7
314.009	16.21
314.223	-28.84
314.437	30.55
314.651	75.6
314.864	12.12
315.078	-30.89
315.292	-16.55
315.505	34.64
315.719	-2.22
315.933	5.97
316.146	1.88
316.36	18.26
316.573	69.46
316.787	30.55
317.001	32.6
317.214	-26.79
317.428	53.08
317.641	-10.41
317.855	34.64
318.068	10.07
318.282	-4.27
318.495	18.26
318.709	42.84
318.922	-37.03
319.136	34.64
319.349	-26.79
319.563	34.64
319.776	5.97
319.99	12.12
320.203	-8.36
320.417	30.55
320.63	-37.03
320.843	-41.13
321.057	28.5
321.27	1.88
321.483	42.84
321.697	94.04
321.91	-49.32
322.124	14.17
322.337	-4.27
322.55	71.51
322.763	8.02
322.977	-20.65
323.19	-28.84
323.403	48.98
323.617	65.36
323.83	-14.51
324.043	8.02
324.256	-28.84
324.469	18.26
324.683	77.65
324.896	-39.08
325.109	-2.22
325.322	30.55
325.535	40.79
325.748	-45.23
325.962	-96.43
326.175	55.12
326.388	34.64
326.601	26.45
326.814	-30.89
327.027	16.21
327.24	63.32
327.453	-55.47
327.666	5.97
327.879	-0.17
328.092	3.93
328.305	38.74
328.518	22.36
328.731	67.41
328.944	28.5
329.157	-37.03
329.37	-6.31
329.583	48.98
329.796	61.27
330.009	-57.51
330.222	69.46
330.435	8.02
330.648	42.84
330.861	-45.23
331.073	-37.03
331.286	1.88
331.499	-24.75
331.712	-2.22
331.925	102.23
332.138	3.93
332.35	42.84
332.563	-45.23
332.776	5.97
332.989	-53.42
333.202	-61.61
333.414	-8.36
333.627	-12.46
333.84	-59.56
334.053	24.4
334.265	3.93
334.478	1.88
334.691	-6.31
334.903	-55.47
335.116	-45.23
335.329	-14.51
335.541	53.08
335.754	16.21
335.966	16.21
336.179	-34.99
336.392	-69.8
336.604	44.88
336.817	-4.27
337.029	-4.27
337.242	10.07
337.454	65.36
337.667	-12.46
337.88	67.41
338.092	32.6
338.305	-51.37
338.517	-80.04
338.729	-4.27
338.942	20.31
339.154	10.07
339.367	-10.41
339.579	-30.89
339.792	-84.14
340.004	-24.75
340.217	-69.8
340.429	55.12
340.641	-8.36
340.854	63.32
341.066	-45.23
341.278	46.93
341.491	44.88
341.703	-37.03
341.915	-12.46
342.128	-28.84
342.34	3.93
342.552	-12.46
342.764	63.32
342.977	18.26
343.189	-26.79
343.401	-18.6
343.613	-4.27
343.826	14.17
344.038	8.02
344.25	57.17
344.462	-37.03
344.674	69.46
344.886	16.21
345.099	-47.27
345.311	-6.31
345.523	-20.65
345.735	5.97
345.947	53.08
346.159	-2.22
346.371	8.02
346.583	-24.75
346.795	16.21
347.007	26.45
347.219	75.6
347.431	67.41
347.643	22.36
347.855	3.93
348.067	69.46
348.279	-6.31
348.491	69.46
348.703	-24.75
348.915	61.27
349.127	-0.17
349.339	-45.23
349.551	-59.56
349.763	20.31
349.975	48.98
350.187	30.55
350.399	1.88
350.61	1.88
350.822	-0.17
351.034	102.23
351.246	75.6
351.458	44.88
351.669	3.93
351.881	61.27
352.093	48.98
352.305	14.17
352.517	42.84
352.728	38.74
352.94	-2.22
353.152	63.32
353.363	-18.6
353.575	-34.99
353.787	34.64
353.999	-20.65
354.21	26.45
354.422	32.6
354.633	-10.41
354.845	-55.47
355.057	40.79
355.268	-14.51
355.48	-18.6
355.692	-2.22
355.903	28.5
356.115	71.51
356.326	-57.51
356.538	-0.17
356.749	59.22
356.961	-4.27
357.172	-16.55
357.384	67.41
357.595	10.07
357.807	-26.79
358.018	-37.03
358.23	79.7
358.441	79.7
358.653	28.5
358.864	-0.17
359.075	3.93
359.287	-26.79
359.498	77.65
359.709	-55.47
359.921	-0.17
360.132	10.07
360.344	75.6
360.555	-43.18
360.766	30.55
360.977	48.98
361.189	-12.46
361.4	-47.27
361.611	28.5
361.823	-32.94
362.034	14.17
362.245	-28.84
362.456	-0.17
362.667	42.84
362.879	85.84
363.09	-4.27
363.301	26.45
363.512	26.45
363.723	36.69
363.935	-10.41
364.146	40.79
364.357	1.88
364.568	12.12
364.779	-24.75
364.99	143.19
365.201	24.4
365.412	32.6
365.623	30.55
365.834	-8.36
366.045	85.84
366.256	42.84
366.467	-18.6
366.678	-43.18
366.889	-59.56
367.1	-20.65
367.311	-77.99
367.522	42.84
367.733	18.26
367.944	44.88
368.155	32.6
368.366	-6.31
368.577	18.26
368.788	1.88
368.999	12.12
369.209	-4.27
369.42	83.8
369.631	81.75
369.842	91.99
370.053	-32.94
370.264	10.07
370.474	-51.37
370.685	-12.46
370.896	-0.17
371.107	10.07
371.317	46.93
371.528	44.88
371.739	57.17
371.95	40.79
372.16	22.36
372.371	63.32
372.582	42.84
372.792	-39.08
373.003	-24.75
373.214	-12.46
373.424	55.12
373.635	32.6
373.846	69.46
374.056	8.02
374.267	12.12
374.477	81.75
374.688	-43.18
374.898	-51.37
375.109	79.7
375.319	38.74
375.53	48.98
375.74	46.93
375.951	36.69
376.161	79.7
376.372	14.17
376.582	-55.47
376.793	44.88
377.003	-16.55
377.214	12.12
377.424	5.97
377.635	-0.17
377.845	18.26
378.055	18.26
378.266	-30.89
378.476	61.27
378.686	46.93
378.897	89.94
379.107	-24.75
379.317	-2.22
379.528	-55.47
379.738	14.17
379.948	67.41
380.158	-4.27
380.369	22.36
380.579	98.13
380.789	48.98
380.999	65.36
381.21	34.64
381.42	16.21
381.63	28.5
381.84	32.6
382.05	-30.89
382.261	46.93
382.471	14.17
382.681	-0.17
382.891	53.08
383.101	-12.46
383.311	-28.84
383.521	-4.27
383.731	3.93
383.941	44.88
384.151	-24.75
384.361	3.93
384.571	24.4
384.781	24.4
384.991	38.74
385.201	36.69
385.411	71.51
385.621	-8.36
385.831	-16.55
386.041	46.93
386.251	26.45
386.461	46.93
386.671	32.6
386.881	30.55
387.091	67.41
387.301	89.94
387.511	61.27
387.72	-47.27
387.93	-10.41
388.14	-73.9
388.35	-10.41
388.56	18.26
388.769	30.55
388.979	94.04
389.189	48.98
389.399	-4.27
389.609	24.4
389.818	-14.51
390.028	65.36
390.238	34.64
390.447	18.26
390.657	85.84
390.867	-55.47
391.076	5.97
391.286	-55.47
391.496	-18.6
391.705	-4.27
391.915	20.31
392.125	42.84
392.334	18.26
392.544	96.08
392.753	63.32
392.963	-6.31
393.172	48.98
393.382	1.88
393.591	-12.46
393.801	3.93
394.01	16.21
394.22	42.84
394.429	14.17
394.639	40.79
394.848	-24.75
395.058	30.55
395.267	22.36
395.477	10.07
395.686	24.4
395.895	22.36
396.105	40.79
396.314	73.56
396.524	26.45
396.733	48.98
396.942	48.98
397.152	51.03
397.361	32.6
397.57	24.4
397.78	24.4
397.989	28.5
398.198	75.6
398.407	53.08
398.617	59.22
398.826	83.8
399.035	57.17
399.244	16.21
399.453	59.22
399.663	30.55
399.872	98.13
400.081	51.03
400.29	59.22
400.499	61.27
400.708	128.85
400.917	83.8
401.127	79.7
401.336	-0.17
401.545	116.56
401.754	5.97
401.963	151.38
402.172	-14.51
402.381	5.97
402.59	67.41
402.799	77.65
403.008	89.94
403.217	-14.51
403.426	-28.84
403.635	8.02
403.844	16.21
404.053	26.45
404.262	8.02
404.471	114.52
404.68	61.27
404.888	98.13
405.097	132.95
405.306	132.95
405.515	65.36
405.724	89.94
405.933	26.45
406.142	46.93
406.35	173.91
406.559	83.8
406.768	87.89
406.977	79.7
407.185	63.32
407.394	132.95
407.603	122.71
407.812	122.71
408.02	118.61
408.229	165.71
408.438	118.61
408.646	34.64
408.855	137.04
409.064	114.52
409.272	130.9
409.481	163.67
409.69	112.47
409.898	173.91
410.107	202.58
410.315	237.39
410.524	112.47
410.733	259.92
410.941	180.05
411.15	204.63
411.358	229.2
411.567	266.07
411.775	350.03
411.984	218.96
412.192	272.21
412.401	202.58
412.609	231.25
412.818	214.87
413.026	280.4
413.234	296.78
413.443	218.96
413.651	261.97
413.86	266.07
414.068	266.07
414.276	378.7
414.485	409.42
414.693	448.33
414.901	401.23
415.11	390.99
415.318	384.85
415.526	407.38
415.734	472.91
415.943	497.49
416.151	538.45
416.359	513.87
416.567	491.34
416.776	524.11
416.984	573.26
417.192	575.31
417.4	552.78
417.608	575.31
417.817	642.89
418.025	579.4
418.233	583.5
418.441	632.65
418.649	767.82
418.857	794.44
419.065	765.77
419.273	712.52
419.481	778.06
419.689	819.02
419.897	907.08
420.105	868.17
420.313	882.5
420.521	999.24
420.729	982.85
420.937	962.37
421.145	1042.25
421.353	1046.34
421.561	1140.55
421.769	1134.4
421.977	1240.9
422.185	1156.93
422.393	1255.23
422.601	1310.53
422.809	1324.87
423.017	1357.63
423.224	1402.69
423.432	1396.54
423.64	1392.45
423.848	1554.24
424.056	1568.57
424.263	1695.55
424.471	1652.54
424.679	1703.74
424.887	1673.02
425.094	1810.23
425.302	1863.48
425.51	1933.11
425.718	2015.03
425.925	2168.63
426.133	2084.66
426.341	2187.06
426.548	2213.68
426.756	2330.42
426.964	2457.39
427.171	2424.62
427.379	2586.41
427.586	2621.23
427.794	2737.96
428.001	2811.69
428.209	2873.13
428.417	2873.13
428.624	3079.97
428.832	3100.45
429.039	3067.69
429.247	3071.78
429.454	3243.81
429.662	3741.47
429.869	3499.81
430.076	3473.18
430.284	3401.51
430.491	3598.11
430.699	3759.9
430.906	4026.14
431.114	3919.64
431.321	3960.6
431.528	4114.2
431.736	4228.88
431.943	4480.78
432.15	4298.52
432.358	4478.74
432.565	4849.42
432.772	4566.8
432.979	4876.04
433.187	4894.47
433.394	5068.55
433.601	5410.56
433.808	5441.28
434.016	5459.71
434.223	5793.53
434.43	5842.68
434.637	5791.48
434.844	6166.26
435.052	6127.35
435.259	6391.54
435.466	6301.43
435.673	6348.53
435.88	6618.86
436.087	6911.72
436.294	7141.1
436.501	6766.32
436.708	6926.06
436.915	7263.97
437.122	7560.93
437.329	7632.61
437.537	7874.27
437.743	7986.91
437.95	7896.8
438.157	8355.54
438.364	8726.22
438.571	8580.82
438.778	8611.54
438.985	9404.1
439.192	9154.25
439.399	9459.4
439.606	9141.96
439.813	9537.22
440.02	10030.78
440.227	9774.78
440.433	9977.53
440.64	9897.66
440.847	10176.19
441.054	10297.02
441.261	11095.72
441.467	10942.13
441.674	11167.4
441.881	11628.2
442.088	11742.88
442.294	11308.71
442.501	11919.01
442.708	12117.66
442.914	12553.88
443.121	13145.74
443.328	12631.7
443.534	13766.28
443.741	13485.7
443.948	12947.09
444.154	14044.8
444.361	13897.35
444.568	13895.3
444.774	13952.64
444.981	14186.11
445.187	14605.94
445.394	15208.05
445.6	14931.57
445.807	16651.86
446.013	15810.15
446.22	15949.41
446.426	16512.6
446.633	16787.03
446.839	17440.33
447.046	16797.27
447.252	17716.81
447.459	17794.63
447.665	17550.92
447.871	18429.5
448.078	19303.98
448.284	18323.01
448.491	18927.16
448.697	19793.45
448.903	19750.44
449.11	19975.72
449.316	19742.25
449.522	19973.67
449.728	20676.12
449.935	20715.03
450.141	20733.46
450.347	21001.75
450.553	20610.59
450.76	20651.55
450.966	21554.7
451.172	21308.94
451.378	21505.55
451.584	21351.95
451.791	21868.04
451.997	21831.18
452.203	22076.93
452.409	22113.8
452.615	21751.31
452.821	21380.62
453.027	20821.53
453.233	22101.51
453.44	21216.79
453.646	21804.55
453.852	21841.42
454.058	22162.95
454.264	21511.69
454.47	21865.99
454.676	21472.78
454.882	22085.12
455.088	20170.27
455.294	20553.24
455.5	20633.11
455.705	21071.38
455.911	20274.72
456.117	19813.93
456.323	19371.57
456.529	18351.68
456.735	19209.78
456.941	18789.94
457.147	18605.63
457.352	17751.62
457.558	17796.68
457.764	17739.33
457.97	17487.43
458.176	17161.81
458.381	16983.63
458.587	16330.33
458.793	16195.17
458.999	15482.47
459.204	16647.77
459.41	15933.03
459.616	14986.86
459.821	14870.13
460.027	15130.22
460.233	14761.59
460.438	14032.51
460.644	14167.68
460.85	13571.72
461.055	13088.4
461.261	13094.54
461.466	12267.16
461.672	11699.87
461.878	12975.76
462.083	11722.4
462.289	11820.7
462.494	11638.44
462.7	10997.42
462.905	10651.31
463.111	11173.55
463.316	11075.24
463.522	11003.57
463.727	10819.25
463.932	10915.5
464.138	10632.88
464.343	10782.38
464.549	10333.88
464.754	10653.36
464.959	10575.54
465.165	10712.75
465.37	10045.12
465.575	9875.13
465.781	10456.76
465.986	10323.64
466.191	10073.79
466.397	9803.46
466.602	9201.35
466.807	9709.25
467.012	9785.02
467.218	9731.78
467.423	9508.55
