Data from USB4F104151__53__11-52-00-326.txt Node

Date: Fri Mar 14 11:52:00 EDT 2025
User: louis
Spectrometer: USB4F10415
Trigger mode: 4
Integration Time (sec): 2.000000E-2
Scans to average: 1
Electric dark correction enabled: true
Nonlinearity correction enabled: false
Boxcar width: 0
XAxis mode: Wavelengths
Number of Pixels in Spectrum: 3648
>>>>>Begin Spectral Data<<<<<
178.204	-98.47
178.424	-98.47
178.644	-98.47
178.864	-82.09
179.084	-22.7
179.304	1.88
179.524	16.21
179.744	-8.36
179.964	12.12
180.184	-51.37
180.404	24.4
180.624	-47.27
180.844	22.36
181.064	-10.41
181.283	51.03
181.503	-30.89
181.723	20.31
181.943	-30.89
182.163	116.56
182.383	5.97
182.602	48.98
182.822	-0.17
183.042	12.12
183.262	-2.22
183.482	38.74
183.701	-53.42
183.921	85.84
184.141	-12.46
184.361	18.26
184.58	32.6
184.8	10.07
185.02	1.88
185.239	135
185.459	24.4
185.679	34.64
185.898	61.27
186.118	91.99
186.338	24.4
186.557	-0.17
186.777	-73.9
186.997	-37.03
187.216	-30.89
187.436	75.6
187.655	-6.31
187.875	83.8
188.095	73.56
188.314	20.31
188.534	38.74
188.753	26.45
188.973	1.88
189.192	71.51
189.412	79.7
189.631	10.07
189.851	26.45
190.07	118.61
190.29	57.17
190.509	-18.6
190.729	51.03
190.948	3.93
191.168	104.28
191.387	59.22
191.607	-2.22
191.826	-0.17
192.045	46.93
192.265	-12.46
192.484	-10.41
192.704	5.97
192.923	-84.14
193.142	130.9
193.362	-24.75
193.581	26.45
193.8	102.23
194.02	5.97
194.239	36.69
194.458	59.22
194.678	22.36
194.897	20.31
195.116	20.31
195.335	94.04
195.555	-28.84
195.774	69.46
195.993	42.84
196.212	61.27
196.432	53.08
196.651	16.21
196.87	46.93
197.089	30.55
197.308	34.64
197.528	51.03
197.747	10.07
197.966	24.4
198.185	51.03
198.404	18.26
198.623	79.7
198.842	42.84
199.062	81.75
199.281	110.42
199.5	32.6
199.719	65.36
199.938	20.31
200.157	36.69
200.376	32.6
200.595	46.93
200.814	1.88
201.033	61.27
201.252	63.32
201.471	-37.03
201.69	85.84
201.909	53.08
202.128	65.36
202.347	44.88
202.566	26.45
202.785	42.84
203.004	-34.99
203.223	38.74
203.442	-2.22
203.661	26.45
203.879	-45.23
204.098	12.12
204.317	26.45
204.536	94.04
204.755	28.5
204.974	3.93
205.193	42.84
205.411	73.56
205.63	-24.75
205.849	75.6
206.068	40.79
206.287	71.51
206.505	102.23
206.724	16.21
206.943	-24.75
207.162	26.45
207.381	28.5
207.599	77.65
207.818	42.84
208.037	28.5
208.255	-32.94
208.474	55.12
208.693	91.99
208.911	87.89
209.13	53.08
209.349	24.4
209.567	-8.36
209.786	65.36
210.005	112.47
210.223	26.45
210.442	-39.08
210.661	28.5
210.879	51.03
211.098	16.21
211.316	71.51
211.535	67.41
211.753	5.97
211.972	59.22
212.191	38.74
212.409	3.93
212.628	-2.22
212.846	10.07
213.065	40.79
213.283	59.22
213.502	34.64
213.72	-4.27
213.938	63.32
214.157	51.03
214.375	-20.65
214.594	-20.65
214.812	22.36
215.031	28.5
215.249	10.07
215.467	59.22
215.686	55.12
215.904	79.7
216.122	36.69
216.341	48.98
216.559	30.55
216.778	20.31
216.996	22.36
217.214	-26.79
217.432	71.51
217.651	10.07
217.869	75.6
218.087	73.56
218.306	-22.7
218.524	65.36
218.742	51.03
218.96	-0.17
219.179	53.08
219.397	3.93
219.615	48.98
219.833	26.45
220.051	5.97
220.27	79.7
220.488	63.32
220.706	42.84
220.924	-45.23
221.142	51.03
221.36	-0.17
221.578	114.52
221.796	53.08
222.015	22.36
222.233	87.89
222.451	69.46
222.669	5.97
222.887	44.88
223.105	94.04
223.323	22.36
223.541	-14.51
223.759	32.6
223.977	46.93
224.195	73.56
224.413	8.02
224.631	34.64
224.849	63.32
225.067	-2.22
225.285	10.07
225.503	22.36
225.721	16.21
225.939	30.55
226.157	1.88
226.375	122.71
226.592	16.21
226.81	38.74
227.028	40.79
227.246	22.36
227.464	32.6
227.682	48.98
227.9	20.31
228.117	87.89
228.335	63.32
228.553	61.27
228.771	63.32
228.989	12.12
229.206	51.03
229.424	20.31
229.642	77.65
229.86	-28.84
230.077	-0.17
230.295	89.94
230.513	44.88
230.731	44.88
230.948	91.99
231.166	30.55
231.384	-12.46
231.601	40.79
231.819	91.99
232.037	73.56
232.254	55.12
232.472	-2.22
232.689	46.93
232.907	-37.03
233.125	-24.75
233.342	38.74
233.56	55.12
233.777	67.41
233.995	1.88
234.213	77.65
234.43	77.65
234.648	42.84
234.865	10.07
235.083	42.84
235.3	-22.7
235.518	42.84
235.735	-10.41
235.953	44.88
236.17	40.79
236.388	-47.27
236.605	42.84
236.822	46.93
237.04	59.22
237.257	24.4
237.475	-28.84
237.692	12.12
237.909	18.26
238.127	-34.99
238.344	10.07
238.562	-4.27
238.779	-28.84
238.996	18.26
239.214	24.4
239.431	36.69
239.648	10.07
239.865	124.76
240.083	75.6
240.3	75.6
240.517	-6.31
240.735	67.41
240.952	42.84
241.169	-24.75
241.386	20.31
241.603	1.88
241.821	120.66
242.038	124.76
242.255	51.03
242.472	16.21
242.689	-20.65
242.907	83.8
243.124	24.4
243.341	-67.75
243.558	-73.9
243.775	-30.89
243.992	-51.37
244.209	22.36
244.426	20.31
244.643	104.28
244.86	89.94
245.078	8.02
245.295	55.12
245.512	30.55
245.729	-20.65
245.946	114.52
246.163	75.6
246.38	81.75
246.597	69.46
246.814	30.55
247.031	30.55
247.248	73.56
247.464	-12.46
247.681	96.08
247.898	-41.13
248.115	24.4
248.332	24.4
248.549	1.88
248.766	-0.17
248.983	20.31
249.2	-2.22
249.417	40.79
249.633	85.84
249.85	61.27
250.067	16.21
250.284	102.23
250.501	124.76
250.717	55.12
250.934	22.36
251.151	10.07
251.368	100.18
251.585	67.41
251.801	61.27
252.018	-2.22
252.235	3.93
252.451	42.84
252.668	12.12
252.885	30.55
253.102	48.98
253.318	46.93
253.535	36.69
253.752	42.84
253.968	44.88
254.185	30.55
254.401	53.08
254.618	69.46
254.835	-16.55
255.051	85.84
255.268	44.88
255.484	40.79
255.701	-16.55
255.917	36.69
256.134	-0.17
256.351	67.41
256.567	59.22
256.784	51.03
257	22.36
257.217	-2.22
257.433	20.31
257.65	24.4
257.866	83.8
258.082	34.64
258.299	63.32
258.515	116.56
258.732	1.88
258.948	81.75
259.165	112.47
259.381	24.4
259.597	18.26
259.814	65.36
260.03	42.84
260.246	46.93
260.463	20.31
260.679	57.17
260.895	-26.79
261.112	65.36
261.328	-24.75
261.544	-47.27
261.761	114.52
261.977	55.12
262.193	-18.6
262.409	48.98
262.626	36.69
262.842	44.88
263.058	36.69
263.274	48.98
263.49	30.55
263.707	69.46
263.923	69.46
264.139	18.26
264.355	61.27
264.571	53.08
264.787	26.45
265.004	91.99
265.22	36.69
265.436	40.79
265.652	46.93
265.868	10.07
266.084	12.12
266.3	59.22
266.516	-26.79
266.732	73.56
266.948	59.22
267.164	26.45
267.38	46.93
267.596	114.52
267.812	73.56
268.028	3.93
268.244	40.79
268.46	85.84
268.676	34.64
268.892	38.74
269.108	18.26
269.324	8.02
269.54	32.6
269.756	67.41
269.972	20.31
270.188	-28.84
270.403	-28.84
270.619	89.94
270.835	83.8
271.051	98.13
271.267	36.69
271.483	51.03
271.698	40.79
271.914	24.4
272.13	-22.7
272.346	36.69
272.562	36.69
272.777	102.23
272.993	-4.27
273.209	30.55
273.425	38.74
273.64	51.03
273.856	38.74
274.072	51.03
274.287	48.98
274.503	30.55
274.719	91.99
274.934	-10.41
275.15	24.4
275.366	57.17
275.581	-16.55
275.797	89.94
276.012	26.45
276.228	22.36
276.444	-0.17
276.659	65.36
276.875	12.12
277.09	5.97
277.306	51.03
277.521	71.51
277.737	48.98
277.952	18.26
278.168	91.99
278.383	14.17
278.599	-4.27
278.814	32.6
279.03	69.46
279.245	40.79
279.461	-4.27
279.676	71.51
279.892	57.17
280.107	-0.17
280.322	-16.55
280.538	61.27
280.753	18.26
280.969	28.5
281.184	-20.65
281.399	139.09
281.615	83.8
281.83	-4.27
282.045	-14.51
282.26	48.98
282.476	36.69
282.691	85.84
282.906	-4.27
283.122	32.6
283.337	10.07
283.552	65.36
283.767	20.31
283.983	12.12
284.198	-26.79
284.413	22.36
284.628	-6.31
284.843	75.6
285.058	-4.27
285.274	85.84
285.489	-39.08
285.704	24.4
285.919	73.56
286.134	94.04
286.349	73.56
286.564	18.26
286.779	118.61
286.995	22.36
287.21	-61.61
287.425	89.94
287.64	16.21
287.855	71.51
288.07	16.21
288.285	67.41
288.5	26.45
288.715	51.03
288.93	20.31
289.145	38.74
289.36	28.5
289.575	10.07
289.79	22.36
290.004	51.03
290.219	122.71
290.434	22.36
290.649	18.26
290.864	10.07
291.079	12.12
291.294	87.89
291.509	98.13
291.724	51.03
291.938	36.69
292.153	-14.51
292.368	18.26
292.583	46.93
292.798	79.7
293.012	16.21
293.227	51.03
293.442	73.56
293.657	3.93
293.871	3.93
294.086	-47.27
294.301	91.99
294.516	28.5
294.73	38.74
294.945	36.69
295.16	-14.51
295.374	128.85
295.589	20.31
295.804	-12.46
296.018	67.41
296.233	104.28
296.447	61.27
296.662	46.93
296.877	34.64
297.091	83.8
297.306	71.51
297.52	16.21
297.735	53.08
297.949	69.46
298.164	67.41
298.378	32.6
298.593	42.84
298.807	30.55
299.022	67.41
299.236	53.08
299.451	77.65
299.665	24.4
299.88	30.55
300.094	38.74
300.309	18.26
300.523	26.45
300.737	65.36
300.952	8.02
301.166	59.22
301.381	-34.99
301.595	79.7
301.809	28.5
302.024	81.75
302.238	34.64
302.452	34.64
302.667	-16.55
302.881	48.98
303.095	67.41
303.309	10.07
303.524	40.79
303.738	71.51
303.952	69.46
304.166	-45.23
304.381	73.56
304.595	63.32
304.809	34.64
305.023	34.64
305.237	42.84
305.452	12.12
305.666	5.97
305.88	46.93
306.094	38.74
306.308	14.17
306.522	36.69
306.736	98.13
306.95	8.02
307.164	32.6
307.379	36.69
307.593	28.5
307.807	59.22
308.021	32.6
308.235	98.13
308.449	87.89
308.663	61.27
308.877	69.46
309.091	20.31
309.305	38.74
309.519	28.5
309.733	75.6
309.947	59.22
310.161	61.27
310.374	14.17
310.588	-16.55
310.802	20.31
311.016	36.69
311.23	67.41
311.444	94.04
311.658	26.45
311.872	65.36
312.085	38.74
312.299	77.65
312.513	26.45
312.727	96.08
312.941	55.12
313.154	30.55
313.368	51.03
313.582	51.03
313.796	-10.41
314.009	57.17
314.223	22.36
314.437	91.99
314.651	3.93
314.864	16.21
315.078	51.03
315.292	79.7
315.505	106.32
315.719	57.17
315.933	-8.36
316.146	-26.79
316.36	36.69
316.573	10.07
316.787	100.18
317.001	51.03
317.214	20.31
317.428	22.36
317.641	10.07
317.855	51.03
318.068	87.89
318.282	48.98
318.495	55.12
318.709	-8.36
318.922	20.31
319.136	85.84
319.349	94.04
319.563	91.99
319.776	-61.61
319.99	106.32
320.203	91.99
320.417	8.02
320.63	53.08
320.843	67.41
321.057	-14.51
321.27	71.51
321.483	51.03
321.697	28.5
321.91	114.52
322.124	89.94
322.337	53.08
322.55	-32.94
322.763	69.46
322.977	26.45
323.19	-20.65
323.403	57.17
323.617	61.27
323.83	57.17
324.043	-22.7
324.256	22.36
324.469	22.36
324.683	116.56
324.896	87.89
325.109	46.93
325.322	18.26
325.535	83.8
325.748	81.75
325.962	57.17
326.175	55.12
326.388	24.4
326.601	61.27
326.814	1.88
327.027	77.65
327.24	38.74
327.453	-0.17
327.666	89.94
327.879	-28.84
328.092	83.8
328.305	75.6
328.518	-8.36
328.731	14.17
328.944	-14.51
329.157	12.12
329.37	40.79
329.583	36.69
329.796	89.94
330.009	20.31
330.222	112.47
330.435	12.12
330.648	44.88
330.861	-20.65
331.073	-22.7
331.286	55.12
331.499	24.4
331.712	-2.22
331.925	44.88
332.138	30.55
332.35	18.26
332.563	71.51
332.776	96.08
332.989	48.98
333.202	-51.37
333.414	48.98
333.627	44.88
333.84	87.89
334.053	65.36
334.265	38.74
334.478	36.69
334.691	79.7
334.903	83.8
335.116	89.94
335.329	65.36
335.541	71.51
335.754	26.45
335.966	59.22
336.179	48.98
336.392	-0.17
336.604	48.98
336.817	-22.7
337.029	12.12
337.242	-8.36
337.454	20.31
337.667	57.17
337.88	77.65
338.092	53.08
338.305	53.08
338.517	-8.36
338.729	-0.17
338.942	32.6
339.154	-20.65
339.367	14.17
339.579	28.5
339.792	22.36
340.004	40.79
340.217	71.51
340.429	20.31
340.641	42.84
340.854	71.51
341.066	-16.55
341.278	69.46
341.491	79.7
341.703	65.36
341.915	-4.27
342.128	-22.7
342.34	18.26
342.552	-6.31
342.764	-4.27
342.977	32.6
343.189	53.08
343.401	48.98
343.613	20.31
343.826	85.84
344.038	-10.41
344.25	118.61
344.462	-18.6
344.674	-10.41
344.886	42.84
345.099	75.6
345.311	94.04
345.523	44.88
345.735	-6.31
345.947	100.18
346.159	77.65
346.371	110.42
346.583	36.69
346.795	57.17
347.007	24.4
347.219	48.98
347.431	55.12
347.643	85.84
347.855	100.18
348.067	28.5
348.279	-18.6
348.491	51.03
348.703	53.08
348.915	24.4
349.127	-73.9
349.339	98.13
349.551	1.88
349.763	83.8
349.975	-16.55
350.187	69.46
350.399	22.36
350.61	34.64
350.822	32.6
351.034	36.69
351.246	-20.65
351.458	63.32
351.669	-6.31
351.881	65.36
352.093	57.17
352.305	132.95
352.517	22.36
352.728	102.23
352.94	36.69
353.152	71.51
353.363	63.32
353.575	-0.17
353.787	85.84
353.999	32.6
354.21	98.13
354.422	83.8
354.633	73.56
354.845	12.12
355.057	61.27
355.268	77.65
355.48	81.75
355.692	30.55
355.903	20.31
356.115	-0.17
356.326	61.27
356.538	44.88
356.749	38.74
356.961	71.51
357.172	20.31
357.384	-20.65
357.595	128.85
357.807	55.12
358.018	91.99
358.23	46.93
358.441	69.46
358.653	46.93
358.864	57.17
359.075	44.88
359.287	38.74
359.498	69.46
359.709	16.21
359.921	53.08
360.132	38.74
360.344	36.69
360.555	48.98
360.766	110.42
360.977	77.65
361.189	30.55
361.4	65.36
361.611	71.51
361.823	-32.94
362.034	55.12
362.245	-10.41
362.456	36.69
362.667	104.28
362.879	-28.84
363.09	3.93
363.301	38.74
363.512	40.79
363.723	20.31
363.935	53.08
364.146	108.37
364.357	46.93
364.568	22.36
364.779	10.07
364.99	51.03
365.201	3.93
365.412	81.75
365.623	18.26
365.834	151.38
366.045	38.74
366.256	65.36
366.467	36.69
366.678	20.31
366.889	-4.27
367.1	-6.31
367.311	12.12
367.522	53.08
367.733	18.26
367.944	81.75
368.155	46.93
368.366	100.18
368.577	87.89
368.788	42.84
368.999	48.98
369.209	108.37
369.42	100.18
369.631	30.55
369.842	36.69
370.053	10.07
370.264	118.61
370.474	51.03
370.685	30.55
370.896	51.03
371.107	57.17
371.317	102.23
371.528	-0.17
371.739	108.37
371.95	20.31
372.16	85.84
372.371	77.65
372.582	42.84
372.792	149.33
373.003	40.79
373.214	26.45
373.424	65.36
373.635	3.93
373.846	59.22
374.056	87.89
374.267	42.84
374.477	1.88
374.688	44.88
374.898	38.74
375.109	71.51
375.319	79.7
375.53	46.93
375.74	36.69
375.951	77.65
376.161	65.36
376.372	87.89
376.582	30.55
376.793	73.56
377.003	32.6
377.214	67.41
377.424	20.31
377.635	59.22
377.845	12.12
378.055	51.03
378.266	48.98
378.476	94.04
378.686	18.26
378.897	59.22
379.107	44.88
379.317	104.28
379.528	94.04
379.738	73.56
379.948	91.99
380.158	18.26
380.369	98.13
380.579	63.32
380.789	12.12
380.999	71.51
381.21	75.6
381.42	102.23
381.63	53.08
381.84	46.93
382.05	124.76
382.261	108.37
382.471	-61.61
382.681	57.17
382.891	40.79
383.101	26.45
383.311	-14.51
383.521	44.88
383.731	96.08
383.941	30.55
384.151	96.08
384.361	5.97
384.571	36.69
384.781	69.46
384.991	20.31
385.201	108.37
385.411	22.36
385.621	89.94
385.831	61.27
386.041	135
386.251	-0.17
386.461	120.66
386.671	3.93
386.881	-26.79
387.091	46.93
387.301	132.95
387.511	55.12
387.72	36.69
387.93	102.23
388.14	26.45
388.35	75.6
388.56	110.42
388.769	108.37
388.979	20.31
389.189	16.21
389.399	20.31
389.609	30.55
389.818	149.33
390.028	100.18
390.238	-6.31
390.447	-8.36
390.657	61.27
390.867	65.36
391.076	73.56
391.286	73.56
391.496	-0.17
391.705	55.12
391.915	-22.7
392.125	155.47
392.334	24.4
392.544	143.19
392.753	98.13
392.963	71.51
393.172	10.07
393.382	65.36
393.591	40.79
393.801	77.65
394.01	114.52
394.22	57.17
394.429	36.69
394.639	81.75
394.848	44.88
395.058	24.4
395.267	151.38
395.477	149.33
395.686	87.89
395.895	73.56
396.105	69.46
396.314	75.6
396.524	122.71
396.733	63.32
396.942	161.62
397.152	120.66
397.361	102.23
397.57	110.42
397.78	141.14
397.989	102.23
398.198	173.91
398.407	114.52
398.617	108.37
398.826	128.85
399.035	96.08
399.244	22.36
399.453	110.42
399.663	124.76
399.872	91.99
400.081	106.32
400.29	22.36
400.499	91.99
400.708	153.43
400.917	122.71
401.127	108.37
401.336	108.37
401.545	116.56
401.754	61.27
401.963	169.81
402.172	71.51
402.381	89.94
402.59	145.24
402.799	102.23
403.008	81.75
403.217	96.08
403.426	163.67
403.635	98.13
403.844	34.64
404.053	34.64
404.262	124.76
404.471	198.48
404.68	130.9
404.888	147.28
405.097	42.84
405.306	149.33
405.515	96.08
405.724	149.33
405.933	128.85
406.142	165.71
406.35	116.56
406.559	198.48
406.768	157.52
406.977	223.06
407.185	194.39
407.394	206.67
407.603	122.71
407.812	255.83
408.02	259.92
408.229	233.3
408.438	167.76
408.646	165.71
408.855	241.49
409.064	239.44
409.272	167.76
409.481	245.59
409.69	200.53
409.898	270.16
410.107	304.98
410.315	327.5
410.524	337.74
410.733	321.36
410.941	278.35
411.15	276.31
411.358	319.31
411.567	384.85
411.775	311.12
411.984	354.13
412.192	292.69
412.401	474.96
412.609	442.19
412.818	497.49
413.026	339.79
413.234	477.01
413.443	499.53
413.651	515.92
413.86	468.81
414.068	546.64
414.276	599.88
414.485	606.03
414.693	593.74
414.901	624.46
415.11	612.17
415.318	646.99
415.526	665.42
415.734	714.57
415.943	745.29
416.151	796.49
416.359	802.63
416.567	730.95
416.776	853.83
416.984	929.61
417.192	837.45
417.4	855.88
417.608	966.47
417.817	905.03
418.025	931.66
418.233	1003.33
418.441	1032.01
418.649	1052.49
418.857	1214.27
419.065	1197.89
419.273	1128.26
419.481	1253.19
419.689	1343.3
419.897	1421.12
420.105	1328.96
420.313	1355.58
420.521	1380.16
420.729	1427.26
420.937	1488.7
421.145	1451.84
421.353	1713.98
421.561	1793.85
421.769	1718.08
421.977	1859.38
422.185	1888.06
422.393	1986.36
422.601	1949.5
422.809	2053.94
423.017	2002.74
423.224	2113.33
423.432	2166.58
423.64	2094.9
423.848	2264.88
424.056	2285.36
424.263	2543.41
424.471	2492.21
424.679	2545.45
424.887	2750.25
425.094	2783.02
425.302	2903.85
425.51	2821.93
425.718	3000.1
425.925	3022.63
426.133	3116.84
426.341	3342.11
426.548	3399.46
426.756	3415.84
426.964	3487.52
427.171	3569.44
427.379	3782.43
427.586	3929.88
427.794	3927.83
428.001	4081.43
428.209	4394.77
428.417	4298.52
428.624	4484.88
428.832	4601.62
429.039	4581.14
429.247	4476.69
429.454	5121.8
429.662	5369.6
429.869	5095.18
430.076	5388.04
430.284	5164.81
430.491	5369.6
430.699	5705.47
430.906	5836.54
431.114	5820.16
431.321	5940.99
431.528	6188.79
431.736	6590.19
431.943	6698.74
432.15	6485.75
432.358	6541.04
432.565	7102.18
432.772	7010.03
432.979	7366.37
433.187	7333.61
433.394	7515.87
433.601	8103.64
433.808	8146.65
434.016	7960.28
434.223	8314.58
434.43	8888.01
434.637	8656.59
434.844	9473.73
435.052	9303.75
435.259	9553.6
435.466	9430.73
435.673	9418.44
435.88	9838.27
436.087	10610.36
436.294	10405.56
436.501	10161.85
436.708	10426.04
436.915	10768.05
437.122	11212.46
437.329	11515.56
437.537	11546.28
437.743	11810.47
437.95	11820.7
438.157	12254.87
438.364	12646.04
438.571	12756.63
438.778	12926.61
438.985	14145.15
439.192	13227.66
439.399	13891.2
439.606	13489.8
439.813	14040.7
440.02	15058.54
440.227	14956.15
440.433	14628.47
440.64	15335.02
440.847	15091.31
441.054	15627.88
441.261	16447.07
441.467	16504.41
441.674	16885.33
441.881	17419.85
442.088	17342.03
442.294	17294.93
442.501	17606.22
442.708	17901.12
442.914	18585.15
443.121	19420.72
443.328	18839.09
443.534	20260.38
443.741	19523.12
443.948	19267.12
444.154	20766.23
444.361	20596.25
444.568	20905.49
444.774	20809.24
444.981	20878.87
445.187	21640.72
445.394	22267.39
445.6	22414.85
445.807	24288.74
446.013	23535.09
446.22	23971.3
446.426	24684
446.633	25099.73
446.839	25806.28
447.046	25046.49
447.252	26258.88
447.459	26365.38
447.665	26066.38
447.871	27241.91
448.078	28464.55
448.284	27170.23
448.491	27893.16
448.697	28988.83
448.903	29306.26
449.11	29480.34
449.316	29289.88
449.522	29603.22
449.728	30489.99
449.935	30485.89
450.141	30596.48
450.347	31102.33
450.553	30559.62
450.76	30875.01
450.966	31815.02
451.172	31354.23
451.378	32269.67
451.584	31026.56
451.791	32167.27
451.997	32138.6
452.203	32884.06
452.409	32609.64
452.615	32333.16
452.821	31217.02
453.027	31118.71
453.233	32785.76
453.44	31356.28
453.646	31800.69
453.852	31960.43
454.058	32390.5
454.264	31505.78
454.47	32083.31
454.676	31032.7
454.882	32179.56
455.088	29318.55
455.294	29896.08
455.5	30375.3
455.705	30530.95
455.911	29566.35
456.117	28777.89
456.323	28308.9
456.529	27225.53
456.735	28100.01
456.941	27397.56
457.147	26840.51
457.352	26273.22
457.558	25765.32
457.764	25918.92
457.97	25087.45
458.176	24700.38
458.381	25091.54
458.587	23621.1
458.793	23827.95
458.999	22623.74
459.204	24190.44
459.41	23420.4
459.616	21634.57
459.821	21892.62
460.027	21698.06
460.233	21173.78
460.438	20319.78
460.644	20538.91
460.85	19617.32
461.055	18869.81
461.261	19160.62
461.466	17821.25
461.672	17280.59
461.878	18402.88
462.083	17053.27
462.289	17161.81
462.494	16780.89
462.7	15988.32
462.905	15838.82
463.111	16180.83
463.316	16217.69
463.522	15740.52
463.727	15842.92
463.932	15877.73
464.138	15408.75
464.343	15515.24
464.549	15062.64
464.754	15748.71
464.959	15591.02
465.165	15355.5
465.37	14794.36
465.575	14573.17
465.781	15033.97
465.986	15052.4
466.191	14642.81
466.397	14366.33
466.602	13379.21
466.807	13977.22
467.012	13905.54
467.218	13934.21
467.423	13878.91
467.628	14042.75
