Data from USB4F104151__4__11-51-03-212.txt Node

Date: Fri Mar 14 11:51:03 EDT 2025
User: louis
Spectrometer: USB4F10415
Trigger mode: 4
Integration Time (sec): 2.000000E-2
Scans to average: 1
Electric dark correction enabled: true
Nonlinearity correction enabled: false
Boxcar width: 0
XAxis mode: Wavelengths
Number of Pixels in Spectrum: 3648
>>>>>Begin Spectral Data<<<<<
178.204	-83.97
178.424	-83.97
178.644	-83.97
178.864	-114.69
179.084	-100.35
179.304	-40.96
179.524	-24.58
179.744	-30.72
179.964	51.2
180.184	10.24
180.404	-12.29
180.624	-30.72
180.844	53.25
181.064	20.48
181.283	24.58
181.503	-28.67
181.723	8.19
181.943	-4.1
182.163	38.91
182.383	-36.86
182.602	57.34
182.822	-32.77
183.042	30.72
183.262	-12.29
183.482	32.77
183.701	0
183.921	18.43
184.141	18.43
184.361	86.01
184.58	-45.06
184.8	-59.39
185.02	10.24
185.239	51.2
185.459	0
185.679	45.06
185.898	-12.29
186.118	-8.19
186.338	47.1
186.557	34.82
186.777	22.53
186.997	12.29
187.216	28.67
187.436	88.06
187.655	34.82
187.875	34.82
188.095	28.67
188.314	34.82
188.534	34.82
188.753	8.19
188.973	-4.1
189.192	14.34
189.412	71.68
189.631	73.73
189.851	-4.1
190.07	-2.05
190.29	-4.1
190.509	26.62
190.729	47.1
190.948	30.72
191.168	102.4
191.387	24.58
191.607	12.29
191.826	8.19
192.045	16.38
192.265	73.73
192.484	43.01
192.704	-10.24
192.923	32.77
193.142	43.01
193.362	10.24
193.581	32.77
193.8	8.19
194.02	6.14
194.239	73.73
194.458	71.68
194.678	57.34
194.897	57.34
195.116	-47.1
195.335	61.44
195.555	63.49
195.774	61.44
195.993	36.86
196.212	63.49
196.432	-122.88
196.651	-20.48
196.87	-55.3
197.089	67.58
197.308	-10.24
197.528	24.58
197.747	-14.34
197.966	63.49
198.185	20.48
198.404	86.01
198.623	34.82
198.842	20.48
199.062	63.49
199.281	51.2
199.5	22.53
199.719	28.67
199.938	61.44
200.157	14.34
200.376	16.38
200.595	12.29
200.814	-36.86
201.033	32.77
201.252	81.92
201.471	90.11
201.69	2.05
201.909	36.86
202.128	79.87
202.347	-16.38
202.566	38.91
202.785	-20.48
203.004	2.05
203.223	36.86
203.442	-38.91
203.661	47.1
203.879	-2.05
204.098	61.44
204.317	8.19
204.536	49.15
204.755	2.05
204.974	22.53
205.193	36.86
205.411	59.39
205.63	28.67
205.849	51.2
206.068	53.25
206.287	2.05
206.505	92.16
206.724	-30.72
206.943	55.3
207.162	-8.19
207.381	28.67
207.599	51.2
207.818	2.05
208.037	14.34
208.255	-32.77
208.474	-65.54
208.693	43.01
208.911	-6.14
209.13	24.58
209.349	40.96
209.567	38.91
209.786	67.58
210.005	4.1
210.223	20.48
210.442	-57.34
210.661	20.48
210.879	104.45
211.098	69.63
211.316	47.1
211.535	120.83
211.753	16.38
211.972	65.54
212.191	40.96
212.409	49.15
212.628	94.21
212.846	-32.77
213.065	98.3
213.283	67.58
213.502	-34.82
213.72	-30.72
213.938	51.2
214.157	77.82
214.375	34.82
214.594	6.14
214.812	83.97
215.031	14.34
215.249	55.3
215.467	-32.77
215.686	-40.96
215.904	47.1
216.122	55.3
216.341	69.63
216.559	28.67
216.778	61.44
216.996	24.58
217.214	4.1
217.432	-57.34
217.651	77.82
217.869	-53.25
218.087	28.67
218.306	38.91
218.524	112.64
218.742	2.05
218.96	12.29
219.179	83.97
219.397	-12.29
219.615	26.62
219.833	43.01
220.051	20.48
220.27	69.63
220.488	32.77
220.706	-28.67
220.924	-16.38
221.142	-30.72
221.36	22.53
221.578	34.82
221.796	55.3
222.015	77.82
222.233	32.77
222.451	28.67
222.669	73.73
222.887	-55.3
223.105	-14.34
223.323	53.25
223.541	-55.3
223.759	-14.34
223.977	18.43
224.195	38.91
224.413	26.62
224.631	4.1
224.849	-16.38
225.067	88.06
225.285	-18.43
225.503	-18.43
225.721	0
225.939	2.05
226.157	36.86
226.375	38.91
226.592	-34.82
226.81	34.82
227.028	47.1
227.246	75.77
227.464	14.34
227.682	4.1
227.9	16.38
228.117	24.58
228.335	10.24
228.553	18.43
228.771	-6.14
228.989	12.29
229.206	-10.24
229.424	-14.34
229.642	30.72
229.86	30.72
230.077	40.96
230.295	-30.72
230.513	81.92
230.731	-45.06
230.948	28.67
231.166	24.58
231.384	28.67
231.601	20.48
231.819	55.3
232.037	18.43
232.254	59.39
232.472	67.58
232.689	-22.53
232.907	28.67
233.125	22.53
233.342	36.86
233.56	8.19
233.777	90.11
233.995	-51.2
234.213	53.25
234.43	8.19
234.648	-51.2
234.865	49.15
235.083	71.68
235.3	-18.43
235.518	34.82
235.735	8.19
235.953	51.2
236.17	-2.05
236.388	47.1
236.605	18.43
236.822	90.11
237.04	10.24
237.257	24.58
237.475	16.38
237.692	45.06
237.909	77.82
238.127	-6.14
238.344	55.3
238.562	28.67
238.779	-26.62
238.996	-30.72
239.214	-43.01
239.431	-10.24
239.648	-2.05
239.865	59.39
240.083	-26.62
240.3	-8.19
240.517	18.43
240.735	-20.48
240.952	40.96
241.169	47.1
241.386	100.35
241.603	22.53
241.821	-26.62
242.038	12.29
242.255	22.53
242.472	49.15
242.689	2.05
242.907	53.25
243.124	16.38
243.341	-8.19
243.558	108.54
243.775	-55.3
243.992	-34.82
244.209	57.34
244.426	47.1
244.643	34.82
244.86	16.38
245.078	22.53
245.295	32.77
245.512	51.2
245.729	-32.77
245.946	38.91
246.163	-40.96
246.38	40.96
246.597	47.1
246.814	24.58
247.031	49.15
247.248	-6.14
247.464	73.73
247.681	38.91
247.898	12.29
248.115	-14.34
248.332	-18.43
248.549	26.62
248.766	71.68
248.983	38.91
249.2	6.14
249.417	47.1
249.633	-6.14
249.85	18.43
250.067	0
250.284	36.86
250.501	126.97
250.717	86.01
250.934	24.58
251.151	-14.34
251.368	24.58
251.585	-4.1
251.801	-47.1
252.018	-16.38
252.235	8.19
252.451	43.01
252.668	81.92
252.885	2.05
253.102	34.82
253.318	-10.24
253.535	-10.24
253.752	-2.05
253.968	32.77
254.185	-81.92
254.401	51.2
254.618	6.14
254.835	10.24
255.051	18.43
255.268	22.53
255.484	57.34
255.701	30.72
255.917	49.15
256.134	-38.91
256.351	26.62
256.567	22.53
256.784	49.15
257	2.05
257.217	81.92
257.433	-6.14
257.65	55.3
257.866	-18.43
258.082	-24.58
258.299	14.34
258.515	79.87
258.732	-8.19
258.948	38.91
259.165	22.53
259.381	34.82
259.597	18.43
259.814	14.34
260.03	73.73
260.246	16.38
260.463	69.63
260.679	55.3
260.895	69.63
261.112	-34.82
261.328	40.96
261.544	-53.25
261.761	59.39
261.977	26.62
262.193	-63.49
262.409	49.15
262.626	38.91
262.842	49.15
263.058	-34.82
263.274	43.01
263.49	-18.43
263.707	40.96
263.923	28.67
264.139	59.39
264.355	8.19
264.571	24.58
264.787	4.1
265.004	38.91
265.22	-20.48
265.436	18.43
265.652	4.1
265.868	-12.29
266.084	4.1
266.3	18.43
266.516	6.14
266.732	20.48
266.948	14.34
267.164	-40.96
267.38	-12.29
267.596	88.06
267.812	100.35
268.028	59.39
268.244	34.82
268.46	2.05
268.676	-2.05
268.892	38.91
269.108	34.82
269.324	-32.77
269.54	-18.43
269.756	22.53
269.972	26.62
270.188	96.25
270.403	6.14
270.619	18.43
270.835	30.72
271.051	100.35
271.267	22.53
271.483	38.91
271.698	100.35
271.914	0
272.13	32.77
272.346	57.34
272.562	-2.05
272.777	-18.43
272.993	28.67
273.209	32.77
273.425	12.29
273.64	51.2
273.856	43.01
274.072	-20.48
274.287	-12.29
274.503	67.58
274.719	0
274.934	-18.43
275.15	14.34
275.366	6.14
275.581	14.34
275.797	26.62
276.012	16.38
276.228	69.63
276.444	-26.62
276.659	24.58
276.875	2.05
277.09	30.72
277.306	-30.72
277.521	118.78
277.737	-4.1
277.952	77.82
278.168	-2.05
278.383	-22.53
278.599	-38.91
278.814	-32.77
279.03	71.68
279.245	61.44
279.461	10.24
279.676	61.44
279.892	-18.43
280.107	10.24
280.322	-18.43
280.538	59.39
280.753	-59.39
280.969	38.91
281.184	-92.16
281.399	59.39
281.615	-34.82
281.83	83.97
282.045	-43.01
282.26	38.91
282.476	-24.58
282.691	59.39
282.906	38.91
283.122	94.21
283.337	-43.01
283.552	61.44
283.767	53.25
283.983	79.87
284.198	71.68
284.413	94.21
284.628	14.34
284.843	-34.82
285.058	79.87
285.274	24.58
285.489	55.3
285.704	0
285.919	-30.72
286.134	30.72
286.349	36.86
286.564	49.15
286.779	69.63
286.995	45.06
287.21	4.1
287.425	-30.72
287.64	57.34
287.855	32.77
288.07	22.53
288.285	-16.38
288.5	55.3
288.715	0
288.93	10.24
289.145	63.49
289.36	14.34
289.575	59.39
289.79	43.01
290.004	8.19
290.219	24.58
290.434	32.77
290.649	-51.2
290.864	18.43
291.079	6.14
291.294	67.58
291.509	-10.24
291.724	26.62
291.938	-16.38
292.153	116.73
292.368	0
292.583	-2.05
292.798	92.16
293.012	51.2
293.227	51.2
293.442	43.01
293.657	10.24
293.871	55.3
294.086	32.77
294.301	71.68
294.516	24.58
294.73	4.1
294.945	2.05
295.16	22.53
295.374	24.58
295.589	16.38
295.804	8.19
296.018	28.67
296.233	51.2
296.447	79.87
296.662	22.53
296.877	34.82
297.091	34.82
297.306	-6.14
297.52	34.82
297.735	116.73
297.949	51.2
298.164	6.14
298.378	47.1
298.593	-40.96
298.807	28.67
299.022	51.2
299.236	40.96
299.451	-24.58
299.665	-30.72
299.88	12.29
300.094	28.67
300.309	30.72
300.523	14.34
300.737	49.15
300.952	14.34
301.166	2.05
301.381	45.06
301.595	4.1
301.809	57.34
302.024	51.2
302.238	57.34
302.452	28.67
302.667	92.16
302.881	73.73
303.095	-10.24
303.309	47.1
303.524	0
303.738	28.67
303.952	32.77
304.166	145.41
304.381	32.77
304.595	51.2
304.809	-10.24
305.023	-6.14
305.237	-36.86
305.452	-34.82
305.666	34.82
305.88	26.62
306.094	67.58
306.308	30.72
306.522	59.39
306.736	47.1
306.95	18.43
307.164	-22.53
307.379	-102.4
307.593	63.49
307.807	83.97
308.021	-4.1
308.235	30.72
308.449	-36.86
308.663	-14.34
308.877	116.73
309.091	47.1
309.305	22.53
309.519	14.34
309.733	40.96
309.947	-67.58
310.161	-14.34
310.374	49.15
310.588	92.16
310.802	32.77
311.016	-34.82
311.23	77.82
311.444	57.34
311.658	-57.34
311.872	34.82
312.085	32.77
312.299	110.59
312.513	-10.24
312.727	-34.82
312.941	30.72
313.154	38.91
313.368	8.19
313.582	0
313.796	16.38
314.009	18.43
314.223	69.63
314.437	6.14
314.651	98.3
314.864	2.05
315.078	63.49
315.292	14.34
315.505	0
315.719	18.43
315.933	61.44
316.146	69.63
316.36	-36.86
316.573	43.01
316.787	55.3
317.001	4.1
317.214	71.68
317.428	12.29
317.641	34.82
317.855	81.92
318.068	38.91
318.282	14.34
318.495	49.15
318.709	-6.14
318.922	18.43
319.136	34.82
319.349	24.58
319.563	61.44
319.776	24.58
319.99	30.72
320.203	-40.96
320.417	22.53
320.63	75.77
320.843	30.72
321.057	69.63
321.27	106.49
321.483	69.63
321.697	53.25
321.91	36.86
322.124	55.3
322.337	38.91
322.55	2.05
322.763	18.43
322.977	73.73
323.19	-24.58
323.403	24.58
323.617	55.3
323.83	69.63
324.043	34.82
324.256	49.15
324.469	8.19
324.683	28.67
324.896	34.82
325.109	45.06
325.322	-57.34
325.535	63.49
325.748	90.11
325.962	96.25
326.175	30.72
326.388	47.1
326.601	32.77
326.814	-2.05
327.027	38.91
327.24	18.43
327.453	30.72
327.666	49.15
327.879	28.67
328.092	126.97
328.305	30.72
328.518	-18.43
328.731	-6.14
328.944	24.58
329.157	45.06
329.37	36.86
329.583	55.3
329.796	73.73
330.009	22.53
330.222	47.1
330.435	24.58
330.648	55.3
330.861	-4.1
331.073	73.73
331.286	20.48
331.499	43.01
331.712	47.1
331.925	69.63
332.138	49.15
332.35	90.11
332.563	18.43
332.776	106.49
332.989	-6.14
333.202	53.25
333.414	55.3
333.627	75.77
333.84	2.05
334.053	59.39
334.265	-34.82
334.478	104.45
334.691	38.91
334.903	12.29
335.116	-20.48
335.329	14.34
335.541	94.21
335.754	45.06
335.966	26.62
336.179	26.62
336.392	32.77
336.604	77.82
336.817	61.44
337.029	2.05
337.242	-30.72
337.454	10.24
337.667	-49.15
337.88	90.11
338.092	43.01
338.305	34.82
338.517	16.38
338.729	22.53
338.942	53.25
339.154	-22.53
339.367	0
339.579	30.72
339.792	38.91
340.004	28.67
340.217	47.1
340.429	-6.14
340.641	-28.67
340.854	30.72
341.066	47.1
341.278	28.67
341.491	4.1
341.703	106.49
341.915	26.62
342.128	34.82
342.34	38.91
342.552	59.39
342.764	102.4
342.977	75.77
343.189	26.62
343.401	98.3
343.613	-34.82
343.826	28.67
344.038	-6.14
344.25	-6.14
344.462	36.86
344.674	45.06
344.886	18.43
345.099	77.82
345.311	47.1
345.523	30.72
345.735	14.34
345.947	14.34
346.159	14.34
346.371	57.34
346.583	-6.14
346.795	-20.48
347.007	34.82
347.219	-30.72
347.431	10.24
347.643	104.45
347.855	20.48
348.067	102.4
348.279	6.14
348.491	30.72
348.703	51.2
348.915	0
349.127	8.19
349.339	12.29
349.551	-18.43
349.763	57.34
349.975	-4.1
350.187	47.1
350.399	-18.43
350.61	-36.86
350.822	2.05
351.034	61.44
351.246	18.43
351.458	34.82
351.669	-18.43
351.881	83.97
352.093	28.67
352.305	18.43
352.517	8.19
352.728	73.73
352.94	69.63
353.152	22.53
353.363	-4.1
353.575	67.58
353.787	100.35
353.999	4.1
354.21	108.54
354.422	65.54
354.633	-18.43
354.845	65.54
355.057	51.2
355.268	0
355.48	-24.58
355.692	49.15
355.903	24.58
356.115	55.3
356.326	57.34
356.538	49.15
356.749	96.25
356.961	90.11
357.172	8.19
357.384	77.82
357.595	129.02
357.807	40.96
358.018	6.14
358.23	65.54
358.441	96.25
358.653	92.16
358.864	45.06
359.075	-14.34
359.287	-6.14
359.498	94.21
359.709	24.58
359.921	34.82
360.132	83.97
360.344	73.73
360.555	57.34
360.766	69.63
360.977	16.38
361.189	47.1
361.4	8.19
361.611	69.63
361.823	83.97
362.034	22.53
362.245	-6.14
362.456	-10.24
362.667	96.25
362.879	79.87
363.09	12.29
363.301	2.05
363.512	57.34
363.723	45.06
363.935	112.64
364.146	24.58
364.357	22.53
364.568	57.34
364.779	2.05
364.99	36.86
365.201	75.77
365.412	92.16
365.623	57.34
365.834	86.01
366.045	71.68
366.256	24.58
366.467	55.3
366.678	36.86
366.889	22.53
367.1	-2.05
367.311	57.34
367.522	51.2
367.733	67.58
367.944	12.29
368.155	43.01
368.366	16.38
368.577	38.91
368.788	83.97
368.999	24.58
369.209	-8.19
369.42	102.4
369.631	-28.67
369.842	16.38
370.053	43.01
370.264	57.34
370.474	47.1
370.685	57.34
370.896	34.82
371.107	45.06
371.317	79.87
371.528	51.2
371.739	63.49
371.95	104.45
372.16	61.44
372.371	2.05
372.582	12.29
372.792	8.19
373.003	0
373.214	14.34
373.424	98.3
373.635	-24.58
373.846	100.35
374.056	112.64
374.267	110.59
374.477	65.54
374.688	14.34
374.898	30.72
375.109	26.62
375.319	-20.48
375.53	90.11
375.74	88.06
375.951	69.63
376.161	16.38
376.372	71.68
376.582	34.82
376.793	0
377.003	51.2
377.214	-4.1
377.424	16.38
377.635	30.72
377.845	28.67
378.055	36.86
378.266	34.82
378.476	102.4
378.686	10.24
378.897	-8.19
379.107	34.82
379.317	-4.1
379.528	28.67
379.738	34.82
379.948	36.86
380.158	32.77
380.369	20.48
380.579	30.72
380.789	-22.53
380.999	83.97
381.21	112.64
381.42	116.73
381.63	14.34
381.84	20.48
382.05	104.45
382.261	47.1
382.471	55.3
382.681	4.1
382.891	2.05
383.101	32.77
383.311	63.49
383.521	-28.67
383.731	2.05
383.941	32.77
384.151	73.73
384.361	96.25
384.571	67.58
384.781	0
384.991	49.15
385.201	69.63
385.411	-8.19
385.621	-12.29
385.831	34.82
386.041	104.45
386.251	30.72
386.461	69.63
386.671	65.54
386.881	75.77
387.091	57.34
387.301	108.54
387.511	38.91
387.72	38.91
387.93	69.63
388.14	10.24
388.35	-12.29
388.56	24.58
388.769	65.54
388.979	51.2
389.189	20.48
389.399	30.72
389.609	88.06
389.818	49.15
390.028	108.54
390.238	38.91
390.447	69.63
390.657	92.16
390.867	67.58
391.076	2.05
391.286	114.69
391.496	40.96
391.705	92.16
391.915	32.77
392.125	110.59
392.334	61.44
392.544	57.34
392.753	65.54
392.963	2.05
393.172	57.34
393.382	36.86
393.591	106.49
393.801	53.25
394.01	110.59
394.22	20.48
394.429	88.06
394.639	65.54
394.848	67.58
395.058	-2.05
395.267	40.96
395.477	108.54
395.686	47.1
395.895	79.87
396.105	90.11
396.314	51.2
396.524	106.49
396.733	12.29
396.942	120.83
397.152	14.34
397.361	86.01
397.57	100.35
397.78	28.67
397.989	86.01
398.198	141.31
398.407	61.44
398.617	63.49
398.826	47.1
399.035	83.97
399.244	86.01
399.453	104.45
399.663	178.17
399.872	83.97
400.081	118.78
400.29	40.96
400.499	96.25
400.708	131.07
400.917	47.1
401.127	63.49
401.336	81.92
401.545	149.5
401.754	100.35
401.963	83.97
402.172	69.63
402.381	120.83
402.59	73.73
402.799	169.98
403.008	92.16
403.217	102.4
403.426	92.16
403.635	75.77
403.844	102.4
404.053	63.49
404.262	145.41
404.471	141.31
404.68	86.01
404.888	145.41
405.097	147.45
405.306	145.41
405.515	124.93
405.724	141.31
405.933	104.45
406.142	172.03
406.35	204.8
406.559	196.61
406.768	169.98
406.977	176.13
407.185	135.17
407.394	172.03
407.603	169.98
407.812	139.26
408.02	206.84
408.229	221.18
408.438	147.45
408.646	147.45
408.855	169.98
409.064	215.04
409.272	192.51
409.481	303.1
409.69	251.9
409.898	165.89
410.107	190.46
410.315	288.76
410.524	319.48
410.733	272.38
410.941	284.67
411.15	313.34
411.358	321.53
411.567	311.29
411.775	372.73
411.984	272.38
412.192	403.45
412.401	417.79
412.609	382.97
412.818	444.41
413.026	380.92
413.234	382.97
413.443	438.27
413.651	364.54
413.86	440.31
414.068	546.81
414.276	573.43
414.485	567.29
414.693	573.43
414.901	561.14
415.11	628.73
415.318	522.23
415.526	647.16
415.734	612.34
415.943	649.21
416.151	669.69
416.359	688.12
416.567	749.56
416.776	731.12
416.984	706.55
417.192	878.58
417.4	792.56
417.608	806.9
417.817	817.14
418.025	919.54
418.233	1001.46
418.441	929.78
418.649	980.98
418.857	1099.76
419.065	1112.05
419.273	1054.7
419.481	1114.1
419.689	1312.75
419.897	1322.99
420.105	1261.55
420.313	1300.46
420.521	1314.8
420.729	1394.67
420.937	1335.28
421.145	1460.2
421.353	1519.59
421.561	1607.66
421.769	1648.61
421.977	1765.35
422.185	1712.1
422.393	1849.32
422.601	1898.47
422.809	1925.09
423.017	2013.15
423.224	2033.63
423.432	2121.7
423.64	2121.7
423.848	2316.25
424.056	2170.85
424.263	2404.32
424.471	2316.25
424.679	2447.32
424.887	2639.83
425.094	2582.49
425.302	2678.74
425.51	2869.2
425.718	2846.68
425.925	2918.36
426.133	2990.03
426.341	3061.71
426.548	3323.85
426.756	3373
426.964	3481.55
427.171	3407.82
427.379	3620.81
427.586	3524.55
427.794	3743.69
428.001	4057.03
428.209	4093.89
428.417	4009.92
428.624	4390.84
428.832	4483
429.039	4190.14
429.247	4349.89
429.454	4718.52
429.662	5201.84
429.869	4630.46
430.076	5195.7
430.284	4886.45
430.491	5031.86
430.699	5531.56
430.906	5523.37
431.114	5468.08
431.321	5627.82
431.528	5771.18
431.736	6213.54
431.943	6590.36
432.15	6170.53
432.358	6215.59
432.565	6758.3
432.772	6676.38
432.979	6991.77
433.187	7178.13
433.394	7104.4
433.601	7671.69
433.808	7714.7
434.016	7550.86
434.223	8144.77
434.43	8312.71
434.637	8368
434.844	8658.81
435.052	9088.89
435.259	8824.7
435.466	9088.89
435.673	9011.06
435.88	9365.36
436.087	9834.35
436.294	10030.95
436.501	9666.41
436.708	9959.27
436.915	10266.47
437.122	10702.68
437.329	10725.21
437.537	11200.34
437.743	11353.94
437.95	11224.92
438.157	11845.45
438.364	12183.37
438.571	12105.54
438.778	12189.51
438.985	13399.86
439.192	12494.66
439.399	13276.98
439.606	13184.82
439.813	13776.69
440.02	14456.61
440.227	14217
440.433	14229.29
440.64	14616.35
440.847	14647.07
441.054	14982.94
441.261	15896.33
441.467	15603.47
441.674	15765.26
441.881	16453.38
442.088	16365.32
442.294	16330.5
442.501	16846.59
442.708	17307.38
442.914	17772.27
443.121	18327.27
443.328	17864.43
443.534	19396.31
443.741	18691.81
443.948	18515.69
444.154	19861.2
444.361	20004.56
444.568	19766.99
444.774	19951.31
444.981	20217.55
445.187	20481.74
445.394	21524.15
445.6	21456.57
445.807	23404.19
446.013	22730.41
446.22	22515.37
446.426	23711.38
446.633	24024.72
446.839	24774.28
447.046	23520.92
447.252	25187.97
447.459	24858.24
447.665	24899.2
447.871	25810.55
448.078	27143.78
448.284	25898.61
448.491	26576.49
448.697	27698.78
448.903	28143.19
449.11	28040.79
449.316	27653.72
449.522	28053.08
449.728	28880.46
449.935	28884.55
450.141	29017.67
450.347	29990.45
450.553	28675.66
450.76	29333.06
450.966	29924.92
451.172	29926.97
451.378	30522.93
451.584	29929.02
451.791	30965.29
451.997	30846.51
452.203	31299.11
452.409	30963.24
452.615	31432.22
452.821	29746.75
453.027	29818.42
453.233	31368.74
453.44	29439.55
453.646	30463.54
453.852	30266.93
454.058	30627.37
454.264	29709.88
454.47	30375.47
454.676	29859.38
454.882	30899.75
455.088	28175.95
455.294	28587.6
455.5	29070.92
455.705	29357.63
455.911	28057.17
456.117	27256.42
456.323	27336.29
456.529	25806.45
456.735	26721.9
456.941	26371.69
457.147	25638.52
457.352	24989.31
457.558	24678.02
457.764	25091.71
457.97	24430.22
458.176	24123.02
458.381	23824.02
458.587	22648.49
458.793	22406.83
458.999	21683.89
459.204	23033.5
459.41	22374.06
459.616	20870.85
459.821	20809.41
460.027	20809.41
460.233	20270.79
460.438	19570.39
460.644	19728.08
460.85	18613.99
461.055	18491.11
461.261	18527.97
461.466	17055.48
461.672	16486.15
461.878	17612.53
462.083	16676.61
462.289	16301.83
462.494	16094.99
462.7	15290.13
462.905	14837.53
463.111	15378.2
463.316	15566.61
463.522	15179.54
463.727	15222.55
463.932	15365.91
464.138	15134.49
464.343	15066.91
464.549	14743.33
464.754	15099.67
464.959	14872.35
465.165	14688.03
465.37	14423.84
465.575	13936.43
465.781	14493.47
465.986	14516
466.191	13868.84
466.397	13514.55
466.602	13045.56
466.807	13467.44
467.012	13580.08
467.218	13467.44
467.423	13264.69
467.628	13156.15
467.833	13897.52
468.038	13244.21
468.244	13281.08
468.449	13506.35
468.654	12904.25
468.859	12867.39
