Data from USB4F104151__48__11-51-53-546.txt Node

Date: Fri Mar 14 11:51:53 EDT 2025
User: louis
Spectrometer: USB4F10415
Trigger mode: 4
Integration Time (sec): 2.000000E-2
Scans to average: 1
Electric dark correction enabled: true
Nonlinearity correction enabled: false
Boxcar width: 0
XAxis mode: Wavelengths
Number of Pixels in Spectrum: 3648
>>>>>Begin Spectral Data<<<<<
178.204	-20.82
178.424	-20.82
178.644	-20.82
178.864	-72.02
179.084	-31.06
179.304	-33.11
179.524	-45.4
179.744	-53.59
179.964	26.28
180.184	36.52
180.404	34.47
180.624	16.04
180.844	-12.63
181.064	-45.4
181.283	104.11
181.503	-33.11
181.723	5.8
181.943	20.14
182.163	122.54
182.383	40.62
182.602	-29.01
182.822	61.1
183.042	65.19
183.262	16.04
183.482	48.81
183.701	87.72
183.921	1.71
184.141	57
184.361	63.15
184.58	-37.2
184.8	50.86
185.02	-4.44
185.239	57
185.459	-18.77
185.679	42.67
185.898	-51.54
186.118	52.91
186.338	54.95
186.557	-2.39
186.777	9.9
186.997	100.01
187.216	48.81
187.436	63.15
187.655	50.86
187.875	13.99
188.095	7.85
188.314	93.87
188.534	106.15
188.753	5.8
188.973	20.14
189.192	104.11
189.412	-2.39
189.631	22.19
189.851	124.58
190.07	-41.3
190.29	-2.39
190.509	-29.01
190.729	20.14
190.948	50.86
191.168	85.67
191.387	32.43
191.607	34.47
191.826	24.23
192.045	-0.34
192.265	50.86
192.484	7.85
192.704	1.71
192.923	36.52
193.142	89.77
193.362	24.23
193.581	20.14
193.8	130.73
194.02	20.14
194.239	11.95
194.458	114.34
194.678	44.71
194.897	13.99
195.116	42.67
195.335	48.81
195.555	61.1
195.774	28.33
195.993	-6.49
196.212	71.34
196.432	-45.4
196.651	32.43
196.87	87.72
197.089	87.72
197.308	104.11
197.528	3.75
197.747	1.71
197.966	57
198.185	132.78
198.404	1.71
198.623	7.85
198.842	3.75
199.062	9.9
199.281	11.95
199.5	44.71
199.719	112.3
199.938	93.87
200.157	91.82
200.376	46.76
200.595	24.23
200.814	30.38
201.033	32.43
201.252	42.67
201.471	87.72
201.69	-41.3
201.909	85.67
202.128	16.04
202.347	32.43
202.566	18.09
202.785	28.33
203.004	61.1
203.223	188.07
203.442	-4.44
203.661	61.1
203.879	-29.01
204.098	54.95
204.317	34.47
204.536	69.29
204.755	20.14
204.974	48.81
205.193	85.67
205.411	134.82
205.63	-8.53
205.849	13.99
206.068	77.48
206.287	18.09
206.505	63.15
206.724	26.28
206.943	13.99
207.162	24.23
207.381	28.33
207.599	42.67
207.818	-47.44
208.037	100.01
208.255	5.8
208.474	22.19
208.693	81.58
208.911	22.19
209.13	75.43
209.349	71.34
209.567	61.1
209.786	1.71
210.005	63.15
210.223	63.15
210.442	20.14
210.661	16.04
210.879	48.81
211.098	5.8
211.316	-10.58
211.535	59.05
211.753	-18.77
211.972	77.48
212.191	52.91
212.409	-20.82
212.628	22.19
212.846	134.82
213.065	32.43
213.283	112.3
213.502	59.05
213.72	116.39
213.938	13.99
214.157	48.81
214.375	124.58
214.594	65.19
214.812	54.95
215.031	52.91
215.249	32.43
215.467	13.99
215.686	28.33
215.904	48.81
216.122	48.81
216.341	118.44
216.559	42.67
216.778	18.09
216.996	57
217.214	44.71
217.432	5.8
217.651	52.91
217.869	40.62
218.087	-0.34
218.306	85.67
218.524	3.75
218.742	44.71
218.96	81.58
219.179	-6.49
219.397	30.38
219.615	79.53
219.833	89.77
220.051	79.53
220.27	57
220.488	-6.49
220.706	69.29
220.924	-37.2
221.142	69.29
221.36	81.58
221.578	22.19
221.796	11.95
222.015	32.43
222.233	32.43
222.451	54.95
222.669	44.71
222.887	40.62
223.105	26.28
223.323	11.95
223.541	-33.11
223.759	114.34
223.977	61.1
224.195	89.77
224.413	46.76
224.631	167.59
224.849	116.39
225.067	102.06
225.285	16.04
225.503	36.52
225.721	-33.11
225.939	11.95
226.157	67.24
226.375	93.87
226.592	-16.73
226.81	57
227.028	46.76
227.246	71.34
227.464	11.95
227.682	106.15
227.9	63.15
228.117	118.44
228.335	11.95
228.553	46.76
228.771	46.76
228.989	16.04
229.206	116.39
229.424	5.8
229.642	11.95
229.86	7.85
230.077	69.29
230.295	93.87
230.513	67.24
230.731	50.86
230.948	-8.53
231.166	63.15
231.384	-35.16
231.601	9.9
231.819	40.62
232.037	-6.49
232.254	-45.4
232.472	18.09
232.689	69.29
232.907	22.19
233.125	13.99
233.342	42.67
233.56	32.43
233.777	36.52
233.995	79.53
234.213	50.86
234.43	73.39
234.648	22.19
234.865	65.19
235.083	20.14
235.3	24.23
235.518	136.87
235.735	91.82
235.953	24.23
236.17	3.75
236.388	46.76
236.605	40.62
236.822	38.57
237.04	44.71
237.257	-2.39
237.475	-20.82
237.692	-8.53
237.909	65.19
238.127	38.57
238.344	38.57
238.562	18.09
238.779	50.86
238.996	34.47
239.214	26.28
239.431	32.43
239.648	-10.58
239.865	50.86
240.083	-29.01
240.3	20.14
240.517	11.95
240.735	63.15
240.952	108.2
241.169	48.81
241.386	28.33
241.603	-20.82
241.821	22.19
242.038	-2.39
242.255	38.57
242.472	40.62
242.689	42.67
242.907	-61.78
243.124	18.09
243.341	22.19
243.558	36.52
243.775	81.58
243.992	65.19
244.209	26.28
244.426	83.63
244.643	52.91
244.86	61.1
245.078	24.23
245.295	-10.58
245.512	32.43
245.729	-14.68
245.946	5.8
246.163	100.01
246.38	34.47
246.597	11.95
246.814	-10.58
247.031	38.57
247.248	24.23
247.464	149.16
247.681	63.15
247.898	26.28
248.115	34.47
248.332	-14.68
248.549	34.47
248.766	95.91
248.983	157.35
249.2	7.85
249.417	30.38
249.633	5.8
249.85	22.19
250.067	79.53
250.284	65.19
250.501	54.95
250.717	73.39
250.934	24.23
251.151	32.43
251.368	36.52
251.585	38.57
251.801	40.62
252.018	-14.68
252.235	42.67
252.451	54.95
252.668	-14.68
252.885	85.67
253.102	75.43
253.318	22.19
253.535	36.52
253.752	5.8
253.968	-20.82
254.185	42.67
254.401	40.62
254.618	54.95
254.835	91.82
255.051	28.33
255.268	50.86
255.484	24.23
255.701	50.86
255.917	44.71
256.134	-4.44
256.351	38.57
256.567	30.38
256.784	36.52
257	16.04
257.217	-20.82
257.433	20.14
257.65	59.05
257.866	36.52
258.082	18.09
258.299	-0.34
258.515	38.57
258.732	59.05
258.948	40.62
259.165	-16.73
259.381	-18.77
259.597	57
259.814	-22.87
260.03	-0.34
260.246	9.9
260.463	57
260.679	79.53
260.895	143.02
261.112	26.28
261.328	30.38
261.544	26.28
261.761	97.96
261.977	34.47
262.193	108.2
262.409	50.86
262.626	5.8
262.842	122.54
263.058	16.04
263.274	44.71
263.49	108.2
263.707	134.82
263.923	11.95
264.139	-10.58
264.355	-39.25
264.571	79.53
264.787	57
265.004	54.95
265.22	16.04
265.436	38.57
265.652	34.47
265.868	24.23
266.084	-4.44
266.3	-29.01
266.516	48.81
266.732	73.39
266.948	65.19
267.164	26.28
267.38	63.15
267.596	83.63
267.812	134.82
268.028	159.4
268.244	46.76
268.46	69.29
268.676	-0.34
268.892	11.95
269.108	38.57
269.324	5.8
269.54	-37.2
269.756	40.62
269.972	7.85
270.188	34.47
270.403	36.52
270.619	46.76
270.835	34.47
271.051	-12.63
271.267	79.53
271.483	24.23
271.698	73.39
271.914	83.63
272.13	28.33
272.346	32.43
272.562	85.67
272.777	-10.58
272.993	-6.49
273.209	93.87
273.425	30.38
273.64	40.62
273.856	32.43
274.072	-33.11
274.287	-0.34
274.503	28.33
274.719	69.29
274.934	63.15
275.15	-33.11
275.366	18.09
275.581	32.43
275.797	63.15
276.012	11.95
276.228	-2.39
276.444	28.33
276.659	75.43
276.875	42.67
277.09	54.95
277.306	22.19
277.521	26.28
277.737	100.01
277.952	9.9
278.168	11.95
278.383	67.24
278.599	9.9
278.814	28.33
279.03	26.28
279.245	48.81
279.461	7.85
279.676	24.23
279.892	-37.2
280.107	42.67
280.322	102.06
280.538	28.33
280.753	128.68
280.969	52.91
281.184	3.75
281.399	28.33
281.615	42.67
281.83	65.19
282.045	-31.06
282.26	-12.63
282.476	112.3
282.691	52.91
282.906	30.38
283.122	3.75
283.337	104.11
283.552	16.04
283.767	65.19
283.983	67.24
284.198	38.57
284.413	11.95
284.628	-8.53
284.843	114.34
285.058	75.43
285.274	46.76
285.489	54.95
285.704	71.34
285.919	34.47
286.134	40.62
286.349	38.57
286.564	116.39
286.779	63.15
286.995	91.82
287.21	-0.34
287.425	46.76
287.64	16.04
287.855	75.43
288.07	42.67
288.285	112.3
288.5	36.52
288.715	138.92
288.93	97.96
289.145	69.29
289.36	50.86
289.575	-10.58
289.79	114.34
290.004	52.91
290.219	69.29
290.434	13.99
290.649	65.19
290.864	54.95
291.079	18.09
291.294	34.47
291.509	54.95
291.724	54.95
291.938	48.81
292.153	-35.16
292.368	7.85
292.583	44.71
292.798	79.53
293.012	75.43
293.227	65.19
293.442	42.67
293.657	5.8
293.871	-24.92
294.086	73.39
294.301	-10.58
294.516	100.01
294.73	140.97
294.945	59.05
295.16	44.71
295.374	-16.73
295.589	67.24
295.804	9.9
296.018	9.9
296.233	79.53
296.447	-10.58
296.662	34.47
296.877	38.57
297.091	95.91
297.306	40.62
297.52	120.49
297.735	22.19
297.949	54.95
298.164	81.58
298.378	44.71
298.593	-29.01
298.807	65.19
299.022	69.29
299.236	59.05
299.451	32.43
299.665	59.05
299.88	-18.77
300.094	52.91
300.309	52.91
300.523	71.34
300.737	38.57
300.952	69.29
301.166	11.95
301.381	26.28
301.595	83.63
301.809	18.09
302.024	26.28
302.238	11.95
302.452	50.86
302.667	87.72
302.881	89.77
303.095	122.54
303.309	65.19
303.524	65.19
303.738	3.75
303.952	50.86
304.166	110.25
304.381	44.71
304.595	5.8
304.809	-6.49
305.023	30.38
305.237	20.14
305.452	20.14
305.666	-24.92
305.88	-2.39
306.094	11.95
306.308	110.25
306.522	50.86
306.736	30.38
306.95	67.24
307.164	77.48
307.379	63.15
307.593	28.33
307.807	36.52
308.021	57
308.235	18.09
308.449	32.43
308.663	89.77
308.877	85.67
309.091	85.67
309.305	42.67
309.519	16.04
309.733	91.82
309.947	1.71
310.161	59.05
310.374	48.81
310.588	122.54
310.802	116.39
311.016	22.19
311.23	38.57
311.444	-18.77
311.658	46.76
311.872	91.82
312.085	28.33
312.299	100.01
312.513	22.19
312.727	110.25
312.941	-39.25
313.154	50.86
313.368	24.23
313.582	147.11
313.796	54.95
314.009	20.14
314.223	85.67
314.437	54.95
314.651	26.28
314.864	5.8
315.078	40.62
315.292	42.67
315.505	9.9
315.719	20.14
315.933	42.67
316.146	59.05
316.36	36.52
316.573	24.23
316.787	69.29
317.001	69.29
317.214	28.33
317.428	18.09
317.641	3.75
317.855	59.05
318.068	26.28
318.282	-10.58
318.495	118.44
318.709	124.58
318.922	28.33
319.136	106.15
319.349	61.1
319.563	26.28
319.776	63.15
319.99	26.28
320.203	75.43
320.417	91.82
320.63	77.48
320.843	132.78
321.057	77.48
321.27	102.06
321.483	28.33
321.697	104.11
321.91	42.67
322.124	77.48
322.337	30.38
322.55	-0.34
322.763	61.1
322.977	50.86
323.19	75.43
323.403	13.99
323.617	54.95
323.83	83.63
324.043	81.58
324.256	108.2
324.469	18.09
324.683	50.86
324.896	16.04
325.109	69.29
325.322	-22.87
325.535	149.16
325.748	81.58
325.962	16.04
326.175	16.04
326.388	48.81
326.601	30.38
326.814	34.47
327.027	-14.68
327.24	128.68
327.453	-10.58
327.666	77.48
327.879	52.91
328.092	52.91
328.305	57
328.518	30.38
328.731	63.15
328.944	-10.58
329.157	69.29
329.37	26.28
329.583	48.81
329.796	24.23
330.009	52.91
330.222	79.53
330.435	-65.88
330.648	26.28
330.861	16.04
331.073	40.62
331.286	75.43
331.499	28.33
331.712	-16.73
331.925	97.96
332.138	67.24
332.35	112.3
332.563	61.1
332.776	36.52
332.989	-14.68
333.202	26.28
333.414	26.28
333.627	59.05
333.84	36.52
334.053	85.67
334.265	16.04
334.478	20.14
334.691	26.28
334.903	69.29
335.116	102.06
335.329	71.34
335.541	67.24
335.754	42.67
335.966	73.39
336.179	28.33
336.392	50.86
336.604	42.67
336.817	16.04
337.029	63.15
337.242	-0.34
337.454	30.38
337.667	28.33
337.88	5.8
338.092	26.28
338.305	65.19
338.517	3.75
338.729	46.76
338.942	22.19
339.154	-29.01
339.367	-24.92
339.579	42.67
339.792	114.34
340.004	75.43
340.217	59.05
340.429	65.19
340.641	-0.34
340.854	9.9
341.066	11.95
341.278	106.15
341.491	165.54
341.703	44.71
341.915	-31.06
342.128	73.39
342.34	18.09
342.552	42.67
342.764	-12.63
342.977	-4.44
343.189	42.67
343.401	5.8
343.613	40.62
343.826	-33.11
344.038	65.19
344.25	85.67
344.462	73.39
344.674	48.81
344.886	97.96
345.099	32.43
345.311	52.91
345.523	77.48
345.735	-37.2
345.947	-31.06
346.159	7.85
346.371	24.23
346.583	63.15
346.795	95.91
347.007	79.53
347.219	67.24
347.431	36.52
347.643	112.3
347.855	-2.39
348.067	38.57
348.279	114.34
348.491	44.71
348.703	22.19
348.915	71.34
349.127	-2.39
349.339	26.28
349.551	40.62
349.763	22.19
349.975	36.52
350.187	75.43
350.399	69.29
350.61	54.95
350.822	42.67
351.034	75.43
351.246	11.95
351.458	67.24
351.669	-0.34
351.881	36.52
352.093	40.62
352.305	97.96
352.517	11.95
352.728	65.19
352.94	65.19
353.152	81.58
353.363	26.28
353.575	28.33
353.787	95.91
353.999	128.68
354.21	95.91
354.422	93.87
354.633	16.04
354.845	73.39
355.057	106.15
355.268	46.76
355.48	36.52
355.692	-31.06
355.903	40.62
356.115	65.19
356.326	11.95
356.538	48.81
356.749	77.48
356.961	59.05
357.172	-0.34
357.384	71.34
357.595	59.05
357.807	75.43
358.018	34.47
358.23	22.19
358.441	26.28
358.653	102.06
358.864	-24.92
359.075	57
359.287	79.53
359.498	67.24
359.709	-16.73
359.921	77.48
360.132	38.57
360.344	-18.77
360.555	-8.53
360.766	36.52
360.977	-4.44
361.189	87.72
361.4	93.87
361.611	95.91
361.823	89.77
362.034	26.28
362.245	34.47
362.456	24.23
362.667	24.23
362.879	77.48
363.09	104.11
363.301	48.81
363.512	57
363.723	116.39
363.935	77.48
364.146	85.67
364.357	59.05
364.568	24.23
364.779	93.87
364.99	18.09
365.201	65.19
365.412	28.33
365.623	63.15
365.834	95.91
366.045	71.34
366.256	134.82
366.467	36.52
366.678	54.95
366.889	20.14
367.1	11.95
367.311	36.52
367.522	57
367.733	42.67
367.944	26.28
368.155	-2.39
368.366	126.63
368.577	77.48
368.788	13.99
368.999	1.71
369.209	112.3
369.42	-0.34
369.631	108.2
369.842	110.25
370.053	36.52
370.264	16.04
370.474	32.43
370.685	120.49
370.896	18.09
371.107	198.31
371.317	102.06
371.528	36.52
371.739	169.64
371.95	48.81
372.16	79.53
372.371	9.9
372.582	38.57
372.792	34.47
373.003	95.91
373.214	30.38
373.424	77.48
373.635	18.09
373.846	77.48
374.056	95.91
374.267	91.82
374.477	106.15
374.688	79.53
374.898	61.1
375.109	30.38
375.319	52.91
375.53	26.28
375.74	42.67
375.951	85.67
376.161	73.39
376.372	36.52
376.582	67.24
376.793	36.52
377.003	34.47
377.214	38.57
377.424	116.39
377.635	32.43
377.845	30.38
378.055	54.95
378.266	54.95
378.476	-6.49
378.686	46.76
378.897	59.05
379.107	42.67
379.317	63.15
379.528	75.43
379.738	34.47
379.948	48.81
380.158	59.05
380.369	20.14
380.579	116.39
380.789	59.05
380.999	71.34
381.21	38.57
381.42	71.34
381.63	52.91
381.84	46.76
382.05	73.39
382.261	106.15
382.471	93.87
382.681	85.67
382.891	50.86
383.101	65.19
383.311	11.95
383.521	7.85
383.731	59.05
383.941	163.5
384.151	57
384.361	143.02
384.571	61.1
384.781	95.91
384.991	93.87
385.201	67.24
385.411	1.71
385.621	59.05
385.831	106.15
386.041	93.87
386.251	52.91
386.461	50.86
386.671	24.23
386.881	61.1
387.091	116.39
387.301	106.15
387.511	100.01
387.72	65.19
387.93	57
388.14	65.19
388.35	16.04
388.56	124.58
388.769	3.75
388.979	75.43
389.189	36.52
389.399	-20.82
389.609	132.78
389.818	106.15
390.028	179.88
390.238	65.19
390.447	46.76
390.657	61.1
390.867	97.96
391.076	104.11
391.286	44.71
391.496	32.43
391.705	71.34
391.915	134.82
392.125	38.57
392.334	110.25
392.544	106.15
392.753	104.11
392.963	57
393.172	52.91
393.382	50.86
393.591	122.54
393.801	69.29
394.01	114.34
394.22	108.2
394.429	114.34
394.639	61.1
394.848	71.34
395.058	91.82
395.267	110.25
395.477	30.38
395.686	136.87
395.895	136.87
396.105	114.34
396.314	85.67
396.524	52.91
396.733	85.67
396.942	83.63
397.152	93.87
397.361	93.87
397.57	65.19
397.78	50.86
397.989	106.15
398.198	116.39
398.407	79.53
398.617	77.48
398.826	71.34
399.035	114.34
399.244	128.68
399.453	44.71
399.663	83.63
399.872	151.21
400.081	18.09
400.29	97.96
400.499	145.06
400.708	124.58
400.917	120.49
401.127	79.53
401.336	106.15
401.545	149.16
401.754	44.71
401.963	136.87
402.172	106.15
402.381	181.93
402.59	63.15
402.799	128.68
403.008	198.31
403.217	126.63
403.426	147.11
403.635	52.91
403.844	163.5
404.053	126.63
404.262	124.58
404.471	188.07
404.68	91.82
404.888	155.3
405.097	59.05
405.306	102.06
405.515	128.68
405.724	108.2
405.933	108.2
406.142	169.64
406.35	212.65
406.559	151.21
406.768	231.08
406.977	159.4
407.185	208.55
407.394	163.5
407.603	173.74
407.812	220.84
408.02	167.59
408.229	235.18
408.438	186.02
408.646	155.3
408.855	198.31
409.064	280.23
409.272	278.18
409.481	239.27
409.69	192.17
409.898	167.59
410.107	253.61
410.315	308.9
410.524	282.28
410.733	306.85
410.941	327.33
411.15	319.14
411.358	290.47
411.567	413.35
411.775	378.53
411.984	343.72
412.192	376.48
412.401	341.67
412.609	495.27
412.818	448.16
413.026	429.73
413.234	425.64
413.443	460.45
413.651	476.84
413.86	501.41
414.068	470.69
414.276	550.56
414.485	566.95
414.693	626.34
414.901	571.04
415.11	659.1
415.318	626.34
415.526	634.53
415.734	661.15
415.943	679.58
416.151	675.49
416.359	622.24
416.567	736.93
416.776	747.17
416.984	851.61
417.192	851.61
417.4	861.85
417.608	788.13
417.817	847.52
418.025	919.2
418.233	1023.64
418.441	921.24
418.649	1015.45
418.857	1113.75
419.065	1138.33
419.273	1035.93
419.481	1087.13
419.689	1158.81
419.897	1226.39
420.105	1293.97
420.313	1216.15
420.521	1373.85
420.729	1443.48
420.937	1375.89
421.145	1488.53
421.353	1543.83
421.561	1615.51
421.769	1662.61
421.977	1683.09
422.185	1640.08
422.393	1801.87
422.601	1937.04
422.809	1808.02
423.017	1875.6
423.224	1904.27
423.432	2137.74
423.64	2092.68
423.848	2205.32
424.056	2231.94
424.263	2363.01
424.471	2379.4
424.679	2453.13
424.887	2543.24
425.094	2649.73
425.302	2643.59
425.51	2653.83
425.718	2782.85
425.925	2805.38
426.133	2991.74
426.341	3067.52
426.548	3260.02
426.756	3229.31
426.964	3278.46
427.171	3591.8
427.379	3653.23
427.586	3411.57
427.794	3718.77
428.001	3855.98
428.209	4187.75
428.417	3931.76
428.624	4343.4
428.832	4284.01
429.039	4200.04
429.247	4228.71
429.454	4681.32
429.662	5015.13
429.869	4556.39
430.076	4920.93
430.284	4894.3
430.491	5125.72
430.699	5404.25
430.906	5418.58
431.114	5336.67
431.321	5654.1
431.528	5733.97
431.736	6135.37
431.943	6426.18
432.15	6239.82
432.358	6323.79
432.565	6575.69
432.772	6538.82
432.979	6948.42
433.187	7112.25
433.394	6983.23
433.601	7511.61
433.808	7632.44
434.016	7476.79
434.223	7747.12
434.43	8310.32
434.637	8062.51
434.844	8715.81
435.052	8740.39
435.259	8799.78
435.466	8881.7
435.673	8705.57
435.88	9569.82
436.087	9850.39
436.294	9958.93
436.501	9487.9
436.708	9686.55
436.915	10157.58
437.122	10620.42
437.329	10448.4
437.537	10817.03
437.743	10995.2
437.95	11138.56
438.157	11709.94
438.364	11937.27
438.571	11771.38
438.778	12006.9
438.985	13118.95
439.192	12643.82
439.399	13012.45
439.606	12860.9
439.813	13389.28
440.02	14357.97
440.227	13991.38
440.433	13921.75
440.64	14380.5
440.847	14351.82
441.054	14552.52
441.261	15742.39
441.467	15242.69
441.674	15738.3
441.881	15924.66
442.088	16238
442.294	15918.52
442.501	16698.8
442.708	16686.51
442.914	17384.87
443.121	18288.02
443.328	17657.25
443.534	18963.85
443.741	18515.34
443.948	18029.98
444.154	19619.2
444.361	19508.61
444.568	19690.88
444.774	19735.93
444.981	19635.58
445.187	20422
445.394	21097.83
445.6	20753.77
445.807	22881.61
446.013	22066.52
446.22	22469.97
446.426	23186.76
446.633	23371.08
446.839	24237.37
447.046	23252.3
447.252	24565.04
447.459	24681.78
447.665	24458.55
447.871	25361.7
448.078	26946.83
448.284	25644.32
448.491	26395.93
448.697	26971.41
448.903	27358.47
449.11	27573.51
449.316	27051.28
449.522	27624.71
449.728	28296.44
449.935	28679.41
450.141	28603.64
450.347	29252.84
450.553	28237.05
450.76	28982.51
450.966	29598.95
451.172	29420.78
451.378	29904.1
451.584	29443.31
451.791	30483.67
451.997	30026.98
452.203	30510.3
452.409	30868.69
452.615	30149.85
452.821	29537.51
453.027	29000.94
453.233	30506.2
453.44	29601
453.646	29418.73
453.852	29537.51
454.058	30037.22
454.264	29218.03
454.47	29877.47
454.676	29603.05
454.882	30121.18
455.088	27510.02
455.294	27714.82
455.5	28316.92
455.705	28480.76
455.911	27088.14
456.117	26922.26
456.323	26580.25
456.529	25070.89
456.735	26268.95
456.941	25390.38
457.147	25017.64
457.352	24364.34
457.558	24292.66
457.764	24112.44
457.97	24132.92
458.176	23061.83
458.381	23192.9
458.587	22199.64
458.793	22031.71
458.999	20831.6
459.204	22445.4
459.41	21630.3
459.616	20387.19
459.821	20323.7
460.027	20444.53
460.233	19862.91
460.438	18853.26
460.644	19137.93
460.85	18265.49
461.055	18101.65
461.261	17970.58
461.466	16623.02
461.672	16072.12
461.878	17442.21
462.083	16113.08
462.289	15867.32
462.494	15541.69
462.7	14788.04
462.905	14767.56
463.111	15062.47
463.316	15066.56
463.522	14742.99
463.727	14921.16
463.932	14837.19
464.138	14650.83
464.343	14771.66
464.549	14286.29
464.754	14654.92
464.959	14579.15
465.165	14601.68
465.37	14011.86
465.575	13663.71
465.781	14237.14
465.986	14065.11
466.191	13886.93
466.397	13295.07
466.602	12623.34
466.807	13227.49
467.012	13293.02
467.218	13034.98
467.423	12957.16
467.628	13014.5
467.833	13762.01
468.038	13084.13
