Data from USB4F104151__58__11-52-27-242.txt Node

Date: Fri Mar 14 11:52:27 EDT 2025
User: louis
Spectrometer: USB4F10415
Trigger mode: 4
Integration Time (sec): 2.000000E-2
Scans to average: 1
Electric dark correction enabled: true
Nonlinearity correction enabled: false
Boxcar width: 0
XAxis mode: Wavelengths
Number of Pixels in Spectrum: 3648
>>>>>Begin Spectral Data<<<<<
178.204	-34.47
178.424	-34.47
178.644	-34.47
178.864	-73.39
179.084	-89.77
179.304	29.01
179.524	10.58
179.744	31.06
179.964	37.2
180.184	-30.38
180.404	-34.47
180.624	24.92
180.844	-83.63
181.064	-61.1
181.283	-11.95
181.503	92.5
181.723	-3.75
181.943	-77.48
182.163	43.35
182.383	55.64
182.602	72.02
182.822	35.16
183.042	8.53
183.262	45.4
183.482	-20.14
183.701	-24.23
183.921	-7.85
184.141	-20.14
184.361	78.16
184.58	-9.9
184.8	37.2
185.02	39.25
185.239	74.07
185.459	14.68
185.679	57.68
185.898	-50.86
186.118	-22.19
186.338	41.3
186.557	69.97
186.777	16.73
186.997	10.58
187.216	-57
187.436	72.02
187.655	-3.75
187.875	29.01
188.095	86.36
188.314	35.16
188.534	-30.38
188.753	57.68
188.973	18.77
189.192	55.64
189.412	-30.38
189.631	57.68
189.851	26.96
190.07	35.16
190.29	-20.14
190.509	63.83
190.729	-46.76
190.948	41.3
191.168	90.45
191.387	-5.8
191.607	-32.43
191.826	29.01
192.045	-16.04
192.265	98.64
192.484	39.25
192.704	0.34
192.923	31.06
193.142	31.06
193.362	2.39
193.581	26.96
193.8	0.34
194.02	22.87
194.239	-20.14
194.458	72.02
194.678	61.78
194.897	-32.43
195.116	137.56
195.335	22.87
195.555	12.63
195.774	-26.28
195.993	63.83
196.212	33.11
196.432	-46.76
196.651	12.63
196.87	0.34
197.089	108.88
197.308	96.6
197.528	-5.8
197.747	6.49
197.966	74.07
198.185	39.25
198.404	-1.71
198.623	-5.8
198.842	39.25
199.062	31.06
199.281	10.58
199.5	22.87
199.719	43.35
199.938	84.31
200.157	123.22
200.376	-9.9
200.595	43.35
200.814	53.59
201.033	16.73
201.252	65.88
201.471	10.58
201.69	55.64
201.909	76.12
202.128	2.39
202.347	67.92
202.566	53.59
202.785	61.78
203.004	-13.99
203.223	65.88
203.442	88.4
203.661	-11.95
203.879	-1.71
204.098	20.82
204.317	-22.19
204.536	133.46
204.755	45.4
204.974	43.35
205.193	-30.38
205.411	43.35
205.63	74.07
205.849	16.73
206.068	43.35
206.287	61.78
206.505	74.07
206.724	-26.28
206.943	43.35
207.162	20.82
207.381	-5.8
207.599	14.68
207.818	22.87
208.037	-40.62
208.255	-32.43
208.474	78.16
208.693	59.73
208.911	-52.91
209.13	51.54
209.349	76.12
209.567	-11.95
209.786	67.92
210.005	49.49
210.223	61.78
210.442	-3.75
210.661	69.97
210.879	31.06
211.098	-46.76
211.316	35.16
211.535	76.12
211.753	61.78
211.972	72.02
212.191	6.49
212.409	22.87
212.628	20.82
212.846	47.44
213.065	39.25
213.283	47.44
213.502	57.68
213.72	-18.09
213.938	37.2
214.157	53.59
214.375	16.73
214.594	53.59
214.812	29.01
215.031	31.06
215.249	-1.71
215.467	6.49
215.686	41.3
215.904	49.49
216.122	-1.71
216.341	-13.99
216.559	51.54
216.778	78.16
216.996	84.31
217.214	-13.99
217.432	35.16
217.651	-13.99
217.869	37.2
218.087	12.63
218.306	31.06
218.524	41.3
218.742	4.44
218.96	43.35
219.179	35.16
219.397	59.73
219.615	65.88
219.833	-3.75
220.051	31.06
220.27	0.34
220.488	24.92
220.706	-9.9
220.924	0.34
221.142	35.16
221.36	-52.91
221.578	10.58
221.796	-52.91
222.015	-44.71
222.233	10.58
222.451	31.06
222.669	6.49
222.887	10.58
223.105	6.49
223.323	84.31
223.541	-71.34
223.759	37.2
223.977	-30.38
224.195	47.44
224.413	10.58
224.631	49.49
224.849	76.12
225.067	59.73
225.285	8.53
225.503	-3.75
225.721	0.34
225.939	82.26
226.157	39.25
226.375	125.27
226.592	4.44
226.81	18.77
227.028	29.01
227.246	43.35
227.464	-32.43
227.682	82.26
227.9	31.06
228.117	2.39
228.335	14.68
228.553	-50.86
228.771	6.49
228.989	29.01
229.206	39.25
229.424	-16.04
229.642	-34.47
229.86	-7.85
230.077	92.5
230.295	39.25
230.513	-57
230.731	-5.8
230.948	26.96
231.166	41.3
231.384	14.68
231.601	26.96
231.819	74.07
232.037	26.96
232.254	16.73
232.472	49.49
232.689	47.44
232.907	57.68
233.125	-22.19
233.342	24.92
233.56	12.63
233.777	29.01
233.995	4.44
234.213	22.87
234.43	78.16
234.648	39.25
234.865	31.06
235.083	26.96
235.3	0.34
235.518	0.34
235.735	18.77
235.953	51.54
236.17	41.3
236.388	78.16
236.605	-26.28
236.822	37.2
237.04	84.31
237.257	69.97
237.475	8.53
237.692	10.58
237.909	117.08
238.127	4.44
238.344	8.53
238.562	6.49
238.779	-22.19
238.996	53.59
239.214	63.83
239.431	33.11
239.648	-3.75
239.865	-7.85
240.083	78.16
240.3	61.78
240.517	-7.85
240.735	26.96
240.952	74.07
241.169	69.97
241.386	35.16
241.603	4.44
241.821	37.2
242.038	12.63
242.255	12.63
242.472	26.96
242.689	6.49
242.907	-13.99
243.124	-13.99
243.341	51.54
243.558	-44.71
243.775	6.49
243.992	35.16
244.209	31.06
244.426	74.07
244.643	-13.99
244.86	-36.52
245.078	-7.85
245.295	55.64
245.512	-42.67
245.729	0.34
245.946	69.97
246.163	31.06
246.38	6.49
246.597	-5.8
246.814	10.58
247.031	6.49
247.248	33.11
247.464	57.68
247.681	14.68
247.898	-9.9
248.115	57.68
248.332	8.53
248.549	8.53
248.766	92.5
248.983	82.26
249.2	37.2
249.417	61.78
249.633	-46.76
249.85	29.01
250.067	2.39
250.284	41.3
250.501	-24.23
250.717	16.73
250.934	37.2
251.151	51.54
251.368	-89.77
251.585	39.25
251.801	12.63
252.018	18.77
252.235	33.11
252.451	12.63
252.668	4.44
252.885	67.92
253.102	43.35
253.318	18.77
253.535	55.64
253.752	-5.8
253.968	16.73
254.185	-46.76
254.401	-20.14
254.618	26.96
254.835	16.73
255.051	53.59
255.268	16.73
255.484	47.44
255.701	43.35
255.917	35.16
256.134	18.77
256.351	43.35
256.567	72.02
256.784	57.68
257	-28.33
257.217	61.78
257.433	18.77
257.65	20.82
257.866	-20.14
258.082	22.87
258.299	-28.33
258.515	35.16
258.732	8.53
258.948	14.68
259.165	45.4
259.381	-18.09
259.597	51.54
259.814	35.16
260.03	43.35
260.246	31.06
260.463	117.08
260.679	35.16
260.895	31.06
261.112	24.92
261.328	35.16
261.544	45.4
261.761	61.78
261.977	22.87
262.193	-7.85
262.409	63.83
262.626	49.49
262.842	0.34
263.058	4.44
263.274	115.03
263.49	-1.71
263.707	29.01
263.923	22.87
264.139	47.44
264.355	-1.71
264.571	88.4
264.787	0.34
265.004	33.11
265.22	63.83
265.436	4.44
265.652	-20.14
265.868	-20.14
266.084	12.63
266.3	100.69
266.516	67.92
266.732	47.44
266.948	84.31
267.164	0.34
267.38	-7.85
267.596	-30.38
267.812	67.92
268.028	37.2
268.244	29.01
268.46	4.44
268.676	8.53
268.892	51.54
269.108	10.58
269.324	35.16
269.54	31.06
269.756	22.87
269.972	14.68
270.188	16.73
270.403	8.53
270.619	14.68
270.835	94.55
271.051	20.82
271.267	37.2
271.483	63.83
271.698	-20.14
271.914	4.44
272.13	59.73
272.346	41.3
272.562	33.11
272.777	35.16
272.993	6.49
273.209	6.49
273.425	49.49
273.64	-16.04
273.856	41.3
274.072	43.35
274.287	43.35
274.503	16.73
274.719	-16.04
274.934	-18.09
275.15	-28.33
275.366	22.87
275.581	20.82
275.797	59.73
276.012	72.02
276.228	33.11
276.444	65.88
276.659	78.16
276.875	45.4
277.09	18.77
277.306	0.34
277.521	65.88
277.737	69.97
277.952	51.54
278.168	39.25
278.383	47.44
278.599	63.83
278.814	35.16
279.03	80.21
279.245	82.26
279.461	61.78
279.676	92.5
279.892	-18.09
280.107	49.49
280.322	24.92
280.538	33.11
280.753	-7.85
280.969	8.53
281.184	-34.47
281.399	10.58
281.615	10.58
281.83	39.25
282.045	76.12
282.26	55.64
282.476	-3.75
282.691	20.82
282.906	43.35
283.122	31.06
283.337	39.25
283.552	-1.71
283.767	22.87
283.983	31.06
284.198	-18.09
284.413	12.63
284.628	2.39
284.843	33.11
285.058	-42.67
285.274	14.68
285.489	26.96
285.704	24.92
285.919	57.68
286.134	22.87
286.349	55.64
286.564	143.7
286.779	76.12
286.995	65.88
287.21	39.25
287.425	47.44
287.64	53.59
287.855	112.98
288.07	2.39
288.285	55.64
288.5	112.98
288.715	26.96
288.93	133.46
289.145	43.35
289.36	-30.38
289.575	-20.14
289.79	67.92
290.004	43.35
290.219	57.68
290.434	45.4
290.649	14.68
290.864	100.69
291.079	61.78
291.294	84.31
291.509	53.59
291.724	49.49
291.938	18.77
292.153	41.3
292.368	-16.04
292.583	125.27
292.798	-9.9
293.012	80.21
293.227	39.25
293.442	39.25
293.657	2.39
293.871	24.92
294.086	35.16
294.301	22.87
294.516	51.54
294.73	0.34
294.945	35.16
295.16	26.96
295.374	72.02
295.589	115.03
295.804	-11.95
296.018	53.59
296.233	74.07
296.447	-18.09
296.662	10.58
296.877	57.68
297.091	67.92
297.306	22.87
297.52	-48.81
297.735	31.06
297.949	63.83
298.164	51.54
298.378	-7.85
298.593	24.92
298.807	-7.85
299.022	74.07
299.236	18.77
299.451	31.06
299.665	-9.9
299.88	37.2
300.094	100.69
300.309	-1.71
300.523	33.11
300.737	37.2
300.952	4.44
301.166	80.21
301.381	55.64
301.595	39.25
301.809	2.39
302.024	-11.95
302.238	61.78
302.452	76.12
302.667	35.16
302.881	67.92
303.095	12.63
303.309	49.49
303.524	-1.71
303.738	98.64
303.952	51.54
304.166	-22.19
304.381	-9.9
304.595	80.21
304.809	-9.9
305.023	-16.04
305.237	0.34
305.452	51.54
305.666	20.82
305.88	16.73
306.094	69.97
306.308	63.83
306.522	-44.71
306.736	39.25
306.95	24.92
307.164	41.3
307.379	-34.47
307.593	2.39
307.807	49.49
308.021	65.88
308.235	57.68
308.449	-34.47
308.663	-54.95
308.877	82.26
309.091	92.5
309.305	43.35
309.519	37.2
309.733	35.16
309.947	55.64
310.161	45.4
310.374	84.31
310.588	100.69
310.802	-26.28
311.016	-11.95
311.23	-5.8
311.444	-5.8
311.658	-22.19
311.872	35.16
312.085	47.44
312.299	6.49
312.513	45.4
312.727	6.49
312.941	43.35
313.154	53.59
313.368	74.07
313.582	33.11
313.796	43.35
314.009	47.44
314.223	2.39
314.437	35.16
314.651	12.63
314.864	-9.9
315.078	26.96
315.292	78.16
315.505	-18.09
315.719	-26.28
315.933	47.44
316.146	2.39
316.36	-34.47
316.573	59.73
316.787	-28.33
317.001	51.54
317.214	4.44
317.428	45.4
317.641	-3.75
317.855	-7.85
318.068	14.68
318.282	-44.71
318.495	-13.99
318.709	12.63
318.922	2.39
319.136	8.53
319.349	88.4
319.563	47.44
319.776	24.92
319.99	84.31
320.203	8.53
320.417	61.78
320.63	-13.99
320.843	61.78
321.057	6.49
321.27	63.83
321.483	8.53
321.697	22.87
321.91	90.45
322.124	-20.14
322.337	24.92
322.55	53.59
322.763	-28.33
322.977	-11.95
323.19	-54.95
323.403	-9.9
323.617	24.92
323.83	63.83
324.043	-26.28
324.256	49.49
324.469	-7.85
324.683	80.21
324.896	86.36
325.109	92.5
325.322	16.73
325.535	37.2
325.748	59.73
325.962	31.06
326.175	-5.8
326.388	37.2
326.601	8.53
326.814	90.45
327.027	65.88
327.24	10.58
327.453	-11.95
327.666	45.4
327.879	55.64
328.092	35.16
328.305	76.12
328.518	37.2
328.731	41.3
328.944	8.53
329.157	8.53
329.37	49.49
329.583	-7.85
329.796	117.08
330.009	49.49
330.222	18.77
330.435	139.6
330.648	-3.75
330.861	22.87
331.073	14.68
331.286	65.88
331.499	80.21
331.712	18.77
331.925	80.21
332.138	10.58
332.35	100.69
332.563	57.68
332.776	10.58
332.989	55.64
333.202	26.96
333.414	29.01
333.627	2.39
333.84	10.58
334.053	41.3
334.265	22.87
334.478	-48.81
334.691	43.35
334.903	63.83
335.116	76.12
335.329	24.92
335.541	49.49
335.754	20.82
335.966	6.49
336.179	37.2
336.392	4.44
336.604	-36.52
336.817	84.31
337.029	74.07
337.242	39.25
337.454	63.83
337.667	24.92
337.88	102.74
338.092	100.69
338.305	16.73
338.517	106.84
338.729	35.16
338.942	88.4
339.154	-7.85
339.367	-5.8
339.579	2.39
339.792	84.31
340.004	4.44
340.217	24.92
340.429	33.11
340.641	2.39
340.854	82.26
341.066	37.2
341.278	39.25
341.491	86.36
341.703	-3.75
341.915	43.35
342.128	61.78
342.34	-13.99
342.552	6.49
342.764	57.68
342.977	59.73
343.189	67.92
343.401	4.44
343.613	-32.43
343.826	8.53
344.038	-1.71
344.25	4.44
344.462	45.4
344.674	65.88
344.886	-28.33
345.099	110.93
345.311	-3.75
345.523	78.16
345.735	29.01
345.947	78.16
346.159	8.53
346.371	31.06
346.583	35.16
346.795	22.87
347.007	94.55
347.219	72.02
347.431	51.54
347.643	61.78
347.855	31.06
348.067	14.68
348.279	35.16
348.491	8.53
348.703	6.49
348.915	78.16
349.127	14.68
349.339	31.06
349.551	-3.75
349.763	6.49
349.975	53.59
350.187	100.69
350.399	26.96
350.61	31.06
350.822	18.77
351.034	51.54
351.246	-5.8
351.458	26.96
351.669	18.77
351.881	26.96
352.093	102.74
352.305	100.69
352.517	63.83
352.728	35.16
352.94	24.92
353.152	31.06
353.363	59.73
353.575	90.45
353.787	125.27
353.999	67.92
354.21	47.44
354.422	82.26
354.633	8.53
354.845	57.68
355.057	45.4
355.268	41.3
355.48	14.68
355.692	51.54
355.903	14.68
356.115	98.64
356.326	57.68
356.538	131.41
356.749	24.92
356.961	127.32
357.172	57.68
357.384	-20.14
357.595	59.73
357.807	22.87
358.018	12.63
358.23	82.26
358.441	80.21
358.653	61.78
358.864	14.68
359.075	-1.71
359.287	65.88
359.498	24.92
359.709	43.35
359.921	63.83
360.132	59.73
360.344	117.08
360.555	8.53
360.766	82.26
360.977	2.39
361.189	20.82
361.4	20.82
361.611	39.25
361.823	6.49
362.034	18.77
362.245	4.44
362.456	33.11
362.667	20.82
362.879	102.74
363.09	57.68
363.301	57.68
363.512	20.82
363.723	24.92
363.935	20.82
364.146	57.68
364.357	29.01
364.568	94.55
364.779	10.58
364.99	47.44
365.201	33.11
365.412	53.59
365.623	14.68
365.834	-3.75
366.045	63.83
366.256	22.87
366.467	35.16
366.678	117.08
366.889	16.73
367.1	51.54
367.311	84.31
367.522	-1.71
367.733	59.73
367.944	59.73
368.155	-24.23
368.366	94.55
368.577	115.03
368.788	39.25
368.999	43.35
369.209	39.25
369.42	29.01
369.631	155.99
369.842	-34.47
370.053	63.83
370.264	47.44
370.474	51.54
370.685	-30.38
370.896	29.01
371.107	57.68
371.317	-13.99
371.528	98.64
371.739	65.88
371.95	-22.19
372.16	61.78
372.371	57.68
372.582	63.83
372.792	24.92
373.003	-11.95
373.214	16.73
373.424	49.49
373.635	80.21
373.846	59.73
374.056	69.97
374.267	41.3
374.477	74.07
374.688	31.06
374.898	35.16
375.109	41.3
375.319	78.16
375.53	55.64
375.74	88.4
375.951	14.68
376.161	29.01
376.372	94.55
376.582	49.49
376.793	88.4
377.003	-24.23
377.214	24.92
377.424	-20.14
377.635	-9.9
377.845	-3.75
378.055	63.83
378.266	4.44
378.476	92.5
378.686	65.88
378.897	55.64
379.107	63.83
379.317	29.01
379.528	8.53
379.738	59.73
379.948	0.34
380.158	43.35
380.369	51.54
380.579	8.53
380.789	39.25
380.999	104.79
381.21	72.02
381.42	57.68
381.63	61.78
381.84	65.88
382.05	18.77
382.261	16.73
382.471	74.07
382.681	22.87
382.891	123.22
383.101	88.4
383.311	-1.71
383.521	80.21
383.731	106.84
383.941	53.59
384.151	33.11
384.361	-22.19
384.571	117.08
384.781	35.16
384.991	110.93
385.201	84.31
385.411	8.53
385.621	88.4
385.831	41.3
386.041	33.11
386.251	55.64
386.461	51.54
386.671	6.49
386.881	59.73
387.091	16.73
387.301	53.59
387.511	100.69
387.72	104.79
387.93	67.92
388.14	51.54
388.35	39.25
388.56	61.78
388.769	-22.19
388.979	24.92
389.189	10.58
389.399	90.45
389.609	24.92
389.818	47.44
390.028	104.79
390.238	8.53
390.447	55.64
390.657	49.49
390.867	53.59
391.076	33.11
391.286	18.77
391.496	108.88
391.705	33.11
391.915	102.74
392.125	18.77
392.334	59.73
392.544	67.92
392.753	20.82
392.963	41.3
393.172	55.64
393.382	61.78
393.591	80.21
393.801	39.25
394.01	78.16
394.22	12.63
394.429	88.4
394.639	31.06
394.848	65.88
395.058	82.26
395.267	37.2
395.477	102.74
395.686	117.08
395.895	147.8
396.105	131.41
396.314	98.64
396.524	90.45
396.733	59.73
396.942	76.12
397.152	96.6
397.361	104.79
397.57	-1.71
397.78	43.35
397.989	41.3
398.198	188.75
398.407	160.08
398.617	41.3
398.826	117.08
399.035	-30.38
399.244	61.78
399.453	82.26
399.663	106.84
399.872	86.36
400.081	82.26
400.29	145.75
400.499	98.64
400.708	47.44
400.917	78.16
401.127	119.12
401.336	129.36
401.545	98.64
401.754	96.6
401.963	121.17
402.172	121.17
402.381	72.02
402.59	100.69
402.799	143.7
403.008	65.88
403.217	115.03
403.426	147.8
403.635	86.36
403.844	92.5
404.053	153.94
404.262	61.78
404.471	174.42
404.68	131.41
404.888	270.67
405.097	139.6
405.306	112.98
405.515	168.27
405.724	119.12
405.933	145.75
406.142	141.65
406.35	229.71
406.559	166.23
406.768	147.8
406.977	276.82
407.185	207.19
407.394	194.9
407.603	121.17
407.812	192.85
408.02	266.58
408.229	215.38
408.438	205.14
408.646	145.75
408.855	160.08
409.064	235.86
409.272	272.72
409.481	297.3
409.69	219.47
409.898	254.29
410.107	252.24
410.315	268.63
410.524	266.58
410.733	209.23
410.941	332.11
411.15	317.78
411.358	291.15
411.567	383.31
411.775	262.48
411.984	385.36
412.192	434.51
412.401	291.15
412.609	411.98
412.818	485.71
413.026	434.51
413.234	389.46
413.443	426.32
413.651	430.41
413.86	459.09
414.068	610.64
414.276	590.16
414.485	579.92
414.693	571.72
414.901	598.35
415.11	569.68
415.318	569.68
415.526	684.36
415.734	721.23
415.943	725.32
416.151	667.98
416.359	778.57
416.567	807.24
416.776	790.86
416.984	837.96
417.192	840.01
417.4	856.39
417.608	930.12
417.817	907.59
418.025	930.12
418.233	993.61
418.441	1087.81
418.649	1036.61
418.857	1067.33
419.065	1184.07
419.273	1167.68
419.481	1245.51
419.689	1349.95
419.897	1308.99
420.105	1345.86
420.313	1423.68
420.521	1364.29
420.729	1456.45
420.937	1511.74
421.145	1495.36
421.353	1530.17
421.561	1667.39
421.769	1763.64
421.977	1802.55
422.185	1843.51
422.393	1876.28
422.601	1896.76
422.809	2044.21
423.017	1970.49
423.224	2124.08
423.432	2111.8
423.64	2165.04
423.848	2455.86
424.056	2292.02
424.263	2521.39
424.471	2529.58
424.679	2562.35
424.887	2679.08
425.094	2744.62
425.302	2718
425.51	2935.08
425.718	2935.08
425.925	3049.77
426.133	3139.88
426.341	3320.1
426.548	3397.92
426.756	3377.44
426.964	3389.73
427.171	3756.32
427.379	3610.91
427.586	3832.09
427.794	3920.15
428.001	4217.11
428.209	4286.74
428.417	4342.04
428.624	4544.78
428.832	4409.62
429.039	4466.96
429.247	4583.7
429.454	5042.44
429.662	5110.02
429.869	4978.95
430.076	5310.72
430.284	5081.35
430.491	5413.12
430.699	5619.97
430.906	5773.57
431.114	5773.57
431.321	6052.09
431.528	6158.58
431.736	6551.79
431.943	6820.08
432.15	6664.43
432.358	6615.28
432.565	7037.16
432.772	6955.24
432.979	7223.53
433.187	7667.94
433.394	7485.67
433.601	8055
433.808	7985.37
434.016	7946.46
434.223	8411.35
434.43	8812.75
434.637	8597.71
434.844	9070.79
435.052	9519.3
435.259	9277.64
435.466	9459.91
435.673	9259.21
435.88	10107.07
436.087	10397.88
436.294	10496.18
436.501	10094.78
436.708	10422.45
436.915	10975.41
437.122	11298.98
437.329	11135.15
437.537	11624.61
437.743	11724.96
437.95	11770.02
438.157	12447.9
438.364	12724.37
438.571	12832.91
438.778	12785.81
438.985	14184.57
439.192	13402.25
439.399	13740.16
439.606	13559.94
439.813	14248.06
440.02	15202.41
440.227	14909.55
440.433	14784.63
440.64	15161.45
440.847	14919.79
441.054	15435.88
441.261	16365.66
441.467	16205.92
441.674	16740.44
441.881	17465.42
442.088	17039.44
442.294	17053.78
442.501	17578.06
442.708	17907.78
442.914	18485.31
443.121	19515.44
443.328	18960.44
443.534	20080.67
443.741	19669.03
443.948	19343.41
444.154	20668.44
444.361	20494.36
444.568	20750.36
444.774	20899.86
444.981	21057.56
445.187	21684.23
445.394	22185.99
445.6	22499.33
445.807	24233.96
446.013	23222.26
446.22	23822.31
446.426	24584.16
446.633	24500.19
446.839	25544.66
447.046	24836.06
447.252	25477.07
447.459	25915.34
447.665	25921.48
447.871	27123.64
448.078	28106.66
448.284	27058.1
448.491	27355.06
448.697	28575.65
448.903	29104.03
449.11	29489.04
449.316	28602.27
449.522	29460.37
449.728	29949.84
449.935	30105.48
450.141	30140.3
450.347	30709.63
450.553	29908.88
450.76	30453.64
450.966	31557.49
451.172	31016.83
451.378	31862.64
451.584	30982.01
451.791	32333.67
451.997	31776.62
452.203	32550.76
452.409	32796.51
452.615	32159.59
452.821	31125.37
453.027	30930.81
453.233	32460.65
453.44	31195
453.646	31473.53
453.852	31649.65
454.058	31985.52
454.264	31262.58
454.47	31768.43
454.676	31106.94
454.882	31973.23
455.088	29585.3
455.294	29511.57
455.5	30306.18
455.705	30519.17
455.911	29312.92
456.117	28534.69
456.323	28196.78
456.529	26970.04
456.735	28151.72
456.941	27389.88
457.147	26654.65
457.352	25989.06
457.558	25860.04
457.764	25960.39
457.97	25313.24
458.176	24694.75
458.381	24782.81
458.587	23455.73
458.793	23959.53
458.999	22353.92
459.204	23828.46
459.41	23269.36
459.616	21843.98
459.821	21819.4
460.027	21966.85
460.233	21059.6
460.438	20019.24
460.644	20375.58
460.85	19243.06
461.055	19263.54
461.261	19433.52
461.466	17729.61
461.672	17061.97
461.878	18468.92
462.083	17279.05
462.289	17133.65
462.494	16623.7
462.7	15724.65
462.905	15437.93
463.111	15960.16
463.316	16107.62
463.522	15724.65
463.727	15722.6
463.932	15761.51
464.138	15630.44
464.343	15673.45
464.549	15104.11
464.754	15876.2
464.959	15517.8
465.165	15616.1
465.37	14913.65
465.575	14274.68
465.781	14962.8
465.986	15167.6
466.191	14721.14
466.397	14215.29
466.602	13492.36
466.807	14069.89
467.012	14041.22
467.218	13910.15
467.423	14102.65
467.628	13990.02
467.833	14493.82
468.038	13834.37
468.244	13445.26
468.449	14004.35
