Data from USB4F104151__9__11-51-07-451.txt Node

Date: Fri Mar 14 11:51:07 EDT 2025
User: louis
Spectrometer: USB4F10415
Trigger mode: 4
Integration Time (sec): 2.000000E-2
Scans to average: 1
Electric dark correction enabled: true
Nonlinearity correction enabled: false
Boxcar width: 0
XAxis mode: Wavelengths
Number of Pixels in Spectrum: 3648
>>>>>Begin Spectral Data<<<<<
178.204	-52.22
178.424	-52.22
178.644	-52.22
178.864	-105.47
179.084	-91.13
179.304	-7.17
179.524	-70.65
179.744	-13.31
179.964	46.08
180.184	25.6
180.404	39.94
180.624	13.31
180.844	7.17
181.064	-23.55
181.283	19.46
181.503	-66.56
181.723	29.7
181.943	-46.08
182.163	35.84
182.383	17.41
182.602	31.74
182.822	19.46
183.042	3.07
183.262	46.08
183.482	29.7
183.701	-46.08
183.921	-1.02
184.141	31.74
184.361	54.27
184.58	-31.74
184.8	33.79
185.02	9.22
185.239	13.31
185.459	17.41
185.679	35.84
185.898	-62.46
186.118	121.85
186.338	-5.12
186.557	54.27
186.777	-23.55
186.997	37.89
187.216	-15.36
187.436	87.04
187.655	13.31
187.875	89.09
188.095	-9.22
188.314	23.55
188.534	103.42
188.753	15.36
188.973	46.08
189.192	46.08
189.412	3.07
189.631	-7.17
189.851	19.46
190.07	54.27
190.29	-1.02
190.509	9.22
190.729	-7.17
190.948	46.08
191.168	119.81
191.387	44.03
191.607	-7.17
191.826	-3.07
192.045	11.26
192.265	11.26
192.484	70.65
192.704	46.08
192.923	19.46
193.142	68.61
193.362	-13.31
193.581	58.37
193.8	-35.84
194.02	3.07
194.239	74.75
194.458	78.85
194.678	-11.26
194.897	-82.94
195.116	11.26
195.335	56.32
195.555	74.75
195.774	21.5
195.993	41.98
196.212	54.27
196.432	19.46
196.651	-13.31
196.87	1.02
197.089	15.36
197.308	-31.74
197.528	-3.07
197.747	-50.18
197.966	31.74
198.185	1.02
198.404	-15.36
198.623	9.22
198.842	35.84
199.062	44.03
199.281	74.75
199.5	-17.41
199.719	9.22
199.938	-37.89
200.157	82.94
200.376	31.74
200.595	74.75
200.814	48.13
201.033	-21.5
201.252	3.07
201.471	35.84
201.69	66.56
201.909	89.09
202.128	9.22
202.347	19.46
202.566	-52.22
202.785	15.36
203.004	3.07
203.223	62.46
203.442	9.22
203.661	11.26
203.879	1.02
204.098	80.89
204.317	-33.79
204.536	66.56
204.755	31.74
204.974	31.74
205.193	-9.22
205.411	52.22
205.63	87.04
205.849	50.18
206.068	27.65
206.287	-3.07
206.505	89.09
206.724	19.46
206.943	66.56
207.162	50.18
207.381	-35.84
207.599	25.6
207.818	-17.41
208.037	-5.12
208.255	-1.02
208.474	13.31
208.693	25.6
208.911	35.84
209.13	46.08
209.349	3.07
209.567	105.47
209.786	50.18
210.005	9.22
210.223	39.94
210.442	-9.22
210.661	37.89
210.879	-15.36
211.098	-13.31
211.316	15.36
211.535	39.94
211.753	119.81
211.972	13.31
212.191	1.02
212.409	-5.12
212.628	21.5
212.846	33.79
213.065	1.02
213.283	119.81
213.502	-19.46
213.72	46.08
213.938	76.8
214.157	-44.03
214.375	35.84
214.594	5.12
214.812	60.42
215.031	17.41
215.249	-7.17
215.467	3.07
215.686	9.22
215.904	33.79
216.122	17.41
216.341	33.79
216.559	74.75
216.778	33.79
216.996	41.98
217.214	-35.84
217.432	17.41
217.651	-29.7
217.869	19.46
218.087	-3.07
218.306	-72.7
218.524	19.46
218.742	-17.41
218.96	70.65
219.179	39.94
219.397	-25.6
219.615	130.05
219.833	50.18
220.051	1.02
220.27	39.94
220.488	-13.31
220.706	27.65
220.924	-15.36
221.142	15.36
221.36	17.41
221.578	33.79
221.796	44.03
222.015	113.66
222.233	35.84
222.451	140.29
222.669	-13.31
222.887	17.41
223.105	-21.5
223.323	-44.03
223.541	5.12
223.759	74.75
223.977	-19.46
224.195	-3.07
224.413	25.6
224.631	37.89
224.849	-3.07
225.067	-5.12
225.285	-17.41
225.503	-11.26
225.721	-3.07
225.939	9.22
226.157	-19.46
226.375	41.98
226.592	60.42
226.81	5.12
227.028	9.22
227.246	35.84
227.464	-9.22
227.682	111.61
227.9	9.22
228.117	-21.5
228.335	-27.65
228.553	-39.94
228.771	44.03
228.989	-7.17
229.206	37.89
229.424	50.18
229.642	11.26
229.86	50.18
230.077	44.03
230.295	-15.36
230.513	37.89
230.731	52.22
230.948	1.02
231.166	56.32
231.384	-15.36
231.601	56.32
231.819	72.7
232.037	25.6
232.254	13.31
232.472	21.5
232.689	64.51
232.907	31.74
233.125	82.94
233.342	60.42
233.56	33.79
233.777	21.5
233.995	48.13
234.213	15.36
234.43	7.17
234.648	39.94
234.865	11.26
235.083	46.08
235.3	3.07
235.518	35.84
235.735	5.12
235.953	54.27
236.17	-7.17
236.388	9.22
236.605	13.31
236.822	-31.74
237.04	82.94
237.257	119.81
237.475	-27.65
237.692	93.18
237.909	37.89
238.127	11.26
238.344	54.27
238.562	37.89
238.779	9.22
238.996	48.13
239.214	54.27
239.431	74.75
239.648	21.5
239.865	58.37
240.083	48.13
240.3	13.31
240.517	48.13
240.735	68.61
240.952	31.74
241.169	50.18
241.386	33.79
241.603	50.18
241.821	35.84
242.038	99.33
242.255	11.26
242.472	1.02
242.689	-27.65
242.907	21.5
243.124	52.22
243.341	-1.02
243.558	-50.18
243.775	13.31
243.992	7.17
244.209	-11.26
244.426	37.89
244.643	60.42
244.86	-15.36
245.078	27.65
245.295	84.99
245.512	35.84
245.729	-95.23
245.946	17.41
246.163	-72.7
246.38	-35.84
246.597	41.98
246.814	-3.07
247.031	35.84
247.248	31.74
247.464	44.03
247.681	29.7
247.898	95.23
248.115	76.8
248.332	-29.7
248.549	-1.02
248.766	82.94
248.983	-21.5
249.2	13.31
249.417	33.79
249.633	31.74
249.85	19.46
250.067	3.07
250.284	31.74
250.501	48.13
250.717	-72.7
250.934	-21.5
251.151	-3.07
251.368	56.32
251.585	29.7
251.801	39.94
252.018	-15.36
252.235	70.65
252.451	68.61
252.668	13.31
252.885	1.02
253.102	39.94
253.318	29.7
253.535	11.26
253.752	68.61
253.968	-1.02
254.185	17.41
254.401	-9.22
254.618	62.46
254.835	46.08
255.051	46.08
255.268	29.7
255.484	37.89
255.701	-1.02
255.917	11.26
256.134	-31.74
256.351	21.5
256.567	70.65
256.784	99.33
257	44.03
257.217	103.42
257.433	41.98
257.65	31.74
257.866	11.26
258.082	50.18
258.299	46.08
258.515	128
258.732	13.31
258.948	46.08
259.165	60.42
259.381	19.46
259.597	82.94
259.814	-5.12
260.03	48.13
260.246	48.13
260.463	11.26
260.679	-7.17
260.895	62.46
261.112	84.99
261.328	54.27
261.544	-9.22
261.761	60.42
261.977	91.13
262.193	-7.17
262.409	128
262.626	35.84
262.842	-9.22
263.058	-44.03
263.274	64.51
263.49	60.42
263.707	17.41
263.923	39.94
264.139	17.41
264.355	-58.37
264.571	99.33
264.787	66.56
265.004	109.57
265.22	-7.17
265.436	9.22
265.652	-19.46
265.868	95.23
266.084	27.65
266.3	-17.41
266.516	35.84
266.732	-3.07
266.948	44.03
267.164	37.89
267.38	125.95
267.596	54.27
267.812	44.03
268.028	-3.07
268.244	13.31
268.46	5.12
268.676	-15.36
268.892	33.79
269.108	33.79
269.324	5.12
269.54	39.94
269.756	-5.12
269.972	25.6
270.188	54.27
270.403	-3.07
270.619	15.36
270.835	19.46
271.051	31.74
271.267	7.17
271.483	95.23
271.698	89.09
271.914	29.7
272.13	-56.32
272.346	7.17
272.562	13.31
272.777	87.04
272.993	5.12
273.209	99.33
273.425	-19.46
273.64	37.89
273.856	11.26
274.072	19.46
274.287	46.08
274.503	52.22
274.719	-3.07
274.934	13.31
275.15	-41.98
275.366	66.56
275.581	54.27
275.797	33.79
276.012	3.07
276.228	78.85
276.444	72.7
276.659	39.94
276.875	-35.84
277.09	-19.46
277.306	27.65
277.521	-27.65
277.737	-27.65
277.952	44.03
278.168	111.61
278.383	13.31
278.599	3.07
278.814	54.27
279.03	35.84
279.245	19.46
279.461	3.07
279.676	95.23
279.892	58.37
280.107	56.32
280.322	29.7
280.538	64.51
280.753	52.22
280.969	70.65
281.184	-5.12
281.399	58.37
281.615	9.22
281.83	107.52
282.045	-37.89
282.26	13.31
282.476	-35.84
282.691	84.99
282.906	48.13
283.122	23.55
283.337	-9.22
283.552	80.89
283.767	46.08
283.983	68.61
284.198	-3.07
284.413	74.75
284.628	35.84
284.843	1.02
285.058	60.42
285.274	50.18
285.489	44.03
285.704	78.85
285.919	41.98
286.134	-17.41
286.349	9.22
286.564	13.31
286.779	29.7
286.995	35.84
287.21	37.89
287.425	39.94
287.64	1.02
287.855	48.13
288.07	-13.31
288.285	66.56
288.5	119.81
288.715	31.74
288.93	19.46
289.145	13.31
289.36	52.22
289.575	33.79
289.79	97.28
290.004	46.08
290.219	78.85
290.434	82.94
290.649	-11.26
290.864	-9.22
291.079	21.5
291.294	-3.07
291.509	5.12
291.724	54.27
291.938	-11.26
292.153	80.89
292.368	-74.75
292.583	-37.89
292.798	41.98
293.012	74.75
293.227	41.98
293.442	41.98
293.657	-17.41
293.871	109.57
294.086	-13.31
294.301	21.5
294.516	-41.98
294.73	-27.65
294.945	37.89
295.16	-3.07
295.374	99.33
295.589	25.6
295.804	25.6
296.018	21.5
296.233	27.65
296.447	27.65
296.662	29.7
296.877	21.5
297.091	11.26
297.306	-1.02
297.52	-15.36
297.735	89.09
297.949	-23.55
298.164	13.31
298.378	50.18
298.593	9.22
298.807	-11.26
299.022	-11.26
299.236	46.08
299.451	66.56
299.665	13.31
299.88	111.61
300.094	78.85
300.309	-21.5
300.523	48.13
300.737	76.8
300.952	-7.17
301.166	25.6
301.381	-5.12
301.595	17.41
301.809	89.09
302.024	-41.98
302.238	19.46
302.452	-7.17
302.667	72.7
302.881	-3.07
303.095	-5.12
303.309	9.22
303.524	44.03
303.738	54.27
303.952	-5.12
304.166	52.22
304.381	50.18
304.595	-9.22
304.809	-31.74
305.023	48.13
305.237	-58.37
305.452	64.51
305.666	3.07
305.88	15.36
306.094	35.84
306.308	-5.12
306.522	74.75
306.736	15.36
306.95	-41.98
307.164	23.55
307.379	1.02
307.593	17.41
307.807	-1.02
308.021	-64.51
308.235	-17.41
308.449	41.98
308.663	41.98
308.877	80.89
309.091	-52.22
309.305	21.5
309.519	-13.31
309.733	115.71
309.947	15.36
310.161	97.28
310.374	15.36
310.588	-41.98
310.802	-1.02
311.016	60.42
311.23	7.17
311.444	-1.02
311.658	46.08
311.872	76.8
312.085	117.76
312.299	19.46
312.513	15.36
312.727	1.02
312.941	-64.51
313.154	-5.12
313.368	31.74
313.582	74.75
313.796	-31.74
314.009	23.55
314.223	115.71
314.437	-62.46
314.651	58.37
314.864	74.75
315.078	17.41
315.292	46.08
315.505	33.79
315.719	-21.5
315.933	48.13
316.146	-11.26
316.36	-1.02
316.573	179.2
316.787	25.6
317.001	58.37
317.214	-33.79
317.428	74.75
317.641	9.22
317.855	80.89
318.068	54.27
318.282	-35.84
318.495	41.98
318.709	7.17
318.922	13.31
319.136	93.18
319.349	7.17
319.563	56.32
319.776	44.03
319.99	37.89
320.203	-7.17
320.417	76.8
320.63	5.12
320.843	50.18
321.057	46.08
321.27	80.89
321.483	29.7
321.697	29.7
321.91	31.74
322.124	89.09
322.337	95.23
322.55	21.5
322.763	21.5
322.977	58.37
323.19	1.02
323.403	44.03
323.617	25.6
323.83	60.42
324.043	46.08
324.256	1.02
324.469	3.07
324.683	121.85
324.896	82.94
325.109	46.08
325.322	5.12
325.535	99.33
325.748	5.12
325.962	101.37
326.175	29.7
326.388	60.42
326.601	80.89
326.814	54.27
327.027	3.07
327.24	52.22
327.453	29.7
327.666	74.75
327.879	35.84
328.092	60.42
328.305	-27.65
328.518	64.51
328.731	-39.94
328.944	95.23
329.157	39.94
329.37	13.31
329.583	54.27
329.796	35.84
330.009	23.55
330.222	54.27
330.435	9.22
330.648	-9.22
330.861	39.94
331.073	76.8
331.286	5.12
331.499	123.9
331.712	60.42
331.925	41.98
332.138	21.5
332.35	25.6
332.563	25.6
332.776	70.65
332.989	-35.84
333.202	19.46
333.414	-44.03
333.627	107.52
333.84	5.12
334.053	105.47
334.265	48.13
334.478	5.12
334.691	39.94
334.903	54.27
335.116	21.5
335.329	74.75
335.541	39.94
335.754	107.52
335.966	142.33
336.179	64.51
336.392	31.74
336.604	3.07
336.817	11.26
337.029	37.89
337.242	46.08
337.454	35.84
337.667	15.36
337.88	113.66
338.092	19.46
338.305	82.94
338.517	37.89
338.729	37.89
338.942	74.75
339.154	39.94
339.367	-9.22
339.579	115.71
339.792	15.36
340.004	62.46
340.217	46.08
340.429	52.22
340.641	44.03
340.854	52.22
341.066	64.51
341.278	35.84
341.491	17.41
341.703	23.55
341.915	7.17
342.128	39.94
342.34	60.42
342.552	80.89
342.764	60.42
342.977	21.5
343.189	70.65
343.401	-7.17
343.613	50.18
343.826	70.65
344.038	25.6
344.25	41.98
344.462	80.89
344.674	-17.41
344.886	21.5
345.099	-19.46
345.311	15.36
345.523	9.22
345.735	25.6
345.947	29.7
346.159	19.46
346.371	31.74
346.583	-58.37
346.795	33.79
347.007	15.36
347.219	39.94
347.431	84.99
347.643	105.47
347.855	-27.65
348.067	89.09
348.279	-17.41
348.491	50.18
348.703	62.46
348.915	11.26
349.127	41.98
349.339	64.51
349.551	23.55
349.763	37.89
349.975	-9.22
350.187	44.03
350.399	103.42
350.61	-17.41
350.822	25.6
351.034	7.17
351.246	64.51
351.458	68.61
351.669	58.37
351.881	136.19
352.093	60.42
352.305	25.6
352.517	60.42
352.728	-31.74
352.94	74.75
353.152	119.81
353.363	-23.55
353.575	25.6
353.787	91.13
353.999	91.13
354.21	84.99
354.422	25.6
354.633	9.22
354.845	11.26
355.057	33.79
355.268	9.22
355.48	109.57
355.692	84.99
355.903	5.12
356.115	-11.26
356.326	35.84
356.538	82.94
356.749	54.27
356.961	60.42
357.172	76.8
357.384	44.03
357.595	101.37
357.807	72.7
358.018	-41.98
358.23	17.41
358.441	78.85
358.653	119.81
358.864	50.18
359.075	-17.41
359.287	54.27
359.498	31.74
359.709	31.74
359.921	23.55
360.132	29.7
360.344	-3.07
360.555	21.5
360.766	50.18
360.977	50.18
361.189	44.03
361.4	-13.31
361.611	35.84
361.823	39.94
362.034	17.41
362.245	-13.31
362.456	31.74
362.667	-44.03
362.879	41.98
363.09	78.85
363.301	56.32
363.512	31.74
363.723	37.89
363.935	-5.12
364.146	46.08
364.357	-3.07
364.568	-9.22
364.779	21.5
364.99	56.32
365.201	-54.27
365.412	7.17
365.623	1.02
365.834	29.7
366.045	58.37
366.256	84.99
366.467	66.56
366.678	134.14
366.889	-11.26
367.1	66.56
367.311	9.22
367.522	-17.41
367.733	-3.07
367.944	152.57
368.155	-19.46
368.366	46.08
368.577	48.13
368.788	66.56
368.999	-1.02
369.209	62.46
369.42	23.55
369.631	68.61
369.842	62.46
370.053	50.18
370.264	101.37
370.474	7.17
370.685	29.7
370.896	29.7
371.107	41.98
371.317	84.99
371.528	-1.02
371.739	41.98
371.95	1.02
372.16	19.46
372.371	109.57
372.582	44.03
372.792	19.46
373.003	-13.31
373.214	50.18
373.424	5.12
373.635	-48.13
373.846	27.65
374.056	-74.75
374.267	11.26
374.477	39.94
374.688	-52.22
374.898	25.6
375.109	74.75
375.319	37.89
375.53	25.6
375.74	29.7
375.951	62.46
376.161	-3.07
376.372	1.02
376.582	54.27
376.793	52.22
377.003	-13.31
377.214	25.6
377.424	1.02
377.635	27.65
377.845	9.22
378.055	44.03
378.266	25.6
378.476	76.8
378.686	21.5
378.897	56.32
379.107	17.41
379.317	70.65
379.528	21.5
379.738	72.7
379.948	-5.12
380.158	84.99
380.369	25.6
380.579	31.74
380.789	17.41
380.999	41.98
381.21	19.46
381.42	70.65
381.63	21.5
381.84	101.37
382.05	74.75
382.261	41.98
382.471	-23.55
382.681	35.84
382.891	58.37
383.101	41.98
383.311	1.02
383.521	25.6
383.731	82.94
383.941	87.04
384.151	37.89
384.361	15.36
384.571	113.66
384.781	107.52
384.991	39.94
385.201	50.18
385.411	58.37
385.621	84.99
385.831	5.12
386.041	21.5
386.251	39.94
386.461	11.26
386.671	123.9
386.881	60.42
387.091	76.8
387.301	144.38
387.511	74.75
387.72	60.42
387.93	56.32
388.14	-25.6
388.35	31.74
388.56	97.28
388.769	58.37
388.979	-5.12
389.189	17.41
389.399	50.18
389.609	-5.12
389.818	35.84
390.028	87.04
390.238	37.89
390.447	11.26
390.657	89.09
390.867	-1.02
391.076	101.37
391.286	19.46
391.496	87.04
391.705	41.98
391.915	125.95
392.125	17.41
392.334	70.65
392.544	21.5
392.753	3.07
392.963	21.5
393.172	144.38
393.382	84.99
393.591	54.27
393.801	21.5
394.01	152.57
394.22	146.43
394.429	101.37
394.639	9.22
394.848	95.23
395.058	103.42
395.267	17.41
395.477	39.94
395.686	109.57
395.895	144.38
396.105	37.89
396.314	48.13
396.524	58.37
396.733	60.42
396.942	21.5
397.152	41.98
397.361	62.46
397.57	87.04
397.78	107.52
397.989	76.8
398.198	109.57
398.407	80.89
398.617	56.32
398.826	27.65
399.035	125.95
399.244	171.01
399.453	105.47
399.663	82.94
399.872	109.57
400.081	138.24
400.29	74.75
400.499	97.28
400.708	134.14
400.917	113.66
401.127	105.47
401.336	46.08
401.545	152.57
401.754	103.42
401.963	115.71
402.172	144.38
402.381	171.01
402.59	68.61
402.799	136.19
403.008	109.57
403.217	44.03
403.426	136.19
403.635	66.56
403.844	27.65
404.053	128
404.262	152.57
404.471	168.96
404.68	93.18
404.888	115.71
405.097	121.85
405.306	136.19
405.515	128
405.724	160.77
405.933	148.48
406.142	99.33
406.35	185.34
406.559	203.77
406.768	150.53
406.977	220.16
407.185	134.14
407.394	113.66
407.603	168.96
407.812	175.1
408.02	189.44
408.229	189.44
408.438	179.2
408.646	205.82
408.855	199.68
409.064	201.72
409.272	211.96
409.481	232.44
409.69	220.16
409.898	203.77
410.107	220.16
410.315	199.68
410.524	207.87
410.733	320.51
410.941	322.56
411.15	349.18
411.358	306.17
411.567	345.08
411.775	369.66
411.984	318.46
412.192	490.49
412.401	412.67
412.609	408.57
412.818	467.96
413.026	431.1
413.234	433.15
413.443	441.34
413.651	412.67
413.86	517.11
414.068	480.25
414.276	599.03
414.485	568.31
414.693	652.28
414.901	642.04
415.11	549.88
415.318	594.93
415.526	670.71
415.734	695.29
415.943	703.48
416.151	666.61
416.359	736.24
416.567	832.5
416.776	838.64
416.984	836.6
417.192	801.78
417.4	900.08
417.608	809.97
417.817	953.33
418.025	992.24
418.233	1047.54
418.441	963.57
418.649	1010.67
418.857	1131.5
419.065	1209.33
419.273	1057.78
419.481	1238
419.689	1311.72
419.897	1352.68
420.105	1344.49
420.313	1367.02
420.521	1418.22
420.729	1395.69
420.937	1586.15
421.145	1508.33
421.353	1651.69
421.561	1772.52
421.769	1711.08
421.977	1844.2
422.185	1762.28
422.393	1915.87
422.601	1946.59
422.809	1993.7
423.017	2034.66
423.224	2071.52
423.432	2218.97
423.64	2292.7
423.848	2298.84
424.056	2249.69
424.263	2532.31
424.471	2468.83
424.679	2585.56
424.887	2614.23
425.094	2728.92
425.302	2769.88
425.51	2847.7
425.718	3056.59
425.925	2952.15
426.133	3038.16
426.341	3247.05
426.548	3529.67
426.756	3390.41
426.964	3480.52
427.171	3754.95
427.379	3744.71
427.586	3886.02
427.794	3879.88
428.001	4047.81
428.209	4217.79
428.417	4256.7
428.624	4350.91
428.832	4514.75
429.039	4537.27
429.247	4359.1
429.454	4942.77
429.662	5159.86
429.869	4791.22
430.076	5186.48
430.284	5102.51
430.491	5364.65
430.699	5452.72
430.906	5712.81
431.114	5723.05
431.321	5860.26
431.528	6126.5
431.736	6443.93
431.943	6738.84
432.15	6339.49
432.358	6536.09
432.565	7078.8
432.772	6837.14
432.979	7269.27
433.187	7379.86
433.394	7342.99
433.601	7900.04
433.808	7973.77
434.016	8029.06
434.223	8158.08
434.43	8741.75
434.637	8625.02
434.844	9223.03
435.052	9409.39
435.259	9175.92
435.466	9397.1
435.673	9294.71
435.88	9859.95
436.087	10234.72
436.294	10261.35
436.501	10204
436.708	10416.99
436.915	10720.09
437.122	11199.32
437.329	11287.38
437.537	11629.39
437.743	11684.69
437.95	11516.75
438.157	12235.59
438.364	12548.93
438.571	12440.39
438.778	12682.05
438.985	13749.04
439.192	13378.36
439.399	13792.05
439.606	13327.16
439.813	14197.54
440.02	14852.89
440.227	14623.52
440.433	14494.5
440.64	15223.58
440.847	15037.21
441.054	15444.76
441.261	16505.6
441.467	16122.63
441.674	16438.02
441.881	16732.93
442.088	16939.77
442.294	16984.83
442.501	17224.44
442.708	17752.82
442.914	18389.74
443.121	18989.79
443.328	18557.67
443.534	20007.63
443.741	19346.14
443.948	19149.53
444.154	20755.14
444.361	20296.39
444.568	20468.42
444.774	20599.49
444.981	20771.52
445.187	21469.88
445.394	22225.58
445.6	22082.22
445.807	24306.32
446.013	23278.24
446.22	23526.04
446.426	24736.39
446.633	24382.09
446.839	25760.37
447.046	24488.59
447.252	25498.23
447.459	25858.68
447.665	25610.87
447.871	27265.63
448.078	28076.63
448.284	26659.43
448.491	27417.18
448.697	28457.55
448.903	29295.17
449.11	29080.13
449.316	28600.91
449.522	29280.83
449.728	30059.06
449.935	30157.36
450.141	30282.29
450.347	31093.29
450.553	29362.75
450.76	30421.55
450.966	31447.58
451.172	30655.02
451.378	31601.18
451.584	31048.23
451.791	31795.74
451.997	31533.6
452.203	32340.5
452.409	32215.57
452.615	31969.82
452.821	31242.79
453.027	30655.02
453.233	32238.1
453.44	30767.66
453.646	31664.67
453.852	31199.78
454.058	31816.22
454.264	30747.18
454.47	31732.25
454.676	30517.81
454.882	31832.6
455.088	29030.98
455.294	29657.66
455.5	30190.13
455.705	30079.54
455.911	29014.6
456.117	28344.91
456.323	28344.91
456.529	26667.63
456.735	27794.01
456.941	27171.43
457.147	26600.04
457.352	26002.04
457.558	25780.85
457.764	25711.22
457.97	25197.18
458.176	24871.56
458.381	24844.93
458.587	23276.19
458.793	23421.59
458.999	22350.51
459.204	23829.14
459.41	23278.24
459.616	21863.09
459.821	21433.02
460.027	21426.87
460.233	21091.01
460.438	19964.62
460.644	20402.89
460.85	19106.52
461.055	19231.45
461.261	18778.85
461.466	17609.46
461.672	16952.06
461.878	18369.26
462.083	17085.18
462.289	16784.13
462.494	16757.5
462.7	16110.35
462.905	15119.13
463.111	16169.74
463.316	16214.79
463.522	15561.49
463.727	15508.24
463.932	15794.96
464.138	15455
464.343	15452.95
464.549	15188.76
464.754	15510.29
464.959	15575.83
465.165	15192.86
465.37	14553.89
465.575	14209.83
465.781	14854.94
465.986	15215.38
466.191	14402.34
466.397	14160.68
466.602	13427.51
466.807	13953.84
467.012	13751.09
467.218	13755.18
467.423	13808.43
467.628	13851.44
467.833	14353.19
468.038	13761.33
468.244	13402.93
