Data from USB4F104151__99__11-53-02-886.txt Node

Date: Fri Mar 14 11:53:02 EDT 2025
User: louis
Spectrometer: USB4F10415
Trigger mode: 4
Integration Time (sec): 2.000000E-2
Scans to average: 1
Electric dark correction enabled: true
Nonlinearity correction enabled: false
Boxcar width: 0
XAxis mode: Wavelengths
Number of Pixels in Spectrum: 3648
>>>>>Begin Spectral Data<<<<<
178.204	-101.37
178.424	-101.37
178.644	-101.37
178.864	-136.19
179.084	-5.12
179.304	-7.17
179.524	-19.46
179.744	-13.31
179.964	41.98
180.184	19.46
180.404	-11.26
180.624	39.94
180.844	-1.02
181.064	-5.12
181.283	-5.12
181.503	-48.13
181.723	9.22
181.943	17.41
182.163	-7.17
182.383	54.27
182.602	72.7
182.822	21.5
183.042	13.31
183.262	31.74
183.482	31.74
183.701	-17.41
183.921	-7.17
184.141	17.41
184.361	52.22
184.58	19.46
184.8	37.89
185.02	-5.12
185.239	82.94
185.459	13.31
185.679	25.6
185.898	-15.36
186.118	23.55
186.338	62.46
186.557	39.94
186.777	-5.12
186.997	-3.07
187.216	66.56
187.436	78.85
187.655	37.89
187.875	64.51
188.095	-1.02
188.314	48.13
188.534	41.98
188.753	5.12
188.973	25.6
189.192	9.22
189.412	37.89
189.631	-5.12
189.851	82.94
190.07	60.42
190.29	-52.22
190.509	7.17
190.729	-13.31
190.948	-15.36
191.168	93.18
191.387	48.13
191.607	1.02
191.826	19.46
192.045	-9.22
192.265	35.84
192.484	41.98
192.704	41.98
192.923	-13.31
193.142	115.71
193.362	23.55
193.581	1.02
193.8	72.7
194.02	19.46
194.239	99.33
194.458	62.46
194.678	35.84
194.897	52.22
195.116	7.17
195.335	41.98
195.555	27.65
195.774	-17.41
195.993	37.89
196.212	-27.65
196.432	50.18
196.651	44.03
196.87	-13.31
197.089	136.19
197.308	-15.36
197.528	29.7
197.747	-35.84
197.966	-46.08
198.185	56.32
198.404	37.89
198.623	-13.31
198.842	58.37
199.062	76.8
199.281	66.56
199.5	48.13
199.719	44.03
199.938	37.89
200.157	84.99
200.376	33.79
200.595	35.84
200.814	-39.94
201.033	-44.03
201.252	23.55
201.471	82.94
201.69	66.56
201.909	107.52
202.128	33.79
202.347	52.22
202.566	35.84
202.785	41.98
203.004	56.32
203.223	74.75
203.442	31.74
203.661	29.7
203.879	50.18
204.098	27.65
204.317	31.74
204.536	56.32
204.755	117.76
204.974	15.36
205.193	3.07
205.411	91.13
205.63	-5.12
205.849	39.94
206.068	19.46
206.287	-7.17
206.505	105.47
206.724	50.18
206.943	29.7
207.162	58.37
207.381	-5.12
207.599	13.31
207.818	60.42
208.037	64.51
208.255	70.65
208.474	44.03
208.693	103.42
208.911	-3.07
209.13	74.75
209.349	82.94
209.567	107.52
209.786	140.29
210.005	21.5
210.223	37.89
210.442	3.07
210.661	66.56
210.879	21.5
211.098	-23.55
211.316	-44.03
211.535	19.46
211.753	7.17
211.972	84.99
212.191	-37.89
212.409	39.94
212.628	33.79
212.846	130.05
213.065	35.84
213.283	9.22
213.502	-29.7
213.72	54.27
213.938	35.84
214.157	31.74
214.375	1.02
214.594	17.41
214.812	44.03
215.031	-9.22
215.249	23.55
215.467	41.98
215.686	31.74
215.904	56.32
216.122	9.22
216.341	25.6
216.559	-29.7
216.778	68.61
216.996	87.04
217.214	39.94
217.432	82.94
217.651	1.02
217.869	21.5
218.087	41.98
218.306	13.31
218.524	-3.07
218.742	68.61
218.96	-9.22
219.179	29.7
219.397	52.22
219.615	66.56
219.833	60.42
220.051	13.31
220.27	99.33
220.488	35.84
220.706	95.23
220.924	25.6
221.142	27.65
221.36	58.37
221.578	5.12
221.796	-33.79
222.015	-21.5
222.233	17.41
222.451	82.94
222.669	3.07
222.887	17.41
223.105	-44.03
223.323	13.31
223.541	-68.61
223.759	78.85
223.977	52.22
224.195	78.85
224.413	9.22
224.631	15.36
224.849	-70.65
225.067	54.27
225.285	-46.08
225.503	39.94
225.721	50.18
225.939	29.7
226.157	39.94
226.375	82.94
226.592	-19.46
226.81	72.7
227.028	35.84
227.246	58.37
227.464	44.03
227.682	-7.17
227.9	58.37
228.117	-15.36
228.335	23.55
228.553	-54.27
228.771	35.84
228.989	19.46
229.206	17.41
229.424	-15.36
229.642	-31.74
229.86	39.94
230.077	35.84
230.295	33.79
230.513	39.94
230.731	29.7
230.948	35.84
231.166	7.17
231.384	33.79
231.601	23.55
231.819	31.74
232.037	93.18
232.254	-13.31
232.472	60.42
232.689	17.41
232.907	-3.07
233.125	66.56
233.342	-41.98
233.56	-1.02
233.777	58.37
233.995	35.84
234.213	156.67
234.43	50.18
234.648	62.46
234.865	-23.55
235.083	-19.46
235.3	-21.5
235.518	-7.17
235.735	19.46
235.953	39.94
236.17	5.12
236.388	68.61
236.605	25.6
236.822	60.42
237.04	25.6
237.257	-17.41
237.475	46.08
237.692	41.98
237.909	62.46
238.127	48.13
238.344	52.22
238.562	-11.26
238.779	-9.22
238.996	-27.65
239.214	58.37
239.431	87.04
239.648	15.36
239.865	76.8
240.083	46.08
240.3	7.17
240.517	37.89
240.735	56.32
240.952	62.46
241.169	60.42
241.386	23.55
241.603	48.13
241.821	58.37
242.038	115.71
242.255	29.7
242.472	15.36
242.689	-19.46
242.907	35.84
243.124	39.94
243.341	-29.7
243.558	62.46
243.775	33.79
243.992	-17.41
244.209	58.37
244.426	11.26
244.643	31.74
244.86	-27.65
245.078	105.47
245.295	23.55
245.512	17.41
245.729	-9.22
245.946	54.27
246.163	72.7
246.38	60.42
246.597	-35.84
246.814	119.81
247.031	50.18
247.248	105.47
247.464	80.89
247.681	3.07
247.898	23.55
248.115	35.84
248.332	37.89
248.549	48.13
248.766	105.47
248.983	13.31
249.2	70.65
249.417	62.46
249.633	-27.65
249.85	13.31
250.067	13.31
250.284	41.98
250.501	19.46
250.717	31.74
250.934	1.02
251.151	-68.61
251.368	21.5
251.585	48.13
251.801	9.22
252.018	11.26
252.235	-13.31
252.451	-29.7
252.668	70.65
252.885	93.18
253.102	60.42
253.318	109.57
253.535	46.08
253.752	41.98
253.968	80.89
254.185	25.6
254.401	-62.46
254.618	9.22
254.835	13.31
255.051	107.52
255.268	39.94
255.484	25.6
255.701	138.24
255.917	128
256.134	-50.18
256.351	25.6
256.567	15.36
256.784	41.98
257	3.07
257.217	33.79
257.433	21.5
257.65	91.13
257.866	-46.08
258.082	15.36
258.299	41.98
258.515	82.94
258.732	15.36
258.948	-7.17
259.165	91.13
259.381	35.84
259.597	52.22
259.814	41.98
260.03	70.65
260.246	78.85
260.463	54.27
260.679	80.89
260.895	13.31
261.112	-23.55
261.328	70.65
261.544	-11.26
261.761	113.66
261.977	72.7
262.193	-21.5
262.409	64.51
262.626	9.22
262.842	-66.56
263.058	41.98
263.274	72.7
263.49	-33.79
263.707	15.36
263.923	82.94
264.139	54.27
264.355	13.31
264.571	33.79
264.787	17.41
265.004	9.22
265.22	17.41
265.436	27.65
265.652	-9.22
265.868	76.8
266.084	17.41
266.3	64.51
266.516	-5.12
266.732	48.13
266.948	35.84
267.164	1.02
267.38	60.42
267.596	62.46
267.812	66.56
268.028	68.61
268.244	15.36
268.46	23.55
268.676	15.36
268.892	1.02
269.108	44.03
269.324	39.94
269.54	-91.13
269.756	1.02
269.972	-25.6
270.188	5.12
270.403	-62.46
270.619	-21.5
270.835	13.31
271.051	9.22
271.267	-44.03
271.483	5.12
271.698	35.84
271.914	58.37
272.13	3.07
272.346	33.79
272.562	19.46
272.777	62.46
272.993	5.12
273.209	-46.08
273.425	78.85
273.64	15.36
273.856	25.6
274.072	41.98
274.287	-56.32
274.503	41.98
274.719	54.27
274.934	25.6
275.15	-48.13
275.366	54.27
275.581	15.36
275.797	-19.46
276.012	5.12
276.228	21.5
276.444	62.46
276.659	-23.55
276.875	-9.22
277.09	97.28
277.306	46.08
277.521	7.17
277.737	15.36
277.952	-29.7
278.168	48.13
278.383	76.8
278.599	58.37
278.814	72.7
279.03	50.18
279.245	-7.17
279.461	33.79
279.676	11.26
279.892	-5.12
280.107	13.31
280.322	29.7
280.538	23.55
280.753	13.31
280.969	91.13
281.184	17.41
281.399	91.13
281.615	37.89
281.83	29.7
282.045	-27.65
282.26	44.03
282.476	23.55
282.691	-13.31
282.906	23.55
283.122	-9.22
283.337	-46.08
283.552	17.41
283.767	3.07
283.983	72.7
284.198	39.94
284.413	17.41
284.628	3.07
284.843	66.56
285.058	-37.89
285.274	76.8
285.489	1.02
285.704	48.13
285.919	-27.65
286.134	25.6
286.349	54.27
286.564	23.55
286.779	54.27
286.995	15.36
287.21	9.22
287.425	50.18
287.64	35.84
287.855	23.55
288.07	-19.46
288.285	70.65
288.5	115.71
288.715	23.55
288.93	87.04
289.145	25.6
289.36	1.02
289.575	-9.22
289.79	19.46
290.004	-13.31
290.219	39.94
290.434	-1.02
290.649	50.18
290.864	-23.55
291.079	93.18
291.294	89.09
291.509	-46.08
291.724	48.13
291.938	60.42
292.153	84.99
292.368	11.26
292.583	17.41
292.798	48.13
293.012	11.26
293.227	-11.26
293.442	44.03
293.657	13.31
293.871	72.7
294.086	44.03
294.301	74.75
294.516	48.13
294.73	52.22
294.945	33.79
295.16	5.12
295.374	35.84
295.589	9.22
295.804	31.74
296.018	66.56
296.233	78.85
296.447	58.37
296.662	33.79
296.877	37.89
297.091	-7.17
297.306	-13.31
297.52	39.94
297.735	101.37
297.949	78.85
298.164	29.7
298.378	-11.26
298.593	33.79
298.807	-5.12
299.022	39.94
299.236	-11.26
299.451	56.32
299.665	-3.07
299.88	35.84
300.094	-7.17
300.309	58.37
300.523	17.41
300.737	48.13
300.952	5.12
301.166	103.42
301.381	-7.17
301.595	39.94
301.809	3.07
302.024	41.98
302.238	39.94
302.452	-33.79
302.667	-44.03
302.881	56.32
303.095	-3.07
303.309	66.56
303.524	9.22
303.738	89.09
303.952	105.47
304.166	-25.6
304.381	-72.7
304.595	68.61
304.809	-60.42
305.023	41.98
305.237	-27.65
305.452	-7.17
305.666	25.6
305.88	31.74
306.094	46.08
306.308	62.46
306.522	52.22
306.736	95.23
306.95	84.99
307.164	3.07
307.379	33.79
307.593	41.98
307.807	37.89
308.021	-7.17
308.235	-17.41
308.449	-3.07
308.663	-23.55
308.877	111.61
309.091	9.22
309.305	62.46
309.519	5.12
309.733	15.36
309.947	13.31
310.161	17.41
310.374	-5.12
310.588	44.03
310.802	56.32
311.016	13.31
311.23	44.03
311.444	9.22
311.658	44.03
311.872	41.98
312.085	58.37
312.299	27.65
312.513	52.22
312.727	60.42
312.941	39.94
313.154	87.04
313.368	-17.41
313.582	17.41
313.796	50.18
314.009	68.61
314.223	1.02
314.437	93.18
314.651	84.99
314.864	58.37
315.078	66.56
315.292	37.89
315.505	7.17
315.719	9.22
315.933	-3.07
316.146	35.84
316.36	68.61
316.573	103.42
316.787	19.46
317.001	13.31
317.214	-25.6
317.428	91.13
317.641	-50.18
317.855	35.84
318.068	41.98
318.282	58.37
318.495	54.27
318.709	-39.94
318.922	21.5
319.136	15.36
319.349	31.74
319.563	-9.22
319.776	9.22
319.99	1.02
320.203	-1.02
320.417	54.27
320.63	39.94
320.843	17.41
321.057	72.7
321.27	3.07
321.483	41.98
321.697	50.18
321.91	1.02
322.124	64.51
322.337	50.18
322.55	64.51
322.763	74.75
322.977	-19.46
323.19	3.07
323.403	1.02
323.617	19.46
323.83	44.03
324.043	3.07
324.256	31.74
324.469	-5.12
324.683	72.7
324.896	19.46
325.109	58.37
325.322	-46.08
325.535	17.41
325.748	5.12
325.962	17.41
326.175	35.84
326.388	68.61
326.601	74.75
326.814	37.89
327.027	35.84
327.24	119.81
327.453	93.18
327.666	-1.02
327.879	52.22
328.092	-1.02
328.305	48.13
328.518	13.31
328.731	9.22
328.944	17.41
329.157	-7.17
329.37	78.85
329.583	46.08
329.796	37.89
330.009	-44.03
330.222	1.02
330.435	-39.94
330.648	89.09
330.861	58.37
331.073	58.37
331.286	9.22
331.499	37.89
331.712	91.13
331.925	-37.89
332.138	-7.17
332.35	5.12
332.563	-3.07
332.776	27.65
332.989	29.7
333.202	68.61
333.414	-1.02
333.627	48.13
333.84	66.56
334.053	37.89
334.265	95.23
334.478	23.55
334.691	-3.07
334.903	66.56
335.116	54.27
335.329	41.98
335.541	33.79
335.754	93.18
335.966	-5.12
336.179	203.77
336.392	-46.08
336.604	37.89
336.817	70.65
337.029	72.7
337.242	21.5
337.454	19.46
337.667	-3.07
337.88	50.18
338.092	97.28
338.305	-19.46
338.517	35.84
338.729	46.08
338.942	74.75
339.154	27.65
339.367	27.65
339.579	80.89
339.792	9.22
340.004	91.13
340.217	60.42
340.429	78.85
340.641	35.84
340.854	17.41
341.066	21.5
341.278	58.37
341.491	64.51
341.703	97.28
341.915	11.26
342.128	50.18
342.34	74.75
342.552	33.79
342.764	-7.17
342.977	74.75
343.189	56.32
343.401	97.28
343.613	-3.07
343.826	107.52
344.038	19.46
344.25	19.46
344.462	25.6
344.674	76.8
344.886	64.51
345.099	48.13
345.311	52.22
345.523	-27.65
345.735	-56.32
345.947	54.27
346.159	60.42
346.371	25.6
346.583	35.84
346.795	144.38
347.007	39.94
347.219	95.23
347.431	54.27
347.643	68.61
347.855	27.65
348.067	91.13
348.279	-9.22
348.491	-25.6
348.703	91.13
348.915	64.51
349.127	7.17
349.339	56.32
349.551	52.22
349.763	5.12
349.975	33.79
350.187	68.61
350.399	25.6
350.61	52.22
350.822	37.89
351.034	99.33
351.246	68.61
351.458	-15.36
351.669	82.94
351.881	44.03
352.093	41.98
352.305	70.65
352.517	17.41
352.728	74.75
352.94	58.37
353.152	23.55
353.363	37.89
353.575	1.02
353.787	80.89
353.999	1.02
354.21	109.57
354.422	140.29
354.633	76.8
354.845	46.08
355.057	82.94
355.268	50.18
355.48	19.46
355.692	23.55
355.903	68.61
356.115	44.03
356.326	9.22
356.538	82.94
356.749	44.03
356.961	119.81
357.172	39.94
357.384	37.89
357.595	48.13
357.807	3.07
358.018	70.65
358.23	58.37
358.441	46.08
358.653	68.61
358.864	39.94
359.075	46.08
359.287	33.79
359.498	27.65
359.709	144.38
359.921	25.6
360.132	-11.26
360.344	33.79
360.555	72.7
360.766	-11.26
360.977	33.79
361.189	-3.07
361.4	58.37
361.611	68.61
361.823	41.98
362.034	76.8
362.245	39.94
362.456	35.84
362.667	78.85
362.879	68.61
363.09	31.74
363.301	23.55
363.512	25.6
363.723	91.13
363.935	17.41
364.146	25.6
364.357	97.28
364.568	-11.26
364.779	-39.94
364.99	74.75
365.201	-11.26
365.412	117.76
365.623	33.79
365.834	76.8
366.045	72.7
366.256	97.28
366.467	50.18
366.678	9.22
366.889	111.61
367.1	-35.84
367.311	46.08
367.522	52.22
367.733	146.43
367.944	87.04
368.155	29.7
368.366	66.56
368.577	46.08
368.788	19.46
368.999	97.28
369.209	62.46
369.42	78.85
369.631	105.47
369.842	5.12
370.053	58.37
370.264	31.74
370.474	-50.18
370.685	25.6
370.896	3.07
371.107	70.65
371.317	5.12
371.528	1.02
371.739	1.02
371.95	60.42
372.16	50.18
372.371	-1.02
372.582	31.74
372.792	74.75
373.003	76.8
373.214	41.98
373.424	25.6
373.635	44.03
373.846	105.47
374.056	-25.6
374.267	21.5
374.477	91.13
374.688	5.12
374.898	84.99
375.109	25.6
375.319	46.08
375.53	29.7
375.74	60.42
375.951	109.57
376.161	19.46
376.372	46.08
376.582	-50.18
376.793	5.12
377.003	17.41
377.214	60.42
377.424	62.46
377.635	27.65
377.845	27.65
378.055	52.22
378.266	29.7
378.476	-11.26
378.686	37.89
378.897	72.7
379.107	31.74
379.317	46.08
379.528	62.46
379.738	13.31
379.948	91.13
380.158	82.94
380.369	35.84
380.579	87.04
380.789	41.98
380.999	33.79
381.21	70.65
381.42	87.04
381.63	-37.89
381.84	80.89
382.05	19.46
382.261	54.27
382.471	93.18
382.681	48.13
382.891	119.81
383.101	-21.5
383.311	89.09
383.521	25.6
383.731	50.18
383.941	37.89
384.151	99.33
384.361	80.89
384.571	54.27
384.781	64.51
384.991	99.33
385.201	82.94
385.411	68.61
385.621	54.27
385.831	17.41
386.041	15.36
386.251	132.09
386.461	56.32
386.671	117.76
386.881	-9.22
387.091	23.55
387.301	62.46
387.511	-11.26
387.72	58.37
387.93	93.18
388.14	23.55
388.35	50.18
388.56	125.95
388.769	107.52
388.979	54.27
389.189	101.37
389.399	87.04
389.609	54.27
389.818	31.74
390.028	78.85
390.238	78.85
390.447	60.42
390.657	62.46
390.867	56.32
391.076	-11.26
391.286	58.37
391.496	119.81
391.705	15.36
391.915	91.13
392.125	125.95
392.334	35.84
392.544	19.46
392.753	19.46
392.963	68.61
393.172	29.7
393.382	66.56
393.591	-7.17
393.801	-5.12
394.01	50.18
394.22	46.08
394.429	70.65
394.639	48.13
394.848	80.89
395.058	80.89
395.267	101.37
395.477	132.09
395.686	87.04
395.895	84.99
396.105	52.22
396.314	113.66
396.524	44.03
396.733	89.09
396.942	140.29
397.152	87.04
397.361	74.75
397.57	66.56
397.78	1.02
397.989	82.94
398.198	72.7
398.407	54.27
398.617	99.33
398.826	19.46
399.035	68.61
399.244	84.99
399.453	21.5
399.663	97.28
399.872	156.67
400.081	37.89
400.29	111.61
400.499	107.52
400.708	46.08
400.917	97.28
401.127	54.27
401.336	27.65
401.545	228.35
401.754	68.61
401.963	52.22
402.172	142.33
402.381	95.23
402.59	152.57
402.799	113.66
403.008	78.85
403.217	150.53
403.426	138.24
403.635	136.19
403.844	119.81
404.053	64.51
404.262	95.23
404.471	130.05
404.68	171.01
404.888	105.47
405.097	109.57
405.306	119.81
405.515	177.15
405.724	154.62
405.933	132.09
406.142	140.29
406.35	119.81
406.559	123.9
406.768	128
406.977	142.33
407.185	181.25
407.394	109.57
407.603	166.91
407.812	138.24
408.02	175.1
408.229	121.85
408.438	136.19
408.646	105.47
408.855	154.62
409.064	224.25
409.272	183.29
409.481	234.49
409.69	168.96
409.898	195.58
410.107	269.31
410.315	214.01
410.524	261.12
410.733	214.01
410.941	209.92
411.15	336.89
411.358	209.92
411.567	328.7
411.775	242.68
411.984	363.51
412.192	308.22
412.401	357.37
412.609	386.04
412.818	291.84
413.026	377.85
413.234	388.09
413.443	394.23
413.651	379.9
413.86	431.1
414.068	539.64
414.276	435.19
414.485	447.48
414.693	476.15
414.901	445.43
415.11	549.88
415.318	402.43
415.526	517.11
415.734	568.31
415.943	629.75
416.151	660.47
416.359	531.45
416.567	623.61
416.776	615.41
416.984	664.57
417.192	723.96
417.4	758.77
417.608	705.53
417.817	678.9
418.025	683
418.233	898.03
418.441	812.02
418.649	844.79
418.857	930.8
419.065	926.71
419.273	938.99
419.481	928.75
419.689	1010.67
419.897	1033.2
420.105	1121.26
420.313	1070.06
420.521	1231.85
420.729	1207.28
420.937	1231.85
421.145	1186.8
421.353	1242.09
421.561	1350.64
421.769	1377.26
421.977	1467.37
422.185	1428.46
422.393	1555.43
422.601	1586.15
422.809	1602.54
423.017	1573.86
423.224	1590.25
423.432	1754.09
423.64	1745.89
423.848	1965.03
424.056	1887.2
424.263	1960.93
424.471	2020.32
424.679	2067.42
424.887	2094.05
425.094	2188.25
425.302	2149.34
425.51	2249.69
425.718	2317.28
425.925	2319.32
426.133	2481.11
426.341	2554.84
426.548	2767.83
426.756	2630.62
426.964	2831.32
427.171	2814.93
427.379	2948.05
427.586	3013.59
427.794	3044.31
428.001	3281.87
428.209	3298.25
428.417	3292.11
428.624	3470.28
428.832	3578.83
429.039	3595.21
429.247	3613.64
429.454	3916.74
429.662	4105.15
429.869	3945.41
430.076	4172.74
430.284	4019.14
430.491	4205.5
430.699	4436.92
430.906	4463.55
431.114	4506.56
431.321	4613.05
431.528	4848.57
431.736	5020.6
431.943	5241.78
432.15	5202.86
432.358	5299.12
432.565	5606.31
432.772	5442.48
432.979	5786.54
433.187	5835.69
433.394	5753.77
433.601	6294.43
433.808	6206.37
434.016	6146.98
434.223	6396.83
434.43	6937.49
434.637	6720.41
434.844	7160.72
435.052	7400.34
435.259	7334.8
435.466	7605.13
435.673	7304.08
435.88	7949.19
436.087	8149.89
436.294	8098.69
436.501	7951.24
436.708	8190.85
436.915	8422.27
437.122	8739.71
437.329	8876.92
437.537	8907.64
437.743	9194.36
437.95	9055.09
438.157	9558.89
438.364	9927.53
438.571	9905
438.778	9915.24
438.985	10898.27
439.192	10564.45
439.399	10922.84
439.606	10693.47
439.813	11209.56
440.02	11973.45
440.227	11651.92
440.433	11357.01
440.64	11787.08
440.847	11723.6
441.054	12127.05
441.261	12954.43
441.467	12800.83
441.674	13116.22
441.881	13683.5
442.088	13566.77
442.294	13275.96
442.501	13642.54
442.708	13916.97
442.914	14621.47
443.121	15151.9
443.328	14773.02
443.534	15778.58
443.741	15153.94
443.948	15110.94
444.154	16149.26
444.361	16032.52
444.568	16360.2
444.774	16239.37
444.981	16296.71
445.187	16904.96
445.394	17558.26
445.6	17439.48
445.807	19106.52
446.013	18471.65
446.22	18567.91
446.426	19485.4
446.633	19477.21
446.839	20265.67
447.046	19466.97
447.252	20533.96
447.459	20636.36
447.665	20325.07
447.871	21082.81
448.078	22254.25
448.284	21181.12
448.491	21658.29
448.697	22784.68
448.903	22909.6
449.11	23046.82
449.316	22547.11
449.522	22985.38
449.728	23616.15
449.935	24179.34
450.141	23751.32
450.347	24457.87
450.553	23714.45
450.76	24089.23
450.966	24631.94
451.172	24375.95
451.378	25096.83
451.584	24691.34
451.791	25447.04
451.997	25254.53
452.203	25627.26
452.409	25793.14
452.615	25729.66
452.821	24656.52
453.027	24394.38
453.233	25475.71
453.44	24480.39
453.646	25156.22
453.852	25084.55
454.058	25666.17
454.264	24334.99
454.47	25217.66
454.676	24939.14
454.882	25356.93
455.088	23138.97
455.294	23833.24
455.5	24046.23
455.705	24373.9
455.911	23169.69
456.117	22852.26
456.323	22659.75
456.529	21519.03
456.735	22459.05
456.941	21672.63
457.147	21064.38
457.352	20865.73
457.558	20570.82
457.764	20511.43
457.97	20230.86
458.176	19634.9
458.381	19661.52
458.587	18936.54
458.793	19061.47
458.999	17844.98
459.204	18995.93
459.41	18637.54
459.616	17412.85
459.821	17609.46
460.027	17214.2
460.233	16874.24
460.438	16114.44
460.644	16136.97
460.85	15667.98
461.055	15196.95
461.261	15395.61
461.466	14289.7
461.672	13724.46
461.878	14877.47
462.083	13497.14
462.289	13687.6
462.494	13366.07
462.7	12782.4
462.905	12743.49
463.111	12925.75
463.316	12917.56
463.522	12577.6
463.727	12448.58
463.932	12460.87
464.138	12315.46
464.343	12350.28
464.549	12305.22
464.754	12381
464.959	12471.11
465.165	12266.31
465.37	11678.54
465.575	11416.4
465.781	12086.09
465.986	12010.31
466.191	11705.17
466.397	11557.71
466.602	10849.11
466.807	11150.17
467.012	11340.63
467.218	11123.54
467.423	11152.21
467.628	11129.69
467.833	11543.38
468.038	11066.2
468.244	10785.63
468.449	11076.44
