Data from USB4F104151__33__11-51-39-108.txt Node

Date: Fri Mar 14 11:51:39 EDT 2025
User: louis
Spectrometer: USB4F10415
Trigger mode: 4
Integration Time (sec): 2.000000E-2
Scans to average: 1
Electric dark correction enabled: true
Nonlinearity correction enabled: false
Boxcar width: 0
XAxis mode: Wavelengths
Number of Pixels in Spectrum: 3648
>>>>>Begin Spectral Data<<<<<
178.204	-110.25
178.424	-110.25
178.644	-110.25
178.864	-61.1
179.084	-24.23
179.304	8.53
179.524	-20.14
179.744	35.16
179.964	20.82
180.184	18.77
180.404	-13.99
180.624	-22.19
180.844	22.87
181.064	-13.99
181.283	43.35
181.503	-97.96
181.723	18.77
181.943	2.39
182.163	2.39
182.383	6.49
182.602	102.74
182.822	4.44
183.042	51.54
183.262	-3.75
183.482	22.87
183.701	-24.23
183.921	20.82
184.141	-36.52
184.361	-28.33
184.58	18.77
184.8	20.82
185.02	-5.8
185.239	-7.85
185.459	65.88
185.679	35.16
185.898	-28.33
186.118	45.4
186.338	14.68
186.557	65.88
186.777	2.39
186.997	-22.19
187.216	12.63
187.436	55.64
187.655	4.44
187.875	18.77
188.095	37.2
188.314	63.83
188.534	-9.9
188.753	69.97
188.973	-3.75
189.192	39.25
189.412	98.64
189.631	26.96
189.851	76.12
190.07	14.68
190.29	-50.86
190.509	-28.33
190.729	24.92
190.948	104.79
191.168	96.6
191.387	84.31
191.607	-36.52
191.826	4.44
192.045	-59.05
192.265	37.2
192.484	-18.09
192.704	59.73
192.923	-1.71
193.142	67.92
193.362	24.92
193.581	92.5
193.8	16.73
194.02	24.92
194.239	20.82
194.458	29.01
194.678	35.16
194.897	-3.75
195.116	72.02
195.335	57.68
195.555	37.2
195.774	-1.71
195.993	84.31
196.212	-28.33
196.432	22.87
196.651	76.12
196.87	53.59
197.089	41.3
197.308	-26.28
197.528	47.44
197.747	-13.99
197.966	53.59
198.185	43.35
198.404	37.2
198.623	59.73
198.842	-36.52
199.062	67.92
199.281	39.25
199.5	55.64
199.719	2.39
199.938	33.11
200.157	35.16
200.376	6.49
200.595	59.73
200.814	-16.04
201.033	-50.86
201.252	41.3
201.471	20.82
201.69	41.3
201.909	-1.71
202.128	53.59
202.347	53.59
202.566	14.68
202.785	63.83
203.004	22.87
203.223	-3.75
203.442	-34.47
203.661	-13.99
203.879	51.54
204.098	137.56
204.317	8.53
204.536	37.2
204.755	16.73
204.974	31.06
205.193	8.53
205.411	104.79
205.63	29.01
205.849	8.53
206.068	-22.19
206.287	49.49
206.505	35.16
206.724	2.39
206.943	-5.8
207.162	2.39
207.381	2.39
207.599	-54.95
207.818	-5.8
208.037	-18.09
208.255	47.44
208.474	39.25
208.693	55.64
208.911	-24.23
209.13	24.92
209.349	6.49
209.567	-3.75
209.786	121.17
210.005	63.83
210.223	-3.75
210.442	-52.91
210.661	43.35
210.879	80.21
211.098	-38.57
211.316	26.96
211.535	100.69
211.753	6.49
211.972	20.82
212.191	-50.86
212.409	16.73
212.628	35.16
212.846	20.82
213.065	43.35
213.283	94.55
213.502	8.53
213.72	6.49
213.938	33.11
214.157	45.4
214.375	55.64
214.594	8.53
214.812	43.35
215.031	-61.1
215.249	31.06
215.467	39.25
215.686	18.77
215.904	88.4
216.122	65.88
216.341	-5.8
216.559	-26.28
216.778	61.78
216.996	-5.8
217.214	24.92
217.432	-16.04
217.651	-22.19
217.869	0.34
218.087	4.44
218.306	33.11
218.524	86.36
218.742	61.78
218.96	61.78
219.179	-24.23
219.397	2.39
219.615	53.59
219.833	43.35
220.051	-20.14
220.27	35.16
220.488	0.34
220.706	18.77
220.924	-9.9
221.142	-1.71
221.36	65.88
221.578	80.21
221.796	-28.33
222.015	16.73
222.233	69.97
222.451	-5.8
222.669	-5.8
222.887	43.35
223.105	-3.75
223.323	29.01
223.541	-44.71
223.759	31.06
223.977	-3.75
224.195	41.3
224.413	8.53
224.631	-1.71
224.849	43.35
225.067	20.82
225.285	59.73
225.503	33.11
225.721	-28.33
225.939	35.16
226.157	-11.95
226.375	92.5
226.592	12.63
226.81	45.4
227.028	37.2
227.246	96.6
227.464	-1.71
227.682	53.59
227.9	-9.9
228.117	39.25
228.335	43.35
228.553	43.35
228.771	29.01
228.989	10.58
229.206	18.77
229.424	10.58
229.642	39.25
229.86	-46.76
230.077	35.16
230.295	10.58
230.513	12.63
230.731	86.36
230.948	14.68
231.166	-34.47
231.384	33.11
231.601	4.44
231.819	51.54
232.037	43.35
232.254	-5.8
232.472	2.39
232.689	-81.58
232.907	12.63
233.125	16.73
233.342	-9.9
233.56	-24.23
233.777	76.12
233.995	35.16
234.213	37.2
234.43	43.35
234.648	39.25
234.865	31.06
235.083	49.49
235.3	4.44
235.518	51.54
235.735	108.88
235.953	-40.62
236.17	74.07
236.388	24.92
236.605	39.25
236.822	16.73
237.04	43.35
237.257	18.77
237.475	39.25
237.692	43.35
237.909	24.92
238.127	-46.76
238.344	16.73
238.562	22.87
238.779	61.78
238.996	-57
239.214	-46.76
239.431	35.16
239.648	55.64
239.865	74.07
240.083	39.25
240.3	6.49
240.517	76.12
240.735	51.54
240.952	51.54
241.169	57.68
241.386	33.11
241.603	39.25
241.821	-16.04
242.038	4.44
242.255	88.4
242.472	51.54
242.689	82.26
242.907	57.68
243.124	-30.38
243.341	35.16
243.558	18.77
243.775	78.16
243.992	-7.85
244.209	-13.99
244.426	45.4
244.643	4.44
244.86	-20.14
245.078	45.4
245.295	41.3
245.512	-38.57
245.729	55.64
245.946	43.35
246.163	16.73
246.38	49.49
246.597	-1.71
246.814	-1.71
247.031	94.55
247.248	65.88
247.464	-5.8
247.681	16.73
247.898	29.01
248.115	69.97
248.332	53.59
248.549	57.68
248.766	65.88
248.983	61.78
249.2	43.35
249.417	59.73
249.633	22.87
249.85	-1.71
250.067	20.82
250.284	10.58
250.501	2.39
250.717	24.92
250.934	-7.85
251.151	16.73
251.368	47.44
251.585	63.83
251.801	0.34
252.018	18.77
252.235	-3.75
252.451	16.73
252.668	10.58
252.885	57.68
253.102	-22.19
253.318	-13.99
253.535	14.68
253.752	26.96
253.968	10.58
254.185	65.88
254.401	6.49
254.618	47.44
254.835	51.54
255.051	84.31
255.268	24.92
255.484	67.92
255.701	24.92
255.917	47.44
256.134	6.49
256.351	59.73
256.567	37.2
256.784	39.25
257	-16.04
257.217	69.97
257.433	39.25
257.65	18.77
257.866	47.44
258.082	35.16
258.299	-54.95
258.515	47.44
258.732	-28.33
258.948	31.06
259.165	31.06
259.381	33.11
259.597	20.82
259.814	-5.8
260.03	-1.71
260.246	37.2
260.463	55.64
260.679	84.31
260.895	12.63
261.112	-11.95
261.328	80.21
261.544	-44.71
261.761	76.12
261.977	108.88
262.193	39.25
262.409	80.21
262.626	37.2
262.842	80.21
263.058	-11.95
263.274	-13.99
263.49	94.55
263.707	61.78
263.923	-38.57
264.139	-9.9
264.355	-16.04
264.571	84.31
264.787	63.83
265.004	76.12
265.22	14.68
265.436	74.07
265.652	41.3
265.868	65.88
266.084	-3.75
266.3	43.35
266.516	-26.28
266.732	31.06
266.948	18.77
267.164	39.25
267.38	24.92
267.596	74.07
267.812	-22.19
268.028	59.73
268.244	49.49
268.46	-34.47
268.676	35.16
268.892	92.5
269.108	-34.47
269.324	-32.43
269.54	12.63
269.756	55.64
269.972	-18.09
270.188	12.63
270.403	22.87
270.619	6.49
270.835	2.39
271.051	63.83
271.267	-16.04
271.483	39.25
271.698	59.73
271.914	59.73
272.13	35.16
272.346	0.34
272.562	10.58
272.777	8.53
272.993	-11.95
273.209	31.06
273.425	-1.71
273.64	-22.19
273.856	47.44
274.072	33.11
274.287	78.16
274.503	6.49
274.719	43.35
274.934	22.87
275.15	-30.38
275.366	67.92
275.581	-22.19
275.797	-3.75
276.012	55.64
276.228	-18.09
276.444	65.88
276.659	-11.95
276.875	57.68
277.09	41.3
277.306	63.83
277.521	84.31
277.737	-22.19
277.952	-26.28
278.168	-7.85
278.383	6.49
278.599	74.07
278.814	22.87
279.03	2.39
279.245	59.73
279.461	45.4
279.676	6.49
279.892	12.63
280.107	59.73
280.322	-32.43
280.538	37.2
280.753	67.92
280.969	35.16
281.184	8.53
281.399	24.92
281.615	51.54
281.83	29.01
282.045	26.96
282.26	80.21
282.476	39.25
282.691	29.01
282.906	4.44
283.122	35.16
283.337	94.55
283.552	41.3
283.767	-71.34
283.983	45.4
284.198	8.53
284.413	53.59
284.628	14.68
284.843	33.11
285.058	6.49
285.274	29.01
285.489	29.01
285.704	29.01
285.919	4.44
286.134	14.68
286.349	22.87
286.564	47.44
286.779	20.82
286.995	82.26
287.21	18.77
287.425	-30.38
287.64	37.2
287.855	37.2
288.07	6.49
288.285	82.26
288.5	43.35
288.715	41.3
288.93	57.68
289.145	-32.43
289.36	82.26
289.575	55.64
289.79	37.2
290.004	-22.19
290.219	12.63
290.434	59.73
290.649	22.87
290.864	102.74
291.079	63.83
291.294	65.88
291.509	6.49
291.724	-18.09
291.938	96.6
292.153	41.3
292.368	-44.71
292.583	57.68
292.798	45.4
293.012	4.44
293.227	-30.38
293.442	33.11
293.657	86.36
293.871	47.44
294.086	41.3
294.301	121.17
294.516	82.26
294.73	45.4
294.945	-20.14
295.16	31.06
295.374	10.58
295.589	-5.8
295.804	78.16
296.018	31.06
296.233	47.44
296.447	16.73
296.662	0.34
296.877	98.64
297.091	-9.9
297.306	112.98
297.52	31.06
297.735	115.03
297.949	37.2
298.164	65.88
298.378	-11.95
298.593	-7.85
298.807	35.16
299.022	14.68
299.236	33.11
299.451	10.58
299.665	6.49
299.88	-3.75
300.094	-13.99
300.309	4.44
300.523	61.78
300.737	-24.23
300.952	-11.95
301.166	47.44
301.381	12.63
301.595	-28.33
301.809	115.03
302.024	8.53
302.238	92.5
302.452	4.44
302.667	47.44
302.881	69.97
303.095	117.08
303.309	72.02
303.524	-50.86
303.738	-7.85
303.952	-13.99
304.166	67.92
304.381	-71.34
304.595	74.07
304.809	24.92
305.023	63.83
305.237	10.58
305.452	-61.1
305.666	29.01
305.88	0.34
306.094	53.59
306.308	45.4
306.522	33.11
306.736	84.31
306.95	26.96
307.164	12.63
307.379	14.68
307.593	29.01
307.807	84.31
308.021	51.54
308.235	-9.9
308.449	45.4
308.663	-5.8
308.877	90.45
309.091	-9.9
309.305	63.83
309.519	47.44
309.733	8.53
309.947	-36.52
310.161	98.64
310.374	24.92
310.588	86.36
310.802	26.96
311.016	59.73
311.23	-5.8
311.444	24.92
311.658	20.82
311.872	-32.43
312.085	-22.19
312.299	96.6
312.513	24.92
312.727	112.98
312.941	29.01
313.154	41.3
313.368	33.11
313.582	0.34
313.796	74.07
314.009	-42.67
314.223	55.64
314.437	35.16
314.651	8.53
314.864	8.53
315.078	33.11
315.292	14.68
315.505	-5.8
315.719	43.35
315.933	-9.9
316.146	72.02
316.36	41.3
316.573	43.35
316.787	41.3
317.001	51.54
317.214	-34.47
317.428	-22.19
317.641	16.73
317.855	53.59
318.068	76.12
318.282	10.58
318.495	24.92
318.709	16.73
318.922	59.73
319.136	37.2
319.349	10.58
319.563	49.49
319.776	-1.71
319.99	-30.38
320.203	24.92
320.417	-38.57
320.63	80.21
320.843	92.5
321.057	6.49
321.27	96.6
321.483	20.82
321.697	53.59
321.91	-16.04
322.124	-5.8
322.337	-18.09
322.55	18.77
322.763	72.02
322.977	14.68
323.19	8.53
323.403	-7.85
323.617	-54.95
323.83	47.44
324.043	22.87
324.256	-11.95
324.469	0.34
324.683	31.06
324.896	82.26
325.109	57.68
325.322	14.68
325.535	-44.71
325.748	33.11
325.962	47.44
326.175	20.82
326.388	59.73
326.601	26.96
326.814	45.4
327.027	26.96
327.24	29.01
327.453	-5.8
327.666	61.78
327.879	72.02
328.092	33.11
328.305	22.87
328.518	-20.14
328.731	2.39
328.944	6.49
329.157	51.54
329.37	78.16
329.583	20.82
329.796	96.6
330.009	2.39
330.222	29.01
330.435	47.44
330.648	117.08
330.861	47.44
331.073	-11.95
331.286	100.69
331.499	-13.99
331.712	6.49
331.925	80.21
332.138	78.16
332.35	47.44
332.563	22.87
332.776	16.73
332.989	-24.23
333.202	26.96
333.414	-48.81
333.627	49.49
333.84	12.63
334.053	47.44
334.265	-11.95
334.478	-30.38
334.691	37.2
334.903	74.07
335.116	-1.71
335.329	33.11
335.541	29.01
335.754	100.69
335.966	-5.8
336.179	12.63
336.392	67.92
336.604	72.02
336.817	55.64
337.029	53.59
337.242	41.3
337.454	67.92
337.667	86.36
337.88	74.07
338.092	8.53
338.305	72.02
338.517	-26.28
338.729	47.44
338.942	98.64
339.154	37.2
339.367	43.35
339.579	57.68
339.792	47.44
340.004	35.16
340.217	18.77
340.429	135.51
340.641	10.58
340.854	18.77
341.066	-36.52
341.278	121.17
341.491	72.02
341.703	24.92
341.915	4.44
342.128	24.92
342.34	61.78
342.552	57.68
342.764	67.92
342.977	18.77
343.189	10.58
343.401	67.92
343.613	-57
343.826	65.88
344.038	18.77
344.25	29.01
344.462	-28.33
344.674	14.68
344.886	26.96
345.099	76.12
345.311	26.96
345.523	-46.76
345.735	-9.9
345.947	76.12
346.159	67.92
346.371	18.77
346.583	63.83
346.795	65.88
347.007	69.97
347.219	39.25
347.431	84.31
347.643	4.44
347.855	92.5
348.067	96.6
348.279	-71.34
348.491	2.39
348.703	10.58
348.915	80.21
349.127	22.87
349.339	6.49
349.551	31.06
349.763	78.16
349.975	10.58
350.187	35.16
350.399	8.53
350.61	76.12
350.822	-30.38
351.034	29.01
351.246	41.3
351.458	84.31
351.669	-3.75
351.881	133.46
352.093	63.83
352.305	65.88
352.517	-30.38
352.728	33.11
352.94	35.16
353.152	4.44
353.363	-40.62
353.575	45.4
353.787	33.11
353.999	59.73
354.21	74.07
354.422	-9.9
354.633	106.84
354.845	72.02
355.057	45.4
355.268	4.44
355.48	-13.99
355.692	31.06
355.903	-7.85
356.115	45.4
356.326	-20.14
356.538	53.59
356.749	33.11
356.961	14.68
357.172	51.54
357.384	6.49
357.595	102.74
357.807	-3.75
358.018	26.96
358.23	2.39
358.441	96.6
358.653	121.17
358.864	31.06
359.075	22.87
359.287	86.36
359.498	86.36
359.709	39.25
359.921	53.59
360.132	35.16
360.344	14.68
360.555	80.21
360.766	92.5
360.977	100.69
361.189	76.12
361.4	39.25
361.611	92.5
361.823	96.6
362.034	31.06
362.245	45.4
362.456	57.68
362.667	47.44
362.879	67.92
363.09	69.97
363.301	8.53
363.512	49.49
363.723	84.31
363.935	-13.99
364.146	20.82
364.357	-1.71
364.568	57.68
364.779	31.06
364.99	98.64
365.201	10.58
365.412	51.54
365.623	-22.19
365.834	80.21
366.045	39.25
366.256	125.27
366.467	29.01
366.678	31.06
366.889	31.06
367.1	12.63
367.311	76.12
367.522	43.35
367.733	12.63
367.944	110.93
368.155	0.34
368.366	43.35
368.577	123.22
368.788	53.59
368.999	-28.33
369.209	49.49
369.42	67.92
369.631	14.68
369.842	37.2
370.053	4.44
370.264	-1.71
370.474	10.58
370.685	84.31
370.896	51.54
371.107	43.35
371.317	76.12
371.528	2.39
371.739	29.01
371.95	74.07
372.16	35.16
372.371	-38.57
372.582	133.46
372.792	96.6
373.003	6.49
373.214	86.36
373.424	78.16
373.635	18.77
373.846	47.44
374.056	14.68
374.267	6.49
374.477	6.49
374.688	12.63
374.898	45.4
375.109	45.4
375.319	84.31
375.53	82.26
375.74	76.12
375.951	12.63
376.161	6.49
376.372	55.64
376.582	31.06
376.793	18.77
377.003	22.87
377.214	55.64
377.424	57.68
377.635	96.6
377.845	-18.09
378.055	84.31
378.266	39.25
378.476	-1.71
378.686	49.49
378.897	37.2
379.107	41.3
379.317	29.01
379.528	37.2
379.738	72.02
379.948	6.49
380.158	94.55
380.369	20.82
380.579	-26.28
380.789	-18.09
380.999	131.41
381.21	76.12
381.42	82.26
381.63	178.51
381.84	82.26
382.05	106.84
382.261	41.3
382.471	20.82
382.681	41.3
382.891	78.16
383.101	57.68
383.311	53.59
383.521	96.6
383.731	24.92
383.941	115.03
384.151	47.44
384.361	31.06
384.571	31.06
384.781	-3.75
384.991	84.31
385.201	137.56
385.411	-5.8
385.621	-22.19
385.831	69.97
386.041	69.97
386.251	33.11
386.461	59.73
386.671	106.84
386.881	12.63
387.091	16.73
387.301	121.17
387.511	51.54
387.72	86.36
387.93	47.44
388.14	4.44
388.35	53.59
388.56	39.25
388.769	117.08
388.979	69.97
389.189	35.16
389.399	16.73
389.609	53.59
389.818	86.36
390.028	-26.28
390.238	45.4
390.447	63.83
390.657	94.55
390.867	49.49
391.076	67.92
391.286	106.84
391.496	35.16
391.705	55.64
391.915	82.26
392.125	104.79
392.334	112.98
392.544	96.6
392.753	41.3
392.963	41.3
393.172	43.35
393.382	10.58
393.591	102.74
393.801	72.02
394.01	174.42
394.22	59.73
394.429	84.31
394.639	55.64
394.848	65.88
395.058	172.37
395.267	78.16
395.477	117.08
395.686	80.21
395.895	102.74
396.105	217.43
396.314	115.03
396.524	45.4
396.733	155.99
396.942	61.78
397.152	55.64
397.361	61.78
397.57	106.84
397.78	155.99
397.989	63.83
398.198	117.08
398.407	110.93
398.617	72.02
398.826	102.74
399.035	86.36
399.244	51.54
399.453	153.94
399.663	72.02
399.872	162.13
400.081	121.17
400.29	133.46
400.499	45.4
400.708	59.73
400.917	104.79
401.127	112.98
401.336	49.49
401.545	112.98
401.754	115.03
401.963	110.93
402.172	100.69
402.381	94.55
402.59	90.45
402.799	112.98
403.008	100.69
403.217	176.47
403.426	217.43
403.635	106.84
403.844	133.46
404.053	129.36
404.262	112.98
404.471	139.6
404.68	149.84
404.888	131.41
405.097	115.03
405.306	151.89
405.515	170.32
405.724	186.71
405.933	131.41
406.142	139.6
406.35	158.03
406.559	170.32
406.768	164.18
406.977	268.63
407.185	217.43
407.394	203.09
407.603	196.95
407.812	293.2
408.02	248.15
408.229	180.56
408.438	248.15
408.646	237.91
408.855	231.76
409.064	280.91
409.272	252.24
409.481	293.2
409.69	270.67
409.898	289.1
410.107	379.22
410.315	381.26
410.524	272.72
410.733	440.65
410.941	313.68
411.15	469.33
411.358	424.27
411.567	405.84
411.775	395.6
411.984	430.41
412.192	495.95
412.401	420.17
412.609	469.33
412.818	508.24
413.026	561.48
413.234	520.53
413.443	549.2
413.651	545.1
413.86	620.88
414.068	737.61
414.276	622.92
414.485	604.49
414.693	696.65
414.901	758.09
415.11	764.23
415.318	739.66
415.526	706.89
415.734	799.05
415.943	772.43
416.151	895.3
416.359	778.57
416.567	868.68
416.776	911.69
416.984	932.17
417.192	997.7
417.4	1018.18
417.608	997.7
417.817	1067.33
418.025	1134.92
418.233	1204.55
418.441	1171.78
418.649	1200.45
418.857	1198.4
419.065	1343.81
419.273	1268.03
419.481	1343.81
419.689	1450.3
419.897	1548.61
420.105	1554.75
420.313	1573.18
420.521	1651
420.729	1751.35
420.937	1823.03
421.145	1829.18
421.353	1753.4
421.561	1999.16
421.769	2003.25
421.977	2144.56
422.185	1935.67
422.393	2216.24
422.601	2382.13
422.809	2318.64
423.017	2281.78
423.224	2486.58
423.432	2593.07
423.64	2390.32
423.848	2687.28
424.056	2736.43
424.263	2887.98
424.471	2963.75
424.679	3012.9
424.887	3133.73
425.094	3203.36
425.302	3289.38
425.51	3410.21
425.718	3572
425.925	3645.73
426.133	3629.34
426.341	3868.95
426.548	3963.16
426.756	4110.61
426.964	4151.57
427.171	4243.73
427.379	4501.78
427.586	4567.31
427.794	4655.37
428.001	4776.2
428.209	5148.93
428.417	4997.39
428.624	5470.47
428.832	5392.64
429.039	5265.67
429.247	5361.92
429.454	6000.89
429.662	6287.61
429.869	5880.06
430.076	6228.21
430.284	5970.17
430.491	6359.28
430.699	6650.1
430.906	6607.09
431.114	6668.53
431.321	7186.66
431.528	7055.59
431.736	7534.82
431.943	7991.52
432.15	7756
432.358	7817.44
432.565	8263.9
432.772	8280.28
432.979	8724.69
433.187	8913.1
433.394	8661.2
433.601	9398.47
433.808	9640.13
434.016	9343.17
434.223	9742.53
434.43	10252.47
434.637	10143.93
434.844	10600.63
435.052	10938.54
435.259	10940.59
435.466	11120.81
435.673	10895.54
435.88	11747.49
436.087	12318.87
436.294	12474.52
436.501	11940
436.708	12193.95
436.915	12896.4
437.122	13262.99
437.329	13113.49
437.537	13682.82
437.743	13883.52
437.95	13926.53
438.157	14524.54
438.364	14821.49
438.571	14983.28
438.778	14934.13
438.985	16545.88
439.192	15937.63
439.399	16392.28
439.606	15702.12
439.813	16625.75
440.02	17883.2
440.227	17668.17
440.433	17277.01
440.64	17911.88
440.847	18075.71
441.054	18360.38
441.261	19451.95
441.467	19404.85
441.674	19816.49
441.881	20379.68
442.088	20416.54
442.294	20168.74
442.501	20705.31
442.708	21119
442.914	21862.41
443.121	22841.34
443.328	22052.87
443.534	23887.85
443.741	22988.79
443.948	22714.36
444.154	24477.66
444.361	24020.97
444.568	24231.91
444.774	24399.84
444.981	24788.96
445.187	25763.79
445.394	26443.71
445.6	26197.96
445.807	28737.44
446.013	27455.41
446.22	28301.22
446.426	29339.54
446.633	29269.91
446.839	30431.11
447.046	29069.21
447.252	30930.81
447.459	30748.54
447.665	30807.94
447.871	32157.55
448.078	33607.51
448.284	32055.15
448.491	32591.72
448.697	33726.29
448.903	34717.51
449.11	34479.94
449.316	34090.83
449.522	34584.39
449.728	35704.63
449.935	35757.88
450.141	35948.34
450.347	36566.82
450.553	35608.37
450.76	36130.61
450.966	37168.93
451.172	36816.68
451.378	37570.33
451.584	36964.13
451.791	38049.55
451.997	37564.18
452.203	38203.15
452.409	38461.19
452.615	38100.75
452.821	36990.75
453.027	36753.19
453.233	38184.72
453.44	36988.7
453.646	37224.22
453.852	37461.79
454.058	37920.53
454.264	36888.35
454.47	37789.46
454.676	36851.49
454.882	37895.96
455.088	34934.59
455.294	35372.86
455.5	35704.63
455.705	36122.41
455.911	34420.55
456.117	33853.26
456.323	33507.16
456.529	31985.52
456.735	33240.92
456.941	32526.18
457.147	31764.34
457.352	31045.5
457.558	30871.42
457.764	30543.75
457.97	30154.63
458.176	29556.63
458.381	29734.8
458.587	27994.03
458.793	28047.27
458.999	26470.34
459.204	28491.68
459.41	27756.46
459.616	25907.15
459.821	25794.51
460.027	25753.55
460.233	25145.3
460.438	23975.91
460.644	24184.8
460.85	22956.02
461.055	22865.91
461.261	22822.91
461.466	20879.38
461.672	20328.48
461.878	21497.87
462.083	20213.79
462.289	19906.6
462.494	19707.94
462.7	19030.07
462.905	18593.85
463.111	19185.71
463.316	19193.9
463.522	18692.15
463.727	18798.65
463.932	18853.94
464.138	18487.36
464.343	18563.13
464.549	18133.06
464.754	18647.1
464.959	18479.16
465.165	18184.26
465.37	17688.65
465.575	16904.28
465.781	17791.05
465.986	17918.02
466.191	17289.29
466.397	16881.75
466.602	16109.66
466.807	16511.07
467.012	16789.59
467.218	16568.41
467.423	16232.54
467.628	16457.82
467.833	17000.53
468.038	16554.07
468.244	15956.07
