Data from USB4F104151__6__11-51-06-017.txt Node

Date: Fri Mar 14 11:51:06 EDT 2025
User: louis
Spectrometer: USB4F10415
Trigger mode: 4
Integration Time (sec): 2.000000E-2
Scans to average: 1
Electric dark correction enabled: true
Nonlinearity correction enabled: false
Boxcar width: 0
XAxis mode: Wavelengths
Number of Pixels in Spectrum: 3648
>>>>>Begin Spectral Data<<<<<
178.204	-101.89
178.424	-101.89
178.644	-101.89
178.864	-24.06
179.084	-81.41
179.304	-7.68
179.524	37.38
179.744	-30.21
179.964	33.28
180.184	37.38
180.404	-19.97
180.624	20.99
180.844	-32.26
181.064	14.85
181.283	37.38
181.503	-50.69
181.723	-40.45
181.943	-26.11
182.163	27.14
182.383	2.56
182.602	-32.26
182.822	-34.3
183.042	-52.74
183.262	-26.11
183.482	43.52
183.701	-11.78
183.921	-13.82
184.141	-15.87
184.361	25.09
184.58	33.28
184.8	-34.3
185.02	-97.79
185.239	12.8
185.459	-38.4
185.679	18.94
185.898	-5.63
186.118	-38.4
186.338	8.7
186.557	39.42
186.777	-26.11
186.997	4.61
187.216	-22.02
187.436	-17.92
187.655	-9.73
187.875	33.28
188.095	2.56
188.314	25.09
188.534	51.71
188.753	27.14
188.973	-11.78
189.192	-22.02
189.412	16.9
189.631	-7.68
189.851	-62.98
190.07	39.42
190.29	-28.16
190.509	68.09
190.729	0.51
190.948	-30.21
191.168	88.57
191.387	72.19
191.607	16.9
191.826	23.04
192.045	8.7
192.265	-22.02
192.484	39.42
192.704	47.62
192.923	-19.97
193.142	84.48
193.362	-30.21
193.581	31.23
193.8	10.75
194.02	64
194.239	20.99
194.458	35.33
194.678	12.8
194.897	-9.73
195.116	-7.68
195.335	-24.06
195.555	-30.21
195.774	14.85
195.993	-15.87
196.212	-7.68
196.432	-75.26
196.651	29.18
196.87	59.9
197.089	45.57
197.308	10.75
197.528	88.57
197.747	59.9
197.966	-7.68
198.185	113.15
198.404	41.47
198.623	8.7
198.842	12.8
199.062	23.04
199.281	-24.06
199.5	12.8
199.719	45.57
199.938	-28.16
200.157	-1.54
200.376	68.09
200.595	-112.13
200.814	-5.63
201.033	6.66
201.252	-5.63
201.471	-46.59
201.69	-36.35
201.909	-3.58
202.128	-5.63
202.347	-50.69
202.566	-58.88
202.785	27.14
203.004	10.75
203.223	100.86
203.442	23.04
203.661	-58.88
203.879	59.9
204.098	-67.07
204.317	-73.21
204.536	2.56
204.755	-26.11
204.974	-7.68
205.193	2.56
205.411	80.38
205.63	43.52
205.849	-69.12
206.068	23.04
206.287	-52.74
206.505	-50.69
206.724	-42.5
206.943	-65.02
207.162	-1.54
207.381	10.75
207.599	-5.63
207.818	-30.21
208.037	-54.78
208.255	55.81
208.474	-17.92
208.693	-38.4
208.911	82.43
209.13	12.8
209.349	-5.63
209.567	64
209.786	-22.02
210.005	45.57
210.223	4.61
210.442	-9.73
210.661	-34.3
210.879	-56.83
211.098	82.43
211.316	23.04
211.535	-46.59
211.753	-26.11
211.972	78.33
212.191	-69.12
212.409	8.7
212.628	0.51
212.846	55.81
213.065	-44.54
213.283	27.14
213.502	-38.4
213.72	-42.5
213.938	4.61
214.157	53.76
214.375	10.75
214.594	66.05
214.812	-26.11
215.031	4.61
215.249	10.75
215.467	-26.11
215.686	-79.36
215.904	-65.02
216.122	29.18
216.341	72.19
216.559	20.99
216.778	-28.16
216.996	51.71
217.214	-77.31
217.432	-81.41
217.651	-26.11
217.869	-30.21
218.087	-24.06
218.306	-3.58
218.524	82.43
218.742	-30.21
218.96	12.8
219.179	0.51
219.397	-62.98
219.615	12.8
219.833	37.38
220.051	49.66
220.27	29.18
220.488	-38.4
220.706	29.18
220.924	31.23
221.142	-46.59
221.36	23.04
221.578	-15.87
221.796	-58.88
222.015	-32.26
222.233	-15.87
222.451	25.09
222.669	20.99
222.887	33.28
223.105	-81.41
223.323	-32.26
223.541	-71.17
223.759	12.8
223.977	-3.58
224.195	76.29
224.413	27.14
224.631	-42.5
224.849	2.56
225.067	31.23
225.285	25.09
225.503	14.85
225.721	10.75
225.939	8.7
226.157	4.61
226.375	45.57
226.592	14.85
226.81	8.7
227.028	-50.69
227.246	4.61
227.464	-40.45
227.682	51.71
227.9	-9.73
228.117	-19.97
228.335	-60.93
228.553	-3.58
228.771	-24.06
228.989	78.33
229.206	0.51
229.424	76.29
229.642	-67.07
229.86	-34.3
230.077	-38.4
230.295	-13.82
230.513	-40.45
230.731	-48.64
230.948	33.28
231.166	12.8
231.384	-28.16
231.601	-5.63
231.819	10.75
232.037	23.04
232.254	-40.45
232.472	-1.54
232.689	-56.83
232.907	2.56
233.125	0.51
233.342	37.38
233.56	-7.68
233.777	-60.93
233.995	47.62
234.213	23.04
234.43	2.56
234.648	45.57
234.865	2.56
235.083	100.86
235.3	27.14
235.518	57.86
235.735	2.56
235.953	31.23
236.17	8.7
236.388	-36.35
236.605	-24.06
236.822	18.94
237.04	76.29
237.257	-1.54
237.475	-3.58
237.692	-38.4
237.909	29.18
238.127	-11.78
238.344	-67.07
238.562	29.18
238.779	10.75
238.996	8.7
239.214	-22.02
239.431	4.61
239.648	-9.73
239.865	74.24
240.083	-38.4
240.3	-46.59
240.517	29.18
240.735	25.09
240.952	-54.78
241.169	-30.21
241.386	-15.87
241.603	2.56
241.821	35.33
242.038	39.42
242.255	-9.73
242.472	-60.93
242.689	41.47
242.907	-54.78
243.124	-3.58
243.341	35.33
243.558	-26.11
243.775	23.04
243.992	18.94
244.209	70.14
244.426	23.04
244.643	-50.69
244.86	-3.58
245.078	10.75
245.295	59.9
245.512	59.9
245.729	31.23
245.946	-13.82
246.163	51.71
246.38	76.29
246.597	-26.11
246.814	16.9
247.031	-44.54
247.248	61.95
247.464	27.14
247.681	-1.54
247.898	-1.54
248.115	-13.82
248.332	-40.45
248.549	-11.78
248.766	23.04
248.983	18.94
249.2	-1.54
249.417	-26.11
249.633	-1.54
249.85	-9.73
250.067	12.8
250.284	45.57
250.501	-3.58
250.717	53.76
250.934	10.75
251.151	-13.82
251.368	-28.16
251.585	2.56
251.801	18.94
252.018	-30.21
252.235	47.62
252.451	-48.64
252.668	-87.55
252.885	12.8
253.102	-99.84
253.318	-40.45
253.535	-19.97
253.752	-36.35
253.968	51.71
254.185	12.8
254.401	10.75
254.618	-9.73
254.835	18.94
255.051	39.42
255.268	49.66
255.484	-73.21
255.701	-9.73
255.917	4.61
256.134	-19.97
256.351	-28.16
256.567	-48.64
256.784	-3.58
257	64
257.217	41.47
257.433	-17.92
257.65	78.33
257.866	47.62
258.082	-99.84
258.299	84.48
258.515	-17.92
258.732	12.8
258.948	16.9
259.165	43.52
259.381	8.7
259.597	4.61
259.814	39.42
260.03	-40.45
260.246	16.9
260.463	-9.73
260.679	31.23
260.895	16.9
261.112	-17.92
261.328	-34.3
261.544	47.62
261.761	37.38
261.977	-15.87
262.193	-11.78
262.409	-30.21
262.626	55.81
262.842	8.7
263.058	-17.92
263.274	53.76
263.49	2.56
263.707	10.75
263.923	-17.92
264.139	-11.78
264.355	33.28
264.571	-28.16
264.787	-11.78
265.004	16.9
265.22	49.66
265.436	-30.21
265.652	57.86
265.868	8.7
266.084	66.05
266.3	23.04
266.516	-42.5
266.732	59.9
266.948	-17.92
267.164	12.8
267.38	20.99
267.596	107.01
267.812	-1.54
268.028	-38.4
268.244	-52.74
268.46	14.85
268.676	35.33
268.892	18.94
269.108	-15.87
269.324	20.99
269.54	-9.73
269.756	18.94
269.972	-46.59
270.188	12.8
270.403	-36.35
270.619	-38.4
270.835	0.51
271.051	-19.97
271.267	-1.54
271.483	-3.58
271.698	-36.35
271.914	-7.68
272.13	-11.78
272.346	2.56
272.562	43.52
272.777	45.57
272.993	-40.45
273.209	45.57
273.425	-13.82
273.64	23.04
273.856	61.95
274.072	2.56
274.287	14.85
274.503	-11.78
274.719	10.75
274.934	-56.83
275.15	-1.54
275.366	14.85
275.581	0.51
275.797	41.47
276.012	-34.3
276.228	-34.3
276.444	-32.26
276.659	29.18
276.875	-42.5
277.09	-26.11
277.306	31.23
277.521	43.52
277.737	-36.35
277.952	61.95
278.168	12.8
278.383	78.33
278.599	23.04
278.814	20.99
279.03	-58.88
279.245	61.95
279.461	-17.92
279.676	39.42
279.892	-17.92
280.107	4.61
280.322	-7.68
280.538	39.42
280.753	-11.78
280.969	10.75
281.184	-1.54
281.399	20.99
281.615	-17.92
281.83	-5.63
282.045	-34.3
282.26	-34.3
282.476	6.66
282.691	76.29
282.906	68.09
283.122	-5.63
283.337	80.38
283.552	-34.3
283.767	2.56
283.983	-28.16
284.198	-32.26
284.413	-42.5
284.628	-22.02
284.843	-38.4
285.058	18.94
285.274	45.57
285.489	-81.41
285.704	33.28
285.919	-28.16
286.134	27.14
286.349	-77.31
286.564	-24.06
286.779	-11.78
286.995	8.7
287.21	16.9
287.425	-60.93
287.64	-42.5
287.855	-36.35
288.07	-30.21
288.285	31.23
288.5	53.76
288.715	8.7
288.93	-17.92
289.145	12.8
289.36	41.47
289.575	14.85
289.79	-13.82
290.004	37.38
290.219	68.09
290.434	43.52
290.649	12.8
290.864	-3.58
291.079	2.56
291.294	-30.21
291.509	-38.4
291.724	18.94
291.938	-99.84
292.153	-56.83
292.368	-30.21
292.583	6.66
292.798	37.38
293.012	-34.3
293.227	29.18
293.442	6.66
293.657	14.85
293.871	-85.5
294.086	-28.16
294.301	10.75
294.516	57.86
294.73	-34.3
294.945	35.33
295.16	-71.17
295.374	55.81
295.589	23.04
295.804	-126.46
296.018	20.99
296.233	39.42
296.447	57.86
296.662	0.51
296.877	39.42
297.091	20.99
297.306	2.56
297.52	35.33
297.735	-42.5
297.949	41.47
298.164	-30.21
298.378	16.9
298.593	-11.78
298.807	14.85
299.022	-56.83
299.236	39.42
299.451	80.38
299.665	10.75
299.88	-60.93
300.094	-11.78
300.309	20.99
300.523	-13.82
300.737	-30.21
300.952	-1.54
301.166	47.62
301.381	-30.21
301.595	-3.58
301.809	-62.98
302.024	37.38
302.238	-19.97
302.452	-19.97
302.667	-3.58
302.881	33.28
303.095	45.57
303.309	51.71
303.524	29.18
303.738	-28.16
303.952	18.94
304.166	-7.68
304.381	18.94
304.595	14.85
304.809	16.9
305.023	-3.58
305.237	-9.73
305.452	18.94
305.666	-1.54
305.88	27.14
306.094	72.19
306.308	43.52
306.522	25.09
306.736	35.33
306.95	57.86
307.164	51.71
307.379	6.66
307.593	53.76
307.807	90.62
308.021	-22.02
308.235	6.66
308.449	12.8
308.663	61.95
308.877	35.33
309.091	-79.36
309.305	20.99
309.519	-112.13
309.733	74.24
309.947	2.56
310.161	55.81
310.374	-24.06
310.588	31.23
310.802	-40.45
311.016	-5.63
311.23	-7.68
311.444	25.09
311.658	33.28
311.872	45.57
312.085	49.66
312.299	20.99
312.513	100.86
312.727	59.9
312.941	-67.07
313.154	29.18
313.368	-17.92
313.582	-17.92
313.796	27.14
314.009	16.9
314.223	-46.59
314.437	61.95
314.651	-69.12
314.864	-69.12
315.078	4.61
315.292	-69.12
315.505	2.56
315.719	-11.78
315.933	64
316.146	-3.58
316.36	-83.45
316.573	96.77
316.787	-15.87
317.001	6.66
317.214	35.33
317.428	29.18
317.641	-13.82
317.855	-24.06
318.068	-9.73
318.282	107.01
318.495	31.23
318.709	23.04
318.922	-69.12
319.136	27.14
319.349	0.51
319.563	27.14
319.776	-11.78
319.99	23.04
320.203	55.81
320.417	16.9
320.63	0.51
320.843	-52.74
321.057	31.23
321.27	29.18
321.483	-1.54
321.697	55.81
321.91	-38.4
322.124	-17.92
322.337	35.33
322.55	-136.7
322.763	-60.93
322.977	41.47
323.19	-13.82
323.403	-1.54
323.617	4.61
323.83	12.8
324.043	-40.45
324.256	-11.78
324.469	10.75
324.683	-38.4
324.896	-17.92
325.109	-44.54
325.322	-1.54
325.535	45.57
325.748	29.18
325.962	37.38
326.175	47.62
326.388	29.18
326.601	10.75
326.814	45.57
327.027	-19.97
327.24	45.57
327.453	25.09
327.666	-67.07
327.879	-19.97
328.092	12.8
328.305	35.33
328.518	-44.54
328.731	-83.45
328.944	68.09
329.157	-28.16
329.37	14.85
329.583	-52.74
329.796	35.33
330.009	-5.63
330.222	37.38
330.435	27.14
330.648	39.42
330.861	37.38
331.073	41.47
331.286	10.75
331.499	-28.16
331.712	-60.93
331.925	-17.92
332.138	25.09
332.35	41.47
332.563	55.81
332.776	61.95
332.989	-65.02
333.202	-11.78
333.414	80.38
333.627	-11.78
333.84	-7.68
334.053	23.04
334.265	-56.83
334.478	-7.68
334.691	20.99
334.903	31.23
335.116	43.52
335.329	-11.78
335.541	2.56
335.754	35.33
335.966	-7.68
336.179	12.8
336.392	74.24
336.604	-28.16
336.817	-26.11
337.029	-52.74
337.242	41.47
337.454	16.9
337.667	-101.89
337.88	55.81
338.092	2.56
338.305	55.81
338.517	-52.74
338.729	29.18
338.942	-58.88
339.154	47.62
339.367	-30.21
339.579	-1.54
339.792	-36.35
340.004	31.23
340.217	-3.58
340.429	25.09
340.641	-54.78
340.854	-58.88
341.066	-5.63
341.278	-9.73
341.491	61.95
341.703	-32.26
341.915	57.86
342.128	27.14
342.34	-46.59
342.552	-34.3
342.764	2.56
342.977	12.8
343.189	-62.98
343.401	43.52
343.613	-13.82
343.826	76.29
344.038	-1.54
344.25	-13.82
344.462	90.62
344.674	57.86
344.886	16.9
345.099	20.99
345.311	-24.06
345.523	33.28
345.735	51.71
345.947	70.14
346.159	-1.54
346.371	-40.45
346.583	-50.69
346.795	49.66
347.007	-52.74
347.219	0.51
347.431	2.56
347.643	39.42
347.855	43.52
348.067	-28.16
348.279	-36.35
348.491	37.38
348.703	80.38
348.915	18.94
349.127	47.62
349.339	14.85
349.551	-1.54
349.763	74.24
349.975	-71.17
350.187	43.52
350.399	31.23
350.61	74.24
350.822	-40.45
351.034	68.09
351.246	49.66
351.458	-17.92
351.669	31.23
351.881	66.05
352.093	25.09
352.305	20.99
352.517	-28.16
352.728	61.95
352.94	43.52
353.152	-3.58
353.363	2.56
353.575	-9.73
353.787	-28.16
353.999	12.8
354.21	74.24
354.422	37.38
354.633	18.94
354.845	-58.88
355.057	16.9
355.268	-5.63
355.48	41.47
355.692	-13.82
355.903	-79.36
356.115	68.09
356.326	-42.5
356.538	64
356.749	10.75
356.961	-13.82
357.172	-22.02
357.384	10.75
357.595	55.81
357.807	57.86
358.018	68.09
358.23	29.18
358.441	72.19
358.653	-1.54
358.864	-3.58
359.075	51.71
359.287	90.62
359.498	18.94
359.709	96.77
359.921	14.85
360.132	-38.4
360.344	80.38
360.555	-34.3
360.766	20.99
360.977	-30.21
361.189	-30.21
361.4	16.9
361.611	33.28
361.823	-11.78
362.034	66.05
362.245	0.51
362.456	76.29
362.667	6.66
362.879	33.28
363.09	57.86
363.301	-36.35
363.512	80.38
363.723	25.09
363.935	-42.5
364.146	20.99
364.357	-46.59
364.568	29.18
364.779	-42.5
364.99	16.9
365.201	-67.07
365.412	45.57
365.623	-36.35
365.834	-11.78
366.045	35.33
366.256	-40.45
366.467	0.51
366.678	-69.12
366.889	57.86
367.1	-28.16
367.311	14.85
367.522	16.9
367.733	43.52
367.944	-24.06
368.155	0.51
368.366	68.09
368.577	59.9
368.788	14.85
368.999	37.38
369.209	-36.35
369.42	64
369.631	53.76
369.842	-28.16
370.053	-28.16
370.264	-46.59
370.474	74.24
370.685	12.8
370.896	-15.87
371.107	27.14
371.317	35.33
371.528	41.47
371.739	-11.78
371.95	94.72
372.16	59.9
372.371	4.61
372.582	10.75
372.792	20.99
373.003	31.23
373.214	39.42
373.424	68.09
373.635	-54.78
373.846	49.66
374.056	27.14
374.267	64
374.477	-30.21
374.688	23.04
374.898	6.66
375.109	51.71
375.319	47.62
375.53	10.75
375.74	-22.02
375.951	45.57
376.161	31.23
376.372	31.23
376.582	27.14
376.793	-7.68
377.003	16.9
377.214	41.47
377.424	100.86
377.635	14.85
377.845	-34.3
378.055	2.56
378.266	12.8
378.476	25.09
378.686	8.7
378.897	4.61
379.107	-9.73
379.317	59.9
379.528	-58.88
379.738	37.38
379.948	-15.87
380.158	-7.68
380.369	109.05
380.579	12.8
380.789	-9.73
380.999	0.51
381.21	49.66
381.42	14.85
381.63	-9.73
381.84	-1.54
382.05	68.09
382.261	33.28
382.471	27.14
382.681	2.56
382.891	102.91
383.101	-1.54
383.311	-9.73
383.521	-26.11
383.731	61.95
383.941	-22.02
384.151	-5.63
384.361	10.75
384.571	41.47
384.781	43.52
384.991	33.28
385.201	31.23
385.411	-11.78
385.621	39.42
385.831	6.66
386.041	31.23
386.251	33.28
386.461	12.8
386.671	25.09
386.881	27.14
387.091	53.76
387.301	35.33
387.511	76.29
387.72	25.09
387.93	4.61
388.14	-9.73
388.35	-7.68
388.56	25.09
388.769	94.72
388.979	-19.97
389.189	35.33
389.399	68.09
389.609	29.18
389.818	53.76
390.028	-22.02
390.238	78.33
390.447	-28.16
390.657	-56.83
390.867	43.52
391.076	74.24
391.286	-17.92
391.496	39.42
391.705	-17.92
391.915	37.38
392.125	35.33
392.334	33.28
392.544	6.66
392.753	111.1
392.963	25.09
393.172	43.52
393.382	20.99
393.591	31.23
393.801	72.19
394.01	82.43
394.22	43.52
394.429	76.29
394.639	10.75
394.848	84.48
395.058	51.71
395.267	72.19
395.477	12.8
395.686	14.85
395.895	14.85
396.105	119.29
396.314	66.05
396.524	86.53
396.733	16.9
396.942	74.24
397.152	57.86
397.361	55.81
397.57	49.66
397.78	66.05
397.989	4.61
398.198	94.72
398.407	43.52
398.617	45.57
398.826	45.57
399.035	37.38
399.244	29.18
399.453	125.44
399.663	68.09
399.872	111.1
400.081	57.86
400.29	55.81
400.499	-3.58
400.708	135.68
400.917	61.95
401.127	72.19
401.336	68.09
401.545	84.48
401.754	74.24
401.963	115.2
402.172	37.38
402.381	102.91
402.59	104.96
402.799	125.44
403.008	147.97
403.217	57.86
403.426	154.11
403.635	88.57
403.844	94.72
404.053	121.34
404.262	80.38
404.471	154.11
404.68	162.3
404.888	82.43
405.097	43.52
405.306	147.97
405.515	90.62
405.724	158.21
405.933	113.15
406.142	98.81
406.35	137.73
406.559	88.57
406.768	98.81
406.977	225.79
407.185	117.25
407.394	150.01
407.603	145.92
407.812	190.97
408.02	213.5
408.229	281.08
408.438	150.01
408.646	158.21
408.855	162.3
409.064	150.01
409.272	145.92
409.481	244.22
409.69	207.36
409.898	258.56
410.107	287.23
410.315	324.09
410.524	281.08
410.733	330.23
410.941	254.46
411.15	295.42
411.358	295.42
411.567	391.67
411.775	371.19
411.984	272.89
412.192	309.76
412.401	309.76
412.609	369.15
412.818	393.72
413.026	375.29
413.234	418.3
413.443	397.82
413.651	492.02
413.86	463.35
414.068	438.78
414.276	545.27
414.485	522.74
414.693	584.18
414.901	608.76
415.11	573.94
415.318	631.29
415.526	614.9
415.734	633.33
415.943	633.33
416.151	762.36
416.359	672.25
416.567	686.58
416.776	784.88
416.984	852.47
417.192	918
417.4	795.12
417.608	848.37
417.817	870.9
418.025	868.85
418.233	1036.78
418.441	952.82
418.649	1012.21
418.857	1163.76
419.065	1126.89
419.273	1061.36
419.481	1112.56
419.689	1225.2
419.897	1278.44
420.105	1325.55
420.313	1276.4
420.521	1473
420.729	1378.79
420.937	1487.34
421.145	1546.73
421.353	1489.39
421.561	1720.81
421.769	1642.98
421.977	1772
422.185	1765.86
422.393	1829.35
422.601	1929.7
422.809	2021.86
423.017	2040.29
423.224	2034.14
423.432	2163.17
423.64	2197.98
423.848	2343.39
424.056	2394.59
424.263	2501.08
424.471	2591.19
424.679	2556.38
424.887	2660.82
425.094	2810.33
425.302	2630.1
425.51	2810.33
425.718	2914.77
425.925	2882
426.133	3000.79
426.341	3283.41
426.548	3396.04
426.756	3443.15
426.964	3289.55
427.171	3533.26
427.379	3813.83
427.586	3852.74
427.794	4000.19
428.001	4112.83
428.209	4192.7
428.417	4276.67
428.624	4530.62
428.832	4612.54
429.039	4469.18
429.247	4549.05
429.454	5003.7
429.662	5310.89
429.869	4833.72
430.076	5319.09
430.284	4954.55
430.491	5345.71
430.699	5710.25
430.906	5650.86
431.114	5759.4
431.321	5921.19
431.528	5874.09
431.736	6394.27
431.943	6707.61
432.15	6498.72
432.358	6574.49
432.565	7063.96
432.772	6883.73
432.979	7221.65
433.187	7410.06
433.394	7444.88
433.601	8001.93
433.808	8040.84
434.016	7864.71
434.223	8325.5
434.43	8655.23
434.637	8737.15
434.844	8933.75
435.052	9306.48
435.259	9292.15
435.466	9390.45
435.673	9169.27
435.88	9898.34
436.087	10348.9
436.294	10279.27
436.501	10240.36
436.708	10211.68
436.915	10742.11
437.122	11161.94
437.329	10924.38
437.537	11432.27
437.743	11700.56
437.95	11512.14
438.157	12063.05
438.364	12624.19
438.571	12630.34
438.778	12597.57
438.985	13613.36
439.192	13265.21
439.399	13576.5
439.606	13568.3
439.813	14299.43
440.02	14997.79
440.227	14739.74
440.433	14534.95
440.64	14993.69
440.847	15001.88
441.054	15042.84
441.261	16292.1
441.467	15782.16
441.674	16408.84
441.881	17035.52
442.088	16949.5
442.294	17017.08
442.501	17447.16
442.708	17846.51
442.914	18317.54
443.121	18981.09
443.328	19095.77
443.534	19857.62
443.741	19480.79
443.948	19335.38
444.154	20633.8
444.361	20523.21
444.568	20785.35
444.774	20728
444.981	21039.29
445.187	21385.4
445.394	22626.47
445.6	22225.07
445.807	24195.21
446.013	22892.71
446.22	23664.79
446.426	24297.61
446.633	24856.71
446.839	25497.72
447.046	24649.86
447.252	25817.21
447.459	25698.42
447.665	25444.48
447.871	26990.69
448.078	28153.94
448.284	26910.82
448.491	27480.16
448.697	28663.88
448.903	29151.3
449.11	29145.16
449.316	28469.33
449.522	29542.46
449.728	30017.59
449.935	30103.6
450.141	29974.58
450.347	30777.39
450.553	29911.1
450.76	30091.32
450.966	31516.7
451.172	30535.73
451.378	31631.39
451.584	31072.29
451.791	31858.71
451.997	31555.61
452.203	32200.72
452.409	32227.35
452.615	32006.17
452.821	30859.31
453.027	30552.11
453.233	32124.95
453.44	31139.88
453.646	31221.8
453.852	31633.44
454.058	32352.27
454.264	30724.14
454.47	31655.96
454.676	30998.57
454.882	32096.28
455.088	29147.2
455.294	29667.39
455.5	30076.98
455.705	30466.1
455.911	29210.69
456.117	28883.02
456.323	28076.12
456.529	26808.42
456.735	28065.88
456.941	26992.74
457.147	26736.74
457.352	25843.83
457.558	25485.44
457.764	25852.02
457.97	25135.23
458.176	24500.36
458.381	24613
458.587	23316.64
458.793	23478.43
458.999	22225.07
459.204	23640.22
459.41	23421.08
459.616	21668.02
459.821	21416.12
460.027	21571.77
460.233	21045.44
460.438	19874
460.644	20345.03
460.85	19226.84
461.055	19091.68
461.261	18804.96
461.466	17690.87
461.672	17213.69
461.878	18233.58
462.083	17025.28
462.289	16709.89
462.494	16554.24
462.7	15862.03
462.905	15470.87
463.111	16064.78
463.316	16105.74
463.522	15616.27
463.727	15921.42
463.932	15722.77
464.138	15362.33
464.343	15612.18
464.549	15124.76
464.754	15468.82
464.959	15358.23
465.165	15577.36
465.37	14690.59
465.575	14170.41
465.781	14872.86
465.986	14991.64
466.191	14266.66
466.397	14248.23
466.602	13607.22
466.807	13893.93
