Data from USB4F104151__28__11-51-33-968.txt Node

Date: Fri Mar 14 11:51:33 EDT 2025
User: louis
Spectrometer: USB4F10415
Trigger mode: 4
Integration Time (sec): 2.000000E-2
Scans to average: 1
Electric dark correction enabled: true
Nonlinearity correction enabled: false
Boxcar width: 0
XAxis mode: Wavelengths
Number of Pixels in Spectrum: 3648
>>>>>Begin Spectral Data<<<<<
178.204	-29.7
178.424	-29.7
178.644	-29.7
178.864	-44.03
179.084	-115.71
179.304	-62.46
179.524	72.7
179.744	-31.74
179.964	60.42
180.184	13.31
180.404	35.84
180.624	-19.46
180.844	-44.03
181.064	-17.41
181.283	-64.51
181.503	-17.41
181.723	74.75
181.943	-48.13
182.163	60.42
182.383	-52.22
182.602	113.66
182.822	66.56
183.042	23.55
183.262	-25.6
183.482	-17.41
183.701	5.12
183.921	-1.02
184.141	7.17
184.361	87.04
184.58	-21.5
184.8	-48.13
185.02	25.6
185.239	17.41
185.459	-35.84
185.679	46.08
185.898	19.46
186.118	54.27
186.338	-9.22
186.557	13.31
186.777	39.94
186.997	44.03
187.216	23.55
187.436	64.51
187.655	41.98
187.875	5.12
188.095	-27.65
188.314	1.02
188.534	64.51
188.753	5.12
188.973	105.47
189.192	21.5
189.412	64.51
189.631	21.5
189.851	82.94
190.07	37.89
190.29	-3.07
190.509	39.94
190.729	31.74
190.948	-21.5
191.168	117.76
191.387	19.46
191.607	66.56
191.826	37.89
192.045	11.26
192.265	-1.02
192.484	78.85
192.704	-11.26
192.923	-7.17
193.142	35.84
193.362	50.18
193.581	-37.89
193.8	-82.94
194.02	78.85
194.239	25.6
194.458	56.32
194.678	11.26
194.897	35.84
195.116	5.12
195.335	-31.74
195.555	5.12
195.774	33.79
195.993	-3.07
196.212	3.07
196.432	-7.17
196.651	87.04
196.87	35.84
197.089	158.72
197.308	5.12
197.528	17.41
197.747	-7.17
197.966	54.27
198.185	27.65
198.404	-76.8
198.623	-11.26
198.842	21.5
199.062	84.99
199.281	93.18
199.5	11.26
199.719	23.55
199.938	82.94
200.157	54.27
200.376	35.84
200.595	3.07
200.814	29.7
201.033	-41.98
201.252	23.55
201.471	25.6
201.69	21.5
201.909	74.75
202.128	80.89
202.347	1.02
202.566	-13.31
202.785	-17.41
203.004	-37.89
203.223	93.18
203.442	27.65
203.661	52.22
203.879	41.98
204.098	-9.22
204.317	37.89
204.536	1.02
204.755	-19.46
204.974	-17.41
205.193	13.31
205.411	68.61
205.63	25.6
205.849	3.07
206.068	-7.17
206.287	91.13
206.505	-25.6
206.724	29.7
206.943	-62.46
207.162	-7.17
207.381	-9.22
207.599	3.07
207.818	-25.6
208.037	39.94
208.255	72.7
208.474	-58.37
208.693	25.6
208.911	-9.22
209.13	9.22
209.349	39.94
209.567	132.09
209.786	9.22
210.005	-37.89
210.223	19.46
210.442	13.31
210.661	-5.12
210.879	25.6
211.098	-70.65
211.316	9.22
211.535	-52.22
211.753	13.31
211.972	23.55
212.191	-21.5
212.409	56.32
212.628	52.22
212.846	9.22
213.065	35.84
213.283	33.79
213.502	54.27
213.72	54.27
213.938	-107.52
214.157	27.65
214.375	74.75
214.594	58.37
214.812	60.42
215.031	27.65
215.249	-5.12
215.467	105.47
215.686	35.84
215.904	62.46
216.122	37.89
216.341	76.8
216.559	19.46
216.778	25.6
216.996	60.42
217.214	-21.5
217.432	11.26
217.651	-87.04
217.869	-41.98
218.087	-31.74
218.306	41.98
218.524	91.13
218.742	1.02
218.96	-15.36
219.179	21.5
219.397	31.74
219.615	121.85
219.833	52.22
220.051	11.26
220.27	72.7
220.488	44.03
220.706	33.79
220.924	41.98
221.142	19.46
221.36	60.42
221.578	60.42
221.796	-9.22
222.015	52.22
222.233	13.31
222.451	-9.22
222.669	56.32
222.887	-7.17
223.105	48.13
223.323	-41.98
223.541	35.84
223.759	52.22
223.977	21.5
224.195	54.27
224.413	29.7
224.631	39.94
224.849	39.94
225.067	5.12
225.285	-1.02
225.503	-11.26
225.721	35.84
225.939	13.31
226.157	54.27
226.375	60.42
226.592	-87.04
226.81	50.18
227.028	99.33
227.246	31.74
227.464	31.74
227.682	89.09
227.9	13.31
228.117	35.84
228.335	21.5
228.553	9.22
228.771	-1.02
228.989	31.74
229.206	52.22
229.424	58.37
229.642	17.41
229.86	-17.41
230.077	3.07
230.295	41.98
230.513	-35.84
230.731	144.38
230.948	76.8
231.166	68.61
231.384	-3.07
231.601	-15.36
231.819	31.74
232.037	87.04
232.254	17.41
232.472	37.89
232.689	7.17
232.907	-3.07
233.125	50.18
233.342	44.03
233.56	-84.99
233.777	29.7
233.995	29.7
234.213	25.6
234.43	72.7
234.648	44.03
234.865	-78.85
235.083	70.65
235.3	9.22
235.518	54.27
235.735	64.51
235.953	21.5
236.17	-7.17
236.388	35.84
236.605	19.46
236.822	44.03
237.04	48.13
237.257	5.12
237.475	11.26
237.692	-7.17
237.909	25.6
238.127	5.12
238.344	15.36
238.562	44.03
238.779	15.36
238.996	39.94
239.214	33.79
239.431	54.27
239.648	19.46
239.865	72.7
240.083	66.56
240.3	17.41
240.517	-46.08
240.735	5.12
240.952	29.7
241.169	50.18
241.386	74.75
241.603	76.8
241.821	-3.07
242.038	13.31
242.255	19.46
242.472	-50.18
242.689	39.94
242.907	82.94
243.124	-5.12
243.341	-3.07
243.558	-3.07
243.775	103.42
243.992	-1.02
244.209	95.23
244.426	13.31
244.643	27.65
244.86	21.5
245.078	58.37
245.295	35.84
245.512	-3.07
245.729	-7.17
245.946	-21.5
246.163	46.08
246.38	25.6
246.597	52.22
246.814	-15.36
247.031	-11.26
247.248	56.32
247.464	31.74
247.681	1.02
247.898	19.46
248.115	48.13
248.332	21.5
248.549	-13.31
248.766	23.55
248.983	23.55
249.2	46.08
249.417	50.18
249.633	66.56
249.85	-11.26
250.067	72.7
250.284	1.02
250.501	-9.22
250.717	-17.41
250.934	41.98
251.151	-7.17
251.368	-17.41
251.585	-15.36
251.801	-13.31
252.018	-29.7
252.235	-9.22
252.451	-15.36
252.668	-1.02
252.885	1.02
253.102	-1.02
253.318	21.5
253.535	44.03
253.752	44.03
253.968	-1.02
254.185	60.42
254.401	91.13
254.618	105.47
254.835	-11.26
255.051	-7.17
255.268	72.7
255.484	7.17
255.701	21.5
255.917	74.75
256.134	-52.22
256.351	46.08
256.567	-7.17
256.784	19.46
257	9.22
257.217	56.32
257.433	25.6
257.65	13.31
257.866	25.6
258.082	29.7
258.299	41.98
258.515	13.31
258.732	52.22
258.948	64.51
259.165	-5.12
259.381	-41.98
259.597	-25.6
259.814	35.84
260.03	19.46
260.246	17.41
260.463	21.5
260.679	74.75
260.895	11.26
261.112	33.79
261.328	52.22
261.544	68.61
261.761	52.22
261.977	56.32
262.193	19.46
262.409	-1.02
262.626	25.6
262.842	48.13
263.058	35.84
263.274	-52.22
263.49	99.33
263.707	33.79
263.923	23.55
264.139	29.7
264.355	46.08
264.571	54.27
264.787	41.98
265.004	19.46
265.22	41.98
265.436	7.17
265.652	74.75
265.868	74.75
266.084	9.22
266.3	15.36
266.516	27.65
266.732	7.17
266.948	37.89
267.164	33.79
267.38	-7.17
267.596	7.17
267.812	44.03
268.028	39.94
268.244	17.41
268.46	-7.17
268.676	-25.6
268.892	5.12
269.108	-70.65
269.324	35.84
269.54	17.41
269.756	21.5
269.972	-19.46
270.188	84.99
270.403	17.41
270.619	1.02
270.835	25.6
271.051	-7.17
271.267	-25.6
271.483	37.89
271.698	7.17
271.914	93.18
272.13	89.09
272.346	-1.02
272.562	-15.36
272.777	82.94
272.993	39.94
273.209	66.56
273.425	5.12
273.64	66.56
273.856	31.74
274.072	39.94
274.287	7.17
274.503	-31.74
274.719	82.94
274.934	72.7
275.15	-58.37
275.366	37.89
275.581	7.17
275.797	-31.74
276.012	74.75
276.228	66.56
276.444	-19.46
276.659	68.61
276.875	33.79
277.09	72.7
277.306	64.51
277.521	13.31
277.737	-15.36
277.952	48.13
278.168	-27.65
278.383	19.46
278.599	-44.03
278.814	-7.17
279.03	-11.26
279.245	89.09
279.461	-17.41
279.676	19.46
279.892	46.08
280.107	-5.12
280.322	33.79
280.538	13.31
280.753	84.99
280.969	84.99
281.184	23.55
281.399	1.02
281.615	44.03
281.83	39.94
282.045	-46.08
282.26	5.12
282.476	-37.89
282.691	33.79
282.906	66.56
283.122	7.17
283.337	21.5
283.552	21.5
283.767	46.08
283.983	11.26
284.198	5.12
284.413	9.22
284.628	25.6
284.843	91.13
285.058	74.75
285.274	27.65
285.489	23.55
285.704	39.94
285.919	-37.89
286.134	66.56
286.349	-7.17
286.564	21.5
286.779	39.94
286.995	50.18
287.21	-23.55
287.425	-5.12
287.64	-41.98
287.855	-25.6
288.07	60.42
288.285	48.13
288.5	-7.17
288.715	-46.08
288.93	-1.02
289.145	3.07
289.36	150.53
289.575	15.36
289.79	-23.55
290.004	44.03
290.219	-39.94
290.434	27.65
290.649	21.5
290.864	41.98
291.079	19.46
291.294	17.41
291.509	44.03
291.724	31.74
291.938	33.79
292.153	1.02
292.368	-29.7
292.583	54.27
292.798	5.12
293.012	48.13
293.227	13.31
293.442	-23.55
293.657	48.13
293.871	62.46
294.086	44.03
294.301	-9.22
294.516	58.37
294.73	74.75
294.945	13.31
295.16	54.27
295.374	9.22
295.589	37.89
295.804	23.55
296.018	107.52
296.233	54.27
296.447	80.89
296.662	3.07
296.877	31.74
297.091	121.85
297.306	-23.55
297.52	3.07
297.735	54.27
297.949	-31.74
298.164	44.03
298.378	25.6
298.593	39.94
298.807	-13.31
299.022	23.55
299.236	5.12
299.451	5.12
299.665	84.99
299.88	17.41
300.094	-7.17
300.309	7.17
300.523	-33.79
300.737	-5.12
300.952	17.41
301.166	21.5
301.381	15.36
301.595	17.41
301.809	-11.26
302.024	11.26
302.238	41.98
302.452	-33.79
302.667	-1.02
302.881	80.89
303.095	35.84
303.309	91.13
303.524	-27.65
303.738	-23.55
303.952	-11.26
304.166	54.27
304.381	-11.26
304.595	17.41
304.809	-9.22
305.023	46.08
305.237	19.46
305.452	-52.22
305.666	48.13
305.88	-27.65
306.094	62.46
306.308	-7.17
306.522	1.02
306.736	41.98
306.95	66.56
307.164	29.7
307.379	37.89
307.593	93.18
307.807	35.84
308.021	48.13
308.235	68.61
308.449	-35.84
308.663	5.12
308.877	33.79
309.091	23.55
309.305	76.8
309.519	1.02
309.733	37.89
309.947	68.61
310.161	68.61
310.374	33.79
310.588	62.46
310.802	15.36
311.016	-25.6
311.23	87.04
311.444	9.22
311.658	27.65
311.872	27.65
312.085	70.65
312.299	23.55
312.513	23.55
312.727	-17.41
312.941	-7.17
313.154	46.08
313.368	-31.74
313.582	62.46
313.796	23.55
314.009	-11.26
314.223	-17.41
314.437	54.27
314.651	19.46
314.864	66.56
315.078	41.98
315.292	3.07
315.505	31.74
315.719	21.5
315.933	46.08
316.146	87.04
316.36	3.07
316.573	25.6
316.787	48.13
317.001	-44.03
317.214	-23.55
317.428	41.98
317.641	-9.22
317.855	3.07
318.068	-17.41
318.282	93.18
318.495	50.18
318.709	87.04
318.922	-3.07
319.136	82.94
319.349	46.08
319.563	31.74
319.776	-50.18
319.99	93.18
320.203	60.42
320.417	72.7
320.63	-13.31
320.843	121.85
321.057	82.94
321.27	17.41
321.483	33.79
321.697	74.75
321.91	9.22
322.124	41.98
322.337	23.55
322.55	-52.22
322.763	44.03
322.977	25.6
323.19	13.31
323.403	15.36
323.617	31.74
323.83	60.42
324.043	50.18
324.256	54.27
324.469	78.85
324.683	62.46
324.896	-21.5
325.109	62.46
325.322	7.17
325.535	-13.31
325.748	58.37
325.962	-7.17
326.175	64.51
326.388	136.19
326.601	1.02
326.814	48.13
327.027	60.42
327.24	111.61
327.453	1.02
327.666	46.08
327.879	64.51
328.092	46.08
328.305	-1.02
328.518	52.22
328.731	25.6
328.944	13.31
329.157	84.99
329.37	-15.36
329.583	3.07
329.796	33.79
330.009	39.94
330.222	9.22
330.435	52.22
330.648	125.95
330.861	13.31
331.073	5.12
331.286	44.03
331.499	48.13
331.712	50.18
331.925	29.7
332.138	-27.65
332.35	15.36
332.563	87.04
332.776	70.65
332.989	15.36
333.202	-41.98
333.414	39.94
333.627	-23.55
333.84	56.32
334.053	29.7
334.265	-5.12
334.478	31.74
334.691	60.42
334.903	13.31
335.116	-72.7
335.329	46.08
335.541	58.37
335.754	117.76
335.966	41.98
336.179	11.26
336.392	48.13
336.604	52.22
336.817	50.18
337.029	80.89
337.242	23.55
337.454	37.89
337.667	66.56
337.88	25.6
338.092	11.26
338.305	70.65
338.517	-68.61
338.729	74.75
338.942	72.7
339.154	-29.7
339.367	-52.22
339.579	89.09
339.792	-13.31
340.004	82.94
340.217	7.17
340.429	56.32
340.641	7.17
340.854	-9.22
341.066	17.41
341.278	84.99
341.491	68.61
341.703	9.22
341.915	66.56
342.128	9.22
342.34	33.79
342.552	35.84
342.764	17.41
342.977	27.65
343.189	23.55
343.401	37.89
343.613	-31.74
343.826	21.5
344.038	52.22
344.25	37.89
344.462	21.5
344.674	62.46
344.886	-1.02
345.099	15.36
345.311	70.65
345.523	46.08
345.735	-76.8
345.947	72.7
346.159	101.37
346.371	62.46
346.583	25.6
346.795	103.42
347.007	66.56
347.219	89.09
347.431	-7.17
347.643	62.46
347.855	21.5
348.067	48.13
348.279	-5.12
348.491	-60.42
348.703	99.33
348.915	21.5
349.127	5.12
349.339	39.94
349.551	-35.84
349.763	56.32
349.975	-33.79
350.187	54.27
350.399	-9.22
350.61	44.03
350.822	68.61
351.034	41.98
351.246	9.22
351.458	105.47
351.669	7.17
351.881	87.04
352.093	84.99
352.305	44.03
352.517	25.6
352.728	72.7
352.94	72.7
353.152	125.95
353.363	25.6
353.575	-48.13
353.787	70.65
353.999	9.22
354.21	95.23
354.422	33.79
354.633	87.04
354.845	3.07
355.057	-3.07
355.268	-41.98
355.48	17.41
355.692	50.18
355.903	37.89
356.115	33.79
356.326	3.07
356.538	41.98
356.749	48.13
356.961	119.81
357.172	48.13
357.384	44.03
357.595	48.13
357.807	58.37
358.018	-39.94
358.23	87.04
358.441	48.13
358.653	35.84
358.864	9.22
359.075	68.61
359.287	39.94
359.498	9.22
359.709	33.79
359.921	27.65
360.132	-35.84
360.344	23.55
360.555	66.56
360.766	19.46
360.977	-1.02
361.189	56.32
361.4	-31.74
361.611	35.84
361.823	1.02
362.034	52.22
362.245	-9.22
362.456	113.66
362.667	-17.41
362.879	29.7
363.09	48.13
363.301	23.55
363.512	84.99
363.723	-25.6
363.935	5.12
364.146	68.61
364.357	35.84
364.568	105.47
364.779	58.37
364.99	41.98
365.201	74.75
365.412	93.18
365.623	19.46
365.834	91.13
366.045	95.23
366.256	35.84
366.467	66.56
366.678	35.84
366.889	74.75
367.1	1.02
367.311	39.94
367.522	70.65
367.733	117.76
367.944	27.65
368.155	82.94
368.366	48.13
368.577	68.61
368.788	82.94
368.999	66.56
369.209	111.61
369.42	37.89
369.631	89.09
369.842	11.26
370.053	70.65
370.264	78.85
370.474	95.23
370.685	58.37
370.896	-13.31
371.107	113.66
371.317	93.18
371.528	7.17
371.739	44.03
371.95	56.32
372.16	-27.65
372.371	15.36
372.582	68.61
372.792	80.89
373.003	56.32
373.214	33.79
373.424	37.89
373.635	70.65
373.846	44.03
374.056	48.13
374.267	58.37
374.477	44.03
374.688	35.84
374.898	7.17
375.109	119.81
375.319	64.51
375.53	44.03
375.74	17.41
375.951	62.46
376.161	25.6
376.372	87.04
376.582	17.41
376.793	27.65
377.003	19.46
377.214	64.51
377.424	15.36
377.635	1.02
377.845	-7.17
378.055	80.89
378.266	3.07
378.476	48.13
378.686	46.08
378.897	37.89
379.107	93.18
379.317	41.98
379.528	84.99
379.738	27.65
379.948	37.89
380.158	123.9
380.369	70.65
380.579	46.08
380.789	25.6
380.999	115.71
381.21	74.75
381.42	87.04
381.63	-11.26
381.84	35.84
382.05	35.84
382.261	37.89
382.471	115.71
382.681	60.42
382.891	68.61
383.101	-5.12
383.311	33.79
383.521	1.02
383.731	21.5
383.941	99.33
384.151	58.37
384.361	31.74
384.571	72.7
384.781	27.65
384.991	119.81
385.201	111.61
385.411	11.26
385.621	35.84
385.831	84.99
386.041	128
386.251	46.08
386.461	66.56
386.671	25.6
386.881	107.52
387.091	82.94
387.301	119.81
387.511	1.02
387.72	21.5
387.93	66.56
388.14	15.36
388.35	-41.98
388.56	107.52
388.769	99.33
388.979	31.74
389.189	1.02
389.399	142.33
389.609	89.09
389.818	128
390.028	11.26
390.238	62.46
390.447	33.79
390.657	33.79
390.867	35.84
391.076	1.02
391.286	15.36
391.496	95.23
391.705	-3.07
391.915	119.81
392.125	115.71
392.334	70.65
392.544	64.51
392.753	99.33
392.963	35.84
393.172	25.6
393.382	3.07
393.591	74.75
393.801	39.94
394.01	76.8
394.22	119.81
394.429	158.72
394.639	97.28
394.848	113.66
395.058	89.09
395.267	56.32
395.477	1.02
395.686	109.57
395.895	115.71
396.105	168.96
396.314	19.46
396.524	56.32
396.733	136.19
396.942	115.71
397.152	130.05
397.361	103.42
397.57	58.37
397.78	58.37
397.989	132.09
398.198	152.57
398.407	82.94
398.617	31.74
398.826	128
399.035	123.9
399.244	119.81
399.453	89.09
399.663	130.05
399.872	93.18
400.081	146.43
400.29	168.96
400.499	111.61
400.708	152.57
400.917	74.75
401.127	109.57
401.336	148.48
401.545	105.47
401.754	148.48
401.963	152.57
402.172	130.05
402.381	103.42
402.59	68.61
402.799	156.67
403.008	115.71
403.217	89.09
403.426	115.71
403.635	70.65
403.844	107.52
404.053	119.81
404.262	193.53
404.471	146.43
404.68	87.04
404.888	173.05
405.097	144.38
405.306	132.09
405.515	148.48
405.724	152.57
405.933	99.33
406.142	138.24
406.35	201.72
406.559	195.58
406.768	154.62
406.977	306.17
407.185	193.53
407.394	201.72
407.603	152.57
407.812	240.64
408.02	164.86
408.229	265.21
408.438	150.53
408.646	232.44
408.855	183.29
409.064	291.84
409.272	230.4
409.481	203.77
409.69	222.2
409.898	314.36
410.107	267.26
410.315	314.36
410.524	277.5
410.733	304.12
410.941	365.56
411.15	359.42
411.358	390.14
411.567	377.85
411.775	400.38
411.984	398.33
412.192	441.34
412.401	390.14
412.609	513.02
412.818	537.59
413.026	537.59
413.234	521.21
413.443	582.65
413.651	490.49
413.86	472.06
414.068	678.9
414.276	619.51
414.485	605.17
414.693	631.8
414.901	646.13
415.11	676.85
415.318	660.47
415.526	705.53
415.734	666.61
415.943	826.36
416.151	930.8
416.359	742.39
416.567	914.42
416.776	885.75
416.984	963.57
417.192	900.08
417.4	1041.39
417.608	912.37
417.817	1027.06
418.025	1139.69
418.233	1225.71
418.441	1090.54
418.649	1139.69
418.857	1221.61
419.065	1354.73
419.273	1219.57
419.481	1350.64
419.689	1440.75
419.897	1442.79
420.105	1539.05
420.313	1625.06
420.521	1516.52
420.729	1618.92
420.937	1723.37
421.145	1694.69
421.353	1909.73
421.561	1913.83
421.769	1922.02
421.977	2079.71
422.185	1928.16
422.393	2063.33
422.601	2239.45
422.809	2237.41
423.017	2126.82
423.224	2280.41
423.432	2462.68
423.64	2452.44
423.848	2630.62
424.056	2581.46
424.263	2837.46
424.471	2864.08
424.679	2892.76
424.887	3130.32
425.094	3122.13
425.302	3093.46
425.51	3255.25
425.718	3363.79
425.925	3427.28
426.133	3433.42
426.341	3713.99
426.548	3902.4
426.756	3892.16
426.964	3783.62
427.171	4121.54
427.379	4350.91
427.586	4393.92
427.794	4658.1
428.001	4721.59
428.209	4858.81
428.417	4789.17
428.624	5092.27
428.832	5223.34
429.039	5182.38
429.247	5098.42
429.454	5579.69
429.662	5915.56
429.869	5479.34
430.076	6110.11
430.284	5911.46
430.491	6087.59
430.699	6509.47
430.906	6273.95
431.114	6400.93
431.321	6601.63
431.528	6759.32
431.736	7312.27
431.943	7678.86
432.15	7545.74
432.358	7543.69
432.565	7965.57
432.772	7840.65
432.979	8344.45
433.187	8653.69
433.394	8520.57
433.601	9161.59
433.808	9069.43
434.016	8952.7
434.223	9302.9
434.43	10173.28
434.637	9866.09
434.844	10404.71
435.052	10728.28
435.259	10660.7
435.466	10572.64
435.673	10713.95
435.88	11211.6
436.087	11545.42
436.294	11852.62
436.501	11676.49
436.708	11871.05
436.915	12358.47
437.122	12868.41
437.329	12593.98
437.537	13304.63
437.743	13437.75
437.95	13333.3
438.157	14070.57
438.364	14424.87
438.571	14521.12
438.778	14572.32
438.985	15702.8
439.192	15194.9
439.399	15573.78
439.606	15246.1
439.813	16216.84
440.02	17257.21
440.227	16972.54
440.433	16761.6
440.64	17289.98
440.847	17306.36
441.054	17666.8
441.261	18805.47
441.467	18744.03
441.674	18899.68
441.881	19784.4
442.088	19550.93
442.294	19262.17
442.501	19839.7
442.708	20536.01
442.914	20927.17
443.121	22233.77
443.328	21656.25
443.534	22837.92
443.741	22352.55
443.948	21906.1
444.154	23814.8
444.361	23638.68
444.568	23521.95
444.774	23724.69
444.981	24081.04
445.187	24724.1
445.394	25275.01
445.6	25518.71
445.807	27839.06
446.013	26559.08
446.22	27038.31
446.426	28295.76
446.633	28510.8
446.839	29317.7
447.046	28050
447.252	29708.86
447.459	29882.94
447.665	29719.1
447.871	30853.67
448.078	32260.63
448.284	30992.94
448.491	31834.65
448.697	33110.53
448.903	33352.2
449.11	33925.63
449.316	32889.35
449.522	33706.49
449.728	34710
449.935	34646.51
450.141	34898.41
450.347	35699.17
450.553	34574.83
450.76	35398.12
450.966	36067.8
451.172	35688.93
451.378	36600.27
451.584	35826.14
451.791	37079.5
451.997	36542.93
452.203	37218.76
452.409	37134.79
452.615	37235.14
452.821	35983.83
453.027	35359.2
453.233	37206.47
453.44	36307.41
453.646	36379.09
453.852	36723.15
454.058	37097.93
454.264	36037.08
454.47	36495.83
454.676	36000.22
454.882	36995.53
455.088	33524.22
455.294	34349.56
455.5	34781.68
455.705	35637.73
455.911	33520.13
456.117	33155.59
456.323	32893.45
456.529	31099.43
456.735	32399.89
456.941	31490.59
457.147	30935.59
457.352	29956.66
457.558	29825.59
457.764	29975.09
457.97	29164.1
458.176	28580.43
458.381	28430.93
458.587	27476.57
458.793	27511.39
458.999	25924.21
459.204	27660.89
459.41	27181.67
459.616	25154.18
459.821	25191.04
460.027	24879.75
460.233	24472.2
460.438	23485.08
460.644	23751.32
460.85	22360.75
461.055	22571.69
461.261	22282.92
461.466	20447.94
461.672	19890.9
461.878	21062.33
462.083	19747.54
462.289	19544.79
462.494	19129.05
462.7	18354.92
462.905	18045.68
463.111	18856.67
463.316	18639.59
463.522	18483.94
463.727	18260.71
463.932	18316.01
464.138	18129.64
464.343	18348.78
464.549	17558.26
464.754	18039.53
464.959	18064.11
465.165	17881.84
465.37	17197.82
465.575	16571.14
465.781	17576.69
465.986	17783.54
466.191	17117.95
466.397	16468.74
466.602	16010
466.807	16495.36
467.012	16300.81
467.218	16239.37
467.423	15952.65
467.628	16136.97
467.833	16831.23
468.038	16118.54
468.244	15817.49
