Data from USB4F104151__85__11-52-54-279.txt Node

Date: Fri Mar 14 11:52:54 EDT 2025
User: louis
Spectrometer: USB4F10415
Trigger mode: 4
Integration Time (sec): 2.000000E-2
Scans to average: 1
Electric dark correction enabled: true
Nonlinearity correction enabled: false
Boxcar width: 0
XAxis mode: Wavelengths
Number of Pixels in Spectrum: 3648
>>>>>Begin Spectral Data<<<<<
178.204	-69.8
178.424	-69.8
178.644	-69.8
178.864	-116.9
179.084	-133.29
179.304	-0.17
179.524	24.4
179.744	-24.75
179.964	-14.51
180.184	-75.95
180.404	46.93
180.624	53.08
180.844	24.4
181.064	-43.18
181.283	-4.27
181.503	-43.18
181.723	57.17
181.943	-34.99
182.163	69.46
182.383	-18.6
182.602	34.64
182.822	10.07
183.042	42.84
183.262	38.74
183.482	-4.27
183.701	22.36
183.921	24.4
184.141	55.12
184.361	53.08
184.58	-22.7
184.8	-18.6
185.02	75.6
185.239	38.74
185.459	5.97
185.679	51.03
185.898	-14.51
186.118	48.98
186.338	12.12
186.557	5.97
186.777	42.84
186.997	36.69
187.216	-55.47
187.436	73.56
187.655	57.17
187.875	38.74
188.095	28.5
188.314	55.12
188.534	10.07
188.753	-59.56
188.973	69.46
189.192	75.6
189.412	28.5
189.631	69.46
189.851	-8.36
190.07	59.22
190.29	-28.84
190.509	12.12
190.729	30.55
190.948	69.46
191.168	83.8
191.387	85.84
191.607	-26.79
191.826	94.04
192.045	-6.31
192.265	51.03
192.484	3.93
192.704	36.69
192.923	63.32
193.142	-12.46
193.362	-2.22
193.581	-8.36
193.8	10.07
194.02	63.32
194.239	22.36
194.458	-12.46
194.678	20.31
194.897	73.56
195.116	73.56
195.335	48.98
195.555	83.8
195.774	42.84
195.993	30.55
196.212	-16.55
196.432	46.93
196.651	42.84
196.87	26.45
197.089	89.94
197.308	-6.31
197.528	57.17
197.747	59.22
197.966	83.8
198.185	26.45
198.404	22.36
198.623	18.26
198.842	59.22
199.062	83.8
199.281	75.6
199.5	91.99
199.719	-41.13
199.938	-2.22
200.157	65.36
200.376	36.69
200.595	40.79
200.814	57.17
201.033	-4.27
201.252	51.03
201.471	40.79
201.69	69.46
201.909	48.98
202.128	-8.36
202.347	186.19
202.566	32.6
202.785	-2.22
203.004	63.32
203.223	91.99
203.442	46.93
203.661	51.03
203.879	28.5
204.098	48.98
204.317	-26.79
204.536	-8.36
204.755	51.03
204.974	83.8
205.193	55.12
205.411	104.28
205.63	-34.99
205.849	106.32
206.068	22.36
206.287	16.21
206.505	126.8
206.724	36.69
206.943	59.22
207.162	69.46
207.381	-67.75
207.599	65.36
207.818	30.55
208.037	-0.17
208.255	87.89
208.474	67.41
208.693	5.97
208.911	-6.31
209.13	-18.6
209.349	51.03
209.567	-16.55
209.786	-2.22
210.005	73.56
210.223	18.26
210.442	8.02
210.661	65.36
210.879	34.64
211.098	22.36
211.316	-34.99
211.535	51.03
211.753	10.07
211.972	108.37
212.191	65.36
212.409	69.46
212.628	139.09
212.846	22.36
213.065	106.32
213.283	85.84
213.502	-16.55
213.72	73.56
213.938	-2.22
214.157	10.07
214.375	22.36
214.594	28.5
214.812	91.99
215.031	8.02
215.249	12.12
215.467	5.97
215.686	-2.22
215.904	71.51
216.122	65.36
216.341	28.5
216.559	36.69
216.778	16.21
216.996	34.64
217.214	77.65
217.432	87.89
217.651	8.02
217.869	32.6
218.087	102.23
218.306	65.36
218.524	36.69
218.742	22.36
218.96	57.17
219.179	30.55
219.397	30.55
219.615	46.93
219.833	91.99
220.051	-92.33
220.27	63.32
220.488	91.99
220.706	51.03
220.924	32.6
221.142	-59.56
221.36	59.22
221.578	85.84
221.796	28.5
222.015	38.74
222.233	38.74
222.451	42.84
222.669	85.84
222.887	18.26
223.105	-16.55
223.323	102.23
223.541	-12.46
223.759	-32.94
223.977	10.07
224.195	83.8
224.413	24.4
224.631	-32.94
224.849	8.02
225.067	83.8
225.285	-0.17
225.503	8.02
225.721	14.17
225.939	-28.84
226.157	40.79
226.375	98.13
226.592	12.12
226.81	51.03
227.028	42.84
227.246	-24.75
227.464	42.84
227.682	85.84
227.9	81.75
228.117	26.45
228.335	51.03
228.553	57.17
228.771	-24.75
228.989	77.65
229.206	30.55
229.424	18.26
229.642	65.36
229.86	-16.55
230.077	-2.22
230.295	73.56
230.513	108.37
230.731	44.88
230.948	16.21
231.166	91.99
231.384	87.89
231.601	42.84
231.819	40.79
232.037	26.45
232.254	38.74
232.472	87.89
232.689	83.8
232.907	48.98
233.125	40.79
233.342	30.55
233.56	-4.27
233.777	40.79
233.995	51.03
234.213	10.07
234.43	51.03
234.648	22.36
234.865	73.56
235.083	51.03
235.3	59.22
235.518	65.36
235.735	55.12
235.953	40.79
236.17	69.46
236.388	44.88
236.605	26.45
236.822	61.27
237.04	-51.37
237.257	12.12
237.475	10.07
237.692	-0.17
237.909	59.22
238.127	42.84
238.344	18.26
238.562	57.17
238.779	-22.7
238.996	-0.17
239.214	40.79
239.431	110.42
239.648	51.03
239.865	32.6
240.083	16.21
240.3	57.17
240.517	44.88
240.735	38.74
240.952	98.13
241.169	20.31
241.386	22.36
241.603	71.51
241.821	-22.7
242.038	-4.27
242.255	44.88
242.472	53.08
242.689	-8.36
242.907	32.6
243.124	22.36
243.341	-24.75
243.558	3.93
243.775	63.32
243.992	-34.99
244.209	81.75
244.426	83.8
244.643	46.93
244.86	12.12
245.078	16.21
245.295	61.27
245.512	55.12
245.729	-26.79
245.946	44.88
246.163	73.56
246.38	75.6
246.597	8.02
246.814	77.65
247.031	-18.6
247.248	-16.55
247.464	5.97
247.681	116.56
247.898	24.4
248.115	-8.36
248.332	-0.17
248.549	46.93
248.766	69.46
248.983	44.88
249.2	44.88
249.417	16.21
249.633	61.27
249.85	118.61
250.067	46.93
250.284	12.12
250.501	85.84
250.717	57.17
250.934	-22.7
251.151	36.69
251.368	-22.7
251.585	71.51
251.801	-6.31
252.018	40.79
252.235	81.75
252.451	14.17
252.668	-18.6
252.885	24.4
253.102	75.6
253.318	28.5
253.535	20.31
253.752	59.22
253.968	30.55
254.185	42.84
254.401	18.26
254.618	38.74
254.835	-30.89
255.051	94.04
255.268	73.56
255.484	8.02
255.701	32.6
255.917	69.46
256.134	53.08
256.351	96.08
256.567	30.55
256.784	137.04
257	10.07
257.217	-47.27
257.433	-0.17
257.65	81.75
257.866	42.84
258.082	128.85
258.299	61.27
258.515	73.56
258.732	14.17
258.948	46.93
259.165	69.46
259.381	26.45
259.597	46.93
259.814	59.22
260.03	1.88
260.246	100.18
260.463	77.65
260.679	14.17
260.895	98.13
261.112	10.07
261.328	18.26
261.544	-45.23
261.761	22.36
261.977	69.46
262.193	-4.27
262.409	57.17
262.626	67.41
262.842	40.79
263.058	38.74
263.274	10.07
263.49	32.6
263.707	53.08
263.923	16.21
264.139	67.41
264.355	-28.84
264.571	85.84
264.787	57.17
265.004	53.08
265.22	85.84
265.436	18.26
265.652	104.28
265.868	44.88
266.084	-4.27
266.3	34.64
266.516	42.84
266.732	44.88
266.948	126.8
267.164	-32.94
267.38	16.21
267.596	59.22
267.812	77.65
268.028	108.37
268.244	-22.7
268.46	38.74
268.676	12.12
268.892	77.65
269.108	28.5
269.324	-0.17
269.54	53.08
269.756	30.55
269.972	20.31
270.188	26.45
270.403	8.02
270.619	12.12
270.835	36.69
271.051	55.12
271.267	-65.71
271.483	16.21
271.698	28.5
271.914	42.84
272.13	-45.23
272.346	-2.22
272.562	34.64
272.777	59.22
272.993	-6.31
273.209	42.84
273.425	69.46
273.64	1.88
273.856	67.41
274.072	34.64
274.287	-30.89
274.503	89.94
274.719	81.75
274.934	44.88
275.15	8.02
275.366	61.27
275.581	-14.51
275.797	51.03
276.012	22.36
276.228	30.55
276.444	24.4
276.659	22.36
276.875	-55.47
277.09	32.6
277.306	-22.7
277.521	48.98
277.737	-4.27
277.952	122.71
278.168	44.88
278.383	61.27
278.599	38.74
278.814	48.98
279.03	61.27
279.245	122.71
279.461	36.69
279.676	81.75
279.892	48.98
280.107	-4.27
280.322	51.03
280.538	26.45
280.753	128.85
280.969	32.6
281.184	40.79
281.399	108.37
281.615	69.46
281.83	69.46
282.045	14.17
282.26	-20.65
282.476	5.97
282.691	48.98
282.906	-14.51
283.122	143.19
283.337	5.97
283.552	28.5
283.767	-6.31
283.983	14.17
284.198	22.36
284.413	24.4
284.628	16.21
284.843	63.32
285.058	55.12
285.274	22.36
285.489	22.36
285.704	24.4
285.919	38.74
286.134	110.42
286.349	14.17
286.564	1.88
286.779	44.88
286.995	14.17
287.21	16.21
287.425	32.6
287.64	87.89
287.855	55.12
288.07	-34.99
288.285	46.93
288.5	63.32
288.715	85.84
288.93	-0.17
289.145	5.97
289.36	63.32
289.575	-12.46
289.79	167.76
290.004	57.17
290.219	85.84
290.434	59.22
290.649	38.74
290.864	55.12
291.079	26.45
291.294	75.6
291.509	71.51
291.724	8.02
291.938	104.28
292.153	73.56
292.368	44.88
292.583	18.26
292.798	14.17
293.012	18.26
293.227	55.12
293.442	57.17
293.657	8.02
293.871	94.04
294.086	102.23
294.301	83.8
294.516	24.4
294.73	116.56
294.945	-37.03
295.16	30.55
295.374	46.93
295.589	20.31
295.804	-22.7
296.018	85.84
296.233	-32.94
296.447	34.64
296.662	71.51
296.877	51.03
297.091	8.02
297.306	48.98
297.52	55.12
297.735	30.55
297.949	75.6
298.164	38.74
298.378	46.93
298.593	-2.22
298.807	-22.7
299.022	51.03
299.236	20.31
299.451	71.51
299.665	48.98
299.88	61.27
300.094	-59.56
300.309	51.03
300.523	112.47
300.737	69.46
300.952	83.8
301.166	36.69
301.381	18.26
301.595	22.36
301.809	10.07
302.024	-16.55
302.238	55.12
302.452	135
302.667	-14.51
302.881	81.75
303.095	48.98
303.309	34.64
303.524	22.36
303.738	40.79
303.952	-22.7
304.166	22.36
304.381	-26.79
304.595	73.56
304.809	-16.55
305.023	30.55
305.237	16.21
305.452	63.32
305.666	12.12
305.88	14.17
306.094	42.84
306.308	120.66
306.522	22.36
306.736	24.4
306.95	44.88
307.164	73.56
307.379	53.08
307.593	63.32
307.807	40.79
308.021	71.51
308.235	79.7
308.449	14.17
308.663	10.07
308.877	65.36
309.091	75.6
309.305	71.51
309.519	-26.79
309.733	14.17
309.947	-43.18
310.161	12.12
310.374	104.28
310.588	104.28
310.802	38.74
311.016	57.17
311.23	40.79
311.444	-26.79
311.658	-57.51
311.872	51.03
312.085	124.76
312.299	38.74
312.513	79.7
312.727	85.84
312.941	89.94
313.154	57.17
313.368	10.07
313.582	53.08
313.796	71.51
314.009	59.22
314.223	22.36
314.437	61.27
314.651	14.17
314.864	53.08
315.078	32.6
315.292	67.41
315.505	-4.27
315.719	51.03
315.933	83.8
316.146	34.64
316.36	14.17
316.573	63.32
316.787	10.07
317.001	16.21
317.214	-26.79
317.428	48.98
317.641	104.28
317.855	34.64
318.068	22.36
318.282	24.4
318.495	89.94
318.709	42.84
318.922	10.07
319.136	114.52
319.349	110.42
319.563	18.26
319.776	3.93
319.99	-26.79
320.203	8.02
320.417	10.07
320.63	65.36
320.843	141.14
321.057	24.4
321.27	-4.27
321.483	-30.89
321.697	89.94
321.91	79.7
322.124	91.99
322.337	61.27
322.55	14.17
322.763	26.45
322.977	114.52
323.19	-22.7
323.403	40.79
323.617	87.89
323.83	73.56
324.043	8.02
324.256	73.56
324.469	-10.41
324.683	42.84
324.896	36.69
325.109	67.41
325.322	34.64
325.535	18.26
325.748	20.31
325.962	100.18
326.175	110.42
326.388	104.28
326.601	57.17
326.814	53.08
327.027	96.08
327.24	44.88
327.453	-41.13
327.666	10.07
327.879	71.51
328.092	83.8
328.305	57.17
328.518	3.93
328.731	67.41
328.944	36.69
329.157	61.27
329.37	14.17
329.583	71.51
329.796	137.04
330.009	12.12
330.222	-20.65
330.435	102.23
330.648	83.8
330.861	32.6
331.073	94.04
331.286	32.6
331.499	83.8
331.712	-39.08
331.925	30.55
332.138	149.33
332.35	28.5
332.563	-14.51
332.776	61.27
332.989	73.56
333.202	16.21
333.414	16.21
333.627	51.03
333.84	73.56
334.053	108.37
334.265	-22.7
334.478	-0.17
334.691	48.98
334.903	83.8
335.116	28.5
335.329	55.12
335.541	-22.7
335.754	128.85
335.966	-6.31
336.179	42.84
336.392	65.36
336.604	34.64
336.817	53.08
337.029	32.6
337.242	18.26
337.454	44.88
337.667	85.84
337.88	118.61
338.092	81.75
338.305	8.02
338.517	-45.23
338.729	104.28
338.942	5.97
339.154	10.07
339.367	26.45
339.579	-10.41
339.792	96.08
340.004	83.8
340.217	34.64
340.429	3.93
340.641	3.93
340.854	-47.27
341.066	75.6
341.278	36.69
341.491	48.98
341.703	57.17
341.915	18.26
342.128	59.22
342.34	32.6
342.552	8.02
342.764	63.32
342.977	91.99
343.189	75.6
343.401	44.88
343.613	-0.17
343.826	34.64
344.038	42.84
344.25	75.6
344.462	34.64
344.674	22.36
344.886	59.22
345.099	44.88
345.311	124.76
345.523	1.88
345.735	30.55
345.947	20.31
346.159	20.31
346.371	-51.37
346.583	8.02
346.795	36.69
347.007	63.32
347.219	38.74
347.431	87.89
347.643	73.56
347.855	-16.55
348.067	-26.79
348.279	48.98
348.491	73.56
348.703	73.56
348.915	55.12
349.127	32.6
349.339	-2.22
349.551	1.88
349.763	44.88
349.975	-51.37
350.187	83.8
350.399	110.42
350.61	67.41
350.822	26.45
351.034	114.52
351.246	8.02
351.458	46.93
351.669	32.6
351.881	128.85
352.093	98.13
352.305	34.64
352.517	34.64
352.728	96.08
352.94	-47.27
353.152	57.17
353.363	69.46
353.575	118.61
353.787	87.89
353.999	55.12
354.21	32.6
354.422	8.02
354.633	22.36
354.845	85.84
355.057	65.36
355.268	44.88
355.48	51.03
355.692	69.46
355.903	116.56
356.115	44.88
356.326	-2.22
356.538	32.6
356.749	79.7
356.961	8.02
357.172	100.18
357.384	79.7
357.595	79.7
357.807	102.23
358.018	53.08
358.23	14.17
358.441	57.17
358.653	110.42
358.864	55.12
359.075	-12.46
359.287	-14.51
359.498	42.84
359.709	5.97
359.921	-18.6
360.132	85.84
360.344	8.02
360.555	22.36
360.766	100.18
360.977	20.31
361.189	73.56
361.4	81.75
361.611	87.89
361.823	-10.41
362.034	102.23
362.245	57.17
362.456	28.5
362.667	59.22
362.879	75.6
363.09	32.6
363.301	-0.17
363.512	79.7
363.723	10.07
363.935	89.94
364.146	10.07
364.357	116.56
364.568	28.5
364.779	24.4
364.99	-8.36
365.201	85.84
365.412	71.51
365.623	57.17
365.834	55.12
366.045	5.97
366.256	34.64
366.467	128.85
366.678	-80.04
366.889	16.21
367.1	98.13
367.311	114.52
367.522	46.93
367.733	55.12
367.944	55.12
368.155	53.08
368.366	16.21
368.577	63.32
368.788	12.12
368.999	12.12
369.209	87.89
369.42	71.51
369.631	77.65
369.842	91.99
370.053	18.26
370.264	81.75
370.474	-6.31
370.685	108.37
370.896	14.17
371.107	89.94
371.317	61.27
371.528	61.27
371.739	63.32
371.95	77.65
372.16	108.37
372.371	26.45
372.582	3.93
372.792	14.17
373.003	22.36
373.214	59.22
373.424	46.93
373.635	-28.84
373.846	3.93
374.056	114.52
374.267	5.97
374.477	81.75
374.688	100.18
374.898	40.79
375.109	24.4
375.319	30.55
375.53	122.71
375.74	98.13
375.951	59.22
376.161	-14.51
376.372	98.13
376.582	12.12
376.793	38.74
377.003	28.5
377.214	-18.6
377.424	-2.22
377.635	55.12
377.845	28.5
378.055	53.08
378.266	-51.37
378.476	71.51
378.686	98.13
378.897	46.93
379.107	124.76
379.317	77.65
379.528	116.56
379.738	12.12
379.948	46.93
380.158	96.08
380.369	59.22
380.579	36.69
380.789	73.56
380.999	22.36
381.21	87.89
381.42	96.08
381.63	81.75
381.84	18.26
382.05	42.84
382.261	20.31
382.471	53.08
382.681	71.51
382.891	71.51
383.101	36.69
383.311	98.13
383.521	12.12
383.731	67.41
383.941	79.7
384.151	-20.65
384.361	24.4
384.571	28.5
384.781	108.37
384.991	102.23
385.201	124.76
385.411	126.8
385.621	91.99
385.831	59.22
386.041	22.36
386.251	-12.46
386.461	120.66
386.671	73.56
386.881	96.08
387.091	96.08
387.301	120.66
387.511	22.36
387.72	112.47
387.93	22.36
388.14	-8.36
388.35	-12.46
388.56	73.56
388.769	102.23
388.979	51.03
389.189	81.75
389.399	57.17
389.609	100.18
389.818	120.66
390.028	116.56
390.238	100.18
390.447	61.27
390.657	122.71
390.867	94.04
391.076	-4.27
391.286	69.46
391.496	116.56
391.705	30.55
391.915	77.65
392.125	69.46
392.334	59.22
392.544	108.37
392.753	26.45
392.963	94.04
393.172	100.18
393.382	51.03
393.591	110.42
393.801	143.19
394.01	44.88
394.22	100.18
394.429	118.61
394.639	69.46
394.848	178
395.058	42.84
395.267	188.24
395.477	71.51
395.686	163.67
395.895	77.65
396.105	128.85
396.314	67.41
396.524	46.93
396.733	51.03
396.942	77.65
397.152	118.61
397.361	100.18
397.57	87.89
397.78	116.56
397.989	184.15
398.198	180.05
398.407	186.19
398.617	110.42
398.826	120.66
399.035	161.62
399.244	120.66
399.453	98.13
399.663	77.65
399.872	122.71
400.081	79.7
400.29	157.52
400.499	85.84
400.708	153.43
400.917	141.14
401.127	46.93
401.336	91.99
401.545	145.24
401.754	104.28
401.963	124.76
402.172	24.4
402.381	87.89
402.59	61.27
402.799	89.94
403.008	51.03
403.217	135
403.426	96.08
403.635	182.1
403.844	114.52
404.053	153.43
404.262	141.14
404.471	135
404.68	169.81
404.888	114.52
405.097	151.38
405.306	153.43
405.515	135
405.724	132.95
405.933	180.05
406.142	126.8
406.35	153.43
406.559	165.71
406.768	161.62
406.977	239.44
407.185	128.85
407.394	171.86
407.603	100.18
407.812	190.29
408.02	284.5
408.229	126.8
408.438	216.91
408.646	147.28
408.855	239.44
409.064	259.92
409.272	124.76
409.481	304.98
409.69	229.2
409.898	245.59
410.107	243.54
410.315	350.03
410.524	288.59
410.733	323.41
410.941	315.22
411.15	307.02
411.358	321.36
411.567	374.61
411.775	266.07
411.984	374.61
412.192	438.09
412.401	448.33
412.609	419.66
412.818	407.38
413.026	438.09
413.234	431.95
413.443	556.88
413.651	434
413.86	528.21
414.068	530.25
414.276	499.53
414.485	558.92
414.693	583.5
414.901	655.18
415.11	550.73
415.318	583.5
415.526	661.32
415.734	702.28
415.943	661.32
416.151	712.52
416.359	724.81
416.567	751.43
416.776	755.53
416.984	880.46
417.192	812.87
417.4	823.11
417.608	829.26
417.817	902.98
418.025	898.89
418.233	993.09
418.441	976.71
418.649	1023.81
418.857	1083.2
419.065	1136.45
419.273	1075.01
419.481	1167.17
419.689	1218.37
419.897	1263.43
420.105	1290.05
420.313	1322.82
420.521	1398.59
420.729	1419.07
420.937	1427.26
421.145	1414.98
421.353	1564.48
421.561	1599.29
421.769	1728.31
421.977	1756.99
422.185	1777.47
422.393	1869.62
422.601	1978.17
422.809	1933.11
423.017	1896.25
423.224	2180.92
423.432	2039.61
423.64	2047.8
423.848	2354.99
424.056	2219.83
424.263	2332.47
424.471	2426.67
424.679	2484.02
424.887	2592.56
425.094	2649.9
425.302	2635.57
425.51	2813.74
425.718	2909.99
425.925	2930.47
426.133	3028.78
426.341	3120.93
426.548	3354.4
426.756	3260.2
426.964	3303.2
427.171	3421.99
427.379	3639.07
427.586	3641.12
427.794	3741.47
428.001	3886.87
428.209	4054.81
428.417	4116.25
428.624	4441.87
428.832	4521.74
429.039	4470.55
429.247	4460.31
429.454	4847.37
429.662	4927.24
429.869	4759.31
430.076	5056.26
430.284	4912.91
430.491	5129.99
430.699	5414.66
430.906	5353.22
431.114	5637.89
431.321	5709.57
431.528	5924.6
431.736	6176.5
431.943	6448.88
432.15	6444.79
432.358	6373.11
432.565	6792.94
432.772	6653.68
432.979	7161.58
433.187	7388.9
433.394	7259.88
433.601	7661.28
433.808	7706.34
434.016	7644.9
434.223	8109.79
434.43	8658.64
434.637	8369.88
434.844	8994.51
435.052	8984.27
435.259	8943.31
435.466	9058
435.673	9049.8
435.88	9649.86
436.087	9987.77
436.294	10079.93
436.501	9987.77
436.708	10051.26
436.915	10397.37
437.122	10874.54
437.329	10618.55
437.537	11339.43
437.743	11361.96
437.95	11271.85
438.157	11959.97
438.364	12097.18
438.571	12019.36
438.778	12297.88
438.985	13629.06
439.192	12885.65
439.399	13395.59
439.606	12918.42
439.813	13788.8
440.02	14558.84
440.227	14581.37
440.433	14288.51
440.64	14853.75
440.847	14689.91
441.054	15181.42
441.261	15978.08
441.467	15656.55
441.674	16291.42
441.881	16768.6
442.088	16750.17
442.294	16649.82
442.501	16877.14
442.708	17239.63
442.914	17733.19
443.121	18665.02
443.328	18300.48
443.534	19838.5
443.741	19105.33
443.948	18763.32
444.154	20190.75
444.361	19871.27
444.568	20102.69
444.774	19983.91
444.981	20387.36
445.187	20891.16
445.394	21964.29
445.6	21368.34
445.807	23780.84
446.013	22816.25
446.22	23084.53
446.426	24047.08
446.633	24417.76
446.839	25177.56
447.046	23936.49
447.252	25548.24
447.459	25669.07
447.665	25142.74
447.871	26310.08
448.078	27246.01
448.284	26559.94
448.491	27051.45
448.697	28378.53
448.903	28675.49
449.11	28538.27
449.316	28032.43
449.522	28763.55
449.728	29379.99
449.935	29576.59
450.141	29666.7
450.347	30299.53
450.553	29433.24
450.76	29744.53
450.966	30825.85
451.172	30524.8
451.378	31188.35
451.584	30827.9
451.791	31518.07
451.997	31733.11
452.203	31896.94
452.409	32003.44
452.615	32030.06
452.821	30547.33
453.027	30602.63
453.233	32044.4
453.44	30608.77
453.646	31014.27
453.852	31331.7
454.058	31597.94
454.264	31094.14
454.47	31665.52
454.676	30858.62
454.882	31948.14
455.088	28769.69
455.294	29277.59
455.5	29834.64
455.705	30033.29
455.911	28683.68
456.117	28591.52
456.323	27753.9
456.529	26781.12
456.735	27571.63
456.941	26764.73
457.147	26756.54
457.352	26027.46
457.558	25775.56
457.764	25564.62
457.97	24989.14
458.176	24784.35
458.381	24978.9
458.587	23389.68
458.793	23346.67
458.999	22146.56
459.204	23686.64
459.41	23129.59
459.616	21798.41
459.821	21736.97
460.027	21634.57
460.233	21231.12
460.438	20190.75
460.644	20198.95
460.85	19449.39
461.055	19205.68
461.261	18882.1
461.466	17804.87
461.672	16922.2
461.878	18302.53
462.083	16942.67
462.289	16688.73
462.494	16264.8
462.7	15836.77
462.905	15535.72
463.111	16105.06
463.316	16045.66
463.522	15750.76
463.727	15877.73
463.932	15533.67
464.138	15466.09
464.343	15523.43
464.549	15031.92
464.754	15650.41
464.959	15537.77
465.165	15173.23
465.37	14915.19
465.575	14237.31
465.781	14978.67
465.986	14974.58
466.191	14429.82
466.397	14325.37
466.602	13362.83
466.807	13897.35
467.012	13708.93
467.218	14014.08
467.423	13688.45
467.628	13743.75
467.833	14485.11
