Data from USB4F104151__90__11-52-58-018.txt Node

Date: Fri Mar 14 11:52:58 EDT 2025
User: louis
Spectrometer: USB4F10415
Trigger mode: 4
Integration Time (sec): 2.000000E-2
Scans to average: 1
Electric dark correction enabled: true
Nonlinearity correction enabled: false
Boxcar width: 0
XAxis mode: Wavelengths
Number of Pixels in Spectrum: 3648
>>>>>Begin Spectral Data<<<<<
178.204	-14.68
178.424	-14.68
178.644	-14.68
178.864	-108.88
179.084	-57.68
179.304	-20.82
179.524	32.43
179.744	-33.11
179.964	13.99
180.184	-6.49
180.404	34.47
180.624	3.75
180.844	67.24
181.064	-51.54
181.283	-12.63
181.503	-22.87
181.723	-4.44
181.943	-16.73
182.163	83.63
182.383	28.33
182.602	116.39
182.822	95.91
183.042	57
183.262	36.52
183.482	11.95
183.701	-24.92
183.921	7.85
184.141	-2.39
184.361	93.87
184.58	13.99
184.8	7.85
185.02	50.86
185.239	61.1
185.459	134.82
185.679	73.39
185.898	65.19
186.118	42.67
186.338	46.76
186.557	30.38
186.777	-2.39
186.997	-31.06
187.216	42.67
187.436	128.68
187.655	42.67
187.875	26.28
188.095	73.39
188.314	-8.53
188.534	75.43
188.753	-37.2
188.973	38.57
189.192	48.81
189.412	44.71
189.631	73.39
189.851	36.52
190.07	42.67
190.29	-12.63
190.509	122.54
190.729	120.49
190.948	9.9
191.168	77.48
191.387	50.86
191.607	106.15
191.826	77.48
192.045	20.14
192.265	18.09
192.484	132.78
192.704	7.85
192.923	42.67
193.142	85.67
193.362	24.23
193.581	126.63
193.8	11.95
194.02	57
194.239	38.57
194.458	79.53
194.678	114.34
194.897	-29.01
195.116	-18.77
195.335	20.14
195.555	97.96
195.774	26.28
195.993	-12.63
196.212	73.39
196.432	85.67
196.651	40.62
196.87	40.62
197.089	44.71
197.308	57
197.528	95.91
197.747	32.43
197.966	28.33
198.185	73.39
198.404	118.44
198.623	52.91
198.842	91.82
199.062	106.15
199.281	155.3
199.5	69.29
199.719	9.9
199.938	61.1
200.157	59.05
200.376	48.81
200.595	7.85
200.814	87.72
201.033	57
201.252	79.53
201.471	22.19
201.69	28.33
201.909	42.67
202.128	61.1
202.347	73.39
202.566	67.24
202.785	65.19
203.004	-4.44
203.223	79.53
203.442	112.3
203.661	65.19
203.879	59.05
204.098	38.57
204.317	13.99
204.536	22.19
204.755	128.68
204.974	44.71
205.193	42.67
205.411	104.11
205.63	44.71
205.849	57
206.068	20.14
206.287	85.67
206.505	52.91
206.724	69.29
206.943	11.95
207.162	13.99
207.381	7.85
207.599	32.43
207.818	73.39
208.037	34.47
208.255	102.06
208.474	89.77
208.693	16.04
208.911	124.58
209.13	155.3
209.349	79.53
209.567	71.34
209.786	36.52
210.005	36.52
210.223	34.47
210.442	28.33
210.661	85.67
210.879	38.57
211.098	28.33
211.316	7.85
211.535	108.2
211.753	1.71
211.972	57
212.191	167.59
212.409	30.38
212.628	42.67
212.846	73.39
213.065	59.05
213.283	85.67
213.502	20.14
213.72	34.47
213.938	44.71
214.157	22.19
214.375	73.39
214.594	30.38
214.812	38.57
215.031	52.91
215.249	26.28
215.467	13.99
215.686	75.43
215.904	57
216.122	-33.11
216.341	-8.53
216.559	11.95
216.778	130.73
216.996	59.05
217.214	13.99
217.432	48.81
217.651	48.81
217.869	11.95
218.087	54.95
218.306	18.09
218.524	77.48
218.742	40.62
218.96	52.91
219.179	67.24
219.397	54.95
219.615	77.48
219.833	71.34
220.051	73.39
220.27	36.52
220.488	28.33
220.706	128.68
220.924	5.8
221.142	138.92
221.36	20.14
221.578	28.33
221.796	108.2
222.015	3.75
222.233	83.63
222.451	69.29
222.669	5.8
222.887	75.43
223.105	46.76
223.323	26.28
223.541	-4.44
223.759	44.71
223.977	67.24
224.195	108.2
224.413	44.71
224.631	5.8
224.849	36.52
225.067	40.62
225.285	100.01
225.503	5.8
225.721	20.14
225.939	59.05
226.157	50.86
226.375	165.54
226.592	52.91
226.81	73.39
227.028	69.29
227.246	106.15
227.464	77.48
227.682	13.99
227.9	67.24
228.117	65.19
228.335	79.53
228.553	50.86
228.771	34.47
228.989	65.19
229.206	87.72
229.424	22.19
229.642	34.47
229.86	54.95
230.077	83.63
230.295	50.86
230.513	46.76
230.731	9.9
230.948	69.29
231.166	85.67
231.384	7.85
231.601	95.91
231.819	11.95
232.037	61.1
232.254	-33.11
232.472	40.62
232.689	42.67
232.907	50.86
233.125	1.71
233.342	83.63
233.56	65.19
233.777	30.38
233.995	42.67
234.213	44.71
234.43	69.29
234.648	40.62
234.865	71.34
235.083	87.72
235.3	63.15
235.518	28.33
235.735	52.91
235.953	32.43
236.17	20.14
236.388	79.53
236.605	40.62
236.822	54.95
237.04	-2.39
237.257	59.05
237.475	57
237.692	54.95
237.909	81.58
238.127	63.15
238.344	54.95
238.562	38.57
238.779	-41.3
238.996	63.15
239.214	52.91
239.431	-4.44
239.648	26.28
239.865	67.24
240.083	52.91
240.3	54.95
240.517	40.62
240.735	16.04
240.952	102.06
241.169	69.29
241.386	38.57
241.603	36.52
241.821	81.58
242.038	50.86
242.255	87.72
242.472	73.39
242.689	20.14
242.907	57
243.124	30.38
243.341	71.34
243.558	-24.92
243.775	-8.53
243.992	42.67
244.209	26.28
244.426	110.25
244.643	20.14
244.86	36.52
245.078	48.81
245.295	89.77
245.512	22.19
245.729	-16.73
245.946	85.67
246.163	102.06
246.38	97.96
246.597	5.8
246.814	112.3
247.031	36.52
247.248	106.15
247.464	69.29
247.681	18.09
247.898	24.23
248.115	50.86
248.332	34.47
248.549	50.86
248.766	-14.68
248.983	42.67
249.2	73.39
249.417	54.95
249.633	18.09
249.85	22.19
250.067	95.91
250.284	85.67
250.501	59.05
250.717	34.47
250.934	48.81
251.151	5.8
251.368	54.95
251.585	95.91
251.801	30.38
252.018	54.95
252.235	20.14
252.451	13.99
252.668	85.67
252.885	38.57
253.102	118.44
253.318	44.71
253.535	85.67
253.752	79.53
253.968	22.19
254.185	32.43
254.401	24.23
254.618	100.01
254.835	11.95
255.051	118.44
255.268	-16.73
255.484	93.87
255.701	50.86
255.917	13.99
256.134	-31.06
256.351	102.06
256.567	61.1
256.784	38.57
257	13.99
257.217	89.77
257.433	89.77
257.65	44.71
257.866	89.77
258.082	-20.82
258.299	67.24
258.515	18.09
258.732	44.71
258.948	40.62
259.165	81.58
259.381	-29.01
259.597	69.29
259.814	65.19
260.03	52.91
260.246	100.01
260.463	-20.82
260.679	95.91
260.895	50.86
261.112	114.34
261.328	46.76
261.544	83.63
261.761	75.43
261.977	73.39
262.193	32.43
262.409	112.3
262.626	93.87
262.842	95.91
263.058	-20.82
263.274	57
263.49	26.28
263.707	110.25
263.923	75.43
264.139	52.91
264.355	97.96
264.571	102.06
264.787	18.09
265.004	79.53
265.22	-2.39
265.436	9.9
265.652	128.68
265.868	81.58
266.084	26.28
266.3	87.72
266.516	-35.16
266.732	75.43
266.948	67.24
267.164	22.19
267.38	48.81
267.596	5.8
267.812	52.91
268.028	38.57
268.244	3.75
268.46	89.77
268.676	83.63
268.892	67.24
269.108	26.28
269.324	3.75
269.54	24.23
269.756	59.05
269.972	46.76
270.188	16.04
270.403	20.14
270.619	85.67
270.835	59.05
271.051	16.04
271.267	28.33
271.483	102.06
271.698	32.43
271.914	71.34
272.13	87.72
272.346	50.86
272.562	16.04
272.777	97.96
272.993	81.58
273.209	16.04
273.425	40.62
273.64	13.99
273.856	63.15
274.072	71.34
274.287	22.19
274.503	67.24
274.719	102.06
274.934	-24.92
275.15	52.91
275.366	42.67
275.581	-14.68
275.797	67.24
276.012	59.05
276.228	-16.73
276.444	28.33
276.659	40.62
276.875	44.71
277.09	24.23
277.306	79.53
277.521	-26.96
277.737	16.04
277.952	71.34
278.168	81.58
278.383	54.95
278.599	57
278.814	40.62
279.03	20.14
279.245	57
279.461	77.48
279.676	50.86
279.892	28.33
280.107	69.29
280.322	7.85
280.538	126.63
280.753	71.34
280.969	24.23
281.184	52.91
281.399	97.96
281.615	-8.53
281.83	87.72
282.045	-33.11
282.26	73.39
282.476	54.95
282.691	38.57
282.906	155.3
283.122	9.9
283.337	126.63
283.552	73.39
283.767	52.91
283.983	67.24
284.198	30.38
284.413	36.52
284.628	-22.87
284.843	67.24
285.058	38.57
285.274	44.71
285.489	54.95
285.704	85.67
285.919	52.91
286.134	-2.39
286.349	11.95
286.564	65.19
286.779	77.48
286.995	18.09
287.21	87.72
287.425	71.34
287.64	100.01
287.855	100.01
288.07	46.76
288.285	102.06
288.5	71.34
288.715	69.29
288.93	20.14
289.145	63.15
289.36	1.71
289.575	52.91
289.79	46.76
290.004	13.99
290.219	71.34
290.434	34.47
290.649	22.19
290.864	57
291.079	59.05
291.294	106.15
291.509	44.71
291.724	130.73
291.938	20.14
292.153	97.96
292.368	54.95
292.583	54.95
292.798	11.95
293.012	112.3
293.227	20.14
293.442	110.25
293.657	79.53
293.871	50.86
294.086	67.24
294.301	79.53
294.516	36.52
294.73	91.82
294.945	9.9
295.16	24.23
295.374	100.01
295.589	30.38
295.804	57
296.018	-14.68
296.233	32.43
296.447	52.91
296.662	1.71
296.877	65.19
297.091	-8.53
297.306	79.53
297.52	13.99
297.735	-0.34
297.949	134.82
298.164	118.44
298.378	71.34
298.593	18.09
298.807	65.19
299.022	18.09
299.236	67.24
299.451	36.52
299.665	32.43
299.88	65.19
300.094	97.96
300.309	59.05
300.523	32.43
300.737	77.48
300.952	-33.11
301.166	106.15
301.381	65.19
301.595	9.9
301.809	57
302.024	44.71
302.238	-6.49
302.452	52.91
302.667	-2.39
302.881	89.77
303.095	59.05
303.309	52.91
303.524	100.01
303.738	-22.87
303.952	61.1
304.166	40.62
304.381	50.86
304.595	38.57
304.809	-12.63
305.023	18.09
305.237	-26.96
305.452	48.81
305.666	11.95
305.88	38.57
306.094	73.39
306.308	79.53
306.522	48.81
306.736	20.14
306.95	87.72
307.164	93.87
307.379	79.53
307.593	104.11
307.807	63.15
308.021	48.81
308.235	32.43
308.449	20.14
308.663	52.91
308.877	106.15
309.091	48.81
309.305	91.82
309.519	-0.34
309.733	100.01
309.947	104.11
310.161	48.81
310.374	40.62
310.588	110.25
310.802	5.8
311.016	59.05
311.23	11.95
311.444	69.29
311.658	13.99
311.872	87.72
312.085	81.58
312.299	124.58
312.513	79.53
312.727	118.44
312.941	91.82
313.154	32.43
313.368	52.91
313.582	61.1
313.796	18.09
314.009	63.15
314.223	44.71
314.437	75.43
314.651	85.67
314.864	89.77
315.078	16.04
315.292	57
315.505	44.71
315.719	118.44
315.933	73.39
316.146	73.39
316.36	18.09
316.573	112.3
316.787	44.71
317.001	73.39
317.214	5.8
317.428	89.77
317.641	73.39
317.855	44.71
318.068	85.67
318.282	106.15
318.495	104.11
318.709	116.39
318.922	18.09
319.136	73.39
319.349	50.86
319.563	116.39
319.776	57
319.99	38.57
320.203	67.24
320.417	52.91
320.63	65.19
320.843	122.54
321.057	54.95
321.27	89.77
321.483	95.91
321.697	77.48
321.91	34.47
322.124	100.01
322.337	38.57
322.55	79.53
322.763	116.39
322.977	50.86
323.19	73.39
323.403	44.71
323.617	108.2
323.83	57
324.043	91.82
324.256	73.39
324.469	34.47
324.683	122.54
324.896	36.52
325.109	52.91
325.322	61.1
325.535	65.19
325.748	126.63
325.962	48.81
326.175	75.43
326.388	13.99
326.601	79.53
326.814	30.38
327.027	126.63
327.24	57
327.453	87.72
327.666	57
327.879	59.05
328.092	57
328.305	42.67
328.518	61.1
328.731	73.39
328.944	26.28
329.157	63.15
329.37	57
329.583	93.87
329.796	65.19
330.009	89.77
330.222	83.63
330.435	36.52
330.648	50.86
330.861	63.15
331.073	120.49
331.286	52.91
331.499	38.57
331.712	-29.01
331.925	63.15
332.138	52.91
332.35	89.77
332.563	-4.44
332.776	181.93
332.989	28.33
333.202	106.15
333.414	24.23
333.627	22.19
333.84	57
334.053	44.71
334.265	36.52
334.478	75.43
334.691	134.82
334.903	97.96
335.116	52.91
335.329	-22.87
335.541	13.99
335.754	89.77
335.966	5.8
336.179	93.87
336.392	87.72
336.604	48.81
336.817	140.97
337.029	57
337.242	59.05
337.454	83.63
337.667	48.81
337.88	95.91
338.092	22.19
338.305	104.11
338.517	11.95
338.729	13.99
338.942	120.49
339.154	40.62
339.367	63.15
339.579	50.86
339.792	44.71
340.004	85.67
340.217	13.99
340.429	44.71
340.641	48.81
340.854	11.95
341.066	61.1
341.278	34.47
341.491	120.49
341.703	26.28
341.915	26.28
342.128	147.11
342.34	46.76
342.552	11.95
342.764	75.43
342.977	110.25
343.189	100.01
343.401	118.44
343.613	63.15
343.826	87.72
344.038	91.82
344.25	85.67
344.462	50.86
344.674	108.2
344.886	79.53
345.099	75.43
345.311	18.09
345.523	112.3
345.735	61.1
345.947	38.57
346.159	61.1
346.371	20.14
346.583	52.91
346.795	130.73
347.007	85.67
347.219	61.1
347.431	57
347.643	93.87
347.855	63.15
348.067	140.97
348.279	57
348.491	136.87
348.703	61.1
348.915	54.95
349.127	71.34
349.339	57
349.551	65.19
349.763	-22.87
349.975	20.14
350.187	52.91
350.399	100.01
350.61	128.68
350.822	69.29
351.034	36.52
351.246	20.14
351.458	155.3
351.669	106.15
351.881	87.72
352.093	67.24
352.305	54.95
352.517	122.54
352.728	100.01
352.94	54.95
353.152	100.01
353.363	40.62
353.575	59.05
353.787	97.96
353.999	87.72
354.21	79.53
354.422	102.06
354.633	48.81
354.845	93.87
355.057	67.24
355.268	67.24
355.48	75.43
355.692	40.62
355.903	38.57
356.115	79.53
356.326	57
356.538	83.63
356.749	36.52
356.961	46.76
357.172	75.43
357.384	95.91
357.595	120.49
357.807	44.71
358.018	61.1
358.23	83.63
358.441	24.23
358.653	71.34
358.864	59.05
359.075	69.29
359.287	95.91
359.498	69.29
359.709	124.58
359.921	38.57
360.132	81.58
360.344	50.86
360.555	13.99
360.766	11.95
360.977	-4.44
361.189	57
361.4	161.45
361.611	126.63
361.823	40.62
362.034	61.1
362.245	57
362.456	44.71
362.667	67.24
362.879	-22.87
363.09	52.91
363.301	122.54
363.512	57
363.723	65.19
363.935	91.82
364.146	-14.68
364.357	116.39
364.568	61.1
364.779	77.48
364.99	67.24
365.201	48.81
365.412	48.81
365.623	59.05
365.834	40.62
366.045	-10.58
366.256	118.44
366.467	61.1
366.678	50.86
366.889	61.1
367.1	75.43
367.311	83.63
367.522	75.43
367.733	161.45
367.944	108.2
368.155	112.3
368.366	110.25
368.577	50.86
368.788	110.25
368.999	54.95
369.209	34.47
369.42	89.77
369.631	179.88
369.842	57
370.053	46.76
370.264	124.58
370.474	1.71
370.685	110.25
370.896	163.5
371.107	122.54
371.317	1.71
371.528	-29.01
371.739	65.19
371.95	61.1
372.16	77.48
372.371	42.67
372.582	54.95
372.792	77.48
373.003	85.67
373.214	54.95
373.424	155.3
373.635	28.33
373.846	102.06
374.056	75.43
374.267	67.24
374.477	75.43
374.688	30.38
374.898	28.33
375.109	22.19
375.319	177.83
375.53	91.82
375.74	145.06
375.951	87.72
376.161	79.53
376.372	13.99
376.582	136.87
376.793	118.44
377.003	91.82
377.214	91.82
377.424	30.38
377.635	112.3
377.845	59.05
378.055	147.11
378.266	-0.34
378.476	52.91
378.686	32.43
378.897	83.63
379.107	128.68
379.317	73.39
379.528	22.19
379.738	87.72
379.948	73.39
380.158	110.25
380.369	-14.68
380.579	54.95
380.789	95.91
380.999	116.39
381.21	73.39
381.42	130.73
381.63	54.95
381.84	46.76
382.05	79.53
382.261	57
382.471	161.45
382.681	61.1
382.891	81.58
383.101	116.39
383.311	18.09
383.521	52.91
383.731	67.24
383.941	120.49
384.151	52.91
384.361	93.87
384.571	91.82
384.781	18.09
384.991	110.25
385.201	67.24
385.411	71.34
385.621	61.1
385.831	24.23
386.041	57
386.251	79.53
386.461	36.52
386.671	97.96
386.881	112.3
387.091	54.95
387.301	40.62
387.511	69.29
387.72	42.67
387.93	73.39
388.14	30.38
388.35	48.81
388.56	104.11
388.769	59.05
388.979	118.44
389.189	118.44
389.399	61.1
389.609	75.43
389.818	128.68
390.028	44.71
390.238	46.76
390.447	106.15
390.657	108.2
390.867	54.95
391.076	71.34
391.286	83.63
391.496	67.24
391.705	9.9
391.915	116.39
392.125	112.3
392.334	95.91
392.544	100.01
392.753	100.01
392.963	132.78
393.172	89.77
393.382	54.95
393.591	122.54
393.801	54.95
394.01	165.54
394.22	91.82
394.429	108.2
394.639	42.67
394.848	112.3
395.058	108.2
395.267	87.72
395.477	126.63
395.686	108.2
395.895	61.1
396.105	110.25
396.314	147.11
396.524	79.53
396.733	42.67
396.942	77.48
397.152	91.82
397.361	104.11
397.57	134.82
397.78	52.91
397.989	151.21
398.198	196.26
398.407	83.63
398.617	138.92
398.826	93.87
399.035	132.78
399.244	77.48
399.453	136.87
399.663	132.78
399.872	95.91
400.081	54.95
400.29	136.87
400.499	145.06
400.708	122.54
400.917	145.06
401.127	104.11
401.336	157.35
401.545	218.79
401.754	126.63
401.963	167.59
402.172	83.63
402.381	116.39
402.59	38.57
402.799	124.58
403.008	110.25
403.217	124.58
403.426	190.12
403.635	118.44
403.844	106.15
404.053	173.74
404.262	173.74
404.471	188.07
404.68	153.26
404.888	157.35
405.097	143.02
405.306	87.72
405.515	198.31
405.724	292.52
405.933	120.49
406.142	198.31
406.35	192.17
406.559	216.74
406.768	159.4
406.977	218.79
407.185	173.74
407.394	259.75
407.603	200.36
407.812	188.07
408.02	304.81
408.229	247.46
408.438	276.13
408.646	229.03
408.855	257.7
409.064	274.09
409.272	198.31
409.481	233.13
409.69	267.94
409.898	292.52
410.107	235.18
410.315	321.19
410.524	306.85
410.733	335.53
410.941	347.81
411.15	374.44
411.358	319.14
411.567	380.58
411.775	329.38
411.984	403.11
412.192	396.96
412.401	388.77
412.609	476.84
412.818	411.3
413.026	448.16
413.234	435.88
413.443	454.31
413.651	470.69
413.86	536.23
414.068	521.89
414.276	616.1
414.485	550.56
414.693	523.94
414.901	581.28
415.11	607.91
415.318	671.39
415.526	657.06
415.734	712.35
415.943	609.95
416.151	814.75
416.359	753.31
416.567	669.34
416.776	796.32
416.984	843.42
417.192	923.29
417.4	894.62
417.608	913.05
417.817	933.53
418.025	958.11
418.233	999.07
418.441	1037.98
418.649	1001.12
418.857	1212.06
419.065	1087.13
419.273	1111.71
419.481	1117.85
419.689	1310.36
419.897	1336.98
420.105	1355.41
420.313	1300.12
420.521	1404.57
420.729	1484.44
420.937	1599.12
421.145	1523.35
421.353	1691.28
421.561	1633.94
421.769	1678.99
421.977	1771.15
422.185	1734.29
422.393	1906.32
422.601	1947.28
422.809	1887.89
423.017	2039.44
423.224	2076.3
423.432	2227.85
423.64	2174.6
423.848	2358.92
424.056	2242.18
424.263	2459.27
424.471	2539.14
424.679	2524.8
424.887	2637.44
425.094	2780.8
425.302	2770.56
425.51	2782.85
425.718	3055.23
425.925	3131
426.133	3098.24
426.341	3198.59
426.548	3368.57
426.756	3446.39
426.964	3372.66
427.171	3692.15
427.379	3712.63
427.586	3690.1
427.794	3888.75
428.001	4034.16
428.209	4281.96
428.417	4122.22
428.624	4492.9
428.832	4548.2
429.039	4480.61
429.247	4363.88
429.454	5013.09
429.662	5213.79
429.869	4908.64
430.076	5351
430.284	5064.29
430.491	5355.1
430.699	5641.81
430.906	5588.57
431.114	5793.36
431.321	5989.97
431.528	6012.49
431.736	6176.33
431.943	6770.24
432.15	6424.14
432.358	6575.69
432.565	6944.32
432.772	6882.88
432.979	7122.49
433.187	7378.49
433.394	7525.94
433.601	7892.53
433.808	7982.64
434.016	7939.63
434.223	8414.76
434.43	8685.09
434.637	8605.22
434.844	9174.56
435.052	9225.76
435.259	9182.75
435.466	9520.67
435.673	9268.77
435.88	9715.22
436.087	10264.08
436.294	10374.67
436.501	10305.04
436.708	10315.28
436.915	10745.35
437.122	11152.9
437.329	11070.98
437.537	11412.99
437.743	11527.67
437.95	11658.74
438.157	12348.91
438.364	12459.5
438.571	12658.15
438.778	12686.83
438.985	13647.32
439.192	13434.33
439.399	13809.11
439.606	13383.13
439.813	14140.88
440.02	14841.29
440.227	14767.56
440.433	14519.76
440.64	15216.07
440.847	14829
441.054	15361.47
441.261	16383.41
441.467	16068.02
441.674	16750
441.881	16774.57
442.088	17200.55
442.294	16965.03
442.501	17434.02
442.708	17931.67
442.914	18783.63
443.121	19232.13
443.328	18630.03
443.534	19985.79
443.741	19410.31
443.948	19086.73
444.154	20673.9
444.361	20571.5
444.568	20700.53
444.774	20919.66
444.981	20872.56
445.187	21572.96
445.394	22199.64
445.6	22162.78
445.807	24012.09
446.013	22986.06
446.22	23639.36
446.426	24513.84
446.633	24753.46
446.839	25632.04
447.046	24464.69
447.252	25746.72
447.459	25629.99
447.665	26045.73
447.871	26967.31
448.078	28296.44
448.284	26731.79
448.491	27835.65
448.697	28536.06
448.903	29105.39
449.11	29238.51
449.316	28484.86
449.522	29248.75
449.728	30031.07
449.935	30411.99
450.141	30225.63
450.347	30780.63
450.553	30166.24
450.76	30430.43
450.966	31646.92
451.172	30864.6
451.378	31884.48
451.584	31075.54
451.791	31927.49
451.997	31968.45
452.203	32611.51
452.409	32537.79
452.615	31950.02
452.821	31241.42
453.027	30944.47
453.233	32316.61
453.44	30999.76
453.646	31266
453.852	31585.48
454.058	32318.65
454.264	31274.19
454.47	31847.62
454.676	30815.44
454.882	31984.83
455.088	29031.66
455.294	29791.46
455.5	29983.97
455.705	30749.91
455.911	29201.65
456.117	28652.79
456.323	28413.18
456.529	26930.45
456.735	28001.54
456.941	27432.2
457.147	26907.92
457.352	26043.68
457.558	25763.11
457.764	25902.37
457.97	25419.05
458.176	25087.28
458.381	24816.94
458.587	23702.85
458.793	23684.42
458.999	22302.04
459.204	23921.98
459.41	23190.86
459.616	21792.09
459.821	21800.29
460.027	21525.86
460.233	21140.84
460.438	20266.36
460.644	20667.76
460.85	19572.1
461.055	19170.69
461.261	19146.12
461.466	17702.3
461.672	17272.23
461.878	18181.53
462.083	17089.96
462.289	16772.52
462.494	16868.78
462.7	16090.55
462.905	15347.14
463.111	16047.54
463.316	16197.04
463.522	15893.94
463.727	15973.81
463.932	15547.84
464.138	15803.83
464.343	15947.19
464.549	15336.9
464.754	15926.71
464.959	15613.37
465.165	15556.03
465.37	14781.9
465.575	14235.09
465.781	15005.13
465.986	14884.3
466.191	14521.81
466.397	14368.21
466.602	13807.06
466.807	14007.76
467.012	14046.68
467.218	13917.65
467.423	13987.29
467.628	13977.05
467.833	14439.89
468.038	13993.43
