Data from USB4F104151__40__11-51-45-087.txt Node

Date: Fri Mar 14 11:51:45 EDT 2025
User: louis
Spectrometer: USB4F10415
Trigger mode: 4
Integration Time (sec): 2.000000E-2
Scans to average: 1
Electric dark correction enabled: true
Nonlinearity correction enabled: false
Boxcar width: 0
XAxis mode: Wavelengths
Number of Pixels in Spectrum: 3648
>>>>>Begin Spectral Data<<<<<
178.204	-28.67
178.424	-28.67
178.644	-28.67
178.864	-96.25
179.084	-28.67
179.304	-47.1
179.524	88.06
179.744	4.1
179.964	63.49
180.184	-40.96
180.404	24.58
180.624	-12.29
180.844	4.1
181.064	-61.44
181.283	-38.91
181.503	51.2
181.723	-34.82
181.943	-59.39
182.163	75.77
182.383	83.97
182.602	63.49
182.822	32.77
183.042	45.06
183.262	-26.62
183.482	22.53
183.701	28.67
183.921	75.77
184.141	-28.67
184.361	-16.38
184.58	-26.62
184.8	53.25
185.02	53.25
185.239	34.82
185.459	40.96
185.679	104.45
185.898	61.44
186.118	20.48
186.338	32.77
186.557	-20.48
186.777	63.49
186.997	26.62
187.216	28.67
187.436	88.06
187.655	-10.24
187.875	36.86
188.095	14.34
188.314	14.34
188.534	2.05
188.753	6.14
188.973	-34.82
189.192	63.49
189.412	-2.05
189.631	47.1
189.851	94.21
190.07	20.48
190.29	-12.29
190.509	32.77
190.729	12.29
190.948	36.86
191.168	96.25
191.387	98.3
191.607	-38.91
191.826	-12.29
192.045	12.29
192.265	-20.48
192.484	-32.77
192.704	61.44
192.923	10.24
193.142	4.1
193.362	34.82
193.581	10.24
193.8	51.2
194.02	16.38
194.239	32.77
194.458	6.14
194.678	36.86
194.897	0
195.116	79.87
195.335	53.25
195.555	4.1
195.774	98.3
195.993	-12.29
196.212	12.29
196.432	-10.24
196.651	22.53
196.87	59.39
197.089	61.44
197.308	45.06
197.528	-18.43
197.747	6.14
197.966	26.62
198.185	104.45
198.404	-8.19
198.623	43.01
198.842	16.38
199.062	65.54
199.281	118.78
199.5	26.62
199.719	10.24
199.938	26.62
200.157	51.2
200.376	69.63
200.595	-67.58
200.814	67.58
201.033	-14.34
201.252	32.77
201.471	24.58
201.69	96.25
201.909	24.58
202.128	57.34
202.347	30.72
202.566	51.2
202.785	-18.43
203.004	-6.14
203.223	133.12
203.442	36.86
203.661	-51.2
203.879	18.43
204.098	71.68
204.317	-28.67
204.536	30.72
204.755	-28.67
204.974	96.25
205.193	-6.14
205.411	28.67
205.63	104.45
205.849	6.14
206.068	-4.1
206.287	10.24
206.505	-4.1
206.724	0
206.943	12.29
207.162	2.05
207.381	36.86
207.599	30.72
207.818	16.38
208.037	-45.06
208.255	55.3
208.474	22.53
208.693	124.93
208.911	67.58
209.13	38.91
209.349	86.01
209.567	30.72
209.786	-36.86
210.005	-43.01
210.223	59.39
210.442	59.39
210.661	71.68
210.879	8.19
211.098	77.82
211.316	22.53
211.535	71.68
211.753	-26.62
211.972	-2.05
212.191	65.54
212.409	28.67
212.628	71.68
212.846	38.91
213.065	22.53
213.283	108.54
213.502	38.91
213.72	-2.05
213.938	-12.29
214.157	-16.38
214.375	47.1
214.594	16.38
214.812	67.58
215.031	14.34
215.249	8.19
215.467	12.29
215.686	36.86
215.904	0
216.122	77.82
216.341	26.62
216.559	-14.34
216.778	30.72
216.996	36.86
217.214	-10.24
217.432	-28.67
217.651	-22.53
217.869	8.19
218.087	-45.06
218.306	18.43
218.524	43.01
218.742	-22.53
218.96	18.43
219.179	12.29
219.397	-14.34
219.615	18.43
219.833	122.88
220.051	26.62
220.27	96.25
220.488	69.63
220.706	8.19
220.924	92.16
221.142	10.24
221.36	75.77
221.578	124.93
221.796	-32.77
222.015	14.34
222.233	-32.77
222.451	26.62
222.669	-24.58
222.887	36.86
223.105	10.24
223.323	-16.38
223.541	-10.24
223.759	36.86
223.977	51.2
224.195	63.49
224.413	51.2
224.631	24.58
224.849	36.86
225.067	83.97
225.285	-8.19
225.503	16.38
225.721	12.29
225.939	75.77
226.157	10.24
226.375	61.44
226.592	10.24
226.81	-2.05
227.028	81.92
227.246	75.77
227.464	47.1
227.682	40.96
227.9	88.06
228.117	30.72
228.335	47.1
228.553	26.62
228.771	-10.24
228.989	30.72
229.206	-34.82
229.424	-2.05
229.642	10.24
229.86	-22.53
230.077	98.3
230.295	79.87
230.513	100.35
230.731	-10.24
230.948	120.83
231.166	71.68
231.384	-2.05
231.601	18.43
231.819	122.88
232.037	-43.01
232.254	55.3
232.472	47.1
232.689	28.67
232.907	36.86
233.125	14.34
233.342	-30.72
233.56	65.54
233.777	-90.11
233.995	79.87
234.213	65.54
234.43	-30.72
234.648	12.29
234.865	8.19
235.083	10.24
235.3	67.58
235.518	51.2
235.735	118.78
235.953	45.06
236.17	96.25
236.388	-40.96
236.605	28.67
236.822	34.82
237.04	34.82
237.257	69.63
237.475	2.05
237.692	22.53
237.909	-24.58
238.127	28.67
238.344	53.25
238.562	-10.24
238.779	77.82
238.996	59.39
239.214	26.62
239.431	38.91
239.648	14.34
239.865	32.77
240.083	67.58
240.3	65.54
240.517	-34.82
240.735	36.86
240.952	104.45
241.169	49.15
241.386	10.24
241.603	2.05
241.821	10.24
242.038	49.15
242.255	67.58
242.472	-49.15
242.689	-6.14
242.907	20.48
243.124	57.34
243.341	94.21
243.558	10.24
243.775	53.25
243.992	18.43
244.209	12.29
244.426	34.82
244.643	49.15
244.86	34.82
245.078	24.58
245.295	59.39
245.512	22.53
245.729	-12.29
245.946	65.54
246.163	8.19
246.38	12.29
246.597	-22.53
246.814	-8.19
247.031	36.86
247.248	28.67
247.464	61.44
247.681	71.68
247.898	8.19
248.115	83.97
248.332	22.53
248.549	67.58
248.766	6.14
248.983	47.1
249.2	16.38
249.417	-43.01
249.633	73.73
249.85	51.2
250.067	-36.86
250.284	4.1
250.501	96.25
250.717	18.43
250.934	-2.05
251.151	14.34
251.368	81.92
251.585	-20.48
251.801	-8.19
252.018	-20.48
252.235	38.91
252.451	8.19
252.668	8.19
252.885	55.3
253.102	28.67
253.318	81.92
253.535	-18.43
253.752	14.34
253.968	-8.19
254.185	-26.62
254.401	45.06
254.618	16.38
254.835	-22.53
255.051	22.53
255.268	75.77
255.484	22.53
255.701	-16.38
255.917	0
256.134	-30.72
256.351	49.15
256.567	-30.72
256.784	-32.77
257	2.05
257.217	43.01
257.433	59.39
257.65	-4.1
257.866	2.05
258.082	18.43
258.299	83.97
258.515	-2.05
258.732	-6.14
258.948	36.86
259.165	81.92
259.381	-14.34
259.597	36.86
259.814	28.67
260.03	53.25
260.246	-2.05
260.463	51.2
260.679	12.29
260.895	14.34
261.112	51.2
261.328	77.82
261.544	75.77
261.761	71.68
261.977	-47.1
262.193	-47.1
262.409	49.15
262.626	-6.14
262.842	67.58
263.058	55.3
263.274	28.67
263.49	0
263.707	40.96
263.923	36.86
264.139	94.21
264.355	-6.14
264.571	167.93
264.787	49.15
265.004	-59.39
265.22	4.1
265.436	47.1
265.652	32.77
265.868	49.15
266.084	2.05
266.3	-49.15
266.516	-36.86
266.732	77.82
266.948	47.1
267.164	133.12
267.38	-16.38
267.596	34.82
267.812	30.72
268.028	6.14
268.244	61.44
268.46	38.91
268.676	32.77
268.892	49.15
269.108	10.24
269.324	38.91
269.54	69.63
269.756	20.48
269.972	22.53
270.188	24.58
270.403	38.91
270.619	43.01
270.835	14.34
271.051	32.77
271.267	-18.43
271.483	18.43
271.698	34.82
271.914	-2.05
272.13	22.53
272.346	118.78
272.562	-38.91
272.777	49.15
272.993	-12.29
273.209	8.19
273.425	2.05
273.64	43.01
273.856	0
274.072	45.06
274.287	40.96
274.503	96.25
274.719	79.87
274.934	32.77
275.15	8.19
275.366	88.06
275.581	2.05
275.797	59.39
276.012	43.01
276.228	6.14
276.444	88.06
276.659	30.72
276.875	75.77
277.09	30.72
277.306	2.05
277.521	47.1
277.737	22.53
277.952	53.25
278.168	106.49
278.383	-6.14
278.599	57.34
278.814	69.63
279.03	79.87
279.245	28.67
279.461	24.58
279.676	88.06
279.892	67.58
280.107	34.82
280.322	47.1
280.538	36.86
280.753	141.31
280.969	16.38
281.184	8.19
281.399	53.25
281.615	-30.72
281.83	63.49
282.045	6.14
282.26	53.25
282.476	40.96
282.691	106.49
282.906	-18.43
283.122	10.24
283.337	-40.96
283.552	20.48
283.767	26.62
283.983	63.49
284.198	-4.1
284.413	59.39
284.628	-28.67
284.843	100.35
285.058	16.38
285.274	36.86
285.489	-18.43
285.704	55.3
285.919	30.72
286.134	63.49
286.349	63.49
286.564	47.1
286.779	110.59
286.995	38.91
287.21	12.29
287.425	43.01
287.64	-8.19
287.855	49.15
288.07	16.38
288.285	18.43
288.5	18.43
288.715	57.34
288.93	53.25
289.145	61.44
289.36	20.48
289.575	8.19
289.79	26.62
290.004	8.19
290.219	96.25
290.434	34.82
290.649	59.39
290.864	22.53
291.079	14.34
291.294	16.38
291.509	-98.3
291.724	47.1
291.938	-34.82
292.153	18.43
292.368	-16.38
292.583	0
292.798	102.4
293.012	-8.19
293.227	32.77
293.442	34.82
293.657	34.82
293.871	73.73
294.086	61.44
294.301	83.97
294.516	-16.38
294.73	22.53
294.945	24.58
295.16	47.1
295.374	49.15
295.589	77.82
295.804	-22.53
296.018	2.05
296.233	94.21
296.447	18.43
296.662	20.48
296.877	0
297.091	-2.05
297.306	73.73
297.52	6.14
297.735	53.25
297.949	24.58
298.164	26.62
298.378	28.67
298.593	-6.14
298.807	-8.19
299.022	81.92
299.236	16.38
299.451	36.86
299.665	-16.38
299.88	43.01
300.094	12.29
300.309	51.2
300.523	40.96
300.737	-55.3
300.952	24.58
301.166	81.92
301.381	-16.38
301.595	-8.19
301.809	24.58
302.024	36.86
302.238	61.44
302.452	71.68
302.667	36.86
302.881	88.06
303.095	2.05
303.309	51.2
303.524	61.44
303.738	47.1
303.952	-2.05
304.166	14.34
304.381	30.72
304.595	57.34
304.809	28.67
305.023	-12.29
305.237	16.38
305.452	92.16
305.666	-6.14
305.88	14.34
306.094	69.63
306.308	47.1
306.522	96.25
306.736	71.68
306.95	-32.77
307.164	45.06
307.379	-45.06
307.593	71.68
307.807	67.58
308.021	26.62
308.235	65.54
308.449	32.77
308.663	38.91
308.877	135.17
309.091	43.01
309.305	57.34
309.519	16.38
309.733	38.91
309.947	79.87
310.161	73.73
310.374	108.54
310.588	32.77
310.802	-14.34
311.016	79.87
311.23	24.58
311.444	22.53
311.658	43.01
311.872	98.3
312.085	45.06
312.299	71.68
312.513	55.3
312.727	86.01
312.941	96.25
313.154	14.34
313.368	-6.14
313.582	81.92
313.796	47.1
314.009	-10.24
314.223	92.16
314.437	98.3
314.651	32.77
314.864	-24.58
315.078	30.72
315.292	57.34
315.505	-14.34
315.719	43.01
315.933	18.43
316.146	67.58
316.36	34.82
316.573	88.06
316.787	32.77
317.001	71.68
317.214	20.48
317.428	-6.14
317.641	-22.53
317.855	81.92
318.068	67.58
318.282	53.25
318.495	55.3
318.709	51.2
318.922	28.67
319.136	34.82
319.349	10.24
319.563	22.53
319.776	10.24
319.99	18.43
320.203	47.1
320.417	-14.34
320.63	77.82
320.843	55.3
321.057	55.3
321.27	51.2
321.483	20.48
321.697	86.01
321.91	71.68
322.124	114.69
322.337	-36.86
322.55	30.72
322.763	26.62
322.977	45.06
323.19	81.92
323.403	34.82
323.617	135.17
323.83	45.06
324.043	-26.62
324.256	47.1
324.469	38.91
324.683	51.2
324.896	116.73
325.109	135.17
325.322	-4.1
325.535	12.29
325.748	16.38
325.962	79.87
326.175	79.87
326.388	-12.29
326.601	43.01
326.814	2.05
327.027	40.96
327.24	81.92
327.453	14.34
327.666	51.2
327.879	43.01
328.092	57.34
328.305	18.43
328.518	34.82
328.731	-14.34
328.944	40.96
329.157	24.58
329.37	45.06
329.583	61.44
329.796	88.06
330.009	8.19
330.222	-6.14
330.435	4.1
330.648	86.01
330.861	-24.58
331.073	63.49
331.286	51.2
331.499	34.82
331.712	6.14
331.925	102.4
332.138	38.91
332.35	86.01
332.563	26.62
332.776	77.82
332.989	20.48
333.202	-26.62
333.414	43.01
333.627	-16.38
333.84	14.34
334.053	49.15
334.265	59.39
334.478	-49.15
334.691	36.86
334.903	65.54
335.116	-40.96
335.329	92.16
335.541	18.43
335.754	65.54
335.966	4.1
336.179	18.43
336.392	43.01
336.604	47.1
336.817	108.54
337.029	4.1
337.242	57.34
337.454	36.86
337.667	32.77
337.88	16.38
338.092	-6.14
338.305	79.87
338.517	2.05
338.729	59.39
338.942	100.35
339.154	26.62
339.367	73.73
339.579	88.06
339.792	12.29
340.004	-38.91
340.217	88.06
340.429	30.72
340.641	51.2
340.854	2.05
341.066	55.3
341.278	55.3
341.491	104.45
341.703	59.39
341.915	6.14
342.128	122.88
342.34	26.62
342.552	12.29
342.764	40.96
342.977	-20.48
343.189	0
343.401	47.1
343.613	-22.53
343.826	61.44
344.038	16.38
344.25	2.05
344.462	-6.14
344.674	90.11
344.886	-12.29
345.099	55.3
345.311	10.24
345.523	59.39
345.735	10.24
345.947	36.86
346.159	16.38
346.371	30.72
346.583	36.86
346.795	112.64
347.007	75.77
347.219	61.44
347.431	59.39
347.643	12.29
347.855	114.69
348.067	131.07
348.279	43.01
348.491	69.63
348.703	34.82
348.915	40.96
349.127	-24.58
349.339	22.53
349.551	6.14
349.763	75.77
349.975	79.87
350.187	40.96
350.399	67.58
350.61	10.24
350.822	-36.86
351.034	86.01
351.246	-4.1
351.458	67.58
351.669	53.25
351.881	40.96
352.093	116.73
352.305	51.2
352.517	47.1
352.728	20.48
352.94	75.77
353.152	88.06
353.363	-2.05
353.575	55.3
353.787	18.43
353.999	69.63
354.21	45.06
354.422	16.38
354.633	38.91
354.845	10.24
355.057	49.15
355.268	133.12
355.48	57.34
355.692	49.15
355.903	10.24
356.115	20.48
356.326	-20.48
356.538	55.3
356.749	38.91
356.961	102.4
357.172	16.38
357.384	24.58
357.595	88.06
357.807	73.73
358.018	112.64
358.23	34.82
358.441	81.92
358.653	30.72
358.864	28.67
359.075	57.34
359.287	26.62
359.498	40.96
359.709	55.3
359.921	0
360.132	61.44
360.344	114.69
360.555	-24.58
360.766	63.49
360.977	49.15
361.189	26.62
361.4	63.49
361.611	71.68
361.823	-40.96
362.034	4.1
362.245	26.62
362.456	18.43
362.667	71.68
362.879	-10.24
363.09	-6.14
363.301	45.06
363.512	-30.72
363.723	16.38
363.935	40.96
364.146	88.06
364.357	12.29
364.568	96.25
364.779	47.1
364.99	30.72
365.201	-14.34
365.412	-8.19
365.623	59.39
365.834	69.63
366.045	32.77
366.256	24.58
366.467	18.43
366.678	90.11
366.889	18.43
367.1	129.02
367.311	61.44
367.522	49.15
367.733	96.25
367.944	92.16
368.155	61.44
368.366	88.06
368.577	12.29
368.788	94.21
368.999	57.34
369.209	0
369.42	8.19
369.631	73.73
369.842	59.39
370.053	53.25
370.264	34.82
370.474	106.49
370.685	26.62
370.896	53.25
371.107	14.34
371.317	102.4
371.528	38.91
371.739	100.35
371.95	30.72
372.16	36.86
372.371	47.1
372.582	26.62
372.792	61.44
373.003	79.87
373.214	20.48
373.424	69.63
373.635	-14.34
373.846	122.88
374.056	67.58
374.267	96.25
374.477	18.43
374.688	16.38
374.898	-14.34
375.109	67.58
375.319	40.96
375.53	47.1
375.74	40.96
375.951	102.4
376.161	34.82
376.372	124.93
376.582	36.86
376.793	16.38
377.003	34.82
377.214	57.34
377.424	22.53
377.635	49.15
377.845	16.38
378.055	47.1
378.266	-6.14
378.476	55.3
378.686	30.72
378.897	110.59
379.107	36.86
379.317	32.77
379.528	26.62
379.738	69.63
379.948	126.97
380.158	79.87
380.369	20.48
380.579	38.91
380.789	36.86
380.999	86.01
381.21	0
381.42	112.64
381.63	110.59
381.84	61.44
382.05	51.2
382.261	133.12
382.471	75.77
382.681	59.39
382.891	38.91
383.101	145.41
383.311	34.82
383.521	34.82
383.731	16.38
383.941	22.53
384.151	83.97
384.361	67.58
384.571	67.58
384.781	71.68
384.991	98.3
385.201	114.69
385.411	32.77
385.621	61.44
385.831	51.2
386.041	75.77
386.251	34.82
386.461	108.54
386.671	12.29
386.881	55.3
387.091	-28.67
387.301	49.15
387.511	108.54
387.72	77.82
387.93	49.15
388.14	-34.82
388.35	-28.67
388.56	61.44
388.769	79.87
388.979	38.91
389.189	18.43
389.399	-6.14
389.609	65.54
389.818	-28.67
390.028	12.29
390.238	106.49
390.447	71.68
390.657	139.26
390.867	90.11
391.076	51.2
391.286	-22.53
391.496	55.3
391.705	75.77
391.915	51.2
392.125	69.63
392.334	114.69
392.544	30.72
392.753	83.97
392.963	49.15
393.172	10.24
393.382	0
393.591	71.68
393.801	51.2
394.01	55.3
394.22	67.58
394.429	57.34
394.639	34.82
394.848	108.54
395.058	73.73
395.267	57.34
395.477	73.73
395.686	53.25
395.895	114.69
396.105	139.26
396.314	104.45
396.524	98.3
396.733	36.86
396.942	61.44
397.152	110.59
397.361	124.93
397.57	69.63
397.78	22.53
397.989	75.77
398.198	90.11
398.407	155.65
398.617	38.91
398.826	147.45
399.035	100.35
399.244	55.3
399.453	135.17
399.663	79.87
399.872	88.06
400.081	114.69
400.29	108.54
400.499	36.86
400.708	90.11
400.917	116.73
401.127	96.25
401.336	104.45
401.545	120.83
401.754	90.11
401.963	73.73
402.172	92.16
402.381	139.26
402.59	92.16
402.799	104.45
403.008	79.87
403.217	143.36
403.426	59.39
403.635	79.87
403.844	129.02
404.053	145.41
404.262	139.26
404.471	135.17
404.68	120.83
404.888	118.78
405.097	174.08
405.306	198.65
405.515	141.31
405.724	129.02
405.933	182.27
406.142	137.21
406.35	141.31
406.559	120.83
406.768	202.75
406.977	262.14
407.185	161.79
407.394	184.32
407.603	124.93
407.812	208.89
408.02	147.45
408.229	280.57
408.438	131.07
408.646	274.43
408.855	239.61
409.064	235.52
409.272	180.22
409.481	217.08
409.69	237.56
409.898	356.35
410.107	342.01
410.315	292.86
410.524	221.18
410.733	235.52
410.941	317.44
411.15	391.16
411.358	387.07
411.567	380.92
411.775	333.82
411.984	372.73
412.192	362.49
412.401	331.77
412.609	385.02
412.818	434.17
413.026	419.83
413.234	452.6
413.443	468.98
413.651	491.51
413.86	493.56
414.068	530.42
414.276	600.05
414.485	653.3
414.693	485.37
414.901	653.3
415.11	696.31
415.318	661.49
415.526	718.84
415.734	731.12
415.943	790.52
416.151	811
416.359	782.32
416.567	808.95
416.776	784.37
416.984	845.81
417.192	901.11
417.4	821.24
417.608	870.39
417.817	911.35
418.025	1060.85
418.233	1099.76
418.441	997.36
418.649	1056.75
418.857	1064.94
419.065	1216.49
419.273	1046.51
419.481	1300.46
419.689	1368.04
419.897	1411.05
420.105	1386.47
420.313	1468.39
420.521	1447.91
420.729	1566.7
420.937	1517.54
421.145	1681.38
421.353	1615.85
421.561	1816.55
421.769	1724.39
421.977	1974.24
422.185	1771.49
422.393	2011.11
422.601	2099.17
422.809	2068.45
423.017	2062.3
423.224	2203.61
423.432	2363.36
423.64	2342.88
423.848	2475.99
424.056	2455.51
424.263	2684.89
424.471	2568.15
424.679	2660.31
424.887	2891.73
425.094	2930.64
425.302	2895.83
425.51	2971.6
425.718	3106.77
425.925	3086.29
426.133	3356.62
426.341	3332.05
426.548	3557.32
426.756	3655.62
426.964	3674.06
427.171	3766.21
427.379	4016.07
427.586	3934.15
427.794	4243.39
428.001	4292.54
428.209	4681.66
428.417	4433.85
428.624	4802.49
428.832	4751.29
429.039	4638.65
429.247	4665.27
429.454	5150.64
429.662	5588.91
429.869	5144.5
430.076	5545.9
430.284	5373.87
430.491	5414.83
430.699	5877.67
430.906	6125.47
431.114	5779.37
431.321	6082.47
431.528	6494.11
431.736	6592.41
431.943	7157.65
432.15	6887.32
432.358	6895.51
432.565	7317.39
432.772	7339.92
432.979	7690.12
433.187	7681.93
433.394	7948.17
433.601	8380.29
433.808	8384.38
434.016	8390.53
434.223	8726.39
434.43	9187.19
434.637	9166.71
434.844	9535.34
435.052	9881.45
435.259	9766.76
435.466	9850.73
435.673	9703.28
435.88	10219.36
436.087	10876.76
436.294	10731.36
436.501	10616.67
436.708	10794.84
436.915	11272.02
437.122	11677.52
437.329	11685.71
437.537	12209.99
437.743	12267.33
437.95	12353.35
438.157	12808
438.364	13123.38
438.571	13276.98
438.778	13262.65
438.985	14468.9
439.192	14026.54
439.399	14411.56
439.606	14200.62
439.813	14728.99
440.02	15660.82
440.227	15597.33
440.433	15202.07
440.64	15720.21
440.847	15693.58
441.054	16244.49
441.261	17176.31
441.467	16908.03
441.674	17477.37
441.881	18087.66
442.088	17755.89
442.294	18018.03
442.501	18300.65
442.708	18632.42
442.914	19132.12
443.121	20303.56
443.328	19699.41
443.534	21022.4
443.741	20567.75
443.948	20115.15
444.154	21534.39
444.361	21470.9
444.568	21710.52
444.774	21624.5
444.981	21974.7
445.187	22793.89
445.394	23381.66
445.6	23234.21
445.807	25392.76
446.013	24043.15
446.22	24880.77
446.426	25691.77
446.633	26312.3
446.839	26568.3
447.046	25976.44
447.252	26934.89
447.459	27086.43
447.665	26963.56
447.871	28137.04
448.078	29640.25
448.284	27932.25
448.491	28866.12
448.697	30195.25
448.903	30342.71
449.11	30838.31
449.316	30346.8
449.522	30434.86
449.728	31358.5
449.935	31694.36
450.141	31677.98
450.347	32185.88
450.553	31198.76
450.76	31723.04
450.966	32902.67
451.172	32466.45
451.378	33134.09
451.584	32574.99
451.791	33652.22
451.997	33097.22
452.203	33838.59
452.409	33836.54
452.615	33869.31
452.821	32345.62
453.027	32476.69
453.233	33797.63
453.44	32607.76
453.646	32618
453.852	33070.6
454.058	33648.13
454.264	32304.66
454.47	33193.48
454.676	31901.21
454.882	33080.84
455.088	30498.35
455.294	31176.23
455.5	30871.08
455.705	31696.41
455.911	30336.56
456.117	30033.46
456.323	29269.57
456.529	27872.85
456.735	29232.71
456.941	28225.11
457.147	27758.17
457.352	27233.89
457.558	26787.43
457.764	26617.45
457.97	26408.56
458.176	25583.23
458.381	25577.08
458.587	24577.67
458.793	24549
458.999	23160.48
459.204	24936.07
459.41	24034.96
459.616	22718.12
459.821	22638.25
460.027	22447.79
460.233	21954.22
460.438	21196.48
460.644	21128.89
460.85	20039.37
461.055	19861.2
461.261	19910.35
461.466	18210.54
461.672	17692.4
461.878	19154.65
462.083	17858.29
462.289	17700.59
462.494	17241.85
462.7	16582.4
462.905	16035.6
463.111	16807.68
463.316	16772.86
463.522	16461.57
463.727	16635.65
463.932	16502.53
464.138	16105.23
464.343	16295.69
464.549	15513.36
464.754	16305.93
464.959	16074.51
465.165	16211.72
465.37	15398.68
465.575	15148.82
465.781	15748.88
465.986	15646.48
466.191	15120.15
466.397	14642.98
466.602	14448.42
466.807	14530.34
467.012	14782.24
467.218	14583.59
467.423	14427.94
467.628	14532.39
467.833	15071
468.038	14735.14
468.244	14176.04
