Data from USB4F104151__0__11-51-01-388.txt Node

Date: Fri Mar 14 11:51:01 EDT 2025
User: louis
Spectrometer: USB4F10415
Trigger mode: 4
Integration Time (sec): 2.000000E-2
Scans to average: 1
Electric dark correction enabled: true
Nonlinearity correction enabled: false
Boxcar width: 0
XAxis mode: Wavelengths
Number of Pixels in Spectrum: 3648
>>>>>Begin Spectral Data<<<<<
178.204	-21.5
178.424	-21.5
178.644	-21.5
178.864	-109.57
179.084	-68.61
179.304	-33.79
179.524	-44.03
179.744	33.79
179.964	74.75
180.184	-17.41
180.404	39.94
180.624	-11.26
180.844	-44.03
181.064	1.02
181.283	27.65
181.503	-37.89
181.723	11.26
181.943	3.07
182.163	27.65
182.383	89.09
182.602	29.7
182.822	-5.12
183.042	111.61
183.262	37.89
183.482	21.5
183.701	23.55
183.921	9.22
184.141	58.37
184.361	68.61
184.58	52.22
184.8	3.07
185.02	-3.07
185.239	148.48
185.459	37.89
185.679	89.09
185.898	29.7
186.118	33.79
186.338	62.46
186.557	84.99
186.777	31.74
186.997	1.02
187.216	44.03
187.436	72.7
187.655	64.51
187.875	52.22
188.095	27.65
188.314	-7.17
188.534	68.61
188.753	25.6
188.973	50.18
189.192	103.42
189.412	-1.02
189.631	74.75
189.851	-33.79
190.07	52.22
190.29	13.31
190.509	99.33
190.729	56.32
190.948	23.55
191.168	115.71
191.387	121.85
191.607	-13.31
191.826	31.74
192.045	60.42
192.265	35.84
192.484	-29.7
192.704	19.46
192.923	13.31
193.142	107.52
193.362	64.51
193.581	74.75
193.8	74.75
194.02	-35.84
194.239	91.13
194.458	58.37
194.678	7.17
194.897	3.07
195.116	93.18
195.335	58.37
195.555	33.79
195.774	35.84
195.993	33.79
196.212	39.94
196.432	95.23
196.651	78.85
196.87	62.46
197.089	95.23
197.308	-31.74
197.528	66.56
197.747	3.07
197.966	35.84
198.185	9.22
198.404	17.41
198.623	17.41
198.842	7.17
199.062	39.94
199.281	66.56
199.5	15.36
199.719	74.75
199.938	-29.7
200.157	9.22
200.376	60.42
200.595	62.46
200.814	-15.36
201.033	9.22
201.252	46.08
201.471	19.46
201.69	15.36
201.909	33.79
202.128	-13.31
202.347	99.33
202.566	64.51
202.785	33.79
203.004	15.36
203.223	29.7
203.442	27.65
203.661	50.18
203.879	29.7
204.098	44.03
204.317	-11.26
204.536	35.84
204.755	91.13
204.974	70.65
205.193	56.32
205.411	142.33
205.63	48.13
205.849	46.08
206.068	17.41
206.287	105.47
206.505	31.74
206.724	84.99
206.943	39.94
207.162	5.12
207.381	95.23
207.599	91.13
207.818	54.27
208.037	21.5
208.255	15.36
208.474	68.61
208.693	70.65
208.911	-9.22
209.13	15.36
209.349	39.94
209.567	3.07
209.786	60.42
210.005	41.98
210.223	31.74
210.442	-17.41
210.661	52.22
210.879	25.6
211.098	44.03
211.316	52.22
211.535	93.18
211.753	21.5
211.972	70.65
212.191	11.26
212.409	70.65
212.628	54.27
212.846	31.74
213.065	41.98
213.283	60.42
213.502	35.84
213.72	17.41
213.938	64.51
214.157	82.94
214.375	5.12
214.594	-19.46
214.812	70.65
215.031	60.42
215.249	60.42
215.467	-3.07
215.686	48.13
215.904	97.28
216.122	-9.22
216.341	50.18
216.559	9.22
216.778	72.7
216.996	62.46
217.214	27.65
217.432	66.56
217.651	11.26
217.869	11.26
218.087	48.13
218.306	9.22
218.524	-15.36
218.742	-5.12
218.96	64.51
219.179	44.03
219.397	21.5
219.615	60.42
219.833	17.41
220.051	31.74
220.27	25.6
220.488	19.46
220.706	58.37
220.924	3.07
221.142	105.47
221.36	35.84
221.578	39.94
221.796	56.32
222.015	97.28
222.233	50.18
222.451	78.85
222.669	-9.22
222.887	41.98
223.105	-13.31
223.323	52.22
223.541	19.46
223.759	62.46
223.977	37.89
224.195	56.32
224.413	5.12
224.631	109.57
224.849	54.27
225.067	58.37
225.285	35.84
225.503	25.6
225.721	9.22
225.939	7.17
226.157	11.26
226.375	97.28
226.592	11.26
226.81	19.46
227.028	99.33
227.246	29.7
227.464	7.17
227.682	52.22
227.9	48.13
228.117	89.09
228.335	60.42
228.553	31.74
228.771	-7.17
228.989	60.42
229.206	60.42
229.424	56.32
229.642	9.22
229.86	15.36
230.077	56.32
230.295	52.22
230.513	50.18
230.731	66.56
230.948	23.55
231.166	-9.22
231.384	68.61
231.601	48.13
231.819	70.65
232.037	-17.41
232.254	-31.74
232.472	87.04
232.689	56.32
232.907	3.07
233.125	25.6
233.342	-23.55
233.56	56.32
233.777	31.74
233.995	-3.07
234.213	33.79
234.43	27.65
234.648	48.13
234.865	-3.07
235.083	21.5
235.3	44.03
235.518	39.94
235.735	21.5
235.953	107.52
236.17	5.12
236.388	111.61
236.605	68.61
236.822	87.04
237.04	58.37
237.257	37.89
237.475	17.41
237.692	80.89
237.909	39.94
238.127	74.75
238.344	44.03
238.562	23.55
238.779	74.75
238.996	25.6
239.214	41.98
239.431	27.65
239.648	-35.84
239.865	39.94
240.083	70.65
240.3	119.81
240.517	13.31
240.735	91.13
240.952	117.76
241.169	64.51
241.386	78.85
241.603	41.98
241.821	74.75
242.038	109.57
242.255	-7.17
242.472	1.02
242.689	84.99
242.907	7.17
243.124	113.66
243.341	111.61
243.558	31.74
243.775	35.84
243.992	3.07
244.209	93.18
244.426	41.98
244.643	76.8
244.86	-9.22
245.078	64.51
245.295	-29.7
245.512	17.41
245.729	78.85
245.946	109.57
246.163	7.17
246.38	15.36
246.597	3.07
246.814	52.22
247.031	39.94
247.248	11.26
247.464	35.84
247.681	44.03
247.898	54.27
248.115	41.98
248.332	35.84
248.549	58.37
248.766	25.6
248.983	-15.36
249.2	52.22
249.417	-7.17
249.633	-7.17
249.85	64.51
250.067	50.18
250.284	-15.36
250.501	111.61
250.717	39.94
250.934	11.26
251.151	44.03
251.368	7.17
251.585	-7.17
251.801	31.74
252.018	15.36
252.235	17.41
252.451	46.08
252.668	31.74
252.885	74.75
253.102	64.51
253.318	82.94
253.535	66.56
253.752	97.28
253.968	52.22
254.185	25.6
254.401	5.12
254.618	89.09
254.835	-25.6
255.051	144.38
255.268	44.03
255.484	82.94
255.701	72.7
255.917	17.41
256.134	39.94
256.351	3.07
256.567	13.31
256.784	74.75
257	-1.02
257.217	3.07
257.433	70.65
257.65	-41.98
257.866	25.6
258.082	-58.37
258.299	39.94
258.515	68.61
258.732	39.94
258.948	72.7
259.165	80.89
259.381	9.22
259.597	82.94
259.814	5.12
260.03	76.8
260.246	66.56
260.463	54.27
260.679	95.23
260.895	97.28
261.112	62.46
261.328	19.46
261.544	27.65
261.761	39.94
261.977	52.22
262.193	-39.94
262.409	23.55
262.626	80.89
262.842	7.17
263.058	58.37
263.274	58.37
263.49	27.65
263.707	29.7
263.923	56.32
264.139	-39.94
264.355	25.6
264.571	125.95
264.787	62.46
265.004	-19.46
265.22	60.42
265.436	35.84
265.652	50.18
265.868	117.76
266.084	44.03
266.3	74.75
266.516	76.8
266.732	-5.12
266.948	7.17
267.164	21.5
267.38	117.76
267.596	-23.55
267.812	119.81
268.028	13.31
268.244	48.13
268.46	-23.55
268.676	7.17
268.892	3.07
269.108	105.47
269.324	-1.02
269.54	-19.46
269.756	37.89
269.972	64.51
270.188	17.41
270.403	-11.26
270.619	84.99
270.835	48.13
271.051	105.47
271.267	7.17
271.483	50.18
271.698	64.51
271.914	27.65
272.13	62.46
272.346	37.89
272.562	31.74
272.777	113.66
272.993	25.6
273.209	76.8
273.425	48.13
273.64	54.27
273.856	17.41
274.072	46.08
274.287	9.22
274.503	74.75
274.719	101.37
274.934	9.22
275.15	9.22
275.366	-13.31
275.581	-35.84
275.797	89.09
276.012	29.7
276.228	23.55
276.444	-1.02
276.659	74.75
276.875	62.46
277.09	25.6
277.306	-3.07
277.521	-17.41
277.737	15.36
277.952	-5.12
278.168	74.75
278.383	-31.74
278.599	-44.03
278.814	72.7
279.03	35.84
279.245	23.55
279.461	54.27
279.676	50.18
279.892	64.51
280.107	58.37
280.322	9.22
280.538	7.17
280.753	-7.17
280.969	78.85
281.184	52.22
281.399	84.99
281.615	35.84
281.83	41.98
282.045	31.74
282.26	15.36
282.476	37.89
282.691	15.36
282.906	46.08
283.122	99.33
283.337	-19.46
283.552	46.08
283.767	5.12
283.983	56.32
284.198	62.46
284.413	154.62
284.628	19.46
284.843	23.55
285.058	60.42
285.274	46.08
285.489	11.26
285.704	72.7
285.919	56.32
286.134	1.02
286.349	78.85
286.564	54.27
286.779	142.33
286.995	44.03
287.21	19.46
287.425	76.8
287.64	35.84
287.855	11.26
288.07	-21.5
288.285	103.42
288.5	76.8
288.715	13.31
288.93	58.37
289.145	66.56
289.36	7.17
289.575	66.56
289.79	105.47
290.004	31.74
290.219	117.76
290.434	109.57
290.649	68.61
290.864	97.28
291.079	72.7
291.294	52.22
291.509	13.31
291.724	19.46
291.938	-7.17
292.153	95.23
292.368	39.94
292.583	60.42
292.798	91.13
293.012	89.09
293.227	66.56
293.442	46.08
293.657	138.24
293.871	58.37
294.086	64.51
294.301	-5.12
294.516	17.41
294.73	29.7
294.945	31.74
295.16	84.99
295.374	64.51
295.589	84.99
295.804	62.46
296.018	101.37
296.233	78.85
296.447	107.52
296.662	25.6
296.877	48.13
297.091	66.56
297.306	48.13
297.52	41.98
297.735	60.42
297.949	87.04
298.164	3.07
298.378	-17.41
298.593	138.24
298.807	29.7
299.022	17.41
299.236	113.66
299.451	66.56
299.665	44.03
299.88	62.46
300.094	68.61
300.309	78.85
300.523	-33.79
300.737	35.84
300.952	-17.41
301.166	54.27
301.381	58.37
301.595	23.55
301.809	3.07
302.024	-17.41
302.238	25.6
302.452	-9.22
302.667	13.31
302.881	66.56
303.095	52.22
303.309	62.46
303.524	25.6
303.738	82.94
303.952	17.41
304.166	48.13
304.381	13.31
304.595	78.85
304.809	13.31
305.023	41.98
305.237	-3.07
305.452	72.7
305.666	31.74
305.88	21.5
306.094	31.74
306.308	74.75
306.522	82.94
306.736	58.37
306.95	109.57
307.164	-25.6
307.379	21.5
307.593	82.94
307.807	1.02
308.021	7.17
308.235	31.74
308.449	17.41
308.663	41.98
308.877	76.8
309.091	27.65
309.305	46.08
309.519	23.55
309.733	41.98
309.947	-7.17
310.161	44.03
310.374	11.26
310.588	54.27
310.802	37.89
311.016	107.52
311.23	60.42
311.444	35.84
311.658	39.94
311.872	33.79
312.085	72.7
312.299	84.99
312.513	95.23
312.727	41.98
312.941	-3.07
313.154	68.61
313.368	117.76
313.582	64.51
313.796	21.5
314.009	54.27
314.223	31.74
314.437	-1.02
314.651	56.32
314.864	15.36
315.078	17.41
315.292	46.08
315.505	33.79
315.719	76.8
315.933	74.75
316.146	54.27
316.36	84.99
316.573	41.98
316.787	72.7
317.001	41.98
317.214	-29.7
317.428	-27.65
317.641	25.6
317.855	105.47
318.068	70.65
318.282	64.51
318.495	87.04
318.709	-3.07
318.922	80.89
319.136	70.65
319.349	56.32
319.563	62.46
319.776	66.56
319.99	9.22
320.203	-25.6
320.417	68.61
320.63	144.38
320.843	68.61
321.057	68.61
321.27	89.09
321.483	-9.22
321.697	154.62
321.91	7.17
322.124	54.27
322.337	41.98
322.55	111.61
322.763	3.07
322.977	52.22
323.19	39.94
323.403	-27.65
323.617	74.75
323.83	107.52
324.043	15.36
324.256	27.65
324.469	60.42
324.683	80.89
324.896	76.8
325.109	-1.02
325.322	1.02
325.535	58.37
325.748	27.65
325.962	99.33
326.175	103.42
326.388	117.76
326.601	87.04
326.814	66.56
327.027	-7.17
327.24	119.81
327.453	21.5
327.666	39.94
327.879	-5.12
328.092	54.27
328.305	17.41
328.518	29.7
328.731	-15.36
328.944	19.46
329.157	68.61
329.37	-33.79
329.583	9.22
329.796	87.04
330.009	95.23
330.222	27.65
330.435	113.66
330.648	84.99
330.861	70.65
331.073	84.99
331.286	62.46
331.499	35.84
331.712	5.12
331.925	60.42
332.138	52.22
332.35	11.26
332.563	62.46
332.776	78.85
332.989	-5.12
333.202	44.03
333.414	35.84
333.627	9.22
333.84	17.41
334.053	29.7
334.265	29.7
334.478	76.8
334.691	60.42
334.903	66.56
335.116	11.26
335.329	97.28
335.541	128
335.754	25.6
335.966	23.55
336.179	80.89
336.392	-7.17
336.604	84.99
336.817	29.7
337.029	66.56
337.242	64.51
337.454	91.13
337.667	72.7
337.88	117.76
338.092	19.46
338.305	68.61
338.517	54.27
338.729	13.31
338.942	97.28
339.154	48.13
339.367	13.31
339.579	-11.26
339.792	23.55
340.004	128
340.217	-5.12
340.429	107.52
340.641	64.51
340.854	41.98
341.066	-25.6
341.278	64.51
341.491	25.6
341.703	-29.7
341.915	31.74
342.128	93.18
342.34	105.47
342.552	60.42
342.764	35.84
342.977	76.8
343.189	48.13
343.401	70.65
343.613	9.22
343.826	60.42
344.038	21.5
344.25	89.09
344.462	17.41
344.674	52.22
344.886	58.37
345.099	111.61
345.311	109.57
345.523	68.61
345.735	84.99
345.947	84.99
346.159	64.51
346.371	-25.6
346.583	35.84
346.795	74.75
347.007	-41.98
347.219	48.13
347.431	-1.02
347.643	70.65
347.855	-19.46
348.067	64.51
348.279	66.56
348.491	68.61
348.703	29.7
348.915	95.23
349.127	87.04
349.339	80.89
349.551	3.07
349.763	76.8
349.975	66.56
350.187	48.13
350.399	105.47
350.61	27.65
350.822	52.22
351.034	56.32
351.246	64.51
351.458	33.79
351.669	7.17
351.881	48.13
352.093	93.18
352.305	13.31
352.517	25.6
352.728	15.36
352.94	115.71
353.152	19.46
353.363	19.46
353.575	76.8
353.787	21.5
353.999	27.65
354.21	56.32
354.422	60.42
354.633	80.89
354.845	84.99
355.057	19.46
355.268	46.08
355.48	87.04
355.692	7.17
355.903	46.08
356.115	113.66
356.326	5.12
356.538	109.57
356.749	134.14
356.961	56.32
357.172	109.57
357.384	80.89
357.595	117.76
357.807	-52.22
358.018	41.98
358.23	9.22
358.441	121.85
358.653	76.8
358.864	62.46
359.075	58.37
359.287	68.61
359.498	134.14
359.709	23.55
359.921	44.03
360.132	74.75
360.344	87.04
360.555	66.56
360.766	52.22
360.977	76.8
361.189	35.84
361.4	72.7
361.611	62.46
361.823	54.27
362.034	44.03
362.245	95.23
362.456	72.7
362.667	66.56
362.879	19.46
363.09	101.37
363.301	39.94
363.512	97.28
363.723	60.42
363.935	39.94
364.146	142.33
364.357	33.79
364.568	50.18
364.779	44.03
364.99	105.47
365.201	74.75
365.412	64.51
365.623	33.79
365.834	60.42
366.045	101.37
366.256	66.56
366.467	39.94
366.678	62.46
366.889	9.22
367.1	7.17
367.311	29.7
367.522	-3.07
367.733	60.42
367.944	21.5
368.155	-31.74
368.366	25.6
368.577	19.46
368.788	74.75
368.999	-25.6
369.209	80.89
369.42	101.37
369.631	29.7
369.842	60.42
370.053	-17.41
370.264	19.46
370.474	58.37
370.685	72.7
370.896	89.09
371.107	89.09
371.317	39.94
371.528	76.8
371.739	80.89
371.95	17.41
372.16	125.95
372.371	80.89
372.582	46.08
372.792	97.28
373.003	76.8
373.214	50.18
373.424	46.08
373.635	7.17
373.846	95.23
374.056	48.13
374.267	93.18
374.477	72.7
374.688	-15.36
374.898	46.08
375.109	27.65
375.319	70.65
375.53	97.28
375.74	7.17
375.951	44.03
376.161	62.46
376.372	87.04
376.582	27.65
376.793	89.09
377.003	95.23
377.214	15.36
377.424	74.75
377.635	68.61
377.845	-25.6
378.055	87.04
378.266	46.08
378.476	84.99
378.686	54.27
378.897	128
379.107	33.79
379.317	41.98
379.528	91.13
379.738	128
379.948	54.27
380.158	54.27
380.369	60.42
380.579	62.46
380.789	13.31
380.999	128
381.21	-25.6
381.42	87.04
381.63	54.27
381.84	82.94
382.05	89.09
382.261	56.32
382.471	11.26
382.681	41.98
382.891	134.14
383.101	-9.22
383.311	19.46
383.521	87.04
383.731	58.37
383.941	66.56
384.151	17.41
384.361	60.42
384.571	105.47
384.781	125.95
384.991	101.37
385.201	154.62
385.411	64.51
385.621	23.55
385.831	109.57
386.041	84.99
386.251	48.13
386.461	11.26
386.671	46.08
386.881	103.42
387.091	111.61
387.301	13.31
387.511	13.31
387.72	64.51
387.93	37.89
388.14	39.94
388.35	46.08
388.56	150.53
388.769	132.09
388.979	-3.07
389.189	-1.02
389.399	1.02
389.609	95.23
389.818	95.23
390.028	44.03
390.238	52.22
390.447	56.32
390.657	60.42
390.867	23.55
391.076	19.46
391.286	117.76
391.496	121.85
391.705	105.47
391.915	-7.17
392.125	72.7
392.334	41.98
392.544	109.57
392.753	48.13
392.963	27.65
393.172	84.99
393.382	7.17
393.591	66.56
393.801	87.04
394.01	111.61
394.22	60.42
394.429	80.89
394.639	41.98
394.848	148.48
395.058	76.8
395.267	52.22
395.477	82.94
395.686	72.7
395.895	134.14
396.105	82.94
396.314	154.62
396.524	91.13
396.733	162.81
396.942	91.13
397.152	84.99
397.361	117.76
397.57	72.7
397.78	91.13
397.989	48.13
398.198	134.14
398.407	76.8
398.617	62.46
398.826	48.13
399.035	58.37
399.244	58.37
399.453	31.74
399.663	111.61
399.872	107.52
400.081	95.23
400.29	119.81
400.499	125.95
400.708	142.33
400.917	154.62
401.127	56.32
401.336	93.18
401.545	150.53
401.754	123.9
401.963	130.05
402.172	82.94
402.381	91.13
402.59	99.33
402.799	84.99
403.008	175.1
403.217	134.14
403.426	76.8
403.635	154.62
403.844	148.48
404.053	187.39
404.262	113.66
404.471	177.15
404.68	128
404.888	142.33
405.097	113.66
405.306	222.2
405.515	156.67
405.724	209.92
405.933	156.67
406.142	199.68
406.35	171.01
406.559	220.16
406.768	140.29
406.977	252.92
407.185	218.11
407.394	134.14
407.603	228.35
407.812	236.54
408.02	189.44
408.229	269.31
408.438	226.3
408.646	152.57
408.855	250.88
409.064	244.73
409.272	199.68
409.481	259.07
409.69	207.87
409.898	304.12
410.107	287.74
410.315	263.16
410.524	222.2
410.733	261.12
410.941	287.74
411.15	312.32
411.358	326.65
411.567	394.23
411.775	343.03
411.984	328.7
412.192	390.14
412.401	351.23
412.609	410.62
412.818	447.48
413.026	478.2
413.234	388.09
413.443	498.68
413.651	449.53
413.86	527.35
414.068	592.89
414.276	513.02
414.485	590.84
414.693	607.22
414.901	654.33
415.11	596.98
415.318	541.69
415.526	633.85
415.734	631.8
415.943	783.35
416.151	676.85
416.359	719.86
416.567	787.44
416.776	750.58
416.984	777.2
417.192	902.13
417.4	832.5
417.608	816.12
417.817	902.13
418.025	926.71
418.233	951.28
418.441	1014.77
418.649	971.76
418.857	1059.82
419.065	1160.17
419.273	1104.88
419.481	1172.46
419.689	1147.89
419.897	1205.23
420.105	1278.96
420.313	1256.43
420.521	1414.12
420.729	1377.26
420.937	1516.52
421.145	1487.85
421.353	1479.66
421.561	1659.88
421.769	1688.55
421.977	1631.21
422.185	1713.13
422.393	1809.38
422.601	2024.42
422.809	1866.72
423.017	1942.5
423.224	2008.03
423.432	2157.54
423.64	2163.68
423.848	2319.32
424.056	2296.8
424.263	2454.49
424.471	2491.35
424.679	2427.87
424.887	2669.53
425.094	2657.24
425.302	2673.62
425.51	2800.6
425.718	2921.43
425.925	2931.67
426.133	2962.39
426.341	3142.61
426.548	3302.35
426.756	3341.26
426.964	3367.88
427.171	3609.54
427.379	3634.12
427.586	3621.83
427.794	3734.47
428.001	3963.84
428.209	4088.77
428.417	4115.39
428.624	4459.45
428.832	4277.18
429.039	4436.92
429.247	4273.09
429.454	4871.09
429.662	4985.78
429.869	4647.87
430.076	5047.22
430.284	4887.48
430.491	5268.4
430.699	5331.89
430.906	5487.53
431.114	5594.03
431.321	5704.62
431.528	5811.11
431.736	6087.59
431.943	6577.05
432.15	6394.78
432.358	6353.82
432.565	6587.29
432.772	6724.51
432.979	6964.12
433.187	7070.61
433.394	7267.22
433.601	7590.8
433.808	7670.67
434.016	7539.6
434.223	7889.8
434.43	8555.39
434.637	8346.5
434.844	8672.12
435.052	8887.16
435.259	9042.81
435.466	9073.53
435.673	8764.28
435.88	9522.03
436.087	10101.61
436.294	10048.36
436.501	9767.79
436.708	10074.98
436.915	10290.02
437.122	10789.72
437.329	10826.59
437.537	11180.89
437.743	11471.7
437.95	11109.21
438.157	11815.76
438.364	12317.51
438.571	12256.07
438.778	12372.8
438.985	13437.75
439.192	12999.48
439.399	13091.64
439.606	12802.88
439.813	13806.38
440.02	14287.65
440.227	14164.78
440.433	14005.03
440.64	14420.77
440.847	14531.36
441.054	14748.45
441.261	15561.49
441.467	15661.84
441.674	15872.78
441.881	16663.3
442.088	16128.78
442.294	16388.87
442.501	16849.66
442.708	16978.68
442.914	17672.95
443.121	18563.81
443.328	17926.89
443.534	19153.63
443.741	18707.17
443.948	18625.25
444.154	19765.97
444.361	19737.3
444.568	19790.55
444.774	19788.5
444.981	20046.54
445.187	20785.86
445.394	21353.15
445.6	21125.82
445.807	23237.28
446.013	22057.65
446.22	22536.87
446.426	23591.58
446.633	23661.21
446.839	24537.74
447.046	23636.63
447.252	25006.72
447.459	24982.15
447.665	24699.53
447.871	26147.44
448.078	27038.31
448.284	25918.07
448.491	26884.71
448.697	27716.19
448.903	28041.81
449.11	28015.19
449.316	27628.12
449.522	27894.36
449.728	28940.87
449.935	29235.78
450.141	29235.78
450.347	29901.37
450.553	28908.1
450.76	29342.27
450.966	30278.19
451.172	29803.07
451.378	30825
451.584	30057.01
451.791	30755.37
451.997	30958.12
452.203	31169.06
452.409	31300.13
452.615	31124.01
452.821	29854.26
453.027	29569.6
453.233	31339.04
453.44	29678.14
453.646	30081.59
453.852	30415.41
454.058	30839.34
454.264	29659.71
454.47	31046.18
454.676	29858.36
454.882	30718.51
455.088	28107.35
455.294	28553.8
455.5	28899.91
455.705	29401.66
455.911	28193.36
456.117	27585.12
456.323	27083.36
456.529	25834.1
456.735	26722.92
456.941	26301.04
457.147	25651.83
457.352	25033.35
457.558	24826.5
457.764	24640.14
457.97	24367.76
458.176	23919.25
458.381	23804.56
458.587	22489.77
458.793	22424.23
458.999	21254.84
459.204	22866.6
459.41	22444.71
459.616	21060.29
459.821	20849.35
460.027	20847.3
460.233	20607.69
460.438	19319.51
460.644	19739.35
460.85	18729.7
461.055	18436.84
461.261	18311.91
461.466	17117.95
461.672	16481.03
461.878	17584.88
462.083	16331.53
462.289	16139.02
462.494	15698.7
462.7	15235.86
462.905	14854.94
463.111	15239.96
463.316	15422.23
463.522	15264.54
463.727	15186.71
463.932	14955.29
464.138	14783.26
464.343	14983.96
464.549	14596.9
464.754	14900
464.959	15012.63
465.165	14834.46
465.37	14213.93
465.575	13667.12
465.781	14492.45
465.986	14322.47
466.191	13869.87
466.397	13587.25
466.602	12690.24
466.807	13357.88
467.012	13384.5
467.218	13351.73
467.423	13263.67
467.628	13497.14
467.833	14056.23
468.038	13378.36
468.244	12991.29
468.449	13349.68
468.654	13005.63
