Data from USB4F104151__37__11-51-43-828.txt Node

Date: Fri Mar 14 11:51:43 EDT 2025
User: louis
Spectrometer: USB4F10415
Trigger mode: 4
Integration Time (sec): 2.000000E-2
Scans to average: 1
Electric dark correction enabled: true
Nonlinearity correction enabled: false
Boxcar width: 0
XAxis mode: Wavelengths
Number of Pixels in Spectrum: 3648
>>>>>Begin Spectral Data<<<<<
178.204	-81.41
178.424	-81.41
178.644	-81.41
178.864	-101.89
179.084	-19.97
179.304	-56.83
179.524	12.8
179.744	14.85
179.964	72.19
180.184	-56.83
180.404	43.52
180.624	-32.26
180.844	10.75
181.064	-36.35
181.283	27.14
181.503	-22.02
181.723	23.04
181.943	-32.26
182.163	25.09
182.383	14.85
182.602	18.94
182.822	86.53
183.042	-3.58
183.262	-17.92
183.482	27.14
183.701	37.38
183.921	-3.58
184.141	-40.45
184.361	-32.26
184.58	18.94
184.8	-15.87
185.02	-11.78
185.239	-9.73
185.459	12.8
185.679	76.29
185.898	-67.07
186.118	-9.73
186.338	27.14
186.557	-7.68
186.777	-40.45
186.997	-13.82
187.216	-7.68
187.436	82.43
187.655	-28.16
187.875	-40.45
188.095	20.99
188.314	27.14
188.534	6.66
188.753	-15.87
188.973	10.75
189.192	57.86
189.412	-38.4
189.631	-3.58
189.851	-26.11
190.07	96.77
190.29	20.99
190.509	-30.21
190.729	-5.63
190.948	16.9
191.168	-28.16
191.387	27.14
191.607	33.28
191.826	-36.35
192.045	0.51
192.265	57.86
192.484	49.66
192.704	23.04
192.923	-3.58
193.142	49.66
193.362	-17.92
193.581	98.81
193.8	55.81
194.02	18.94
194.239	12.8
194.458	51.71
194.678	74.24
194.897	-30.21
195.116	25.09
195.335	-3.58
195.555	-65.02
195.774	-75.26
195.993	-7.68
196.212	29.18
196.432	-30.21
196.651	-3.58
196.87	27.14
197.089	49.66
197.308	0.51
197.528	-1.54
197.747	-38.4
197.966	-52.74
198.185	-15.87
198.404	59.9
198.623	-5.63
198.842	68.09
199.062	6.66
199.281	37.38
199.5	12.8
199.719	10.75
199.938	-30.21
200.157	102.91
200.376	90.62
200.595	-48.64
200.814	53.76
201.033	-7.68
201.252	33.28
201.471	53.76
201.69	-34.3
201.909	25.09
202.128	4.61
202.347	-13.82
202.566	-11.78
202.785	-42.5
203.004	31.23
203.223	70.14
203.442	14.85
203.661	39.42
203.879	41.47
204.098	31.23
204.317	-36.35
204.536	-11.78
204.755	-11.78
204.974	33.28
205.193	16.9
205.411	41.47
205.63	31.23
205.849	70.14
206.068	20.99
206.287	-24.06
206.505	0.51
206.724	-26.11
206.943	37.38
207.162	25.09
207.381	47.62
207.599	43.52
207.818	31.23
208.037	23.04
208.255	2.56
208.474	111.1
208.693	6.66
208.911	-9.73
209.13	37.38
209.349	66.05
209.567	-11.78
209.786	-26.11
210.005	27.14
210.223	51.71
210.442	14.85
210.661	2.56
210.879	-69.12
211.098	10.75
211.316	-28.16
211.535	20.99
211.753	49.66
211.972	14.85
212.191	0.51
212.409	27.14
212.628	18.94
212.846	-17.92
213.065	70.14
213.283	-11.78
213.502	-22.02
213.72	-5.63
213.938	-36.35
214.157	-17.92
214.375	-42.5
214.594	23.04
214.812	-22.02
215.031	-9.73
215.249	23.04
215.467	31.23
215.686	-34.3
215.904	-7.68
216.122	-58.88
216.341	39.42
216.559	61.95
216.778	35.33
216.996	37.38
217.214	33.28
217.432	6.66
217.651	29.18
217.869	-46.59
218.087	37.38
218.306	18.94
218.524	23.04
218.742	16.9
218.96	-52.74
219.179	-17.92
219.397	25.09
219.615	51.71
219.833	25.09
220.051	-11.78
220.27	10.75
220.488	14.85
220.706	16.9
220.924	18.94
221.142	-19.97
221.36	23.04
221.578	14.85
221.796	80.38
222.015	-1.54
222.233	12.8
222.451	92.67
222.669	10.75
222.887	8.7
223.105	33.28
223.323	12.8
223.541	-13.82
223.759	37.38
223.977	-40.45
224.195	20.99
224.413	-9.73
224.631	68.09
224.849	16.9
225.067	150.01
225.285	-26.11
225.503	29.18
225.721	-3.58
225.939	10.75
226.157	8.7
226.375	94.72
226.592	-93.69
226.81	66.05
227.028	-24.06
227.246	18.94
227.464	0.51
227.682	23.04
227.9	8.7
228.117	64
228.335	41.47
228.553	2.56
228.771	20.99
228.989	-7.68
229.206	68.09
229.424	49.66
229.642	-11.78
229.86	-9.73
230.077	-34.3
230.295	-30.21
230.513	49.66
230.731	98.81
230.948	31.23
231.166	39.42
231.384	27.14
231.601	109.05
231.819	-15.87
232.037	-17.92
232.254	45.57
232.472	16.9
232.689	-19.97
232.907	8.7
233.125	2.56
233.342	53.76
233.56	16.9
233.777	2.56
233.995	29.18
234.213	-9.73
234.43	33.28
234.648	12.8
234.865	12.8
235.083	16.9
235.3	-62.98
235.518	-32.26
235.735	-9.73
235.953	64
236.17	-17.92
236.388	-38.4
236.605	25.09
236.822	37.38
237.04	-19.97
237.257	-32.26
237.475	-67.07
237.692	47.62
237.909	10.75
238.127	-5.63
238.344	-28.16
238.562	23.04
238.779	-28.16
238.996	-22.02
239.214	-9.73
239.431	0.51
239.648	-34.3
239.865	25.09
240.083	66.05
240.3	-36.35
240.517	51.71
240.735	33.28
240.952	41.47
241.169	-5.63
241.386	16.9
241.603	-15.87
241.821	8.7
242.038	6.66
242.255	12.8
242.472	-44.54
242.689	-50.69
242.907	35.33
243.124	4.61
243.341	0.51
243.558	-38.4
243.775	-9.73
243.992	6.66
244.209	-1.54
244.426	45.57
244.643	-54.78
244.86	-11.78
245.078	31.23
245.295	20.99
245.512	35.33
245.729	-24.06
245.946	0.51
246.163	16.9
246.38	43.52
246.597	-19.97
246.814	84.48
247.031	25.09
247.248	18.94
247.464	33.28
247.681	16.9
247.898	37.38
248.115	27.14
248.332	-19.97
248.549	55.81
248.766	72.19
248.983	-9.73
249.2	88.57
249.417	8.7
249.633	39.42
249.85	20.99
250.067	-32.26
250.284	8.7
250.501	-1.54
250.717	43.52
250.934	-17.92
251.151	84.48
251.368	-44.54
251.585	-3.58
251.801	41.47
252.018	25.09
252.235	92.67
252.451	16.9
252.668	12.8
252.885	8.7
253.102	-38.4
253.318	6.66
253.535	49.66
253.752	86.53
253.968	41.47
254.185	25.09
254.401	53.76
254.618	31.23
254.835	-77.31
255.051	107.01
255.268	25.09
255.484	66.05
255.701	-7.68
255.917	-22.02
256.134	-22.02
256.351	20.99
256.567	-32.26
256.784	-17.92
257	-3.58
257.217	-1.54
257.433	82.43
257.65	35.33
257.866	-3.58
258.082	78.33
258.299	55.81
258.515	104.96
258.732	12.8
258.948	31.23
259.165	78.33
259.381	-9.73
259.597	49.66
259.814	-38.4
260.03	29.18
260.246	10.75
260.463	-42.5
260.679	-36.35
260.895	-5.63
261.112	-7.68
261.328	47.62
261.544	33.28
261.761	23.04
261.977	-19.97
262.193	33.28
262.409	45.57
262.626	-13.82
262.842	-38.4
263.058	-26.11
263.274	68.09
263.49	-44.54
263.707	55.81
263.923	14.85
264.139	-40.45
264.355	-13.82
264.571	-13.82
264.787	-3.58
265.004	-9.73
265.22	-11.78
265.436	-3.58
265.652	-17.92
265.868	8.7
266.084	-26.11
266.3	-56.83
266.516	10.75
266.732	-7.68
266.948	-19.97
267.164	10.75
267.38	98.81
267.596	37.38
267.812	45.57
268.028	109.05
268.244	37.38
268.46	53.76
268.676	33.28
268.892	8.7
269.108	-38.4
269.324	-3.58
269.54	-7.68
269.756	41.47
269.972	41.47
270.188	-17.92
270.403	57.86
270.619	-28.16
270.835	-15.87
271.051	41.47
271.267	-44.54
271.483	4.61
271.698	6.66
271.914	86.53
272.13	0.51
272.346	27.14
272.562	14.85
272.777	57.86
272.993	-5.63
273.209	-17.92
273.425	49.66
273.64	-42.5
273.856	-48.64
274.072	18.94
274.287	8.7
274.503	80.38
274.719	-28.16
274.934	-19.97
275.15	6.66
275.366	-19.97
275.581	-9.73
275.797	55.81
276.012	-17.92
276.228	80.38
276.444	27.14
276.659	53.76
276.875	39.42
277.09	64
277.306	-38.4
277.521	39.42
277.737	-54.78
277.952	80.38
278.168	39.42
278.383	4.61
278.599	2.56
278.814	41.47
279.03	55.81
279.245	88.57
279.461	86.53
279.676	90.62
279.892	43.52
280.107	-44.54
280.322	33.28
280.538	-11.78
280.753	-30.21
280.969	35.33
281.184	29.18
281.399	12.8
281.615	31.23
281.83	25.09
282.045	45.57
282.26	-5.63
282.476	-46.59
282.691	76.29
282.906	20.99
283.122	29.18
283.337	-17.92
283.552	68.09
283.767	27.14
283.983	76.29
284.198	14.85
284.413	31.23
284.628	-48.64
284.843	29.18
285.058	29.18
285.274	20.99
285.489	-60.93
285.704	61.95
285.919	-11.78
286.134	98.81
286.349	20.99
286.564	12.8
286.779	12.8
286.995	-30.21
287.21	-38.4
287.425	0.51
287.64	27.14
287.855	-48.64
288.07	-62.98
288.285	49.66
288.5	25.09
288.715	39.42
288.93	88.57
289.145	-11.78
289.36	-1.54
289.575	29.18
289.79	-19.97
290.004	51.71
290.219	57.86
290.434	-5.63
290.649	107.01
290.864	-15.87
291.079	51.71
291.294	66.05
291.509	16.9
291.724	-17.92
291.938	66.05
292.153	-32.26
292.368	35.33
292.583	43.52
292.798	74.24
293.012	35.33
293.227	47.62
293.442	72.19
293.657	6.66
293.871	33.28
294.086	16.9
294.301	47.62
294.516	27.14
294.73	-32.26
294.945	-5.63
295.16	6.66
295.374	20.99
295.589	10.75
295.804	25.09
296.018	39.42
296.233	14.85
296.447	10.75
296.662	51.71
296.877	72.19
297.091	-36.35
297.306	-24.06
297.52	-24.06
297.735	61.95
297.949	-11.78
298.164	29.18
298.378	47.62
298.593	-9.73
298.807	109.05
299.022	78.33
299.236	51.71
299.451	10.75
299.665	-1.54
299.88	29.18
300.094	16.9
300.309	4.61
300.523	61.95
300.737	43.52
300.952	-5.63
301.166	-17.92
301.381	23.04
301.595	6.66
301.809	41.47
302.024	74.24
302.238	25.09
302.452	84.48
302.667	74.24
302.881	96.77
303.095	-13.82
303.309	-1.54
303.524	80.38
303.738	10.75
303.952	27.14
304.166	57.86
304.381	31.23
304.595	33.28
304.809	-22.02
305.023	49.66
305.237	55.81
305.452	33.28
305.666	78.33
305.88	31.23
306.094	18.94
306.308	25.09
306.522	51.71
306.736	43.52
306.95	8.7
307.164	-5.63
307.379	2.56
307.593	4.61
307.807	0.51
308.021	90.62
308.235	80.38
308.449	-5.63
308.663	-15.87
308.877	74.24
309.091	-1.54
309.305	64
309.519	41.47
309.733	104.96
309.947	-1.54
310.161	68.09
310.374	47.62
310.588	-58.88
310.802	-11.78
311.016	-9.73
311.23	-36.35
311.444	55.81
311.658	20.99
311.872	35.33
312.085	-13.82
312.299	23.04
312.513	8.7
312.727	100.86
312.941	37.38
313.154	51.71
313.368	29.18
313.582	72.19
313.796	51.71
314.009	47.62
314.223	94.72
314.437	8.7
314.651	61.95
314.864	35.33
315.078	-54.78
315.292	25.09
315.505	6.66
315.719	47.62
315.933	0.51
316.146	27.14
316.36	37.38
316.573	25.09
316.787	94.72
317.001	37.38
317.214	2.56
317.428	-60.93
317.641	27.14
317.855	-5.63
318.068	-17.92
318.282	20.99
318.495	70.14
318.709	59.9
318.922	-17.92
319.136	70.14
319.349	31.23
319.563	68.09
319.776	25.09
319.99	35.33
320.203	25.09
320.417	10.75
320.63	16.9
320.843	78.33
321.057	39.42
321.27	12.8
321.483	43.52
321.697	16.9
321.91	35.33
322.124	82.43
322.337	88.57
322.55	80.38
322.763	-13.82
322.977	64
323.19	35.33
323.403	-3.58
323.617	35.33
323.83	-38.4
324.043	27.14
324.256	-26.11
324.469	70.14
324.683	-69.12
324.896	31.23
325.109	115.2
325.322	-36.35
325.535	20.99
325.748	-17.92
325.962	-52.74
326.175	31.23
326.388	35.33
326.601	41.47
326.814	2.56
327.027	-32.26
327.24	23.04
327.453	-69.12
327.666	14.85
327.879	25.09
328.092	37.38
328.305	37.38
328.518	31.23
328.731	2.56
328.944	78.33
329.157	53.76
329.37	29.18
329.583	72.19
329.796	47.62
330.009	16.9
330.222	76.29
330.435	12.8
330.648	-1.54
330.861	70.14
331.073	6.66
331.286	-24.06
331.499	12.8
331.712	-30.21
331.925	2.56
332.138	23.04
332.35	-15.87
332.563	-13.82
332.776	-9.73
332.989	-3.58
333.202	6.66
333.414	35.33
333.627	6.66
333.84	27.14
334.053	-15.87
334.265	-1.54
334.478	72.19
334.691	-1.54
334.903	29.18
335.116	-85.5
335.329	33.28
335.541	23.04
335.754	57.86
335.966	35.33
336.179	31.23
336.392	-9.73
336.604	-9.73
336.817	20.99
337.029	20.99
337.242	-3.58
337.454	104.96
337.667	29.18
337.88	98.81
338.092	45.57
338.305	29.18
338.517	31.23
338.729	18.94
338.942	2.56
339.154	18.94
339.367	-7.68
339.579	41.47
339.792	6.66
340.004	49.66
340.217	57.86
340.429	-1.54
340.641	94.72
340.854	-32.26
341.066	-26.11
341.278	43.52
341.491	80.38
341.703	-36.35
341.915	-95.74
342.128	39.42
342.34	33.28
342.552	70.14
342.764	70.14
342.977	41.47
343.189	80.38
343.401	88.57
343.613	25.09
343.826	6.66
344.038	-24.06
344.25	0.51
344.462	16.9
344.674	74.24
344.886	70.14
345.099	-46.59
345.311	16.9
345.523	-7.68
345.735	-116.22
345.947	86.53
346.159	70.14
346.371	43.52
346.583	35.33
346.795	61.95
347.007	39.42
347.219	37.38
347.431	35.33
347.643	64
347.855	0.51
348.067	31.23
348.279	25.09
348.491	-62.98
348.703	53.76
348.915	-56.83
349.127	84.48
349.339	39.42
349.551	25.09
349.763	39.42
349.975	59.9
350.187	41.47
350.399	33.28
350.61	43.52
350.822	92.67
351.034	47.62
351.246	-65.02
351.458	16.9
351.669	4.61
351.881	18.94
352.093	57.86
352.305	74.24
352.517	-3.58
352.728	49.66
352.94	0.51
353.152	72.19
353.363	2.56
353.575	-71.17
353.787	10.75
353.999	49.66
354.21	10.75
354.422	-7.68
354.633	18.94
354.845	-1.54
355.057	37.38
355.268	-24.06
355.48	27.14
355.692	14.85
355.903	37.38
356.115	12.8
356.326	-30.21
356.538	70.14
356.749	-42.5
356.961	70.14
357.172	29.18
357.384	-71.17
357.595	20.99
357.807	-11.78
358.018	-5.63
358.23	-17.92
358.441	51.71
358.653	0.51
358.864	39.42
359.075	-17.92
359.287	55.81
359.498	47.62
359.709	-7.68
359.921	18.94
360.132	35.33
360.344	64
360.555	-34.3
360.766	6.66
360.977	14.85
361.189	53.76
361.4	-36.35
361.611	61.95
361.823	43.52
362.034	25.09
362.245	10.75
362.456	-15.87
362.667	100.86
362.879	57.86
363.09	39.42
363.301	41.47
363.512	23.04
363.723	25.09
363.935	10.75
364.146	-15.87
364.357	16.9
364.568	-7.68
364.779	8.7
364.99	41.47
365.201	59.9
365.412	64
365.623	-15.87
365.834	49.66
366.045	41.47
366.256	100.86
366.467	18.94
366.678	16.9
366.889	33.28
367.1	66.05
367.311	31.23
367.522	20.99
367.733	18.94
367.944	31.23
368.155	90.62
368.366	-9.73
368.577	25.09
368.788	104.96
368.999	31.23
369.209	31.23
369.42	64
369.631	74.24
369.842	4.61
370.053	4.61
370.264	43.52
370.474	10.75
370.685	0.51
370.896	45.57
371.107	57.86
371.317	39.42
371.528	-46.59
371.739	102.91
371.95	-3.58
372.16	12.8
372.371	51.71
372.582	-28.16
372.792	29.18
373.003	70.14
373.214	86.53
373.424	10.75
373.635	23.04
373.846	94.72
374.056	2.56
374.267	4.61
374.477	39.42
374.688	-42.5
374.898	4.61
375.109	12.8
375.319	33.28
375.53	16.9
375.74	121.34
375.951	-19.97
376.161	45.57
376.372	-32.26
376.582	70.14
376.793	64
377.003	33.28
377.214	10.75
377.424	57.86
377.635	66.05
377.845	-26.11
378.055	47.62
378.266	-5.63
378.476	6.66
378.686	45.57
378.897	59.9
379.107	80.38
379.317	-30.21
379.528	80.38
379.738	47.62
379.948	-58.88
380.158	12.8
380.369	57.86
380.579	51.71
380.789	57.86
380.999	43.52
381.21	43.52
381.42	68.09
381.63	10.75
381.84	92.67
382.05	-58.88
382.261	84.48
382.471	45.57
382.681	49.66
382.891	76.29
383.101	78.33
383.311	6.66
383.521	2.56
383.731	92.67
383.941	31.23
384.151	31.23
384.361	100.86
384.571	43.52
384.781	10.75
384.991	84.48
385.201	53.76
385.411	47.62
385.621	16.9
385.831	-13.82
386.041	16.9
386.251	66.05
386.461	37.38
386.671	72.19
386.881	29.18
387.091	64
387.301	141.82
387.511	2.56
387.72	45.57
387.93	27.14
388.14	12.8
388.35	14.85
388.56	57.86
388.769	53.76
388.979	6.66
389.189	55.81
389.399	25.09
389.609	-9.73
389.818	-1.54
390.028	23.04
390.238	45.57
390.447	4.61
390.657	53.76
390.867	49.66
391.076	53.76
391.286	23.04
391.496	59.9
391.705	16.9
391.915	64
392.125	78.33
392.334	43.52
392.544	37.38
392.753	31.23
392.963	-3.58
393.172	107.01
393.382	-7.68
393.591	135.68
393.801	12.8
394.01	94.72
394.22	55.81
394.429	57.86
394.639	84.48
394.848	76.29
395.058	113.15
395.267	76.29
395.477	27.14
395.686	66.05
395.895	154.11
396.105	92.67
396.314	-3.58
396.524	59.9
396.733	-3.58
396.942	82.43
397.152	86.53
397.361	152.06
397.57	45.57
397.78	-7.68
397.989	80.38
398.198	123.39
398.407	53.76
398.617	84.48
398.826	64
399.035	100.86
399.244	145.92
399.453	90.62
399.663	43.52
399.872	127.49
400.081	119.29
400.29	88.57
400.499	33.28
400.708	84.48
400.917	82.43
401.127	55.81
401.336	74.24
401.545	31.23
401.754	82.43
401.963	66.05
402.172	147.97
402.381	23.04
402.59	78.33
402.799	35.33
403.008	115.2
403.217	135.68
403.426	37.38
403.635	86.53
403.844	61.95
404.053	92.67
404.262	47.62
404.471	141.82
404.68	121.34
404.888	154.11
405.097	127.49
405.306	123.39
405.515	129.53
405.724	137.73
405.933	137.73
406.142	147.97
406.35	107.01
406.559	131.58
406.768	207.36
406.977	201.21
407.185	176.64
407.394	213.5
407.603	166.4
407.812	215.55
408.02	221.69
408.229	195.07
408.438	125.44
408.646	174.59
408.855	231.93
409.064	207.36
409.272	213.5
409.481	285.18
409.69	227.84
409.898	240.12
410.107	301.56
410.315	299.52
410.524	322.04
410.733	254.46
410.941	311.8
411.15	350.71
411.358	385.53
411.567	303.61
411.775	307.71
411.984	406.01
412.192	430.59
412.401	406.01
412.609	399.87
412.818	360.95
413.026	395.77
413.234	416.25
413.443	506.36
413.651	498.17
413.86	549.37
414.068	537.08
414.276	518.65
414.485	596.47
414.693	575.99
414.901	598.52
415.11	653.81
415.318	643.57
415.526	627.19
415.734	668.15
415.943	752.12
416.151	723.44
416.359	754.16
416.567	840.18
416.776	883.19
416.984	825.84
417.192	838.13
417.4	942.58
417.608	950.77
417.817	952.82
418.025	965.11
418.233	1069.55
418.441	1032.69
418.649	1087.98
418.857	1149.42
419.065	1257.96
419.273	1014.26
419.481	1118.7
419.689	1276.4
419.897	1360.36
420.105	1403.37
420.313	1358.32
420.521	1475.05
420.729	1583.59
420.937	1561.06
421.145	1673.7
421.353	1616.36
421.561	1831.4
421.769	1843.68
421.977	1794.53
422.185	1729
422.393	1960.42
422.601	2161.12
422.809	2040.29
423.017	2150.88
423.224	2116.06
423.432	2298.33
423.64	2300.38
423.848	2468.31
424.056	2453.98
424.263	2587.1
424.471	2460.12
424.679	2652.63
424.887	2761.17
425.094	2798.04
425.302	2908.63
425.51	2980.31
425.718	2970.07
425.925	3103.18
426.133	3154.38
426.341	3482.06
426.548	3658.18
426.756	3537.35
426.964	3613.13
427.171	3770.82
427.379	4041.15
427.586	3807.69
427.794	3942.85
428.001	4379.07
428.209	4368.83
428.417	4524.47
428.624	4680.12
428.832	4772.28
429.039	4753.85
429.247	4641.21
429.454	5190.06
429.662	5495.21
429.869	5063.09
430.076	5593.51
430.284	5468.59
430.491	5616.04
430.699	5933.48
430.906	5761.45
431.114	6070.69
431.321	6193.57
431.528	6377.89
431.736	6822.3
431.943	7172.5
432.15	6801.82
432.358	7051.67
432.565	7334.29
432.772	7252.37
432.979	7588.24
433.187	7913.86
433.394	7872.9
433.601	8380.8
433.808	8190.34
434.016	8309.12
434.223	8761.72
434.43	9101.69
434.637	9015.67
434.844	9636.2
435.052	9871.72
435.259	9849.19
435.466	9845.1
435.673	9668.97
435.88	10348.9
436.087	10862.94
436.294	10959.19
436.501	10647.9
436.708	10815.83
436.915	11403.6
437.122	11641.17
437.329	11581.78
437.537	11993.42
437.743	12407.11
437.95	12104.01
438.157	12902.72
438.364	13287.73
438.571	13248.82
438.778	13084.98
438.985	14549.28
439.192	14008.62
439.399	14467.36
439.606	14123.3
439.813	15038.75
440.02	15704.34
440.227	15405.33
440.433	15401.24
440.64	15907.09
440.847	15894.8
441.054	16089.35
441.261	17193.21
441.467	17039.61
441.674	17537.27
441.881	17905.9
442.088	17914.09
442.294	17731.83
442.501	18340.07
442.708	18948.32
442.914	19462.36
443.121	20269.26
443.328	19732.69
443.534	21135.55
443.741	20609.22
443.948	19992.78
444.154	21614.77
444.361	21407.93
444.568	21627.06
444.774	21649.59
444.981	21885.11
445.187	22902.95
445.394	23500.95
445.6	22802.6
445.807	25399.42
446.013	24244.37
446.22	24619.14
446.426	25661.56
446.633	25876.6
446.839	26759.27
447.046	25569.4
447.252	27441.25
447.459	27258.98
447.665	27371.61
447.871	28209.23
448.078	29362.24
448.284	28344.4
448.491	28553.29
448.697	29892.66
448.903	30617.64
449.11	30367.79
449.316	30167.09
449.522	30593.07
449.728	31567.9
449.935	31715.36
450.141	31737.88
450.347	32491.54
450.553	31277.09
450.76	32073.75
450.966	32530.45
451.172	32608.27
451.378	33497.09
451.584	32831.5
451.791	33370.11
451.997	33165.32
452.203	33857.53
452.409	33689.6
452.615	33779.71
452.821	32815.12
453.027	31957.02
453.233	33812.48
453.44	32659.47
453.646	33024.01
453.852	33138.69
454.058	33677.31
454.264	32567.31
454.47	33196.04
454.676	32167.96
454.882	33511.42
455.088	30599.21
455.294	31117.35
455.5	31565.85
455.705	31825.95
455.911	30695.47
456.117	29857.85
456.323	29421.63
456.529	27801.69
456.735	29130.82
456.941	28383.31
457.147	27992.15
457.352	27189.35
457.558	27076.71
457.764	26771.56
457.97	26347.63
458.176	26124.4
458.381	25553.02
458.587	24424.59
458.793	24539.27
458.999	23441.56
459.204	25096.32
459.41	24055.95
459.616	22583.46
459.821	22452.39
460.027	22509.74
460.233	22204.59
460.438	21137.6
460.644	21266.62
460.85	20299.98
461.055	19775.7
461.261	19912.91
461.466	18520.29
461.672	17993.97
461.878	19181.79
462.083	18012.4
462.289	17649.91
462.494	17203.45
462.7	16769.28
462.905	16230.66
463.111	16894.21
463.316	16705.79
463.522	16259.34
463.727	16683.27
463.932	16380.17
464.138	16263.43
464.343	16431.37
464.549	15913.23
464.754	16255.24
464.959	16120.07
465.165	16052.49
465.37	15317.27
465.575	15005.98
465.781	15614.23
465.986	15632.66
466.191	15200.54
466.397	14868.77
466.602	14281
466.807	14715.17
467.012	14987.55
467.218	14543.14
467.423	14596.39
467.628	14633.25
467.833	15042.84
468.038	14696.74
