Data from USB4F104151__73__11-52-40-501.txt Node

Date: Fri Mar 14 11:52:40 EDT 2025
User: louis
Spectrometer: USB4F10415
Trigger mode: 4
Integration Time (sec): 2.000000E-2
Scans to average: 1
Electric dark correction enabled: true
Nonlinearity correction enabled: false
Boxcar width: 0
XAxis mode: Wavelengths
Number of Pixels in Spectrum: 3648
>>>>>Begin Spectral Data<<<<<
178.204	-17.07
178.424	-17.07
178.644	-17.07
178.864	-86.7
179.084	-76.46
179.304	13.65
179.524	32.08
179.744	-6.83
179.964	42.32
180.184	-60.07
180.404	32.08
180.624	-39.59
180.844	-0.68
181.064	27.99
181.283	27.99
181.503	-82.6
181.723	13.65
181.943	11.61
182.163	58.71
182.383	-17.07
182.602	32.08
182.822	71
183.042	34.13
183.262	-19.11
183.482	-31.4
183.701	15.7
183.921	32.08
184.141	5.46
184.361	5.46
184.58	30.04
184.8	5.46
185.02	-51.88
185.239	46.42
185.459	46.42
185.679	34.13
185.898	-49.83
186.118	36.18
186.338	46.42
186.557	38.23
186.777	19.8
186.997	13.65
187.216	58.71
187.436	54.61
187.655	44.37
187.875	91.48
188.095	25.94
188.314	83.28
188.534	50.52
188.753	-10.92
188.973	36.18
189.192	-4.78
189.412	-6.83
189.631	-15.02
189.851	3.41
190.07	85.33
190.29	44.37
190.509	-10.92
190.729	30.04
190.948	34.13
191.168	114
191.387	75.09
191.607	7.51
191.826	60.76
192.045	71
192.265	-35.5
192.484	-39.59
192.704	-25.26
192.923	-10.92
193.142	-10.92
193.362	83.28
193.581	79.19
193.8	66.9
194.02	21.85
194.239	-2.73
194.458	-4.78
194.678	-19.11
194.897	40.28
195.116	7.51
195.335	46.42
195.555	34.13
195.774	68.95
195.993	54.61
196.212	17.75
196.432	-17.07
196.651	21.85
196.87	-23.21
197.089	52.56
197.308	-4.78
197.528	25.94
197.747	9.56
197.966	50.52
198.185	3.41
198.404	-33.45
198.623	9.56
198.842	38.23
199.062	66.9
199.281	-15.02
199.5	34.13
199.719	27.99
199.938	5.46
200.157	9.56
200.376	23.89
200.595	19.8
200.814	40.28
201.033	73.04
201.252	64.85
201.471	64.85
201.69	-19.11
201.909	-27.31
202.128	120.15
202.347	-19.11
202.566	1.37
202.785	83.28
203.004	-4.78
203.223	23.89
203.442	68.95
203.661	-49.83
203.879	44.37
204.098	-23.21
204.317	87.38
204.536	-60.07
204.755	5.46
204.974	77.14
205.193	-8.87
205.411	19.8
205.63	40.28
205.849	-8.87
206.068	64.85
206.287	58.71
206.505	60.76
206.724	97.62
206.943	1.37
207.162	75.09
207.381	36.18
207.599	-6.83
207.818	-43.69
208.037	1.37
208.255	81.24
208.474	97.62
208.693	17.75
208.911	-0.68
209.13	68.95
209.349	9.56
209.567	-27.31
209.786	97.62
210.005	77.14
210.223	95.57
210.442	38.23
210.661	-45.74
210.879	44.37
211.098	103.76
211.316	13.65
211.535	32.08
211.753	66.9
211.972	73.04
212.191	5.46
212.409	-41.64
212.628	75.09
212.846	-4.78
213.065	-4.78
213.283	-6.83
213.502	-4.78
213.72	-60.07
213.938	5.46
214.157	52.56
214.375	-2.73
214.594	-4.78
214.812	64.85
215.031	62.8
215.249	34.13
215.467	44.37
215.686	1.37
215.904	68.95
216.122	7.51
216.341	77.14
216.559	109.91
216.778	-45.74
216.996	138.58
217.214	68.95
217.432	-10.92
217.651	1.37
217.869	52.56
218.087	-37.55
218.306	48.47
218.524	15.7
218.742	5.46
218.96	48.47
219.179	44.37
219.397	3.41
219.615	64.85
219.833	93.52
220.051	-0.68
220.27	79.19
220.488	-8.87
220.706	103.76
220.924	89.43
221.142	-2.73
221.36	46.42
221.578	23.89
221.796	36.18
222.015	25.94
222.233	23.89
222.451	13.65
222.669	68.95
222.887	27.99
223.105	48.47
223.323	-49.83
223.541	-19.11
223.759	-12.97
223.977	52.56
224.195	91.48
224.413	71
224.631	-12.97
224.849	-25.26
225.067	21.85
225.285	5.46
225.503	44.37
225.721	85.33
225.939	122.2
226.157	3.41
226.375	40.28
226.592	60.76
226.81	73.04
227.028	54.61
227.246	58.71
227.464	-41.64
227.682	-80.55
227.9	97.62
228.117	58.71
228.335	25.94
228.553	34.13
228.771	46.42
228.989	-2.73
229.206	23.89
229.424	1.37
229.642	-35.5
229.86	9.56
230.077	7.51
230.295	-55.98
230.513	54.61
230.731	68.95
230.948	-4.78
231.166	66.9
231.384	7.51
231.601	66.9
231.819	-8.87
232.037	-31.4
232.254	7.51
232.472	60.76
232.689	46.42
232.907	-0.68
233.125	-37.55
233.342	-33.45
233.56	1.37
233.777	9.56
233.995	23.89
234.213	66.9
234.43	-10.92
234.648	7.51
234.865	-27.31
235.083	11.61
235.3	9.56
235.518	46.42
235.735	85.33
235.953	3.41
236.17	-53.93
236.388	27.99
236.605	34.13
236.822	58.71
237.04	71
237.257	48.47
237.475	-25.26
237.692	25.94
237.909	34.13
238.127	-19.11
238.344	46.42
238.562	-21.16
238.779	-0.68
238.996	-41.64
239.214	9.56
239.431	42.32
239.648	19.8
239.865	46.42
240.083	19.8
240.3	25.94
240.517	-25.26
240.735	87.38
240.952	-4.78
241.169	128.34
241.386	77.14
241.603	-23.21
241.821	-21.16
242.038	15.7
242.255	32.08
242.472	19.8
242.689	19.8
242.907	91.48
243.124	54.61
243.341	64.85
243.558	-10.92
243.775	25.94
243.992	13.65
244.209	42.32
244.426	34.13
244.643	-10.92
244.86	-15.02
245.078	32.08
245.295	36.18
245.512	-2.73
245.729	-6.83
245.946	25.94
246.163	42.32
246.38	30.04
246.597	-17.07
246.814	15.7
247.031	71
247.248	44.37
247.464	-2.73
247.681	79.19
247.898	83.28
248.115	27.99
248.332	-31.4
248.549	50.52
248.766	13.65
248.983	32.08
249.2	21.85
249.417	25.94
249.633	93.52
249.85	27.99
250.067	64.85
250.284	32.08
250.501	-62.12
250.717	36.18
250.934	-31.4
251.151	-29.35
251.368	54.61
251.585	7.51
251.801	-27.31
252.018	21.85
252.235	13.65
252.451	19.8
252.668	-15.02
252.885	9.56
253.102	44.37
253.318	50.52
253.535	-25.26
253.752	77.14
253.968	-49.83
254.185	-0.68
254.401	5.46
254.618	73.04
254.835	3.41
255.051	64.85
255.268	46.42
255.484	36.18
255.701	7.51
255.917	50.52
256.134	3.41
256.351	60.76
256.567	-2.73
256.784	77.14
257	38.23
257.217	54.61
257.433	32.08
257.65	68.95
257.866	-2.73
258.082	38.23
258.299	52.56
258.515	-10.92
258.732	-25.26
258.948	44.37
259.165	-21.16
259.381	7.51
259.597	50.52
259.814	52.56
260.03	-78.51
260.246	64.85
260.463	36.18
260.679	46.42
260.895	93.52
261.112	79.19
261.328	27.99
261.544	-27.31
261.761	50.52
261.977	-29.35
262.193	103.76
262.409	27.99
262.626	-12.97
262.842	42.32
263.058	58.71
263.274	79.19
263.49	50.52
263.707	34.13
263.923	93.52
264.139	46.42
264.355	-15.02
264.571	62.8
264.787	52.56
265.004	79.19
265.22	68.95
265.436	17.75
265.652	21.85
265.868	101.72
266.084	-31.4
266.3	50.52
266.516	42.32
266.732	-33.45
266.948	40.28
267.164	-41.64
267.38	27.99
267.596	-23.21
267.812	66.9
268.028	42.32
268.244	30.04
268.46	-0.68
268.676	-19.11
268.892	62.8
269.108	40.28
269.324	-10.92
269.54	34.13
269.756	25.94
269.972	30.04
270.188	32.08
270.403	-17.07
270.619	50.52
270.835	-23.21
271.051	13.65
271.267	1.37
271.483	27.99
271.698	-21.16
271.914	58.71
272.13	32.08
272.346	34.13
272.562	99.67
272.777	42.32
272.993	68.95
273.209	1.37
273.425	13.65
273.64	-2.73
273.856	34.13
274.072	-0.68
274.287	-17.07
274.503	7.51
274.719	99.67
274.934	54.61
275.15	42.32
275.366	19.8
275.581	64.85
275.797	-8.87
276.012	30.04
276.228	52.56
276.444	25.94
276.659	-12.97
276.875	-4.78
277.09	-41.64
277.306	-37.55
277.521	-8.87
277.737	48.47
277.952	-12.97
278.168	7.51
278.383	42.32
278.599	66.9
278.814	-27.31
279.03	44.37
279.245	-10.92
279.461	30.04
279.676	40.28
279.892	17.75
280.107	52.56
280.322	-19.11
280.538	116.05
280.753	27.99
280.969	36.18
281.184	66.9
281.399	79.19
281.615	3.41
281.83	50.52
282.045	-23.21
282.26	40.28
282.476	5.46
282.691	21.85
282.906	5.46
283.122	64.85
283.337	48.47
283.552	44.37
283.767	-17.07
283.983	7.51
284.198	44.37
284.413	62.8
284.628	-21.16
284.843	17.75
285.058	44.37
285.274	34.13
285.489	3.41
285.704	79.19
285.919	-31.4
286.134	64.85
286.349	58.71
286.564	-19.11
286.779	56.66
286.995	89.43
287.21	-19.11
287.425	19.8
287.64	38.23
287.855	-15.02
288.07	-39.59
288.285	11.61
288.5	13.65
288.715	1.37
288.93	5.46
289.145	79.19
289.36	128.34
289.575	23.89
289.79	83.28
290.004	25.94
290.219	34.13
290.434	30.04
290.649	-43.69
290.864	56.66
291.079	-15.02
291.294	40.28
291.509	34.13
291.724	30.04
291.938	23.89
292.153	3.41
292.368	-0.68
292.583	-6.83
292.798	60.76
293.012	9.56
293.227	11.61
293.442	-8.87
293.657	48.47
293.871	64.85
294.086	75.09
294.301	48.47
294.516	-6.83
294.73	-12.97
294.945	5.46
295.16	111.96
295.374	99.67
295.589	101.72
295.804	52.56
296.018	40.28
296.233	-31.4
296.447	25.94
296.662	21.85
296.877	30.04
297.091	-4.78
297.306	50.52
297.52	-37.55
297.735	73.04
297.949	30.04
298.164	44.37
298.378	-8.87
298.593	-96.94
298.807	40.28
299.022	-8.87
299.236	25.94
299.451	21.85
299.665	32.08
299.88	79.19
300.094	27.99
300.309	1.37
300.523	79.19
300.737	-15.02
300.952	-2.73
301.166	25.94
301.381	48.47
301.595	44.37
301.809	36.18
302.024	-33.45
302.238	17.75
302.452	38.23
302.667	3.41
302.881	23.89
303.095	7.51
303.309	34.13
303.524	19.8
303.738	23.89
303.952	-76.46
304.166	71
304.381	3.41
304.595	7.51
304.809	52.56
305.023	52.56
305.237	-0.68
305.452	-4.78
305.666	56.66
305.88	23.89
306.094	-45.74
306.308	89.43
306.522	62.8
306.736	91.48
306.95	-6.83
307.164	34.13
307.379	19.8
307.593	38.23
307.807	52.56
308.021	73.04
308.235	56.66
308.449	-33.45
308.663	126.29
308.877	128.34
309.091	42.32
309.305	-37.55
309.519	-35.5
309.733	30.04
309.947	-17.07
310.161	73.04
310.374	66.9
310.588	17.75
310.802	52.56
311.016	44.37
311.23	3.41
311.444	9.56
311.658	-45.74
311.872	50.52
312.085	40.28
312.299	91.48
312.513	19.8
312.727	25.94
312.941	1.37
313.154	95.57
313.368	32.08
313.582	-49.83
313.796	54.61
314.009	109.91
314.223	5.46
314.437	23.89
314.651	40.28
314.864	38.23
315.078	-21.16
315.292	-4.78
315.505	-19.11
315.719	36.18
315.933	-45.74
316.146	27.99
316.36	-12.97
316.573	38.23
316.787	44.37
317.001	56.66
317.214	54.61
317.428	79.19
317.641	-15.02
317.855	36.18
318.068	140.63
318.282	-12.97
318.495	79.19
318.709	-70.31
318.922	23.89
319.136	46.42
319.349	50.52
319.563	-15.02
319.776	38.23
319.99	-45.74
320.203	1.37
320.417	-39.59
320.63	73.04
320.843	42.32
321.057	50.52
321.27	89.43
321.483	34.13
321.697	17.75
321.91	11.61
322.124	79.19
322.337	60.76
322.55	-17.07
322.763	34.13
322.977	25.94
323.19	3.41
323.403	40.28
323.617	15.7
323.83	-27.31
324.043	73.04
324.256	-10.92
324.469	48.47
324.683	34.13
324.896	44.37
325.109	-29.35
325.322	27.99
325.535	1.37
325.748	-2.73
325.962	46.42
326.175	9.56
326.388	13.65
326.601	54.61
326.814	85.33
327.027	23.89
327.24	99.67
327.453	-27.31
327.666	-2.73
327.879	56.66
328.092	30.04
328.305	-4.78
328.518	-2.73
328.731	52.56
328.944	15.7
329.157	36.18
329.37	62.8
329.583	58.71
329.796	107.86
330.009	-23.21
330.222	34.13
330.435	107.86
330.648	25.94
330.861	-2.73
331.073	101.72
331.286	40.28
331.499	23.89
331.712	-45.74
331.925	50.52
332.138	60.76
332.35	11.61
332.563	-25.26
332.776	71
332.989	7.51
333.202	66.9
333.414	-23.21
333.627	85.33
333.84	42.32
334.053	27.99
334.265	17.75
334.478	23.89
334.691	7.51
334.903	42.32
335.116	73.04
335.329	97.62
335.541	5.46
335.754	23.89
335.966	-17.07
336.179	54.61
336.392	73.04
336.604	73.04
336.817	-15.02
337.029	40.28
337.242	21.85
337.454	23.89
337.667	-19.11
337.88	83.28
338.092	50.52
338.305	15.7
338.517	21.85
338.729	25.94
338.942	42.32
339.154	32.08
339.367	52.56
339.579	19.8
339.792	-29.35
340.004	30.04
340.217	66.9
340.429	13.65
340.641	64.85
340.854	17.75
341.066	23.89
341.278	36.18
341.491	111.96
341.703	17.75
341.915	85.33
342.128	62.8
342.34	83.28
342.552	54.61
342.764	13.65
342.977	32.08
343.189	21.85
343.401	38.23
343.613	-55.98
343.826	21.85
344.038	77.14
344.25	-4.78
344.462	19.8
344.674	-12.97
344.886	15.7
345.099	103.76
345.311	-27.31
345.523	9.56
345.735	21.85
345.947	71
346.159	58.71
346.371	56.66
346.583	21.85
346.795	58.71
347.007	71
347.219	81.24
347.431	15.7
347.643	34.13
347.855	23.89
348.067	36.18
348.279	73.04
348.491	111.96
348.703	38.23
348.915	23.89
349.127	40.28
349.339	89.43
349.551	48.47
349.763	58.71
349.975	3.41
350.187	75.09
350.399	118.1
350.61	99.67
350.822	7.51
351.034	42.32
351.246	46.42
351.458	73.04
351.669	-12.97
351.881	15.7
352.093	54.61
352.305	27.99
352.517	71
352.728	23.89
352.94	36.18
353.152	58.71
353.363	75.09
353.575	32.08
353.787	58.71
353.999	58.71
354.21	48.47
354.422	38.23
354.633	-49.83
354.845	48.47
355.057	-2.73
355.268	111.96
355.48	23.89
355.692	-62.12
355.903	30.04
356.115	13.65
356.326	23.89
356.538	44.37
356.749	-15.02
356.961	44.37
357.172	75.09
357.384	-37.55
357.595	48.47
357.807	-8.87
358.018	-49.83
358.23	27.99
358.441	93.52
358.653	30.04
358.864	38.23
359.075	9.56
359.287	27.99
359.498	54.61
359.709	32.08
359.921	99.67
360.132	1.37
360.344	-4.78
360.555	17.75
360.766	48.47
360.977	48.47
361.189	77.14
361.4	-58.03
361.611	56.66
361.823	48.47
362.034	81.24
362.245	38.23
362.456	44.37
362.667	58.71
362.879	58.71
363.09	81.24
363.301	126.29
363.512	48.47
363.723	46.42
363.935	30.04
364.146	109.91
364.357	-29.35
364.568	36.18
364.779	-31.4
364.99	40.28
365.201	-4.78
365.412	58.71
365.623	1.37
365.834	109.91
366.045	75.09
366.256	58.71
366.467	38.23
366.678	101.72
366.889	-66.22
367.1	50.52
367.311	48.47
367.522	7.51
367.733	-0.68
367.944	7.51
368.155	5.46
368.366	116.05
368.577	32.08
368.788	44.37
368.999	60.76
369.209	81.24
369.42	81.24
369.631	114
369.842	21.85
370.053	11.61
370.264	-74.41
370.474	38.23
370.685	87.38
370.896	30.04
371.107	103.76
371.317	85.33
371.528	73.04
371.739	32.08
371.95	40.28
372.16	62.8
372.371	27.99
372.582	7.51
372.792	-88.75
373.003	54.61
373.214	-17.07
373.424	73.04
373.635	-21.16
373.846	107.86
374.056	1.37
374.267	42.32
374.477	58.71
374.688	38.23
374.898	77.14
375.109	36.18
375.319	30.04
375.53	34.13
375.74	9.56
375.951	-17.07
376.161	87.38
376.372	103.76
376.582	3.41
376.793	21.85
377.003	48.47
377.214	-47.79
377.424	9.56
377.635	130.39
377.845	13.65
378.055	93.52
378.266	38.23
378.476	71
378.686	54.61
378.897	38.23
379.107	46.42
379.317	73.04
379.528	50.52
379.738	56.66
379.948	48.47
380.158	79.19
380.369	27.99
380.579	-27.31
380.789	40.28
380.999	17.75
381.21	58.71
381.42	42.32
381.63	-35.5
381.84	71
382.05	44.37
382.261	5.46
382.471	25.94
382.681	126.29
382.891	79.19
383.101	68.95
383.311	-6.83
383.521	-15.02
383.731	58.71
383.941	54.61
384.151	101.72
384.361	68.95
384.571	5.46
384.781	-4.78
384.991	85.33
385.201	122.2
385.411	11.61
385.621	21.85
385.831	-8.87
386.041	56.66
386.251	32.08
386.461	7.51
386.671	-10.92
386.881	34.13
387.091	19.8
387.301	42.32
387.511	36.18
387.72	68.95
387.93	56.66
388.14	21.85
388.35	38.23
388.56	21.85
388.769	46.42
388.979	40.28
389.189	25.94
389.399	87.38
389.609	7.51
389.818	-35.5
390.028	62.8
390.238	5.46
390.447	32.08
390.657	85.33
390.867	50.52
391.076	68.95
391.286	36.18
391.496	111.96
391.705	-2.73
391.915	52.56
392.125	-8.87
392.334	71
392.544	87.38
392.753	21.85
392.963	1.37
393.172	66.9
393.382	30.04
393.591	23.89
393.801	107.86
394.01	116.05
394.22	93.52
394.429	42.32
394.639	15.7
394.848	58.71
395.058	75.09
395.267	13.65
395.477	42.32
395.686	-8.87
395.895	11.61
396.105	122.2
396.314	50.52
396.524	36.18
396.733	81.24
396.942	138.58
397.152	79.19
397.361	114
397.57	60.76
397.78	60.76
397.989	146.77
398.198	95.57
398.407	83.28
398.617	107.86
398.826	81.24
399.035	99.67
399.244	120.15
399.453	148.82
399.663	56.66
399.872	109.91
400.081	99.67
400.29	148.82
400.499	99.67
400.708	75.09
400.917	52.56
401.127	34.13
401.336	103.76
401.545	107.86
401.754	116.05
401.963	44.37
402.172	54.61
402.381	89.43
402.59	42.32
402.799	44.37
403.008	118.1
403.217	99.67
403.426	99.67
403.635	64.85
403.844	81.24
404.053	91.48
404.262	-2.73
404.471	105.81
404.68	107.86
404.888	161.11
405.097	97.62
405.306	114
405.515	99.67
405.724	134.48
405.933	71
406.142	91.48
406.35	142.68
406.559	175.44
406.768	93.52
406.977	181.59
407.185	109.91
407.394	161.11
407.603	116.05
407.812	204.11
408.02	185.68
408.229	136.53
408.438	73.04
408.646	144.72
408.855	75.09
409.064	159.06
409.272	148.82
409.481	152.92
409.69	157.01
409.898	126.29
410.107	218.45
410.315	234.83
410.524	152.92
410.733	275.79
410.941	152.92
411.15	243.03
411.358	257.36
411.567	216.4
411.775	240.98
411.984	271.7
412.192	216.4
412.401	245.07
412.609	269.65
412.818	288.08
413.026	253.27
413.234	218.45
413.443	318.8
413.651	267.6
413.86	370
414.068	308.56
414.276	388.43
414.485	400.72
414.693	355.66
414.901	351.57
415.11	359.76
415.318	421.2
415.526	468.3
415.734	441.68
415.943	531.79
416.151	492.88
416.359	480.59
416.567	468.3
416.776	607.56
416.984	529.74
417.192	617.8
417.4	580.94
417.608	636.24
417.817	621.9
418.025	652.62
418.233	662.86
418.441	644.43
418.649	675.15
418.857	707.91
419.065	781.64
419.273	845.13
419.481	830.79
419.689	824.65
419.897	927.05
420.105	937.29
420.313	937.29
420.521	892.23
420.729	949.57
420.937	1047.88
421.145	1015.11
421.353	1111.36
421.561	1191.24
421.769	1133.89
421.977	1230.15
422.185	1271.11
422.393	1303.87
422.601	1377.6
422.809	1334.59
423.017	1295.68
423.224	1422.66
423.432	1441.09
423.64	1441.09
423.848	1621.31
424.056	1535.29
424.263	1695.04
424.471	1715.52
424.679	1729.85
424.887	1908.02
425.094	1910.07
425.302	1858.87
425.51	1887.54
425.718	1983.8
425.925	2090.29
426.133	2059.57
426.341	2250.03
426.548	2278.71
426.756	2327.86
426.964	2293.04
427.171	2403.63
427.379	2405.68
427.586	2555.18
427.794	2723.12
428.001	2759.98
428.209	2835.75
428.417	2856.23
428.624	3073.32
428.832	3083.56
429.039	2968.87
429.247	3054.89
429.454	3497.25
429.662	3470.62
429.869	3386.66
430.076	3466.53
430.284	3421.47
430.491	3734.81
430.699	3857.69
430.906	3777.82
431.114	3872.03
431.321	3978.52
431.528	4072.73
431.736	4398.35
431.943	4568.34
432.15	4373.78
432.358	4379.92
432.565	4594.96
432.772	4654.35
432.979	4949.26
433.187	5006.6
433.394	5065.99
433.601	5305.6
433.808	5342.47
434.016	5416.19
434.223	5539.07
434.43	5854.46
434.637	5647.62
434.844	6192.37
435.052	6384.88
435.259	6262.01
435.466	6388.98
435.673	6231.29
435.88	6540.53
436.087	6880.49
436.294	6954.22
436.501	6984.94
436.708	7044.33
436.915	7312.61
437.122	7689.44
437.329	7453.92
437.537	7843.04
437.743	7853.28
437.95	7775.45
438.157	8260.82
438.364	8352.98
438.571	8490.2
438.778	8580.31
438.985	9491.65
439.192	9090.25
439.399	9190.6
439.606	8981.71
439.813	9624.77
440.02	10179.77
440.227	10013.88
440.433	9804.99
440.64	10220.73
440.847	10030.27
441.054	10161.34
441.261	11091.12
441.467	11109.55
441.674	11148.46
441.881	11627.68
442.088	11574.44
442.294	11457.7
442.501	11812
442.708	11973.79
442.914	12358.81
443.121	13046.93
443.328	12545.17
443.534	13329.55
443.741	13071.5
443.948	12999.82
444.154	13792.39
444.361	13753.48
444.568	13751.43
444.774	14148.73
444.981	13945.98
445.187	14259.32
445.394	15137.9
445.6	14773.36
445.807	16389.21
446.013	15475.82
446.22	15842.4
446.426	16708.69
446.633	16616.54
446.839	17140.82
447.046	16555.1
447.252	17398.86
447.459	17237.07
447.665	17470.54
447.871	17955.91
448.078	18897.97
448.284	17972.29
448.491	18631.74
448.697	19643.43
448.903	19586.09
449.11	19608.62
449.316	19520.56
449.522	19538.99
449.728	20503.58
449.935	20452.38
450.141	20390.94
450.347	21066.77
450.553	20196.39
450.76	20550.68
450.966	21308.43
451.172	20968.47
451.378	21316.62
451.584	21058.58
451.791	21359.63
451.997	21664.78
452.203	21898.25
452.409	22004.74
452.615	21758.99
452.821	20911.13
453.027	20773.91
453.233	21824.52
453.44	20714.52
453.646	21384.21
453.852	21443.6
454.058	21767.18
454.264	21109.78
454.47	21597.2
454.676	21068.82
454.882	21830.66
455.088	20040.74
455.294	20204.58
455.5	20491.29
455.705	20636.7
455.911	19864.61
456.117	19688.49
456.323	19276.85
456.529	18420.8
456.735	19100.72
456.941	18658.36
457.147	18185.28
457.352	17593.42
457.558	17390.67
457.764	17529.93
457.97	17245.26
458.176	16698.45
458.381	16981.07
458.587	16098.4
458.793	16196.7
458.999	15498.34
459.204	16333.92
459.41	15776.87
459.616	14812.28
459.821	15078.51
460.027	14775.41
460.233	14486.65
460.438	13397.13
460.644	13851.78
460.85	13341.83
461.055	13126.8
461.261	13120.65
461.466	12072.09
461.672	11680.93
461.878	12623
462.083	11691.17
462.289	11424.94
462.494	11353.26
462.7	10951.85
462.905	10538.16
463.111	10931.37
463.316	10894.51
463.522	10669.23
463.727	10835.12
463.932	10691.76
464.138	10609.84
464.343	10601.65
464.549	10357.94
464.754	10679.47
464.959	10532.02
465.165	10437.81
465.37	10081.47
465.575	9854.14
465.781	9993.4
465.986	10288.31
466.191	10067.13
466.397	9671.87
466.602	9198.79
466.807	9589.95
467.012	9637.06
467.218	9471.17
467.423	9247.94
467.628	9295.05
467.833	9815.23
468.038	9358.53
468.244	9297.1
468.449	9721.03
468.654	9284.81
468.859	9092.3
469.064	9053.39
