Data from USB4F104151__15__11-51-13-090.txt Node

Date: Fri Mar 14 11:51:13 EDT 2025
User: louis
Spectrometer: USB4F10415
Trigger mode: 4
Integration Time (sec): 2.000000E-2
Scans to average: 1
Electric dark correction enabled: true
Nonlinearity correction enabled: false
Boxcar width: 0
XAxis mode: Wavelengths
Number of Pixels in Spectrum: 3648
>>>>>Begin Spectral Data<<<<<
178.204	-104.45
178.424	-104.45
178.644	-104.45
178.864	-98.3
179.084	-22.53
179.304	-12.29
179.524	-55.3
179.744	8.19
179.964	73.73
180.184	-45.06
180.404	36.86
180.624	-38.91
180.844	16.38
181.064	2.05
181.283	38.91
181.503	-45.06
181.723	20.48
181.943	-53.25
182.163	-45.06
182.383	22.53
182.602	-10.24
182.822	77.82
183.042	10.24
183.262	6.14
183.482	28.67
183.701	12.29
183.921	-47.1
184.141	104.45
184.361	57.34
184.58	65.54
184.8	63.49
185.02	-69.63
185.239	118.78
185.459	-83.97
185.679	47.1
185.898	65.54
186.118	96.25
186.338	59.39
186.557	20.48
186.777	-59.39
186.997	16.38
187.216	-36.86
187.436	32.77
187.655	55.3
187.875	36.86
188.095	-69.63
188.314	-63.49
188.534	51.2
188.753	30.72
188.973	-30.72
189.192	45.06
189.412	69.63
189.631	75.77
189.851	-67.58
190.07	81.92
190.29	-59.39
190.509	28.67
190.729	-14.34
190.948	30.72
191.168	86.01
191.387	28.67
191.607	4.1
191.826	65.54
192.045	20.48
192.265	47.1
192.484	16.38
192.704	-10.24
192.923	-4.1
193.142	26.62
193.362	47.1
193.581	55.3
193.8	6.14
194.02	6.14
194.239	6.14
194.458	28.67
194.678	-10.24
194.897	14.34
195.116	0
195.335	-6.14
195.555	22.53
195.774	30.72
195.993	30.72
196.212	47.1
196.432	20.48
196.651	-24.58
196.87	20.48
197.089	124.93
197.308	47.1
197.528	75.77
197.747	-55.3
197.966	57.34
198.185	65.54
198.404	-2.05
198.623	10.24
198.842	51.2
199.062	102.4
199.281	20.48
199.5	26.62
199.719	47.1
199.938	-38.91
200.157	-26.62
200.376	28.67
200.595	43.01
200.814	22.53
201.033	8.19
201.252	-2.05
201.471	2.05
201.69	-6.14
201.909	92.16
202.128	-8.19
202.347	51.2
202.566	-8.19
202.785	-83.97
203.004	38.91
203.223	36.86
203.442	40.96
203.661	30.72
203.879	36.86
204.098	-28.67
204.317	-2.05
204.536	96.25
204.755	59.39
204.974	10.24
205.193	57.34
205.411	96.25
205.63	75.77
205.849	4.1
206.068	20.48
206.287	8.19
206.505	0
206.724	-2.05
206.943	47.1
207.162	6.14
207.381	14.34
207.599	14.34
207.818	-40.96
208.037	77.82
208.255	-2.05
208.474	90.11
208.693	-30.72
208.911	-16.38
209.13	18.43
209.349	38.91
209.567	-10.24
209.786	61.44
210.005	59.39
210.223	-55.3
210.442	49.15
210.661	-43.01
210.879	20.48
211.098	6.14
211.316	59.39
211.535	86.01
211.753	-26.62
211.972	-10.24
212.191	-8.19
212.409	-38.91
212.628	114.69
212.846	8.19
213.065	18.43
213.283	34.82
213.502	-18.43
213.72	2.05
213.938	32.77
214.157	63.49
214.375	16.38
214.594	-16.38
214.812	-40.96
215.031	98.3
215.249	26.62
215.467	-30.72
215.686	-4.1
215.904	75.77
216.122	-2.05
216.341	8.19
216.559	12.29
216.778	49.15
216.996	14.34
217.214	61.44
217.432	-6.14
217.651	40.96
217.869	-40.96
218.087	40.96
218.306	-10.24
218.524	47.1
218.742	-63.49
218.96	2.05
219.179	45.06
219.397	-16.38
219.615	63.49
219.833	-2.05
220.051	36.86
220.27	2.05
220.488	86.01
220.706	51.2
220.924	30.72
221.142	63.49
221.36	-20.48
221.578	-6.14
221.796	-16.38
222.015	-24.58
222.233	-6.14
222.451	36.86
222.669	-16.38
222.887	-2.05
223.105	43.01
223.323	36.86
223.541	-32.77
223.759	0
223.977	34.82
224.195	16.38
224.413	53.25
224.631	49.15
224.849	22.53
225.067	8.19
225.285	-6.14
225.503	59.39
225.721	-2.05
225.939	-24.58
226.157	112.64
226.375	-26.62
226.592	-12.29
226.81	30.72
227.028	-4.1
227.246	135.17
227.464	30.72
227.682	28.67
227.9	16.38
228.117	63.49
228.335	57.34
228.553	-4.1
228.771	-12.29
228.989	55.3
229.206	8.19
229.424	2.05
229.642	0
229.86	24.58
230.077	71.68
230.295	49.15
230.513	36.86
230.731	-2.05
230.948	114.69
231.166	-8.19
231.384	34.82
231.601	26.62
231.819	129.02
232.037	61.44
232.254	-22.53
232.472	20.48
232.689	65.54
232.907	69.63
233.125	-14.34
233.342	81.92
233.56	53.25
233.777	-16.38
233.995	26.62
234.213	2.05
234.43	16.38
234.648	-43.01
234.865	20.48
235.083	65.54
235.3	-20.48
235.518	26.62
235.735	59.39
235.953	22.53
236.17	38.91
236.388	69.63
236.605	0
236.822	61.44
237.04	-34.82
237.257	-51.2
237.475	-6.14
237.692	-14.34
237.909	6.14
238.127	8.19
238.344	38.91
238.562	26.62
238.779	-26.62
238.996	12.29
239.214	-32.77
239.431	139.26
239.648	28.67
239.865	-4.1
240.083	40.96
240.3	-61.44
240.517	-8.19
240.735	2.05
240.952	43.01
241.169	-18.43
241.386	-18.43
241.603	30.72
241.821	-38.91
242.038	26.62
242.255	40.96
242.472	-16.38
242.689	30.72
242.907	8.19
243.124	14.34
243.341	34.82
243.558	-6.14
243.775	40.96
243.992	59.39
244.209	-40.96
244.426	-24.58
244.643	-2.05
244.86	0
245.078	90.11
245.295	-12.29
245.512	-51.2
245.729	18.43
245.946	-77.82
246.163	4.1
246.38	22.53
246.597	30.72
246.814	71.68
247.031	12.29
247.248	36.86
247.464	-8.19
247.681	12.29
247.898	51.2
248.115	2.05
248.332	-6.14
248.549	40.96
248.766	-24.58
248.983	-30.72
249.2	-20.48
249.417	14.34
249.633	71.68
249.85	-16.38
250.067	-20.48
250.284	94.21
250.501	-28.67
250.717	-53.25
250.934	-8.19
251.151	34.82
251.368	36.86
251.585	24.58
251.801	-12.29
252.018	20.48
252.235	8.19
252.451	26.62
252.668	-14.34
252.885	43.01
253.102	-14.34
253.318	-28.67
253.535	67.58
253.752	55.3
253.968	16.38
254.185	71.68
254.401	22.53
254.618	16.38
254.835	14.34
255.051	-14.34
255.268	45.06
255.484	32.77
255.701	38.91
255.917	77.82
256.134	30.72
256.351	-45.06
256.567	18.43
256.784	43.01
257	32.77
257.217	61.44
257.433	32.77
257.65	-10.24
257.866	18.43
258.082	-24.58
258.299	20.48
258.515	-36.86
258.732	124.93
258.948	-71.68
259.165	22.53
259.381	-12.29
259.597	8.19
259.814	34.82
260.03	45.06
260.246	24.58
260.463	63.49
260.679	-34.82
260.895	45.06
261.112	88.06
261.328	77.82
261.544	-20.48
261.761	96.25
261.977	34.82
262.193	8.19
262.409	43.01
262.626	63.49
262.842	26.62
263.058	-34.82
263.274	-4.1
263.49	2.05
263.707	18.43
263.923	-34.82
264.139	-22.53
264.355	4.1
264.571	49.15
264.787	61.44
265.004	63.49
265.22	16.38
265.436	38.91
265.652	40.96
265.868	-12.29
266.084	36.86
266.3	22.53
266.516	-75.77
266.732	-20.48
266.948	30.72
267.164	51.2
267.38	34.82
267.596	53.25
267.812	18.43
268.028	36.86
268.244	47.1
268.46	116.73
268.676	12.29
268.892	-26.62
269.108	12.29
269.324	-28.67
269.54	73.73
269.756	24.58
269.972	18.43
270.188	61.44
270.403	83.97
270.619	26.62
270.835	-16.38
271.051	47.1
271.267	61.44
271.483	24.58
271.698	-2.05
271.914	-4.1
272.13	2.05
272.346	2.05
272.562	6.14
272.777	2.05
272.993	-57.34
273.209	22.53
273.425	36.86
273.64	-18.43
273.856	63.49
274.072	53.25
274.287	-4.1
274.503	57.34
274.719	-24.58
274.934	18.43
275.15	22.53
275.366	90.11
275.581	-24.58
275.797	71.68
276.012	57.34
276.228	59.39
276.444	6.14
276.659	135.17
276.875	-2.05
277.09	2.05
277.306	36.86
277.521	43.01
277.737	16.38
277.952	-22.53
278.168	12.29
278.383	83.97
278.599	10.24
278.814	-61.44
279.03	49.15
279.245	108.54
279.461	28.67
279.676	-2.05
279.892	-12.29
280.107	2.05
280.322	14.34
280.538	38.91
280.753	-71.68
280.969	38.91
281.184	53.25
281.399	69.63
281.615	47.1
281.83	20.48
282.045	57.34
282.26	-24.58
282.476	24.58
282.691	77.82
282.906	34.82
283.122	20.48
283.337	-59.39
283.552	104.45
283.767	24.58
283.983	73.73
284.198	38.91
284.413	53.25
284.628	-4.1
284.843	24.58
285.058	96.25
285.274	38.91
285.489	30.72
285.704	12.29
285.919	-20.48
286.134	67.58
286.349	12.29
286.564	49.15
286.779	47.1
286.995	24.58
287.21	-12.29
287.425	24.58
287.64	32.77
287.855	94.21
288.07	-59.39
288.285	86.01
288.5	-14.34
288.715	57.34
288.93	-51.2
289.145	12.29
289.36	2.05
289.575	8.19
289.79	77.82
290.004	43.01
290.219	-10.24
290.434	24.58
290.649	10.24
290.864	51.2
291.079	38.91
291.294	75.77
291.509	22.53
291.724	30.72
291.938	28.67
292.153	47.1
292.368	14.34
292.583	53.25
292.798	47.1
293.012	55.3
293.227	49.15
293.442	-10.24
293.657	65.54
293.871	26.62
294.086	57.34
294.301	26.62
294.516	63.49
294.73	-16.38
294.945	-26.62
295.16	61.44
295.374	12.29
295.589	34.82
295.804	-22.53
296.018	18.43
296.233	4.1
296.447	55.3
296.662	4.1
296.877	59.39
297.091	45.06
297.306	16.38
297.52	65.54
297.735	-34.82
297.949	-22.53
298.164	63.49
298.378	32.77
298.593	34.82
298.807	-12.29
299.022	20.48
299.236	38.91
299.451	-47.1
299.665	-53.25
299.88	-4.1
300.094	-8.19
300.309	2.05
300.523	43.01
300.737	0
300.952	-22.53
301.166	49.15
301.381	86.01
301.595	34.82
301.809	22.53
302.024	83.97
302.238	133.12
302.452	65.54
302.667	36.86
302.881	51.2
303.095	45.06
303.309	4.1
303.524	2.05
303.738	-16.38
303.952	36.86
304.166	0
304.381	-65.54
304.595	90.11
304.809	43.01
305.023	-38.91
305.237	24.58
305.452	30.72
305.666	28.67
305.88	32.77
306.094	53.25
306.308	28.67
306.522	43.01
306.736	55.3
306.95	26.62
307.164	51.2
307.379	-12.29
307.593	40.96
307.807	36.86
308.021	10.24
308.235	30.72
308.449	-40.96
308.663	-8.19
308.877	55.3
309.091	38.91
309.305	53.25
309.519	-4.1
309.733	53.25
309.947	-10.24
310.161	18.43
310.374	-45.06
310.588	4.1
310.802	-8.19
311.016	-16.38
311.23	-6.14
311.444	0
311.658	-20.48
311.872	67.58
312.085	47.1
312.299	-6.14
312.513	30.72
312.727	-14.34
312.941	22.53
313.154	45.06
313.368	20.48
313.582	71.68
313.796	0
314.009	139.26
314.223	53.25
314.437	10.24
314.651	40.96
314.864	40.96
315.078	-16.38
315.292	30.72
315.505	-10.24
315.719	18.43
315.933	83.97
316.146	30.72
316.36	65.54
316.573	24.58
316.787	16.38
317.001	63.49
317.214	57.34
317.428	30.72
317.641	-88.06
317.855	20.48
318.068	0
318.282	6.14
318.495	0
318.709	90.11
318.922	-28.67
319.136	71.68
319.349	24.58
319.563	36.86
319.776	14.34
319.99	-26.62
320.203	36.86
320.417	28.67
320.63	-18.43
320.843	55.3
321.057	8.19
321.27	40.96
321.483	22.53
321.697	40.96
321.91	47.1
322.124	0
322.337	96.25
322.55	10.24
322.763	83.97
322.977	2.05
323.19	40.96
323.403	34.82
323.617	28.67
323.83	40.96
324.043	-18.43
324.256	81.92
324.469	51.2
324.683	67.58
324.896	49.15
325.109	55.3
325.322	10.24
325.535	55.3
325.748	6.14
325.962	-24.58
326.175	0
326.388	32.77
326.601	51.2
326.814	26.62
327.027	45.06
327.24	49.15
327.453	10.24
327.666	63.49
327.879	57.34
328.092	-12.29
328.305	8.19
328.518	116.73
328.731	-26.62
328.944	6.14
329.157	30.72
329.37	14.34
329.583	75.77
329.796	18.43
330.009	24.58
330.222	79.87
330.435	92.16
330.648	2.05
330.861	30.72
331.073	45.06
331.286	67.58
331.499	38.91
331.712	65.54
331.925	-10.24
332.138	77.82
332.35	26.62
332.563	36.86
332.776	63.49
332.989	51.2
333.202	16.38
333.414	14.34
333.627	2.05
333.84	16.38
334.053	18.43
334.265	-2.05
334.478	73.73
334.691	10.24
334.903	-12.29
335.116	-6.14
335.329	-18.43
335.541	20.48
335.754	43.01
335.966	63.49
336.179	-22.53
336.392	63.49
336.604	-8.19
336.817	2.05
337.029	28.67
337.242	-18.43
337.454	49.15
337.667	45.06
337.88	92.16
338.092	-2.05
338.305	0
338.517	-55.3
338.729	32.77
338.942	69.63
339.154	2.05
339.367	53.25
339.579	30.72
339.792	57.34
340.004	26.62
340.217	6.14
340.429	43.01
340.641	18.43
340.854	40.96
341.066	59.39
341.278	81.92
341.491	83.97
341.703	75.77
341.915	-65.54
342.128	53.25
342.34	47.1
342.552	-16.38
342.764	2.05
342.977	-57.34
343.189	22.53
343.401	16.38
343.613	14.34
343.826	86.01
344.038	-40.96
344.25	26.62
344.462	38.91
344.674	18.43
344.886	-4.1
345.099	0
345.311	90.11
345.523	32.77
345.735	22.53
345.947	4.1
346.159	18.43
346.371	14.34
346.583	28.67
346.795	24.58
347.007	-20.48
347.219	0
347.431	-16.38
347.643	6.14
347.855	83.97
348.067	108.54
348.279	-20.48
348.491	8.19
348.703	65.54
348.915	-2.05
349.127	14.34
349.339	106.49
349.551	-28.67
349.763	-34.82
349.975	55.3
350.187	-8.19
350.399	116.73
350.61	100.35
350.822	20.48
351.034	36.86
351.246	12.29
351.458	-8.19
351.669	57.34
351.881	61.44
352.093	65.54
352.305	57.34
352.517	-2.05
352.728	55.3
352.94	77.82
353.152	51.2
353.363	51.2
353.575	30.72
353.787	63.49
353.999	-14.34
354.21	86.01
354.422	-4.1
354.633	-16.38
354.845	10.24
355.057	69.63
355.268	-8.19
355.48	59.39
355.692	59.39
355.903	26.62
356.115	55.3
356.326	20.48
356.538	10.24
356.749	45.06
356.961	-16.38
357.172	-10.24
357.384	55.3
357.595	96.25
357.807	126.97
358.018	49.15
358.23	6.14
358.441	30.72
358.653	26.62
358.864	45.06
359.075	-61.44
359.287	57.34
359.498	51.2
359.709	18.43
359.921	-14.34
360.132	-20.48
360.344	63.49
360.555	59.39
360.766	28.67
360.977	36.86
361.189	28.67
361.4	0
361.611	106.49
361.823	4.1
362.034	8.19
362.245	53.25
362.456	67.58
362.667	-83.97
362.879	30.72
363.09	26.62
363.301	43.01
363.512	-6.14
363.723	55.3
363.935	55.3
364.146	63.49
364.357	32.77
364.568	26.62
364.779	-71.68
364.99	69.63
365.201	-2.05
365.412	6.14
365.623	51.2
365.834	59.39
366.045	53.25
366.256	88.06
366.467	45.06
366.678	14.34
366.889	22.53
367.1	86.01
367.311	4.1
367.522	-53.25
367.733	98.3
367.944	-10.24
368.155	26.62
368.366	88.06
368.577	102.4
368.788	71.68
368.999	10.24
369.209	30.72
369.42	38.91
369.631	90.11
369.842	75.77
370.053	0
370.264	8.19
370.474	65.54
370.685	43.01
370.896	32.77
371.107	0
371.317	14.34
371.528	24.58
371.739	75.77
371.95	71.68
372.16	-51.2
372.371	26.62
372.582	22.53
372.792	71.68
373.003	0
373.214	-4.1
373.424	104.45
373.635	8.19
373.846	116.73
374.056	110.59
374.267	88.06
374.477	-18.43
374.688	43.01
374.898	61.44
375.109	14.34
375.319	36.86
375.53	98.3
375.74	65.54
375.951	61.44
376.161	4.1
376.372	14.34
376.582	10.24
376.793	2.05
377.003	77.82
377.214	67.58
377.424	53.25
377.635	38.91
377.845	51.2
378.055	129.02
378.266	-34.82
378.476	51.2
378.686	30.72
378.897	4.1
379.107	51.2
379.317	61.44
379.528	-8.19
379.738	86.01
379.948	-10.24
380.158	30.72
380.369	36.86
380.579	14.34
380.789	51.2
380.999	14.34
381.21	-4.1
381.42	75.77
381.63	47.1
381.84	30.72
382.05	43.01
382.261	14.34
382.471	40.96
382.681	36.86
382.891	73.73
383.101	14.34
383.311	51.2
383.521	36.86
383.731	90.11
383.941	-32.77
384.151	69.63
384.361	71.68
384.571	36.86
384.781	28.67
384.991	83.97
385.201	55.3
385.411	45.06
385.621	118.78
385.831	47.1
386.041	112.64
386.251	38.91
386.461	8.19
386.671	22.53
386.881	22.53
387.091	49.15
387.301	98.3
387.511	45.06
387.72	51.2
387.93	8.19
388.14	8.19
388.35	77.82
388.56	59.39
388.769	34.82
388.979	106.49
389.189	14.34
389.399	92.16
389.609	75.77
389.818	65.54
390.028	43.01
390.238	100.35
390.447	65.54
390.657	10.24
390.867	83.97
391.076	24.58
391.286	86.01
391.496	106.49
391.705	-14.34
391.915	34.82
392.125	92.16
392.334	79.87
392.544	73.73
392.753	-6.14
392.963	55.3
393.172	108.54
393.382	0
393.591	67.58
393.801	49.15
394.01	38.91
394.22	73.73
394.429	14.34
394.639	18.43
394.848	83.97
395.058	92.16
395.267	63.49
395.477	81.92
395.686	49.15
395.895	63.49
396.105	116.73
396.314	147.45
396.524	67.58
396.733	102.4
396.942	28.67
397.152	14.34
397.361	88.06
397.57	-36.86
397.78	30.72
397.989	38.91
398.198	96.25
398.407	43.01
398.617	55.3
398.826	75.77
399.035	98.3
399.244	45.06
399.453	90.11
399.663	24.58
399.872	131.07
400.081	98.3
400.29	104.45
400.499	14.34
400.708	112.64
400.917	98.3
401.127	108.54
401.336	90.11
401.545	32.77
401.754	116.73
401.963	129.02
402.172	43.01
402.381	69.63
402.59	45.06
402.799	110.59
403.008	69.63
403.217	110.59
403.426	135.17
403.635	120.83
403.844	110.59
404.053	69.63
404.262	38.91
404.471	129.02
404.68	129.02
404.888	104.45
405.097	57.34
405.306	77.82
405.515	106.49
405.724	118.78
405.933	59.39
406.142	75.77
406.35	40.96
406.559	116.73
406.768	114.69
406.977	233.47
407.185	47.1
407.394	137.21
407.603	114.69
407.812	131.07
408.02	139.26
408.229	182.27
408.438	159.74
408.646	141.31
408.855	184.32
409.064	188.41
409.272	208.89
409.481	172.03
409.69	169.98
409.898	231.42
410.107	180.22
410.315	221.18
410.524	178.17
410.733	196.61
410.941	219.13
411.15	256
411.358	276.48
411.567	325.63
411.775	194.56
411.984	282.62
412.192	247.8
412.401	382.97
412.609	317.44
412.818	354.3
413.026	415.74
413.234	333.82
413.443	288.76
413.651	325.63
413.86	389.11
414.068	428.03
414.276	393.21
414.485	358.39
414.693	468.98
414.901	516.09
415.11	464.89
415.318	477.18
415.526	425.98
415.734	555
415.943	501.75
416.151	524.28
416.359	569.34
416.567	573.43
416.776	602.1
416.984	634.87
417.192	608.25
417.4	667.64
417.608	659.45
417.817	724.98
418.025	823.28
418.233	761.84
418.441	778.23
418.649	774.13
418.857	815.09
419.065	933.87
419.273	864.24
419.481	1040.37
419.689	933.87
419.897	1017.84
420.105	1081.33
420.313	1032.18
420.521	1087.47
420.729	1099.76
420.937	1169.39
421.145	1159.15
421.353	1230.83
421.561	1292.27
421.769	1222.64
421.977	1382.38
422.185	1368.04
422.393	1517.54
422.601	1578.98
422.809	1525.74
423.017	1468.39
423.224	1660.9
423.432	1716.2
423.64	1712.1
423.848	1900.52
424.056	1841.12
424.263	1892.32
424.471	1880.04
424.679	1961.95
424.887	2103.26
425.094	2099.17
425.302	2133.98
425.51	2203.61
425.718	2205.66
425.925	2353.12
426.133	2324.44
426.341	2551.77
426.548	2588.63
426.756	2635.74
426.964	2844.63
427.171	2865.11
427.379	2906.07
427.586	3061.71
427.794	3016.66
428.001	3323.85
428.209	3272.65
428.417	3246.03
428.624	3479.5
428.832	3389.39
429.039	3518.41
429.247	3399.63
429.454	3766.21
429.662	3874.76
429.869	3715.02
430.076	4022.21
430.284	3934.15
430.491	4155.33
430.699	4233.15
430.906	4378.56
431.114	4413.37
431.321	4564.92
431.528	4708.28
431.736	4925.36
431.943	5185.46
432.15	4825.01
432.358	5050.29
432.565	5291.95
432.772	5253.04
432.979	5521.32
433.187	5601.19
433.394	5711.78
433.601	6152.1
433.808	6217.63
434.016	6156.19
434.223	6281.12
434.43	6829.98
434.637	6479.77
434.844	6963.09
435.052	7155.6
435.259	7067.54
435.466	7022.48
435.673	7104.4
435.88	7450.51
436.087	7790.47
436.294	7874.44
436.501	7896.97
436.708	8034.18
436.915	8382.34
437.122	8497.02
437.329	8660.86
437.537	8945.53
437.743	8943.48
437.95	8884.09
438.157	9492.34
438.364	9690.99
438.571	9625.45
438.778	9594.73
438.985	10428.26
439.192	10360.67
439.399	10432.35
439.606	10426.21
439.813	11056.98
440.02	11540.3
440.227	11497.3
440.433	11272.02
440.64	11437.91
440.847	11476.82
441.054	11818.83
441.261	12461.89
441.467	12521.28
441.674	12660.54
441.881	13127.48
442.088	12918.59
442.294	13131.58
442.501	13279.03
442.708	13598.51
442.914	14065.45
443.121	14649.12
443.328	14350.12
443.534	15318.81
443.741	14841.63
443.948	14788.38
444.154	15939.34
444.361	15771.41
444.568	15857.42
444.774	15761.17
444.981	15861.52
445.187	16326.41
445.394	17219.32
445.6	16834.3
445.807	18575.08
446.013	17960.69
446.22	18173.67
446.426	18798.31
446.633	18839.26
446.839	19597.01
447.046	18786.02
447.252	20035.28
447.459	20057.81
447.665	19807.95
447.871	20719.3
448.078	21759.67
448.284	20754.12
448.491	21147.33
448.697	22081.2
448.903	22429.35
449.11	22591.14
449.316	21913.27
449.522	22376.11
449.728	23119.52
449.935	23320.22
450.141	23256.73
450.347	23668.37
450.553	22845.09
450.76	23340.7
450.966	23973.52
451.172	23791.25
451.378	24262.29
451.584	23502.49
451.791	24354.44
451.997	24192.65
452.203	24542.86
452.409	24983.17
452.615	24835.72
452.821	23574.17
453.027	23508.63
453.233	24893.06
453.44	23840.4
453.646	24069.78
453.852	24250
454.058	24493.71
454.264	23668.37
454.47	24544.91
454.676	23713.43
454.882	24424.08
455.088	22355.63
455.294	22771.36
455.5	23037.6
455.705	23078.56
455.911	22320.81
456.117	22027.95
456.323	21581.49
456.529	20557.51
456.735	21429.94
456.941	20639.43
457.147	20401.86
457.352	19957.46
457.558	19582.68
457.764	19826.39
457.97	19363.54
458.176	18734.82
458.381	18728.67
458.587	17960.69
458.793	17860.34
458.999	16957.18
459.204	18198.25
459.41	17813.23
459.616	16447.24
459.821	16185.1
460.027	16652.03
460.233	15922.96
460.438	15269.65
460.644	15511.32
460.85	14700.32
461.055	14620.45
461.261	14651.17
461.466	13479.73
461.672	13045.56
461.878	13973.29
462.083	13055.8
462.289	12855.1
462.494	12959.55
462.7	12160.84
462.905	11917.13
463.111	12150.6
463.316	12404.55
463.522	11945.8
463.727	12142.41
463.932	11882.31
464.138	11595.6
464.343	11908.94
464.549	11452.24
464.754	11947.85
464.959	11745.1
465.165	11937.61
465.37	11163.48
465.575	10956.63
465.781	11417.43
465.986	11403.09
466.191	11046.74
466.397	10960.73
466.602	10291.04
466.807	10651.49
467.012	10657.63
467.218	10665.82
467.423	10780.51
467.628	10520.42
467.833	11052.89
468.038	10583.9
468.244	10469.22
468.449	10704.73
468.654	10526.56
468.859	10299.23
469.064	10088.29
