Data from USB4F104151__8__11-51-06-992.txt Node

Date: Fri Mar 14 11:51:06 EDT 2025
User: louis
Spectrometer: USB4F10415
Trigger mode: 4
Integration Time (sec): 2.000000E-2
Scans to average: 1
Electric dark correction enabled: true
Nonlinearity correction enabled: false
Boxcar width: 0
XAxis mode: Wavelengths
Number of Pixels in Spectrum: 3648
>>>>>Begin Spectral Data<<<<<
178.204	-61.27
178.424	-61.27
178.644	-61.27
178.864	-59.22
179.084	-85.84
179.304	-24.4
179.524	-34.64
179.744	-53.08
179.964	-3.93
180.184	30.89
180.404	34.99
180.624	16.55
180.844	30.89
181.064	-53.08
181.283	39.08
181.503	14.51
181.723	2.22
181.943	0.17
182.163	24.75
182.383	-53.08
182.602	37.03
182.822	26.79
183.042	26.79
183.262	-5.97
183.482	39.08
183.701	6.31
183.921	8.36
184.141	-110.42
184.361	-5.97
184.58	-14.17
184.8	-5.97
185.02	-14.17
185.239	39.08
185.459	34.99
185.679	4.27
185.898	-83.8
186.118	24.75
186.338	14.51
186.557	0.17
186.777	47.27
186.997	12.46
187.216	12.46
187.436	100.52
187.655	59.56
187.875	51.37
188.095	-1.88
188.314	59.56
188.534	67.75
188.753	24.75
188.973	20.65
189.192	14.51
189.412	53.42
189.631	34.99
189.851	59.56
190.07	28.84
190.29	61.61
190.509	-44.88
190.729	34.99
190.948	49.32
191.168	96.43
191.387	47.27
191.607	-20.31
191.826	0.17
192.045	55.47
192.265	6.31
192.484	-34.64
192.704	6.31
192.923	-20.31
193.142	67.75
193.362	2.22
193.581	32.94
193.8	63.66
194.02	43.18
194.239	28.84
194.458	12.46
194.678	10.41
194.897	37.03
195.116	45.23
195.335	47.27
195.555	39.08
195.774	-12.12
195.993	20.65
196.212	-5.97
196.432	-14.17
196.651	-20.31
196.87	14.51
197.089	114.86
197.308	18.6
197.528	39.08
197.747	6.31
197.966	59.56
198.185	8.36
198.404	16.55
198.623	-36.69
198.842	71.85
199.062	51.37
199.281	14.51
199.5	-38.74
199.719	-59.22
199.938	43.18
200.157	41.13
200.376	2.22
200.595	65.71
200.814	8.36
201.033	30.89
201.252	39.08
201.471	6.31
201.69	-34.64
201.909	69.8
202.128	80.04
202.347	73.9
202.566	-5.97
202.785	0.17
203.004	-22.36
203.223	8.36
203.442	-8.02
203.661	-59.22
203.879	34.99
204.098	14.51
204.317	-24.4
204.536	2.22
204.755	10.41
204.974	18.6
205.193	47.27
205.411	86.19
205.63	24.75
205.849	-24.4
206.068	4.27
206.287	-22.36
206.505	45.23
206.724	41.13
206.943	10.41
207.162	45.23
207.381	-1.88
207.599	8.36
207.818	8.36
208.037	71.85
208.255	-3.93
208.474	71.85
208.693	6.31
208.911	-14.17
209.13	6.31
209.349	10.41
209.567	-20.31
209.786	43.18
210.005	55.47
210.223	77.99
210.442	-22.36
210.661	92.33
210.879	-22.36
211.098	73.9
211.316	20.65
211.535	-8.02
211.753	-10.07
211.972	59.56
212.191	6.31
212.409	112.81
212.628	-8.02
212.846	12.46
213.065	77.99
213.283	55.47
213.502	-42.84
213.72	77.99
213.938	75.95
214.157	-57.17
214.375	18.6
214.594	-22.36
214.812	30.89
215.031	-1.88
215.249	-18.26
215.467	80.04
215.686	43.18
215.904	-22.36
216.122	-5.97
216.341	-20.31
216.559	-61.27
216.778	14.51
216.996	-59.22
217.214	106.67
217.432	-18.26
217.651	-51.03
217.869	-32.6
218.087	34.99
218.306	-61.27
218.524	24.75
218.742	0.17
218.96	26.79
219.179	12.46
219.397	26.79
219.615	-14.17
219.833	30.89
220.051	-42.84
220.27	26.79
220.488	22.7
220.706	37.03
220.924	47.27
221.142	63.66
221.36	53.42
221.578	-5.97
221.796	2.22
222.015	-10.07
222.233	2.22
222.451	73.9
222.669	4.27
222.887	45.23
223.105	-34.64
223.323	18.6
223.541	-30.55
223.759	39.08
223.977	24.75
224.195	98.47
224.413	88.23
224.631	43.18
224.849	6.31
225.067	57.51
225.285	28.84
225.503	51.37
225.721	-28.5
225.939	30.89
226.157	-59.22
226.375	32.94
226.592	2.22
226.81	-3.93
227.028	77.99
227.246	-3.93
227.464	39.08
227.682	2.22
227.9	71.85
228.117	41.13
228.335	94.38
228.553	32.94
228.771	47.27
228.989	69.8
229.206	65.71
229.424	55.47
229.642	18.6
229.86	84.14
230.077	20.65
230.295	69.8
230.513	22.7
230.731	2.22
230.948	49.32
231.166	16.55
231.384	37.03
231.601	69.8
231.819	-5.97
232.037	28.84
232.254	24.75
232.472	96.43
232.689	2.22
232.907	75.95
233.125	39.08
233.342	-36.69
233.56	-22.36
233.777	14.51
233.995	-18.26
234.213	-8.02
234.43	30.89
234.648	-71.51
234.865	-51.03
235.083	-8.02
235.3	28.84
235.518	39.08
235.735	8.36
235.953	28.84
236.17	28.84
236.388	26.79
236.605	75.95
236.822	53.42
237.04	100.52
237.257	4.27
237.475	-20.31
237.692	51.37
237.909	53.42
238.127	24.75
238.344	-16.21
238.562	22.7
238.779	-24.4
238.996	-14.17
239.214	-59.22
239.431	94.38
239.648	22.7
239.865	28.84
240.083	88.23
240.3	4.27
240.517	16.55
240.735	51.37
240.952	88.23
241.169	6.31
241.386	34.99
241.603	8.36
241.821	80.04
242.038	71.85
242.255	20.65
242.472	28.84
242.689	8.36
242.907	41.13
243.124	32.94
243.341	-32.6
243.558	6.31
243.775	-18.26
243.992	-67.41
244.209	75.95
244.426	43.18
244.643	20.65
244.86	-30.55
245.078	6.31
245.295	-42.84
245.512	37.03
245.729	-36.69
245.946	-28.5
246.163	-5.97
246.38	-10.07
246.597	-10.07
246.814	-40.79
247.031	18.6
247.248	110.76
247.464	67.75
247.681	-5.97
247.898	71.85
248.115	6.31
248.332	-55.12
248.549	65.71
248.766	39.08
248.983	65.71
249.2	22.7
249.417	14.51
249.633	-10.07
249.85	43.18
250.067	37.03
250.284	4.27
250.501	67.75
250.717	92.33
250.934	45.23
251.151	32.94
251.368	32.94
251.585	20.65
251.801	16.55
252.018	24.75
252.235	12.46
252.451	0.17
252.668	30.89
252.885	47.27
253.102	100.52
253.318	16.55
253.535	-32.6
253.752	2.22
253.968	0.17
254.185	-34.64
254.401	16.55
254.618	30.89
254.835	73.9
255.051	51.37
255.268	26.79
255.484	41.13
255.701	8.36
255.917	-5.97
256.134	-28.5
256.351	24.75
256.567	16.55
256.784	-67.41
257	49.32
257.217	71.85
257.433	8.36
257.65	80.04
257.866	22.7
258.082	-8.02
258.299	0.17
258.515	43.18
258.732	-10.07
258.948	88.23
259.165	2.22
259.381	-24.4
259.597	-3.93
259.814	34.99
260.03	-10.07
260.246	22.7
260.463	28.84
260.679	57.51
260.895	39.08
261.112	12.46
261.328	16.55
261.544	24.75
261.761	-24.4
261.977	16.55
262.193	-8.02
262.409	55.47
262.626	55.47
262.842	30.89
263.058	-14.17
263.274	51.37
263.49	-3.93
263.707	59.56
263.923	-55.12
264.139	-1.88
264.355	-34.64
264.571	53.42
264.787	20.65
265.004	2.22
265.22	22.7
265.436	59.56
265.652	18.6
265.868	98.47
266.084	26.79
266.3	37.03
266.516	-85.84
266.732	-32.6
266.948	30.89
267.164	34.99
267.38	45.23
267.596	73.9
267.812	-34.64
268.028	24.75
268.244	63.66
268.46	20.65
268.676	20.65
268.892	77.99
269.108	22.7
269.324	75.95
269.54	53.42
269.756	53.42
269.972	47.27
270.188	67.75
270.403	37.03
270.619	-1.88
270.835	20.65
271.051	32.94
271.267	-34.64
271.483	18.6
271.698	45.23
271.914	10.41
272.13	14.51
272.346	51.37
272.562	32.94
272.777	75.95
272.993	-14.17
273.209	8.36
273.425	39.08
273.64	49.32
273.856	63.66
274.072	51.37
274.287	18.6
274.503	14.51
274.719	12.46
274.934	14.51
275.15	-8.02
275.366	61.61
275.581	18.6
275.797	10.41
276.012	24.75
276.228	-42.84
276.444	-1.88
276.659	77.99
276.875	18.6
277.09	18.6
277.306	0.17
277.521	-16.21
277.737	-18.26
277.952	30.89
278.168	10.41
278.383	28.84
278.599	32.94
278.814	71.85
279.03	12.46
279.245	45.23
279.461	34.99
279.676	59.56
279.892	63.66
280.107	41.13
280.322	-1.88
280.538	-36.69
280.753	30.89
280.969	14.51
281.184	100.52
281.399	92.33
281.615	-8.02
281.83	37.03
282.045	57.51
282.26	121
282.476	-5.97
282.691	20.65
282.906	10.41
283.122	86.19
283.337	-16.21
283.552	24.75
283.767	4.27
283.983	26.79
284.198	57.51
284.413	65.71
284.628	20.65
284.843	18.6
285.058	28.84
285.274	2.22
285.489	-5.97
285.704	-10.07
285.919	-40.79
286.134	75.95
286.349	73.9
286.564	51.37
286.779	61.61
286.995	24.75
287.21	26.79
287.425	65.71
287.64	-38.74
287.855	49.32
288.07	-63.32
288.285	69.8
288.5	2.22
288.715	59.56
288.93	6.31
289.145	10.41
289.36	34.99
289.575	18.6
289.79	59.56
290.004	133.29
290.219	-1.88
290.434	28.84
290.649	-34.64
290.864	45.23
291.079	47.27
291.294	55.47
291.509	0.17
291.724	-59.22
291.938	28.84
292.153	39.08
292.368	-46.93
292.583	116.9
292.798	39.08
293.012	-42.84
293.227	77.99
293.442	4.27
293.657	18.6
293.871	88.23
294.086	-1.88
294.301	94.38
294.516	-18.26
294.73	39.08
294.945	10.41
295.16	121
295.374	14.51
295.589	10.41
295.804	-5.97
296.018	-10.07
296.233	47.27
296.447	6.31
296.662	84.14
296.877	65.71
297.091	57.51
297.306	16.55
297.52	6.31
297.735	-3.93
297.949	65.71
298.164	57.51
298.378	-28.5
298.593	-12.12
298.807	-28.5
299.022	-48.98
299.236	69.8
299.451	-20.31
299.665	65.71
299.88	59.56
300.094	39.08
300.309	-20.31
300.523	-22.36
300.737	12.46
300.952	32.94
301.166	-1.88
301.381	-5.97
301.595	57.51
301.809	-38.74
302.024	37.03
302.238	-20.31
302.452	26.79
302.667	20.65
302.881	34.99
303.095	-14.17
303.309	92.33
303.524	0.17
303.738	43.18
303.952	12.46
304.166	92.33
304.381	0.17
304.595	86.19
304.809	-12.12
305.023	67.75
305.237	4.27
305.452	75.95
305.666	37.03
305.88	14.51
306.094	84.14
306.308	0.17
306.522	18.6
306.736	63.66
306.95	18.6
307.164	-14.17
307.379	2.22
307.593	65.71
307.807	26.79
308.021	112.81
308.235	55.47
308.449	-71.51
308.663	-18.26
308.877	39.08
309.091	-32.6
309.305	-12.12
309.519	0.17
309.733	51.37
309.947	-16.21
310.161	-5.97
310.374	49.32
310.588	32.94
310.802	53.42
311.016	6.31
311.23	34.99
311.444	98.47
311.658	37.03
311.872	26.79
312.085	39.08
312.299	26.79
312.513	47.27
312.727	-3.93
312.941	14.51
313.154	6.31
313.368	-8.02
313.582	51.37
313.796	28.84
314.009	59.56
314.223	41.13
314.437	45.23
314.651	63.66
314.864	0.17
315.078	2.22
315.292	-34.64
315.505	45.23
315.719	41.13
315.933	45.23
316.146	90.28
316.36	-26.45
316.573	32.94
316.787	88.23
317.001	30.89
317.214	18.6
317.428	20.65
317.641	-46.93
317.855	-1.88
318.068	16.55
318.282	61.61
318.495	98.47
318.709	123.05
318.922	0.17
319.136	30.89
319.349	71.85
319.563	55.47
319.776	8.36
319.99	-14.17
320.203	-1.88
320.417	90.28
320.63	-20.31
320.843	86.19
321.057	47.27
321.27	8.36
321.483	37.03
321.697	69.8
321.91	-12.12
322.124	71.85
322.337	28.84
322.55	65.71
322.763	65.71
322.977	82.09
323.19	14.51
323.403	-5.97
323.617	88.23
323.83	75.95
324.043	-8.02
324.256	28.84
324.469	34.99
324.683	-1.88
324.896	26.79
325.109	34.99
325.322	18.6
325.535	8.36
325.748	49.32
325.962	61.61
326.175	-1.88
326.388	41.13
326.601	-30.55
326.814	49.32
327.027	-14.17
327.24	49.32
327.453	0.17
327.666	-59.22
327.879	43.18
328.092	67.75
328.305	47.27
328.518	88.23
328.731	18.6
328.944	86.19
329.157	18.6
329.37	32.94
329.583	49.32
329.796	90.28
330.009	18.6
330.222	112.81
330.435	20.65
330.648	57.51
330.861	65.71
331.073	51.37
331.286	69.8
331.499	112.81
331.712	-8.02
331.925	-20.31
332.138	-65.36
332.35	39.08
332.563	16.55
332.776	39.08
332.989	34.99
333.202	26.79
333.414	55.47
333.627	-36.69
333.84	8.36
334.053	98.47
334.265	14.51
334.478	-8.02
334.691	108.71
334.903	-22.36
335.116	-24.4
335.329	59.56
335.541	28.84
335.754	108.71
335.966	-38.74
336.179	51.37
336.392	51.37
336.604	43.18
336.817	30.89
337.029	12.46
337.242	-10.07
337.454	71.85
337.667	-26.45
337.88	16.55
338.092	92.33
338.305	8.36
338.517	-18.26
338.729	80.04
338.942	106.67
339.154	24.75
339.367	-28.5
339.579	26.79
339.792	16.55
340.004	43.18
340.217	0.17
340.429	116.9
340.641	41.13
340.854	80.04
341.066	-42.84
341.278	139.43
341.491	57.51
341.703	22.7
341.915	-10.07
342.128	18.6
342.34	45.23
342.552	10.41
342.764	-34.64
342.977	-20.31
343.189	116.9
343.401	110.76
343.613	26.79
343.826	43.18
344.038	-3.93
344.25	-1.88
344.462	45.23
344.674	73.9
344.886	39.08
345.099	92.33
345.311	-46.93
345.523	0.17
345.735	10.41
345.947	92.33
346.159	55.47
346.371	94.38
346.583	32.94
346.795	67.75
347.007	-10.07
347.219	28.84
347.431	-18.26
347.643	180.39
347.855	6.31
348.067	63.66
348.279	20.65
348.491	4.27
348.703	59.56
348.915	55.47
349.127	-44.88
349.339	-18.26
349.551	-20.31
349.763	43.18
349.975	43.18
350.187	110.76
350.399	-8.02
350.61	-18.26
350.822	-18.26
351.034	41.13
351.246	65.71
351.458	69.8
351.669	10.41
351.881	57.51
352.093	30.89
352.305	14.51
352.517	75.95
352.728	100.52
352.94	59.56
353.152	-10.07
353.363	-18.26
353.575	43.18
353.787	-22.36
353.999	53.42
354.21	80.04
354.422	30.89
354.633	65.71
354.845	41.13
355.057	22.7
355.268	59.56
355.48	57.51
355.692	22.7
355.903	100.52
356.115	43.18
356.326	-10.07
356.538	10.41
356.749	32.94
356.961	125.1
357.172	-1.88
357.384	73.9
357.595	45.23
357.807	-67.41
358.018	-18.26
358.23	47.27
358.441	84.14
358.653	57.51
358.864	18.6
359.075	94.38
359.287	96.43
359.498	67.75
359.709	123.05
359.921	28.84
360.132	-22.36
360.344	51.37
360.555	-8.02
360.766	30.89
360.977	98.47
361.189	94.38
361.4	67.75
361.611	39.08
361.823	67.75
362.034	49.32
362.245	92.33
362.456	43.18
362.667	-3.93
362.879	49.32
363.09	-10.07
363.301	61.61
363.512	18.6
363.723	30.89
363.935	59.56
364.146	34.99
364.357	24.75
364.568	47.27
364.779	49.32
364.99	149.67
365.201	18.6
365.412	28.84
365.623	57.51
365.834	77.99
366.045	-44.88
366.256	39.08
366.467	63.66
366.678	10.41
366.889	22.7
367.1	53.42
367.311	20.65
367.522	16.55
367.733	34.99
367.944	28.84
368.155	84.14
368.366	63.66
368.577	18.6
368.788	123.05
368.999	121
369.209	55.47
369.42	104.62
369.631	104.62
369.842	53.42
370.053	41.13
370.264	24.75
370.474	-8.02
370.685	41.13
370.896	39.08
371.107	28.84
371.317	43.18
371.528	14.51
371.739	123.05
371.95	73.9
372.16	-57.17
372.371	28.84
372.582	92.33
372.792	14.51
373.003	26.79
373.214	30.89
373.424	4.27
373.635	-73.56
373.846	82.09
374.056	28.84
374.267	63.66
374.477	47.27
374.688	75.95
374.898	53.42
375.109	4.27
375.319	-34.64
375.53	73.9
375.74	-5.97
375.951	41.13
376.161	82.09
376.372	75.95
376.582	86.19
376.793	80.04
377.003	53.42
377.214	51.37
377.424	47.27
377.635	75.95
377.845	47.27
378.055	-1.88
378.266	2.22
378.476	65.71
378.686	53.42
378.897	2.22
379.107	86.19
379.317	28.84
379.528	57.51
379.738	14.51
379.948	14.51
380.158	6.31
380.369	10.41
380.579	63.66
380.789	-42.84
380.999	131.24
381.21	118.95
381.42	65.71
381.63	2.22
381.84	18.6
382.05	71.85
382.261	37.03
382.471	65.71
382.681	8.36
382.891	73.9
383.101	51.37
383.311	6.31
383.521	12.46
383.731	63.66
383.941	-18.26
384.151	39.08
384.361	39.08
384.571	4.27
384.781	30.89
384.991	8.36
385.201	-5.97
385.411	114.86
385.621	24.75
385.831	80.04
386.041	80.04
386.251	18.6
386.461	-3.93
386.671	2.22
386.881	92.33
387.091	16.55
387.301	45.23
387.511	28.84
387.72	80.04
387.93	49.32
388.14	43.18
388.35	10.41
388.56	30.89
388.769	0.17
388.979	127.14
389.189	-36.69
389.399	-16.21
389.609	12.46
389.818	77.99
390.028	59.56
390.238	82.09
390.447	112.81
390.657	49.32
390.867	43.18
391.076	80.04
391.286	80.04
391.496	39.08
391.705	63.66
391.915	53.42
392.125	55.47
392.334	18.6
392.544	51.37
392.753	41.13
392.963	131.24
393.172	67.75
393.382	39.08
393.591	34.99
393.801	-12.12
394.01	133.29
394.22	80.04
394.429	61.61
394.639	80.04
394.848	61.61
395.058	90.28
395.267	104.62
395.477	55.47
395.686	57.51
395.895	77.99
396.105	73.9
396.314	67.75
396.524	4.27
396.733	30.89
396.942	57.51
397.152	75.95
397.361	147.62
397.57	59.56
397.78	65.71
397.989	159.91
398.198	75.95
398.407	151.72
398.617	96.43
398.826	149.67
399.035	125.1
399.244	43.18
399.453	104.62
399.663	57.51
399.872	82.09
400.081	75.95
400.29	112.81
400.499	57.51
400.708	135.34
400.917	96.43
401.127	69.8
401.336	116.9
401.545	125.1
401.754	159.91
401.963	92.33
402.172	127.14
402.381	65.71
402.59	135.34
402.799	75.95
403.008	65.71
403.217	88.23
403.426	57.51
403.635	49.32
403.844	18.6
404.053	129.19
404.262	131.24
404.471	164.01
404.68	155.82
404.888	114.86
405.097	151.72
405.306	133.29
405.515	194.73
405.724	192.68
405.933	198.82
406.142	157.86
406.35	231.59
406.559	268.45
406.768	145.58
406.977	198.82
407.185	114.86
407.394	166.06
407.603	200.87
407.812	174.25
408.02	217.26
408.229	223.4
408.438	256.17
408.646	207.02
408.855	168.1
409.064	233.64
409.272	217.26
409.481	293.03
409.69	223.4
409.898	200.87
410.107	260.26
410.315	256.17
410.524	223.4
410.733	299.17
410.941	315.56
411.15	260.26
411.358	366.76
411.567	362.66
411.775	299.17
411.984	336.04
412.192	368.81
412.401	377
412.609	422.05
412.818	403.62
413.026	481.44
413.234	401.57
413.443	526.5
413.651	395.43
413.86	465.06
414.068	491.68
414.276	575.65
414.485	510.11
414.693	622.75
414.901	587.94
415.11	645.28
415.318	598.18
415.526	645.28
415.734	692.38
415.943	688.29
416.151	714.91
416.359	737.44
416.567	759.97
416.776	784.54
416.984	815.26
417.192	809.12
417.4	860.32
417.608	813.21
417.817	819.36
418.025	919.71
418.233	1022.11
418.441	1024.16
418.649	1040.54
418.857	1153.18
419.065	1196.18
419.273	1126.55
419.481	1108.12
419.689	1349.78
419.897	1298.58
420.105	1374.36
420.313	1360.02
420.521	1380.5
420.729	1411.22
420.937	1296.53
421.145	1489.04
421.353	1638.55
421.561	1671.31
421.769	1720.46
421.977	1712.27
422.185	1816.72
422.393	1771.66
422.601	1949.84
422.809	2062.48
423.017	2001.04
423.224	2091.15
423.432	2209.93
423.64	2259.08
423.848	2402.44
424.056	2277.51
424.263	2420.87
424.471	2543.75
424.679	2500.74
424.887	2658.43
425.094	2779.26
425.302	2828.42
425.51	2963.58
425.718	2967.68
425.925	3125.37
426.133	3022.97
426.341	3270.78
426.548	3416.18
426.756	3395.7
426.964	3580.02
427.171	3598.45
427.379	3780.72
427.586	3858.54
427.794	3917.93
428.001	4053.1
428.209	4362.34
428.417	4149.36
428.624	4548.71
428.832	4649.06
429.039	4489.32
429.247	4606.05
429.454	4954.21
429.662	5105.76
429.869	4923.49
430.076	5230.68
430.284	5163.1
430.491	5396.57
430.699	5523.54
430.906	5724.24
431.114	5761.11
431.321	5836.88
431.528	5935.18
431.736	6389.83
431.943	6686.79
432.15	6461.51
432.358	6467.66
432.565	6885.44
432.772	6694.98
432.979	7176.25
433.187	7401.53
433.394	7327.8
433.601	7942.19
433.808	8011.82
434.016	8001.58
434.223	8222.77
434.43	8745
434.637	8529.96
434.844	9248.8
435.052	9351.2
435.259	9400.35
435.466	9369.63
435.673	9222.17
435.88	9850.9
436.087	10506.25
436.294	10422.28
436.501	10197.01
436.708	10205.2
436.915	10995.71
437.122	11165.7
437.329	11192.32
437.537	11429.88
437.743	11812.85
437.95	11370.49
438.157	12142.58
438.364	12591.08
438.571	12574.7
438.778	12656.62
438.985	14053.33
439.192	13193.19
439.399	13866.97
439.606	13535.2
439.813	14204.88
440.02	14936.01
440.227	14653.39
440.433	14585.8
440.64	15241.15
440.847	14927.81
441.054	15200.19
441.261	16447.41
441.467	16244.66
441.674	16756.65
441.881	17145.77
442.088	17084.33
442.294	16842.67
442.501	17483.68
442.708	17870.75
442.914	18386.83
443.121	19095.43
443.328	18700.17
443.534	20002.68
443.741	19513.22
443.948	19185.54
444.154	20539.25
444.361	20598.64
444.568	20653.94
444.774	20596.59
444.981	20825.96
445.187	21288.81
445.394	22251.35
445.6	22327.13
445.807	24221.5
446.013	23045.96
446.22	23594.82
446.426	24407.86
446.633	24477.49
446.839	25710.37
447.046	24350.52
447.252	25718.56
447.459	25585.44
447.665	25806.62
447.871	27027.21
448.078	28247.8
448.284	26705.68
448.491	27459.34
448.697	28700.4
448.903	29239.02
449.11	29095.66
449.316	28595.96
449.522	29460.2
449.728	30160.61
449.935	30111.46
450.141	30056.16
450.347	30752.47
450.553	30144.22
450.76	30414.55
450.966	31338.19
451.172	30871.25
451.378	31901.38
451.584	31121.1
451.791	31502.03
451.997	31604.42
452.203	32157.38
452.409	32538.3
452.615	31954.63
452.821	30924.5
453.027	30576.34
453.233	32335.55
453.44	31018.71
453.646	31387.34
453.852	31330
454.058	32022.21
454.264	30967.51
454.47	31616.71
454.676	30889.68
454.882	32079.55
455.088	29222.64
455.294	29605.61
455.5	29990.63
455.705	30400.22
455.911	29320.94
456.117	28546.81
456.323	27924.22
456.529	26984.21
456.735	27889.41
456.941	27082.51
457.147	26713.88
457.352	25947.93
457.558	25841.44
457.764	25751.33
457.97	25089.84
458.176	24583.99
458.381	24917.81
458.587	23492.42
458.793	23617.35
458.999	22089.56
459.204	23621.44
459.41	23310.15
459.616	21895
459.821	21643.1
460.027	21276.52
460.233	21069.67
460.438	20035.45
460.644	20209.53
460.85	19300.23
461.055	18835.34
461.261	18943.88
461.466	17487.78
461.672	17201.06
461.878	17932.19
462.083	17321.89
462.289	16664.49
462.494	16562.09
462.7	15968.18
462.905	15419.33
463.111	16086.97
463.316	15857.59
463.522	15474.62
463.727	15755.19
463.932	15650.75
464.138	15318.98
464.343	15587.26
464.549	15026.12
464.754	15519.68
464.959	15329.22
465.165	15228.87
465.37	14434.25
465.575	14178.26
465.781	14854.09
465.986	14878.66
466.191	14501.84
466.397	14397.39
466.602	13492.19
466.807	13811.67
467.012	13991.89
467.218	13821.91
467.423	13731.8
467.628	13803.48
467.833	14428.11
468.038	13846.49
