Data from USB4F104151__98__11-53-02-478.txt Node

Date: Fri Mar 14 11:53:02 EDT 2025
User: louis
Spectrometer: USB4F10415
Trigger mode: 4
Integration Time (sec): 2.000000E-2
Scans to average: 1
Electric dark correction enabled: true
Nonlinearity correction enabled: false
Boxcar width: 0
XAxis mode: Wavelengths
Number of Pixels in Spectrum: 3648
>>>>>Begin Spectral Data<<<<<
178.204	-0.34
178.424	-0.34
178.644	-0.34
178.864	-80.21
179.084	-117.08
179.304	-49.49
179.524	97.96
179.744	-6.49
179.964	3.75
180.184	59.05
180.404	-24.92
180.624	-0.34
180.844	-0.34
181.064	-2.39
181.283	-47.44
181.503	-6.49
181.723	-22.87
181.943	-10.58
182.163	83.63
182.383	69.29
182.602	81.58
182.822	40.62
183.042	20.14
183.262	-6.49
183.482	69.29
183.701	65.19
183.921	-35.16
184.141	-33.11
184.361	13.99
184.58	54.95
184.8	30.38
185.02	3.75
185.239	40.62
185.459	50.86
185.679	32.43
185.898	-55.64
186.118	79.53
186.338	59.05
186.557	54.95
186.777	-0.34
186.997	34.47
187.216	30.38
187.436	89.77
187.655	-10.58
187.875	7.85
188.095	9.9
188.314	36.52
188.534	97.96
188.753	48.81
188.973	38.57
189.192	30.38
189.412	112.3
189.631	106.15
189.851	67.24
190.07	126.63
190.29	-16.73
190.509	-8.53
190.729	9.9
190.948	97.96
191.168	126.63
191.387	30.38
191.607	13.99
191.826	9.9
192.045	16.04
192.265	3.75
192.484	28.33
192.704	-20.82
192.923	34.47
193.142	106.15
193.362	20.14
193.581	38.57
193.8	52.91
194.02	116.39
194.239	22.19
194.458	59.05
194.678	30.38
194.897	-0.34
195.116	46.76
195.335	46.76
195.555	61.1
195.774	61.1
195.993	46.76
196.212	-4.44
196.432	20.14
196.651	-8.53
196.87	9.9
197.089	54.95
197.308	-18.77
197.528	-35.16
197.747	44.71
197.966	-4.44
198.185	42.67
198.404	16.04
198.623	40.62
198.842	22.19
199.062	124.58
199.281	85.67
199.5	-10.58
199.719	30.38
199.938	32.43
200.157	104.11
200.376	52.91
200.595	97.96
200.814	1.71
201.033	-33.11
201.252	7.85
201.471	3.75
201.69	57
201.909	69.29
202.128	79.53
202.347	61.1
202.566	-35.16
202.785	67.24
203.004	-26.96
203.223	71.34
203.442	-37.2
203.661	63.15
203.879	59.05
204.098	130.73
204.317	18.09
204.536	52.91
204.755	108.2
204.974	93.87
205.193	38.57
205.411	104.11
205.63	-26.96
205.849	48.81
206.068	44.71
206.287	-6.49
206.505	91.82
206.724	3.75
206.943	50.86
207.162	16.04
207.381	11.95
207.599	67.24
207.818	54.95
208.037	24.23
208.255	22.19
208.474	34.47
208.693	34.47
208.911	83.63
209.13	52.91
209.349	106.15
209.567	5.8
209.786	130.73
210.005	59.05
210.223	-31.06
210.442	-6.49
210.661	48.81
210.879	3.75
211.098	61.1
211.316	46.76
211.535	138.92
211.753	40.62
211.972	114.34
212.191	5.8
212.409	24.23
212.628	81.58
212.846	34.47
213.065	36.52
213.283	38.57
213.502	34.47
213.72	102.06
213.938	20.14
214.157	-10.58
214.375	28.33
214.594	75.43
214.812	52.91
215.031	34.47
215.249	65.19
215.467	77.48
215.686	28.33
215.904	36.52
216.122	46.76
216.341	110.25
216.559	-35.16
216.778	32.43
216.996	26.28
217.214	16.04
217.432	-4.44
217.651	40.62
217.869	22.19
218.087	32.43
218.306	7.85
218.524	52.91
218.742	16.04
218.96	48.81
219.179	-16.73
219.397	-26.96
219.615	81.58
219.833	38.57
220.051	-12.63
220.27	16.04
220.488	61.1
220.706	-20.82
220.924	24.23
221.142	11.95
221.36	20.14
221.578	42.67
221.796	11.95
222.015	83.63
222.233	34.47
222.451	83.63
222.669	7.85
222.887	-2.39
223.105	9.9
223.323	22.19
223.541	46.76
223.759	-0.34
223.977	34.47
224.195	89.77
224.413	83.63
224.631	-2.39
224.849	50.86
225.067	73.39
225.285	26.28
225.503	36.52
225.721	32.43
225.939	22.19
226.157	69.29
226.375	42.67
226.592	52.91
226.81	114.34
227.028	-8.53
227.246	50.86
227.464	89.77
227.682	32.43
227.9	75.43
228.117	13.99
228.335	3.75
228.553	16.04
228.771	85.67
228.989	50.86
229.206	20.14
229.424	-20.82
229.642	-53.59
229.86	38.57
230.077	118.44
230.295	3.75
230.513	11.95
230.731	63.15
230.948	38.57
231.166	132.78
231.384	-35.16
231.601	-6.49
231.819	40.62
232.037	48.81
232.254	36.52
232.472	22.19
232.689	30.38
232.907	30.38
233.125	36.52
233.342	20.14
233.56	28.33
233.777	40.62
233.995	-4.44
234.213	5.8
234.43	16.04
234.648	13.99
234.865	69.29
235.083	91.82
235.3	-10.58
235.518	57
235.735	75.43
235.953	46.76
236.17	102.06
236.388	20.14
236.605	16.04
236.822	93.87
237.04	1.71
237.257	-20.82
237.475	71.34
237.692	3.75
237.909	65.19
238.127	32.43
238.344	91.82
238.562	48.81
238.779	26.28
238.996	22.19
239.214	97.96
239.431	59.05
239.648	7.85
239.865	22.19
240.083	24.23
240.3	65.19
240.517	26.28
240.735	22.19
240.952	59.05
241.169	57
241.386	24.23
241.603	26.28
241.821	40.62
242.038	63.15
242.255	48.81
242.472	5.8
242.689	9.9
242.907	5.8
243.124	-22.87
243.341	30.38
243.558	69.29
243.775	-18.77
243.992	-12.63
244.209	-0.34
244.426	114.34
244.643	52.91
244.86	-12.63
245.078	59.05
245.295	-0.34
245.512	-6.49
245.729	59.05
245.946	30.38
246.163	50.86
246.38	91.82
246.597	24.23
246.814	57
247.031	3.75
247.248	89.77
247.464	-61.78
247.681	44.71
247.898	61.1
248.115	75.43
248.332	-16.73
248.549	63.15
248.766	38.57
248.983	46.76
249.2	-12.63
249.417	28.33
249.633	13.99
249.85	20.14
250.067	73.39
250.284	-12.63
250.501	77.48
250.717	81.58
250.934	-8.53
251.151	18.09
251.368	20.14
251.585	79.53
251.801	32.43
252.018	59.05
252.235	106.15
252.451	48.81
252.668	42.67
252.885	16.04
253.102	83.63
253.318	149.16
253.535	38.57
253.752	24.23
253.968	48.81
254.185	1.71
254.401	50.86
254.618	38.57
254.835	26.28
255.051	9.9
255.268	87.72
255.484	46.76
255.701	3.75
255.917	13.99
256.134	36.52
256.351	79.53
256.567	7.85
256.784	-12.63
257	1.71
257.217	46.76
257.433	30.38
257.65	18.09
257.866	24.23
258.082	-43.35
258.299	26.28
258.515	-18.77
258.732	36.52
258.948	32.43
259.165	36.52
259.381	65.19
259.597	34.47
259.814	54.95
260.03	59.05
260.246	46.76
260.463	-8.53
260.679	69.29
260.895	85.67
261.112	24.23
261.328	-14.68
261.544	67.24
261.761	79.53
261.977	18.09
262.193	75.43
262.409	48.81
262.626	18.09
262.842	20.14
263.058	13.99
263.274	100.01
263.49	36.52
263.707	-4.44
263.923	67.24
264.139	-0.34
264.355	-39.25
264.571	83.63
264.787	83.63
265.004	-6.49
265.22	9.9
265.436	38.57
265.652	-35.16
265.868	30.38
266.084	11.95
266.3	38.57
266.516	13.99
266.732	-18.77
266.948	22.19
267.164	30.38
267.38	67.24
267.596	26.28
267.812	87.72
268.028	69.29
268.244	-24.92
268.46	30.38
268.676	-0.34
268.892	52.91
269.108	24.23
269.324	110.25
269.54	26.28
269.756	48.81
269.972	71.34
270.188	-10.58
270.403	50.86
270.619	73.39
270.835	40.62
271.051	20.14
271.267	20.14
271.483	46.76
271.698	-12.63
271.914	42.67
272.13	-4.44
272.346	97.96
272.562	69.29
272.777	112.3
272.993	5.8
273.209	11.95
273.425	59.05
273.64	54.95
273.856	50.86
274.072	75.43
274.287	59.05
274.503	-0.34
274.719	77.48
274.934	24.23
275.15	5.8
275.366	38.57
275.581	18.09
275.797	61.1
276.012	7.85
276.228	9.9
276.444	59.05
276.659	-18.77
276.875	24.23
277.09	34.47
277.306	44.71
277.521	-10.58
277.737	-24.92
277.952	81.58
278.168	54.95
278.383	1.71
278.599	-26.96
278.814	48.81
279.03	5.8
279.245	38.57
279.461	-0.34
279.676	91.82
279.892	67.24
280.107	22.19
280.322	40.62
280.538	65.19
280.753	-0.34
280.969	30.38
281.184	48.81
281.399	118.44
281.615	69.29
281.83	28.33
282.045	59.05
282.26	30.38
282.476	75.43
282.691	46.76
282.906	65.19
283.122	-2.39
283.337	85.67
283.552	112.3
283.767	9.9
283.983	52.91
284.198	32.43
284.413	54.95
284.628	-29.01
284.843	5.8
285.058	52.91
285.274	108.2
285.489	57
285.704	9.9
285.919	77.48
286.134	30.38
286.349	75.43
286.564	9.9
286.779	46.76
286.995	28.33
287.21	3.75
287.425	79.53
287.64	-0.34
287.855	-0.34
288.07	-4.44
288.285	73.39
288.5	32.43
288.715	7.85
288.93	42.67
289.145	5.8
289.36	11.95
289.575	61.1
289.79	26.28
290.004	-10.58
290.219	87.72
290.434	34.47
290.649	13.99
290.864	54.95
291.079	-0.34
291.294	67.24
291.509	48.81
291.724	-10.58
291.938	-14.68
292.153	24.23
292.368	32.43
292.583	7.85
292.798	102.06
293.012	100.01
293.227	-45.4
293.442	-18.77
293.657	42.67
293.871	44.71
294.086	63.15
294.301	36.52
294.516	61.1
294.73	50.86
294.945	28.33
295.16	26.28
295.374	26.28
295.589	42.67
295.804	52.91
296.018	83.63
296.233	71.34
296.447	46.76
296.662	81.58
296.877	65.19
297.091	-14.68
297.306	93.87
297.52	34.47
297.735	42.67
297.949	40.62
298.164	71.34
298.378	7.85
298.593	18.09
298.807	11.95
299.022	-14.68
299.236	61.1
299.451	61.1
299.665	48.81
299.88	24.23
300.094	50.86
300.309	-10.58
300.523	11.95
300.737	61.1
300.952	1.71
301.166	102.06
301.381	-0.34
301.595	116.39
301.809	-0.34
302.024	3.75
302.238	-35.16
302.452	65.19
302.667	61.1
302.881	126.63
303.095	46.76
303.309	32.43
303.524	22.19
303.738	69.29
303.952	3.75
304.166	-4.44
304.381	-10.58
304.595	79.53
304.809	44.71
305.023	22.19
305.237	26.28
305.452	63.15
305.666	122.54
305.88	-49.49
306.094	44.71
306.308	54.95
306.522	46.76
306.736	1.71
306.95	46.76
307.164	61.1
307.379	-8.53
307.593	44.71
307.807	73.39
308.021	18.09
308.235	5.8
308.449	-12.63
308.663	5.8
308.877	95.91
309.091	44.71
309.305	13.99
309.519	-8.53
309.733	61.1
309.947	-61.78
310.161	63.15
310.374	50.86
310.588	122.54
310.802	28.33
311.016	42.67
311.23	128.68
311.444	63.15
311.658	-2.39
311.872	91.82
312.085	54.95
312.299	77.48
312.513	73.39
312.727	110.25
312.941	-8.53
313.154	3.75
313.368	71.34
313.582	-4.44
313.796	91.82
314.009	65.19
314.223	59.05
314.437	102.06
314.651	48.81
314.864	-0.34
315.078	-2.39
315.292	-16.73
315.505	-24.92
315.719	42.67
315.933	3.75
316.146	89.77
316.36	-33.11
316.573	93.87
316.787	28.33
317.001	40.62
317.214	48.81
317.428	42.67
317.641	52.91
317.855	52.91
318.068	106.15
318.282	87.72
318.495	44.71
318.709	28.33
318.922	102.06
319.136	46.76
319.349	67.24
319.563	108.2
319.776	36.52
319.99	30.38
320.203	50.86
320.417	50.86
320.63	71.34
320.843	40.62
321.057	36.52
321.27	11.95
321.483	149.16
321.697	67.24
321.91	44.71
322.124	79.53
322.337	-31.06
322.55	77.48
322.763	46.76
322.977	30.38
323.19	36.52
323.403	32.43
323.617	46.76
323.83	46.76
324.043	40.62
324.256	48.81
324.469	-4.44
324.683	13.99
324.896	40.62
325.109	59.05
325.322	108.2
325.535	59.05
325.748	134.82
325.962	71.34
326.175	22.19
326.388	42.67
326.601	28.33
326.814	59.05
327.027	46.76
327.24	57
327.453	36.52
327.666	16.04
327.879	16.04
328.092	54.95
328.305	-16.73
328.518	-20.82
328.731	-0.34
328.944	91.82
329.157	89.77
329.37	100.01
329.583	73.39
329.796	130.73
330.009	13.99
330.222	22.19
330.435	42.67
330.648	20.14
330.861	46.76
331.073	44.71
331.286	87.72
331.499	-20.82
331.712	48.81
331.925	48.81
332.138	44.71
332.35	50.86
332.563	-2.39
332.776	24.23
332.989	-20.82
333.202	26.28
333.414	16.04
333.627	61.1
333.84	87.72
334.053	67.24
334.265	52.91
334.478	73.39
334.691	40.62
334.903	-37.2
335.116	16.04
335.329	-22.87
335.541	-8.53
335.754	77.48
335.966	28.33
336.179	79.53
336.392	40.62
336.604	50.86
336.817	36.52
337.029	18.09
337.242	-37.2
337.454	126.63
337.667	-18.77
337.88	65.19
338.092	71.34
338.305	18.09
338.517	-18.77
338.729	77.48
338.942	3.75
339.154	77.48
339.367	-29.01
339.579	28.33
339.792	81.58
340.004	36.52
340.217	34.47
340.429	18.09
340.641	-4.44
340.854	34.47
341.066	57
341.278	-26.96
341.491	87.72
341.703	114.34
341.915	57
342.128	48.81
342.34	20.14
342.552	22.19
342.764	57
342.977	48.81
343.189	67.24
343.401	-2.39
343.613	54.95
343.826	36.52
344.038	28.33
344.25	83.63
344.462	46.76
344.674	132.78
344.886	81.58
345.099	89.77
345.311	32.43
345.523	67.24
345.735	-12.63
345.947	1.71
346.159	79.53
346.371	54.95
346.583	63.15
346.795	140.97
347.007	24.23
347.219	32.43
347.431	-12.63
347.643	30.38
347.855	-0.34
348.067	50.86
348.279	91.82
348.491	110.25
348.703	61.1
348.915	5.8
349.127	-22.87
349.339	95.91
349.551	-33.11
349.763	50.86
349.975	40.62
350.187	54.95
350.399	61.1
350.61	3.75
350.822	48.81
351.034	59.05
351.246	13.99
351.458	16.04
351.669	65.19
351.881	79.53
352.093	26.28
352.305	87.72
352.517	59.05
352.728	54.95
352.94	69.29
353.152	122.54
353.363	9.9
353.575	75.43
353.787	63.15
353.999	93.87
354.21	28.33
354.422	57
354.633	54.95
354.845	36.52
355.057	124.58
355.268	13.99
355.48	-39.25
355.692	-20.82
355.903	116.39
356.115	38.57
356.326	-16.73
356.538	50.86
356.749	73.39
356.961	57
357.172	28.33
357.384	42.67
357.595	11.95
357.807	28.33
358.018	5.8
358.23	-2.39
358.441	48.81
358.653	89.77
358.864	1.71
359.075	34.47
359.287	-26.96
359.498	102.06
359.709	3.75
359.921	18.09
360.132	59.05
360.344	22.19
360.555	16.04
360.766	26.28
360.977	71.34
361.189	57
361.4	28.33
361.611	67.24
361.823	130.73
362.034	108.2
362.245	16.04
362.456	40.62
362.667	65.19
362.879	89.77
363.09	44.71
363.301	95.91
363.512	102.06
363.723	5.8
363.935	63.15
364.146	65.19
364.357	85.67
364.568	30.38
364.779	-8.53
364.99	16.04
365.201	-8.53
365.412	79.53
365.623	42.67
365.834	32.43
366.045	48.81
366.256	50.86
366.467	65.19
366.678	26.28
366.889	65.19
367.1	30.38
367.311	44.71
367.522	40.62
367.733	59.05
367.944	97.96
368.155	38.57
368.366	54.95
368.577	79.53
368.788	79.53
368.999	65.19
369.209	46.76
369.42	112.3
369.631	85.67
369.842	69.29
370.053	-24.92
370.264	108.2
370.474	81.58
370.685	1.71
370.896	110.25
371.107	50.86
371.317	85.67
371.528	-2.39
371.739	124.58
371.95	71.34
372.16	16.04
372.371	36.52
372.582	50.86
372.792	122.54
373.003	89.77
373.214	-22.87
373.424	54.95
373.635	95.91
373.846	52.91
374.056	59.05
374.267	13.99
374.477	-10.58
374.688	36.52
374.898	63.15
375.109	46.76
375.319	36.52
375.53	130.73
375.74	-16.73
375.951	48.81
376.161	75.43
376.372	89.77
376.582	-10.58
376.793	130.73
377.003	77.48
377.214	38.57
377.424	3.75
377.635	71.34
377.845	-33.11
378.055	77.48
378.266	54.95
378.476	42.67
378.686	71.34
378.897	85.67
379.107	-12.63
379.317	116.39
379.528	46.76
379.738	108.2
379.948	5.8
380.158	63.15
380.369	67.24
380.579	36.52
380.789	65.19
380.999	42.67
381.21	77.48
381.42	75.43
381.63	16.04
381.84	57
382.05	28.33
382.261	124.58
382.471	-6.49
382.681	13.99
382.891	50.86
383.101	38.57
383.311	13.99
383.521	28.33
383.731	118.44
383.941	44.71
384.151	11.95
384.361	126.63
384.571	61.1
384.781	124.58
384.991	95.91
385.201	81.58
385.411	59.05
385.621	85.67
385.831	79.53
386.041	81.58
386.251	5.8
386.461	71.34
386.671	24.23
386.881	93.87
387.091	126.63
387.301	13.99
387.511	16.04
387.72	65.19
387.93	18.09
388.14	13.99
388.35	5.8
388.56	85.67
388.769	44.71
388.979	69.29
389.189	-14.68
389.399	42.67
389.609	116.39
389.818	57
390.028	32.43
390.238	48.81
390.447	106.15
390.657	65.19
390.867	79.53
391.076	36.52
391.286	61.1
391.496	69.29
391.705	50.86
391.915	91.82
392.125	120.49
392.334	-12.63
392.544	97.96
392.753	83.63
392.963	1.71
393.172	46.76
393.382	1.71
393.591	106.15
393.801	81.58
394.01	149.16
394.22	93.87
394.429	79.53
394.639	46.76
394.848	83.63
395.058	77.48
395.267	22.19
395.477	73.39
395.686	122.54
395.895	128.68
396.105	93.87
396.314	120.49
396.524	110.25
396.733	67.24
396.942	50.86
397.152	112.3
397.361	100.01
397.57	93.87
397.78	57
397.989	85.67
398.198	126.63
398.407	91.82
398.617	210.6
398.826	79.53
399.035	65.19
399.244	93.87
399.453	54.95
399.663	102.06
399.872	46.76
400.081	97.96
400.29	73.39
400.499	77.48
400.708	145.06
400.917	167.59
401.127	5.8
401.336	28.33
401.545	132.78
401.754	81.58
401.963	124.58
402.172	91.82
402.381	89.77
402.59	126.63
402.799	157.35
403.008	204.46
403.217	128.68
403.426	155.3
403.635	69.29
403.844	136.87
404.053	30.38
404.262	81.58
404.471	159.4
404.68	108.2
404.888	214.7
405.097	126.63
405.306	73.39
405.515	145.06
405.724	120.49
405.933	138.92
406.142	122.54
406.35	206.5
406.559	245.41
406.768	108.2
406.977	183.98
407.185	163.5
407.394	136.87
407.603	192.17
407.812	183.98
408.02	95.91
408.229	157.35
408.438	147.11
408.646	169.64
408.855	204.46
409.064	214.7
409.272	138.92
409.481	222.89
409.69	208.55
409.898	233.13
410.107	202.41
410.315	261.8
410.524	157.35
410.733	212.65
410.941	159.4
411.15	300.71
411.358	265.89
411.567	319.14
411.775	290.47
411.984	222.89
412.192	317.09
412.401	280.23
412.609	353.96
412.818	317.09
413.026	374.44
413.234	423.59
413.443	358.05
413.651	376.48
413.86	368.29
414.068	444.07
414.276	452.26
414.485	458.4
414.693	474.79
414.901	435.88
415.11	542.37
415.318	450.21
415.526	489.12
415.734	556.71
415.943	487.08
416.151	616.1
416.359	509.6
416.567	632.48
416.776	655.01
416.984	636.58
417.192	700.06
417.4	714.4
417.608	708.26
417.817	831.13
418.025	757.41
418.233	820.89
418.441	839.33
418.649	857.76
418.857	831.13
419.065	974.49
419.273	966.3
419.481	947.87
419.689	1056.41
419.897	1025.69
420.105	997.02
420.313	1162.9
420.521	1140.38
420.729	1074.84
420.937	1150.62
421.145	1179.29
421.353	1322.65
421.561	1265.3
421.769	1410.71
421.977	1466
422.185	1404.57
422.393	1494.68
422.601	1547.92
422.809	1676.95
423.017	1715.86
423.224	1554.07
423.432	1715.86
423.64	1672.85
423.848	1943.18
424.056	1832.59
424.263	1961.61
424.471	1910.41
424.679	1973.9
424.887	2172.55
425.094	2160.27
425.302	2205.32
425.51	2262.66
425.718	2242.18
425.925	2338.44
426.133	2356.87
426.341	2571.91
426.548	2762.37
426.756	2776.7
426.964	2764.42
427.171	2856.58
427.379	2920.06
427.586	2942.59
427.794	3114.62
428.001	3264.12
428.209	3395.19
428.417	3399.29
428.624	3604.08
428.832	3579.51
429.039	3536.5
429.247	3556.98
429.454	3827.31
429.662	4122.22
429.869	3868.27
430.076	4181.61
430.284	4028.01
430.491	4181.61
430.699	4535.91
430.906	4482.66
431.114	4451.94
431.321	4488.81
431.528	4777.57
431.736	4963.93
431.943	5269.08
432.15	5068.38
432.358	5332.57
432.565	5512.79
432.772	5414.49
432.979	5797.46
433.187	5764.69
433.394	5922.38
433.601	6215.24
433.808	6497.86
434.016	6331.98
434.223	6651.46
434.43	6913.6
434.637	6905.41
434.844	7286.33
435.052	7353.91
435.259	7110.21
435.466	7390.78
435.673	7364.15
435.88	7767.6
436.087	8173.1
436.294	8181.29
436.501	8005.17
436.708	7994.93
436.915	8558.12
437.122	8793.64
437.329	8961.57
437.537	9227.81
437.743	9348.64
437.95	9262.62
438.157	9504.28
438.364	9741.85
438.571	9856.53
438.778	10079.76
438.985	11017.73
439.192	10368.52
439.399	10966.53
439.606	10501.64
439.813	11417.08
440.02	11789.81
440.227	11542.01
440.433	11585.02
440.64	12043.76
440.847	11836.92
441.054	12156.4
441.261	13018.6
441.467	12811.75
441.674	13100.51
441.881	13434.33
442.088	13389.28
442.294	13460.96
442.501	13624.79
442.708	14104.02
442.914	14489.04
443.121	15162.82
443.328	14880.2
443.534	15809.98
443.741	15513.02
443.948	15269.31
444.154	16160.18
444.361	16004.53
444.568	16162.23
444.774	16207.28
444.981	16432.56
445.187	16768.43
445.394	17659.29
445.6	17380.77
445.807	19232.13
446.013	18437.52
446.22	18611.6
446.426	19416.45
446.633	19574.14
446.839	20153.72
447.046	19867
447.252	20227.45
447.459	20516.21
447.665	20409.72
447.871	21249.38
448.078	22087
448.284	21286.25
448.491	21570.91
448.697	22650.19
448.903	23090.51
449.11	23170.38
449.316	22902.09
449.522	23123.27
449.728	23713.09
449.935	23874.88
450.141	24003.9
450.347	24716.59
450.553	23541.06
450.76	24091.96
450.966	24845.62
451.172	24483.13
451.378	25206.06
451.584	24886.57
451.791	25541.92
451.997	25324.84
452.203	25834.78
452.409	25464.1
452.615	25617.7
452.821	24479.03
453.027	24497.46
453.233	25666.85
453.44	24851.76
453.646	24806.7
453.852	25077.04
454.058	25511.21
454.264	24751.41
454.47	25326.89
454.676	24550.71
454.882	25498.92
455.088	23438.66
455.294	23696.71
455.5	23868.73
455.705	24474.93
455.911	23676.23
456.117	22984.01
456.323	22639.95
456.529	21355.88
456.735	22363.48
456.941	21765.47
457.147	21599.59
457.352	20647.28
457.558	20530.55
457.764	20571.5
457.97	20098.42
458.176	19928.44
458.381	19916.15
458.587	18818.44
458.793	19051.91
458.999	17857.95
459.204	19314.05
459.41	18689.42
459.616	17309.09
459.821	17544.61
460.027	17259.94
460.233	16760.23
460.438	16231.86
460.644	16534.96
460.85	15478.21
461.055	15214.02
461.261	15480.25
461.466	14288.34
461.672	13673.95
461.878	14753.23
462.083	13686.23
462.289	13374.94
462.494	13370.85
462.7	12770.79
462.905	12340.72
463.111	12770.79
463.316	13106.66
463.522	12520.94
463.727	12660.2
463.932	12492.27
464.138	12490.22
464.343	12504.56
464.549	12129.78
464.754	12731.88
464.959	12496.36
465.165	12357.1
465.37	11886.07
465.575	11468.28
465.781	12037.62
465.986	12174.83
466.191	11480.57
466.397	11339.26
466.602	10810.89
466.807	11339.26
467.012	11183.62
467.218	11140.61
467.423	11054.59
467.628	11175.42
467.833	11601.4
468.038	11224.58
468.244	10751.49
468.449	11091.46
468.654	11099.65
