Data from USB4F104151__83__11-52-50-499.txt Node

Date: Fri Mar 14 11:52:50 EDT 2025
User: louis
Spectrometer: USB4F10415
Trigger mode: 4
Integration Time (sec): 2.000000E-2
Scans to average: 1
Electric dark correction enabled: true
Nonlinearity correction enabled: false
Boxcar width: 0
XAxis mode: Wavelengths
Number of Pixels in Spectrum: 3648
>>>>>Begin Spectral Data<<<<<
178.204	-72.87
178.424	-72.87
178.644	-72.87
178.864	-95.4
179.084	-115.88
179.304	37.72
179.524	-50.35
179.744	-11.43
179.964	-19.63
180.184	19.29
180.404	9.05
180.624	39.76
180.844	-48.3
181.064	-44.2
181.283	27.48
181.503	52.05
181.723	-11.43
181.943	9.05
182.163	33.62
182.383	90.96
182.602	39.76
182.822	-25.77
183.042	64.34
183.262	-5.29
183.482	60.24
183.701	43.86
183.921	-19.63
184.141	41.81
184.361	7
184.58	-9.39
184.8	64.34
185.02	-17.58
185.239	56.15
185.459	62.29
185.679	-11.43
185.898	-60.59
186.118	13.14
186.338	-17.58
186.557	50
186.777	2.9
186.997	-1.19
187.216	11.09
187.436	54.1
187.655	-27.82
187.875	52.05
188.095	19.29
188.314	39.76
188.534	60.24
188.753	-17.58
188.973	13.14
189.192	23.38
189.412	15.19
189.631	-15.53
189.851	4.95
190.07	105.3
190.29	-3.24
190.509	-15.53
190.729	27.48
190.948	0.85
191.168	117.59
191.387	2.9
191.607	-3.24
191.826	43.86
192.045	21.33
192.265	58.2
192.484	60.24
192.704	-17.58
192.923	-23.72
193.142	60.24
193.362	47.96
193.581	-7.34
193.8	7
194.02	43.86
194.239	-36.01
194.458	43.86
194.678	25.43
194.897	35.67
195.116	27.48
195.335	74.58
195.555	88.92
195.774	66.39
195.993	-11.43
196.212	-5.29
196.432	47.96
196.651	17.24
196.87	4.95
197.089	82.77
197.308	80.72
197.528	-40.11
197.747	88.92
197.966	115.54
198.185	-17.58
198.404	62.29
198.623	78.68
198.842	33.62
199.062	37.72
199.281	2.9
199.5	43.86
199.719	-1.19
199.938	39.76
200.157	35.67
200.376	-19.63
200.595	-1.19
200.814	41.81
201.033	15.19
201.252	39.76
201.471	-44.2
201.69	-15.53
201.909	7
202.128	52.05
202.347	21.33
202.566	13.14
202.785	41.81
203.004	21.33
203.223	78.68
203.442	105.3
203.661	4.95
203.879	21.33
204.098	80.72
204.317	90.96
204.536	29.52
204.755	41.81
204.974	45.91
205.193	-33.96
205.411	25.43
205.63	9.05
205.849	70.48
206.068	-1.19
206.287	-3.24
206.505	68.44
206.724	58.2
206.943	15.19
207.162	23.38
207.381	99.16
207.599	21.33
207.818	-52.39
208.037	2.9
208.255	2.9
208.474	31.57
208.693	90.96
208.911	76.63
209.13	-15.53
209.349	58.2
209.567	-38.06
209.786	90.96
210.005	54.1
210.223	-7.34
210.442	39.76
210.661	-7.34
210.879	-31.91
211.098	35.67
211.316	27.48
211.535	21.33
211.753	-5.29
211.972	64.34
212.191	11.09
212.409	58.2
212.628	23.38
212.846	29.52
213.065	101.2
213.283	80.72
213.502	35.67
213.72	56.15
213.938	-1.19
214.157	25.43
214.375	70.48
214.594	-27.82
214.812	-44.2
215.031	19.29
215.249	-5.29
215.467	-23.72
215.686	-15.53
215.904	105.3
216.122	33.62
216.341	29.52
216.559	11.09
216.778	33.62
216.996	60.24
217.214	37.72
217.432	70.48
217.651	0.85
217.869	-11.43
218.087	50
218.306	-11.43
218.524	84.82
218.742	-38.06
218.96	111.44
219.179	19.29
219.397	25.43
219.615	70.48
219.833	37.72
220.051	-85.16
220.27	31.57
220.488	13.14
220.706	64.34
220.924	80.72
221.142	72.53
221.36	58.2
221.578	19.29
221.796	-13.48
222.015	64.34
222.233	-42.15
222.451	41.81
222.669	-29.87
222.887	25.43
223.105	-46.25
223.323	7
223.541	21.33
223.759	-13.48
223.977	47.96
224.195	7
224.413	54.1
224.631	35.67
224.849	19.29
225.067	47.96
225.285	-25.77
225.503	-1.19
225.721	25.43
225.939	56.15
226.157	0.85
226.375	150.36
226.592	41.81
226.81	56.15
227.028	84.82
227.246	21.33
227.464	33.62
227.682	60.24
227.9	-46.25
228.117	4.95
228.335	50
228.553	15.19
228.771	7
228.989	21.33
229.206	80.72
229.424	41.81
229.642	-38.06
229.86	-36.01
230.077	47.96
230.295	0.85
230.513	31.57
230.731	-7.34
230.948	74.58
231.166	86.87
231.384	15.19
231.601	13.14
231.819	0.85
232.037	23.38
232.254	33.62
232.472	54.1
232.689	-7.34
232.907	-9.39
233.125	21.33
233.342	56.15
233.56	11.09
233.777	29.52
233.995	35.67
234.213	-13.48
234.43	66.39
234.648	-50.35
234.865	-13.48
235.083	93.01
235.3	99.16
235.518	27.48
235.735	-5.29
235.953	19.29
236.17	37.72
236.388	11.09
236.605	33.62
236.822	-3.24
237.04	64.34
237.257	66.39
237.475	9.05
237.692	54.1
237.909	19.29
238.127	0.85
238.344	-9.39
238.562	4.95
238.779	15.19
238.996	-44.2
239.214	45.91
239.431	62.29
239.648	-5.29
239.865	17.24
240.083	-15.53
240.3	31.57
240.517	58.2
240.735	25.43
240.952	-48.3
241.169	39.76
241.386	33.62
241.603	-21.67
241.821	15.19
242.038	45.91
242.255	17.24
242.472	23.38
242.689	13.14
242.907	0.85
243.124	35.67
243.341	29.52
243.558	45.91
243.775	-11.43
243.992	-50.35
244.209	35.67
244.426	47.96
244.643	11.09
244.86	-27.82
245.078	19.29
245.295	41.81
245.512	17.24
245.729	-23.72
245.946	62.29
246.163	13.14
246.38	35.67
246.597	-13.48
246.814	-3.24
247.031	-23.72
247.248	45.91
247.464	31.57
247.681	111.44
247.898	19.29
248.115	-25.77
248.332	-1.19
248.549	13.14
248.766	107.35
248.983	-17.58
249.2	82.77
249.417	58.2
249.633	-27.82
249.85	19.29
250.067	41.81
250.284	-13.48
250.501	-62.63
250.717	39.76
250.934	-38.06
251.151	41.81
251.368	78.68
251.585	47.96
251.801	105.3
252.018	0.85
252.235	17.24
252.451	-1.19
252.668	68.44
252.885	56.15
253.102	45.91
253.318	90.96
253.535	11.09
253.752	45.91
253.968	45.91
254.185	39.76
254.401	25.43
254.618	72.53
254.835	47.96
255.051	43.86
255.268	35.67
255.484	37.72
255.701	19.29
255.917	62.29
256.134	-31.91
256.351	33.62
256.567	-5.29
256.784	-17.58
257	52.05
257.217	29.52
257.433	56.15
257.65	101.2
257.866	13.14
258.082	95.06
258.299	-25.77
258.515	52.05
258.732	-11.43
258.948	21.33
259.165	47.96
259.381	-19.63
259.597	21.33
259.814	-19.63
260.03	15.19
260.246	74.58
260.463	-25.77
260.679	80.72
260.895	23.38
261.112	17.24
261.328	-46.25
261.544	64.34
261.761	17.24
261.977	2.9
262.193	15.19
262.409	13.14
262.626	11.09
262.842	39.76
263.058	-17.58
263.274	31.57
263.49	33.62
263.707	13.14
263.923	64.34
264.139	35.67
264.355	2.9
264.571	74.58
264.787	-42.15
265.004	74.58
265.22	-9.39
265.436	0.85
265.652	-62.63
265.868	64.34
266.084	35.67
266.3	39.76
266.516	43.86
266.732	58.2
266.948	54.1
267.164	13.14
267.38	-33.96
267.596	-33.96
267.812	2.9
268.028	86.87
268.244	2.9
268.46	41.81
268.676	-5.29
268.892	-21.67
269.108	33.62
269.324	25.43
269.54	-1.19
269.756	9.05
269.972	-5.29
270.188	-93.35
270.403	11.09
270.619	-19.63
270.835	-13.48
271.051	-1.19
271.267	4.95
271.483	31.57
271.698	13.14
271.914	41.81
272.13	-5.29
272.346	2.9
272.562	50
272.777	109.4
272.993	7
273.209	-11.43
273.425	21.33
273.64	2.9
273.856	-9.39
274.072	-17.58
274.287	37.72
274.503	23.38
274.719	109.4
274.934	-15.53
275.15	19.29
275.366	0.85
275.581	23.38
275.797	50
276.012	76.63
276.228	-7.34
276.444	17.24
276.659	64.34
276.875	39.76
277.09	29.52
277.306	99.16
277.521	25.43
277.737	-31.91
277.952	78.68
278.168	56.15
278.383	76.63
278.599	64.34
278.814	11.09
279.03	-11.43
279.245	72.53
279.461	19.29
279.676	68.44
279.892	41.81
280.107	29.52
280.322	15.19
280.538	11.09
280.753	7
280.969	35.67
281.184	-81.07
281.399	33.62
281.615	-7.34
281.83	25.43
282.045	-3.24
282.26	-13.48
282.476	29.52
282.691	25.43
282.906	29.52
283.122	4.95
283.337	23.38
283.552	19.29
283.767	-9.39
283.983	56.15
284.198	-33.96
284.413	70.48
284.628	-62.63
284.843	7
285.058	-5.29
285.274	39.76
285.489	-46.25
285.704	43.86
285.919	21.33
286.134	66.39
286.349	23.38
286.564	15.19
286.779	15.19
286.995	41.81
287.21	2.9
287.425	39.76
287.64	39.76
287.855	-7.34
288.07	-19.63
288.285	11.09
288.5	13.14
288.715	-15.53
288.93	31.57
289.145	21.33
289.36	31.57
289.575	27.48
289.79	33.62
290.004	50
290.219	19.29
290.434	4.95
290.649	-52.39
290.864	41.81
291.079	39.76
291.294	11.09
291.509	2.9
291.724	7
291.938	19.29
292.153	39.76
292.368	-21.67
292.583	95.06
292.798	-46.25
293.012	23.38
293.227	27.48
293.442	7
293.657	17.24
293.871	50
294.086	41.81
294.301	43.86
294.516	72.53
294.73	29.52
294.945	4.95
295.16	84.82
295.374	-38.06
295.589	66.39
295.804	-36.01
296.018	-21.67
296.233	33.62
296.447	111.44
296.662	-13.48
296.877	50
297.091	52.05
297.306	4.95
297.52	25.43
297.735	52.05
297.949	11.09
298.164	90.96
298.378	56.15
298.593	70.48
298.807	-15.53
299.022	86.87
299.236	17.24
299.451	29.52
299.665	50
299.88	39.76
300.094	37.72
300.309	31.57
300.523	58.2
300.737	-31.91
300.952	43.86
301.166	95.06
301.381	33.62
301.595	13.14
301.809	-17.58
302.024	33.62
302.238	45.91
302.452	33.62
302.667	11.09
302.881	66.39
303.095	78.68
303.309	50
303.524	23.38
303.738	56.15
303.952	-9.39
304.166	52.05
304.381	-1.19
304.595	37.72
304.809	-62.63
305.023	33.62
305.237	31.57
305.452	31.57
305.666	43.86
305.88	37.72
306.094	52.05
306.308	15.19
306.522	21.33
306.736	64.34
306.95	66.39
307.164	41.81
307.379	64.34
307.593	66.39
307.807	47.96
308.021	2.9
308.235	25.43
308.449	29.52
308.663	68.44
308.877	37.72
309.091	80.72
309.305	2.9
309.519	64.34
309.733	11.09
309.947	-11.43
310.161	52.05
310.374	41.81
310.588	9.05
310.802	-44.2
311.016	68.44
311.23	-19.63
311.444	15.19
311.658	33.62
311.872	82.77
312.085	58.2
312.299	84.82
312.513	15.19
312.727	47.96
312.941	11.09
313.154	123.73
313.368	45.91
313.582	11.09
313.796	54.1
314.009	-13.48
314.223	21.33
314.437	84.82
314.651	72.53
314.864	-29.87
315.078	58.2
315.292	-17.58
315.505	-15.53
315.719	105.3
315.933	72.53
316.146	80.72
316.36	27.48
316.573	41.81
316.787	60.24
317.001	9.05
317.214	-66.73
317.428	37.72
317.641	19.29
317.855	76.63
318.068	0.85
318.282	2.9
318.495	68.44
318.709	35.67
318.922	-19.63
319.136	9.05
319.349	80.72
319.563	62.29
319.776	76.63
319.99	70.48
320.203	52.05
320.417	-21.67
320.63	-5.29
320.843	70.48
321.057	-15.53
321.27	29.52
321.483	-27.82
321.697	56.15
321.91	-17.58
322.124	95.06
322.337	72.53
322.55	7
322.763	-5.29
322.977	23.38
323.19	74.58
323.403	47.96
323.617	19.29
323.83	33.62
324.043	-13.48
324.256	54.1
324.469	27.48
324.683	43.86
324.896	19.29
325.109	25.43
325.322	15.19
325.535	29.52
325.748	17.24
325.962	11.09
326.175	-27.82
326.388	115.54
326.601	56.15
326.814	31.57
327.027	93.01
327.24	60.24
327.453	33.62
327.666	37.72
327.879	-1.19
328.092	62.29
328.305	-13.48
328.518	9.05
328.731	17.24
328.944	47.96
329.157	97.11
329.37	31.57
329.583	21.33
329.796	80.72
330.009	-23.72
330.222	39.76
330.435	9.05
330.648	50
330.861	9.05
331.073	90.96
331.286	72.53
331.499	2.9
331.712	4.95
331.925	76.63
332.138	31.57
332.35	25.43
332.563	72.53
332.776	68.44
332.989	27.48
333.202	39.76
333.414	-50.35
333.627	25.43
333.84	4.95
334.053	23.38
334.265	21.33
334.478	64.34
334.691	31.57
334.903	21.33
335.116	-7.34
335.329	9.05
335.541	-25.77
335.754	80.72
335.966	52.05
336.179	-3.24
336.392	7
336.604	117.59
336.817	-27.82
337.029	136.02
337.242	105.3
337.454	60.24
337.667	13.14
337.88	90.96
338.092	-44.2
338.305	0.85
338.517	7
338.729	43.86
338.942	60.24
339.154	-23.72
339.367	2.9
339.579	0.85
339.792	45.91
340.004	35.67
340.217	50
340.429	-7.34
340.641	37.72
340.854	105.3
341.066	7
341.278	84.82
341.491	7
341.703	95.06
341.915	-5.29
342.128	23.38
342.34	-23.72
342.552	13.14
342.764	9.05
342.977	15.19
343.189	72.53
343.401	88.92
343.613	-13.48
343.826	-19.63
344.038	9.05
344.25	2.9
344.462	31.57
344.674	7
344.886	-85.16
345.099	74.58
345.311	-56.49
345.523	-15.53
345.735	-33.96
345.947	-46.25
346.159	-11.43
346.371	60.24
346.583	58.2
346.795	-11.43
347.007	68.44
347.219	-7.34
347.431	50
347.643	97.11
347.855	11.09
348.067	-33.96
348.279	99.16
348.491	60.24
348.703	11.09
348.915	52.05
349.127	52.05
349.339	2.9
349.551	23.38
349.763	35.67
349.975	-11.43
350.187	-3.24
350.399	31.57
350.61	86.87
350.822	-38.06
351.034	50
351.246	0.85
351.458	19.29
351.669	-5.29
351.881	148.31
352.093	2.9
352.305	125.78
352.517	29.52
352.728	64.34
352.94	15.19
353.152	0.85
353.363	-33.96
353.575	35.67
353.787	52.05
353.999	121.68
354.21	47.96
354.422	7
354.633	45.91
354.845	15.19
355.057	66.39
355.268	29.52
355.48	47.96
355.692	21.33
355.903	66.39
356.115	78.68
356.326	25.43
356.538	90.96
356.749	31.57
356.961	103.25
357.172	39.76
357.384	43.86
357.595	-29.87
357.807	70.48
358.018	13.14
358.23	39.76
358.441	13.14
358.653	111.44
358.864	23.38
359.075	-7.34
359.287	21.33
359.498	144.21
359.709	-19.63
359.921	21.33
360.132	2.9
360.344	11.09
360.555	15.19
360.766	35.67
360.977	11.09
361.189	11.09
361.4	47.96
361.611	58.2
361.823	23.38
362.034	-11.43
362.245	-38.06
362.456	39.76
362.667	-13.48
362.879	9.05
363.09	4.95
363.301	-1.19
363.512	13.14
363.723	33.62
363.935	80.72
364.146	78.68
364.357	31.57
364.568	19.29
364.779	35.67
364.99	27.48
365.201	39.76
365.412	-17.58
365.623	33.62
365.834	33.62
366.045	-38.06
366.256	74.58
366.467	68.44
366.678	70.48
366.889	58.2
367.1	21.33
367.311	97.11
367.522	68.44
367.733	66.39
367.944	43.86
368.155	80.72
368.366	39.76
368.577	66.39
368.788	27.48
368.999	37.72
369.209	66.39
369.42	56.15
369.631	52.05
369.842	-7.34
370.053	123.73
370.264	68.44
370.474	58.2
370.685	43.86
370.896	50
371.107	58.2
371.317	99.16
371.528	13.14
371.739	133.97
371.95	-7.34
372.16	97.11
372.371	-1.19
372.582	7
372.792	97.11
373.003	52.05
373.214	35.67
373.424	15.19
373.635	19.29
373.846	15.19
374.056	39.76
374.267	27.48
374.477	15.19
374.688	-54.44
374.898	9.05
375.109	31.57
375.319	64.34
375.53	41.81
375.74	76.63
375.951	101.2
376.161	9.05
376.372	99.16
376.582	23.38
376.793	86.87
377.003	15.19
377.214	33.62
377.424	41.81
377.635	23.38
377.845	4.95
378.055	93.01
378.266	43.86
378.476	45.91
378.686	-60.59
378.897	43.86
379.107	-7.34
379.317	133.97
379.528	31.57
379.738	11.09
379.948	-19.63
380.158	62.29
380.369	19.29
380.579	31.57
380.789	-5.29
380.999	9.05
381.21	45.91
381.42	80.72
381.63	-13.48
381.84	-21.67
382.05	107.35
382.261	45.91
382.471	-11.43
382.681	-29.87
382.891	41.81
383.101	113.49
383.311	33.62
383.521	29.52
383.731	62.29
383.941	97.11
384.151	45.91
384.361	27.48
384.571	74.58
384.781	127.83
384.991	72.53
385.201	21.33
385.411	66.39
385.621	25.43
385.831	47.96
386.041	17.24
386.251	7
386.461	72.53
386.671	29.52
386.881	-15.53
387.091	50
387.301	-9.39
387.511	33.62
387.72	90.96
387.93	21.33
388.14	64.34
388.35	72.53
388.56	113.49
388.769	47.96
388.979	37.72
389.189	-1.19
389.399	29.52
389.609	58.2
389.818	142.16
390.028	31.57
390.238	23.38
390.447	31.57
390.657	90.96
390.867	-7.34
391.076	109.4
391.286	-1.19
391.496	62.29
391.705	19.29
391.915	129.88
392.125	84.82
392.334	50
392.544	54.1
392.753	37.72
392.963	41.81
393.172	31.57
393.382	43.86
393.591	119.64
393.801	-7.34
394.01	19.29
394.22	93.01
394.429	-13.48
394.639	76.63
394.848	119.64
395.058	41.81
395.267	62.29
395.477	58.2
395.686	80.72
395.895	93.01
396.105	72.53
396.314	95.06
396.524	29.52
396.733	60.24
396.942	76.63
397.152	115.54
397.361	64.34
397.57	117.59
397.78	27.48
397.989	78.68
398.198	144.21
398.407	95.06
398.617	86.87
398.826	80.72
399.035	131.92
399.244	105.3
399.453	60.24
399.663	41.81
399.872	17.24
400.081	52.05
400.29	60.24
400.499	64.34
400.708	117.59
400.917	111.44
401.127	31.57
401.336	99.16
401.545	113.49
401.754	113.49
401.963	86.87
402.172	60.24
402.381	133.97
402.59	123.73
402.799	60.24
403.008	119.64
403.217	52.05
403.426	109.4
403.635	117.59
403.844	166.74
404.053	31.57
404.262	105.3
404.471	115.54
404.68	142.16
404.888	133.97
405.097	113.49
405.306	80.72
405.515	107.35
405.724	148.31
405.933	93.01
406.142	232.27
406.35	111.44
406.559	119.64
406.768	115.54
406.977	117.59
407.185	162.64
407.394	197.46
407.603	111.44
407.812	111.44
408.02	183.12
408.229	174.93
408.438	170.83
408.646	107.35
408.855	146.26
409.064	150.36
409.272	238.42
409.481	217.94
409.69	207.7
409.898	234.32
410.107	174.93
410.315	256.85
410.524	224.08
410.733	238.42
410.941	281.43
411.15	281.43
411.358	254.8
411.567	357.2
411.775	279.38
411.984	244.56
412.192	359.25
412.401	312.14
412.609	367.44
412.818	324.43
413.026	330.58
413.234	441.17
413.443	379.73
413.651	435.02
413.86	443.21
414.068	439.12
414.276	426.83
414.485	398.16
414.693	490.32
414.901	439.12
415.11	523.09
415.318	523.09
415.526	514.89
415.734	498.51
415.943	549.71
416.151	658.25
416.359	506.7
416.567	621.39
416.776	551.76
416.984	736.07
417.192	738.12
417.4	625.48
417.608	709.45
417.817	742.22
418.025	785.23
418.233	869.19
418.441	770.89
418.649	793.42
418.857	848.71
419.065	1014.6
419.273	875.34
419.481	949.06
419.689	994.12
419.897	1110.85
420.105	1094.47
420.313	1135.43
420.521	1168.2
420.729	1192.77
420.937	1157.96
421.145	1192.77
421.353	1366.85
421.561	1354.56
421.769	1401.66
421.977	1432.38
422.185	1393.47
422.393	1489.73
422.601	1694.52
422.809	1604.41
423.017	1635.13
423.224	1778.49
423.432	1817.4
423.64	1815.35
423.848	2050.87
424.056	1913.66
424.263	2100.02
424.471	2102.07
424.679	1975.1
424.887	2177.84
425.094	2296.63
425.302	2179.89
425.51	2296.63
425.718	2372.4
425.925	2489.14
426.133	2636.59
426.341	2579.25
426.548	2636.59
426.756	2695.98
426.964	2847.53
427.171	2976.55
427.379	2997.03
427.586	3119.91
427.794	3181.35
428.001	3240.74
428.209	3527.46
428.417	3463.97
428.624	3703.58
428.832	3683.1
429.039	3615.52
429.247	3687.2
429.454	4064.02
429.662	4293.4
429.869	4082.46
430.076	4377.36
430.284	4317.97
430.491	4387.6
430.699	4586.26
430.906	4666.13
431.114	4707.09
431.321	4809.48
431.528	4903.69
431.736	5139.21
431.943	5397.25
432.15	5264.13
432.358	5409.54
432.565	5860.09
432.772	5528.32
432.979	5970.68
433.187	6007.55
433.394	6111.99
433.601	6513.39
433.808	6638.32
434.016	6339.32
434.223	6595.31
434.43	7107.3
434.637	7168.74
434.844	7492.32
435.052	7469.8
435.259	7357.16
435.466	7553.76
435.673	7578.34
435.88	7881.44
436.087	8313.56
436.294	8501.97
436.501	8309.46
436.708	8456.92
436.915	8700.62
437.122	9229
437.329	9020.11
437.537	9343.69
437.743	9472.71
437.95	9536.2
438.157	9902.78
438.364	10287.8
438.571	10306.23
438.778	10328.76
438.985	11313.83
439.192	10873.52
439.399	11190.95
439.606	10973.87
439.813	11618.98
440.02	12333.72
440.227	11983.52
440.433	11879.07
440.64	12348.06
440.847	12182.17
441.054	12495.51
441.261	13324.94
441.467	13148.81
441.674	13519.5
441.881	13994.62
442.088	13871.75
442.294	14008.96
442.501	14131.84
442.708	14600.82
442.914	15055.47
443.121	15731.3
443.328	15561.32
443.534	16538.2
443.741	15915.62
443.948	15420.01
444.154	16831.06
444.361	16661.08
444.568	16951.89
444.774	16917.08
444.981	16996.95
445.187	17812.04
445.394	18154.05
445.6	18252.35
445.807	19599.91
446.013	19139.12
446.22	19393.07
446.426	20005.41
446.633	20044.32
446.839	20840.98
447.046	19839.53
447.252	21099.03
447.459	21021.2
447.665	21074.45
447.871	21869.06
448.078	23052.79
448.284	21746.19
448.491	22520.32
448.697	23552.49
448.903	23613.93
449.11	23740.91
449.316	23149.04
449.522	23925.22
449.728	24484.32
449.935	24824.28
450.141	24590.81
450.347	25299.41
450.553	24271.33
450.76	24644.06
450.966	25584.08
451.172	25031.13
451.378	25917.9
451.584	25211.35
451.791	26091.98
451.997	25903.56
452.203	26610.11
452.409	26544.58
452.615	26319.3
452.821	25354.71
453.027	25072.09
453.233	26421.7
453.44	25326.03
453.646	25747.92
453.852	25813.45
454.058	26304.96
454.264	25188.82
454.47	26182.09
454.676	25577.94
454.882	26145.22
455.088	23794.15
455.294	24095.21
455.5	24582.62
455.705	24844.76
455.911	23656.94
456.117	23826.92
456.323	23015.93
456.529	21918.21
456.735	22950.39
456.941	22219.27
457.147	21854.73
457.352	21062.16
457.558	20859.42
457.764	20785.69
457.97	20584.99
458.176	20382.24
458.381	20220.45
458.587	19323.44
458.793	19016.24
458.999	18252.35
459.204	19438.12
459.41	19016.24
459.616	17498.7
459.821	17707.59
460.027	17633.86
460.233	17209.93
460.438	16546.39
460.644	16503.39
460.85	15909.47
461.055	15723.11
461.261	15952.48
461.466	14543.48
461.672	13914.75
461.878	15057.52
462.083	14097.02
462.289	13738.63
462.494	13511.3
462.7	12874.38
462.905	12597.91
463.111	12931.73
463.316	13468.3
463.522	12817.04
463.727	12964.5
463.932	12884.62
464.138	12602.01
464.343	12546.71
464.549	12190.36
464.754	12669.59
464.959	12493.46
465.165	12456.6
465.37	12083.87
465.575	11807.39
465.781	12341.91
465.986	12368.54
466.191	11836.06
466.397	11684.52
466.602	11010.73
466.807	11403.94
467.012	11352.74
467.218	11516.58
467.423	11264.68
467.628	11358.89
467.833	11825.82
468.038	11129.52
468.244	11002.54
468.449	11524.77
468.654	10855.09
468.859	10840.75
469.064	10996.4
469.269	10623.67
