Data from USB4F104151__55__11-52-01-125.txt Node

Date: Fri Mar 14 11:52:01 EDT 2025
User: louis
Spectrometer: USB4F10415
Trigger mode: 4
Integration Time (sec): 2.000000E-2
Scans to average: 1
Electric dark correction enabled: true
Nonlinearity correction enabled: false
Boxcar width: 0
XAxis mode: Wavelengths
Number of Pixels in Spectrum: 3648
>>>>>Begin Spectral Data<<<<<
178.204	-43.69
178.424	-43.69
178.644	-43.69
178.864	-98.99
179.084	-45.74
179.304	13.65
179.524	15.7
179.744	-12.97
179.964	17.75
180.184	-23.21
180.404	71
180.624	19.8
180.844	21.85
181.064	-47.79
181.283	-41.64
181.503	-78.51
181.723	44.37
181.943	-21.16
182.163	17.75
182.383	30.04
182.602	9.56
182.822	25.94
183.042	-0.68
183.262	-6.83
183.482	1.37
183.701	-12.97
183.921	-12.97
184.141	52.56
184.361	103.76
184.58	-39.59
184.8	58.71
185.02	-29.35
185.239	1.37
185.459	-25.26
185.679	19.8
185.898	-8.87
186.118	9.56
186.338	3.41
186.557	15.7
186.777	-47.79
186.997	7.51
187.216	46.42
187.436	68.95
187.655	50.52
187.875	48.47
188.095	40.28
188.314	-6.83
188.534	7.51
188.753	3.41
188.973	-39.59
189.192	21.85
189.412	11.61
189.631	34.13
189.851	19.8
190.07	-4.78
190.29	-2.73
190.509	17.75
190.729	17.75
190.948	48.47
191.168	99.67
191.387	38.23
191.607	25.94
191.826	5.46
192.045	32.08
192.265	60.76
192.484	50.52
192.704	-37.55
192.923	1.37
193.142	109.91
193.362	23.89
193.581	-12.97
193.8	101.72
194.02	52.56
194.239	132.44
194.458	9.56
194.678	36.18
194.897	5.46
195.116	-17.07
195.335	1.37
195.555	58.71
195.774	40.28
195.993	11.61
196.212	9.56
196.432	5.46
196.651	42.32
196.87	-23.21
197.089	44.37
197.308	71
197.528	46.42
197.747	9.56
197.966	-19.11
198.185	50.52
198.404	23.89
198.623	38.23
198.842	68.95
199.062	15.7
199.281	73.04
199.5	-51.88
199.719	21.85
199.938	54.61
200.157	103.76
200.376	40.28
200.595	38.23
200.814	56.66
201.033	71
201.252	50.52
201.471	3.41
201.69	9.56
201.909	40.28
202.128	42.32
202.347	30.04
202.566	25.94
202.785	34.13
203.004	32.08
203.223	54.61
203.442	36.18
203.661	1.37
203.879	7.51
204.098	105.81
204.317	36.18
204.536	60.76
204.755	7.51
204.974	42.32
205.193	27.99
205.411	83.28
205.63	71
205.849	-8.87
206.068	46.42
206.287	85.33
206.505	56.66
206.724	54.61
206.943	42.32
207.162	60.76
207.381	-8.87
207.599	13.65
207.818	-2.73
208.037	-21.16
208.255	-39.59
208.474	44.37
208.693	34.13
208.911	66.9
209.13	-45.74
209.349	68.95
209.567	79.19
209.786	40.28
210.005	56.66
210.223	83.28
210.442	38.23
210.661	23.89
210.879	36.18
211.098	1.37
211.316	9.56
211.535	-17.07
211.753	-8.87
211.972	-25.26
212.191	-37.55
212.409	27.99
212.628	17.75
212.846	34.13
213.065	73.04
213.283	23.89
213.502	-4.78
213.72	-4.78
213.938	46.42
214.157	5.46
214.375	19.8
214.594	64.85
214.812	44.37
215.031	64.85
215.249	95.57
215.467	-17.07
215.686	-15.02
215.904	83.28
216.122	11.61
216.341	3.41
216.559	54.61
216.778	79.19
216.996	9.56
217.214	13.65
217.432	120.15
217.651	-47.79
217.869	-29.35
218.087	34.13
218.306	-15.02
218.524	1.37
218.742	-27.31
218.96	44.37
219.179	-37.55
219.397	66.9
219.615	-43.69
219.833	-37.55
220.051	5.46
220.27	46.42
220.488	-23.21
220.706	-35.5
220.924	60.76
221.142	-12.97
221.36	68.95
221.578	126.29
221.796	95.57
222.015	-4.78
222.233	11.61
222.451	93.52
222.669	9.56
222.887	11.61
223.105	-2.73
223.323	3.41
223.541	34.13
223.759	15.7
223.977	7.51
224.195	46.42
224.413	-41.64
224.631	-25.26
224.849	58.71
225.067	85.33
225.285	-10.92
225.503	56.66
225.721	-12.97
225.939	-47.79
226.157	-31.4
226.375	5.46
226.592	-70.31
226.81	1.37
227.028	44.37
227.246	38.23
227.464	58.71
227.682	5.46
227.9	89.43
228.117	40.28
228.335	89.43
228.553	-12.97
228.771	5.46
228.989	73.04
229.206	101.72
229.424	-6.83
229.642	5.46
229.86	1.37
230.077	3.41
230.295	-17.07
230.513	52.56
230.731	114
230.948	58.71
231.166	83.28
231.384	-2.73
231.601	5.46
231.819	48.47
232.037	50.52
232.254	64.85
232.472	44.37
232.689	-21.16
232.907	-21.16
233.125	40.28
233.342	19.8
233.56	-12.97
233.777	71
233.995	19.8
234.213	56.66
234.43	99.67
234.648	91.48
234.865	25.94
235.083	-2.73
235.3	15.7
235.518	56.66
235.735	-37.55
235.953	71
236.17	11.61
236.388	19.8
236.605	15.7
236.822	79.19
237.04	77.14
237.257	66.9
237.475	-43.69
237.692	-25.26
237.909	60.76
238.127	25.94
238.344	1.37
238.562	93.52
238.779	32.08
238.996	42.32
239.214	-0.68
239.431	42.32
239.648	-64.17
239.865	-37.55
240.083	66.9
240.3	15.7
240.517	-35.5
240.735	85.33
240.952	56.66
241.169	3.41
241.386	38.23
241.603	13.65
241.821	-2.73
242.038	27.99
242.255	44.37
242.472	-17.07
242.689	23.89
242.907	64.85
243.124	13.65
243.341	1.37
243.558	17.75
243.775	23.89
243.992	-8.87
244.209	17.75
244.426	44.37
244.643	99.67
244.86	15.7
245.078	21.85
245.295	46.42
245.512	13.65
245.729	-41.64
245.946	1.37
246.163	75.09
246.38	25.94
246.597	17.75
246.814	97.62
247.031	15.7
247.248	46.42
247.464	17.75
247.681	-25.26
247.898	44.37
248.115	64.85
248.332	-2.73
248.549	81.24
248.766	66.9
248.983	56.66
249.2	30.04
249.417	75.09
249.633	-31.4
249.85	-15.02
250.067	-21.16
250.284	50.52
250.501	30.04
250.717	11.61
250.934	52.56
251.151	-23.21
251.368	-2.73
251.585	50.52
251.801	11.61
252.018	1.37
252.235	-2.73
252.451	-10.92
252.668	15.7
252.885	73.04
253.102	21.85
253.318	44.37
253.535	32.08
253.752	-25.26
253.968	11.61
254.185	52.56
254.401	46.42
254.618	75.09
254.835	-62.12
255.051	91.48
255.268	30.04
255.484	73.04
255.701	38.23
255.917	-15.02
256.134	58.71
256.351	64.85
256.567	54.61
256.784	105.81
257	21.85
257.217	13.65
257.433	27.99
257.65	83.28
257.866	50.52
258.082	46.42
258.299	-47.79
258.515	62.8
258.732	21.85
258.948	42.32
259.165	66.9
259.381	17.75
259.597	-19.11
259.814	25.94
260.03	32.08
260.246	-10.92
260.463	13.65
260.679	87.38
260.895	46.42
261.112	58.71
261.328	46.42
261.544	-8.87
261.761	118.1
261.977	46.42
262.193	40.28
262.409	13.65
262.626	7.51
262.842	38.23
263.058	36.18
263.274	30.04
263.49	-6.83
263.707	48.47
263.923	101.72
264.139	27.99
264.355	97.62
264.571	118.1
264.787	40.28
265.004	44.37
265.22	1.37
265.436	32.08
265.652	-2.73
265.868	25.94
266.084	-76.46
266.3	75.09
266.516	27.99
266.732	68.95
266.948	-41.64
267.164	3.41
267.38	50.52
267.596	9.56
267.812	40.28
268.028	19.8
268.244	27.99
268.46	34.13
268.676	-23.21
268.892	62.8
269.108	34.13
269.324	79.19
269.54	-0.68
269.756	23.89
269.972	-27.31
270.188	71
270.403	42.32
270.619	38.23
270.835	27.99
271.051	11.61
271.267	7.51
271.483	-0.68
271.698	36.18
271.914	58.71
272.13	1.37
272.346	-33.45
272.562	-12.97
272.777	111.96
272.993	-6.83
273.209	27.99
273.425	40.28
273.64	-72.36
273.856	34.13
274.072	97.62
274.287	-15.02
274.503	42.32
274.719	23.89
274.934	17.75
275.15	-17.07
275.366	36.18
275.581	42.32
275.797	15.7
276.012	54.61
276.228	-19.11
276.444	66.9
276.659	36.18
276.875	25.94
277.09	60.76
277.306	54.61
277.521	89.43
277.737	-74.41
277.952	27.99
278.168	13.65
278.383	-0.68
278.599	30.04
278.814	64.85
279.03	7.51
279.245	34.13
279.461	-19.11
279.676	15.7
279.892	-21.16
280.107	19.8
280.322	-12.97
280.538	19.8
280.753	-6.83
280.969	-17.07
281.184	73.04
281.399	109.91
281.615	-0.68
281.83	73.04
282.045	50.52
282.26	23.89
282.476	58.71
282.691	54.61
282.906	3.41
283.122	81.24
283.337	-39.59
283.552	91.48
283.767	62.8
283.983	-12.97
284.198	11.61
284.413	36.18
284.628	-25.26
284.843	21.85
285.058	7.51
285.274	11.61
285.489	-125.61
285.704	36.18
285.919	40.28
286.134	66.9
286.349	15.7
286.564	-6.83
286.779	-6.83
286.995	9.56
287.21	-17.07
287.425	40.28
287.64	15.7
287.855	48.47
288.07	21.85
288.285	107.86
288.5	32.08
288.715	-39.59
288.93	52.56
289.145	46.42
289.36	-10.92
289.575	-25.26
289.79	-45.74
290.004	21.85
290.219	124.24
290.434	3.41
290.649	-6.83
290.864	56.66
291.079	46.42
291.294	50.52
291.509	75.09
291.724	97.62
291.938	21.85
292.153	44.37
292.368	46.42
292.583	126.29
292.798	60.76
293.012	34.13
293.227	46.42
293.442	-2.73
293.657	77.14
293.871	97.62
294.086	-4.78
294.301	-8.87
294.516	7.51
294.73	62.8
294.945	-41.64
295.16	-23.21
295.374	48.47
295.589	17.75
295.804	11.61
296.018	34.13
296.233	38.23
296.447	73.04
296.662	-31.4
296.877	9.56
297.091	52.56
297.306	32.08
297.52	30.04
297.735	9.56
297.949	34.13
298.164	13.65
298.378	-19.11
298.593	5.46
298.807	-4.78
299.022	23.89
299.236	15.7
299.451	-33.45
299.665	23.89
299.88	79.19
300.094	-29.35
300.309	-8.87
300.523	46.42
300.737	99.67
300.952	7.51
301.166	5.46
301.381	71
301.595	11.61
301.809	13.65
302.024	-10.92
302.238	-8.87
302.452	-6.83
302.667	77.14
302.881	66.9
303.095	85.33
303.309	11.61
303.524	-15.02
303.738	9.56
303.952	36.18
304.166	-21.16
304.381	-86.7
304.595	17.75
304.809	38.23
305.023	-17.07
305.237	-6.83
305.452	9.56
305.666	40.28
305.88	36.18
306.094	58.71
306.308	103.76
306.522	-6.83
306.736	56.66
306.95	40.28
307.164	9.56
307.379	27.99
307.593	-10.92
307.807	46.42
308.021	68.95
308.235	30.04
308.449	46.42
308.663	27.99
308.877	99.67
309.091	11.61
309.305	30.04
309.519	44.37
309.733	46.42
309.947	60.76
310.161	64.85
310.374	13.65
310.588	48.47
310.802	-37.55
311.016	-64.17
311.23	19.8
311.444	30.04
311.658	5.46
311.872	-6.83
312.085	50.52
312.299	27.99
312.513	42.32
312.727	91.48
312.941	7.51
313.154	-31.4
313.368	44.37
313.582	-33.45
313.796	-6.83
314.009	50.52
314.223	62.8
314.437	7.51
314.651	36.18
314.864	32.08
315.078	-8.87
315.292	44.37
315.505	-8.87
315.719	-39.59
315.933	7.51
316.146	30.04
316.36	-0.68
316.573	46.42
316.787	-4.78
317.001	19.8
317.214	-33.45
317.428	42.32
317.641	32.08
317.855	-6.83
318.068	109.91
318.282	52.56
318.495	73.04
318.709	68.95
318.922	60.76
319.136	54.61
319.349	7.51
319.563	50.52
319.776	54.61
319.99	60.76
320.203	79.19
320.417	-2.73
320.63	40.28
320.843	25.94
321.057	68.95
321.27	105.81
321.483	73.04
321.697	15.7
321.91	64.85
322.124	73.04
322.337	-6.83
322.55	46.42
322.763	-6.83
322.977	17.75
323.19	-25.26
323.403	81.24
323.617	27.99
323.83	7.51
324.043	-31.4
324.256	23.89
324.469	5.46
324.683	71
324.896	77.14
325.109	19.8
325.322	-25.26
325.535	77.14
325.748	1.37
325.962	66.9
326.175	68.95
326.388	66.9
326.601	-19.11
326.814	44.37
327.027	-2.73
327.24	-2.73
327.453	103.76
327.666	40.28
327.879	87.38
328.092	15.7
328.305	64.85
328.518	11.61
328.731	13.65
328.944	71
329.157	-2.73
329.37	19.8
329.583	-0.68
329.796	52.56
330.009	-19.11
330.222	36.18
330.435	17.75
330.648	114
330.861	44.37
331.073	73.04
331.286	11.61
331.499	40.28
331.712	9.56
331.925	77.14
332.138	-27.31
332.35	9.56
332.563	15.7
332.776	-8.87
332.989	52.56
333.202	36.18
333.414	-43.69
333.627	42.32
333.84	13.65
334.053	19.8
334.265	-35.5
334.478	60.76
334.691	40.28
334.903	-8.87
335.116	87.38
335.329	21.85
335.541	-4.78
335.754	48.47
335.966	11.61
336.179	11.61
336.392	3.41
336.604	7.51
336.817	52.56
337.029	30.04
337.242	1.37
337.454	5.46
337.667	-4.78
337.88	91.48
338.092	-39.59
338.305	1.37
338.517	48.47
338.729	79.19
338.942	93.52
339.154	-4.78
339.367	-37.55
339.579	58.71
339.792	5.46
340.004	66.9
340.217	-15.02
340.429	3.41
340.641	11.61
340.854	36.18
341.066	23.89
341.278	50.52
341.491	62.8
341.703	5.46
341.915	21.85
342.128	15.7
342.34	66.9
342.552	13.65
342.764	-8.87
342.977	73.04
343.189	75.09
343.401	23.89
343.613	-17.07
343.826	-10.92
344.038	3.41
344.25	68.95
344.462	40.28
344.674	71
344.886	79.19
345.099	1.37
345.311	62.8
345.523	34.13
345.735	23.89
345.947	75.09
346.159	111.96
346.371	81.24
346.583	46.42
346.795	25.94
347.007	44.37
347.219	87.38
347.431	7.51
347.643	27.99
347.855	9.56
348.067	27.99
348.279	66.9
348.491	11.61
348.703	5.46
348.915	46.42
349.127	66.9
349.339	46.42
349.551	77.14
349.763	97.62
349.975	-0.68
350.187	95.57
350.399	126.29
350.61	103.76
350.822	54.61
351.034	13.65
351.246	48.47
351.458	71
351.669	93.52
351.881	7.51
352.093	-35.5
352.305	5.46
352.517	77.14
352.728	95.57
352.94	58.71
353.152	44.37
353.363	11.61
353.575	77.14
353.787	-6.83
353.999	77.14
354.21	-15.02
354.422	38.23
354.633	-15.02
354.845	56.66
355.057	46.42
355.268	32.08
355.48	19.8
355.692	-25.26
355.903	11.61
356.115	68.95
356.326	52.56
356.538	89.43
356.749	48.47
356.961	17.75
357.172	36.18
357.384	-6.83
357.595	109.91
357.807	36.18
358.018	-29.35
358.23	17.75
358.441	71
358.653	21.85
358.864	36.18
359.075	64.85
359.287	58.71
359.498	13.65
359.709	44.37
359.921	21.85
360.132	-8.87
360.344	52.56
360.555	85.33
360.766	50.52
360.977	15.7
361.189	75.09
361.4	21.85
361.611	48.47
361.823	46.42
362.034	40.28
362.245	44.37
362.456	3.41
362.667	7.51
362.879	23.89
363.09	-21.16
363.301	27.99
363.512	60.76
363.723	89.43
363.935	-31.4
364.146	85.33
364.357	52.56
364.568	-25.26
364.779	21.85
364.99	40.28
365.201	50.52
365.412	62.8
365.623	11.61
365.834	87.38
366.045	89.43
366.256	73.04
366.467	62.8
366.678	46.42
366.889	-41.64
367.1	93.52
367.311	-47.79
367.522	11.61
367.733	-8.87
367.944	54.61
368.155	9.56
368.366	93.52
368.577	60.76
368.788	91.48
368.999	-68.27
369.209	62.8
369.42	93.52
369.631	50.52
369.842	85.33
370.053	34.13
370.264	56.66
370.474	34.13
370.685	66.9
370.896	58.71
371.107	124.24
371.317	79.19
371.528	30.04
371.739	66.9
371.95	9.56
372.16	42.32
372.371	50.52
372.582	21.85
372.792	66.9
373.003	64.85
373.214	56.66
373.424	146.77
373.635	48.47
373.846	64.85
374.056	142.68
374.267	73.04
374.477	34.13
374.688	-19.11
374.898	54.61
375.109	-27.31
375.319	42.32
375.53	64.85
375.74	19.8
375.951	42.32
376.161	-12.97
376.372	62.8
376.582	66.9
376.793	91.48
377.003	105.81
377.214	-62.12
377.424	46.42
377.635	-2.73
377.845	27.99
378.055	17.75
378.266	27.99
378.476	15.7
378.686	60.76
378.897	54.61
379.107	-64.17
379.317	99.67
379.528	40.28
379.738	73.04
379.948	30.04
380.158	138.58
380.369	-33.45
380.579	34.13
380.789	48.47
380.999	56.66
381.21	-2.73
381.42	44.37
381.63	77.14
381.84	71
382.05	48.47
382.261	1.37
382.471	-4.78
382.681	73.04
382.891	3.41
383.101	44.37
383.311	-17.07
383.521	-6.83
383.731	107.86
383.941	89.43
384.151	32.08
384.361	66.9
384.571	5.46
384.781	77.14
384.991	25.94
385.201	105.81
385.411	75.09
385.621	60.76
385.831	73.04
386.041	62.8
386.251	52.56
386.461	50.52
386.671	11.61
386.881	64.85
387.091	136.53
387.301	50.52
387.511	71
387.72	103.76
387.93	11.61
388.14	-8.87
388.35	56.66
388.56	27.99
388.769	-35.5
388.979	79.19
389.189	-17.07
389.399	42.32
389.609	38.23
389.818	50.52
390.028	46.42
390.238	116.05
390.447	23.89
390.657	44.37
390.867	120.15
391.076	11.61
391.286	-21.16
391.496	54.61
391.705	81.24
391.915	118.1
392.125	144.72
392.334	50.52
392.544	27.99
392.753	25.94
392.963	79.19
393.172	-47.79
393.382	-31.4
393.591	103.76
393.801	23.89
394.01	87.38
394.22	142.68
394.429	120.15
394.639	62.8
394.848	19.8
395.058	60.76
395.267	66.9
395.477	75.09
395.686	81.24
395.895	99.67
396.105	48.47
396.314	109.91
396.524	48.47
396.733	21.85
396.942	185.68
397.152	68.95
397.361	83.28
397.57	64.85
397.78	38.23
397.989	77.14
398.198	71
398.407	107.86
398.617	95.57
398.826	81.24
399.035	99.67
399.244	89.43
399.453	79.19
399.663	105.81
399.872	75.09
400.081	46.42
400.29	130.39
400.499	77.14
400.708	140.63
400.917	58.71
401.127	56.66
401.336	120.15
401.545	200.02
401.754	58.71
401.963	79.19
402.172	103.76
402.381	77.14
402.59	136.53
402.799	60.76
403.008	144.72
403.217	99.67
403.426	148.82
403.635	132.44
403.844	124.24
404.053	111.96
404.262	140.63
404.471	130.39
404.68	97.62
404.888	103.76
405.097	136.53
405.306	105.81
405.515	99.67
405.724	171.35
405.933	197.97
406.142	173.39
406.35	154.96
406.559	138.58
406.768	195.92
406.977	240.98
407.185	93.52
407.394	187.73
407.603	134.48
407.812	228.69
408.02	245.07
408.229	259.41
408.438	204.11
408.646	200.02
408.855	208.21
409.064	208.21
409.272	218.45
409.481	294.22
409.69	245.07
409.898	269.65
410.107	220.5
410.315	238.93
410.524	279.89
410.733	279.89
410.941	230.74
411.15	386.38
411.358	247.12
411.567	441.68
411.775	357.71
411.984	433.49
412.192	415.05
412.401	341.33
412.609	398.67
412.818	413.01
413.026	423.25
413.234	439.63
413.443	431.44
413.651	470.35
413.86	447.82
414.068	474.45
414.276	568.65
414.485	613.71
414.693	589.13
414.901	535.89
415.11	601.42
415.318	607.56
415.526	726.35
415.734	679.24
415.943	646.48
416.151	755.02
416.359	720.2
416.567	716.11
416.776	724.3
416.984	785.74
417.192	898.38
417.4	890.18
417.608	859.46
417.817	945.48
418.025	1072.45
418.233	1035.59
418.441	945.48
418.649	1056.07
418.857	1121.6
419.065	1193.28
419.273	1205.57
419.481	1236.29
419.689	1215.81
419.897	1307.97
420.105	1357.12
420.313	1359.17
420.521	1404.22
420.729	1430.85
420.937	1533.25
421.145	1566.01
421.353	1682.75
421.561	1731.9
421.769	1744.19
421.977	1905.98
422.185	1875.26
422.393	1846.59
422.601	1983.8
422.809	2143.54
423.017	2012.47
423.224	2073.91
423.432	2178.36
423.64	2305.33
423.848	2317.62
424.056	2346.29
424.263	2506.03
424.471	2454.83
424.679	2561.33
424.887	2714.92
425.094	2874.67
425.302	2829.61
425.51	2932.01
425.718	3011.88
425.925	2972.97
426.133	3190.05
426.341	3263.78
426.548	3343.65
426.756	3415.33
426.964	3525.92
427.171	3659.04
427.379	3835.16
427.586	3890.46
427.794	3990.81
428.001	4187.41
428.209	4363.54
428.417	4265.24
428.624	4529.42
428.832	4656.4
429.039	4558.1
429.247	4664.59
429.454	5027.08
429.662	5393.67
429.869	5080.33
430.076	5391.62
430.284	5272.84
430.491	5567.74
430.699	5457.15
430.906	5766.4
431.114	5801.21
431.321	6079.74
431.528	6358.26
431.736	6495.47
431.943	6978.79
432.15	6655.22
432.358	6878.44
432.565	7013.61
432.772	6995.18
432.979	7539.94
433.187	7605.47
433.394	7679.2
433.601	8146.14
433.808	8060.12
434.016	8066.27
434.223	8383.7
434.43	8938.7
434.637	8762.58
434.844	9401.54
435.052	9456.84
435.259	9532.61
435.466	9469.12
435.673	9534.66
435.88	9911.49
436.087	10558.64
436.294	10622.13
436.501	10316.98
436.708	10511.54
436.915	10863.79
437.122	11269.29
437.329	11267.24
437.537	11660.45
437.743	11848.86
437.95	11852.96
438.157	12422.3
438.364	12717.2
438.571	12960.91
438.778	12950.67
438.985	14001.28
439.192	13522.06
439.399	14171.26
439.606	13804.67
439.813	14466.17
440.02	15375.47
440.227	15117.42
440.433	14867.57
440.64	15547.5
440.847	15287.4
441.054	15713.38
441.261	16551
441.467	16528.47
441.674	16917.59
441.881	17531.98
442.088	17552.46
442.294	17259.6
442.501	17886.28
442.708	18009.15
442.914	18617.4
443.121	19721.26
443.328	19024.95
443.534	20407.33
443.741	19979.3
443.948	19749.93
444.154	21066.77
444.361	20999.19
444.568	21027.86
444.774	21134.35
444.981	21130.26
445.187	21967.88
445.394	22735.87
445.6	22766.59
445.807	24783.84
446.013	23897.06
446.22	24089.57
446.426	25181.14
446.633	24992.73
446.839	26168.26
447.046	24851.42
447.252	26231.75
447.459	26618.82
447.665	26119.11
447.871	27454.39
448.078	28910.49
448.284	27329.46
448.491	28240.81
448.697	29236.12
448.903	29574.03
449.11	29875.09
449.316	29297.56
449.522	30067.59
449.728	30612.35
449.935	30892.93
450.141	30948.22
450.347	31595.38
450.553	30405.51
450.76	30974.84
450.966	31628.15
451.172	31554.42
451.378	32281.45
451.584	31777.65
451.791	32564.07
451.997	32623.46
452.203	32820.06
452.409	32963.42
452.615	32811.87
452.821	31474.55
453.027	31062.91
453.233	32887.65
453.44	31370.1
453.646	31746.93
453.852	32168.81
454.058	32914.27
454.264	31431.54
454.47	32351.08
454.676	31361.91
454.882	32312.17
455.088	29293.46
455.294	30108.55
455.5	30686.08
455.705	31279.99
455.911	29846.41
456.117	29139.86
456.323	28566.43
456.529	27329.46
456.735	28525.47
456.941	27634.61
457.147	27206.58
457.352	25981.9
457.558	25981.9
457.764	26106.82
457.97	25586.64
458.176	24912.86
458.381	25082.84
458.587	24054.76
458.793	23632.88
458.999	22459.39
459.204	24210.4
459.41	23415.79
459.616	21990.41
459.821	22178.82
460.027	21873.67
460.233	21496.85
460.438	20323.36
460.644	21027.86
460.85	19651.63
461.055	19477.55
461.261	19110.96
461.466	18007.11
461.672	17390.67
461.878	18441.28
462.083	17456.2
462.289	16784.47
462.494	16983.12
462.7	15959.14
462.905	15783.01
463.111	16206.94
463.316	16245.85
463.522	16110.69
463.727	16084.06
463.932	15869.03
464.138	15811.68
464.343	16006.24
464.549	15152.24
464.754	16106.59
464.959	15877.22
465.165	15508.58
465.37	15082.61
465.575	14935.15
465.781	15187.05
465.986	15293.55
466.191	14765.17
466.397	14591.09
466.602	13782.15
466.807	14351.48
467.012	14335.1
467.218	14263.42
467.423	14025.86
467.628	14161.02
467.833	14523.51
468.038	14226.56
468.244	13925.5
468.449	14249.08
468.654	13634.69
