Data from USB4F104151__94__11-52-59-618.txt Node

Date: Fri Mar 14 11:52:59 EDT 2025
User: louis
Spectrometer: USB4F10415
Trigger mode: 4
Integration Time (sec): 2.000000E-2
Scans to average: 1
Electric dark correction enabled: true
Nonlinearity correction enabled: false
Boxcar width: 0
XAxis mode: Wavelengths
Number of Pixels in Spectrum: 3648
>>>>>Begin Spectral Data<<<<<
178.204	-100.86
178.424	-100.86
178.644	-100.86
178.864	-94.72
179.084	-33.28
179.304	-29.18
179.524	26.11
179.744	-37.38
179.964	15.87
180.184	-43.52
180.404	-14.85
180.624	-6.66
180.844	-2.56
181.064	-6.66
181.283	17.92
181.503	3.58
181.723	77.31
181.943	-25.09
182.163	73.21
182.383	46.59
182.602	24.06
182.822	26.11
183.042	-2.56
183.262	-6.66
183.482	-4.61
183.701	69.12
183.921	44.54
184.141	-4.61
184.361	1.54
184.58	1.54
184.8	75.26
185.02	11.78
185.239	36.35
185.459	69.12
185.679	13.82
185.898	-2.56
186.118	-20.99
186.338	22.02
186.557	38.4
186.777	3.58
186.997	32.26
187.216	38.4
187.436	105.98
187.655	71.17
187.875	-25.09
188.095	24.06
188.314	7.68
188.534	13.82
188.753	30.21
188.973	83.45
189.192	97.79
189.412	79.36
189.631	13.82
189.851	52.74
190.07	15.87
190.29	5.63
190.509	-4.61
190.729	28.16
190.948	112.13
191.168	110.08
191.387	77.31
191.607	-64
191.826	11.78
192.045	50.69
192.265	58.88
192.484	65.02
192.704	9.73
192.923	-14.85
193.142	91.65
193.362	-2.56
193.581	95.74
193.8	101.89
194.02	50.69
194.239	9.73
194.458	40.45
194.678	-4.61
194.897	97.79
195.116	36.35
195.335	-35.33
195.555	73.21
195.774	46.59
195.993	13.82
196.212	75.26
196.432	79.36
196.651	58.88
196.87	11.78
197.089	130.56
197.308	87.55
197.528	67.07
197.747	-43.52
197.966	40.45
198.185	99.84
198.404	50.69
198.623	7.68
198.842	34.3
199.062	22.02
199.281	32.26
199.5	30.21
199.719	-18.94
199.938	58.88
200.157	105.98
200.376	26.11
200.595	50.69
200.814	50.69
201.033	40.45
201.252	-57.86
201.471	3.58
201.69	46.59
201.909	124.41
202.128	26.11
202.347	-2.56
202.566	56.83
202.785	93.69
203.004	17.92
203.223	38.4
203.442	13.82
203.661	-29.18
203.879	46.59
204.098	99.84
204.317	-43.52
204.536	67.07
204.755	7.68
204.974	3.58
205.193	30.21
205.411	26.11
205.63	-39.42
205.849	22.02
206.068	34.3
206.287	-10.75
206.505	34.3
206.724	19.97
206.943	15.87
207.162	9.73
207.381	58.88
207.599	-33.28
207.818	32.26
208.037	13.82
208.255	60.93
208.474	44.54
208.693	60.93
208.911	1.54
209.13	36.35
209.349	-14.85
209.567	19.97
209.786	13.82
210.005	22.02
210.223	32.26
210.442	-4.61
210.661	-43.52
210.879	-16.9
211.098	56.83
211.316	128.51
211.535	73.21
211.753	67.07
211.972	13.82
212.191	46.59
212.409	3.58
212.628	7.68
212.846	62.98
213.065	13.82
213.283	-20.99
213.502	87.55
213.72	-29.18
213.938	46.59
214.157	48.64
214.375	-8.7
214.594	3.58
214.812	65.02
215.031	87.55
215.249	-18.94
215.467	62.98
215.686	89.6
215.904	38.4
216.122	50.69
216.341	81.41
216.559	67.07
216.778	46.59
216.996	3.58
217.214	73.21
217.432	-41.47
217.651	85.5
217.869	-27.14
218.087	62.98
218.306	44.54
218.524	50.69
218.742	-0.51
218.96	56.83
219.179	36.35
219.397	19.97
219.615	22.02
219.833	-18.94
220.051	-39.42
220.27	58.88
220.488	9.73
220.706	-18.94
220.924	34.3
221.142	48.64
221.36	-8.7
221.578	52.74
221.796	1.54
222.015	5.63
222.233	69.12
222.451	62.98
222.669	79.36
222.887	67.07
223.105	-25.09
223.323	67.07
223.541	83.45
223.759	13.82
223.977	1.54
224.195	75.26
224.413	19.97
224.631	-8.7
224.849	44.54
225.067	95.74
225.285	30.21
225.503	-33.28
225.721	32.26
225.939	5.63
226.157	34.3
226.375	65.02
226.592	48.64
226.81	17.92
227.028	-49.66
227.246	97.79
227.464	34.3
227.682	71.17
227.9	56.83
228.117	-4.61
228.335	75.26
228.553	-14.85
228.771	73.21
228.989	11.78
229.206	-16.9
229.424	34.3
229.642	-8.7
229.86	19.97
230.077	101.89
230.295	11.78
230.513	19.97
230.731	71.17
230.948	-33.28
231.166	85.5
231.384	118.27
231.601	11.78
231.819	136.7
232.037	85.5
232.254	26.11
232.472	-47.62
232.689	-10.75
232.907	85.5
233.125	79.36
233.342	13.82
233.56	-55.81
233.777	17.92
233.995	46.59
234.213	71.17
234.43	28.16
234.648	22.02
234.865	30.21
235.083	48.64
235.3	60.93
235.518	24.06
235.735	108.03
235.953	75.26
236.17	103.93
236.388	13.82
236.605	15.87
236.822	157.18
237.04	11.78
237.257	28.16
237.475	19.97
237.692	38.4
237.909	28.16
238.127	-16.9
238.344	67.07
238.562	44.54
238.779	7.68
238.996	46.59
239.214	7.68
239.431	17.92
239.648	52.74
239.865	93.69
240.083	65.02
240.3	46.59
240.517	-16.9
240.735	9.73
240.952	40.45
241.169	-0.51
241.386	-18.94
241.603	77.31
241.821	40.45
242.038	-53.76
242.255	73.21
242.472	19.97
242.689	-10.75
242.907	46.59
243.124	-2.56
243.341	50.69
243.558	-18.94
243.775	-14.85
243.992	-29.18
244.209	42.5
244.426	105.98
244.643	7.68
244.86	-0.51
245.078	67.07
245.295	103.93
245.512	-2.56
245.729	22.02
245.946	-2.56
246.163	15.87
246.38	48.64
246.597	42.5
246.814	91.65
247.031	103.93
247.248	97.79
247.464	46.59
247.681	54.78
247.898	24.06
248.115	42.5
248.332	52.74
248.549	32.26
248.766	79.36
248.983	-0.51
249.2	73.21
249.417	99.84
249.633	-18.94
249.85	30.21
250.067	42.5
250.284	58.88
250.501	81.41
250.717	26.11
250.934	9.73
251.151	22.02
251.368	118.27
251.585	32.26
251.801	114.17
252.018	26.11
252.235	7.68
252.451	1.54
252.668	48.64
252.885	-4.61
253.102	3.58
253.318	77.31
253.535	38.4
253.752	40.45
253.968	71.17
254.185	1.54
254.401	99.84
254.618	40.45
254.835	48.64
255.051	93.69
255.268	28.16
255.484	58.88
255.701	1.54
255.917	105.98
256.134	7.68
256.351	19.97
256.567	-8.7
256.784	15.87
257	-16.9
257.217	75.26
257.433	42.5
257.65	26.11
257.866	19.97
258.082	56.83
258.299	46.59
258.515	17.92
258.732	-8.7
258.948	-14.85
259.165	62.98
259.381	-6.66
259.597	87.55
259.814	34.3
260.03	15.87
260.246	-47.62
260.463	79.36
260.679	22.02
260.895	44.54
261.112	46.59
261.328	-0.51
261.544	28.16
261.761	126.46
261.977	22.02
262.193	38.4
262.409	101.89
262.626	52.74
262.842	44.54
263.058	83.45
263.274	48.64
263.49	89.6
263.707	1.54
263.923	56.83
264.139	65.02
264.355	11.78
264.571	22.02
264.787	17.92
265.004	75.26
265.22	-20.99
265.436	-47.62
265.652	-51.71
265.868	15.87
266.084	58.88
266.3	118.27
266.516	-4.61
266.732	-20.99
266.948	-0.51
267.164	-0.51
267.38	-4.61
267.596	77.31
267.812	136.7
268.028	5.63
268.244	19.97
268.46	1.54
268.676	28.16
268.892	-2.56
269.108	38.4
269.324	-35.33
269.54	24.06
269.756	124.41
269.972	34.3
270.188	28.16
270.403	11.78
270.619	83.45
270.835	17.92
271.051	-43.52
271.267	-35.33
271.483	1.54
271.698	69.12
271.914	44.54
272.13	9.73
272.346	-14.85
272.562	-33.28
272.777	60.93
272.993	-14.85
273.209	36.35
273.425	34.3
273.64	-20.99
273.856	116.22
274.072	-31.23
274.287	-31.23
274.503	-2.56
274.719	44.54
274.934	126.46
275.15	110.08
275.366	-10.75
275.581	19.97
275.797	26.11
276.012	-43.52
276.228	67.07
276.444	46.59
276.659	62.98
276.875	-12.8
277.09	97.79
277.306	77.31
277.521	32.26
277.737	-25.09
277.952	19.97
278.168	19.97
278.383	73.21
278.599	44.54
278.814	9.73
279.03	52.74
279.245	24.06
279.461	38.4
279.676	85.5
279.892	-55.81
280.107	56.83
280.322	52.74
280.538	60.93
280.753	-8.7
280.969	19.97
281.184	36.35
281.399	22.02
281.615	118.27
281.83	36.35
282.045	-20.99
282.26	44.54
282.476	9.73
282.691	132.61
282.906	48.64
283.122	79.36
283.337	-57.86
283.552	36.35
283.767	7.68
283.983	38.4
284.198	-2.56
284.413	9.73
284.628	26.11
284.843	38.4
285.058	38.4
285.274	28.16
285.489	-2.56
285.704	83.45
285.919	24.06
286.134	19.97
286.349	36.35
286.564	77.31
286.779	101.89
286.995	85.5
287.21	19.97
287.425	-25.09
287.64	3.58
287.855	65.02
288.07	5.63
288.285	-0.51
288.5	1.54
288.715	50.69
288.93	67.07
289.145	-4.61
289.36	67.07
289.575	24.06
289.79	44.54
290.004	42.5
290.219	-6.66
290.434	22.02
290.649	-2.56
290.864	-35.33
291.079	73.21
291.294	44.54
291.509	28.16
291.724	95.74
291.938	24.06
292.153	71.17
292.368	83.45
292.583	13.82
292.798	-12.8
293.012	69.12
293.227	30.21
293.442	-16.9
293.657	32.26
293.871	91.65
294.086	-59.9
294.301	151.04
294.516	15.87
294.73	1.54
294.945	-37.38
295.16	75.26
295.374	71.17
295.589	69.12
295.804	22.02
296.018	73.21
296.233	38.4
296.447	112.13
296.662	54.78
296.877	36.35
297.091	11.78
297.306	-0.51
297.52	-25.09
297.735	13.82
297.949	44.54
298.164	38.4
298.378	15.87
298.593	-14.85
298.807	24.06
299.022	60.93
299.236	7.68
299.451	13.82
299.665	9.73
299.88	97.79
300.094	56.83
300.309	36.35
300.523	-18.94
300.737	36.35
300.952	-6.66
301.166	36.35
301.381	46.59
301.595	-6.66
301.809	36.35
302.024	17.92
302.238	42.5
302.452	108.03
302.667	9.73
302.881	71.17
303.095	46.59
303.309	36.35
303.524	40.45
303.738	83.45
303.952	1.54
304.166	69.12
304.381	1.54
304.595	9.73
304.809	22.02
305.023	50.69
305.237	36.35
305.452	60.93
305.666	50.69
305.88	75.26
306.094	13.82
306.308	54.78
306.522	38.4
306.736	-51.71
306.95	-8.7
307.164	103.93
307.379	38.4
307.593	46.59
307.807	11.78
308.021	-16.9
308.235	30.21
308.449	24.06
308.663	56.83
308.877	69.12
309.091	-27.14
309.305	42.5
309.519	5.63
309.733	32.26
309.947	-49.66
310.161	85.5
310.374	36.35
310.588	65.02
310.802	56.83
311.016	62.98
311.23	30.21
311.444	83.45
311.658	13.82
311.872	73.21
312.085	36.35
312.299	42.5
312.513	30.21
312.727	60.93
312.941	11.78
313.154	62.98
313.368	58.88
313.582	40.45
313.796	1.54
314.009	81.41
314.223	9.73
314.437	73.21
314.651	-10.75
314.864	52.74
315.078	-8.7
315.292	46.59
315.505	19.97
315.719	1.54
315.933	-49.66
316.146	101.89
316.36	36.35
316.573	24.06
316.787	46.59
317.001	42.5
317.214	-49.66
317.428	28.16
317.641	36.35
317.855	46.59
318.068	-31.23
318.282	36.35
318.495	44.54
318.709	58.88
318.922	9.73
319.136	54.78
319.349	81.41
319.563	-10.75
319.776	65.02
319.99	32.26
320.203	26.11
320.417	62.98
320.63	3.58
320.843	114.17
321.057	91.65
321.27	9.73
321.483	103.93
321.697	62.98
321.91	-4.61
322.124	52.74
322.337	36.35
322.55	81.41
322.763	38.4
322.977	67.07
323.19	-0.51
323.403	62.98
323.617	46.59
323.83	71.17
324.043	-2.56
324.256	-12.8
324.469	3.58
324.683	108.03
324.896	19.97
325.109	40.45
325.322	69.12
325.535	54.78
325.748	7.68
325.962	54.78
326.175	-0.51
326.388	19.97
326.601	77.31
326.814	40.45
327.027	36.35
327.24	54.78
327.453	-45.57
327.666	46.59
327.879	36.35
328.092	54.78
328.305	87.55
328.518	-12.8
328.731	48.64
328.944	44.54
329.157	28.16
329.37	9.73
329.583	7.68
329.796	-0.51
330.009	26.11
330.222	22.02
330.435	7.68
330.648	36.35
330.861	40.45
331.073	17.92
331.286	97.79
331.499	95.74
331.712	32.26
331.925	3.58
332.138	85.5
332.35	91.65
332.563	87.55
332.776	40.45
332.989	89.6
333.202	22.02
333.414	19.97
333.627	15.87
333.84	97.79
334.053	-35.33
334.265	-45.57
334.478	24.06
334.691	13.82
334.903	62.98
335.116	85.5
335.329	-6.66
335.541	60.93
335.754	132.61
335.966	32.26
336.179	65.02
336.392	46.59
336.604	11.78
336.817	-20.99
337.029	58.88
337.242	30.21
337.454	13.82
337.667	36.35
337.88	30.21
338.092	85.5
338.305	101.89
338.517	75.26
338.729	7.68
338.942	65.02
339.154	-23.04
339.367	-45.57
339.579	36.35
339.792	28.16
340.004	75.26
340.217	28.16
340.429	56.83
340.641	15.87
340.854	77.31
341.066	-18.94
341.278	75.26
341.491	118.27
341.703	85.5
341.915	32.26
342.128	67.07
342.34	26.11
342.552	69.12
342.764	110.08
342.977	17.92
343.189	58.88
343.401	99.84
343.613	36.35
343.826	19.97
344.038	-35.33
344.25	85.5
344.462	-4.61
344.674	81.41
344.886	46.59
345.099	13.82
345.311	30.21
345.523	7.68
345.735	-29.18
345.947	26.11
346.159	75.26
346.371	5.63
346.583	-14.85
346.795	108.03
347.007	71.17
347.219	93.69
347.431	48.64
347.643	83.45
347.855	32.26
348.067	-0.51
348.279	9.73
348.491	-8.7
348.703	36.35
348.915	79.36
349.127	7.68
349.339	3.58
349.551	5.63
349.763	75.26
349.975	-25.09
350.187	42.5
350.399	-20.99
350.61	91.65
350.822	32.26
351.034	52.74
351.246	17.92
351.458	65.02
351.669	77.31
351.881	7.68
352.093	34.3
352.305	60.93
352.517	19.97
352.728	-10.75
352.94	15.87
353.152	62.98
353.363	105.98
353.575	22.02
353.787	99.84
353.999	85.5
354.21	79.36
354.422	30.21
354.633	146.94
354.845	99.84
355.057	9.73
355.268	-12.8
355.48	9.73
355.692	95.74
355.903	140.8
356.115	36.35
356.326	11.78
356.538	60.93
356.749	38.4
356.961	79.36
357.172	48.64
357.384	9.73
357.595	83.45
357.807	32.26
358.018	130.56
358.23	112.13
358.441	69.12
358.653	3.58
358.864	46.59
359.075	46.59
359.287	3.58
359.498	75.26
359.709	38.4
359.921	103.93
360.132	118.27
360.344	126.46
360.555	48.64
360.766	24.06
360.977	36.35
361.189	77.31
361.4	-0.51
361.611	97.79
361.823	105.98
362.034	69.12
362.245	48.64
362.456	85.5
362.667	1.54
362.879	9.73
363.09	9.73
363.301	44.54
363.512	-51.71
363.723	3.58
363.935	91.65
364.146	32.26
364.357	60.93
364.568	75.26
364.779	54.78
364.99	116.22
365.201	-16.9
365.412	138.75
365.623	-53.76
365.834	93.69
366.045	132.61
366.256	24.06
366.467	-14.85
366.678	38.4
366.889	97.79
367.1	54.78
367.311	62.98
367.522	3.58
367.733	46.59
367.944	26.11
368.155	118.27
368.366	19.97
368.577	50.69
368.788	52.74
368.999	34.3
369.209	97.79
369.42	136.7
369.631	89.6
369.842	3.58
370.053	15.87
370.264	48.64
370.474	44.54
370.685	73.21
370.896	-23.04
371.107	81.41
371.317	17.92
371.528	105.98
371.739	-10.75
371.95	58.88
372.16	1.54
372.371	114.17
372.582	19.97
372.792	58.88
373.003	15.87
373.214	77.31
373.424	73.21
373.635	19.97
373.846	40.45
374.056	105.98
374.267	34.3
374.477	19.97
374.688	34.3
374.898	19.97
375.109	46.59
375.319	42.5
375.53	93.69
375.74	134.65
375.951	77.31
376.161	48.64
376.372	52.74
376.582	36.35
376.793	67.07
377.003	65.02
377.214	56.83
377.424	58.88
377.635	138.75
377.845	5.63
378.055	69.12
378.266	36.35
378.476	65.02
378.686	26.11
378.897	105.98
379.107	40.45
379.317	110.08
379.528	38.4
379.738	22.02
379.948	-2.56
380.158	99.84
380.369	24.06
380.579	144.89
380.789	15.87
380.999	13.82
381.21	69.12
381.42	103.93
381.63	105.98
381.84	77.31
382.05	32.26
382.261	42.5
382.471	87.55
382.681	32.26
382.891	155.13
383.101	9.73
383.311	54.78
383.521	9.73
383.731	69.12
383.941	26.11
384.151	9.73
384.361	71.17
384.571	105.98
384.781	65.02
384.991	140.8
385.201	50.69
385.411	24.06
385.621	52.74
385.831	69.12
386.041	7.68
386.251	79.36
386.461	54.78
386.671	32.26
386.881	50.69
387.091	136.7
387.301	114.17
387.511	60.93
387.72	67.07
387.93	77.31
388.14	15.87
388.35	81.41
388.56	30.21
388.769	60.93
388.979	-2.56
389.189	67.07
389.399	81.41
389.609	79.36
389.818	101.89
390.028	32.26
390.238	105.98
390.447	99.84
390.657	91.65
390.867	22.02
391.076	9.73
391.286	62.98
391.496	85.5
391.705	85.5
391.915	79.36
392.125	71.17
392.334	62.98
392.544	58.88
392.753	60.93
392.963	95.74
393.172	50.69
393.382	69.12
393.591	99.84
393.801	52.74
394.01	71.17
394.22	54.78
394.429	71.17
394.639	42.5
394.848	1.54
395.058	95.74
395.267	50.69
395.477	87.55
395.686	67.07
395.895	95.74
396.105	175.61
396.314	56.83
396.524	71.17
396.733	120.32
396.942	77.31
397.152	126.46
397.361	9.73
397.57	38.4
397.78	73.21
397.989	97.79
398.198	101.89
398.407	73.21
398.617	140.8
398.826	97.79
399.035	95.74
399.244	130.56
399.453	136.7
399.663	138.75
399.872	105.98
400.081	5.63
400.29	120.32
400.499	7.68
400.708	69.12
400.917	48.64
401.127	108.03
401.336	124.41
401.545	118.27
401.754	85.5
401.963	71.17
402.172	48.64
402.381	85.5
402.59	132.61
402.799	93.69
403.008	120.32
403.217	83.45
403.426	89.6
403.635	130.56
403.844	114.17
404.053	62.98
404.262	163.33
404.471	155.13
404.68	200.19
404.888	132.61
405.097	79.36
405.306	128.51
405.515	89.6
405.724	83.45
405.933	108.03
406.142	128.51
406.35	185.85
406.559	216.57
406.768	146.94
406.977	220.67
407.185	275.96
407.394	132.61
407.603	167.42
407.812	224.76
408.02	204.28
408.229	202.24
408.438	251.39
408.646	237.05
408.855	243.2
409.064	163.33
409.272	278.01
409.481	302.59
409.69	290.3
409.898	261.63
410.107	237.05
410.315	296.44
410.524	273.92
410.733	280.06
410.941	345.59
411.15	284.16
411.358	345.59
411.567	355.83
411.775	318.97
411.984	368.12
412.192	456.19
412.401	337.4
412.609	415.23
412.818	411.13
413.026	445.95
413.234	355.83
413.443	435.71
413.651	503.29
413.86	493.05
414.068	464.38
414.276	503.29
414.485	556.54
414.693	525.82
414.901	591.35
415.11	636.41
415.318	650.74
415.526	646.65
415.734	775.67
415.943	656.89
416.151	718.33
416.359	747
416.567	765.43
416.776	763.38
416.984	781.81
417.192	830.96
417.4	927.22
417.608	785.91
417.817	919.03
418.025	1046
418.233	1005.04
418.441	900.59
418.649	1005.04
418.857	1099.25
419.065	1068.53
419.273	1103.34
419.481	1084.91
419.689	1226.22
419.897	1275.37
420.105	1410.54
420.313	1367.53
420.521	1351.15
420.729	1314.28
420.937	1467.88
421.145	1492.46
421.353	1517.03
421.561	1682.92
421.769	1689.06
421.977	1740.26
422.185	1668.58
422.393	1906.15
422.601	1922.53
422.809	2002.4
423.017	1979.87
423.224	1988.07
423.432	2082.27
423.64	2225.63
423.848	2354.65
424.056	2307.55
424.263	2366.94
424.471	2510.3
424.679	2653.66
424.887	2764.25
425.094	2653.66
425.302	2784.73
425.51	2946.52
425.718	2987.47
425.925	2944.47
426.133	3010
426.341	3290.57
426.548	3438.03
426.756	3356.11
426.964	3573.19
427.171	3536.33
427.379	3765.7
427.586	3706.31
427.794	3913.16
428.001	4117.95
428.209	4148.67
428.417	4158.91
428.624	4459.96
428.832	4464.06
429.039	4609.47
429.247	4457.92
429.454	4945.33
429.662	5303.73
429.869	4949.43
430.076	5242.29
430.284	5047.73
430.491	5328.3
430.699	5561.77
430.906	5594.54
431.114	5649.83
431.321	5909.93
431.528	6120.87
431.736	6415.77
431.943	6755.74
432.15	6438.3
432.358	6440.35
432.565	6829.46
432.772	7067.03
432.979	7255.44
433.187	7320.98
433.394	7468.43
433.601	7972.23
433.808	7939.46
434.016	7986.57
434.223	8342.91
434.43	8725.88
434.637	8521.09
434.844	9104.76
435.052	9311.6
435.259	9233.78
435.466	9432.43
435.673	9485.68
435.88	9952.62
436.087	10300.77
436.294	10374.5
436.501	10147.17
436.708	10179.94
436.915	10820.95
437.122	11175.25
437.329	10970.46
437.537	11412.82
437.743	11746.64
437.95	11791.69
438.157	12070.22
438.364	12782.91
438.571	12520.77
438.778	12647.74
438.985	14071.08
439.192	13202.74
439.399	13645.1
439.606	13411.64
439.813	14288.17
440.02	14877.98
440.227	14802.21
440.433	14540.07
440.64	15027.48
440.847	15101.21
441.054	15455.51
441.261	16329.99
441.467	16389.38
441.674	16600.32
441.881	17243.38
442.088	16991.48
442.294	16878.85
442.501	17415.41
442.708	17763.57
442.914	18607.33
443.121	19274.97
443.328	18562.28
443.534	19848.4
443.741	19551.45
443.948	19188.96
444.154	20362.44
444.361	20516.04
444.568	20653.25
444.774	20774.08
444.981	20835.52
445.187	21644.47
445.394	22262.96
445.6	22201.52
445.807	24188.05
446.013	23456.92
446.22	23770.26
446.426	24568.97
446.633	24949.89
446.839	25433.21
447.046	24368.27
447.252	25975.92
447.459	26098.8
447.665	25984.12
447.871	27008.1
448.078	28529.74
448.284	26760.3
448.491	27475.04
448.697	28978.25
448.903	29219.91
449.11	29129.8
449.316	28607.56
449.522	29647.93
449.728	30258.23
449.935	30303.28
450.141	30407.73
450.347	30911.53
450.553	29703.23
450.76	30186.55
450.966	31237.16
451.172	31183.91
451.378	31540.25
451.584	31304.74
451.791	32384.02
451.997	31996.95
452.203	32574.48
452.409	32363.54
452.615	32484.37
452.821	31003.69
453.027	30817.32
453.233	32334.87
453.44	31521.82
453.646	31425.57
453.852	31681.56
454.058	32144.41
454.264	31126.57
454.47	31722.52
454.676	30913.58
454.882	32185.36
455.088	29199.43
455.294	29787.19
455.5	29815.87
455.705	30235.7
455.911	29406.27
456.117	28798.02
456.323	28701.77
456.529	27061.35
456.735	27663.45
456.941	27016.29
457.147	26696.81
457.352	26016.88
457.558	25990.26
457.764	25910.39
457.97	25357.44
458.176	25064.58
458.381	24884.36
458.587	23442.59
458.793	23751.83
458.999	22310.06
459.204	24083.6
459.41	23250.08
459.616	21796.02
459.821	21667
460.027	21587.13
460.233	20995.26
460.438	20217.04
460.644	20409.54
460.85	19621.08
461.055	19211.48
461.261	19324.12
461.466	17857.78
461.672	17218.81
461.878	18595.04
462.083	16964.86
462.289	16907.52
462.494	16807.17
462.7	16104.71
462.905	15840.53
463.111	16057.61
463.316	16389.38
463.522	15875.34
463.727	16026.89
463.932	15834.38
464.138	15219.99
464.343	15662.35
464.549	15424.79
464.754	15693.07
464.959	15590.67
465.165	15674.64
465.37	15062.3
465.575	14390.56
465.781	15076.63
465.986	15029.53
466.191	14697.76
466.397	14243.11
466.602	13614.38
466.807	14017.83
467.012	14015.79
467.218	13921.58
467.423	14030.12
467.628	14150.95
467.833	14570.79
468.038	13923.63
468.244	13667.63
