Data from USB4F104151__1__11-51-01-415.txt Node

Date: Fri Mar 14 11:51:01 EDT 2025
User: louis
Spectrometer: USB4F10415
Trigger mode: 4
Integration Time (sec): 2.000000E-2
Scans to average: 1
Electric dark correction enabled: true
Nonlinearity correction enabled: false
Boxcar width: 0
XAxis mode: Wavelengths
Number of Pixels in Spectrum: 3648
>>>>>Begin Spectral Data<<<<<
178.204	-41.81
178.424	-41.81
178.644	-41.81
178.864	-111.44
179.084	-80.72
179.304	-0.85
179.524	31.91
179.744	-47.96
179.964	48.3
180.184	-27.48
180.404	15.53
180.624	5.29
180.844	-47.96
181.064	-11.09
181.283	5.29
181.503	15.53
181.723	13.48
181.943	11.43
182.163	54.44
182.383	-19.29
182.602	9.39
182.822	64.68
183.042	38.06
183.262	-21.33
183.482	-23.38
183.701	46.25
183.921	-17.24
184.141	-2.9
184.361	1.19
184.58	66.73
184.8	60.59
185.02	5.29
185.239	19.63
185.459	74.92
185.679	23.72
185.898	-29.52
186.118	76.97
186.338	23.72
186.557	48.3
186.777	-35.67
186.997	52.39
187.216	31.91
187.436	83.11
187.655	-23.38
187.875	36.01
188.095	-60.24
188.314	72.87
188.534	81.07
188.753	-68.44
188.973	5.29
189.192	109.74
189.412	-9.05
189.631	-29.52
189.851	-2.9
190.07	5.29
190.29	40.11
190.509	74.92
190.729	1.19
190.948	-27.48
191.168	99.5
191.387	76.97
191.607	13.48
191.826	29.87
192.045	-25.43
192.265	42.15
192.484	33.96
192.704	-9.05
192.923	-15.19
193.142	38.06
193.362	15.53
193.581	91.31
193.8	109.74
194.02	11.43
194.239	-15.19
194.458	3.24
194.678	-33.62
194.897	-50
195.116	-33.62
195.335	3.24
195.555	19.63
195.774	19.63
195.993	46.25
196.212	-25.43
196.432	-23.38
196.651	9.39
196.87	95.4
197.089	83.11
197.308	7.34
197.528	3.24
197.747	95.4
197.966	23.72
198.185	50.35
198.404	-9.05
198.623	-15.19
198.842	38.06
199.062	38.06
199.281	66.73
199.5	38.06
199.719	-84.82
199.938	-0.85
200.157	17.58
200.376	-27.48
200.595	-0.85
200.814	-33.62
201.033	87.21
201.252	46.25
201.471	23.72
201.69	-13.14
201.909	74.92
202.128	-27.48
202.347	-37.72
202.566	58.54
202.785	44.2
203.004	7.34
203.223	124.07
203.442	-64.34
203.661	-11.09
203.879	21.67
204.098	38.06
204.317	60.59
204.536	58.54
204.755	46.25
204.974	27.82
205.193	-27.48
205.411	46.25
205.63	-37.72
205.849	19.63
206.068	38.06
206.287	-15.19
206.505	27.82
206.724	42.15
206.943	-2.9
207.162	-7
207.381	-7
207.599	27.82
207.818	64.68
208.037	-54.1
208.255	-7
208.474	31.91
208.693	64.68
208.911	33.96
209.13	13.48
209.349	33.96
209.567	60.59
209.786	13.48
210.005	52.39
210.223	50.35
210.442	17.58
210.661	46.25
210.879	40.11
211.098	17.58
211.316	-23.38
211.535	101.55
211.753	17.58
211.972	19.63
212.191	-21.33
212.409	31.91
212.628	3.24
212.846	19.63
213.065	23.72
213.283	25.77
213.502	-0.85
213.72	-68.44
213.938	40.11
214.157	46.25
214.375	-11.09
214.594	-7
214.812	79.02
215.031	-19.29
215.249	-33.62
215.467	-2.9
215.686	-2.9
215.904	33.96
216.122	56.49
216.341	50.35
216.559	-23.38
216.778	19.63
216.996	50.35
217.214	5.29
217.432	-35.67
217.651	-9.05
217.869	13.48
218.087	23.72
218.306	1.19
218.524	11.43
218.742	-25.43
218.96	70.83
219.179	9.39
219.397	-43.86
219.615	76.97
219.833	-13.14
220.051	33.96
220.27	68.78
220.488	50.35
220.706	54.44
220.924	52.39
221.142	74.92
221.36	13.48
221.578	115.88
221.796	-23.38
222.015	25.77
222.233	79.02
222.451	33.96
222.669	-15.19
222.887	64.68
223.105	25.77
223.323	5.29
223.541	64.68
223.759	1.19
223.977	46.25
224.195	42.15
224.413	-4.95
224.631	-19.29
224.849	-11.09
225.067	64.68
225.285	27.82
225.503	-4.95
225.721	31.91
225.939	44.2
226.157	42.15
226.375	68.78
226.592	-13.14
226.81	-25.43
227.028	50.35
227.246	-7
227.464	9.39
227.682	48.3
227.9	48.3
228.117	-15.19
228.335	-2.9
228.553	-15.19
228.771	56.49
228.989	-23.38
229.206	38.06
229.424	29.87
229.642	-11.09
229.86	-19.29
230.077	46.25
230.295	-15.19
230.513	68.78
230.731	83.11
230.948	95.4
231.166	15.53
231.384	11.43
231.601	3.24
231.819	-27.48
232.037	13.48
232.254	5.29
232.472	50.35
232.689	36.01
232.907	29.87
233.125	44.2
233.342	50.35
233.56	-9.05
233.777	42.15
233.995	13.48
234.213	27.82
234.43	3.24
234.648	33.96
234.865	13.48
235.083	5.29
235.3	19.63
235.518	44.2
235.735	76.97
235.953	60.59
236.17	19.63
236.388	66.73
236.605	5.29
236.822	5.29
237.04	74.92
237.257	15.53
237.475	-54.1
237.692	31.91
237.909	-13.14
238.127	62.63
238.344	52.39
238.562	33.96
238.779	97.45
238.996	-2.9
239.214	-35.67
239.431	27.82
239.648	-31.57
239.865	5.29
240.083	81.07
240.3	76.97
240.517	-2.9
240.735	13.48
240.952	25.77
241.169	66.73
241.386	56.49
241.603	23.72
241.821	52.39
242.038	76.97
242.255	-29.52
242.472	-7
242.689	48.3
242.907	5.29
243.124	72.87
243.341	-0.85
243.558	-39.76
243.775	62.63
243.992	-68.44
244.209	17.58
244.426	44.2
244.643	31.91
244.86	7.34
245.078	-4.95
245.295	7.34
245.512	15.53
245.729	40.11
245.946	9.39
246.163	44.2
246.38	72.87
246.597	-21.33
246.814	54.44
247.031	-41.81
247.248	54.44
247.464	21.67
247.681	-31.57
247.898	115.88
248.115	40.11
248.332	-15.19
248.549	-2.9
248.766	23.72
248.983	-52.05
249.2	42.15
249.417	23.72
249.633	36.01
249.85	21.67
250.067	17.58
250.284	-33.62
250.501	1.19
250.717	-78.68
250.934	-39.76
251.151	21.67
251.368	13.48
251.585	48.3
251.801	83.11
252.018	85.16
252.235	-45.91
252.451	-43.86
252.668	19.63
252.885	50.35
253.102	29.87
253.318	-21.33
253.535	9.39
253.752	38.06
253.968	87.21
254.185	23.72
254.401	-43.86
254.618	70.83
254.835	-13.14
255.051	58.54
255.268	42.15
255.484	-7
255.701	101.55
255.917	56.49
256.134	-37.72
256.351	54.44
256.567	15.53
256.784	60.59
257	-84.82
257.217	23.72
257.433	-0.85
257.65	70.83
257.866	9.39
258.082	-7
258.299	46.25
258.515	44.2
258.732	-31.57
258.948	21.67
259.165	9.39
259.381	19.63
259.597	33.96
259.814	11.43
260.03	70.83
260.246	-37.72
260.463	38.06
260.679	89.26
260.895	44.2
261.112	40.11
261.328	1.19
261.544	42.15
261.761	66.73
261.977	7.34
262.193	-27.48
262.409	40.11
262.626	-37.72
262.842	11.43
263.058	-2.9
263.274	-2.9
263.49	-7
263.707	-4.95
263.923	-0.85
264.139	-15.19
264.355	3.24
264.571	48.3
264.787	17.58
265.004	52.39
265.22	-70.48
265.436	42.15
265.652	-33.62
265.868	15.53
266.084	36.01
266.3	42.15
266.516	-113.49
266.732	105.64
266.948	81.07
267.164	44.2
267.38	-17.24
267.596	-13.14
267.812	44.2
268.028	66.73
268.244	-17.24
268.46	40.11
268.676	44.2
268.892	68.78
269.108	31.91
269.324	44.2
269.54	-31.57
269.756	-2.9
269.972	9.39
270.188	-0.85
270.403	-62.29
270.619	9.39
270.835	27.82
271.051	76.97
271.267	-0.85
271.483	-21.33
271.698	50.35
271.914	-54.1
272.13	15.53
272.346	23.72
272.562	5.29
272.777	44.2
272.993	-4.95
273.209	-4.95
273.425	52.39
273.64	-11.09
273.856	7.34
274.072	64.68
274.287	-2.9
274.503	70.83
274.719	19.63
274.934	-27.48
275.15	7.34
275.366	76.97
275.581	79.02
275.797	38.06
276.012	7.34
276.228	-45.91
276.444	25.77
276.659	46.25
276.875	-31.57
277.09	33.96
277.306	97.45
277.521	72.87
277.737	13.48
277.952	70.83
278.168	-13.14
278.383	-9.05
278.599	-15.19
278.814	74.92
279.03	-9.05
279.245	54.44
279.461	-7
279.676	-7
279.892	76.97
280.107	-35.67
280.322	44.2
280.538	19.63
280.753	-13.14
280.969	-2.9
281.184	-2.9
281.399	83.11
281.615	-52.05
281.83	79.02
282.045	83.11
282.26	-4.95
282.476	60.59
282.691	11.43
282.906	33.96
283.122	68.78
283.337	-13.14
283.552	11.43
283.767	52.39
283.983	58.54
284.198	-27.48
284.413	27.82
284.628	70.83
284.843	-19.29
285.058	15.53
285.274	-7
285.489	-54.1
285.704	33.96
285.919	11.43
286.134	9.39
286.349	91.31
286.564	-62.29
286.779	83.11
286.995	56.49
287.21	5.29
287.425	-2.9
287.64	-11.09
287.855	-45.91
288.07	29.87
288.285	48.3
288.5	-21.33
288.715	11.43
288.93	-19.29
289.145	-13.14
289.36	85.16
289.575	-9.05
289.79	9.39
290.004	3.24
290.219	64.68
290.434	25.77
290.649	-11.09
290.864	93.35
291.079	62.63
291.294	58.54
291.509	-9.05
291.724	-13.14
291.938	-27.48
292.153	93.35
292.368	-33.62
292.583	29.87
292.798	87.21
293.012	52.39
293.227	29.87
293.442	21.67
293.657	58.54
293.871	25.77
294.086	-27.48
294.301	83.11
294.516	50.35
294.73	38.06
294.945	13.48
295.16	54.44
295.374	64.68
295.589	56.49
295.804	-29.52
296.018	74.92
296.233	136.36
296.447	21.67
296.662	-13.14
296.877	85.16
297.091	9.39
297.306	-2.9
297.52	-13.14
297.735	31.91
297.949	-13.14
298.164	50.35
298.378	-7
298.593	97.45
298.807	-70.48
299.022	9.39
299.236	85.16
299.451	-29.52
299.665	52.39
299.88	27.82
300.094	79.02
300.309	9.39
300.523	46.25
300.737	93.35
300.952	58.54
301.166	7.34
301.381	52.39
301.595	5.29
301.809	79.02
302.024	19.63
302.238	50.35
302.452	85.16
302.667	13.48
302.881	83.11
303.095	62.63
303.309	40.11
303.524	-33.62
303.738	48.3
303.952	17.58
304.166	9.39
304.381	-7
304.595	119.98
304.809	23.72
305.023	31.91
305.237	17.58
305.452	-15.19
305.666	70.83
305.88	66.73
306.094	25.77
306.308	50.35
306.522	66.73
306.736	38.06
306.95	-11.09
307.164	117.93
307.379	50.35
307.593	107.69
307.807	27.82
308.021	-13.14
308.235	40.11
308.449	-37.72
308.663	13.48
308.877	38.06
309.091	60.59
309.305	89.26
309.519	64.68
309.733	58.54
309.947	-0.85
310.161	52.39
310.374	3.24
310.588	19.63
310.802	33.96
311.016	64.68
311.23	11.43
311.444	48.3
311.658	29.87
311.872	25.77
312.085	70.83
312.299	111.78
312.513	-11.09
312.727	3.24
312.941	-58.2
313.154	42.15
313.368	-9.05
313.582	-17.24
313.796	-31.57
314.009	-7
314.223	21.67
314.437	42.15
314.651	5.29
314.864	-41.81
315.078	-88.92
315.292	66.73
315.505	25.77
315.719	29.87
315.933	7.34
316.146	44.2
316.36	-25.43
316.573	-7
316.787	17.58
317.001	9.39
317.214	33.96
317.428	5.29
317.641	-35.67
317.855	48.3
318.068	33.96
318.282	-19.29
318.495	89.26
318.709	25.77
318.922	72.87
319.136	50.35
319.349	60.59
319.563	68.78
319.776	1.19
319.99	76.97
320.203	93.35
320.417	3.24
320.63	5.29
320.843	46.25
321.057	3.24
321.27	48.3
321.483	44.2
321.697	76.97
321.91	72.87
322.124	31.91
322.337	42.15
322.55	-0.85
322.763	40.11
322.977	5.29
323.19	52.39
323.403	21.67
323.617	3.24
323.83	13.48
324.043	33.96
324.256	48.3
324.469	-33.62
324.683	85.16
324.896	-58.2
325.109	-33.62
325.322	46.25
325.535	19.63
325.748	36.01
325.962	154.79
326.175	7.34
326.388	-0.85
326.601	46.25
326.814	44.2
327.027	25.77
327.24	58.54
327.453	-21.33
327.666	70.83
327.879	68.78
328.092	27.82
328.305	38.06
328.518	42.15
328.731	11.43
328.944	93.35
329.157	-2.9
329.37	-56.15
329.583	74.92
329.796	66.73
330.009	40.11
330.222	85.16
330.435	9.39
330.648	81.07
330.861	-4.95
331.073	56.49
331.286	66.73
331.499	-11.09
331.712	76.97
331.925	15.53
332.138	62.63
332.35	52.39
332.563	68.78
332.776	25.77
332.989	58.54
333.202	-47.96
333.414	-2.9
333.627	7.34
333.84	50.35
334.053	79.02
334.265	81.07
334.478	-7
334.691	60.59
334.903	-0.85
335.116	-39.76
335.329	68.78
335.541	56.49
335.754	19.63
335.966	19.63
336.179	19.63
336.392	50.35
336.604	58.54
336.817	25.77
337.029	17.58
337.242	-19.29
337.454	62.63
337.667	13.48
337.88	99.5
338.092	-41.81
338.305	5.29
338.517	68.78
338.729	60.59
338.942	79.02
339.154	7.34
339.367	25.77
339.579	64.68
339.792	31.91
340.004	50.35
340.217	42.15
340.429	68.78
340.641	56.49
340.854	81.07
341.066	17.58
341.278	58.54
341.491	-21.33
341.703	126.12
341.915	40.11
342.128	38.06
342.34	11.43
342.552	-7
342.764	62.63
342.977	-11.09
343.189	21.67
343.401	38.06
343.613	-9.05
343.826	3.24
344.038	36.01
344.25	87.21
344.462	-15.19
344.674	31.91
344.886	70.83
345.099	50.35
345.311	-15.19
345.523	-7
345.735	-39.76
345.947	50.35
346.159	13.48
346.371	36.01
346.583	56.49
346.795	52.39
347.007	3.24
347.219	89.26
347.431	9.39
347.643	23.72
347.855	48.3
348.067	-7
348.279	25.77
348.491	-0.85
348.703	29.87
348.915	5.29
349.127	31.91
349.339	42.15
349.551	-27.48
349.763	38.06
349.975	-13.14
350.187	17.58
350.399	91.31
350.61	79.02
350.822	-60.24
351.034	85.16
351.246	85.16
351.458	1.19
351.669	15.53
351.881	81.07
352.093	81.07
352.305	58.54
352.517	54.44
352.728	85.16
352.94	29.87
353.152	113.83
353.363	56.49
353.575	27.82
353.787	54.44
353.999	85.16
354.21	91.31
354.422	1.19
354.633	-2.9
354.845	46.25
355.057	103.59
355.268	29.87
355.48	111.78
355.692	66.73
355.903	52.39
356.115	19.63
356.326	-19.29
356.538	50.35
356.749	64.68
356.961	111.78
357.172	9.39
357.384	5.29
357.595	97.45
357.807	66.73
358.018	5.29
358.23	21.67
358.441	21.67
358.653	85.16
358.864	56.49
359.075	76.97
359.287	11.43
359.498	99.5
359.709	-43.86
359.921	50.35
360.132	29.87
360.344	40.11
360.555	17.58
360.766	52.39
360.977	85.16
361.189	87.21
361.4	7.34
361.611	9.39
361.823	48.3
362.034	33.96
362.245	11.43
362.456	-33.62
362.667	-0.85
362.879	-9.05
363.09	-21.33
363.301	83.11
363.512	1.19
363.723	62.63
363.935	1.19
364.146	72.87
364.357	66.73
364.568	13.48
364.779	33.96
364.99	48.3
365.201	-25.43
365.412	81.07
365.623	11.43
365.834	64.68
366.045	15.53
366.256	50.35
366.467	-21.33
366.678	56.49
366.889	-0.85
367.1	27.82
367.311	64.68
367.522	7.34
367.733	52.39
367.944	44.2
368.155	40.11
368.366	64.68
368.577	40.11
368.788	62.63
368.999	60.59
369.209	23.72
369.42	76.97
369.631	99.5
369.842	62.63
370.053	68.78
370.264	15.53
370.474	52.39
370.685	7.34
370.896	-2.9
371.107	68.78
371.317	38.06
371.528	48.3
371.739	29.87
371.95	27.82
372.16	23.72
372.371	-4.95
372.582	33.96
372.792	54.44
373.003	83.11
373.214	-27.48
373.424	152.74
373.635	11.43
373.846	1.19
374.056	-19.29
374.267	76.97
374.477	31.91
374.688	-2.9
374.898	40.11
375.109	128.17
375.319	64.68
375.53	60.59
375.74	81.07
375.951	40.11
376.161	15.53
376.372	66.73
376.582	103.59
376.793	17.58
377.003	54.44
377.214	91.31
377.424	31.91
377.635	60.59
377.845	72.87
378.055	44.2
378.266	68.78
378.476	25.77
378.686	40.11
378.897	36.01
379.107	25.77
379.317	29.87
379.528	52.39
379.738	72.87
379.948	11.43
380.158	54.44
380.369	46.25
380.579	52.39
380.789	42.15
380.999	105.64
381.21	21.67
381.42	99.5
381.63	17.58
381.84	107.69
382.05	48.3
382.261	48.3
382.471	95.4
382.681	15.53
382.891	50.35
383.101	68.78
383.311	27.82
383.521	66.73
383.731	25.77
383.941	46.25
384.151	21.67
384.361	42.15
384.571	38.06
384.781	3.24
384.991	-4.95
385.201	126.12
385.411	29.87
385.621	124.07
385.831	111.78
386.041	42.15
386.251	44.2
386.461	64.68
386.671	97.45
386.881	52.39
387.091	38.06
387.301	66.73
387.511	62.63
387.72	46.25
387.93	11.43
388.14	11.43
388.35	-0.85
388.56	19.63
388.769	-2.9
388.979	15.53
389.189	66.73
389.399	17.58
389.609	36.01
389.818	79.02
390.028	79.02
390.238	1.19
390.447	70.83
390.657	115.88
390.867	13.48
391.076	-23.38
391.286	31.91
391.496	19.63
391.705	50.35
391.915	95.4
392.125	72.87
392.334	-43.86
392.544	81.07
392.753	44.2
392.963	109.74
393.172	83.11
393.382	54.44
393.591	95.4
393.801	38.06
394.01	93.35
394.22	56.49
394.429	40.11
394.639	103.59
394.848	11.43
395.058	91.31
395.267	101.55
395.477	70.83
395.686	79.02
395.895	109.74
396.105	31.91
396.314	25.77
396.524	91.31
396.733	130.22
396.942	74.92
397.152	111.78
397.361	76.97
397.57	97.45
397.78	93.35
397.989	23.72
398.198	83.11
398.407	62.63
398.617	58.54
398.826	173.22
399.035	91.31
399.244	64.68
399.453	17.58
399.663	52.39
399.872	111.78
400.081	29.87
400.29	48.3
400.499	-27.48
400.708	144.55
400.917	58.54
401.127	54.44
401.336	7.34
401.545	103.59
401.754	58.54
401.963	122.02
402.172	105.64
402.381	107.69
402.59	91.31
402.799	70.83
403.008	144.55
403.217	87.21
403.426	99.5
403.635	89.26
403.844	128.17
404.053	162.98
404.262	103.59
404.471	72.87
404.68	195.75
404.888	130.22
405.097	136.36
405.306	177.32
405.515	160.94
405.724	111.78
405.933	169.13
406.142	111.78
406.35	175.27
406.559	105.64
406.768	185.51
406.977	189.61
407.185	150.7
407.394	169.13
407.603	189.61
407.812	134.31
408.02	234.66
408.229	218.28
408.438	185.51
408.646	203.94
408.855	201.9
409.064	193.7
409.272	124.07
409.481	214.18
409.69	230.57
409.898	191.66
410.107	292.01
410.315	318.63
410.524	306.34
410.733	308.39
410.941	294.05
411.15	261.29
411.358	328.87
411.567	390.31
411.775	369.83
411.984	187.56
412.192	341.16
412.401	461.99
412.609	410.79
412.818	359.59
413.026	412.84
413.234	431.27
413.443	439.46
413.651	486.56
413.86	425.12
414.068	447.65
414.276	484.52
414.485	502.95
414.693	521.38
414.901	558.24
415.11	636.06
415.318	611.49
415.526	580.77
415.734	631.97
415.943	779.42
416.151	652.45
416.359	734.37
416.567	720.03
416.776	777.37
416.984	797.85
417.192	826.53
417.4	795.81
417.608	847.01
417.817	779.42
418.025	953.5
418.233	1023.13
418.441	947.36
418.649	1010.84
418.857	1098.91
419.065	1258.65
419.273	1019.04
419.481	1240.22
419.689	1178.78
419.897	1297.56
420.105	1205.4
420.313	1268.89
420.521	1324.18
420.729	1330.33
420.937	1442.96
421.145	1549.46
421.353	1547.41
421.561	1647.76
421.769	1641.62
421.977	1815.69
422.185	1655.95
422.393	1891.47
422.601	1971.34
422.809	1911.95
423.017	1873.04
423.224	1983.63
423.432	2133.13
423.64	2100.36
423.848	2356.36
424.056	2192.52
424.263	2356.36
424.471	2309.26
424.679	2520.2
424.887	2493.57
425.094	2665.6
425.302	2667.65
425.51	2690.18
425.718	2778.24
425.925	2804.86
426.133	2958.46
426.341	3273.85
426.548	3230.84
426.756	3368.06
426.964	3286.14
427.171	3544.18
427.379	3613.81
427.586	3642.48
427.794	3712.11
428.001	3857.52
428.209	4056.17
428.417	4064.36
428.624	4224.11
428.832	4355.18
429.039	4369.51
429.247	4078.7
429.454	4824.16
429.662	5061.73
429.869	4772.96
430.076	5065.82
430.284	4971.61
430.491	5170.27
430.699	5524.57
430.906	5456.98
431.114	5571.67
431.321	5733.46
431.528	5979.22
431.736	6288.46
431.943	6433.86
432.15	6333.51
432.358	6429.77
432.565	6792.26
432.772	6698.05
432.979	7107.65
433.187	7050.3
433.394	6962.24
433.601	7849.01
433.808	7875.63
434.016	7552.06
434.223	7949.36
434.43	8338.48
434.637	8369.19
434.844	8782.88
435.052	8924.19
435.259	8913.95
435.466	8985.63
435.673	8827.94
435.88	9384.99
436.087	10089.49
436.294	10028.05
436.501	9675.8
436.708	9929.75
436.915	10284.05
437.122	10605.58
437.329	10714.12
437.537	11049.99
437.743	11168.77
437.95	11033.6
438.157	11940.85
438.364	12069.87
438.571	12131.31
438.778	12106.74
438.985	13353.95
439.192	12633.07
439.399	13085.67
439.606	12780.52
439.813	13867.99
440.02	14291.92
440.227	14205.91
440.433	13962.2
440.64	14713.8
440.847	14388.18
441.054	14777.29
441.261	15981.49
441.467	15379.39
441.674	15938.49
441.881	16513.97
442.088	16214.96
442.294	16309.17
442.501	16993.19
442.708	17130.41
442.914	17804.19
443.121	18498.45
443.328	17916.83
443.534	19307.4
443.741	18574.22
443.948	18631.57
444.154	19893.12
444.361	19501.95
444.568	19972.99
444.774	19753.85
444.981	19948.41
445.187	20525.94
445.394	21635.94
445.6	21148.52
445.807	23071.56
446.013	22354.77
446.22	22420.31
446.426	23761.73
446.633	23554.88
446.839	24566.58
447.046	23495.49
447.252	25002.8
447.459	24750.9
447.665	24744.75
447.871	25666.34
448.078	27239.18
448.284	25764.64
448.491	26391.32
448.697	27292.43
448.903	27867.91
449.11	27851.52
449.316	27448.07
449.522	28080.89
449.728	28680.95
449.935	29268.72
450.141	29141.74
450.347	29696.74
450.553	29139.69
450.76	29285.1
450.966	30321.37
451.172	29655.78
451.378	30640.86
451.584	29799.14
451.791	30710.49
451.997	30714.58
452.203	31009.49
452.409	31161.04
452.615	30946
452.821	29741.8
453.027	29604.58
453.233	31072.98
453.44	29745.89
453.646	30083.81
453.852	30444.25
454.058	30757.59
454.264	29786.85
454.47	30526.17
454.676	29631.21
454.882	30663.38
455.088	28072.7
455.294	28402.43
455.5	29041.39
455.705	28951.28
455.911	28046.08
456.117	27667.2
456.323	27351.82
456.529	25606.95
456.735	26802.96
456.941	26331.93
457.147	25797.41
457.352	25279.27
457.558	24769.33
457.764	24967.98
457.97	24351.54
458.176	23774.02
458.381	24068.92
458.587	22772.56
458.793	22559.57
458.999	21330.79
459.204	23012.17
459.41	22182.74
459.616	20831.08
459.821	20841.32
460.027	20716.4
460.233	20278.13
460.438	19360.64
460.644	19514.24
460.85	18709.39
461.055	18566.03
461.261	18248.6
461.466	17085.35
461.672	16384.94
461.878	17527.71
462.083	16608.17
462.289	16241.59
462.494	16194.48
462.7	15092.68
462.905	14867.4
463.111	15530.94
463.316	15328.19
463.522	15023.05
463.727	15084.48
463.932	15147.97
464.138	14824.39
464.343	15141.83
464.549	14808.01
464.754	14992.33
464.959	14920.65
465.165	14744.52
465.37	14138.32
465.575	13802.46
465.781	14345.17
465.986	14285.78
466.191	14070.74
466.397	13632.47
466.602	12946.41
466.807	13454.3
467.012	13591.52
467.218	13290.46
467.423	13368.29
467.628	13374.43
467.833	13933.53
468.038	13464.54
468.244	12887.01
468.449	13595.61
