Data from USB4F104151__52__11-51-59-845.txt Node

Date: Fri Mar 14 11:51:59 EDT 2025
User: louis
Spectrometer: USB4F10415
Trigger mode: 4
Integration Time (sec): 2.000000E-2
Scans to average: 1
Electric dark correction enabled: true
Nonlinearity correction enabled: false
Boxcar width: 0
XAxis mode: Wavelengths
Number of Pixels in Spectrum: 3648
>>>>>Begin Spectral Data<<<<<
178.204	-101.03
178.424	-101.03
178.644	-101.03
178.864	-133.8
179.084	-74.41
179.304	-4.78
179.524	-10.92
179.744	11.61
179.964	23.89
180.184	-17.07
180.404	52.56
180.624	-27.31
180.844	23.89
181.064	-12.97
181.283	-12.97
181.503	-10.92
181.723	-15.02
181.943	-45.74
182.163	105.81
182.383	-45.74
182.602	11.61
182.822	27.99
183.042	15.7
183.262	83.28
183.482	58.71
183.701	23.89
183.921	23.89
184.141	7.51
184.361	60.76
184.58	9.56
184.8	52.56
185.02	-8.87
185.239	23.89
185.459	7.51
185.679	48.47
185.898	17.75
186.118	32.08
186.338	27.99
186.557	83.28
186.777	44.37
186.997	56.66
187.216	-15.02
187.436	7.51
187.655	60.76
187.875	105.81
188.095	-29.35
188.314	122.2
188.534	25.94
188.753	-23.21
188.973	1.37
189.192	50.52
189.412	17.75
189.631	-64.17
189.851	42.32
190.07	120.15
190.29	3.41
190.509	40.28
190.729	-53.93
190.948	50.52
191.168	62.8
191.387	19.8
191.607	-43.69
191.826	1.37
192.045	36.18
192.265	17.75
192.484	34.13
192.704	23.89
192.923	46.42
193.142	95.57
193.362	-10.92
193.581	68.95
193.8	103.76
194.02	27.99
194.239	23.89
194.458	71
194.678	11.61
194.897	89.43
195.116	23.89
195.335	46.42
195.555	25.94
195.774	1.37
195.993	9.56
196.212	71
196.432	7.51
196.651	111.96
196.87	32.08
197.089	73.04
197.308	9.56
197.528	52.56
197.747	50.52
197.966	1.37
198.185	89.43
198.404	21.85
198.623	-12.97
198.842	66.9
199.062	-6.83
199.281	-31.4
199.5	-92.84
199.719	40.28
199.938	7.51
200.157	-41.64
200.376	85.33
200.595	44.37
200.814	68.95
201.033	50.52
201.252	126.29
201.471	-0.68
201.69	89.43
201.909	68.95
202.128	5.46
202.347	75.09
202.566	42.32
202.785	27.99
203.004	-55.98
203.223	34.13
203.442	23.89
203.661	34.13
203.879	1.37
204.098	60.76
204.317	23.89
204.536	77.14
204.755	52.56
204.974	13.65
205.193	58.71
205.411	101.72
205.63	56.66
205.849	44.37
206.068	-0.68
206.287	-25.26
206.505	21.85
206.724	9.56
206.943	13.65
207.162	-0.68
207.381	21.85
207.599	48.47
207.818	56.66
208.037	3.41
208.255	-33.45
208.474	46.42
208.693	-33.45
208.911	5.46
209.13	-19.11
209.349	56.66
209.567	-29.35
209.786	40.28
210.005	-6.83
210.223	15.7
210.442	27.99
210.661	-21.16
210.879	56.66
211.098	30.04
211.316	-19.11
211.535	56.66
211.753	40.28
211.972	91.48
212.191	-2.73
212.409	-6.83
212.628	73.04
212.846	46.42
213.065	13.65
213.283	95.57
213.502	-35.5
213.72	-58.03
213.938	19.8
214.157	-53.93
214.375	38.23
214.594	60.76
214.812	3.41
215.031	81.24
215.249	27.99
215.467	17.75
215.686	46.42
215.904	73.04
216.122	1.37
216.341	25.94
216.559	97.62
216.778	38.23
216.996	17.75
217.214	38.23
217.432	19.8
217.651	-37.55
217.869	-2.73
218.087	81.24
218.306	-21.16
218.524	52.56
218.742	34.13
218.96	-29.35
219.179	46.42
219.397	36.18
219.615	60.76
219.833	62.8
220.051	-0.68
220.27	83.28
220.488	13.65
220.706	64.85
220.924	9.56
221.142	7.51
221.36	34.13
221.578	56.66
221.796	-4.78
222.015	89.43
222.233	62.8
222.451	107.86
222.669	9.56
222.887	9.56
223.105	30.04
223.323	21.85
223.541	25.94
223.759	25.94
223.977	50.52
224.195	75.09
224.413	42.32
224.631	-0.68
224.849	114
225.067	52.56
225.285	-37.55
225.503	54.61
225.721	3.41
225.939	38.23
226.157	-0.68
226.375	134.48
226.592	58.71
226.81	52.56
227.028	50.52
227.246	95.57
227.464	3.41
227.682	87.38
227.9	15.7
228.117	-2.73
228.335	48.47
228.553	38.23
228.771	50.52
228.989	44.37
229.206	23.89
229.424	-29.35
229.642	5.46
229.86	13.65
230.077	36.18
230.295	46.42
230.513	62.8
230.731	146.77
230.948	-33.45
231.166	-25.26
231.384	-2.73
231.601	15.7
231.819	48.47
232.037	27.99
232.254	-35.5
232.472	40.28
232.689	13.65
232.907	87.38
233.125	48.47
233.342	56.66
233.56	52.56
233.777	50.52
233.995	73.04
234.213	64.85
234.43	25.94
234.648	42.32
234.865	23.89
235.083	77.14
235.3	3.41
235.518	-25.26
235.735	52.56
235.953	71
236.17	15.7
236.388	62.8
236.605	19.8
236.822	48.47
237.04	44.37
237.257	46.42
237.475	1.37
237.692	64.85
237.909	32.08
238.127	25.94
238.344	42.32
238.562	73.04
238.779	-4.78
238.996	-35.5
239.214	44.37
239.431	-2.73
239.648	42.32
239.865	23.89
240.083	-10.92
240.3	-19.11
240.517	64.85
240.735	7.51
240.952	23.89
241.169	54.61
241.386	19.8
241.603	-6.83
241.821	17.75
242.038	48.47
242.255	-4.78
242.472	-15.02
242.689	50.52
242.907	32.08
243.124	-15.02
243.341	-19.11
243.558	9.56
243.775	54.61
243.992	-17.07
244.209	36.18
244.426	-8.87
244.643	-10.92
244.86	32.08
245.078	89.43
245.295	71
245.512	66.9
245.729	-15.02
245.946	-0.68
246.163	62.8
246.38	34.13
246.597	-19.11
246.814	38.23
247.031	-60.07
247.248	-10.92
247.464	25.94
247.681	42.32
247.898	52.56
248.115	77.14
248.332	-27.31
248.549	11.61
248.766	-17.07
248.983	62.8
249.2	27.99
249.417	11.61
249.633	-8.87
249.85	17.75
250.067	11.61
250.284	36.18
250.501	7.51
250.717	52.56
250.934	36.18
251.151	27.99
251.368	32.08
251.585	64.85
251.801	-66.22
252.018	9.56
252.235	11.61
252.451	15.7
252.668	3.41
252.885	15.7
253.102	71
253.318	9.56
253.535	32.08
253.752	-2.73
253.968	40.28
254.185	27.99
254.401	32.08
254.618	114
254.835	-12.97
255.051	42.32
255.268	42.32
255.484	44.37
255.701	50.52
255.917	23.89
256.134	48.47
256.351	44.37
256.567	-74.41
256.784	19.8
257	21.85
257.217	17.75
257.433	-6.83
257.65	25.94
257.866	64.85
258.082	-45.74
258.299	60.76
258.515	64.85
258.732	19.8
258.948	1.37
259.165	42.32
259.381	17.75
259.597	21.85
259.814	58.71
260.03	17.75
260.246	36.18
260.463	42.32
260.679	71
260.895	13.65
261.112	73.04
261.328	13.65
261.544	60.76
261.761	114
261.977	-4.78
262.193	60.76
262.409	-10.92
262.626	97.62
262.842	3.41
263.058	11.61
263.274	19.8
263.49	73.04
263.707	27.99
263.923	38.23
264.139	-47.79
264.355	66.9
264.571	11.61
264.787	21.85
265.004	56.66
265.22	46.42
265.436	7.51
265.652	-23.21
265.868	36.18
266.084	-39.59
266.3	1.37
266.516	15.7
266.732	13.65
266.948	40.28
267.164	17.75
267.38	9.56
267.596	30.04
267.812	23.89
268.028	42.32
268.244	5.46
268.46	19.8
268.676	3.41
268.892	-12.97
269.108	25.94
269.324	23.89
269.54	-41.64
269.756	11.61
269.972	44.37
270.188	23.89
270.403	11.61
270.619	13.65
270.835	19.8
271.051	23.89
271.267	-39.59
271.483	11.61
271.698	68.95
271.914	87.38
272.13	7.51
272.346	27.99
272.562	62.8
272.777	-23.21
272.993	3.41
273.209	81.24
273.425	60.76
273.64	34.13
273.856	75.09
274.072	34.13
274.287	36.18
274.503	64.85
274.719	44.37
274.934	-6.83
275.15	38.23
275.366	91.48
275.581	17.75
275.797	-12.97
276.012	38.23
276.228	21.85
276.444	25.94
276.659	46.42
276.875	89.43
277.09	60.76
277.306	64.85
277.521	103.76
277.737	50.52
277.952	-2.73
278.168	15.7
278.383	42.32
278.599	7.51
278.814	83.28
279.03	42.32
279.245	75.09
279.461	48.47
279.676	27.99
279.892	34.13
280.107	46.42
280.322	40.28
280.538	36.18
280.753	40.28
280.969	77.14
281.184	-0.68
281.399	50.52
281.615	46.42
281.83	34.13
282.045	23.89
282.26	23.89
282.476	34.13
282.691	109.91
282.906	48.47
283.122	99.67
283.337	-25.26
283.552	48.47
283.767	9.56
283.983	64.85
284.198	73.04
284.413	30.04
284.628	-2.73
284.843	114
285.058	38.23
285.274	9.56
285.489	50.52
285.704	23.89
285.919	50.52
286.134	42.32
286.349	46.42
286.564	-15.02
286.779	107.86
286.995	-39.59
287.21	60.76
287.425	89.43
287.64	34.13
287.855	91.48
288.07	17.75
288.285	109.91
288.5	38.23
288.715	36.18
288.93	-6.83
289.145	56.66
289.36	54.61
289.575	60.76
289.79	34.13
290.004	-10.92
290.219	-0.68
290.434	44.37
290.649	-76.46
290.864	-21.16
291.079	15.7
291.294	-17.07
291.509	73.04
291.724	36.18
291.938	-33.45
292.153	13.65
292.368	-15.02
292.583	101.72
292.798	19.8
293.012	7.51
293.227	64.85
293.442	-2.73
293.657	21.85
293.871	71
294.086	122.2
294.301	36.18
294.516	46.42
294.73	54.61
294.945	19.8
295.16	50.52
295.374	-6.83
295.589	52.56
295.804	83.28
296.018	34.13
296.233	79.19
296.447	9.56
296.662	36.18
296.877	23.89
297.091	32.08
297.306	5.46
297.52	60.76
297.735	66.9
297.949	81.24
298.164	-0.68
298.378	3.41
298.593	44.37
298.807	44.37
299.022	19.8
299.236	44.37
299.451	7.51
299.665	-6.83
299.88	85.33
300.094	-58.03
300.309	50.52
300.523	-4.78
300.737	66.9
300.952	87.38
301.166	9.56
301.381	32.08
301.595	-25.26
301.809	-10.92
302.024	-6.83
302.238	21.85
302.452	71
302.667	-29.35
302.881	46.42
303.095	13.65
303.309	25.94
303.524	-17.07
303.738	40.28
303.952	52.56
304.166	17.75
304.381	54.61
304.595	40.28
304.809	52.56
305.023	46.42
305.237	-41.64
305.452	19.8
305.666	30.04
305.88	58.71
306.094	107.86
306.308	5.46
306.522	75.09
306.736	32.08
306.95	93.52
307.164	71
307.379	52.56
307.593	13.65
307.807	64.85
308.021	81.24
308.235	85.33
308.449	99.67
308.663	9.56
308.877	114
309.091	34.13
309.305	81.24
309.519	19.8
309.733	23.89
309.947	79.19
310.161	34.13
310.374	40.28
310.588	40.28
310.802	-12.97
311.016	60.76
311.23	-0.68
311.444	36.18
311.658	56.66
311.872	62.8
312.085	9.56
312.299	114
312.513	7.51
312.727	44.37
312.941	25.94
313.154	-4.78
313.368	-29.35
313.582	-19.11
313.796	46.42
314.009	42.32
314.223	52.56
314.437	32.08
314.651	83.28
314.864	-35.5
315.078	-8.87
315.292	58.71
315.505	-8.87
315.719	52.56
315.933	64.85
316.146	38.23
316.36	62.8
316.573	122.2
316.787	66.9
317.001	48.47
317.214	-2.73
317.428	42.32
317.641	25.94
317.855	42.32
318.068	3.41
318.282	56.66
318.495	64.85
318.709	17.75
318.922	46.42
319.136	85.33
319.349	27.99
319.563	-17.07
319.776	9.56
319.99	46.42
320.203	30.04
320.417	71
320.63	48.47
320.843	48.47
321.057	95.57
321.27	58.71
321.483	1.37
321.697	83.28
321.91	17.75
322.124	81.24
322.337	48.47
322.55	40.28
322.763	-25.26
322.977	42.32
323.19	7.51
323.403	32.08
323.617	95.57
323.83	58.71
324.043	32.08
324.256	60.76
324.469	-0.68
324.683	77.14
324.896	30.04
325.109	130.39
325.322	-2.73
325.535	11.61
325.748	-0.68
325.962	-17.07
326.175	62.8
326.388	-2.73
326.601	79.19
326.814	44.37
327.027	9.56
327.24	66.9
327.453	-62.12
327.666	54.61
327.879	101.72
328.092	19.8
328.305	99.67
328.518	-43.69
328.731	46.42
328.944	124.24
329.157	17.75
329.37	77.14
329.583	27.99
329.796	50.52
330.009	-19.11
330.222	93.52
330.435	99.67
330.648	15.7
330.861	25.94
331.073	56.66
331.286	54.61
331.499	23.89
331.712	19.8
331.925	5.46
332.138	30.04
332.35	91.48
332.563	68.95
332.776	64.85
332.989	-6.83
333.202	-12.97
333.414	-23.21
333.627	85.33
333.84	42.32
334.053	68.95
334.265	21.85
334.478	13.65
334.691	25.94
334.903	50.52
335.116	1.37
335.329	81.24
335.541	-15.02
335.754	30.04
335.966	13.65
336.179	-21.16
336.392	17.75
336.604	-15.02
336.817	52.56
337.029	11.61
337.242	75.09
337.454	103.76
337.667	85.33
337.88	77.14
338.092	-19.11
338.305	42.32
338.517	19.8
338.729	52.56
338.942	1.37
339.154	19.8
339.367	62.8
339.579	66.9
339.792	68.95
340.004	77.14
340.217	42.32
340.429	11.61
340.641	11.61
340.854	73.04
341.066	3.41
341.278	62.8
341.491	58.71
341.703	66.9
341.915	1.37
342.128	56.66
342.34	-2.73
342.552	-45.74
342.764	44.37
342.977	36.18
343.189	79.19
343.401	54.61
343.613	68.95
343.826	71
344.038	-0.68
344.25	54.61
344.462	58.71
344.674	60.76
344.886	9.56
345.099	34.13
345.311	36.18
345.523	87.38
345.735	25.94
345.947	40.28
346.159	85.33
346.371	73.04
346.583	13.65
346.795	15.7
347.007	19.8
347.219	109.91
347.431	9.56
347.643	44.37
347.855	44.37
348.067	87.38
348.279	38.23
348.491	54.61
348.703	48.47
348.915	27.99
349.127	32.08
349.339	38.23
349.551	5.46
349.763	30.04
349.975	27.99
350.187	46.42
350.399	89.43
350.61	120.15
350.822	-19.11
351.034	107.86
351.246	23.89
351.458	83.28
351.669	13.65
351.881	62.8
352.093	15.7
352.305	60.76
352.517	-17.07
352.728	-19.11
352.94	19.8
353.152	93.52
353.363	118.1
353.575	83.28
353.787	44.37
353.999	73.04
354.21	89.43
354.422	23.89
354.633	103.76
354.845	-0.68
355.057	66.9
355.268	19.8
355.48	64.85
355.692	56.66
355.903	62.8
356.115	50.52
356.326	-41.64
356.538	60.76
356.749	50.52
356.961	79.19
357.172	48.47
357.384	-23.21
357.595	46.42
357.807	-2.73
358.018	36.18
358.23	48.47
358.441	68.95
358.653	71
358.864	85.33
359.075	56.66
359.287	38.23
359.498	56.66
359.709	-15.02
359.921	40.28
360.132	44.37
360.344	17.75
360.555	79.19
360.766	23.89
360.977	-0.68
361.189	68.95
361.4	40.28
361.611	30.04
361.823	118.1
362.034	75.09
362.245	85.33
362.456	62.8
362.667	-15.02
362.879	3.41
363.09	58.71
363.301	124.24
363.512	34.13
363.723	79.19
363.935	54.61
364.146	87.38
364.357	-2.73
364.568	19.8
364.779	13.65
364.99	42.32
365.201	-21.16
365.412	62.8
365.623	-43.69
365.834	44.37
366.045	25.94
366.256	66.9
366.467	5.46
366.678	40.28
366.889	50.52
367.1	25.94
367.311	77.14
367.522	54.61
367.733	66.9
367.944	1.37
368.155	13.65
368.366	15.7
368.577	19.8
368.788	62.8
368.999	85.33
369.209	54.61
369.42	179.54
369.631	62.8
369.842	-17.07
370.053	13.65
370.264	93.52
370.474	23.89
370.685	52.56
370.896	-12.97
371.107	44.37
371.317	83.28
371.528	52.56
371.739	-10.92
371.95	40.28
372.16	66.9
372.371	13.65
372.582	27.99
372.792	44.37
373.003	-17.07
373.214	60.76
373.424	-31.4
373.635	1.37
373.846	79.19
374.056	36.18
374.267	40.28
374.477	73.04
374.688	48.47
374.898	-0.68
375.109	9.56
375.319	44.37
375.53	71
375.74	21.85
375.951	-8.87
376.161	71
376.372	30.04
376.582	99.67
376.793	62.8
377.003	66.9
377.214	32.08
377.424	77.14
377.635	3.41
377.845	60.76
378.055	68.95
378.266	11.61
378.476	30.04
378.686	52.56
378.897	42.32
379.107	19.8
379.317	27.99
379.528	52.56
379.738	101.72
379.948	64.85
380.158	9.56
380.369	83.28
380.579	21.85
380.789	50.52
380.999	95.57
381.21	5.46
381.42	114
381.63	134.48
381.84	77.14
382.05	85.33
382.261	99.67
382.471	52.56
382.681	11.61
382.891	40.28
383.101	52.56
383.311	-15.02
383.521	44.37
383.731	52.56
383.941	52.56
384.151	48.47
384.361	-12.97
384.571	56.66
384.781	56.66
384.991	165.2
385.201	66.9
385.411	50.52
385.621	73.04
385.831	73.04
386.041	30.04
386.251	-10.92
386.461	87.38
386.671	77.14
386.881	60.76
387.091	-12.97
387.301	-15.02
387.511	118.1
387.72	44.37
387.93	83.28
388.14	81.24
388.35	34.13
388.56	5.46
388.769	60.76
388.979	73.04
389.189	5.46
389.399	58.71
389.609	62.8
389.818	50.52
390.028	116.05
390.238	116.05
390.447	-21.16
390.657	58.71
390.867	11.61
391.076	36.18
391.286	83.28
391.496	93.52
391.705	99.67
391.915	118.1
392.125	42.32
392.334	89.43
392.544	68.95
392.753	60.76
392.963	30.04
393.172	62.8
393.382	52.56
393.591	97.62
393.801	21.85
394.01	87.38
394.22	95.57
394.429	95.57
394.639	44.37
394.848	64.85
395.058	124.24
395.267	71
395.477	109.91
395.686	87.38
395.895	75.09
396.105	62.8
396.314	36.18
396.524	105.81
396.733	34.13
396.942	128.34
397.152	173.39
397.361	97.62
397.57	83.28
397.78	95.57
397.989	89.43
398.198	152.91
398.407	15.7
398.617	99.67
398.826	116.05
399.035	99.67
399.244	154.96
399.453	83.28
399.663	128.34
399.872	142.68
400.081	150.87
400.29	150.87
400.499	89.43
400.708	120.15
400.917	64.85
401.127	54.61
401.336	157.01
401.545	107.86
401.754	134.48
401.963	116.05
402.172	97.62
402.381	107.86
402.59	105.81
402.799	116.05
403.008	144.72
403.217	111.96
403.426	81.24
403.635	9.56
403.844	103.76
404.053	54.61
404.262	111.96
404.471	161.11
404.68	181.59
404.888	128.34
405.097	177.49
405.306	87.38
405.515	167.25
405.724	107.86
405.933	138.58
406.142	177.49
406.35	144.72
406.559	181.59
406.768	134.48
406.977	157.01
407.185	189.78
407.394	216.4
407.603	257.36
407.812	181.59
408.02	144.72
408.229	183.63
408.438	206.16
408.646	146.77
408.855	206.16
409.064	247.12
409.272	220.5
409.481	261.46
409.69	279.89
409.898	259.41
410.107	263.51
410.315	218.45
410.524	329.04
410.733	322.9
410.941	294.22
411.15	294.22
411.358	347.47
411.567	355.66
411.775	283.99
411.984	304.46
412.192	365.9
412.401	382.29
412.609	421.2
412.818	398.67
413.026	429.39
413.234	372.05
413.443	437.58
413.651	480.59
413.86	595.28
414.068	519.5
414.276	572.75
414.485	568.65
414.693	597.32
414.901	607.56
415.11	611.66
415.318	548.17
415.526	646.48
415.734	785.74
415.943	654.67
416.151	769.35
416.359	744.78
416.567	791.88
416.776	785.74
416.984	816.46
417.192	884.04
417.4	855.37
417.608	937.29
417.817	908.62
418.025	929.1
418.233	1054.02
418.441	1056.07
418.649	1054.02
418.857	1183.04
419.065	1193.28
419.273	1107.27
419.481	1164.61
419.689	1316.16
419.897	1373.5
420.105	1430.85
420.313	1436.99
420.521	1338.69
420.729	1445.18
420.937	1559.87
421.145	1547.58
421.353	1727.8
421.561	1770.81
421.769	1711.42
421.977	1815.87
422.185	1762.62
422.393	1955.13
422.601	1930.55
422.809	1905.98
423.017	2049.33
423.224	2170.16
423.432	2198.84
423.64	2202.93
423.848	2305.33
424.056	2327.86
424.263	2379.06
424.471	2436.4
424.679	2528.56
424.887	2725.16
425.094	2780.46
425.302	2688.3
425.51	2981.16
425.718	3046.69
425.925	2989.35
426.133	3179.81
426.341	3329.31
426.548	3556.64
426.756	3427.62
426.964	3677.47
427.171	3616.03
427.379	3802.4
427.586	3933.47
427.794	3886.36
428.001	4115.73
428.209	4453.65
428.417	4277.52
428.624	4508.94
428.832	4627.73
429.039	4644.11
429.247	4523.28
429.454	4975.88
429.662	5461.25
429.869	5082.38
430.076	5287.17
430.284	5299.46
430.491	5455.11
430.699	5811.45
430.906	5727.49
431.114	5801.21
431.321	5963
431.528	6300.92
431.736	6556.91
431.943	6817.01
432.15	6665.46
432.358	6669.55
432.565	7079.15
432.772	7111.91
432.979	7283.94
433.187	7580.9
433.394	7689.44
433.601	8035.55
433.808	8125.66
434.016	8185.05
434.223	8357.08
434.43	8922.32
434.637	8576.21
434.844	9260.23
435.052	9309.38
435.259	9309.38
435.466	9497.8
435.673	9428.17
435.88	10118.33
436.087	10738.87
436.294	10529.97
436.501	10110.14
436.708	10626.23
436.915	10966.19
437.122	11242.67
437.329	11213.99
437.537	11721.89
437.743	11758.75
437.95	11756.71
438.157	12256.41
438.364	12737.68
438.571	12756.11
438.778	12930.19
438.985	13929.6
439.192	13472.9
439.399	13970.56
439.606	13655.17
439.813	14169.21
440.02	15252.59
440.227	15058.03
440.433	14718.07
440.64	15504.49
440.847	15156.33
441.054	15459.43
441.261	16665.69
441.467	16313.44
441.674	16700.5
441.881	17327.18
442.088	17505.35
442.294	17179.73
442.501	17687.62
442.708	18005.06
442.914	18502.72
443.121	19569.71
443.328	18965.56
443.534	20118.56
443.741	19881
443.948	19438.64
444.154	20714.52
444.361	21044.24
444.568	21031.96
444.774	20788.25
444.981	21158.93
445.187	21750.79
445.394	22428.67
445.6	22582.27
445.807	24599.52
446.013	23385.07
446.22	23639.02
446.426	24775.64
446.633	25177.05
446.839	25746.38
447.046	24740.83
447.252	25947.08
447.459	26567.62
447.665	26127.3
447.871	27251.64
448.078	28634.02
448.284	27081.66
448.491	27882.41
448.697	28767.13
448.903	29109.15
449.11	29772.69
449.316	29076.38
449.522	29780.88
449.728	30245.77
449.935	30374.79
450.141	30419.85
450.347	31345.53
450.553	30213
450.76	30876.54
450.966	31867.76
451.172	31609.72
451.378	32332.65
451.584	31261.56
451.791	32379.75
451.997	32142.19
452.203	32725.86
452.409	32746.34
452.615	32502.63
452.821	31185.79
453.027	30868.35
453.233	32609.12
453.44	31732.59
453.646	31652.72
453.852	31970.16
454.058	32619.36
454.264	31787.89
454.47	32220.01
454.676	31404.92
454.882	32111.47
455.088	29739.92
455.294	30045.07
455.5	30700.42
455.705	30618.5
455.911	29135.77
456.117	28726.17
456.323	28457.89
456.529	27220.92
456.735	28128.17
456.941	27390.9
457.147	27139
457.352	26375.11
457.558	25963.47
457.764	26098.63
457.97	25457.62
458.176	25052.12
458.381	24875.99
458.587	23657.45
458.793	24138.72
458.999	22457.34
459.204	24161.25
459.41	23350.26
459.616	21996.55
459.821	21713.93
460.027	21748.75
460.233	21371.92
460.438	19952.68
460.644	20648.99
460.85	19440.68
461.055	19266.61
461.261	19225.65
461.466	17611.85
461.672	17222.73
461.878	18410.56
462.083	17441.87
462.289	16956.5
462.494	16952.4
462.7	16110.69
462.905	15410.28
463.111	16112.74
463.316	16116.83
463.522	15780.96
463.727	16010.34
463.932	15891.55
464.138	15989.86
464.343	15631.46
464.549	14939.25
464.754	15653.99
464.959	15580.26
465.165	15731.81
465.37	14877.81
465.575	14478.46
465.781	14994.54
465.986	15254.64
466.191	14584.95
466.397	14472.31
466.602	13751.43
466.807	14247.04
467.012	14255.23
467.218	13991.04
467.423	13771.91
467.628	13984.9
467.833	14591.09
468.038	13876.35
468.244	13773.96
468.449	14357.63
468.654	13921.41
468.859	13667.46
