Data from USB4F104151__3__11-51-02-592.txt Node

Date: Fri Mar 14 11:51:02 EDT 2025
User: louis
Spectrometer: USB4F10415
Trigger mode: 4
Integration Time (sec): 2.000000E-2
Scans to average: 1
Electric dark correction enabled: true
Nonlinearity correction enabled: false
Boxcar width: 0
XAxis mode: Wavelengths
Number of Pixels in Spectrum: 3648
>>>>>Begin Spectral Data<<<<<
178.204	-91.48
178.424	-91.48
178.644	-91.48
178.864	-38.23
179.084	-105.81
179.304	-19.8
179.524	-1.37
179.744	-71
179.964	-1.37
180.184	8.87
180.404	53.93
180.624	-19.8
180.844	-17.75
181.064	-46.42
181.283	76.46
181.503	31.4
181.723	6.83
181.943	21.16
182.163	41.64
182.383	43.69
182.602	68.27
182.822	90.79
183.042	0.68
183.262	72.36
183.482	105.13
183.701	43.69
183.921	47.79
184.141	96.94
184.361	23.21
184.58	53.93
184.8	0.68
185.02	76.46
185.239	27.31
185.459	33.45
185.679	74.41
185.898	-5.46
186.118	-1.37
186.338	94.89
186.557	101.03
186.777	-15.7
186.997	27.31
187.216	64.17
187.436	37.55
187.655	98.99
187.875	58.03
188.095	-9.56
188.314	6.83
188.534	53.93
188.753	-44.37
188.973	47.79
189.192	86.7
189.412	15.02
189.631	-5.46
189.851	6.83
190.07	121.51
190.29	17.07
190.509	51.88
190.729	33.45
190.948	51.88
191.168	43.69
191.387	12.97
191.607	39.59
191.826	90.79
192.045	17.07
192.265	27.31
192.484	-17.75
192.704	8.87
192.923	51.88
193.142	129.7
193.362	39.59
193.581	68.27
193.8	-52.56
194.02	-40.28
194.239	35.5
194.458	47.79
194.678	51.88
194.897	17.07
195.116	62.12
195.335	0.68
195.555	78.51
195.774	76.46
195.993	107.18
196.212	86.7
196.432	-15.7
196.651	33.45
196.87	35.5
197.089	80.55
197.308	43.69
197.528	96.94
197.747	-11.61
197.966	49.83
198.185	70.31
198.404	23.21
198.623	27.31
198.842	74.41
199.062	88.75
199.281	19.11
199.5	15.02
199.719	31.4
199.938	8.87
200.157	53.93
200.376	29.35
200.595	55.98
200.814	74.41
201.033	15.02
201.252	29.35
201.471	21.16
201.69	82.6
201.909	66.22
202.128	37.55
202.347	-25.94
202.566	-5.46
202.785	68.27
203.004	8.87
203.223	58.03
203.442	4.78
203.661	25.26
203.879	10.92
204.098	21.16
204.317	-7.51
204.536	66.22
204.755	39.59
204.974	117.42
205.193	37.55
205.411	45.74
205.63	12.97
205.849	25.26
206.068	133.8
206.287	23.21
206.505	-11.61
206.724	37.55
206.943	-42.32
207.162	25.26
207.381	82.6
207.599	-27.99
207.818	0.68
208.037	45.74
208.255	72.36
208.474	-1.37
208.693	0.68
208.911	10.92
209.13	-5.46
209.349	49.83
209.567	8.87
209.786	96.94
210.005	51.88
210.223	19.11
210.442	4.78
210.661	92.84
210.879	10.92
211.098	37.55
211.316	35.5
211.535	6.83
211.753	-11.61
211.972	64.17
212.191	39.59
212.409	62.12
212.628	84.65
212.846	17.07
213.065	41.64
213.283	103.08
213.502	15.02
213.72	6.83
213.938	15.02
214.157	55.98
214.375	-15.7
214.594	-15.7
214.812	23.21
215.031	68.27
215.249	35.5
215.467	21.16
215.686	27.31
215.904	-9.56
216.122	10.92
216.341	98.99
216.559	21.16
216.778	33.45
216.996	139.94
217.214	25.26
217.432	-1.37
217.651	70.31
217.869	27.31
218.087	-64.85
218.306	-21.85
218.524	0.68
218.742	37.55
218.96	103.08
219.179	49.83
219.397	39.59
219.615	62.12
219.833	35.5
220.051	33.45
220.27	51.88
220.488	12.97
220.706	41.64
220.924	25.26
221.142	21.16
221.36	96.94
221.578	47.79
221.796	-17.75
222.015	90.79
222.233	10.92
222.451	60.07
222.669	-1.37
222.887	148.14
223.105	-66.9
223.323	43.69
223.541	19.11
223.759	82.6
223.977	58.03
224.195	12.97
224.413	78.51
224.631	37.55
224.849	39.59
225.067	-32.08
225.285	31.4
225.503	12.97
225.721	-7.51
225.939	39.59
226.157	113.32
226.375	-15.7
226.592	0.68
226.81	27.31
227.028	15.02
227.246	90.79
227.464	-9.56
227.682	33.45
227.9	35.5
228.117	-17.75
228.335	33.45
228.553	92.84
228.771	37.55
228.989	115.37
229.206	68.27
229.424	78.51
229.642	78.51
229.86	78.51
230.077	72.36
230.295	49.83
230.513	47.79
230.731	58.03
230.948	12.97
231.166	107.18
231.384	37.55
231.601	27.31
231.819	74.41
232.037	-7.51
232.254	41.64
232.472	66.22
232.689	15.02
232.907	127.66
233.125	-54.61
233.342	60.07
233.56	-36.18
233.777	53.93
233.995	27.31
234.213	78.51
234.43	17.07
234.648	68.27
234.865	25.26
235.083	41.64
235.3	25.26
235.518	76.46
235.735	49.83
235.953	72.36
236.17	66.22
236.388	35.5
236.605	12.97
236.822	123.56
237.04	15.02
237.257	25.26
237.475	39.59
237.692	-17.75
237.909	0.68
238.127	123.56
238.344	41.64
238.562	45.74
238.779	17.07
238.996	4.78
239.214	35.5
239.431	15.02
239.648	64.17
239.865	82.6
240.083	80.55
240.3	53.93
240.517	0.68
240.735	-5.46
240.952	107.18
241.169	60.07
241.386	12.97
241.603	45.74
241.821	62.12
242.038	68.27
242.255	37.55
242.472	60.07
242.689	66.22
242.907	92.84
243.124	45.74
243.341	78.51
243.558	27.31
243.775	27.31
243.992	27.31
244.209	43.69
244.426	45.74
244.643	68.27
244.86	53.93
245.078	62.12
245.295	53.93
245.512	113.32
245.729	-5.46
245.946	25.26
246.163	19.11
246.38	19.11
246.597	0.68
246.814	35.5
247.031	103.08
247.248	43.69
247.464	-30.04
247.681	19.11
247.898	119.46
248.115	27.31
248.332	12.97
248.549	58.03
248.766	51.88
248.983	27.31
249.2	84.65
249.417	98.99
249.633	55.98
249.85	6.83
250.067	29.35
250.284	-13.65
250.501	72.36
250.717	68.27
250.934	21.16
251.151	62.12
251.368	111.27
251.585	37.55
251.801	33.45
252.018	72.36
252.235	51.88
252.451	31.4
252.668	70.31
252.885	98.99
253.102	29.35
253.318	70.31
253.535	-42.32
253.752	12.97
253.968	29.35
254.185	15.02
254.401	96.94
254.618	49.83
254.835	-40.28
255.051	98.99
255.268	123.56
255.484	96.94
255.701	12.97
255.917	23.21
256.134	12.97
256.351	49.83
256.567	27.31
256.784	74.41
257	35.5
257.217	49.83
257.433	113.32
257.65	68.27
257.866	19.11
258.082	27.31
258.299	12.97
258.515	84.65
258.732	41.64
258.948	19.11
259.165	37.55
259.381	72.36
259.597	74.41
259.814	64.17
260.03	6.83
260.246	62.12
260.463	10.92
260.679	21.16
260.895	21.16
261.112	62.12
261.328	43.69
261.544	64.17
261.761	141.99
261.977	117.42
262.193	82.6
262.409	62.12
262.626	55.98
262.842	47.79
263.058	86.7
263.274	60.07
263.49	35.5
263.707	-13.65
263.923	49.83
264.139	29.35
264.355	23.21
264.571	70.31
264.787	0.68
265.004	33.45
265.22	76.46
265.436	41.64
265.652	27.31
265.868	84.65
266.084	8.87
266.3	76.46
266.516	6.83
266.732	68.27
266.948	41.64
267.164	84.65
267.38	-21.85
267.596	121.51
267.812	49.83
268.028	90.79
268.244	-27.99
268.46	68.27
268.676	70.31
268.892	55.98
269.108	-13.65
269.324	23.21
269.54	-46.42
269.756	29.35
269.972	10.92
270.188	64.17
270.403	39.59
270.619	55.98
270.835	60.07
271.051	47.79
271.267	-3.41
271.483	123.56
271.698	72.36
271.914	62.12
272.13	74.41
272.346	31.4
272.562	23.21
272.777	88.75
272.993	55.98
273.209	43.69
273.425	51.88
273.64	8.87
273.856	39.59
274.072	43.69
274.287	21.16
274.503	103.08
274.719	10.92
274.934	64.17
275.15	-48.47
275.366	68.27
275.581	82.6
275.797	-7.51
276.012	84.65
276.228	55.98
276.444	29.35
276.659	121.51
276.875	103.08
277.09	72.36
277.306	64.17
277.521	64.17
277.737	41.64
277.952	70.31
278.168	21.16
278.383	66.22
278.599	68.27
278.814	70.31
279.03	105.13
279.245	113.32
279.461	29.35
279.676	-1.37
279.892	-11.61
280.107	35.5
280.322	47.79
280.538	49.83
280.753	-1.37
280.969	19.11
281.184	37.55
281.399	96.94
281.615	-23.89
281.83	-19.8
282.045	19.11
282.26	-15.7
282.476	17.07
282.691	33.45
282.906	-13.65
283.122	0.68
283.337	-38.23
283.552	107.18
283.767	37.55
283.983	78.51
284.198	55.98
284.413	41.64
284.628	29.35
284.843	10.92
285.058	23.21
285.274	37.55
285.489	-23.89
285.704	31.4
285.919	2.73
286.134	8.87
286.349	33.45
286.564	70.31
286.779	90.79
286.995	45.74
287.21	12.97
287.425	80.55
287.64	27.31
287.855	62.12
288.07	47.79
288.285	103.08
288.5	8.87
288.715	-3.41
288.93	72.36
289.145	21.16
289.36	8.87
289.575	55.98
289.79	-11.61
290.004	8.87
290.219	68.27
290.434	60.07
290.649	4.78
290.864	62.12
291.079	-36.18
291.294	62.12
291.509	27.31
291.724	66.22
291.938	4.78
292.153	37.55
292.368	66.22
292.583	8.87
292.798	37.55
293.012	86.7
293.227	15.02
293.442	51.88
293.657	84.65
293.871	51.88
294.086	35.5
294.301	96.94
294.516	23.21
294.73	-27.99
294.945	76.46
295.16	66.22
295.374	103.08
295.589	29.35
295.804	43.69
296.018	70.31
296.233	74.41
296.447	60.07
296.662	4.78
296.877	121.51
297.091	55.98
297.306	88.75
297.52	33.45
297.735	80.55
297.949	-36.18
298.164	101.03
298.378	37.55
298.593	41.64
298.807	-13.65
299.022	6.83
299.236	82.6
299.451	33.45
299.665	58.03
299.88	19.11
300.094	15.02
300.309	80.55
300.523	76.46
300.737	82.6
300.952	41.64
301.166	88.75
301.381	76.46
301.595	96.94
301.809	53.93
302.024	35.5
302.238	29.35
302.452	49.83
302.667	33.45
302.881	55.98
303.095	70.31
303.309	92.84
303.524	80.55
303.738	51.88
303.952	-32.08
304.166	60.07
304.381	25.26
304.595	141.99
304.809	2.73
305.023	49.83
305.237	55.98
305.452	78.51
305.666	90.79
305.88	66.22
306.094	33.45
306.308	-21.85
306.522	70.31
306.736	-3.41
306.95	88.75
307.164	33.45
307.379	-3.41
307.593	70.31
307.807	109.22
308.021	31.4
308.235	101.03
308.449	35.5
308.663	55.98
308.877	107.18
309.091	47.79
309.305	-1.37
309.519	8.87
309.733	76.46
309.947	-27.99
310.161	45.74
310.374	68.27
310.588	76.46
310.802	23.21
311.016	58.03
311.23	60.07
311.444	-13.65
311.658	25.26
311.872	8.87
312.085	80.55
312.299	-34.13
312.513	55.98
312.727	53.93
312.941	78.51
313.154	47.79
313.368	27.31
313.582	60.07
313.796	29.35
314.009	29.35
314.223	49.83
314.437	51.88
314.651	29.35
314.864	68.27
315.078	39.59
315.292	66.22
315.505	39.59
315.719	94.89
315.933	66.22
316.146	10.92
316.36	25.26
316.573	141.99
316.787	86.7
317.001	21.16
317.214	78.51
317.428	55.98
317.641	8.87
317.855	-5.46
318.068	2.73
318.282	23.21
318.495	2.73
318.709	82.6
318.922	-34.13
319.136	137.9
319.349	25.26
319.563	51.88
319.776	101.03
319.99	96.94
320.203	121.51
320.417	-30.04
320.63	96.94
320.843	47.79
321.057	76.46
321.27	103.08
321.483	49.83
321.697	19.11
321.91	55.98
322.124	66.22
322.337	-19.8
322.55	23.21
322.763	72.36
322.977	84.65
323.19	6.83
323.403	68.27
323.617	64.17
323.83	62.12
324.043	49.83
324.256	25.26
324.469	47.79
324.683	103.08
324.896	94.89
325.109	92.84
325.322	70.31
325.535	92.84
325.748	8.87
325.962	53.93
326.175	41.64
326.388	115.37
326.601	53.93
326.814	33.45
327.027	96.94
327.24	64.17
327.453	-9.56
327.666	8.87
327.879	80.55
328.092	41.64
328.305	53.93
328.518	6.83
328.731	58.03
328.944	72.36
329.157	94.89
329.37	66.22
329.583	76.46
329.796	98.99
330.009	-19.8
330.222	82.6
330.435	35.5
330.648	103.08
330.861	-5.46
331.073	51.88
331.286	17.07
331.499	29.35
331.712	90.79
331.925	10.92
332.138	4.78
332.35	35.5
332.563	53.93
332.776	109.22
332.989	35.5
333.202	49.83
333.414	96.94
333.627	19.11
333.84	82.6
334.053	25.26
334.265	-25.94
334.478	43.69
334.691	29.35
334.903	19.11
335.116	66.22
335.329	12.97
335.541	37.55
335.754	62.12
335.966	4.78
336.179	-5.46
336.392	55.98
336.604	62.12
336.817	49.83
337.029	39.59
337.242	76.46
337.454	-19.8
337.667	35.5
337.88	80.55
338.092	27.31
338.305	45.74
338.517	62.12
338.729	-19.8
338.942	101.03
339.154	-17.75
339.367	31.4
339.579	101.03
339.792	43.69
340.004	58.03
340.217	86.7
340.429	60.07
340.641	15.02
340.854	31.4
341.066	25.26
341.278	86.7
341.491	82.6
341.703	55.98
341.915	12.97
342.128	60.07
342.34	8.87
342.552	51.88
342.764	45.74
342.977	33.45
343.189	92.84
343.401	62.12
343.613	2.73
343.826	68.27
344.038	70.31
344.25	21.16
344.462	72.36
344.674	27.31
344.886	53.93
345.099	76.46
345.311	66.22
345.523	72.36
345.735	76.46
345.947	86.7
346.159	41.64
346.371	74.41
346.583	10.92
346.795	86.7
347.007	17.07
347.219	141.99
347.431	8.87
347.643	125.61
347.855	72.36
348.067	92.84
348.279	37.55
348.491	94.89
348.703	4.78
348.915	27.31
349.127	55.98
349.339	90.79
349.551	35.5
349.763	31.4
349.975	27.31
350.187	88.75
350.399	25.26
350.61	90.79
350.822	103.08
351.034	62.12
351.246	10.92
351.458	27.31
351.669	70.31
351.881	107.18
352.093	80.55
352.305	109.22
352.517	8.87
352.728	45.74
352.94	39.59
353.152	105.13
353.363	33.45
353.575	74.41
353.787	39.59
353.999	45.74
354.21	68.27
354.422	29.35
354.633	70.31
354.845	144.04
355.057	45.74
355.268	127.66
355.48	35.5
355.692	41.64
355.903	84.65
356.115	64.17
356.326	55.98
356.538	131.75
356.749	66.22
356.961	45.74
357.172	-17.75
357.384	4.78
357.595	96.94
357.807	62.12
358.018	51.88
358.23	49.83
358.441	64.17
358.653	51.88
358.864	-38.23
359.075	66.22
359.287	66.22
359.498	-50.52
359.709	86.7
359.921	0.68
360.132	68.27
360.344	15.02
360.555	92.84
360.766	164.52
360.977	101.03
361.189	119.46
361.4	64.17
361.611	156.33
361.823	45.74
362.034	113.32
362.245	-25.94
362.456	76.46
362.667	58.03
362.879	60.07
363.09	70.31
363.301	64.17
363.512	2.73
363.723	64.17
363.935	74.41
364.146	119.46
364.357	62.12
364.568	94.89
364.779	2.73
364.99	-5.46
365.201	-9.56
365.412	98.99
365.623	68.27
365.834	10.92
366.045	49.83
366.256	43.69
366.467	55.98
366.678	-1.37
366.889	70.31
367.1	43.69
367.311	98.99
367.522	70.31
367.733	78.51
367.944	4.78
368.155	-15.7
368.366	15.02
368.577	64.17
368.788	2.73
368.999	80.55
369.209	29.35
369.42	53.93
369.631	105.13
369.842	21.16
370.053	64.17
370.264	113.32
370.474	80.55
370.685	88.75
370.896	123.56
371.107	68.27
371.317	72.36
371.528	0.68
371.739	135.85
371.95	62.12
372.16	62.12
372.371	-3.41
372.582	80.55
372.792	29.35
373.003	49.83
373.214	43.69
373.424	29.35
373.635	111.27
373.846	84.65
374.056	49.83
374.267	47.79
374.477	119.46
374.688	121.51
374.898	25.26
375.109	25.26
375.319	39.59
375.53	98.99
375.74	109.22
375.951	74.41
376.161	41.64
376.372	60.07
376.582	76.46
376.793	80.55
377.003	-7.51
377.214	41.64
377.424	101.03
377.635	111.27
377.845	-13.65
378.055	111.27
378.266	33.45
378.476	86.7
378.686	96.94
378.897	92.84
379.107	15.02
379.317	111.27
379.528	88.75
379.738	-9.56
379.948	2.73
380.158	47.79
380.369	90.79
380.579	84.65
380.789	64.17
380.999	86.7
381.21	64.17
381.42	115.37
381.63	47.79
381.84	90.79
382.05	84.65
382.261	37.55
382.471	80.55
382.681	12.97
382.891	86.7
383.101	66.22
383.311	66.22
383.521	39.59
383.731	-15.7
383.941	39.59
384.151	62.12
384.361	35.5
384.571	49.83
384.781	12.97
384.991	58.03
385.201	98.99
385.411	58.03
385.621	64.17
385.831	0.68
386.041	72.36
386.251	60.07
386.461	150.18
386.671	29.35
386.881	70.31
387.091	86.7
387.301	4.78
387.511	43.69
387.72	15.02
387.93	78.51
388.14	92.84
388.35	12.97
388.56	146.09
388.769	107.18
388.979	25.26
389.189	86.7
389.399	55.98
389.609	64.17
389.818	43.69
390.028	107.18
390.238	43.69
390.447	72.36
390.657	19.11
390.867	51.88
391.076	53.93
391.286	70.31
391.496	49.83
391.705	47.79
391.915	84.65
392.125	90.79
392.334	17.07
392.544	88.75
392.753	84.65
392.963	68.27
393.172	-27.99
393.382	113.32
393.591	125.61
393.801	92.84
394.01	166.57
394.22	123.56
394.429	88.75
394.639	74.41
394.848	33.45
395.058	105.13
395.267	72.36
395.477	74.41
395.686	84.65
395.895	129.7
396.105	148.14
396.314	45.74
396.524	135.85
396.733	90.79
396.942	51.88
397.152	101.03
397.361	125.61
397.57	103.08
397.78	66.22
397.989	125.61
398.198	154.28
398.407	101.03
398.617	141.99
398.826	109.22
399.035	152.23
399.244	172.71
399.453	101.03
399.663	115.37
399.872	113.32
400.081	113.32
400.29	182.95
400.499	94.89
400.708	129.7
400.917	123.56
401.127	64.17
401.336	45.74
401.545	96.94
401.754	88.75
401.963	117.42
402.172	115.37
402.381	178.86
402.59	94.89
402.799	76.46
403.008	115.37
403.217	152.23
403.426	166.57
403.635	152.23
403.844	96.94
404.053	172.71
404.262	90.79
404.471	207.53
404.68	141.99
404.888	148.14
405.097	66.22
405.306	150.18
405.515	178.86
405.724	123.56
405.933	125.61
406.142	170.66
406.35	150.18
406.559	162.47
406.768	150.18
406.977	178.86
407.185	168.62
407.394	168.62
407.603	221.86
407.812	207.53
408.02	191.14
408.229	258.73
408.438	125.61
408.646	160.42
408.855	228.01
409.064	248.49
409.272	187.05
409.481	297.64
409.69	275.11
409.898	326.31
410.107	225.96
410.315	189.1
410.524	307.88
410.733	297.64
410.941	326.31
411.15	342.69
411.358	316.07
411.567	285.35
411.775	377.51
411.984	336.55
412.192	332.45
412.401	305.83
412.609	416.42
412.818	397.99
413.026	471.72
413.234	508.58
413.443	420.52
413.651	428.71
413.86	441
414.068	498.34
414.276	610.98
414.485	602.79
414.693	600.74
414.901	615.07
415.11	606.88
415.318	623.27
415.526	570.02
415.734	610.98
415.943	666.27
416.151	762.53
416.359	694.94
416.567	731.81
416.776	797.34
416.984	821.92
417.192	903.84
417.4	889.5
417.608	770.72
417.817	836.25
418.025	873.12
418.233	948.89
418.441	989.85
418.649	955.04
418.857	1104.54
419.065	1041.05
419.273	1151.64
419.481	1198.74
419.689	1262.23
419.897	1213.08
420.105	1282.71
420.313	1340.05
420.521	1331.86
420.729	1364.63
420.937	1477.27
421.145	1536.66
421.353	1538.71
421.561	1702.54
421.769	1641.11
421.977	1753.74
422.185	1751.7
422.393	1874.57
422.601	1876.62
422.809	2058.89
423.017	2046.6
423.224	2036.36
423.432	2118.28
423.64	2126.47
423.848	2282.12
424.056	2280.07
424.263	2388.61
424.471	2507.4
424.679	2497.16
424.887	2570.88
425.094	2724.48
425.302	2701.95
425.51	2869.89
425.718	2830.98
425.925	2876.03
426.133	3023.48
426.341	3127.93
426.548	3287.67
426.756	3281.53
426.964	3261.05
427.171	3394.17
427.379	3740.27
427.586	3607.16
427.794	3721.84
428.001	3994.22
428.209	4076.14
428.417	4139.63
428.624	4534.89
428.832	4491.88
429.039	4422.25
429.247	4407.91
429.454	4723.3
429.662	4936.29
429.869	4907.62
430.076	5071.45
430.284	5010.01
430.491	5167.71
430.699	5462.62
430.906	5425.75
431.114	5642.84
431.321	5894.74
431.528	5802.58
431.736	6171.21
431.943	6373.96
432.15	6363.72
432.358	6339.15
432.565	6660.68
432.772	6765.12
432.979	7129.66
433.187	7168.57
433.394	7326.27
433.601	7633.46
433.808	7817.78
434.016	7737.91
434.223	8090.16
434.43	8501.8
434.637	8305.2
434.844	8665.64
435.052	9046.56
435.259	8804.9
435.466	9067.04
435.673	8897.06
435.88	9613.85
436.087	9970.19
436.294	9937.43
436.501	9744.92
436.708	10123.79
436.915	10359.31
437.122	10758.66
437.329	10803.72
437.537	11127.3
437.743	11141.63
437.95	11166.21
438.157	11778.55
438.364	12288.5
438.571	12243.44
438.778	12380.65
438.985	13165.03
439.192	12737
439.399	13269.47
439.606	12896.74
439.813	13763.03
440.02	14418.38
440.227	14227.92
440.433	13949.4
440.64	14524.88
440.847	14453.2
441.054	15047.11
441.261	15919.54
441.467	15755.71
441.674	15980.98
441.881	16556.46
442.088	16581.04
442.294	16263.6
442.501	16613.81
442.708	17011.11
442.914	17834.39
443.121	18418.07
443.328	18211.22
443.534	19216.77
443.741	18637.2
443.948	18465.17
444.154	19880.32
444.361	19818.88
444.568	19995
444.774	19831.16
444.981	20070.78
445.187	20625.78
445.394	21590.37
445.6	21385.57
445.807	23361.86
446.013	22643.03
446.22	22604.11
446.426	23793.98
446.633	23787.84
446.839	24592.69
447.046	23576.9
447.252	24777.01
447.459	25004.33
447.665	25145.64
447.871	26114.33
448.078	26872.08
448.284	25983.26
448.491	26589.46
448.697	27689.22
448.903	27744.52
449.11	27920.64
449.316	27447.56
449.522	28449.02
449.728	28979.44
449.935	29108.46
450.141	28872.95
450.347	29817.06
450.553	28588.28
450.76	29130.99
450.966	30275.8
451.172	29731.04
451.378	30494.94
451.584	29835.49
451.791	30585.05
451.997	30484.7
452.203	30912.72
452.409	31070.42
452.615	31070.42
452.821	30001.38
453.027	29454.57
453.233	31074.51
453.44	29837.54
453.646	30173.41
453.852	30263.52
454.058	31072.46
454.264	29751.52
454.47	30537.94
454.676	29782.24
454.882	30636.25
455.088	28104.96
455.294	28522.74
455.5	28967.15
455.705	29513.96
455.911	27965.7
456.117	27552.01
456.323	27549.96
456.529	25778.47
456.735	27218.19
456.941	26243.35
457.147	25768.23
457.352	25192.75
457.558	24590.64
457.764	24916.27
457.97	24387.89
458.176	23914.81
458.381	23839.04
458.587	22509.91
458.793	22741.33
458.999	21481.83
459.204	22808.91
459.41	22481.24
459.616	20875.63
459.821	20783.47
460.027	20859.24
460.233	20482.42
460.438	19548.54
460.644	19874.17
460.85	18708.88
461.055	18493.84
461.261	18153.88
461.466	16785.83
461.672	16525.74
461.878	17662.37
462.083	16513.45
462.289	16232.88
462.494	16058.81
462.7	15260.1
462.905	14858.7
463.111	15741.37
463.316	15534.53
463.522	15462.85
463.727	15229.38
463.932	15034.82
464.138	14805.45
464.343	15202.75
464.549	14600.65
464.754	15124.93
464.959	15036.87
465.165	14748.11
465.37	14193.11
465.575	14051.8
465.781	14322.13
465.986	14571.98
466.191	13773.27
466.397	13627.87
466.602	12831.21
466.807	13711.83
467.012	13535.71
467.218	13562.33
467.423	13183.46
467.628	13445.6
467.833	13797.85
