Data from USB4F104151__32__11-51-38-730.txt Node

Date: Fri Mar 14 11:51:38 EDT 2025
User: louis
Spectrometer: USB4F10415
Trigger mode: 4
Integration Time (sec): 2.000000E-2
Scans to average: 1
Electric dark correction enabled: true
Nonlinearity correction enabled: false
Boxcar width: 0
XAxis mode: Wavelengths
Number of Pixels in Spectrum: 3648
>>>>>Begin Spectral Data<<<<<
178.204	-2.39
178.424	-2.39
178.644	-2.39
178.864	-127.32
179.084	-53.59
179.304	52.91
179.524	-18.77
179.744	-88.4
179.964	57
180.184	48.81
180.404	-20.82
180.624	38.57
180.844	-45.4
181.064	-29.01
181.283	36.52
181.503	-96.6
181.723	65.19
181.943	-59.73
182.163	81.58
182.383	59.05
182.602	22.19
182.822	57
183.042	87.72
183.262	13.99
183.482	95.91
183.701	18.09
183.921	30.38
184.141	11.95
184.361	32.43
184.58	11.95
184.8	57
185.02	-0.34
185.239	38.57
185.459	42.67
185.679	102.06
185.898	-22.87
186.118	87.72
186.338	18.09
186.557	52.91
186.777	30.38
186.997	38.57
187.216	71.34
187.436	-10.58
187.655	44.71
187.875	44.71
188.095	81.58
188.314	83.63
188.534	50.86
188.753	36.52
188.973	-45.4
189.192	71.34
189.412	65.19
189.631	100.01
189.851	13.99
190.07	50.86
190.29	-37.2
190.509	11.95
190.729	9.9
190.948	-39.25
191.168	108.2
191.387	120.49
191.607	9.9
191.826	50.86
192.045	9.9
192.265	-14.68
192.484	57
192.704	36.52
192.923	22.19
193.142	110.25
193.362	61.1
193.581	89.77
193.8	22.19
194.02	59.05
194.239	54.95
194.458	28.33
194.678	24.23
194.897	40.62
195.116	-6.49
195.335	22.19
195.555	-18.77
195.774	54.95
195.993	85.67
196.212	1.71
196.432	-96.6
196.651	34.47
196.87	52.91
197.089	52.91
197.308	-0.34
197.528	50.86
197.747	-18.77
197.966	34.47
198.185	50.86
198.404	67.24
198.623	46.76
198.842	30.38
199.062	7.85
199.281	50.86
199.5	38.57
199.719	108.2
199.938	3.75
200.157	-12.63
200.376	20.14
200.595	100.01
200.814	-4.44
201.033	42.67
201.252	34.47
201.471	91.82
201.69	73.39
201.909	34.47
202.128	18.09
202.347	18.09
202.566	-4.44
202.785	5.8
203.004	-2.39
203.223	52.91
203.442	16.04
203.661	-12.63
203.879	71.34
204.098	38.57
204.317	5.8
204.536	-45.4
204.755	65.19
204.974	106.15
205.193	-8.53
205.411	5.8
205.63	40.62
205.849	18.09
206.068	97.96
206.287	13.99
206.505	24.23
206.724	13.99
206.943	-63.83
207.162	-33.11
207.381	1.71
207.599	42.67
207.818	20.14
208.037	7.85
208.255	20.14
208.474	81.58
208.693	-0.34
208.911	50.86
209.13	13.99
209.349	9.9
209.567	-22.87
209.786	97.96
210.005	52.91
210.223	-2.39
210.442	-12.63
210.661	-14.68
210.879	48.81
211.098	22.19
211.316	57
211.535	102.06
211.753	48.81
211.972	48.81
212.191	36.52
212.409	22.19
212.628	-6.49
212.846	3.75
213.065	30.38
213.283	48.81
213.502	-8.53
213.72	42.67
213.938	18.09
214.157	34.47
214.375	22.19
214.594	7.85
214.812	26.28
215.031	85.67
215.249	5.8
215.467	20.14
215.686	-22.87
215.904	65.19
216.122	-4.44
216.341	114.34
216.559	75.43
216.778	42.67
216.996	-8.53
217.214	1.71
217.432	-18.77
217.651	11.95
217.869	-22.87
218.087	65.19
218.306	32.43
218.524	18.09
218.742	46.76
218.96	20.14
219.179	5.8
219.397	54.95
219.615	-20.82
219.833	81.58
220.051	-8.53
220.27	42.67
220.488	28.33
220.706	120.49
220.924	71.34
221.142	16.04
221.36	26.28
221.578	3.75
221.796	9.9
222.015	30.38
222.233	28.33
222.451	50.86
222.669	-10.58
222.887	-24.92
223.105	-14.68
223.323	18.09
223.541	-14.68
223.759	36.52
223.977	59.05
224.195	-41.3
224.413	18.09
224.631	97.96
224.849	34.47
225.067	52.91
225.285	-18.77
225.503	-8.53
225.721	-49.49
225.939	85.67
226.157	63.15
226.375	44.71
226.592	50.86
226.81	-8.53
227.028	87.72
227.246	-20.82
227.464	11.95
227.682	50.86
227.9	9.9
228.117	1.71
228.335	-0.34
228.553	32.43
228.771	-8.53
228.989	26.28
229.206	42.67
229.424	28.33
229.642	18.09
229.86	-14.68
230.077	85.67
230.295	102.06
230.513	50.86
230.731	52.91
230.948	91.82
231.166	34.47
231.384	28.33
231.601	34.47
231.819	83.63
232.037	36.52
232.254	40.62
232.472	30.38
232.689	-10.58
232.907	77.48
233.125	5.8
233.342	34.47
233.56	22.19
233.777	1.71
233.995	30.38
234.213	-39.25
234.43	40.62
234.648	46.76
234.865	24.23
235.083	54.95
235.3	16.04
235.518	54.95
235.735	79.53
235.953	22.19
236.17	-43.35
236.388	20.14
236.605	-86.36
236.822	54.95
237.04	59.05
237.257	-16.73
237.475	77.48
237.692	54.95
237.909	54.95
238.127	83.63
238.344	24.23
238.562	34.47
238.779	-33.11
238.996	24.23
239.214	-16.73
239.431	22.19
239.648	-4.44
239.865	28.33
240.083	-0.34
240.3	16.04
240.517	1.71
240.735	16.04
240.952	63.15
241.169	145.06
241.386	1.71
241.603	20.14
241.821	-10.58
242.038	44.71
242.255	46.76
242.472	50.86
242.689	38.57
242.907	-4.44
243.124	69.29
243.341	36.52
243.558	28.33
243.775	11.95
243.992	-31.06
244.209	48.81
244.426	-4.44
244.643	50.86
244.86	-35.16
245.078	1.71
245.295	-0.34
245.512	32.43
245.729	11.95
245.946	61.1
246.163	-35.16
246.38	83.63
246.597	-63.83
246.814	-33.11
247.031	44.71
247.248	106.15
247.464	40.62
247.681	9.9
247.898	54.95
248.115	42.67
248.332	13.99
248.549	52.91
248.766	54.95
248.983	100.01
249.2	-16.73
249.417	93.87
249.633	9.9
249.85	44.71
250.067	20.14
250.284	-14.68
250.501	-43.35
250.717	95.91
250.934	20.14
251.151	5.8
251.368	-26.96
251.585	71.34
251.801	46.76
252.018	48.81
252.235	54.95
252.451	-4.44
252.668	28.33
252.885	42.67
253.102	83.63
253.318	7.85
253.535	32.43
253.752	9.9
253.968	52.91
254.185	9.9
254.401	-84.31
254.618	24.23
254.835	-0.34
255.051	48.81
255.268	46.76
255.484	32.43
255.701	26.28
255.917	20.14
256.134	-12.63
256.351	79.53
256.567	11.95
256.784	46.76
257	22.19
257.217	-47.44
257.433	57
257.65	13.99
257.866	9.9
258.082	5.8
258.299	22.19
258.515	3.75
258.732	9.9
258.948	67.24
259.165	40.62
259.381	34.47
259.597	3.75
259.814	13.99
260.03	-0.34
260.246	63.15
260.463	42.67
260.679	16.04
260.895	24.23
261.112	11.95
261.328	71.34
261.544	75.43
261.761	81.58
261.977	-12.63
262.193	11.95
262.409	52.91
262.626	85.67
262.842	36.52
263.058	28.33
263.274	65.19
263.49	38.57
263.707	57
263.923	34.47
264.139	40.62
264.355	97.96
264.571	36.52
264.787	54.95
265.004	124.58
265.22	52.91
265.436	9.9
265.652	67.24
265.868	38.57
266.084	42.67
266.3	22.19
266.516	-84.31
266.732	7.85
266.948	-18.77
267.164	38.57
267.38	63.15
267.596	18.09
267.812	59.05
268.028	75.43
268.244	5.8
268.46	85.67
268.676	57
268.892	112.3
269.108	28.33
269.324	1.71
269.54	-47.44
269.756	-0.34
269.972	-37.2
270.188	73.39
270.403	85.67
270.619	18.09
270.835	40.62
271.051	30.38
271.267	-20.82
271.483	93.87
271.698	34.47
271.914	20.14
272.13	16.04
272.346	50.86
272.562	95.91
272.777	34.47
272.993	40.62
273.209	102.06
273.425	26.28
273.64	44.71
273.856	67.24
274.072	132.78
274.287	57
274.503	5.8
274.719	26.28
274.934	83.63
275.15	-61.78
275.366	67.24
275.581	11.95
275.797	63.15
276.012	9.9
276.228	67.24
276.444	11.95
276.659	34.47
276.875	-33.11
277.09	18.09
277.306	69.29
277.521	65.19
277.737	13.99
277.952	63.15
278.168	26.28
278.383	-33.11
278.599	-4.44
278.814	-4.44
279.03	30.38
279.245	83.63
279.461	16.04
279.676	87.72
279.892	11.95
280.107	-0.34
280.322	-26.96
280.538	79.53
280.753	-16.73
280.969	30.38
281.184	36.52
281.399	-35.16
281.615	67.24
281.83	38.57
282.045	-47.44
282.26	13.99
282.476	26.28
282.691	81.58
282.906	40.62
283.122	79.53
283.337	32.43
283.552	18.09
283.767	9.9
283.983	79.53
284.198	13.99
284.413	46.76
284.628	67.24
284.843	38.57
285.058	50.86
285.274	5.8
285.489	34.47
285.704	18.09
285.919	7.85
286.134	44.71
286.349	54.95
286.564	3.75
286.779	46.76
286.995	93.87
287.21	-24.92
287.425	59.05
287.64	13.99
287.855	48.81
288.07	-43.35
288.285	54.95
288.5	65.19
288.715	32.43
288.93	110.25
289.145	-37.2
289.36	-16.73
289.575	1.71
289.79	3.75
290.004	24.23
290.219	75.43
290.434	7.85
290.649	34.47
290.864	-59.73
291.079	67.24
291.294	9.9
291.509	-16.73
291.724	36.52
291.938	44.71
292.153	46.76
292.368	36.52
292.583	100.01
292.798	38.57
293.012	87.72
293.227	48.81
293.442	16.04
293.657	26.28
293.871	110.25
294.086	79.53
294.301	79.53
294.516	75.43
294.73	54.95
294.945	-45.4
295.16	32.43
295.374	-8.53
295.589	57
295.804	13.99
296.018	18.09
296.233	38.57
296.447	36.52
296.662	-76.12
296.877	52.91
297.091	38.57
297.306	-20.82
297.52	-12.63
297.735	75.43
297.949	46.76
298.164	67.24
298.378	67.24
298.593	7.85
298.807	-14.68
299.022	34.47
299.236	38.57
299.451	13.99
299.665	24.23
299.88	16.04
300.094	-2.39
300.309	32.43
300.523	73.39
300.737	40.62
300.952	13.99
301.166	-16.73
301.381	24.23
301.595	63.15
301.809	65.19
302.024	32.43
302.238	-20.82
302.452	11.95
302.667	34.47
302.881	24.23
303.095	54.95
303.309	87.72
303.524	69.29
303.738	-55.64
303.952	5.8
304.166	46.76
304.381	-8.53
304.595	91.82
304.809	-16.73
305.023	85.67
305.237	30.38
305.452	81.58
305.666	9.9
305.88	61.1
306.094	87.72
306.308	13.99
306.522	75.43
306.736	81.58
306.95	32.43
307.164	104.11
307.379	16.04
307.593	61.1
307.807	36.52
308.021	5.8
308.235	22.19
308.449	-2.39
308.663	69.29
308.877	102.06
309.091	3.75
309.305	3.75
309.519	16.04
309.733	32.43
309.947	-12.63
310.161	61.1
310.374	-14.68
310.588	44.71
310.802	57
311.016	77.48
311.23	-2.39
311.444	26.28
311.658	9.9
311.872	16.04
312.085	95.91
312.299	16.04
312.513	26.28
312.727	26.28
312.941	-6.49
313.154	11.95
313.368	81.58
313.582	54.95
313.796	48.81
314.009	-0.34
314.223	61.1
314.437	61.1
314.651	5.8
314.864	-69.97
315.078	67.24
315.292	75.43
315.505	20.14
315.719	28.33
315.933	54.95
316.146	59.05
316.36	38.57
316.573	24.23
316.787	95.91
317.001	75.43
317.214	75.43
317.428	-22.87
317.641	104.11
317.855	-14.68
318.068	7.85
318.282	-20.82
318.495	42.67
318.709	48.81
318.922	-74.07
319.136	36.52
319.349	34.47
319.563	13.99
319.776	52.91
319.99	5.8
320.203	28.33
320.417	67.24
320.63	46.76
320.843	97.96
321.057	46.76
321.27	65.19
321.483	59.05
321.697	110.25
321.91	44.71
322.124	9.9
322.337	-33.11
322.55	46.76
322.763	95.91
322.977	13.99
323.19	-35.16
323.403	34.47
323.617	57
323.83	77.48
324.043	20.14
324.256	-10.58
324.469	32.43
324.683	7.85
324.896	5.8
325.109	81.58
325.322	18.09
325.535	7.85
325.748	83.63
325.962	63.15
326.175	34.47
326.388	97.96
326.601	65.19
326.814	-14.68
327.027	28.33
327.24	110.25
327.453	-2.39
327.666	71.34
327.879	67.24
328.092	79.53
328.305	9.9
328.518	83.63
328.731	28.33
328.944	118.44
329.157	59.05
329.37	9.9
329.583	3.75
329.796	124.58
330.009	42.67
330.222	26.28
330.435	13.99
330.648	36.52
330.861	32.43
331.073	73.39
331.286	106.15
331.499	32.43
331.712	16.04
331.925	-8.53
332.138	3.75
332.35	69.29
332.563	59.05
332.776	16.04
332.989	44.71
333.202	26.28
333.414	34.47
333.627	77.48
333.84	44.71
334.053	36.52
334.265	5.8
334.478	24.23
334.691	32.43
334.903	3.75
335.116	67.24
335.329	95.91
335.541	44.71
335.754	95.91
335.966	-18.77
336.179	54.95
336.392	11.95
336.604	-29.01
336.817	124.58
337.029	48.81
337.242	-33.11
337.454	91.82
337.667	48.81
337.88	81.58
338.092	44.71
338.305	46.76
338.517	40.62
338.729	67.24
338.942	34.47
339.154	79.53
339.367	13.99
339.579	16.04
339.792	89.77
340.004	30.38
340.217	42.67
340.429	89.77
340.641	50.86
340.854	-2.39
341.066	48.81
341.278	63.15
341.491	-8.53
341.703	44.71
341.915	-4.44
342.128	118.44
342.34	44.71
342.552	50.86
342.764	24.23
342.977	65.19
343.189	65.19
343.401	61.1
343.613	-31.06
343.826	54.95
344.038	-0.34
344.25	63.15
344.462	104.11
344.674	65.19
344.886	61.1
345.099	38.57
345.311	63.15
345.523	16.04
345.735	87.72
345.947	81.58
346.159	52.91
346.371	-4.44
346.583	63.15
346.795	134.82
347.007	30.38
347.219	-22.87
347.431	9.9
347.643	89.77
347.855	-26.96
348.067	71.34
348.279	46.76
348.491	73.39
348.703	32.43
348.915	11.95
349.127	30.38
349.339	5.8
349.551	32.43
349.763	130.73
349.975	54.95
350.187	65.19
350.399	46.76
350.61	128.68
350.822	32.43
351.034	26.28
351.246	63.15
351.458	5.8
351.669	38.57
351.881	61.1
352.093	42.67
352.305	54.95
352.517	-10.58
352.728	30.38
352.94	5.8
353.152	26.28
353.363	13.99
353.575	63.15
353.787	91.82
353.999	54.95
354.21	81.58
354.422	3.75
354.633	89.77
354.845	50.86
355.057	106.15
355.268	130.73
355.48	28.33
355.692	11.95
355.903	32.43
356.115	28.33
356.326	57
356.538	42.67
356.749	-2.39
356.961	100.01
357.172	-20.82
357.384	13.99
357.595	44.71
357.807	48.81
358.018	54.95
358.23	38.57
358.441	59.05
358.653	81.58
358.864	-6.49
359.075	50.86
359.287	93.87
359.498	100.01
359.709	38.57
359.921	79.53
360.132	97.96
360.344	77.48
360.555	42.67
360.766	24.23
360.977	95.91
361.189	69.29
361.4	30.38
361.611	54.95
361.823	122.54
362.034	20.14
362.245	40.62
362.456	-16.73
362.667	65.19
362.879	73.39
363.09	69.29
363.301	13.99
363.512	106.15
363.723	89.77
363.935	57
364.146	46.76
364.357	28.33
364.568	11.95
364.779	32.43
364.99	110.25
365.201	54.95
365.412	97.96
365.623	40.62
365.834	118.44
366.045	28.33
366.256	-12.63
366.467	22.19
366.678	16.04
366.889	13.99
367.1	50.86
367.311	16.04
367.522	7.85
367.733	110.25
367.944	26.28
368.155	34.47
368.366	61.1
368.577	114.34
368.788	22.19
368.999	20.14
369.209	30.38
369.42	122.54
369.631	34.47
369.842	65.19
370.053	83.63
370.264	-16.73
370.474	93.87
370.685	18.09
370.896	104.11
371.107	-2.39
371.317	75.43
371.528	65.19
371.739	42.67
371.95	-10.58
372.16	59.05
372.371	-20.82
372.582	7.85
372.792	69.29
373.003	118.44
373.214	93.87
373.424	48.81
373.635	42.67
373.846	122.54
374.056	89.77
374.267	48.81
374.477	50.86
374.688	22.19
374.898	-14.68
375.109	69.29
375.319	48.81
375.53	63.15
375.74	54.95
375.951	-2.39
376.161	57
376.372	38.57
376.582	-10.58
376.793	69.29
377.003	48.81
377.214	132.78
377.424	138.92
377.635	42.67
377.845	52.91
378.055	34.47
378.266	-18.77
378.476	100.01
378.686	3.75
378.897	126.63
379.107	44.71
379.317	3.75
379.528	85.67
379.738	13.99
379.948	-2.39
380.158	134.82
380.369	73.39
380.579	85.67
380.789	30.38
380.999	71.34
381.21	145.06
381.42	112.3
381.63	67.24
381.84	57
382.05	30.38
382.261	-29.01
382.471	44.71
382.681	36.52
382.891	5.8
383.101	95.91
383.311	3.75
383.521	44.71
383.731	-24.92
383.941	1.71
384.151	69.29
384.361	87.72
384.571	110.25
384.781	7.85
384.991	34.47
385.201	91.82
385.411	102.06
385.621	52.91
385.831	132.78
386.041	124.58
386.251	34.47
386.461	91.82
386.671	59.05
386.881	87.72
387.091	95.91
387.301	100.01
387.511	20.14
387.72	61.1
387.93	104.11
388.14	120.49
388.35	81.58
388.56	-43.35
388.769	91.82
388.979	50.86
389.189	81.58
389.399	77.48
389.609	36.52
389.818	87.72
390.028	71.34
390.238	77.48
390.447	-2.39
390.657	79.53
390.867	89.77
391.076	36.52
391.286	65.19
391.496	100.01
391.705	48.81
391.915	-0.34
392.125	40.62
392.334	54.95
392.544	81.58
392.753	32.43
392.963	77.48
393.172	52.91
393.382	50.86
393.591	97.96
393.801	128.68
394.01	57
394.22	106.15
394.429	50.86
394.639	120.49
394.848	116.39
395.058	57
395.267	87.72
395.477	132.78
395.686	65.19
395.895	71.34
396.105	161.45
396.314	100.01
396.524	38.57
396.733	1.71
396.942	63.15
397.152	122.54
397.361	89.77
397.57	87.72
397.78	186.02
397.989	116.39
398.198	173.74
398.407	177.83
398.617	100.01
398.826	91.82
399.035	65.19
399.244	149.16
399.453	104.11
399.663	95.91
399.872	61.1
400.081	100.01
400.29	97.96
400.499	95.91
400.708	186.02
400.917	59.05
401.127	120.49
401.336	124.58
401.545	93.87
401.754	85.67
401.963	132.78
402.172	136.87
402.381	95.91
402.59	61.1
402.799	95.91
403.008	149.16
403.217	97.96
403.426	151.21
403.635	130.73
403.844	173.74
404.053	149.16
404.262	155.3
404.471	155.3
404.68	118.44
404.888	157.35
405.097	153.26
405.306	192.17
405.515	212.65
405.724	173.74
405.933	177.83
406.142	202.41
406.35	163.5
406.559	159.4
406.768	183.98
406.977	147.11
407.185	169.64
407.394	229.03
407.603	245.41
407.812	179.88
408.02	313
408.229	208.55
408.438	235.18
408.646	241.32
408.855	229.03
409.064	280.23
409.272	212.65
409.481	276.13
409.69	296.61
409.898	327.33
410.107	409.25
410.315	376.48
410.524	306.85
410.733	284.33
410.941	267.94
411.15	364.2
411.358	343.72
411.567	405.16
411.775	421.54
411.984	460.45
412.192	415.4
412.401	442.02
412.609	464.55
412.818	521.89
413.026	558.75
413.234	519.84
413.443	448.16
413.651	581.28
413.86	589.47
414.068	663.2
414.276	648.86
414.485	560.8
414.693	671.39
414.901	743.07
415.11	634.53
415.318	730.78
415.526	806.56
415.734	771.74
415.943	900.76
416.151	874.14
416.359	769.69
416.567	939.68
416.776	1003.16
416.984	1109.66
417.192	1015.45
417.4	978.59
417.608	1011.36
417.817	970.4
418.025	1121.95
418.233	1167
418.441	1128.09
418.649	1291.93
418.857	1279.64
419.065	1373.85
419.273	1369.75
419.481	1443.48
419.689	1525.4
419.897	1615.51
420.105	1625.75
420.313	1556.11
420.521	1738.38
420.729	1656.47
420.937	1765.01
421.145	1752.72
421.353	1887.89
421.561	2027.15
421.769	1926.8
421.977	2027.15
422.185	2119.31
422.393	2246.28
422.601	2342.53
422.809	2346.63
423.017	2315.91
423.224	2559.62
423.432	2666.11
423.64	2537.09
423.848	2870.91
424.056	2709.12
424.263	2950.78
424.471	3059.32
424.679	3051.13
424.887	3165.82
425.094	3272.31
425.302	3255.93
425.51	3550.84
425.718	3643
425.925	3534.45
426.133	3776.11
426.341	3812.98
426.548	4034.16
426.756	3972.72
426.964	4197.99
427.171	4447.85
427.379	4445.8
427.586	4515.43
427.794	4673.12
428.001	4922.98
428.209	5109.34
428.417	4875.87
428.624	5217.88
428.832	5295.71
429.039	5351
429.247	5365.34
429.454	5756.5
429.662	6151.76
429.869	5838.42
430.076	6202.96
430.284	6188.62
430.491	6391.37
430.699	6665.8
430.906	6626.89
431.114	6772.29
431.321	7009.86
431.528	7278.14
431.736	7773.75
431.943	7896.63
432.15	7499.32
432.358	7906.87
432.565	8275.5
432.772	8263.21
432.979	8605.22
433.187	8822.31
433.394	8807.97
433.601	9487.9
433.808	9246.24
434.016	9526.81
434.223	10065.43
434.43	10382.86
434.637	10239.5
434.844	10866.18
435.052	11042.31
435.259	11236.86
435.466	11240.96
435.673	11030.02
435.88	12013.04
436.087	12545.52
436.294	12223.98
436.501	12078.58
436.708	12336.62
436.915	12819.94
437.122	13250.02
437.329	13503.96
437.537	13530.59
437.743	14073.3
437.95	13991.38
438.157	14679.5
438.364	14912.97
438.571	14867.91
438.778	15107.52
438.985	16477.62
439.192	15850.94
439.399	16602.54
439.606	16025.01
439.813	16813.48
440.02	17960.34
440.227	17829.27
440.433	17503.65
440.64	17755.55
440.847	18009.5
441.054	18255.25
441.261	19465.6
441.467	19037.58
441.674	19828.09
441.881	20475.25
442.088	20245.88
442.294	20088.18
442.501	20661.62
442.708	21130.6
442.914	21843.29
443.121	22785.36
443.328	22164.82
443.534	24073.53
443.741	22949.2
443.948	22760.78
444.154	24657.2
444.361	24237.37
444.568	24423.73
444.774	24841.52
444.981	24921.39
445.187	25619.75
445.394	26623.25
445.6	26135.84
445.807	28701.94
446.013	27385.1
446.22	28394.75
446.426	29320.43
446.633	29596.9
446.839	30627.03
447.046	29281.52
447.252	30606.55
447.459	30874.84
447.665	30940.37
447.871	32091.33
448.078	33526.96
448.284	31528.14
448.491	32734.39
448.697	34208.93
448.903	34579.61
449.11	34860.18
449.316	34094.24
449.522	34520.22
449.728	35515.53
449.935	35830.92
450.141	35904.65
450.347	36818.04
450.553	35824.78
450.76	35822.73
450.966	37362.8
451.172	36433.02
451.378	37512.3
451.584	36990.07
451.791	37979.24
451.997	37547.12
452.203	38521.95
452.409	38364.26
452.615	38372.45
452.821	36985.97
453.027	36623.48
453.233	38284.39
453.44	37000.31
453.646	37127.28
453.852	37653.61
454.058	37874.79
454.264	36578.43
454.47	37682.28
454.676	37078.13
454.882	37991.53
455.088	34925.72
455.294	35067.03
455.5	35447.95
455.705	36295.81
455.911	34899.09
456.117	34102.43
456.323	33348.78
456.529	31904.96
456.735	32986.29
456.941	32249.02
457.147	32009.41
457.352	31073.49
457.558	30571.74
457.764	30455
457.97	30215.39
458.176	29445.35
458.381	29385.96
458.587	28108.03
458.793	28282.11
458.999	26440.98
459.204	28390.65
459.41	27585.8
459.616	25679.14
459.821	26115.36
460.027	25908.51
460.233	25214.25
460.438	24167.74
460.644	24225.08
460.85	22732.11
461.055	22902.09
461.261	23027.02
461.466	21050.73
461.672	20237.69
461.878	21931.36
462.083	20475.25
462.289	20166.01
462.494	19799.42
462.7	18976.14
462.905	18515.34
463.111	19336.58
463.316	19078.54
463.522	18759.05
463.727	18967.95
463.932	18460.05
464.138	18281.88
464.343	18492.82
464.549	17976.73
464.754	18685.33
464.959	18156.95
465.165	18253.2
465.37	17608.09
465.575	17237.41
465.781	17888.67
465.986	17411.49
466.191	17182.12
466.397	16856.49
466.602	16035.25
466.807	16547.25
467.012	16645.55
467.218	16442.8
467.423	16246.19
467.628	16465.33
467.833	17057.19
468.038	16498.09
468.244	16289.2
