Data from USB4F104151__74__11-52-40-861.txt Node

Date: Fri Mar 14 11:52:40 EDT 2025
User: louis
Spectrometer: USB4F10415
Trigger mode: 4
Integration Time (sec): 2.000000E-2
Scans to average: 1
Electric dark correction enabled: true
Nonlinearity correction enabled: false
Boxcar width: 0
XAxis mode: Wavelengths
Number of Pixels in Spectrum: 3648
>>>>>Begin Spectral Data<<<<<
178.204	-23.21
178.424	-23.21
178.644	-23.21
178.864	-39.59
179.084	-80.55
179.304	-17.07
179.524	-10.92
179.744	17.75
179.964	21.85
180.184	-12.97
180.404	7.51
180.624	23.89
180.844	34.13
181.064	13.65
181.283	5.46
181.503	-66.22
181.723	-17.07
181.943	-33.45
182.163	23.89
182.383	-23.21
182.602	87.38
182.822	66.9
183.042	17.75
183.262	-8.87
183.482	21.85
183.701	-70.31
183.921	54.61
184.141	7.51
184.361	21.85
184.58	-0.68
184.8	-0.68
185.02	17.75
185.239	44.37
185.459	-15.02
185.679	-0.68
185.898	-31.4
186.118	9.56
186.338	50.52
186.557	25.94
186.777	34.13
186.997	-49.83
187.216	-2.73
187.436	50.52
187.655	-10.92
187.875	56.66
188.095	-41.64
188.314	85.33
188.534	54.61
188.753	25.94
188.973	-27.31
189.192	93.52
189.412	17.75
189.631	81.24
189.851	42.32
190.07	66.9
190.29	30.04
190.509	40.28
190.729	-12.97
190.948	-10.92
191.168	58.71
191.387	50.52
191.607	56.66
191.826	71
192.045	-51.88
192.265	73.04
192.484	-19.11
192.704	44.37
192.923	21.85
193.142	23.89
193.362	9.56
193.581	-12.97
193.8	40.28
194.02	48.47
194.239	36.18
194.458	30.04
194.678	-47.79
194.897	-6.83
195.116	21.85
195.335	52.56
195.555	30.04
195.774	-43.69
195.993	64.85
196.212	7.51
196.432	42.32
196.651	50.52
196.87	-15.02
197.089	85.33
197.308	-37.55
197.528	-4.78
197.747	-47.79
197.966	-68.27
198.185	-0.68
198.404	-105.13
198.623	-2.73
198.842	1.37
199.062	-6.83
199.281	134.48
199.5	-6.83
199.719	13.65
199.938	32.08
200.157	25.94
200.376	-33.45
200.595	25.94
200.814	15.7
201.033	-6.83
201.252	42.32
201.471	-41.64
201.69	25.94
201.909	46.42
202.128	56.66
202.347	60.76
202.566	-10.92
202.785	30.04
203.004	5.46
203.223	58.71
203.442	-6.83
203.661	-41.64
203.879	17.75
204.098	-4.78
204.317	-0.68
204.536	-8.87
204.755	11.61
204.974	-10.92
205.193	-41.64
205.411	48.47
205.63	3.41
205.849	97.62
206.068	23.89
206.287	-4.78
206.505	-4.78
206.724	11.61
206.943	1.37
207.162	-0.68
207.381	34.13
207.599	42.32
207.818	-4.78
208.037	50.52
208.255	32.08
208.474	83.28
208.693	3.41
208.911	73.04
209.13	23.89
209.349	40.28
209.567	-53.93
209.786	19.8
210.005	-4.78
210.223	34.13
210.442	13.65
210.661	-33.45
210.879	48.47
211.098	19.8
211.316	-21.16
211.535	7.51
211.753	-23.21
211.972	52.56
212.191	-23.21
212.409	3.41
212.628	38.23
212.846	54.61
213.065	-15.02
213.283	46.42
213.502	11.61
213.72	-23.21
213.938	3.41
214.157	5.46
214.375	-12.97
214.594	-37.55
214.812	-4.78
215.031	-6.83
215.249	54.61
215.467	48.47
215.686	-23.21
215.904	3.41
216.122	44.37
216.341	142.68
216.559	62.8
216.778	64.85
216.996	38.23
217.214	7.51
217.432	30.04
217.651	25.94
217.869	40.28
218.087	50.52
218.306	21.85
218.524	1.37
218.742	-60.07
218.96	27.99
219.179	83.28
219.397	-2.73
219.615	44.37
219.833	1.37
220.051	42.32
220.27	-29.35
220.488	66.9
220.706	17.75
220.924	-17.07
221.142	34.13
221.36	-12.97
221.578	44.37
221.796	34.13
222.015	-64.17
222.233	44.37
222.451	25.94
222.669	50.52
222.887	34.13
223.105	21.85
223.323	7.51
223.541	-6.83
223.759	-8.87
223.977	36.18
224.195	-4.78
224.413	40.28
224.631	17.75
224.849	48.47
225.067	9.56
225.285	-2.73
225.503	-49.83
225.721	11.61
225.939	68.95
226.157	-23.21
226.375	34.13
226.592	13.65
226.81	-15.02
227.028	13.65
227.246	87.38
227.464	83.28
227.682	44.37
227.9	-51.88
228.117	46.42
228.335	30.04
228.553	-0.68
228.771	-4.78
228.989	46.42
229.206	-8.87
229.424	27.99
229.642	-33.45
229.86	62.8
230.077	25.94
230.295	42.32
230.513	-53.93
230.731	71
230.948	-4.78
231.166	21.85
231.384	3.41
231.601	7.51
231.819	68.95
232.037	-6.83
232.254	11.61
232.472	5.46
232.689	-10.92
232.907	30.04
233.125	-6.83
233.342	15.7
233.56	1.37
233.777	-6.83
233.995	81.24
234.213	44.37
234.43	-39.59
234.648	-4.78
234.865	-27.31
235.083	19.8
235.3	-0.68
235.518	15.7
235.735	62.8
235.953	73.04
236.17	13.65
236.388	58.71
236.605	-4.78
236.822	9.56
237.04	44.37
237.257	-23.21
237.475	1.37
237.692	21.85
237.909	17.75
238.127	75.09
238.344	1.37
238.562	-29.35
238.779	7.51
238.996	36.18
239.214	3.41
239.431	42.32
239.648	-41.64
239.865	15.7
240.083	-19.11
240.3	54.61
240.517	23.89
240.735	-0.68
240.952	50.52
241.169	87.38
241.386	1.37
241.603	-39.59
241.821	7.51
242.038	-19.11
242.255	30.04
242.472	-78.51
242.689	34.13
242.907	50.52
243.124	-10.92
243.341	30.04
243.558	5.46
243.775	7.51
243.992	54.61
244.209	-6.83
244.426	27.99
244.643	13.65
244.86	-17.07
245.078	52.56
245.295	5.46
245.512	38.23
245.729	-33.45
245.946	-25.26
246.163	21.85
246.38	58.71
246.597	130.39
246.814	30.04
247.031	13.65
247.248	48.47
247.464	40.28
247.681	13.65
247.898	-45.74
248.115	36.18
248.332	7.51
248.549	89.43
248.766	36.18
248.983	13.65
249.2	-8.87
249.417	62.8
249.633	17.75
249.85	-23.21
250.067	79.19
250.284	15.7
250.501	25.94
250.717	-17.07
250.934	-37.55
251.151	50.52
251.368	25.94
251.585	46.42
251.801	52.56
252.018	-74.41
252.235	-25.26
252.451	17.75
252.668	9.56
252.885	73.04
253.102	36.18
253.318	17.75
253.535	-10.92
253.752	-17.07
253.968	-12.97
254.185	-8.87
254.401	-41.64
254.618	5.46
254.835	-19.11
255.051	105.81
255.268	58.71
255.484	-17.07
255.701	19.8
255.917	-21.16
256.134	9.56
256.351	-29.35
256.567	-19.11
256.784	81.24
257	15.7
257.217	-37.55
257.433	25.94
257.65	54.61
257.866	7.51
258.082	21.85
258.299	54.61
258.515	-96.94
258.732	21.85
258.948	-29.35
259.165	21.85
259.381	62.8
259.597	50.52
259.814	46.42
260.03	27.99
260.246	7.51
260.463	-60.07
260.679	38.23
260.895	42.32
261.112	15.7
261.328	-51.88
261.544	-25.26
261.761	27.99
261.977	40.28
262.193	-60.07
262.409	46.42
262.626	38.23
262.842	-47.79
263.058	-23.21
263.274	44.37
263.49	27.99
263.707	58.71
263.923	-4.78
264.139	5.46
264.355	-27.31
264.571	68.95
264.787	68.95
265.004	40.28
265.22	-25.26
265.436	-2.73
265.652	-17.07
265.868	48.47
266.084	30.04
266.3	56.66
266.516	-33.45
266.732	-15.02
266.948	-4.78
267.164	27.99
267.38	-2.73
267.596	79.19
267.812	30.04
268.028	23.89
268.244	-23.21
268.46	44.37
268.676	30.04
268.892	15.7
269.108	7.51
269.324	-45.74
269.54	54.61
269.756	-6.83
269.972	-15.02
270.188	21.85
270.403	15.7
270.619	85.33
270.835	15.7
271.051	13.65
271.267	62.8
271.483	11.61
271.698	5.46
271.914	30.04
272.13	25.94
272.346	-35.5
272.562	71
272.777	25.94
272.993	23.89
273.209	48.47
273.425	-17.07
273.64	-94.89
273.856	13.65
274.072	-15.02
274.287	-37.55
274.503	9.56
274.719	68.95
274.934	38.23
275.15	38.23
275.366	13.65
275.581	1.37
275.797	1.37
276.012	-27.31
276.228	50.52
276.444	-10.92
276.659	9.56
276.875	-47.79
277.09	15.7
277.306	54.61
277.521	11.61
277.737	34.13
277.952	30.04
278.168	11.61
278.383	-37.55
278.599	32.08
278.814	36.18
279.03	-29.35
279.245	73.04
279.461	-8.87
279.676	25.94
279.892	62.8
280.107	-15.02
280.322	32.08
280.538	3.41
280.753	-2.73
280.969	62.8
281.184	-10.92
281.399	42.32
281.615	-8.87
281.83	3.41
282.045	9.56
282.26	13.65
282.476	13.65
282.691	83.28
282.906	-29.35
283.122	5.46
283.337	1.37
283.552	-15.02
283.767	27.99
283.983	-23.21
284.198	-41.64
284.413	48.47
284.628	7.51
284.843	32.08
285.058	19.8
285.274	9.56
285.489	-12.97
285.704	19.8
285.919	30.04
286.134	-31.4
286.349	44.37
286.564	36.18
286.779	-0.68
286.995	66.9
287.21	-15.02
287.425	50.52
287.64	19.8
287.855	7.51
288.07	15.7
288.285	25.94
288.5	-21.16
288.715	54.61
288.93	13.65
289.145	5.46
289.36	15.7
289.575	21.85
289.79	66.9
290.004	60.76
290.219	17.75
290.434	-4.78
290.649	25.94
290.864	44.37
291.079	68.95
291.294	38.23
291.509	17.75
291.724	107.86
291.938	-4.78
292.153	-8.87
292.368	5.46
292.583	56.66
292.798	30.04
293.012	85.33
293.227	-35.5
293.442	-6.83
293.657	46.42
293.871	32.08
294.086	48.47
294.301	64.85
294.516	64.85
294.73	15.7
294.945	-0.68
295.16	-31.4
295.374	142.68
295.589	32.08
295.804	25.94
296.018	73.04
296.233	27.99
296.447	50.52
296.662	54.61
296.877	-35.5
297.091	54.61
297.306	40.28
297.52	-27.31
297.735	27.99
297.949	62.8
298.164	124.24
298.378	25.94
298.593	40.28
298.807	3.41
299.022	-6.83
299.236	91.48
299.451	-15.02
299.665	-8.87
299.88	77.14
300.094	-51.88
300.309	9.56
300.523	52.56
300.737	9.56
300.952	36.18
301.166	99.67
301.381	34.13
301.595	60.76
301.809	9.56
302.024	-23.21
302.238	-27.31
302.452	40.28
302.667	-23.21
302.881	3.41
303.095	68.95
303.309	30.04
303.524	73.04
303.738	19.8
303.952	-25.26
304.166	11.61
304.381	-10.92
304.595	-0.68
304.809	-15.02
305.023	36.18
305.237	-23.21
305.452	21.85
305.666	-15.02
305.88	120.15
306.094	25.94
306.308	40.28
306.522	150.87
306.736	60.76
306.95	66.9
307.164	13.65
307.379	-21.16
307.593	46.42
307.807	66.9
308.021	-0.68
308.235	64.85
308.449	23.89
308.663	-31.4
308.877	71
309.091	-2.73
309.305	68.95
309.519	42.32
309.733	60.76
309.947	-21.16
310.161	58.71
310.374	23.89
310.588	40.28
310.802	27.99
311.016	60.76
311.23	-17.07
311.444	-19.11
311.658	17.75
311.872	66.9
312.085	7.51
312.299	1.37
312.513	3.41
312.727	34.13
312.941	-41.64
313.154	101.72
313.368	44.37
313.582	9.56
313.796	-15.02
314.009	-4.78
314.223	89.43
314.437	38.23
314.651	-12.97
314.864	27.99
315.078	27.99
315.292	32.08
315.505	17.75
315.719	15.7
315.933	25.94
316.146	93.52
316.36	1.37
316.573	58.71
316.787	-10.92
317.001	46.42
317.214	-17.07
317.428	44.37
317.641	-33.45
317.855	32.08
318.068	36.18
318.282	68.95
318.495	46.42
318.709	34.13
318.922	-21.16
319.136	34.13
319.349	118.1
319.563	50.52
319.776	17.75
319.99	-33.45
320.203	27.99
320.417	62.8
320.63	64.85
320.843	11.61
321.057	97.62
321.27	27.99
321.483	36.18
321.697	46.42
321.91	73.04
322.124	7.51
322.337	50.52
322.55	-45.74
322.763	40.28
322.977	17.75
323.19	42.32
323.403	19.8
323.617	30.04
323.83	68.95
324.043	11.61
324.256	44.37
324.469	-15.02
324.683	11.61
324.896	32.08
325.109	-27.31
325.322	-6.83
325.535	34.13
325.748	19.8
325.962	27.99
326.175	7.51
326.388	27.99
326.601	38.23
326.814	73.04
327.027	9.56
327.24	52.56
327.453	-23.21
327.666	34.13
327.879	-19.11
328.092	54.61
328.305	64.85
328.518	11.61
328.731	-23.21
328.944	93.52
329.157	-12.97
329.37	3.41
329.583	46.42
329.796	79.19
330.009	13.65
330.222	5.46
330.435	-21.16
330.648	9.56
330.861	52.56
331.073	44.37
331.286	17.75
331.499	54.61
331.712	62.8
331.925	36.18
332.138	25.94
332.35	-12.97
332.563	34.13
332.776	54.61
332.989	-19.11
333.202	-12.97
333.414	11.61
333.627	99.67
333.84	-53.93
334.053	15.7
334.265	7.51
334.478	11.61
334.691	-80.55
334.903	89.43
335.116	-62.12
335.329	30.04
335.541	30.04
335.754	87.38
335.966	34.13
336.179	-17.07
336.392	-10.92
336.604	11.61
336.817	77.14
337.029	42.32
337.242	17.75
337.454	50.52
337.667	-12.97
337.88	89.43
338.092	46.42
338.305	34.13
338.517	7.51
338.729	50.52
338.942	52.56
339.154	32.08
339.367	40.28
339.579	36.18
339.792	-39.59
340.004	114
340.217	32.08
340.429	79.19
340.641	-4.78
340.854	38.23
341.066	-8.87
341.278	87.38
341.491	83.28
341.703	-6.83
341.915	-37.55
342.128	34.13
342.34	34.13
342.552	27.99
342.764	34.13
342.977	-6.83
343.189	77.14
343.401	73.04
343.613	-41.64
343.826	60.76
344.038	21.85
344.25	40.28
344.462	-31.4
344.674	36.18
344.886	44.37
345.099	40.28
345.311	71
345.523	85.33
345.735	15.7
345.947	52.56
346.159	11.61
346.371	9.56
346.583	-35.5
346.795	44.37
347.007	9.56
347.219	-12.97
347.431	23.89
347.643	-29.35
347.855	-21.16
348.067	27.99
348.279	-15.02
348.491	-2.73
348.703	1.37
348.915	-25.26
349.127	-15.02
349.339	-6.83
349.551	-58.03
349.763	64.85
349.975	44.37
350.187	99.67
350.399	3.41
350.61	25.94
350.822	68.95
351.034	77.14
351.246	-27.31
351.458	-4.78
351.669	32.08
351.881	32.08
352.093	95.57
352.305	83.28
352.517	34.13
352.728	109.91
352.94	-23.21
353.152	13.65
353.363	36.18
353.575	40.28
353.787	60.76
353.999	111.96
354.21	68.95
354.422	19.8
354.633	5.46
354.845	17.75
355.057	-47.79
355.268	58.71
355.48	99.67
355.692	71
355.903	50.52
356.115	-19.11
356.326	1.37
356.538	38.23
356.749	50.52
356.961	32.08
357.172	-0.68
357.384	27.99
357.595	77.14
357.807	-4.78
358.018	1.37
358.23	-21.16
358.441	27.99
358.653	48.47
358.864	11.61
359.075	109.91
359.287	5.46
359.498	-15.02
359.709	-21.16
359.921	-17.07
360.132	-10.92
360.344	50.52
360.555	-25.26
360.766	142.68
360.977	27.99
361.189	81.24
361.4	83.28
361.611	58.71
361.823	68.95
362.034	38.23
362.245	-29.35
362.456	-33.45
362.667	58.71
362.879	19.8
363.09	68.95
363.301	73.04
363.512	66.9
363.723	-29.35
363.935	42.32
364.146	23.89
364.357	5.46
364.568	68.95
364.779	15.7
364.99	9.56
365.201	15.7
365.412	68.95
365.623	-15.02
365.834	56.66
366.045	17.75
366.256	66.9
366.467	15.7
366.678	23.89
366.889	21.85
367.1	9.56
367.311	34.13
367.522	-25.26
367.733	32.08
367.944	-12.97
368.155	3.41
368.366	27.99
368.577	56.66
368.788	50.52
368.999	-2.73
369.209	-53.93
369.42	97.62
369.631	19.8
369.842	7.51
370.053	21.85
370.264	81.24
370.474	95.57
370.685	9.56
370.896	11.61
371.107	95.57
371.317	13.65
371.528	13.65
371.739	38.23
371.95	27.99
372.16	68.95
372.371	93.52
372.582	50.52
372.792	-0.68
373.003	83.28
373.214	50.52
373.424	9.56
373.635	11.61
373.846	36.18
374.056	58.71
374.267	56.66
374.477	19.8
374.688	56.66
374.898	44.37
375.109	46.42
375.319	-0.68
375.53	71
375.74	136.53
375.951	107.86
376.161	-29.35
376.372	54.61
376.582	5.46
376.793	23.89
377.003	1.37
377.214	-37.55
377.424	25.94
377.635	25.94
377.845	11.61
378.055	15.7
378.266	1.37
378.476	42.32
378.686	46.42
378.897	58.71
379.107	38.23
379.317	95.57
379.528	34.13
379.738	-0.68
379.948	-33.45
380.158	15.7
380.369	27.99
380.579	15.7
380.789	107.86
380.999	40.28
381.21	91.48
381.42	48.47
381.63	-25.26
381.84	140.63
382.05	44.37
382.261	-12.97
382.471	27.99
382.681	25.94
382.891	83.28
383.101	54.61
383.311	40.28
383.521	77.14
383.731	25.94
383.941	13.65
384.151	97.62
384.361	-2.73
384.571	103.76
384.781	38.23
384.991	30.04
385.201	83.28
385.411	27.99
385.621	50.52
385.831	30.04
386.041	38.23
386.251	-39.59
386.461	42.32
386.671	56.66
386.881	36.18
387.091	21.85
387.301	60.76
387.511	-10.92
387.72	30.04
387.93	23.89
388.14	40.28
388.35	44.37
388.56	77.14
388.769	17.75
388.979	42.32
389.189	-6.83
389.399	56.66
389.609	5.46
389.818	95.57
390.028	7.51
390.238	40.28
390.447	64.85
390.657	-23.21
390.867	89.43
391.076	32.08
391.286	13.65
391.496	66.9
391.705	21.85
391.915	30.04
392.125	50.52
392.334	50.52
392.544	62.8
392.753	68.95
392.963	13.65
393.172	75.09
393.382	-12.97
393.591	5.46
393.801	15.7
394.01	73.04
394.22	56.66
394.429	27.99
394.639	23.89
394.848	21.85
395.058	52.56
395.267	87.38
395.477	54.61
395.686	107.86
395.895	52.56
396.105	58.71
396.314	60.76
396.524	66.9
396.733	1.37
396.942	64.85
397.152	44.37
397.361	32.08
397.57	111.96
397.78	87.38
397.989	32.08
398.198	56.66
398.407	68.95
398.617	40.28
398.826	54.61
399.035	17.75
399.244	91.48
399.453	56.66
399.663	68.95
399.872	126.29
400.081	46.42
400.29	42.32
400.499	21.85
400.708	42.32
400.917	60.76
401.127	97.62
401.336	71
401.545	189.78
401.754	101.72
401.963	32.08
402.172	60.76
402.381	83.28
402.59	30.04
402.799	116.05
403.008	56.66
403.217	134.48
403.426	75.09
403.635	81.24
403.844	103.76
404.053	97.62
404.262	56.66
404.471	38.23
404.68	134.48
404.888	109.91
405.097	23.89
405.306	136.53
405.515	91.48
405.724	68.95
405.933	46.42
406.142	83.28
406.35	89.43
406.559	161.11
406.768	38.23
406.977	105.81
407.185	148.82
407.394	48.47
407.603	154.96
407.812	124.24
408.02	154.96
408.229	95.57
408.438	179.54
408.646	140.63
408.855	150.87
409.064	144.72
409.272	130.39
409.481	130.39
409.69	111.96
409.898	165.2
410.107	247.12
410.315	271.7
410.524	169.3
410.733	169.3
410.941	116.05
411.15	165.2
411.358	152.91
411.567	238.93
411.775	286.03
411.984	283.98
412.192	265.55
412.401	331.09
412.609	275.79
412.818	312.66
413.026	333.14
413.234	300.37
413.443	279.89
413.651	365.9
413.86	353.62
414.068	314.7
414.276	449.87
414.485	363.86
414.693	380.24
414.901	363.86
415.11	427.34
415.318	384.34
415.526	394.58
415.734	449.87
415.943	456.01
416.151	466.25
416.359	494.93
416.567	429.39
416.776	519.5
416.984	537.93
417.192	570.7
417.4	646.48
417.608	574.8
417.817	550.22
418.025	519.5
418.233	640.33
418.441	589.13
418.649	669
418.857	748.87
419.065	802.12
419.273	703.82
419.481	771.4
419.689	869.7
419.897	918.86
420.105	859.46
420.313	886.09
420.521	953.67
420.729	869.7
420.937	1027.4
421.145	1027.4
421.353	978.25
421.561	1103.17
421.769	1135.94
421.977	1133.89
422.185	1283.39
422.393	1267.01
422.601	1324.35
422.809	1328.45
423.017	1279.3
423.224	1420.61
423.432	1422.66
423.64	1465.66
423.848	1510.72
424.056	1561.92
424.263	1643.84
424.471	1652.03
424.679	1715.52
424.887	1768.76
425.094	1828.15
425.302	1817.91
425.51	1922.36
425.718	1897.78
425.925	1965.37
426.133	2106.68
426.341	2108.73
426.548	2274.61
426.756	2170.16
426.964	2387.25
427.171	2358.58
427.379	2460.98
427.586	2538.8
427.794	2518.32
428.001	2684.2
428.209	2712.88
428.417	2710.83
428.624	2985.26
428.832	2977.06
429.039	2932.01
429.247	2987.3
429.454	3259.68
429.662	3548.45
429.869	3251.49
430.076	3427.62
430.284	3462.43
430.491	3482.91
430.699	3753.24
430.906	3955.99
431.114	3693.85
431.321	3816.73
431.528	3804.44
431.736	4199.7
431.943	4410.64
432.15	4322.58
432.358	4400.4
432.565	4705.55
432.772	4554
432.979	4803.85
433.187	4932.87
433.394	4797.71
433.601	5143.81
433.808	5348.61
434.016	5213.45
434.223	5307.65
434.43	5721.34
434.637	5635.33
434.844	5891.32
435.052	6155.51
435.259	6036.73
435.466	6245.62
435.673	6026.49
435.88	6552.82
436.087	6747.37
436.294	6849.77
436.501	6724.85
436.708	6788.33
436.915	6960.36
437.122	7435.49
437.329	7335.14
437.537	7363.81
437.743	7810.27
437.95	7597.28
438.157	7978.2
438.364	8215.77
438.571	8359.13
438.778	8373.46
438.985	9247.94
439.192	8584.4
439.399	8979.66
439.606	8639.7
439.813	9174.22
440.02	9866.43
440.227	9786.56
440.433	9602.24
440.64	9776.32
440.847	9864.38
441.054	9964.73
441.261	10667.19
441.467	10597.56
441.674	10865.84
441.881	11105.45
442.088	11437.22
442.294	11265.19
442.501	11412.65
442.708	11572.39
442.914	12086.43
443.121	12522.65
443.328	12289.18
443.534	13022.35
443.741	12893.33
443.948	12594.33
444.154	13350.03
444.361	13491.34
444.568	13503.62
444.774	13550.73
444.981	13769.86
445.187	14304.38
445.394	14716.02
445.6	14410.87
445.807	15899.75
446.013	15242.35
446.22	15576.17
446.426	15928.42
446.633	15948.9
446.839	16931.92
447.046	16157.79
447.252	17097.81
447.459	16819.28
447.665	17167.44
447.871	17933.38
448.078	18715.7
448.284	17695.82
448.491	18060.35
448.697	18924.6
448.903	19026.99
449.11	19246.13
449.316	18846.77
449.522	19211.31
449.728	19737.64
449.935	19979.3
450.141	20032.55
450.347	20356.13
450.553	19665.96
450.76	20087.84
450.966	20749.34
451.172	20440.09
451.378	20841.5
451.584	20720.67
451.791	21439.5
451.997	21050.39
452.203	21435.41
452.409	21414.93
452.615	21328.91
452.821	20741.14
453.027	20292.64
453.233	21492.75
453.44	20558.88
453.646	20745.24
453.852	20927.51
454.058	21074.96
454.264	20544.54
454.47	21101.59
454.676	20694.04
454.882	21285.9
455.088	19500.08
455.294	19629.1
455.5	20055.08
455.705	20132.9
455.911	19246.13
456.117	19055.67
456.323	19057.71
456.529	17652.81
456.735	18594.87
456.941	17941.57
457.147	18091.07
457.352	17304.65
457.558	17222.73
457.764	17007.7
457.97	16735.32
458.176	16452.7
458.381	16491.61
458.587	15844.45
458.793	15625.32
458.999	14890.1
459.204	16032.86
459.41	15514.73
459.616	14447.74
459.821	14402.68
460.027	14496.89
460.233	14351.48
460.438	13593.73
460.644	13534.34
460.85	12899.47
461.055	12878.99
461.261	12627.09
461.466	11644.07
461.672	11371.69
461.878	12399.77
462.083	11412.65
462.289	11201.71
462.494	11082.92
462.7	10611.89
462.905	10310.84
463.111	10675.38
463.316	10658.99
463.522	10409.14
463.727	10468.53
463.932	10536.12
464.138	10278.07
464.343	10306.74
464.549	9993.4
464.754	10405.05
464.959	10269.88
465.165	10290.36
465.37	9829.57
465.575	9469.12
465.781	9872.57
465.986	9999.55
466.191	9696.45
466.397	9540.8
466.602	9059.53
466.807	9419.97
467.012	9278.66
467.218	9344.2
467.423	9213.13
467.628	9186.51
467.833	9684.16
468.038	9321.67
468.244	9055.44
468.449	9211.08
468.654	8922.32
468.859	8934.6
