Data from USB4F104151__81__11-52-49-599.txt Node

Date: Fri Mar 14 11:52:49 EDT 2025
User: louis
Spectrometer: USB4F10415
Trigger mode: 4
Integration Time (sec): 2.000000E-2
Scans to average: 1
Electric dark correction enabled: true
Nonlinearity correction enabled: false
Boxcar width: 0
XAxis mode: Wavelengths
Number of Pixels in Spectrum: 3648
>>>>>Begin Spectral Data<<<<<
178.204	-146.43
178.424	-146.43
178.644	-146.43
178.864	-105.47
179.084	-91.13
179.304	46.08
179.524	-31.74
179.744	-46.08
179.964	19.46
180.184	7.17
180.404	-19.46
180.624	-58.37
180.844	-7.17
181.064	-5.12
181.283	-1.02
181.503	21.5
181.723	74.75
181.943	-13.31
182.163	37.89
182.383	46.08
182.602	84.99
182.822	15.36
183.042	19.46
183.262	5.12
183.482	37.89
183.701	9.22
183.921	3.07
184.141	-17.41
184.361	25.6
184.58	99.33
184.8	-52.22
185.02	-33.79
185.239	9.22
185.459	23.55
185.679	1.02
185.898	-56.32
186.118	25.6
186.338	-21.5
186.557	80.89
186.777	56.32
186.997	70.65
187.216	-1.02
187.436	52.22
187.655	50.18
187.875	31.74
188.095	-56.32
188.314	41.98
188.534	-27.65
188.753	15.36
188.973	-15.36
189.192	74.75
189.412	76.8
189.631	37.89
189.851	15.36
190.07	-7.17
190.29	-19.46
190.509	35.84
190.729	25.6
190.948	52.22
191.168	60.42
191.387	39.94
191.607	9.22
191.826	-7.17
192.045	-9.22
192.265	27.65
192.484	33.79
192.704	35.84
192.923	17.41
193.142	3.07
193.362	23.55
193.581	23.55
193.8	60.42
194.02	19.46
194.239	-17.41
194.458	54.27
194.678	60.42
194.897	54.27
195.116	41.98
195.335	-21.5
195.555	-48.13
195.774	27.65
195.993	54.27
196.212	-41.98
196.432	19.46
196.651	39.94
196.87	-64.51
197.089	62.46
197.308	68.61
197.528	48.13
197.747	-82.94
197.966	23.55
198.185	97.28
198.404	9.22
198.623	7.17
198.842	13.31
199.062	-7.17
199.281	37.89
199.5	21.5
199.719	80.89
199.938	44.03
200.157	66.56
200.376	9.22
200.595	56.32
200.814	72.7
201.033	-23.55
201.252	76.8
201.471	-35.84
201.69	48.13
201.909	15.36
202.128	29.7
202.347	72.7
202.566	48.13
202.785	25.6
203.004	-37.89
203.223	3.07
203.442	56.32
203.661	15.36
203.879	-84.99
204.098	33.79
204.317	46.08
204.536	97.28
204.755	-11.26
204.974	7.17
205.193	48.13
205.411	-11.26
205.63	25.6
205.849	31.74
206.068	74.75
206.287	-7.17
206.505	33.79
206.724	17.41
206.943	-70.65
207.162	76.8
207.381	70.65
207.599	31.74
207.818	50.18
208.037	-11.26
208.255	13.31
208.474	29.7
208.693	23.55
208.911	41.98
209.13	13.31
209.349	3.07
209.567	52.22
209.786	-25.6
210.005	117.76
210.223	13.31
210.442	44.03
210.661	5.12
210.879	-11.26
211.098	-52.22
211.316	-93.18
211.535	-41.98
211.753	17.41
211.972	13.31
212.191	-17.41
212.409	27.65
212.628	-29.7
212.846	29.7
213.065	44.03
213.283	41.98
213.502	13.31
213.72	-5.12
213.938	11.26
214.157	-46.08
214.375	68.61
214.594	-41.98
214.812	46.08
215.031	-33.79
215.249	15.36
215.467	-25.6
215.686	58.37
215.904	25.6
216.122	41.98
216.341	52.22
216.559	52.22
216.778	5.12
216.996	27.65
217.214	-31.74
217.432	-5.12
217.651	52.22
217.869	91.13
218.087	-15.36
218.306	-3.07
218.524	125.95
218.742	27.65
218.96	76.8
219.179	41.98
219.397	-109.57
219.615	15.36
219.833	35.84
220.051	-19.46
220.27	5.12
220.488	-15.36
220.706	44.03
220.924	-17.41
221.142	50.18
221.36	-37.89
221.578	35.84
221.796	9.22
222.015	41.98
222.233	-25.6
222.451	68.61
222.669	-39.94
222.887	74.75
223.105	33.79
223.323	35.84
223.541	9.22
223.759	-44.03
223.977	52.22
224.195	70.65
224.413	66.56
224.631	33.79
224.849	-7.17
225.067	97.28
225.285	-39.94
225.503	7.17
225.721	19.46
225.939	68.61
226.157	72.7
226.375	23.55
226.592	-25.6
226.81	-9.22
227.028	80.89
227.246	-1.02
227.464	19.46
227.682	-13.31
227.9	33.79
228.117	62.46
228.335	78.85
228.553	58.37
228.771	48.13
228.989	17.41
229.206	-19.46
229.424	9.22
229.642	39.94
229.86	-13.31
230.077	68.61
230.295	25.6
230.513	1.02
230.731	68.61
230.948	-56.32
231.166	99.33
231.384	-11.26
231.601	23.55
231.819	56.32
232.037	-9.22
232.254	-9.22
232.472	-29.7
232.689	-11.26
232.907	37.89
233.125	-3.07
233.342	9.22
233.56	-1.02
233.777	-37.89
233.995	46.08
234.213	-1.02
234.43	41.98
234.648	60.42
234.865	-29.7
235.083	72.7
235.3	76.8
235.518	54.27
235.735	19.46
235.953	62.46
236.17	7.17
236.388	7.17
236.605	19.46
236.822	50.18
237.04	23.55
237.257	-9.22
237.475	7.17
237.692	41.98
237.909	25.6
238.127	29.7
238.344	29.7
238.562	1.02
238.779	-48.13
238.996	62.46
239.214	25.6
239.431	-7.17
239.648	-29.7
239.865	9.22
240.083	-44.03
240.3	76.8
240.517	-66.56
240.735	54.27
240.952	113.66
241.169	144.38
241.386	-15.36
241.603	-21.5
241.821	7.17
242.038	39.94
242.255	44.03
242.472	-29.7
242.689	-3.07
242.907	13.31
243.124	48.13
243.341	5.12
243.558	11.26
243.775	-13.31
243.992	-7.17
244.209	44.03
244.426	107.52
244.643	-7.17
244.86	-7.17
245.078	52.22
245.295	54.27
245.512	35.84
245.729	54.27
245.946	21.5
246.163	33.79
246.38	35.84
246.597	9.22
246.814	19.46
247.031	-17.41
247.248	41.98
247.464	31.74
247.681	-68.61
247.898	46.08
248.115	31.74
248.332	-25.6
248.549	-39.94
248.766	13.31
248.983	19.46
249.2	11.26
249.417	9.22
249.633	-3.07
249.85	31.74
250.067	78.85
250.284	44.03
250.501	25.6
250.717	76.8
250.934	52.22
251.151	-1.02
251.368	27.65
251.585	11.26
251.801	-25.6
252.018	15.36
252.235	-15.36
252.451	48.13
252.668	-29.7
252.885	58.37
253.102	-27.65
253.318	19.46
253.535	13.31
253.752	74.75
253.968	54.27
254.185	-11.26
254.401	13.31
254.618	48.13
254.835	17.41
255.051	68.61
255.268	44.03
255.484	37.89
255.701	48.13
255.917	64.51
256.134	15.36
256.351	58.37
256.567	3.07
256.784	31.74
257	-11.26
257.217	7.17
257.433	15.36
257.65	50.18
257.866	109.57
258.082	37.89
258.299	11.26
258.515	33.79
258.732	140.29
258.948	-21.5
259.165	17.41
259.381	-25.6
259.597	3.07
259.814	54.27
260.03	13.31
260.246	44.03
260.463	44.03
260.679	25.6
260.895	44.03
261.112	48.13
261.328	48.13
261.544	-5.12
261.761	95.23
261.977	-3.07
262.193	41.98
262.409	25.6
262.626	19.46
262.842	48.13
263.058	3.07
263.274	37.89
263.49	60.42
263.707	70.65
263.923	52.22
264.139	-31.74
264.355	1.02
264.571	25.6
264.787	-7.17
265.004	11.26
265.22	27.65
265.436	111.61
265.652	35.84
265.868	93.18
266.084	-5.12
266.3	13.31
266.516	44.03
266.732	3.07
266.948	46.08
267.164	-3.07
267.38	109.57
267.596	62.46
267.812	-11.26
268.028	99.33
268.244	-13.31
268.46	80.89
268.676	17.41
268.892	76.8
269.108	-5.12
269.324	101.37
269.54	29.7
269.756	19.46
269.972	-19.46
270.188	37.89
270.403	11.26
270.619	-54.27
270.835	70.65
271.051	7.17
271.267	-1.02
271.483	-39.94
271.698	54.27
271.914	111.61
272.13	35.84
272.346	-56.32
272.562	-41.98
272.777	54.27
272.993	11.26
273.209	60.42
273.425	-3.07
273.64	-15.36
273.856	95.23
274.072	62.46
274.287	33.79
274.503	33.79
274.719	76.8
274.934	29.7
275.15	29.7
275.366	58.37
275.581	-11.26
275.797	70.65
276.012	78.85
276.228	27.65
276.444	-35.84
276.659	87.04
276.875	-5.12
277.09	11.26
277.306	-9.22
277.521	11.26
277.737	25.6
277.952	29.7
278.168	-62.46
278.383	31.74
278.599	23.55
278.814	19.46
279.03	35.84
279.245	136.19
279.461	31.74
279.676	13.31
279.892	-27.65
280.107	-13.31
280.322	39.94
280.538	58.37
280.753	54.27
280.969	-7.17
281.184	5.12
281.399	97.28
281.615	-1.02
281.83	19.46
282.045	-74.75
282.26	-3.07
282.476	23.55
282.691	-19.46
282.906	35.84
283.122	-29.7
283.337	-19.46
283.552	52.22
283.767	33.79
283.983	70.65
284.198	-1.02
284.413	58.37
284.628	-19.46
284.843	31.74
285.058	46.08
285.274	66.56
285.489	-70.65
285.704	-1.02
285.919	23.55
286.134	13.31
286.349	-3.07
286.564	9.22
286.779	41.98
286.995	107.52
287.21	27.65
287.425	56.32
287.64	13.31
287.855	27.65
288.07	-46.08
288.285	21.5
288.5	23.55
288.715	119.81
288.93	19.46
289.145	11.26
289.36	-39.94
289.575	78.85
289.79	-7.17
290.004	-15.36
290.219	84.99
290.434	50.18
290.649	25.6
290.864	70.65
291.079	27.65
291.294	1.02
291.509	-15.36
291.724	-1.02
291.938	5.12
292.153	39.94
292.368	1.02
292.583	13.31
292.798	31.74
293.012	39.94
293.227	-50.18
293.442	25.6
293.657	76.8
293.871	68.61
294.086	-1.02
294.301	44.03
294.516	62.46
294.73	13.31
294.945	3.07
295.16	35.84
295.374	64.51
295.589	64.51
295.804	-58.37
296.018	41.98
296.233	41.98
296.447	3.07
296.662	9.22
296.877	68.61
297.091	-7.17
297.306	66.56
297.52	-3.07
297.735	-7.17
297.949	3.07
298.164	-5.12
298.378	58.37
298.593	19.46
298.807	35.84
299.022	-17.41
299.236	105.47
299.451	84.99
299.665	-58.37
299.88	27.65
300.094	89.09
300.309	58.37
300.523	11.26
300.737	58.37
300.952	-3.07
301.166	17.41
301.381	74.75
301.595	-5.12
301.809	11.26
302.024	31.74
302.238	84.99
302.452	66.56
302.667	37.89
302.881	84.99
303.095	33.79
303.309	21.5
303.524	50.18
303.738	39.94
303.952	58.37
304.166	-1.02
304.381	-13.31
304.595	56.32
304.809	17.41
305.023	39.94
305.237	54.27
305.452	23.55
305.666	-1.02
305.88	50.18
306.094	27.65
306.308	19.46
306.522	5.12
306.736	80.89
306.95	19.46
307.164	58.37
307.379	62.46
307.593	132.09
307.807	54.27
308.021	52.22
308.235	19.46
308.449	21.5
308.663	3.07
308.877	37.89
309.091	46.08
309.305	25.6
309.519	33.79
309.733	89.09
309.947	-39.94
310.161	50.18
310.374	-15.36
310.588	25.6
310.802	-29.7
311.016	101.37
311.23	23.55
311.444	9.22
311.658	-13.31
311.872	84.99
312.085	50.18
312.299	35.84
312.513	35.84
312.727	37.89
312.941	-44.03
313.154	1.02
313.368	-23.55
313.582	31.74
313.796	41.98
314.009	9.22
314.223	74.75
314.437	-9.22
314.651	-21.5
314.864	52.22
315.078	7.17
315.292	62.46
315.505	5.12
315.719	-19.46
315.933	31.74
316.146	19.46
316.36	72.7
316.573	46.08
316.787	58.37
317.001	35.84
317.214	25.6
317.428	39.94
317.641	7.17
317.855	-35.84
318.068	44.03
318.282	-9.22
318.495	15.36
318.709	35.84
318.922	23.55
319.136	54.27
319.349	29.7
319.563	13.31
319.776	5.12
319.99	1.02
320.203	113.66
320.417	64.51
320.63	41.98
320.843	84.99
321.057	29.7
321.27	41.98
321.483	-11.26
321.697	107.52
321.91	91.13
322.124	52.22
322.337	31.74
322.55	-33.79
322.763	-74.75
322.977	11.26
323.19	5.12
323.403	33.79
323.617	5.12
323.83	64.51
324.043	66.56
324.256	11.26
324.469	29.7
324.683	35.84
324.896	29.7
325.109	62.46
325.322	56.32
325.535	3.07
325.748	78.85
325.962	60.42
326.175	56.32
326.388	11.26
326.601	5.12
326.814	27.65
327.027	13.31
327.24	27.65
327.453	7.17
327.666	87.04
327.879	44.03
328.092	19.46
328.305	27.65
328.518	54.27
328.731	-60.42
328.944	31.74
329.157	-9.22
329.37	78.85
329.583	44.03
329.796	93.18
330.009	74.75
330.222	-13.31
330.435	29.7
330.648	107.52
330.861	-19.46
331.073	128
331.286	-21.5
331.499	58.37
331.712	-1.02
331.925	27.65
332.138	23.55
332.35	19.46
332.563	-9.22
332.776	11.26
332.989	-142.33
333.202	23.55
333.414	93.18
333.627	99.33
333.84	23.55
334.053	31.74
334.265	-1.02
334.478	62.46
334.691	58.37
334.903	15.36
335.116	31.74
335.329	23.55
335.541	62.46
335.754	48.13
335.966	-23.55
336.179	-1.02
336.392	84.99
336.604	25.6
336.817	78.85
337.029	-1.02
337.242	56.32
337.454	111.61
337.667	-7.17
337.88	39.94
338.092	35.84
338.305	93.18
338.517	11.26
338.729	7.17
338.942	29.7
339.154	56.32
339.367	15.36
339.579	89.09
339.792	23.55
340.004	21.5
340.217	56.32
340.429	84.99
340.641	31.74
340.854	62.46
341.066	35.84
341.278	19.46
341.491	-39.94
341.703	-1.02
341.915	41.98
342.128	35.84
342.34	74.75
342.552	78.85
342.764	23.55
342.977	13.31
343.189	48.13
343.401	27.65
343.613	-27.65
343.826	-33.79
344.038	1.02
344.25	11.26
344.462	82.94
344.674	113.66
344.886	5.12
345.099	39.94
345.311	-15.36
345.523	-64.51
345.735	7.17
345.947	-13.31
346.159	56.32
346.371	31.74
346.583	-9.22
346.795	3.07
347.007	37.89
347.219	-3.07
347.431	19.46
347.643	17.41
347.855	1.02
348.067	9.22
348.279	25.6
348.491	-39.94
348.703	-31.74
348.915	70.65
349.127	17.41
349.339	68.61
349.551	62.46
349.763	27.65
349.975	-13.31
350.187	29.7
350.399	33.79
350.61	-3.07
350.822	-29.7
351.034	23.55
351.246	13.31
351.458	52.22
351.669	95.23
351.881	23.55
352.093	17.41
352.305	39.94
352.517	19.46
352.728	113.66
352.94	48.13
353.152	62.46
353.363	-46.08
353.575	91.13
353.787	99.33
353.999	31.74
354.21	82.94
354.422	37.89
354.633	-19.46
354.845	52.22
355.057	-1.02
355.268	52.22
355.48	-60.42
355.692	58.37
355.903	74.75
356.115	27.65
356.326	39.94
356.538	89.09
356.749	117.76
356.961	99.33
357.172	7.17
357.384	39.94
357.595	21.5
357.807	21.5
358.018	25.6
358.23	-9.22
358.441	35.84
358.653	62.46
358.864	-80.89
359.075	15.36
359.287	62.46
359.498	23.55
359.709	13.31
359.921	46.08
360.132	-23.55
360.344	25.6
360.555	35.84
360.766	-21.5
360.977	-11.26
361.189	48.13
361.4	44.03
361.611	-3.07
361.823	41.98
362.034	5.12
362.245	19.46
362.456	39.94
362.667	68.61
362.879	93.18
363.09	19.46
363.301	19.46
363.512	95.23
363.723	35.84
363.935	15.36
364.146	68.61
364.357	3.07
364.568	46.08
364.779	5.12
364.99	58.37
365.201	27.65
365.412	64.51
365.623	39.94
365.834	-9.22
366.045	23.55
366.256	50.18
366.467	41.98
366.678	27.65
366.889	58.37
367.1	-35.84
367.311	29.7
367.522	35.84
367.733	31.74
367.944	72.7
368.155	-1.02
368.366	64.51
368.577	54.27
368.788	44.03
368.999	41.98
369.209	62.46
369.42	33.79
369.631	29.7
369.842	84.99
370.053	19.46
370.264	15.36
370.474	11.26
370.685	35.84
370.896	37.89
371.107	-1.02
371.317	60.42
371.528	19.46
371.739	54.27
371.95	-13.31
372.16	-60.42
372.371	29.7
372.582	-17.41
372.792	41.98
373.003	23.55
373.214	76.8
373.424	23.55
373.635	64.51
373.846	23.55
374.056	27.65
374.267	119.81
374.477	70.65
374.688	54.27
374.898	64.51
375.109	25.6
375.319	5.12
375.53	50.18
375.74	62.46
375.951	70.65
376.161	29.7
376.372	41.98
376.582	-11.26
376.793	-27.65
377.003	19.46
377.214	107.52
377.424	-1.02
377.635	7.17
377.845	54.27
378.055	25.6
378.266	39.94
378.476	87.04
378.686	74.75
378.897	11.26
379.107	-11.26
379.317	41.98
379.528	-3.07
379.738	-1.02
379.948	15.36
380.158	44.03
380.369	15.36
380.579	5.12
380.789	64.51
380.999	50.18
381.21	-11.26
381.42	109.57
381.63	46.08
381.84	46.08
382.05	29.7
382.261	62.46
382.471	91.13
382.681	37.89
382.891	21.5
383.101	-7.17
383.311	33.79
383.521	27.65
383.731	33.79
383.941	15.36
384.151	-5.12
384.361	121.85
384.571	105.47
384.781	46.08
384.991	27.65
385.201	93.18
385.411	78.85
385.621	58.37
385.831	-1.02
386.041	23.55
386.251	105.47
386.461	-15.36
386.671	-33.79
386.881	95.23
387.091	93.18
387.301	82.94
387.511	15.36
387.72	19.46
387.93	11.26
388.14	25.6
388.35	27.65
388.56	111.61
388.769	29.7
388.979	-44.03
389.189	-5.12
389.399	105.47
389.609	17.41
389.818	7.17
390.028	39.94
390.238	50.18
390.447	39.94
390.657	39.94
390.867	-7.17
391.076	-23.55
391.286	91.13
391.496	35.84
391.705	64.51
391.915	64.51
392.125	78.85
392.334	1.02
392.544	68.61
392.753	54.27
392.963	-15.36
393.172	50.18
393.382	66.56
393.591	70.65
393.801	58.37
394.01	39.94
394.22	11.26
394.429	89.09
394.639	50.18
394.848	101.37
395.058	23.55
395.267	58.37
395.477	72.7
395.686	66.56
395.895	60.42
396.105	115.71
396.314	84.99
396.524	37.89
396.733	134.14
396.942	66.56
397.152	80.89
397.361	148.48
397.57	5.12
397.78	48.13
397.989	80.89
398.198	111.61
398.407	15.36
398.617	17.41
398.826	76.8
399.035	58.37
399.244	48.13
399.453	41.98
399.663	80.89
399.872	103.42
400.081	41.98
400.29	113.66
400.499	66.56
400.708	64.51
400.917	17.41
401.127	9.22
401.336	41.98
401.545	144.38
401.754	209.92
401.963	121.85
402.172	17.41
402.381	80.89
402.59	-5.12
402.799	72.7
403.008	150.53
403.217	144.38
403.426	84.99
403.635	82.94
403.844	27.65
404.053	150.53
404.262	156.67
404.471	160.77
404.68	111.61
404.888	27.65
405.097	125.95
405.306	99.33
405.515	111.61
405.724	54.27
405.933	97.28
406.142	113.66
406.35	121.85
406.559	134.14
406.768	93.18
406.977	109.57
407.185	119.81
407.394	132.09
407.603	58.37
407.812	166.91
408.02	250.88
408.229	175.1
408.438	185.34
408.646	113.66
408.855	125.95
409.064	242.68
409.272	197.63
409.481	222.2
409.69	187.39
409.898	177.15
410.107	242.68
410.315	228.35
410.524	263.16
410.733	316.41
410.941	220.16
411.15	273.4
411.358	263.16
411.567	234.49
411.775	357.37
411.984	273.4
412.192	273.4
412.401	289.79
412.609	431.1
412.818	289.79
413.026	355.32
413.234	418.81
413.443	461.82
413.651	379.9
413.86	510.97
414.068	375.8
414.276	402.43
414.485	474.1
414.693	476.15
414.901	457.72
415.11	474.1
415.318	431.1
415.526	500.73
415.734	646.13
415.943	549.88
416.151	580.6
416.359	642.04
416.567	594.93
416.776	603.13
416.984	650.23
417.192	752.63
417.4	736.24
417.608	631.8
417.817	650.23
418.025	805.88
418.233	805.88
418.441	836.6
418.649	967.67
418.857	932.85
419.065	951.28
419.273	881.65
419.481	988.14
419.689	1031.15
419.897	1045.49
420.105	1094.64
420.313	1106.93
420.521	1240.05
420.729	1186.8
420.937	1176.56
421.145	1188.85
421.353	1252.33
421.561	1399.79
421.769	1489.9
421.977	1514.47
422.185	1410.03
422.393	1657.83
422.601	1532.9
422.809	1608.68
423.017	1629.16
423.224	1713.13
423.432	1807.33
423.64	1848.29
423.848	1940.45
424.056	1866.72
424.263	1938.4
424.471	2092
424.679	2104.29
424.887	2184.16
425.094	2202.59
425.302	2300.89
425.51	2255.84
425.718	2374.62
425.925	2491.35
426.133	2507.74
426.341	2687.96
426.548	2755.54
426.756	2718.68
426.964	2835.41
427.171	2937.81
427.379	3019.73
427.586	3128.27
427.794	3181.52
428.001	3421.13
428.209	3550.15
428.417	3455.95
428.624	3726.28
428.832	3576.78
429.039	3685.32
429.247	3754.95
429.454	4008.9
429.662	4240.32
429.869	3980.23
430.076	4357.05
430.284	4121.54
430.491	4410.3
430.699	4694.97
430.906	4598.71
431.114	4694.97
431.321	4748.22
431.528	4918.2
431.736	5307.31
431.943	5505.96
432.15	5264.3
432.358	5401.52
432.565	5639.08
432.772	5655.47
432.979	5886.89
433.187	6093.73
433.394	6200.23
433.601	6667.16
433.808	6495.13
434.016	6357.92
434.223	6644.63
434.43	7256.98
434.637	6871.96
434.844	7406.48
435.052	7539.6
435.259	7721.87
435.466	7519.12
435.673	7543.69
435.88	7977.86
436.087	8469.37
436.294	8614.78
436.501	8393.6
436.708	8375.17
436.915	8780.67
437.122	9165.68
437.329	9059.19
437.537	9497.46
437.743	9626.48
437.95	9509.74
438.157	9861.99
438.364	10216.29
438.571	10349.41
438.778	10312.55
438.985	11318.1
439.192	10746.72
439.399	11248.47
439.606	10818.39
439.813	11549.52
440.02	12211.01
440.227	12098.38
440.433	11965.26
440.64	12254.02
440.847	12006.22
441.054	12458.82
441.261	13294.39
441.467	13300.53
441.674	13445.94
441.881	14043.95
442.088	14220.07
442.294	14037.8
442.501	14181.16
442.708	14320.42
442.914	15039.26
443.121	15596.31
443.328	15364.89
443.534	16268.04
443.741	15844.11
443.948	15559.44
444.154	16923.39
444.361	16755.46
444.568	16829.18
444.774	16753.41
444.981	17212.15
445.187	17396.47
445.394	18094.83
445.6	18047.72
445.807	19905.23
446.013	18844.38
446.22	19329.75
446.426	20210.38
446.633	20062.93
446.839	20644.55
447.046	19983.06
447.252	21148.35
447.459	21516.98
447.665	20845.25
447.871	21985.97
448.078	22835.88
448.284	21920.43
448.491	22549.16
448.697	23614.1
448.903	23917.2
449.11	24068.75
449.316	23161.5
449.522	23904.92
449.728	24683.14
449.935	24748.68
450.141	24691.34
450.347	25287.29
450.553	24142.48
450.76	25078.4
450.966	25737.85
451.172	25272.96
451.378	25692.79
451.584	25705.08
451.791	25879.16
451.997	25967.22
452.203	26727.02
452.409	26477.16
452.615	26153.58
452.821	25270.91
453.027	25168.51
453.233	26313.33
453.44	25418.36
453.646	25547.39
453.852	25592.44
454.058	26368.62
454.264	25418.36
454.47	25838.2
454.676	25248.38
454.882	26378.86
455.088	24013.46
455.294	24492.68
455.5	24380.04
455.705	24863.36
455.911	23894.68
456.117	23464.6
456.323	23206.56
456.529	21842.61
456.735	22620.84
456.941	22125.23
457.147	21406.39
457.352	21013.18
457.558	21187.26
457.764	20837.06
457.97	20638.41
458.176	20189.9
458.381	20237
458.587	19434.2
458.793	19239.64
458.999	18043.63
459.204	19552.98
459.41	18864.86
459.616	17836.78
459.821	17697.52
460.027	17738.48
460.233	17109.75
460.438	16352.01
460.644	16466.69
460.85	15790.86
461.055	15481.62
461.261	15774.48
461.466	14328.61
461.672	13882.16
461.878	14965.53
462.083	13945.64
462.289	13916.97
462.494	13650.74
462.7	12901.18
462.905	12477.25
463.111	13128.5
463.316	13116.22
463.522	12602.18
463.727	12954.43
463.932	12780.35
464.138	12745.53
464.343	12718.91
464.549	12342.08
464.754	12780.35
464.959	12745.53
465.165	12518.21
465.37	12110.66
465.575	11660.11
465.781	12335.94
465.986	12227.4
466.191	11795.28
466.397	11627.34
466.602	10916.7
466.807	11359.06
467.012	11629.39
467.218	11522.9
467.423	11295.57
467.628	11361.11
467.833	11694.93
468.038	11152.21
468.244	11012.95
468.449	11625.29
