Data from USB4F104151__84__11-52-50-839.txt Node

Date: Fri Mar 14 11:52:50 EDT 2025
User: louis
Spectrometer: USB4F10415
Trigger mode: 4
Integration Time (sec): 2.000000E-2
Scans to average: 1
Electric dark correction enabled: true
Nonlinearity correction enabled: false
Boxcar width: 0
XAxis mode: Wavelengths
Number of Pixels in Spectrum: 3648
>>>>>Begin Spectral Data<<<<<
178.204	-17.07
178.424	-17.07
178.644	-17.07
178.864	-74.41
179.084	17.75
179.304	25.94
179.524	25.94
179.744	25.94
179.964	48.47
180.184	-29.35
180.404	-4.78
180.624	13.65
180.844	-8.87
181.064	-0.68
181.283	11.61
181.503	-68.27
181.723	-39.59
181.943	-0.68
182.163	54.61
182.383	42.32
182.602	48.47
182.822	40.28
183.042	19.8
183.262	36.18
183.482	42.32
183.701	50.52
183.921	25.94
184.141	40.28
184.361	105.81
184.58	62.8
184.8	64.85
185.02	17.75
185.239	81.24
185.459	-6.83
185.679	9.56
185.898	71
186.118	36.18
186.338	-21.16
186.557	48.47
186.777	75.09
186.997	60.76
187.216	17.75
187.436	58.71
187.655	17.75
187.875	34.13
188.095	50.52
188.314	17.75
188.534	50.52
188.753	-2.73
188.973	130.39
189.192	99.67
189.412	73.04
189.631	32.08
189.851	64.85
190.07	87.38
190.29	34.13
190.509	-4.78
190.729	83.28
190.948	15.7
191.168	118.1
191.387	48.47
191.607	54.61
191.826	5.46
192.045	7.51
192.265	-23.21
192.484	62.8
192.704	36.18
192.923	5.46
193.142	87.38
193.362	52.56
193.581	87.38
193.8	-21.16
194.02	68.95
194.239	9.56
194.458	32.08
194.678	77.14
194.897	85.33
195.116	97.62
195.335	56.66
195.555	64.85
195.774	50.52
195.993	13.65
196.212	46.42
196.432	5.46
196.651	118.1
196.87	48.47
197.089	87.38
197.308	91.48
197.528	27.99
197.747	38.23
197.966	44.37
198.185	56.66
198.404	13.65
198.623	19.8
198.842	58.71
199.062	42.32
199.281	68.95
199.5	60.76
199.719	-4.78
199.938	40.28
200.157	5.46
200.376	103.76
200.595	103.76
200.814	54.61
201.033	60.76
201.252	-10.92
201.471	93.52
201.69	50.52
201.909	81.24
202.128	-60.07
202.347	68.95
202.566	11.61
202.785	11.61
203.004	77.14
203.223	101.72
203.442	42.32
203.661	44.37
203.879	19.8
204.098	62.8
204.317	73.04
204.536	95.57
204.755	36.18
204.974	9.56
205.193	95.57
205.411	25.94
205.63	27.99
205.849	30.04
206.068	-35.5
206.287	46.42
206.505	46.42
206.724	54.61
206.943	17.75
207.162	13.65
207.381	-4.78
207.599	77.14
207.818	64.85
208.037	17.75
208.255	48.47
208.474	7.51
208.693	68.95
208.911	-12.97
209.13	34.13
209.349	32.08
209.567	25.94
209.786	56.66
210.005	83.28
210.223	1.37
210.442	15.7
210.661	9.56
210.879	40.28
211.098	64.85
211.316	46.42
211.535	27.99
211.753	-19.11
211.972	58.71
212.191	89.43
212.409	30.04
212.628	38.23
212.846	66.9
213.065	64.85
213.283	91.48
213.502	60.76
213.72	114
213.938	66.9
214.157	40.28
214.375	73.04
214.594	-23.21
214.812	60.76
215.031	97.62
215.249	50.52
215.467	-12.97
215.686	15.7
215.904	157.01
216.122	62.8
216.341	38.23
216.559	50.52
216.778	68.95
216.996	77.14
217.214	32.08
217.432	-8.87
217.651	77.14
217.869	68.95
218.087	68.95
218.306	17.75
218.524	50.52
218.742	-33.45
218.96	13.65
219.179	77.14
219.397	73.04
219.615	132.44
219.833	23.89
220.051	34.13
220.27	11.61
220.488	73.04
220.706	62.8
220.924	19.8
221.142	58.71
221.36	27.99
221.578	75.09
221.796	50.52
222.015	11.61
222.233	52.56
222.451	30.04
222.669	64.85
222.887	5.46
223.105	-19.11
223.323	46.42
223.541	5.46
223.759	109.91
223.977	91.48
224.195	36.18
224.413	9.56
224.631	42.32
224.849	7.51
225.067	30.04
225.285	25.94
225.503	27.99
225.721	75.09
225.939	140.63
226.157	91.48
226.375	38.23
226.592	-49.83
226.81	68.95
227.028	66.9
227.246	81.24
227.464	-0.68
227.682	54.61
227.9	50.52
228.117	68.95
228.335	50.52
228.553	25.94
228.771	23.89
228.989	50.52
229.206	9.56
229.424	42.32
229.642	-27.31
229.86	62.8
230.077	27.99
230.295	3.41
230.513	23.89
230.731	103.76
230.948	93.52
231.166	101.72
231.384	7.51
231.601	50.52
231.819	25.94
232.037	101.72
232.254	-21.16
232.472	23.89
232.689	25.94
232.907	48.47
233.125	11.61
233.342	38.23
233.56	-21.16
233.777	3.41
233.995	66.9
234.213	-25.26
234.43	46.42
234.648	5.46
234.865	17.75
235.083	27.99
235.3	97.62
235.518	-2.73
235.735	23.89
235.953	95.57
236.17	38.23
236.388	-19.11
236.605	85.33
236.822	103.76
237.04	44.37
237.257	64.85
237.475	64.85
237.692	71
237.909	15.7
238.127	46.42
238.344	32.08
238.562	48.47
238.779	17.75
238.996	-6.83
239.214	60.76
239.431	103.76
239.648	11.61
239.865	11.61
240.083	62.8
240.3	38.23
240.517	13.65
240.735	5.46
240.952	30.04
241.169	32.08
241.386	36.18
241.603	32.08
241.821	38.23
242.038	19.8
242.255	58.71
242.472	68.95
242.689	46.42
242.907	36.18
243.124	13.65
243.341	64.85
243.558	-0.68
243.775	-8.87
243.992	15.7
244.209	7.51
244.426	27.99
244.643	38.23
244.86	44.37
245.078	101.72
245.295	44.37
245.512	75.09
245.729	23.89
245.946	60.76
246.163	71
246.38	-35.5
246.597	-19.11
246.814	122.2
247.031	34.13
247.248	124.24
247.464	-2.73
247.681	93.52
247.898	89.43
248.115	73.04
248.332	40.28
248.549	148.82
248.766	81.24
248.983	73.04
249.2	-43.69
249.417	62.8
249.633	91.48
249.85	52.56
250.067	36.18
250.284	93.52
250.501	60.76
250.717	79.19
250.934	13.65
251.151	99.67
251.368	54.61
251.585	46.42
251.801	66.9
252.018	9.56
252.235	118.1
252.451	-6.83
252.668	107.86
252.885	105.81
253.102	-6.83
253.318	46.42
253.535	27.99
253.752	34.13
253.968	48.47
254.185	-27.31
254.401	73.04
254.618	50.52
254.835	23.89
255.051	62.8
255.268	93.52
255.484	7.51
255.701	103.76
255.917	64.85
256.134	56.66
256.351	99.67
256.567	64.85
256.784	60.76
257	42.32
257.217	38.23
257.433	19.8
257.65	13.65
257.866	95.57
258.082	52.56
258.299	-66.22
258.515	54.61
258.732	19.8
258.948	46.42
259.165	27.99
259.381	5.46
259.597	17.75
259.814	73.04
260.03	73.04
260.246	52.56
260.463	-2.73
260.679	105.81
260.895	13.65
261.112	97.62
261.328	7.51
261.544	-12.97
261.761	73.04
261.977	42.32
262.193	-21.16
262.409	-6.83
262.626	52.56
262.842	60.76
263.058	58.71
263.274	152.91
263.49	81.24
263.707	103.76
263.923	50.52
264.139	73.04
264.355	46.42
264.571	58.71
264.787	107.86
265.004	54.61
265.22	30.04
265.436	38.23
265.652	77.14
265.868	27.99
266.084	-15.02
266.3	34.13
266.516	50.52
266.732	1.37
266.948	64.85
267.164	40.28
267.38	134.48
267.596	66.9
267.812	101.72
268.028	30.04
268.244	15.7
268.46	107.86
268.676	40.28
268.892	64.85
269.108	-43.69
269.324	7.51
269.54	-43.69
269.756	75.09
269.972	38.23
270.188	58.71
270.403	-8.87
270.619	13.65
270.835	42.32
271.051	97.62
271.267	30.04
271.483	21.85
271.698	11.61
271.914	68.95
272.13	34.13
272.346	3.41
272.562	25.94
272.777	30.04
272.993	50.52
273.209	-23.21
273.425	-2.73
273.64	-21.16
273.856	89.43
274.072	91.48
274.287	44.37
274.503	44.37
274.719	75.09
274.934	36.18
275.15	-4.78
275.366	50.52
275.581	122.2
275.797	66.9
276.012	3.41
276.228	44.37
276.444	36.18
276.659	132.44
276.875	-15.02
277.09	85.33
277.306	34.13
277.521	103.76
277.737	60.76
277.952	54.61
278.168	40.28
278.383	38.23
278.599	-17.07
278.814	68.95
279.03	68.95
279.245	54.61
279.461	48.47
279.676	85.33
279.892	32.08
280.107	50.52
280.322	85.33
280.538	60.76
280.753	77.14
280.969	7.51
281.184	93.52
281.399	91.48
281.615	3.41
281.83	87.38
282.045	21.85
282.26	23.89
282.476	66.9
282.691	142.68
282.906	40.28
283.122	87.38
283.337	89.43
283.552	83.28
283.767	46.42
283.983	56.66
284.198	58.71
284.413	25.94
284.628	3.41
284.843	38.23
285.058	58.71
285.274	19.8
285.489	11.61
285.704	19.8
285.919	42.32
286.134	19.8
286.349	68.95
286.564	11.61
286.779	126.29
286.995	95.57
287.21	52.56
287.425	97.62
287.64	-6.83
287.855	73.04
288.07	21.85
288.285	81.24
288.5	54.61
288.715	114
288.93	23.89
289.145	27.99
289.36	77.14
289.575	32.08
289.79	54.61
290.004	36.18
290.219	105.81
290.434	21.85
290.649	25.94
290.864	103.76
291.079	42.32
291.294	-19.11
291.509	15.7
291.724	-2.73
291.938	21.85
292.153	73.04
292.368	62.8
292.583	32.08
292.798	52.56
293.012	48.47
293.227	46.42
293.442	52.56
293.657	66.9
293.871	54.61
294.086	38.23
294.301	48.47
294.516	60.76
294.73	62.8
294.945	48.47
295.16	19.8
295.374	71
295.589	81.24
295.804	3.41
296.018	36.18
296.233	105.81
296.447	50.52
296.662	34.13
296.877	27.99
297.091	5.46
297.306	36.18
297.52	17.75
297.735	68.95
297.949	64.85
298.164	-33.45
298.378	32.08
298.593	62.8
298.807	5.46
299.022	32.08
299.236	58.71
299.451	44.37
299.665	91.48
299.88	25.94
300.094	109.91
300.309	64.85
300.523	30.04
300.737	40.28
300.952	34.13
301.166	60.76
301.381	-15.02
301.595	50.52
301.809	50.52
302.024	114
302.238	50.52
302.452	87.38
302.667	38.23
302.881	99.67
303.095	19.8
303.309	38.23
303.524	73.04
303.738	27.99
303.952	54.61
304.166	17.75
304.381	32.08
304.595	19.8
304.809	66.9
305.023	-10.92
305.237	7.51
305.452	-6.83
305.666	50.52
305.88	42.32
306.094	52.56
306.308	118.1
306.522	62.8
306.736	66.9
306.95	-10.92
307.164	17.75
307.379	27.99
307.593	146.77
307.807	54.61
308.021	30.04
308.235	42.32
308.449	40.28
308.663	19.8
308.877	105.81
309.091	58.71
309.305	79.19
309.519	27.99
309.733	50.52
309.947	58.71
310.161	58.71
310.374	50.52
310.588	34.13
310.802	36.18
311.016	40.28
311.23	38.23
311.444	32.08
311.658	109.91
311.872	83.28
312.085	93.52
312.299	81.24
312.513	75.09
312.727	46.42
312.941	73.04
313.154	23.89
313.368	42.32
313.582	40.28
313.796	30.04
314.009	87.38
314.223	54.61
314.437	83.28
314.651	5.46
314.864	15.7
315.078	93.52
315.292	13.65
315.505	23.89
315.719	116.05
315.933	126.29
316.146	60.76
316.36	109.91
316.573	-4.78
316.787	87.38
317.001	11.61
317.214	-4.78
317.428	44.37
317.641	17.75
317.855	9.56
318.068	89.43
318.282	42.32
318.495	89.43
318.709	52.56
318.922	62.8
319.136	83.28
319.349	-15.02
319.563	23.89
319.776	71
319.99	46.42
320.203	89.43
320.417	62.8
320.63	97.62
320.843	89.43
321.057	38.23
321.27	32.08
321.483	138.58
321.697	95.57
321.91	34.13
322.124	19.8
322.337	64.85
322.55	13.65
322.763	25.94
322.977	71
323.19	89.43
323.403	46.42
323.617	-10.92
323.83	73.04
324.043	46.42
324.256	27.99
324.469	50.52
324.683	130.39
324.896	23.89
325.109	161.11
325.322	17.75
325.535	152.91
325.748	30.04
325.962	124.24
326.175	36.18
326.388	64.85
326.601	17.75
326.814	116.05
327.027	54.61
327.24	52.56
327.453	1.37
327.666	75.09
327.879	-25.26
328.092	87.38
328.305	111.96
328.518	54.61
328.731	23.89
328.944	3.41
329.157	64.85
329.37	38.23
329.583	91.48
329.796	140.63
330.009	46.42
330.222	136.53
330.435	-15.02
330.648	71
330.861	50.52
331.073	19.8
331.286	111.96
331.499	60.76
331.712	9.56
331.925	83.28
332.138	15.7
332.35	118.1
332.563	73.04
332.776	89.43
332.989	-2.73
333.202	87.38
333.414	30.04
333.627	77.14
333.84	52.56
334.053	89.43
334.265	44.37
334.478	101.72
334.691	-27.31
334.903	62.8
335.116	56.66
335.329	56.66
335.541	111.96
335.754	122.2
335.966	62.8
336.179	81.24
336.392	48.47
336.604	105.81
336.817	56.66
337.029	97.62
337.242	32.08
337.454	105.81
337.667	50.52
337.88	54.61
338.092	-4.78
338.305	99.67
338.517	19.8
338.729	58.71
338.942	52.56
339.154	91.48
339.367	-0.68
339.579	34.13
339.792	-19.11
340.004	81.24
340.217	30.04
340.429	-0.68
340.641	-6.83
340.854	99.67
341.066	-45.74
341.278	66.9
341.491	48.47
341.703	50.52
341.915	77.14
342.128	73.04
342.34	46.42
342.552	111.96
342.764	34.13
342.977	48.47
343.189	42.32
343.401	64.85
343.613	3.41
343.826	1.37
344.038	15.7
344.25	71
344.462	56.66
344.674	36.18
344.886	105.81
345.099	75.09
345.311	27.99
345.523	85.33
345.735	36.18
345.947	73.04
346.159	25.94
346.371	93.52
346.583	56.66
346.795	62.8
347.007	64.85
347.219	40.28
347.431	44.37
347.643	124.24
347.855	148.82
348.067	71
348.279	64.85
348.491	95.57
348.703	111.96
348.915	87.38
349.127	-55.98
349.339	116.05
349.551	54.61
349.763	99.67
349.975	5.46
350.187	56.66
350.399	38.23
350.61	99.67
350.822	38.23
351.034	64.85
351.246	144.72
351.458	40.28
351.669	40.28
351.881	134.48
352.093	50.52
352.305	68.95
352.517	99.67
352.728	79.19
352.94	25.94
353.152	-8.87
353.363	91.48
353.575	105.81
353.787	103.76
353.999	7.51
354.21	54.61
354.422	116.05
354.633	83.28
354.845	25.94
355.057	64.85
355.268	52.56
355.48	11.61
355.692	54.61
355.903	79.19
356.115	30.04
356.326	42.32
356.538	111.96
356.749	89.43
356.961	68.95
357.172	15.7
357.384	17.75
357.595	62.8
357.807	11.61
358.018	13.65
358.23	73.04
358.441	-2.73
358.653	17.75
358.864	7.51
359.075	62.8
359.287	11.61
359.498	79.19
359.709	50.52
359.921	79.19
360.132	66.9
360.344	25.94
360.555	44.37
360.766	-2.73
360.977	21.85
361.189	25.94
361.4	17.75
361.611	83.28
361.823	25.94
362.034	68.95
362.245	11.61
362.456	42.32
362.667	19.8
362.879	46.42
363.09	64.85
363.301	85.33
363.512	79.19
363.723	44.37
363.935	52.56
364.146	38.23
364.357	64.85
364.568	34.13
364.779	38.23
364.99	101.72
365.201	-8.87
365.412	44.37
365.623	-68.27
365.834	132.44
366.045	85.33
366.256	126.29
366.467	46.42
366.678	21.85
366.889	73.04
367.1	7.51
367.311	95.57
367.522	46.42
367.733	83.28
367.944	99.67
368.155	66.9
368.366	42.32
368.577	42.32
368.788	27.99
368.999	17.75
369.209	114
369.42	44.37
369.631	71
369.842	40.28
370.053	91.48
370.264	111.96
370.474	-23.21
370.685	81.24
370.896	85.33
371.107	58.71
371.317	44.37
371.528	19.8
371.739	11.61
371.95	54.61
372.16	154.96
372.371	83.28
372.582	36.18
372.792	64.85
373.003	111.96
373.214	62.8
373.424	52.56
373.635	120.15
373.846	81.24
374.056	30.04
374.267	46.42
374.477	142.68
374.688	56.66
374.898	52.56
375.109	60.76
375.319	64.85
375.53	81.24
375.74	46.42
375.951	79.19
376.161	116.05
376.372	97.62
376.582	44.37
376.793	56.66
377.003	38.23
377.214	87.38
377.424	40.28
377.635	103.76
377.845	42.32
378.055	52.56
378.266	5.46
378.476	34.13
378.686	118.1
378.897	95.57
379.107	91.48
379.317	58.71
379.528	52.56
379.738	34.13
379.948	62.8
380.158	60.76
380.369	-0.68
380.579	62.8
380.789	1.37
380.999	66.9
381.21	105.81
381.42	134.48
381.63	81.24
381.84	23.89
382.05	23.89
382.261	144.72
382.471	60.76
382.681	68.95
382.891	111.96
383.101	95.57
383.311	38.23
383.521	107.86
383.731	52.56
383.941	60.76
384.151	73.04
384.361	-15.02
384.571	30.04
384.781	93.52
384.991	173.39
385.201	128.34
385.411	58.71
385.621	107.86
385.831	44.37
386.041	120.15
386.251	81.24
386.461	97.62
386.671	62.8
386.881	27.99
387.091	27.99
387.301	89.43
387.511	87.38
387.72	95.57
387.93	136.53
388.14	75.09
388.35	52.56
388.56	7.51
388.769	128.34
388.979	54.61
389.189	32.08
389.399	58.71
389.609	93.52
389.818	73.04
390.028	58.71
390.238	64.85
390.447	81.24
390.657	150.87
390.867	97.62
391.076	105.81
391.286	99.67
391.496	30.04
391.705	71
391.915	95.57
392.125	132.44
392.334	111.96
392.544	17.75
392.753	58.71
392.963	97.62
393.172	32.08
393.382	-12.97
393.591	73.04
393.801	71
394.01	91.48
394.22	136.53
394.429	87.38
394.639	25.94
394.848	77.14
395.058	54.61
395.267	50.52
395.477	99.67
395.686	99.67
395.895	93.52
396.105	124.24
396.314	105.81
396.524	34.13
396.733	87.38
396.942	179.54
397.152	116.05
397.361	120.15
397.57	52.56
397.78	124.24
397.989	114
398.198	150.87
398.407	1.37
398.617	81.24
398.826	146.77
399.035	83.28
399.244	111.96
399.453	142.68
399.663	144.72
399.872	146.77
400.081	83.28
400.29	159.06
400.499	46.42
400.708	152.91
400.917	58.71
401.127	71
401.336	68.95
401.545	177.49
401.754	152.91
401.963	126.29
402.172	114
402.381	77.14
402.59	105.81
402.799	95.57
403.008	187.73
403.217	118.1
403.426	54.61
403.635	144.72
403.844	152.91
404.053	116.05
404.262	142.68
404.471	183.63
404.68	77.14
404.888	171.35
405.097	114
405.306	118.1
405.515	103.76
405.724	146.77
405.933	146.77
406.142	107.86
406.35	148.82
406.559	97.62
406.768	216.4
406.977	187.73
407.185	114
407.394	120.15
407.603	163.15
407.812	105.81
408.02	179.54
408.229	222.55
408.438	183.63
408.646	179.54
408.855	202.07
409.064	173.39
409.272	265.55
409.481	302.42
409.69	189.78
409.898	243.03
410.107	318.8
410.315	243.03
410.524	200.02
410.733	296.27
410.941	290.13
411.15	269.65
411.358	279.89
411.567	349.52
411.775	281.94
411.984	259.41
412.192	320.85
412.401	302.42
412.609	343.38
412.818	404.82
413.026	245.07
413.234	341.33
413.443	410.96
413.651	372.05
413.86	447.82
414.068	499.02
414.276	505.17
414.485	423.25
414.693	486.73
414.901	535.89
415.11	558.41
415.318	478.54
415.526	572.75
415.734	619.85
415.943	509.26
416.151	632.14
416.359	716.11
416.567	578.89
416.776	646.48
416.984	699.72
417.192	748.87
417.4	691.53
417.608	765.26
417.817	828.74
418.025	814.41
418.233	820.55
418.441	875.85
418.649	841.03
418.857	994.63
419.065	863.56
419.273	988.49
419.481	984.39
419.689	1142.08
419.897	1127.75
420.105	1148.23
420.313	1119.56
420.521	1203.52
420.729	1248.58
420.937	1242.43
421.145	1287.49
421.353	1340.74
421.561	1320.26
421.769	1373.5
421.977	1498.43
422.185	1471.81
422.393	1705.28
422.601	1621.31
422.809	1588.54
423.017	1670.46
423.224	1770.81
423.432	1826.11
423.64	1756.47
423.848	1998.13
424.056	1887.54
424.263	2092.34
424.471	2041.14
424.679	2063.67
424.887	2268.47
425.094	2184.5
425.302	2282.8
425.51	2311.47
425.718	2329.91
425.925	2440.5
426.133	2633.01
426.341	2706.73
426.548	2895.15
426.756	2981.16
426.964	2929.96
427.171	3087.65
427.379	3173.67
427.586	3061.03
427.794	3194.15
428.001	3515.68
428.209	3581.21
428.417	3493.15
428.624	3730.72
428.832	3624.22
429.039	3810.59
429.247	3712.28
429.454	4080.92
429.662	4195.61
429.869	3953.94
430.076	4267.28
430.284	4302.1
430.491	4406.55
430.699	4668.69
430.906	4478.22
431.114	4834.57
431.321	4836.62
431.528	4883.72
431.736	5285.12
431.943	5426.43
432.15	5438.72
432.358	5426.43
432.565	5633.28
432.772	5731.58
432.979	6028.54
433.187	6003.96
433.394	6089.98
433.601	6290.68
433.808	6491.38
434.016	6409.46
434.223	6835.44
434.43	7296.23
434.637	6927.6
434.844	7574.75
435.052	7562.47
435.259	7544.03
435.466	7703.78
435.673	7505.12
435.88	8002.78
436.087	8504.53
436.294	8389.85
436.501	8383.7
436.708	8527.06
436.915	8764.62
437.122	9020.62
437.329	9016.52
437.537	9473.22
437.743	9460.93
437.95	9477.32
438.157	9825.47
438.364	10435.77
438.571	10384.57
438.778	10292.41
438.985	11517.09
439.192	10902.7
439.399	11236.52
439.606	10986.67
439.813	11697.31
440.02	12250.27
440.227	12121.24
440.433	11838.62
440.64	12485.78
440.847	12197.02
441.054	12504.21
441.261	13505.67
441.467	13063.31
441.674	13522.05
441.881	13896.83
442.088	13722.76
442.294	14068.86
442.501	14093.44
442.708	14425.21
442.914	15113.33
443.121	15625.32
443.328	15412.33
443.534	16616.54
443.741	15852.64
443.948	15819.88
444.154	16677.97
444.361	16643.16
444.568	16630.87
444.774	16995.41
444.981	17095.76
445.187	17747.01
445.394	18293.82
445.6	17855.56
445.807	19715.11
446.013	18830.39
446.22	19178.54
446.426	20141.09
446.633	20284.45
446.839	20907.03
447.046	20110.37
447.252	21083.16
447.459	21154.83
447.665	21142.55
447.871	22074.37
448.078	23161.84
448.284	22115.33
448.491	22381.57
448.697	23469.04
448.903	23614.44
449.11	23677.93
449.316	23411.7
449.522	23854.06
449.728	24628.19
449.935	24742.88
450.141	24611.81
450.347	25279.44
450.553	24642.53
450.76	24798.17
450.966	25551.82
451.172	25127.89
451.378	25672.65
451.584	25336.79
451.791	25955.27
451.997	25985.99
452.203	26227.65
452.409	26610.62
452.615	26217.41
452.821	25406.42
453.027	25351.12
453.233	26285
453.44	25535.44
453.646	25541.58
453.852	25969.61
454.058	26348.48
454.264	25385.94
454.47	25893.83
454.676	25387.99
454.882	26291.14
455.088	23983.08
455.294	24130.53
455.5	24538.08
455.705	24794.07
455.911	23950.31
456.117	23792.62
456.323	23215.09
456.529	21728.27
456.735	22811.64
456.941	22340.61
457.147	21947.4
457.352	20995.09
457.558	20827.16
457.764	21009.43
457.97	20397.09
458.176	20311.07
458.381	20192.29
458.587	19276.85
458.793	19213.36
458.999	18066.5
459.204	19647.53
459.41	18940.98
459.616	17722.44
459.821	17640.52
460.027	17730.63
460.233	17415.24
460.438	16600.15
460.644	16610.39
460.85	15748.2
461.055	15770.72
461.261	15789.16
461.466	14419.07
461.672	14314.62
461.878	15330.41
462.083	13878.4
462.289	13880.45
462.494	13448.33
462.7	13106.32
462.905	12596.37
463.111	13051.02
463.316	13284.49
463.522	12786.83
463.727	12850.32
463.932	12848.27
464.138	12784.79
464.343	12534.93
464.549	12534.93
464.754	12725.4
464.959	12514.45
465.165	12534.93
465.37	12088.48
465.575	11697.31
465.781	12207.26
465.986	12166.3
466.191	11934.88
466.397	11680.93
466.602	11281.58
466.807	11717.79
467.012	11605.16
467.218	11472.04
467.423	11375.78
467.628	11402.41
467.833	11711.65
468.038	11457.7
468.244	11193.51
468.449	11564.2
