Data from USB4F104151__20__11-51-18-970.txt Node

Date: Fri Mar 14 11:51:18 EDT 2025
User: louis
Spectrometer: USB4F10415
Trigger mode: 4
Integration Time (sec): 2.000000E-2
Scans to average: 1
Electric dark correction enabled: true
Nonlinearity correction enabled: false
Boxcar width: 0
XAxis mode: Wavelengths
Number of Pixels in Spectrum: 3648
>>>>>Begin Spectral Data<<<<<
178.204	-61.95
178.424	-61.95
178.644	-61.95
178.864	-59.9
179.084	-27.14
179.304	87.55
179.524	19.97
179.744	-6.66
179.964	-10.75
180.184	-27.14
180.404	15.87
180.624	-31.23
180.844	15.87
181.064	-55.81
181.283	9.73
181.503	-18.94
181.723	1.54
181.943	-20.99
182.163	13.82
182.383	11.78
182.602	11.78
182.822	56.83
183.042	52.74
183.262	5.63
183.482	87.55
183.701	-23.04
183.921	108.03
184.141	77.31
184.361	101.89
184.58	42.5
184.8	38.4
185.02	-8.7
185.239	1.54
185.459	73.21
185.679	38.4
185.898	-39.42
186.118	52.74
186.338	13.82
186.557	-23.04
186.777	-12.8
186.997	38.4
187.216	32.26
187.436	46.59
187.655	-6.66
187.875	-18.94
188.095	42.5
188.314	13.82
188.534	32.26
188.753	56.83
188.973	-2.56
189.192	-20.99
189.412	-2.56
189.631	-18.94
189.851	28.16
190.07	24.06
190.29	-6.66
190.509	17.92
190.729	-0.51
190.948	81.41
191.168	89.6
191.387	5.63
191.607	-18.94
191.826	1.54
192.045	54.78
192.265	-35.33
192.484	67.07
192.704	9.73
192.923	73.21
193.142	-4.61
193.362	34.3
193.581	54.78
193.8	-43.52
194.02	77.31
194.239	-43.52
194.458	50.69
194.678	22.02
194.897	40.45
195.116	-4.61
195.335	26.11
195.555	-14.85
195.774	36.35
195.993	87.55
196.212	13.82
196.432	-0.51
196.651	-12.8
196.87	-39.42
197.089	85.5
197.308	26.11
197.528	-37.38
197.747	-33.28
197.966	32.26
198.185	83.45
198.404	69.12
198.623	19.97
198.842	112.13
199.062	32.26
199.281	19.97
199.5	50.69
199.719	73.21
199.938	26.11
200.157	77.31
200.376	13.82
200.595	44.54
200.814	1.54
201.033	11.78
201.252	19.97
201.471	54.78
201.69	71.17
201.909	65.02
202.128	-78.33
202.347	52.74
202.566	-18.94
202.785	32.26
203.004	-59.9
203.223	108.03
203.442	17.92
203.661	26.11
203.879	5.63
204.098	34.3
204.317	-23.04
204.536	36.35
204.755	79.36
204.974	22.02
205.193	83.45
205.411	58.88
205.63	32.26
205.849	32.26
206.068	-29.18
206.287	7.68
206.505	69.12
206.724	44.54
206.943	5.63
207.162	22.02
207.381	26.11
207.599	-27.14
207.818	62.98
208.037	9.73
208.255	89.6
208.474	-37.38
208.693	32.26
208.911	26.11
209.13	67.07
209.349	-2.56
209.567	67.07
209.786	56.83
210.005	-4.61
210.223	40.45
210.442	28.16
210.661	58.88
210.879	56.83
211.098	15.87
211.316	-8.7
211.535	75.26
211.753	26.11
211.972	50.69
212.191	50.69
212.409	-53.76
212.628	26.11
212.846	56.83
213.065	-27.14
213.283	19.97
213.502	67.07
213.72	38.4
213.938	60.93
214.157	26.11
214.375	62.98
214.594	26.11
214.812	46.59
215.031	-20.99
215.249	3.58
215.467	60.93
215.686	11.78
215.904	22.02
216.122	56.83
216.341	44.54
216.559	67.07
216.778	19.97
216.996	7.68
217.214	62.98
217.432	-57.86
217.651	36.35
217.869	-37.38
218.087	7.68
218.306	9.73
218.524	52.74
218.742	-0.51
218.96	56.83
219.179	-18.94
219.397	-12.8
219.615	81.41
219.833	77.31
220.051	-2.56
220.27	13.82
220.488	40.45
220.706	24.06
220.924	-14.85
221.142	32.26
221.36	15.87
221.578	60.93
221.796	58.88
222.015	11.78
222.233	-16.9
222.451	28.16
222.669	3.58
222.887	-12.8
223.105	-31.23
223.323	-72.19
223.541	-10.75
223.759	46.59
223.977	13.82
224.195	95.74
224.413	44.54
224.631	67.07
224.849	62.98
225.067	85.5
225.285	1.54
225.503	93.69
225.721	-37.38
225.939	5.63
226.157	44.54
226.375	48.64
226.592	65.02
226.81	5.63
227.028	5.63
227.246	56.83
227.464	67.07
227.682	3.58
227.9	95.74
228.117	-31.23
228.335	71.17
228.553	11.78
228.771	-2.56
228.989	-25.09
229.206	-16.9
229.424	56.83
229.642	-0.51
229.86	22.02
230.077	22.02
230.295	19.97
230.513	42.5
230.731	-10.75
230.948	-14.85
231.166	48.64
231.384	50.69
231.601	-18.94
231.819	-16.9
232.037	-27.14
232.254	114.17
232.472	32.26
232.689	9.73
232.907	65.02
233.125	85.5
233.342	108.03
233.56	15.87
233.777	58.88
233.995	77.31
234.213	17.92
234.43	108.03
234.648	46.59
234.865	-10.75
235.083	22.02
235.3	11.78
235.518	93.69
235.735	7.68
235.953	1.54
236.17	-18.94
236.388	32.26
236.605	11.78
236.822	60.93
237.04	-45.57
237.257	52.74
237.475	17.92
237.692	91.65
237.909	9.73
238.127	19.97
238.344	50.69
238.562	60.93
238.779	52.74
238.996	95.74
239.214	44.54
239.431	-4.61
239.648	13.82
239.865	75.26
240.083	-20.99
240.3	-6.66
240.517	-6.66
240.735	50.69
240.952	54.78
241.169	7.68
241.386	17.92
241.603	17.92
241.821	-76.29
242.038	79.36
242.255	15.87
242.472	-16.9
242.689	-10.75
242.907	71.17
243.124	17.92
243.341	32.26
243.558	9.73
243.775	110.08
243.992	62.98
244.209	85.5
244.426	91.65
244.643	95.74
244.86	13.82
245.078	13.82
245.295	34.3
245.512	32.26
245.729	30.21
245.946	-39.42
246.163	48.64
246.38	69.12
246.597	26.11
246.814	-2.56
247.031	-6.66
247.248	9.73
247.464	48.64
247.681	65.02
247.898	50.69
248.115	3.58
248.332	-16.9
248.549	22.02
248.766	19.97
248.983	-6.66
249.2	79.36
249.417	7.68
249.633	58.88
249.85	17.92
250.067	50.69
250.284	15.87
250.501	3.58
250.717	50.69
250.934	9.73
251.151	71.17
251.368	-10.75
251.585	101.89
251.801	-14.85
252.018	42.5
252.235	56.83
252.451	67.07
252.668	-0.51
252.885	81.41
253.102	40.45
253.318	26.11
253.535	13.82
253.752	-8.7
253.968	-20.99
254.185	-53.76
254.401	-6.66
254.618	79.36
254.835	5.63
255.051	69.12
255.268	40.45
255.484	11.78
255.701	30.21
255.917	-43.52
256.134	-51.71
256.351	-2.56
256.567	38.4
256.784	58.88
257	-27.14
257.217	38.4
257.433	52.74
257.65	34.3
257.866	38.4
258.082	-59.9
258.299	-68.09
258.515	26.11
258.732	5.63
258.948	-18.94
259.165	5.63
259.381	-20.99
259.597	5.63
259.814	54.78
260.03	19.97
260.246	-18.94
260.463	22.02
260.679	32.26
260.895	11.78
261.112	77.31
261.328	-16.9
261.544	-16.9
261.761	87.55
261.977	91.65
262.193	-10.75
262.409	3.58
262.626	17.92
262.842	50.69
263.058	50.69
263.274	-0.51
263.49	-16.9
263.707	99.84
263.923	1.54
264.139	54.78
264.355	15.87
264.571	38.4
264.787	26.11
265.004	5.63
265.22	112.13
265.436	-25.09
265.652	48.64
265.868	52.74
266.084	1.54
266.3	48.64
266.516	50.69
266.732	99.84
266.948	56.83
267.164	17.92
267.38	85.5
267.596	22.02
267.812	95.74
268.028	36.35
268.244	110.08
268.46	36.35
268.676	62.98
268.892	50.69
269.108	42.5
269.324	11.78
269.54	-2.56
269.756	73.21
269.972	52.74
270.188	9.73
270.403	-10.75
270.619	-41.47
270.835	19.97
271.051	-14.85
271.267	7.68
271.483	-23.04
271.698	46.59
271.914	40.45
272.13	40.45
272.346	71.17
272.562	-25.09
272.777	48.64
272.993	-0.51
273.209	11.78
273.425	7.68
273.64	97.79
273.856	132.61
274.072	58.88
274.287	5.63
274.503	11.78
274.719	93.69
274.934	62.98
275.15	36.35
275.366	13.82
275.581	32.26
275.797	58.88
276.012	89.6
276.228	5.63
276.444	32.26
276.659	54.78
276.875	-10.75
277.09	36.35
277.306	34.3
277.521	36.35
277.737	46.59
277.952	42.5
278.168	56.83
278.383	-10.75
278.599	15.87
278.814	99.84
279.03	46.59
279.245	103.93
279.461	15.87
279.676	38.4
279.892	9.73
280.107	19.97
280.322	26.11
280.538	-43.52
280.753	15.87
280.969	108.03
281.184	32.26
281.399	19.97
281.615	-31.23
281.83	99.84
282.045	5.63
282.26	-76.29
282.476	32.26
282.691	73.21
282.906	-35.33
283.122	-0.51
283.337	58.88
283.552	101.89
283.767	75.26
283.983	28.16
284.198	-8.7
284.413	46.59
284.628	32.26
284.843	-10.75
285.058	-2.56
285.274	46.59
285.489	5.63
285.704	-20.99
285.919	9.73
286.134	56.83
286.349	89.6
286.564	56.83
286.779	67.07
286.995	79.36
287.21	-66.05
287.425	62.98
287.64	17.92
287.855	-8.7
288.07	30.21
288.285	38.4
288.5	-25.09
288.715	26.11
288.93	44.54
289.145	52.74
289.36	-25.09
289.575	54.78
289.79	85.5
290.004	56.83
290.219	89.6
290.434	34.3
290.649	15.87
290.864	7.68
291.079	40.45
291.294	108.03
291.509	56.83
291.724	54.78
291.938	19.97
292.153	-2.56
292.368	-31.23
292.583	48.64
292.798	11.78
293.012	26.11
293.227	48.64
293.442	22.02
293.657	54.78
293.871	71.17
294.086	19.97
294.301	50.69
294.516	89.6
294.73	-0.51
294.945	26.11
295.16	32.26
295.374	75.26
295.589	93.69
295.804	1.54
296.018	11.78
296.233	24.06
296.447	54.78
296.662	7.68
296.877	46.59
297.091	36.35
297.306	22.02
297.52	19.97
297.735	-23.04
297.949	62.98
298.164	42.5
298.378	60.93
298.593	24.06
298.807	22.02
299.022	19.97
299.236	17.92
299.451	3.58
299.665	7.68
299.88	-4.61
300.094	15.87
300.309	56.83
300.523	-47.62
300.737	32.26
300.952	26.11
301.166	48.64
301.381	15.87
301.595	87.55
301.809	54.78
302.024	32.26
302.238	-4.61
302.452	9.73
302.667	101.89
302.881	46.59
303.095	52.74
303.309	91.65
303.524	105.98
303.738	17.92
303.952	26.11
304.166	62.98
304.381	7.68
304.595	69.12
304.809	5.63
305.023	-12.8
305.237	67.07
305.452	95.74
305.666	15.87
305.88	87.55
306.094	91.65
306.308	60.93
306.522	42.5
306.736	83.45
306.95	71.17
307.164	75.26
307.379	54.78
307.593	71.17
307.807	85.5
308.021	65.02
308.235	58.88
308.449	9.73
308.663	17.92
308.877	40.45
309.091	-2.56
309.305	67.07
309.519	9.73
309.733	58.88
309.947	34.3
310.161	-18.94
310.374	54.78
310.588	75.26
310.802	-39.42
311.016	30.21
311.23	58.88
311.444	40.45
311.658	-12.8
311.872	56.83
312.085	36.35
312.299	128.51
312.513	91.65
312.727	34.3
312.941	1.54
313.154	99.84
313.368	3.58
313.582	26.11
313.796	60.93
314.009	99.84
314.223	103.93
314.437	65.02
314.651	28.16
314.864	58.88
315.078	28.16
315.292	-10.75
315.505	-23.04
315.719	-23.04
315.933	48.64
316.146	42.5
316.36	-43.52
316.573	42.5
316.787	30.21
317.001	58.88
317.214	1.54
317.428	62.98
317.641	-27.14
317.855	-49.66
318.068	28.16
318.282	89.6
318.495	67.07
318.709	15.87
318.922	-2.56
319.136	110.08
319.349	58.88
319.563	-27.14
319.776	108.03
319.99	40.45
320.203	13.82
320.417	-18.94
320.63	79.36
320.843	24.06
321.057	62.98
321.27	30.21
321.483	26.11
321.697	46.59
321.91	42.5
322.124	38.4
322.337	34.3
322.55	-16.9
322.763	54.78
322.977	83.45
323.19	3.58
323.403	52.74
323.617	38.4
323.83	79.36
324.043	26.11
324.256	26.11
324.469	99.84
324.683	52.74
324.896	22.02
325.109	-14.85
325.322	22.02
325.535	65.02
325.748	3.58
325.962	15.87
326.175	36.35
326.388	34.3
326.601	30.21
326.814	42.5
327.027	54.78
327.24	-31.23
327.453	-2.56
327.666	69.12
327.879	101.89
328.092	85.5
328.305	99.84
328.518	34.3
328.731	24.06
328.944	7.68
329.157	9.73
329.37	36.35
329.583	11.78
329.796	138.75
330.009	-59.9
330.222	-25.09
330.435	24.06
330.648	9.73
330.861	40.45
331.073	48.64
331.286	17.92
331.499	67.07
331.712	9.73
331.925	134.65
332.138	81.41
332.35	60.93
332.563	-10.75
332.776	79.36
332.989	-4.61
333.202	89.6
333.414	50.69
333.627	95.74
333.84	42.5
334.053	3.58
334.265	93.69
334.478	38.4
334.691	101.89
334.903	44.54
335.116	-25.09
335.329	-20.99
335.541	103.93
335.754	30.21
335.966	38.4
336.179	7.68
336.392	77.31
336.604	128.51
336.817	5.63
337.029	67.07
337.242	58.88
337.454	75.26
337.667	52.74
337.88	-20.99
338.092	87.55
338.305	128.51
338.517	-0.51
338.729	15.87
338.942	44.54
339.154	32.26
339.367	67.07
339.579	-0.51
339.792	60.93
340.004	13.82
340.217	50.69
340.429	24.06
340.641	-2.56
340.854	58.88
341.066	-29.18
341.278	22.02
341.491	13.82
341.703	22.02
341.915	1.54
342.128	7.68
342.34	91.65
342.552	-2.56
342.764	62.98
342.977	11.78
343.189	-0.51
343.401	54.78
343.613	-4.61
343.826	60.93
344.038	44.54
344.25	52.74
344.462	1.54
344.674	136.7
344.886	42.5
345.099	89.6
345.311	95.74
345.523	32.26
345.735	48.64
345.947	50.69
346.159	24.06
346.371	75.26
346.583	36.35
346.795	134.65
347.007	-12.8
347.219	44.54
347.431	52.74
347.643	91.65
347.855	46.59
348.067	67.07
348.279	42.5
348.491	54.78
348.703	52.74
348.915	34.3
349.127	36.35
349.339	120.32
349.551	54.78
349.763	95.74
349.975	26.11
350.187	89.6
350.399	81.41
350.61	65.02
350.822	-16.9
351.034	52.74
351.246	36.35
351.458	81.41
351.669	116.22
351.881	19.97
352.093	73.21
352.305	108.03
352.517	22.02
352.728	79.36
352.94	58.88
353.152	40.45
353.363	56.83
353.575	62.98
353.787	62.98
353.999	-61.95
354.21	73.21
354.422	-12.8
354.633	52.74
354.845	9.73
355.057	48.64
355.268	17.92
355.48	46.59
355.692	-12.8
355.903	-20.99
356.115	58.88
356.326	19.97
356.538	30.21
356.749	50.69
356.961	71.17
357.172	11.78
357.384	30.21
357.595	116.22
357.807	-8.7
358.018	69.12
358.23	60.93
358.441	42.5
358.653	50.69
358.864	11.78
359.075	87.55
359.287	103.93
359.498	48.64
359.709	50.69
359.921	108.03
360.132	26.11
360.344	67.07
360.555	65.02
360.766	28.16
360.977	42.5
361.189	52.74
361.4	48.64
361.611	42.5
361.823	71.17
362.034	7.68
362.245	114.17
362.456	5.63
362.667	48.64
362.879	58.88
363.09	-2.56
363.301	44.54
363.512	46.59
363.723	13.82
363.935	62.98
364.146	60.93
364.357	79.36
364.568	79.36
364.779	30.21
364.99	22.02
365.201	-10.75
365.412	44.54
365.623	7.68
365.834	65.02
366.045	65.02
366.256	32.26
366.467	65.02
366.678	13.82
366.889	3.58
367.1	44.54
367.311	50.69
367.522	48.64
367.733	71.17
367.944	95.74
368.155	50.69
368.366	73.21
368.577	65.02
368.788	11.78
368.999	52.74
369.209	54.78
369.42	99.84
369.631	26.11
369.842	30.21
370.053	42.5
370.264	52.74
370.474	46.59
370.685	34.3
370.896	48.64
371.107	89.6
371.317	5.63
371.528	48.64
371.739	67.07
371.95	93.69
372.16	28.16
372.371	-4.61
372.582	42.5
372.792	69.12
373.003	75.26
373.214	9.73
373.424	93.69
373.635	38.4
373.846	28.16
374.056	81.41
374.267	75.26
374.477	46.59
374.688	19.97
374.898	62.98
375.109	50.69
375.319	32.26
375.53	108.03
375.74	62.98
375.951	36.35
376.161	38.4
376.372	5.63
376.582	81.41
376.793	28.16
377.003	-12.8
377.214	40.45
377.424	-2.56
377.635	28.16
377.845	17.92
378.055	114.17
378.266	-10.75
378.476	79.36
378.686	48.64
378.897	46.59
379.107	62.98
379.317	50.69
379.528	42.5
379.738	5.63
379.948	71.17
380.158	128.51
380.369	69.12
380.579	-14.85
380.789	46.59
380.999	34.3
381.21	110.08
381.42	15.87
381.63	87.55
381.84	26.11
382.05	46.59
382.261	62.98
382.471	99.84
382.681	-23.04
382.891	-2.56
383.101	22.02
383.311	28.16
383.521	3.58
383.731	28.16
383.941	22.02
384.151	67.07
384.361	-10.75
384.571	5.63
384.781	46.59
384.991	91.65
385.201	116.22
385.411	65.02
385.621	67.07
385.831	95.74
386.041	52.74
386.251	103.93
386.461	26.11
386.671	79.36
386.881	36.35
387.091	15.87
387.301	9.73
387.511	87.55
387.72	81.41
387.93	22.02
388.14	15.87
388.35	38.4
388.56	108.03
388.769	93.69
388.979	157.18
389.189	38.4
389.399	85.5
389.609	108.03
389.818	38.4
390.028	28.16
390.238	46.59
390.447	-45.57
390.657	67.07
390.867	50.69
391.076	50.69
391.286	7.68
391.496	155.13
391.705	56.83
391.915	79.36
392.125	58.88
392.334	114.17
392.544	48.64
392.753	83.45
392.963	34.3
393.172	19.97
393.382	71.17
393.591	120.32
393.801	34.3
394.01	103.93
394.22	22.02
394.429	26.11
394.639	75.26
394.848	54.78
395.058	50.69
395.267	116.22
395.477	132.61
395.686	118.27
395.895	48.64
396.105	153.09
396.314	9.73
396.524	48.64
396.733	91.65
396.942	81.41
397.152	81.41
397.361	101.89
397.57	-10.75
397.78	77.31
397.989	62.98
398.198	134.65
398.407	97.79
398.617	175.61
398.826	85.5
399.035	101.89
399.244	91.65
399.453	97.79
399.663	144.89
399.872	73.21
400.081	83.45
400.29	181.76
400.499	44.54
400.708	99.84
400.917	116.22
401.127	120.32
401.336	140.8
401.545	136.7
401.754	132.61
401.963	224.76
402.172	77.31
402.381	177.66
402.59	132.61
402.799	146.94
403.008	136.7
403.217	235
403.426	128.51
403.635	85.5
403.844	155.13
404.053	99.84
404.262	114.17
404.471	157.18
404.68	196.09
404.888	161.28
405.097	198.14
405.306	198.14
405.515	142.85
405.724	177.66
405.933	155.13
406.142	206.33
406.35	200.19
406.559	128.51
406.768	304.64
406.977	245.24
407.185	200.19
407.394	273.92
407.603	179.71
407.812	165.37
408.02	245.24
408.229	318.97
408.438	218.62
408.646	204.28
408.855	222.72
409.064	206.33
409.272	290.3
409.481	345.59
409.69	337.4
409.898	388.6
410.107	364.03
410.315	314.88
410.524	243.2
410.733	433.66
410.941	364.03
411.15	380.41
411.358	355.83
411.567	333.31
411.775	386.55
411.984	372.22
412.192	470.52
412.401	456.19
412.609	441.85
412.818	493.05
413.026	568.82
413.234	538.1
413.443	484.86
413.651	458.23
413.86	574.97
414.068	677.37
414.276	703.99
414.485	665.08
414.693	656.89
414.901	683.51
415.11	706.04
415.318	687.61
415.526	753.14
415.734	845.3
415.943	863.73
416.151	798.2
416.359	847.35
416.567	835.06
416.776	941.55
416.984	986.61
417.192	1050.1
417.4	994.8
417.608	998.9
417.817	1101.3
418.025	1195.5
418.233	1144.3
418.441	1164.78
418.649	1220.08
418.857	1222.13
419.065	1263.08
419.273	1351.15
419.481	1406.44
419.689	1504.75
419.897	1605.1
420.105	1557.99
420.313	1617.38
420.521	1680.87
420.729	1697.25
420.937	1756.65
421.145	1801.7
421.353	1924.58
421.561	1902.05
421.769	2039.26
421.977	2033.12
422.185	2026.98
422.393	2117.09
422.601	2483.67
422.809	2352.6
423.017	2407.9
423.224	2475.48
423.432	2549.21
423.64	2481.63
423.848	2842.07
424.056	2686.42
424.263	2997.71
424.471	2901.46
424.679	3102.16
424.887	3253.71
425.094	3214.8
425.302	3343.82
425.51	3427.79
425.718	3458.51
425.925	3548.62
426.133	3657.16
426.341	3837.38
426.548	3913.16
426.756	4033.99
426.964	4052.42
427.171	4337.09
427.379	4492.73
427.586	4410.81
427.794	4724.15
428.001	4746.68
428.209	5154.23
428.417	4896.18
428.624	5258.67
428.832	5436.85
429.039	5340.59
429.247	5264.82
429.454	5940.65
429.662	6098.34
429.869	5735.85
430.076	6088.1
430.284	6000.04
430.491	6397.34
430.699	6571.42
430.906	6802.84
431.114	6796.7
431.321	6983.06
431.528	7136.66
431.736	7593.36
431.943	7923.08
432.15	7701.9
432.358	7871.88
432.565	8185.22
432.772	8029.57
432.979	8662.4
433.187	8824.19
433.394	8734.07
433.601	9418.1
433.808	9284.98
434.016	9352.56
434.223	9758.06
434.43	10388.83
434.637	10323.3
434.844	10855.77
435.052	11054.42
435.259	11085.14
435.466	11048.28
435.673	10990.94
435.88	11685.2
436.087	12326.21
436.294	12283.2
436.501	11916.62
436.708	12254.53
436.915	12455.23
437.122	12991.8
437.329	13360.44
437.537	13489.46
437.743	13757.74
437.95	13825.33
438.157	14531.87
438.364	14701.86
438.571	15082.78
438.778	14812.45
438.985	16411.91
439.192	15803.66
439.399	16246.02
439.606	15824.14
439.813	17034.49
440.02	17581.3
440.227	17290.49
440.433	17448.18
440.64	17784.05
440.847	17708.27
441.054	18302.18
441.261	19295.45
441.467	19205.34
441.674	19754.19
441.881	20090.06
442.088	20145.36
442.294	20040.91
442.501	20542.66
442.708	20919.49
442.914	21777.59
443.121	22547.62
443.328	22244.52
443.534	23653.53
443.741	22953.12
443.948	22629.54
444.154	24458.38
444.361	24282.25
444.568	24472.71
444.774	24095.89
444.981	24573.07
445.187	25531.51
445.394	26436.72
445.6	26076.27
445.807	28677.19
446.013	27372.64
446.22	28058.71
446.426	29045.83
446.633	29123.65
446.839	30061.62
447.046	28922.95
447.252	30829.61
447.459	30350.38
447.665	30387.25
447.871	31493.15
448.078	33373.19
448.284	31554.59
448.491	32599.05
448.697	33913.85
448.903	34143.22
449.11	34362.36
449.316	33838.08
449.522	34331.64
449.728	35343.33
449.935	35587.04
450.141	35435.49
450.347	36191.19
450.553	35355.62
450.76	35734.49
450.966	37022.67
451.172	36455.38
451.378	37430.21
451.584	36719.57
451.791	37540.8
451.997	37153.74
452.203	38040.51
452.409	38032.32
452.615	38046.65
452.821	36252.63
453.027	35967.96
453.233	38069.18
453.44	36553.68
453.646	36932.56
453.852	37352.39
454.058	37825.47
454.264	36277.21
454.47	37323.72
454.676	36346.84
454.882	37630.91
455.088	34180.09
455.294	35064.81
455.5	35566.56
455.705	35697.63
455.911	34089.98
456.117	33588.22
456.323	33162.25
456.529	31839.26
456.735	32730.12
456.941	31794.2
457.147	31519.78
457.352	30559.28
457.558	30284.85
457.764	30479.41
457.97	29588.54
458.176	29252.67
458.381	28963.91
458.587	27513.95
458.793	27583.58
458.999	26496.11
459.204	28314.7
459.41	27262.05
459.616	25658.49
459.821	25181.31
460.027	25009.28
460.233	25040
460.438	23839.89
460.644	24165.52
460.85	22848.68
461.055	22631.59
461.261	22510.76
461.466	20991.17
461.672	20131.02
461.878	21746.87
462.083	19954.9
462.289	20020.43
462.494	19600.6
462.7	18703.59
462.905	18111.72
463.111	19002.59
463.316	19139.8
463.522	18672.87
463.727	18756.83
463.932	18455.78
464.138	18453.73
464.343	18459.88
464.549	17859.82
464.754	18449.64
464.959	18287.85
465.165	18189.55
465.37	17497.33
465.575	16944.38
465.781	17667.31
465.986	17601.78
466.191	17134.84
466.397	16844.03
466.602	16020.75
466.807	16737.54
467.012	16725.25
467.218	16338.18
467.423	16364.81
467.628	16366.85
467.833	16956.67
468.038	16383.24
468.244	15756.56
