Data from USB4F104151__30__11-51-34-848.txt Node

Date: Fri Mar 14 11:51:34 EDT 2025
User: louis
Spectrometer: USB4F10415
Trigger mode: 4
Integration Time (sec): 2.000000E-2
Scans to average: 1
Electric dark correction enabled: true
Nonlinearity correction enabled: false
Boxcar width: 0
XAxis mode: Wavelengths
Number of Pixels in Spectrum: 3648
>>>>>Begin Spectral Data<<<<<
178.204	-116.56
178.424	-116.56
178.644	-116.56
178.864	-73.56
179.084	-67.41
179.304	-44.88
179.524	-18.26
179.744	-75.6
179.964	59.56
180.184	22.7
180.404	86.19
180.624	-34.64
180.844	20.65
181.064	30.89
181.283	-8.02
181.503	-10.07
181.723	-28.5
181.943	-34.64
182.163	16.55
182.383	-26.45
182.602	32.94
182.822	24.75
183.042	14.51
183.262	10.41
183.482	-3.93
183.701	-12.12
183.921	-5.97
184.141	57.51
184.361	-18.26
184.58	-12.12
184.8	12.46
185.02	30.89
185.239	69.8
185.459	6.31
185.679	37.03
185.898	18.6
186.118	43.18
186.338	-53.08
186.557	37.03
186.777	51.37
186.997	10.41
187.216	32.94
187.436	24.75
187.655	30.89
187.875	32.94
188.095	39.08
188.314	37.03
188.534	77.99
188.753	80.04
188.973	22.7
189.192	43.18
189.412	22.7
189.631	37.03
189.851	-8.02
190.07	94.38
190.29	-61.27
190.509	-1.88
190.729	49.32
190.948	49.32
191.168	108.71
191.387	-34.64
191.607	28.84
191.826	69.8
192.045	82.09
192.265	102.57
192.484	88.23
192.704	-10.07
192.923	47.27
193.142	84.14
193.362	0.17
193.581	16.55
193.8	43.18
194.02	22.7
194.239	-44.88
194.458	8.36
194.678	16.55
194.897	20.65
195.116	-10.07
195.335	28.84
195.555	71.85
195.774	43.18
195.993	2.22
196.212	16.55
196.432	57.51
196.651	-1.88
196.87	53.42
197.089	96.43
197.308	59.56
197.528	39.08
197.747	-40.79
197.966	30.89
198.185	59.56
198.404	-30.55
198.623	26.79
198.842	92.33
199.062	102.57
199.281	106.67
199.5	57.51
199.719	-40.79
199.938	-22.36
200.157	43.18
200.376	16.55
200.595	71.85
200.814	20.65
201.033	53.42
201.252	24.75
201.471	-1.88
201.69	96.43
201.909	84.14
202.128	39.08
202.347	102.57
202.566	4.27
202.785	65.71
203.004	-3.93
203.223	100.52
203.442	39.08
203.661	61.61
203.879	30.89
204.098	28.84
204.317	-12.12
204.536	8.36
204.755	57.51
204.974	110.76
205.193	-10.07
205.411	49.32
205.63	-30.55
205.849	47.27
206.068	14.51
206.287	28.84
206.505	41.13
206.724	86.19
206.943	10.41
207.162	-5.97
207.381	-32.6
207.599	10.41
207.818	41.13
208.037	-26.45
208.255	6.31
208.474	147.62
208.693	30.89
208.911	0.17
209.13	41.13
209.349	-65.36
209.567	53.42
209.786	41.13
210.005	98.47
210.223	88.23
210.442	-18.26
210.661	51.37
210.879	-5.97
211.098	88.23
211.316	41.13
211.535	-28.5
211.753	16.55
211.972	45.23
212.191	47.27
212.409	77.99
212.628	63.66
212.846	14.51
213.065	20.65
213.283	77.99
213.502	-42.84
213.72	-5.97
213.938	8.36
214.157	22.7
214.375	69.8
214.594	26.79
214.812	18.6
215.031	32.94
215.249	16.55
215.467	67.75
215.686	14.51
215.904	45.23
216.122	82.09
216.341	135.34
216.559	59.56
216.778	-18.26
216.996	55.47
217.214	49.32
217.432	69.8
217.651	-20.31
217.869	-10.07
218.087	45.23
218.306	39.08
218.524	51.37
218.742	114.86
218.96	10.41
219.179	26.79
219.397	37.03
219.615	-1.88
219.833	-73.56
220.051	-1.88
220.27	6.31
220.488	102.57
220.706	49.32
220.924	80.04
221.142	43.18
221.36	67.75
221.578	26.79
221.796	0.17
222.015	-1.88
222.233	67.75
222.451	102.57
222.669	-1.88
222.887	102.57
223.105	45.23
223.323	73.9
223.541	-77.65
223.759	67.75
223.977	24.75
224.195	20.65
224.413	24.75
224.631	0.17
224.849	28.84
225.067	57.51
225.285	-26.45
225.503	-34.64
225.721	-53.08
225.939	-67.41
226.157	41.13
226.375	18.6
226.592	32.94
226.81	-1.88
227.028	67.75
227.246	123.05
227.464	75.95
227.682	20.65
227.9	22.7
228.117	94.38
228.335	49.32
228.553	61.61
228.771	2.22
228.989	73.9
229.206	14.51
229.424	49.32
229.642	-28.5
229.86	4.27
230.077	-16.21
230.295	39.08
230.513	104.62
230.731	82.09
230.948	12.46
231.166	-18.26
231.384	22.7
231.601	-5.97
231.819	26.79
232.037	-24.4
232.254	22.7
232.472	75.95
232.689	80.04
232.907	65.71
233.125	18.6
233.342	20.65
233.56	53.42
233.777	51.37
233.995	16.55
234.213	90.28
234.43	4.27
234.648	100.52
234.865	104.62
235.083	57.51
235.3	30.89
235.518	75.95
235.735	22.7
235.953	63.66
236.17	80.04
236.388	28.84
236.605	55.47
236.822	84.14
237.04	24.75
237.257	16.55
237.475	30.89
237.692	37.03
237.909	39.08
238.127	14.51
238.344	16.55
238.562	41.13
238.779	14.51
238.996	34.99
239.214	16.55
239.431	14.51
239.648	10.41
239.865	16.55
240.083	55.47
240.3	41.13
240.517	77.99
240.735	26.79
240.952	55.47
241.169	80.04
241.386	39.08
241.603	6.31
241.821	10.41
242.038	106.67
242.255	75.95
242.472	-5.97
242.689	20.65
242.907	90.28
243.124	37.03
243.341	37.03
243.558	20.65
243.775	-22.36
243.992	-28.5
244.209	53.42
244.426	88.23
244.643	55.47
244.86	-5.97
245.078	125.1
245.295	86.19
245.512	108.71
245.729	6.31
245.946	24.75
246.163	12.46
246.38	55.47
246.597	-12.12
246.814	32.94
247.031	73.9
247.248	43.18
247.464	34.99
247.681	53.42
247.898	-16.21
248.115	28.84
248.332	-8.02
248.549	69.8
248.766	39.08
248.983	51.37
249.2	59.56
249.417	39.08
249.633	30.89
249.85	65.71
250.067	49.32
250.284	22.7
250.501	86.19
250.717	127.14
250.934	12.46
251.151	-34.64
251.368	57.51
251.585	45.23
251.801	26.79
252.018	39.08
252.235	80.04
252.451	49.32
252.668	-1.88
252.885	55.47
253.102	22.7
253.318	34.99
253.535	-59.22
253.752	16.55
253.968	0.17
254.185	22.7
254.401	57.51
254.618	75.95
254.835	-32.6
255.051	114.86
255.268	53.42
255.484	67.75
255.701	49.32
255.917	49.32
256.134	-20.31
256.351	65.71
256.567	63.66
256.784	51.37
257	-16.21
257.217	28.84
257.433	22.7
257.65	51.37
257.866	69.8
258.082	-10.07
258.299	26.79
258.515	55.47
258.732	43.18
258.948	45.23
259.165	10.41
259.381	43.18
259.597	71.85
259.814	10.41
260.03	67.75
260.246	41.13
260.463	73.9
260.679	28.84
260.895	43.18
261.112	59.56
261.328	-30.55
261.544	88.23
261.761	39.08
261.977	69.8
262.193	51.37
262.409	-1.88
262.626	65.71
262.842	-34.64
263.058	47.27
263.274	20.65
263.49	39.08
263.707	39.08
263.923	45.23
264.139	14.51
264.355	28.84
264.571	34.99
264.787	30.89
265.004	94.38
265.22	-30.55
265.436	16.55
265.652	6.31
265.868	71.85
266.084	28.84
266.3	75.95
266.516	-24.4
266.732	57.51
266.948	34.99
267.164	20.65
267.38	-5.97
267.596	98.47
267.812	71.85
268.028	114.86
268.244	61.61
268.46	12.46
268.676	65.71
268.892	30.89
269.108	10.41
269.324	26.79
269.54	65.71
269.756	75.95
269.972	49.32
270.188	55.47
270.403	-91.99
270.619	63.66
270.835	45.23
271.051	67.75
271.267	86.19
271.483	18.6
271.698	63.66
271.914	73.9
272.13	26.79
272.346	-16.21
272.562	30.89
272.777	123.05
272.993	43.18
273.209	67.75
273.425	-10.07
273.64	14.51
273.856	20.65
274.072	80.04
274.287	30.89
274.503	-8.02
274.719	2.22
274.934	2.22
275.15	55.47
275.366	63.66
275.581	-14.17
275.797	6.31
276.012	59.56
276.228	51.37
276.444	55.47
276.659	82.09
276.875	108.71
277.09	71.85
277.306	-18.26
277.521	61.61
277.737	24.75
277.952	96.43
278.168	55.47
278.383	-8.02
278.599	26.79
278.814	86.19
279.03	59.56
279.245	71.85
279.461	-10.07
279.676	63.66
279.892	-5.97
280.107	0.17
280.322	12.46
280.538	-16.21
280.753	30.89
280.969	-36.69
281.184	16.55
281.399	63.66
281.615	80.04
281.83	57.51
282.045	12.46
282.26	30.89
282.476	6.31
282.691	16.55
282.906	-1.88
283.122	6.31
283.337	20.65
283.552	84.14
283.767	75.95
283.983	47.27
284.198	26.79
284.413	34.99
284.628	22.7
284.843	88.23
285.058	37.03
285.274	39.08
285.489	-5.97
285.704	94.38
285.919	-30.55
286.134	-20.31
286.349	49.32
286.564	57.51
286.779	94.38
286.995	39.08
287.21	18.6
287.425	75.95
287.64	37.03
287.855	34.99
288.07	12.46
288.285	84.14
288.5	104.62
288.715	67.75
288.93	61.61
289.145	-8.02
289.36	59.56
289.575	16.55
289.79	43.18
290.004	-12.12
290.219	51.37
290.434	104.62
290.649	49.32
290.864	12.46
291.079	106.67
291.294	80.04
291.509	53.42
291.724	57.51
291.938	71.85
292.153	59.56
292.368	53.42
292.583	45.23
292.798	77.99
293.012	34.99
293.227	14.51
293.442	-55.12
293.657	24.75
293.871	26.79
294.086	86.19
294.301	67.75
294.516	32.94
294.73	-5.97
294.945	43.18
295.16	8.36
295.374	22.7
295.589	20.65
295.804	73.9
296.018	51.37
296.233	-59.22
296.447	4.27
296.662	14.51
296.877	14.51
297.091	53.42
297.306	149.67
297.52	47.27
297.735	77.99
297.949	43.18
298.164	45.23
298.378	16.55
298.593	26.79
298.807	82.09
299.022	34.99
299.236	24.75
299.451	-20.31
299.665	18.6
299.88	43.18
300.094	-22.36
300.309	106.67
300.523	69.8
300.737	24.75
300.952	106.67
301.166	92.33
301.381	12.46
301.595	41.13
301.809	49.32
302.024	-10.07
302.238	6.31
302.452	100.52
302.667	-14.17
302.881	77.99
303.095	34.99
303.309	65.71
303.524	16.55
303.738	92.33
303.952	4.27
304.166	69.8
304.381	26.79
304.595	53.42
304.809	26.79
305.023	-3.93
305.237	18.6
305.452	-18.26
305.666	61.61
305.88	45.23
306.094	86.19
306.308	30.89
306.522	67.75
306.736	-57.17
306.95	63.66
307.164	4.27
307.379	-55.12
307.593	49.32
307.807	30.89
308.021	71.85
308.235	86.19
308.449	-28.5
308.663	61.61
308.877	155.82
309.091	88.23
309.305	-10.07
309.519	32.94
309.733	28.84
309.947	55.47
310.161	108.71
310.374	41.13
310.588	2.22
310.802	47.27
311.016	-10.07
311.23	-5.97
311.444	51.37
311.658	8.36
311.872	69.8
312.085	22.7
312.299	63.66
312.513	61.61
312.727	84.14
312.941	51.37
313.154	75.95
313.368	26.79
313.582	18.6
313.796	80.04
314.009	16.55
314.223	102.57
314.437	77.99
314.651	63.66
314.864	63.66
315.078	6.31
315.292	88.23
315.505	16.55
315.719	24.75
315.933	24.75
316.146	-20.31
316.36	34.99
316.573	98.47
316.787	88.23
317.001	34.99
317.214	-34.64
317.428	32.94
317.641	-30.55
317.855	-18.26
318.068	59.56
318.282	14.51
318.495	104.62
318.709	57.51
318.922	8.36
319.136	94.38
319.349	28.84
319.563	0.17
319.776	59.56
319.99	2.22
320.203	59.56
320.417	0.17
320.63	73.9
320.843	92.33
321.057	75.95
321.27	37.03
321.483	14.51
321.697	77.99
321.91	34.99
322.124	47.27
322.337	-22.36
322.55	16.55
322.763	-8.02
322.977	-10.07
323.19	51.37
323.403	67.75
323.617	49.32
323.83	80.04
324.043	8.36
324.256	12.46
324.469	43.18
324.683	51.37
324.896	112.81
325.109	84.14
325.322	39.08
325.535	67.75
325.748	73.9
325.962	65.71
326.175	-46.93
326.388	37.03
326.601	-16.21
326.814	6.31
327.027	10.41
327.24	67.75
327.453	14.51
327.666	102.57
327.879	49.32
328.092	96.43
328.305	-10.07
328.518	6.31
328.731	71.85
328.944	41.13
329.157	75.95
329.37	65.71
329.583	73.9
329.796	65.71
330.009	-32.6
330.222	108.71
330.435	82.09
330.648	49.32
330.861	59.56
331.073	28.84
331.286	82.09
331.499	4.27
331.712	69.8
331.925	55.47
332.138	45.23
332.35	96.43
332.563	61.61
332.776	4.27
332.989	49.32
333.202	55.47
333.414	-12.12
333.627	82.09
333.84	61.61
334.053	86.19
334.265	-38.74
334.478	49.32
334.691	43.18
334.903	14.51
335.116	-51.03
335.329	34.99
335.541	67.75
335.754	57.51
335.966	30.89
336.179	98.47
336.392	67.75
336.604	37.03
336.817	12.46
337.029	61.61
337.242	-1.88
337.454	75.95
337.667	32.94
337.88	-32.6
338.092	59.56
338.305	94.38
338.517	80.04
338.729	166.06
338.942	75.95
339.154	53.42
339.367	47.27
339.579	57.51
339.792	8.36
340.004	57.51
340.217	-12.12
340.429	49.32
340.641	55.47
340.854	-1.88
341.066	51.37
341.278	26.79
341.491	51.37
341.703	10.41
341.915	-67.41
342.128	24.75
342.34	16.55
342.552	39.08
342.764	32.94
342.977	37.03
343.189	55.47
343.401	84.14
343.613	22.7
343.826	26.79
344.038	88.23
344.25	98.47
344.462	65.71
344.674	59.56
344.886	55.47
345.099	20.65
345.311	53.42
345.523	88.23
345.735	-12.12
345.947	30.89
346.159	-51.03
346.371	94.38
346.583	57.51
346.795	88.23
347.007	12.46
347.219	-18.26
347.431	49.32
347.643	145.58
347.855	47.27
348.067	65.71
348.279	0.17
348.491	18.6
348.703	80.04
348.915	37.03
349.127	69.8
349.339	20.65
349.551	26.79
349.763	92.33
349.975	75.95
350.187	96.43
350.399	53.42
350.61	57.51
350.822	75.95
351.034	39.08
351.246	-26.45
351.458	77.99
351.669	2.22
351.881	67.75
352.093	49.32
352.305	80.04
352.517	55.47
352.728	16.55
352.94	53.42
353.152	-32.6
353.363	-3.93
353.575	92.33
353.787	86.19
353.999	51.37
354.21	92.33
354.422	-22.36
354.633	43.18
354.845	59.56
355.057	65.71
355.268	53.42
355.48	92.33
355.692	43.18
355.903	51.37
356.115	118.95
356.326	16.55
356.538	63.66
356.749	86.19
356.961	149.67
357.172	4.27
357.384	24.75
357.595	131.24
357.807	102.57
358.018	67.75
358.23	34.99
358.441	84.14
358.653	49.32
358.864	26.79
359.075	-38.74
359.287	86.19
359.498	32.94
359.709	106.67
359.921	51.37
360.132	92.33
360.344	51.37
360.555	37.03
360.766	41.13
360.977	45.23
361.189	49.32
361.4	2.22
361.611	96.43
361.823	10.41
362.034	24.75
362.245	-10.07
362.456	65.71
362.667	65.71
362.879	39.08
363.09	-36.69
363.301	47.27
363.512	53.42
363.723	55.47
363.935	28.84
364.146	131.24
364.357	-10.07
364.568	51.37
364.779	63.66
364.99	84.14
365.201	55.47
365.412	110.76
365.623	88.23
365.834	67.75
366.045	0.17
366.256	59.56
366.467	63.66
366.678	26.79
366.889	65.71
367.1	77.99
367.311	32.94
367.522	57.51
367.733	100.52
367.944	30.89
368.155	8.36
368.366	57.51
368.577	22.7
368.788	37.03
368.999	20.65
369.209	32.94
369.42	28.84
369.631	92.33
369.842	69.8
370.053	-22.36
370.264	6.31
370.474	71.85
370.685	65.71
370.896	-20.31
371.107	118.95
371.317	75.95
371.528	20.65
371.739	65.71
371.95	0.17
372.16	59.56
372.371	-36.69
372.582	41.13
372.792	145.58
373.003	116.9
373.214	26.79
373.424	94.38
373.635	30.89
373.846	106.67
374.056	53.42
374.267	39.08
374.477	-5.97
374.688	32.94
374.898	75.95
375.109	75.95
375.319	104.62
375.53	63.66
375.74	67.75
375.951	75.95
376.161	121
376.372	102.57
376.582	102.57
376.793	37.03
377.003	88.23
377.214	22.7
377.424	26.79
377.635	39.08
377.845	73.9
378.055	43.18
378.266	-32.6
378.476	53.42
378.686	88.23
378.897	84.14
379.107	118.95
379.317	24.75
379.528	22.7
379.738	77.99
379.948	-20.31
380.158	125.1
380.369	90.28
380.579	69.8
380.789	34.99
380.999	71.85
381.21	67.75
381.42	57.51
381.63	16.55
381.84	57.51
382.05	84.14
382.261	118.95
382.471	104.62
382.681	61.61
382.891	82.09
383.101	10.41
383.311	104.62
383.521	24.75
383.731	114.86
383.941	118.95
384.151	65.71
384.361	88.23
384.571	30.89
384.781	8.36
384.991	110.76
385.201	100.52
385.411	32.94
385.621	57.51
385.831	63.66
386.041	57.51
386.251	75.95
386.461	51.37
386.671	0.17
386.881	75.95
387.091	75.95
387.301	96.43
387.511	112.81
387.72	184.49
387.93	28.84
388.14	28.84
388.35	112.81
388.56	55.47
388.769	86.19
388.979	135.34
389.189	34.99
389.399	59.56
389.609	102.57
389.818	63.66
390.028	73.9
390.238	37.03
390.447	116.9
390.657	55.47
390.867	24.75
391.076	84.14
391.286	16.55
391.496	26.79
391.705	32.94
391.915	116.9
392.125	57.51
392.334	12.46
392.544	108.71
392.753	86.19
392.963	88.23
393.172	92.33
393.382	14.51
393.591	102.57
393.801	61.61
394.01	88.23
394.22	86.19
394.429	84.14
394.639	34.99
394.848	110.76
395.058	98.47
395.267	57.51
395.477	96.43
395.686	129.19
395.895	127.14
396.105	90.28
396.314	53.42
396.524	86.19
396.733	129.19
396.942	164.01
397.152	118.95
397.361	94.38
397.57	59.56
397.78	116.9
397.989	61.61
398.198	192.68
398.407	86.19
398.617	100.52
398.826	137.38
399.035	143.53
399.244	116.9
399.453	96.43
399.663	161.96
399.872	174.25
400.081	137.38
400.29	145.58
400.499	112.81
400.708	157.86
400.917	92.33
401.127	94.38
401.336	135.34
401.545	182.44
401.754	92.33
401.963	192.68
402.172	125.1
402.381	139.43
402.59	137.38
402.799	104.62
403.008	86.19
403.217	159.91
403.426	153.77
403.635	149.67
403.844	20.65
404.053	204.97
404.262	174.25
404.471	221.35
404.68	108.71
404.888	155.82
405.097	141.48
405.306	164.01
405.515	225.45
405.724	184.49
405.933	174.25
406.142	207.02
406.35	237.74
406.559	245.93
406.768	192.68
406.977	170.15
407.185	237.74
407.394	174.25
407.603	207.02
407.812	274.6
408.02	346.28
408.229	252.07
408.438	213.16
408.646	235.69
408.855	280.74
409.064	282.79
409.272	235.69
409.481	303.27
409.69	297.13
409.898	346.28
410.107	288.93
410.315	284.84
410.524	325.8
410.733	319.65
410.941	272.55
411.15	385.19
411.358	383.14
411.567	362.66
411.775	424.1
411.984	385.19
412.192	368.81
412.401	438.44
412.609	446.63
412.818	487.59
413.026	508.07
413.234	530.59
413.443	553.12
413.651	645.28
413.86	579.75
414.068	653.47
414.276	573.6
414.485	616.61
414.693	645.28
414.901	692.38
415.11	696.48
415.318	704.67
415.526	708.77
415.734	694.43
415.943	800.93
416.151	878.75
416.359	909.47
416.567	911.52
416.776	975
416.984	979.1
417.192	1011.87
417.4	997.53
417.608	819.36
417.817	993.44
418.025	1065.11
418.233	1235.1
418.441	1169.56
418.649	1169.56
418.857	1200.28
419.065	1441.94
419.273	1243.29
419.481	1413.27
419.689	1429.65
419.897	1570.96
420.105	1456.28
420.313	1607.83
420.521	1542.29
420.729	1628.31
420.937	1759.38
421.145	1812.62
421.353	1935.5
421.561	1976.46
421.769	1927.31
421.977	1937.55
422.185	2080.91
422.393	2160.78
422.601	2271.37
422.809	2367.62
423.017	2320.52
423.224	2381.96
423.432	2467.97
423.64	2474.12
423.848	2607.23
424.056	2621.57
424.263	2846.85
424.471	2930.81
424.679	2832.51
424.887	3045.5
425.094	3061.88
425.302	3186.81
425.51	3233.91
425.718	3354.74
425.925	3551.35
426.133	3510.39
426.341	3797.1
426.548	3909.74
426.756	3932.27
426.964	3981.42
427.171	4126.83
427.379	4374.63
427.586	4231.27
427.794	4399.21
428.001	4671.59
428.209	5003.36
428.417	4909.15
428.624	5212.25
428.832	5206.11
429.039	5029.98
429.247	5261.4
429.454	5666.9
429.662	5867.6
429.869	5693.52
430.076	6219.85
430.284	5843.03
430.491	6119.5
430.699	6467.66
430.906	6451.27
431.114	6479.94
431.321	6891.59
431.528	6862.91
431.736	7344.19
431.943	7948.34
432.15	7508.02
432.358	7485.5
432.565	8087.6
432.772	8028.21
432.979	8466.47
433.187	8497.19
433.394	8509.48
433.601	9080.86
433.808	9349.15
434.016	9205.79
434.223	9582.62
434.43	10080.27
434.637	9855
434.844	10678.28
435.052	10723.34
435.259	10725.38
435.466	10684.42
435.673	10647.56
435.88	11431.93
436.087	12025.84
436.294	11698.17
436.501	11560.95
436.708	12138.48
436.915	12435.44
437.122	12832.74
437.329	12840.93
437.537	13191.14
437.743	13361.12
437.95	13332.45
438.157	13995.99
438.364	14583.76
438.571	14383.06
438.778	14452.69
438.985	15951.8
439.192	15269.83
439.399	15644.6
439.606	15546.3
439.813	16275.38
440.02	17334.18
440.227	16918.44
440.433	16775.08
440.64	17493.92
440.847	17502.11
441.054	17844.12
441.261	18755.47
441.467	18325.4
441.674	19130.25
441.881	19828.6
442.088	19617.66
442.294	19519.36
442.501	20098.94
442.708	20467.57
442.914	21219.17
443.121	22218.58
443.328	21610.34
443.534	22998.86
443.741	22294.36
443.948	22187.86
444.154	24069.95
444.361	23705.41
444.568	23760.7
444.774	23865.15
444.981	24033.08
445.187	25083.69
445.394	25802.53
445.6	25468.71
445.807	27784.96
446.013	26582.81
446.22	27045.65
446.426	28165.88
446.633	28411.64
446.839	29566.7
447.046	28483.32
447.252	29994.72
447.459	29753.06
447.665	29945.57
447.871	31276.75
448.078	32421.56
448.284	30994.13
448.491	31631.05
448.697	32988.85
448.903	33621.67
449.11	33697.45
449.316	33167.02
449.522	34313.89
449.728	34475.68
449.935	34981.52
450.141	35014.29
450.347	35964.55
450.553	34664.09
450.76	35235.47
450.966	36220.55
451.172	35638.92
451.378	36681.34
451.584	35657.35
451.791	37019.25
451.997	36783.74
452.203	37432.94
452.409	37527.15
452.615	37449.33
452.821	35450.51
453.027	35423.89
453.233	37643.88
453.44	36275.84
453.646	36624
453.852	36671.1
454.058	37385.84
454.264	36064.9
454.47	36769.4
454.676	36001.41
454.882	37187.19
455.088	34191.01
455.294	34573.98
455.5	34631.32
455.705	35395.21
455.911	33885.86
456.117	33132.21
456.323	32786.1
456.529	30998.23
456.735	32286.4
456.941	31491.79
457.147	31237.84
457.352	30424.79
457.558	29902.56
457.764	30027.49
457.97	29617.89
458.176	28657.4
458.381	28604.15
458.587	27256.59
458.793	27197.2
458.999	25939.74
459.204	27703.04
459.41	27008.78
459.616	25141.04
459.821	25063.21
460.027	25118.51
460.233	24794.93
460.438	23213.9
460.644	23672.64
460.85	22527.83
461.055	22452.05
461.261	22312.79
461.466	20619.12
461.672	19709.82
461.878	21446.5
462.083	19756.93
462.289	19568.51
462.494	19279.75
462.7	18573.2
462.905	17909.66
463.111	18757.52
463.316	18446.23
463.522	18139.03
463.727	18335.63
463.932	18235.28
464.138	18200.47
464.343	18075.54
464.549	17512.35
464.754	18083.73
464.959	17938.33
465.165	17676.19
465.37	17192.87
465.575	16584.62
465.781	17344.42
465.986	17491.87
466.191	16891.82
466.397	16414.64
466.602	15450.05
466.807	16388.02
467.012	16400.3
467.218	16086.97
