Data from USB4F104151__7__11-51-06-491.txt Node

Date: Fri Mar 14 11:51:06 EDT 2025
User: louis
Spectrometer: USB4F10415
Trigger mode: 4
Integration Time (sec): 2.000000E-2
Scans to average: 1
Electric dark correction enabled: true
Nonlinearity correction enabled: false
Boxcar width: 0
XAxis mode: Wavelengths
Number of Pixels in Spectrum: 3648
>>>>>Begin Spectral Data<<<<<
178.204	-43.52
178.424	-43.52
178.644	-43.52
178.864	-158.21
179.084	-102.91
179.304	52.74
179.524	17.92
179.744	-18.94
179.964	30.21
180.184	56.83
180.404	-18.94
180.624	-64
180.844	-96.77
181.064	9.73
181.283	34.3
181.503	-6.66
181.723	3.58
181.943	-49.66
182.163	40.45
182.383	52.74
182.602	30.21
182.822	30.21
183.042	42.5
183.262	28.16
183.482	13.82
183.701	91.65
183.921	60.93
184.141	30.21
184.361	13.82
184.58	-20.99
184.8	44.54
185.02	-6.66
185.239	-35.33
185.459	-39.42
185.679	34.3
185.898	-39.42
186.118	116.22
186.338	3.58
186.557	81.41
186.777	26.11
186.997	73.21
187.216	-2.56
187.436	69.12
187.655	40.45
187.875	17.92
188.095	-33.28
188.314	1.54
188.534	77.31
188.753	81.41
188.973	17.92
189.192	24.06
189.412	-23.04
189.631	54.78
189.851	19.97
190.07	42.5
190.29	7.68
190.509	30.21
190.729	-37.38
190.948	67.07
191.168	99.84
191.387	7.68
191.607	-23.04
191.826	32.26
192.045	19.97
192.265	9.73
192.484	9.73
192.704	-2.56
192.923	-2.56
193.142	77.31
193.362	99.84
193.581	5.63
193.8	15.87
194.02	11.78
194.239	46.59
194.458	24.06
194.678	9.73
194.897	48.64
195.116	52.74
195.335	22.02
195.555	30.21
195.774	26.11
195.993	28.16
196.212	30.21
196.432	38.4
196.651	-45.57
196.87	38.4
197.089	-2.56
197.308	108.03
197.528	91.65
197.747	-70.14
197.966	36.35
198.185	-10.75
198.404	65.02
198.623	15.87
198.842	-14.85
199.062	38.4
199.281	9.73
199.5	30.21
199.719	28.16
199.938	58.88
200.157	40.45
200.376	15.87
200.595	44.54
200.814	19.97
201.033	-6.66
201.252	30.21
201.471	-0.51
201.69	5.63
201.909	67.07
202.128	52.74
202.347	50.69
202.566	81.41
202.785	50.69
203.004	48.64
203.223	52.74
203.442	-18.94
203.661	58.88
203.879	-14.85
204.098	11.78
204.317	-31.23
204.536	62.98
204.755	-27.14
204.974	1.54
205.193	11.78
205.411	112.13
205.63	-6.66
205.849	62.98
206.068	9.73
206.287	58.88
206.505	67.07
206.724	48.64
206.943	-57.86
207.162	-20.99
207.381	11.78
207.599	83.45
207.818	-4.61
208.037	42.5
208.255	-25.09
208.474	-16.9
208.693	7.68
208.911	44.54
209.13	-18.94
209.349	-0.51
209.567	15.87
209.786	9.73
210.005	-37.38
210.223	-39.42
210.442	-23.04
210.661	38.4
210.879	40.45
211.098	-35.33
211.316	44.54
211.535	73.21
211.753	56.83
211.972	40.45
212.191	-8.7
212.409	-2.56
212.628	32.26
212.846	17.92
213.065	87.55
213.283	22.02
213.502	-2.56
213.72	40.45
213.938	-12.8
214.157	40.45
214.375	79.36
214.594	54.78
214.812	73.21
215.031	38.4
215.249	48.64
215.467	32.26
215.686	30.21
215.904	58.88
216.122	62.98
216.341	11.78
216.559	-18.94
216.778	40.45
216.996	-6.66
217.214	-33.28
217.432	36.35
217.651	5.63
217.869	-6.66
218.087	-29.18
218.306	-25.09
218.524	67.07
218.742	15.87
218.96	36.35
219.179	3.58
219.397	-8.7
219.615	62.98
219.833	-10.75
220.051	5.63
220.27	-49.66
220.488	42.5
220.706	19.97
220.924	19.97
221.142	112.13
221.36	-41.47
221.578	24.06
221.796	1.54
222.015	26.11
222.233	-18.94
222.451	46.59
222.669	-33.28
222.887	5.63
223.105	-25.09
223.323	-10.75
223.541	24.06
223.759	-12.8
223.977	9.73
224.195	42.5
224.413	95.74
224.631	77.31
224.849	7.68
225.067	81.41
225.285	-8.7
225.503	79.36
225.721	-0.51
225.939	32.26
226.157	-2.56
226.375	50.69
226.592	-16.9
226.81	81.41
227.028	34.3
227.246	73.21
227.464	-8.7
227.682	7.68
227.9	-6.66
228.117	-25.09
228.335	46.59
228.553	69.12
228.771	24.06
228.989	62.98
229.206	48.64
229.424	1.54
229.642	-57.86
229.86	15.87
230.077	22.02
230.295	-23.04
230.513	3.58
230.731	73.21
230.948	-20.99
231.166	77.31
231.384	-119.29
231.601	-35.33
231.819	54.78
232.037	9.73
232.254	89.6
232.472	40.45
232.689	-51.71
232.907	-4.61
233.125	7.68
233.342	67.07
233.56	17.92
233.777	3.58
233.995	17.92
234.213	-27.14
234.43	40.45
234.648	36.35
234.865	30.21
235.083	65.02
235.3	-4.61
235.518	52.74
235.735	22.02
235.953	105.98
236.17	-2.56
236.388	36.35
236.605	-8.7
236.822	69.12
237.04	30.21
237.257	15.87
237.475	-43.52
237.692	-27.14
237.909	56.83
238.127	52.74
238.344	36.35
238.562	3.58
238.779	-29.18
238.996	38.4
239.214	-6.66
239.431	56.83
239.648	-27.14
239.865	-0.51
240.083	3.58
240.3	-20.99
240.517	40.45
240.735	-76.29
240.952	-0.51
241.169	58.88
241.386	1.54
241.603	5.63
241.821	-35.33
242.038	65.02
242.255	-61.95
242.472	19.97
242.689	-29.18
242.907	5.63
243.124	46.59
243.341	-39.42
243.558	5.63
243.775	-18.94
243.992	19.97
244.209	-68.09
244.426	58.88
244.643	28.16
244.86	17.92
245.078	-18.94
245.295	-0.51
245.512	50.69
245.729	36.35
245.946	50.69
246.163	77.31
246.38	28.16
246.597	48.64
246.814	-16.9
247.031	24.06
247.248	-51.71
247.464	40.45
247.681	30.21
247.898	46.59
248.115	50.69
248.332	-12.8
248.549	36.35
248.766	42.5
248.983	36.35
249.2	-68.09
249.417	52.74
249.633	-0.51
249.85	38.4
250.067	-27.14
250.284	13.82
250.501	71.17
250.717	81.41
250.934	34.3
251.151	1.54
251.368	50.69
251.585	54.78
251.801	3.58
252.018	-0.51
252.235	-20.99
252.451	-12.8
252.668	-41.47
252.885	38.4
253.102	-43.52
253.318	28.16
253.535	-18.94
253.752	-10.75
253.968	-49.66
254.185	11.78
254.401	7.68
254.618	7.68
254.835	-39.42
255.051	105.98
255.268	54.78
255.484	30.21
255.701	67.07
255.917	22.02
256.134	1.54
256.351	32.26
256.567	-59.9
256.784	26.11
257	81.41
257.217	44.54
257.433	40.45
257.65	32.26
257.866	48.64
258.082	-25.09
258.299	28.16
258.515	95.74
258.732	40.45
258.948	22.02
259.165	28.16
259.381	97.79
259.597	40.45
259.814	52.74
260.03	-8.7
260.246	62.98
260.463	-8.7
260.679	11.78
260.895	32.26
261.112	48.64
261.328	65.02
261.544	-12.8
261.761	79.36
261.977	-0.51
262.193	28.16
262.409	108.03
262.626	28.16
262.842	13.82
263.058	-8.7
263.274	-4.61
263.49	62.98
263.707	-2.56
263.923	36.35
264.139	30.21
264.355	22.02
264.571	19.97
264.787	3.58
265.004	56.83
265.22	73.21
265.436	50.69
265.652	3.58
265.868	11.78
266.084	-14.85
266.3	28.16
266.516	13.82
266.732	7.68
266.948	65.02
267.164	28.16
267.38	77.31
267.596	54.78
267.812	24.06
268.028	62.98
268.244	-20.99
268.46	9.73
268.676	-8.7
268.892	93.69
269.108	7.68
269.324	7.68
269.54	24.06
269.756	60.93
269.972	-33.28
270.188	3.58
270.403	13.82
270.619	71.17
270.835	-4.61
271.051	36.35
271.267	-4.61
271.483	-16.9
271.698	22.02
271.914	81.41
272.13	28.16
272.346	65.02
272.562	-8.7
272.777	48.64
272.993	40.45
273.209	17.92
273.425	7.68
273.64	50.69
273.856	32.26
274.072	-57.86
274.287	28.16
274.503	54.78
274.719	19.97
274.934	30.21
275.15	3.58
275.366	40.45
275.581	46.59
275.797	36.35
276.012	71.17
276.228	34.3
276.444	1.54
276.659	40.45
276.875	7.68
277.09	71.17
277.306	46.59
277.521	3.58
277.737	-20.99
277.952	15.87
278.168	30.21
278.383	60.93
278.599	-14.85
278.814	54.78
279.03	54.78
279.245	34.3
279.461	17.92
279.676	54.78
279.892	-23.04
280.107	32.26
280.322	-25.09
280.538	42.5
280.753	7.68
280.969	87.55
281.184	13.82
281.399	77.31
281.615	46.59
281.83	-45.57
282.045	38.4
282.26	-2.56
282.476	58.88
282.691	26.11
282.906	-31.23
283.122	28.16
283.337	44.54
283.552	48.64
283.767	75.26
283.983	69.12
284.198	-31.23
284.413	48.64
284.628	-18.94
284.843	44.54
285.058	79.36
285.274	67.07
285.489	-51.71
285.704	24.06
285.919	-14.85
286.134	85.5
286.349	58.88
286.564	22.02
286.779	103.93
286.995	48.64
287.21	-20.99
287.425	89.6
287.64	-0.51
287.855	46.59
288.07	13.82
288.285	15.87
288.5	48.64
288.715	28.16
288.93	30.21
289.145	17.92
289.36	50.69
289.575	9.73
289.79	-10.75
290.004	-8.7
290.219	42.5
290.434	3.58
290.649	69.12
290.864	30.21
291.079	40.45
291.294	36.35
291.509	-10.75
291.724	-10.75
291.938	24.06
292.153	50.69
292.368	-33.28
292.583	87.55
292.798	85.5
293.012	28.16
293.227	5.63
293.442	1.54
293.657	-76.29
293.871	19.97
294.086	9.73
294.301	79.36
294.516	42.5
294.73	-12.8
294.945	65.02
295.16	22.02
295.374	34.3
295.589	81.41
295.804	5.63
296.018	87.55
296.233	65.02
296.447	34.3
296.662	75.26
296.877	48.64
297.091	79.36
297.306	30.21
297.52	-31.23
297.735	40.45
297.949	-18.94
298.164	62.98
298.378	-16.9
298.593	-39.42
298.807	46.59
299.022	-16.9
299.236	-33.28
299.451	40.45
299.665	54.78
299.88	28.16
300.094	32.26
300.309	42.5
300.523	67.07
300.737	11.78
300.952	58.88
301.166	-10.75
301.381	-12.8
301.595	42.5
301.809	77.31
302.024	30.21
302.238	-45.57
302.452	-51.71
302.667	-12.8
302.881	52.74
303.095	97.79
303.309	48.64
303.524	48.64
303.738	83.45
303.952	-10.75
304.166	67.07
304.381	3.58
304.595	73.21
304.809	-8.7
305.023	46.59
305.237	-33.28
305.452	122.37
305.666	56.83
305.88	48.64
306.094	-2.56
306.308	77.31
306.522	-39.42
306.736	7.68
306.95	17.92
307.164	40.45
307.379	69.12
307.593	28.16
307.807	-16.9
308.021	101.89
308.235	-6.66
308.449	42.5
308.663	-18.94
308.877	122.37
309.091	3.58
309.305	67.07
309.519	24.06
309.733	75.26
309.947	46.59
310.161	67.07
310.374	71.17
310.588	60.93
310.802	-2.56
311.016	48.64
311.23	52.74
311.444	-68.09
311.658	40.45
311.872	-6.66
312.085	15.87
312.299	38.4
312.513	65.02
312.727	30.21
312.941	36.35
313.154	48.64
313.368	58.88
313.582	40.45
313.796	-29.18
314.009	85.5
314.223	-12.8
314.437	36.35
314.651	52.74
314.864	17.92
315.078	79.36
315.292	-6.66
315.505	46.59
315.719	-12.8
315.933	-10.75
316.146	28.16
316.36	34.3
316.573	5.63
316.787	112.13
317.001	17.92
317.214	30.21
317.428	-39.42
317.641	17.92
317.855	15.87
318.068	-25.09
318.282	-12.8
318.495	54.78
318.709	26.11
318.922	73.21
319.136	30.21
319.349	30.21
319.563	26.11
319.776	17.92
319.99	-4.61
320.203	28.16
320.417	17.92
320.63	71.17
320.843	11.78
321.057	5.63
321.27	7.68
321.483	60.93
321.697	54.78
321.91	-4.61
322.124	71.17
322.337	48.64
322.55	60.93
322.763	54.78
322.977	11.78
323.19	46.59
323.403	-0.51
323.617	81.41
323.83	50.69
324.043	-18.94
324.256	-33.28
324.469	-0.51
324.683	46.59
324.896	42.5
325.109	-35.33
325.322	28.16
325.535	50.69
325.748	110.08
325.962	-6.66
326.175	54.78
326.388	40.45
326.601	-18.94
326.814	3.58
327.027	46.59
327.24	38.4
327.453	-16.9
327.666	-0.51
327.879	11.78
328.092	75.26
328.305	48.64
328.518	5.63
328.731	56.83
328.944	22.02
329.157	-4.61
329.37	46.59
329.583	67.07
329.796	132.61
330.009	34.3
330.222	36.35
330.435	30.21
330.648	126.46
330.861	-61.95
331.073	62.98
331.286	75.26
331.499	-49.66
331.712	-29.18
331.925	-4.61
332.138	17.92
332.35	77.31
332.563	1.54
332.776	118.27
332.989	-57.86
333.202	54.78
333.414	52.74
333.627	40.45
333.84	-25.09
334.053	54.78
334.265	77.31
334.478	24.06
334.691	-12.8
334.903	34.3
335.116	-33.28
335.329	38.4
335.541	32.26
335.754	62.98
335.966	-12.8
336.179	30.21
336.392	30.21
336.604	5.63
336.817	105.98
337.029	48.64
337.242	-6.66
337.454	-4.61
337.667	34.3
337.88	95.74
338.092	75.26
338.305	30.21
338.517	17.92
338.729	93.69
338.942	95.74
339.154	75.26
339.367	15.87
339.579	46.59
339.792	17.92
340.004	-10.75
340.217	-61.95
340.429	65.02
340.641	60.93
340.854	42.5
341.066	15.87
341.278	3.58
341.491	56.83
341.703	69.12
341.915	1.54
342.128	97.79
342.34	58.88
342.552	26.11
342.764	99.84
342.977	-14.85
343.189	-18.94
343.401	99.84
343.613	-8.7
343.826	83.45
344.038	-49.66
344.25	118.27
344.462	9.73
344.674	17.92
344.886	-14.85
345.099	40.45
345.311	17.92
345.523	17.92
345.735	5.63
345.947	13.82
346.159	75.26
346.371	36.35
346.583	97.79
346.795	103.93
347.007	7.68
347.219	50.69
347.431	-16.9
347.643	7.68
347.855	-20.99
348.067	108.03
348.279	9.73
348.491	9.73
348.703	34.3
348.915	93.69
349.127	-16.9
349.339	69.12
349.551	7.68
349.763	58.88
349.975	67.07
350.187	99.84
350.399	46.59
350.61	-51.71
350.822	26.11
351.034	38.4
351.246	34.3
351.458	30.21
351.669	7.68
351.881	71.17
352.093	46.59
352.305	99.84
352.517	7.68
352.728	44.54
352.94	-33.28
353.152	75.26
353.363	17.92
353.575	17.92
353.787	89.6
353.999	103.93
354.21	42.5
354.422	32.26
354.633	11.78
354.845	81.41
355.057	50.69
355.268	-16.9
355.48	9.73
355.692	-12.8
355.903	-14.85
356.115	-4.61
356.326	36.35
356.538	-2.56
356.749	44.54
356.961	73.21
357.172	19.97
357.384	52.74
357.595	50.69
357.807	62.98
358.018	17.92
358.23	83.45
358.441	112.13
358.653	17.92
358.864	-29.18
359.075	54.78
359.287	5.63
359.498	65.02
359.709	3.58
359.921	56.83
360.132	50.69
360.344	67.07
360.555	13.82
360.766	36.35
360.977	-25.09
361.189	71.17
361.4	-25.09
361.611	-14.85
361.823	28.16
362.034	44.54
362.245	-0.51
362.456	32.26
362.667	-10.75
362.879	50.69
363.09	11.78
363.301	38.4
363.512	13.82
363.723	40.45
363.935	9.73
364.146	34.3
364.357	-39.42
364.568	65.02
364.779	15.87
364.99	110.08
365.201	13.82
365.412	40.45
365.623	-8.7
365.834	50.69
366.045	128.51
366.256	32.26
366.467	67.07
366.678	26.11
366.889	-10.75
367.1	-4.61
367.311	-4.61
367.522	71.17
367.733	-4.61
367.944	77.31
368.155	42.5
368.366	58.88
368.577	56.83
368.788	24.06
368.999	28.16
369.209	58.88
369.42	69.12
369.631	42.5
369.842	28.16
370.053	26.11
370.264	26.11
370.474	9.73
370.685	7.68
370.896	46.59
371.107	13.82
371.317	19.97
371.528	36.35
371.739	52.74
371.95	24.06
372.16	67.07
372.371	1.54
372.582	34.3
372.792	46.59
373.003	73.21
373.214	1.54
373.424	19.97
373.635	9.73
373.846	79.36
374.056	148.99
374.267	-6.66
374.477	50.69
374.688	62.98
374.898	58.88
375.109	75.26
375.319	58.88
375.53	22.02
375.74	71.17
375.951	62.98
376.161	48.64
376.372	75.26
376.582	-27.14
376.793	75.26
377.003	87.55
377.214	26.11
377.424	65.02
377.635	69.12
377.845	26.11
378.055	26.11
378.266	52.74
378.476	34.3
378.686	50.69
378.897	71.17
379.107	-0.51
379.317	75.26
379.528	99.84
379.738	-2.56
379.948	-18.94
380.158	38.4
380.369	1.54
380.579	42.5
380.789	11.78
380.999	60.93
381.21	52.74
381.42	112.13
381.63	62.98
381.84	69.12
382.05	69.12
382.261	48.64
382.471	77.31
382.681	38.4
382.891	50.69
383.101	89.6
383.311	-14.85
383.521	28.16
383.731	103.93
383.941	54.78
384.151	-2.56
384.361	30.21
384.571	54.78
384.781	69.12
384.991	17.92
385.201	134.65
385.411	5.63
385.621	85.5
385.831	62.98
386.041	54.78
386.251	62.98
386.461	71.17
386.671	7.68
386.881	99.84
387.091	5.63
387.301	101.89
387.511	81.41
387.72	56.83
387.93	93.69
388.14	-12.8
388.35	3.58
388.56	103.93
388.769	93.69
388.979	22.02
389.189	36.35
389.399	65.02
389.609	73.21
389.818	34.3
390.028	83.45
390.238	89.6
390.447	60.93
390.657	-2.56
390.867	58.88
391.076	71.17
391.286	50.69
391.496	38.4
391.705	69.12
391.915	65.02
392.125	60.93
392.334	46.59
392.544	93.69
392.753	56.83
392.963	79.36
393.172	105.98
393.382	134.65
393.591	97.79
393.801	83.45
394.01	71.17
394.22	112.13
394.429	40.45
394.639	32.26
394.848	83.45
395.058	19.97
395.267	87.55
395.477	54.78
395.686	89.6
395.895	65.02
396.105	124.41
396.314	128.51
396.524	85.5
396.733	81.41
396.942	110.08
397.152	118.27
397.361	95.74
397.57	116.22
397.78	67.07
397.989	93.69
398.198	183.81
398.407	75.26
398.617	112.13
398.826	62.98
399.035	179.71
399.244	93.69
399.453	-0.51
399.663	36.35
399.872	79.36
400.081	58.88
400.29	114.17
400.499	83.45
400.708	28.16
400.917	97.79
401.127	108.03
401.336	62.98
401.545	83.45
401.754	95.74
401.963	105.98
402.172	85.5
402.381	148.99
402.59	60.93
402.799	26.11
403.008	142.85
403.217	77.31
403.426	60.93
403.635	108.03
403.844	75.26
404.053	128.51
404.262	114.17
404.471	110.08
404.68	91.65
404.888	110.08
405.097	105.98
405.306	148.99
405.515	67.07
405.724	110.08
405.933	144.89
406.142	134.65
406.35	198.14
406.559	228.86
406.768	173.57
406.977	210.43
407.185	177.66
407.394	214.52
407.603	177.66
407.812	216.57
408.02	169.47
408.229	214.52
408.438	288.25
408.646	165.37
408.855	208.38
409.064	189.95
409.272	292.35
409.481	249.34
409.69	263.68
409.898	179.71
410.107	294.4
410.315	349.69
410.524	318.97
410.733	325.12
410.941	343.55
411.15	380.41
411.358	441.85
411.567	290.3
411.775	306.68
411.984	370.17
412.192	423.42
412.401	310.78
412.609	396.79
412.818	316.92
413.026	437.75
413.234	402.94
413.443	441.85
413.651	525.82
413.86	431.61
414.068	548.34
414.276	486.9
414.485	593.4
414.693	564.73
414.901	624.12
415.11	597.49
415.318	654.84
415.526	681.46
415.734	663.03
415.943	652.79
416.151	671.22
416.359	665.08
416.567	706.04
416.776	830.96
416.984	757.24
417.192	847.35
417.4	898.55
417.608	794.1
417.817	892.4
418.025	1021.42
418.233	990.7
418.441	1021.42
418.649	1074.67
418.857	1064.43
419.065	1132.01
419.273	1138.16
419.481	1228.27
419.689	1306.09
419.897	1351.15
420.105	1322.48
420.313	1338.86
420.521	1345
420.729	1385.96
420.937	1435.11
421.145	1572.33
421.353	1582.57
421.561	1611.24
421.769	1580.52
421.977	1797.6
422.185	1775.08
422.393	1793.51
422.601	2012.64
422.809	2010.59
423.017	2078.18
423.224	2092.51
423.432	2000.35
423.64	2162.14
423.848	2350.56
424.056	2258.4
424.263	2479.58
424.471	2461.15
424.679	2450.91
424.887	2680.28
425.094	2770.39
425.302	2715.09
425.51	2872.79
425.718	2917.84
425.925	2932.18
426.133	3100.11
426.341	3227.09
426.548	3333.58
426.756	3395.02
426.964	3470.8
427.171	3710.41
427.379	3749.32
427.586	3769.8
427.794	3966.4
428.001	4099.52
428.209	4249.02
428.417	4347.33
428.624	4619.71
428.832	4556.22
429.039	4349.37
429.247	4443.58
429.454	4994.48
429.662	5244.34
429.869	4906.42
430.076	5313.97
430.284	4992.44
430.491	5418.41
430.699	5678.51
430.906	5621.16
431.114	5825.96
431.321	5811.62
431.528	6176.16
431.736	6483.36
431.943	6667.67
432.15	6559.13
432.358	6628.76
432.565	6972.82
432.772	6884.76
432.979	7263.63
433.187	7304.59
433.394	7429.52
433.601	8146.31
433.808	7953.8
434.016	7904.65
434.223	8164.74
434.43	8781.18
434.637	8621.44
434.844	8969.59
435.052	9332.08
435.259	9231.73
435.466	9473.39
435.673	9235.83
435.88	9698.67
436.087	10399.07
436.294	10587.49
436.501	10286.44
436.708	10401.12
436.915	10708.32
437.122	11197.78
437.329	11089.24
437.537	11304.28
437.743	11754.83
437.95	11631.95
438.157	12256.58
438.364	12410.18
438.571	12471.62
438.778	12676.41
438.985	13835.56
439.192	13165.88
439.399	13757.74
439.606	13468.98
439.813	14216.49
440.02	14828.83
440.227	14732.58
440.433	14724.38
440.64	15093.02
440.847	14884.12
441.054	15090.97
441.261	16258.31
441.467	16246.02
441.674	16626.95
441.881	17202.43
442.088	16960.77
442.294	16954.62
442.501	17427.7
442.708	17695.99
442.914	18537.7
443.121	19217.63
443.328	18506.98
443.534	19789.01
443.741	19565.78
443.948	19195.1
444.154	20479.18
444.361	20401.35
444.568	20868.29
444.774	20833.47
444.981	20903.11
445.187	21431.48
445.394	22434.99
445.6	21951.67
445.807	24437.9
446.013	23299.23
446.22	23352.48
446.426	24419.47
446.633	24884.36
446.839	25490.56
447.046	24726.66
447.252	25873.53
447.459	25826.42
447.665	25551.99
447.871	26719.34
448.078	27905.11
448.284	27094.11
448.491	27362.4
448.697	28587.08
448.903	28935.24
449.11	29217.86
449.316	28496.97
449.522	28996.68
449.728	29918.26
449.935	30301.23
450.141	30534.7
450.347	30839.85
450.553	29932.6
450.76	29959.22
450.966	31429.66
451.172	30893.1
451.378	31906.84
451.584	31167.52
451.791	31755.29
451.997	31919.13
452.203	32134.17
452.409	32418.83
452.615	32042.01
452.821	30999.59
453.027	30473.26
453.233	32429.07
453.44	31046.69
453.646	31712.28
453.852	31626.27
454.058	31837.21
454.264	31026.21
454.47	31845.4
454.676	30835.75
454.882	32029.72
455.088	29176.9
455.294	29627.45
455.5	30057.53
455.705	30508.08
455.911	29002.82
456.117	28339.28
456.323	28286.03
456.529	26535.02
456.735	27817.05
456.941	27225.18
457.147	26819.69
457.352	25998.45
457.558	25541.75
457.764	25857.14
457.97	25220.22
458.176	24558.73
458.381	24818.82
458.587	23233.69
458.793	23600.28
458.999	22260.91
459.204	24077.46
459.41	23121.06
459.616	21742.77
459.821	21718.2
460.027	21609.65
460.233	21030.08
460.438	20149.45
460.644	20516.04
460.85	19369.18
461.055	18894.05
461.261	18713.83
461.466	17507.57
461.672	16995.58
461.878	18441.45
462.083	17145.08
462.289	16702.72
462.494	16602.37
462.7	16057.61
462.905	15516.95
463.111	16039.18
463.316	15971.6
463.522	15445.27
463.727	15781.14
463.932	15674.64
464.138	15549.71
464.343	15691.02
464.549	15246.62
464.754	15658.26
464.959	15656.21
465.165	15465.75
465.37	14798.11
465.575	14310.69
465.781	14990.62
465.986	14871.84
466.191	14210.34
466.397	14185.77
466.602	13243.7
466.807	14126.38
467.012	13817.13
467.218	13952.3
467.423	13624.62
467.628	13841.71
467.833	14245.16
468.038	13964.59
