Data from USB4F104151__54__11-52-00-706.txt Node

Date: Fri Mar 14 11:52:00 EDT 2025
User: louis
Spectrometer: USB4F10415
Trigger mode: 4
Integration Time (sec): 2.000000E-2
Scans to average: 1
Electric dark correction enabled: true
Nonlinearity correction enabled: false
Boxcar width: 0
XAxis mode: Wavelengths
Number of Pixels in Spectrum: 3648
>>>>>Begin Spectral Data<<<<<
178.204	-85.16
178.424	-85.16
178.644	-85.16
178.864	-107.69
179.084	-79.02
179.304	-42.15
179.524	11.09
179.744	47.96
179.964	35.67
180.184	-52.39
180.404	-60.59
180.624	9.05
180.844	31.57
181.064	11.09
181.283	4.95
181.503	-19.63
181.723	23.38
181.943	-38.06
182.163	15.19
182.383	21.33
182.602	80.72
182.822	-25.77
183.042	35.67
183.262	-54.44
183.482	-19.63
183.701	13.14
183.921	74.58
184.141	-58.54
184.361	2.9
184.58	7
184.8	-17.58
185.02	13.14
185.239	19.29
185.459	45.91
185.679	17.24
185.898	-17.58
186.118	50
186.338	-48.3
186.557	11.09
186.777	-48.3
186.997	-38.06
187.216	80.72
187.436	39.76
187.655	13.14
187.875	-3.24
188.095	-64.68
188.314	-9.39
188.534	58.2
188.753	-31.91
188.973	-13.48
189.192	7
189.412	-9.39
189.631	-54.44
189.851	52.05
190.07	41.81
190.29	-36.01
190.509	86.87
190.729	-21.67
190.948	95.06
191.168	103.25
191.387	60.24
191.607	17.24
191.826	-25.77
192.045	39.76
192.265	56.15
192.484	0.85
192.704	54.1
192.923	23.38
193.142	31.57
193.362	54.1
193.581	58.2
193.8	52.05
194.02	-54.44
194.239	-46.25
194.458	25.43
194.678	37.72
194.897	-9.39
195.116	0.85
195.335	-17.58
195.555	95.06
195.774	-1.19
195.993	45.91
196.212	39.76
196.432	-21.67
196.651	-48.3
196.87	29.52
197.089	70.48
197.308	-7.34
197.528	-9.39
197.747	-23.72
197.966	-21.67
198.185	9.05
198.404	27.48
198.623	41.81
198.842	4.95
199.062	60.24
199.281	43.86
199.5	-7.34
199.719	-38.06
199.938	43.86
200.157	11.09
200.376	13.14
200.595	-17.58
200.814	4.95
201.033	29.52
201.252	-91.31
201.471	-74.92
201.69	2.9
201.909	-38.06
202.128	-25.77
202.347	31.57
202.566	19.29
202.785	-9.39
203.004	-5.29
203.223	-23.72
203.442	-23.72
203.661	17.24
203.879	54.1
204.098	56.15
204.317	4.95
204.536	11.09
204.755	-25.77
204.974	-3.24
205.193	-5.29
205.411	68.44
205.63	31.57
205.849	0.85
206.068	52.05
206.287	33.62
206.505	70.48
206.724	-27.82
206.943	-29.87
207.162	76.63
207.381	37.72
207.599	33.62
207.818	-36.01
208.037	17.24
208.255	-50.35
208.474	60.24
208.693	-62.63
208.911	90.96
209.13	-17.58
209.349	39.76
209.567	11.09
209.786	58.2
210.005	0.85
210.223	37.72
210.442	-1.19
210.661	29.52
210.879	39.76
211.098	66.39
211.316	-9.39
211.535	60.24
211.753	-9.39
211.972	-11.43
212.191	31.57
212.409	4.95
212.628	-19.63
212.846	-5.29
213.065	4.95
213.283	4.95
213.502	45.91
213.72	37.72
213.938	-44.2
214.157	54.1
214.375	41.81
214.594	13.14
214.812	9.05
215.031	-7.34
215.249	15.19
215.467	41.81
215.686	39.76
215.904	47.96
216.122	27.48
216.341	11.09
216.559	9.05
216.778	50
216.996	-27.82
217.214	-36.01
217.432	90.96
217.651	-11.43
217.869	-5.29
218.087	33.62
218.306	-1.19
218.524	-17.58
218.742	39.76
218.96	23.38
219.179	-64.68
219.397	7
219.615	15.19
219.833	54.1
220.051	-15.53
220.27	-19.63
220.488	0.85
220.706	-38.06
220.924	0.85
221.142	-31.91
221.36	41.81
221.578	45.91
221.796	9.05
222.015	15.19
222.233	25.43
222.451	-9.39
222.669	-33.96
222.887	86.87
223.105	27.48
223.323	52.05
223.541	4.95
223.759	41.81
223.977	39.76
224.195	-3.24
224.413	19.29
224.631	27.48
224.849	33.62
225.067	45.91
225.285	-62.63
225.503	25.43
225.721	25.43
225.939	-27.82
226.157	47.96
226.375	35.67
226.592	35.67
226.81	-33.96
227.028	-11.43
227.246	-11.43
227.464	7
227.682	90.96
227.9	25.43
228.117	27.48
228.335	-44.2
228.553	-7.34
228.771	0.85
228.989	-54.44
229.206	-11.43
229.424	11.09
229.642	-1.19
229.86	-11.43
230.077	62.29
230.295	-3.24
230.513	-33.96
230.731	17.24
230.948	27.48
231.166	-1.19
231.384	78.68
231.601	70.48
231.819	66.39
232.037	17.24
232.254	-19.63
232.472	2.9
232.689	-17.58
232.907	52.05
233.125	37.72
233.342	11.09
233.56	23.38
233.777	23.38
233.995	-17.58
234.213	4.95
234.43	-27.82
234.648	33.62
234.865	-1.19
235.083	-9.39
235.3	33.62
235.518	4.95
235.735	21.33
235.953	27.48
236.17	-13.48
236.388	76.63
236.605	-13.48
236.822	66.39
237.04	15.19
237.257	45.91
237.475	4.95
237.692	2.9
237.909	45.91
238.127	47.96
238.344	39.76
238.562	17.24
238.779	-25.77
238.996	-15.53
239.214	15.19
239.431	35.67
239.648	-40.11
239.865	39.76
240.083	-1.19
240.3	-11.43
240.517	-9.39
240.735	43.86
240.952	88.92
241.169	25.43
241.386	41.81
241.603	4.95
241.821	2.9
242.038	-9.39
242.255	78.68
242.472	-5.29
242.689	27.48
242.907	-9.39
243.124	-1.19
243.341	-3.24
243.558	17.24
243.775	-25.77
243.992	33.62
244.209	7
244.426	107.35
244.643	-9.39
244.86	19.29
245.078	-36.01
245.295	45.91
245.512	21.33
245.729	-1.19
245.946	2.9
246.163	0.85
246.38	21.33
246.597	35.67
246.814	70.48
247.031	58.2
247.248	19.29
247.464	-25.77
247.681	115.54
247.898	84.82
248.115	54.1
248.332	31.57
248.549	17.24
248.766	-29.87
248.983	66.39
249.2	72.53
249.417	-17.58
249.633	29.52
249.85	62.29
250.067	47.96
250.284	54.1
250.501	-9.39
250.717	105.3
250.934	13.14
251.151	23.38
251.368	39.76
251.585	-17.58
251.801	2.9
252.018	2.9
252.235	-33.96
252.451	-9.39
252.668	13.14
252.885	45.91
253.102	-21.67
253.318	74.58
253.535	-87.21
253.752	-21.67
253.968	-9.39
254.185	25.43
254.401	52.05
254.618	-5.29
254.835	11.09
255.051	37.72
255.268	-5.29
255.484	2.9
255.701	101.2
255.917	111.44
256.134	54.1
256.351	2.9
256.567	29.52
256.784	68.44
257	-62.63
257.217	-17.58
257.433	-13.48
257.65	-25.77
257.866	19.29
258.082	23.38
258.299	-15.53
258.515	-15.53
258.732	31.57
258.948	52.05
259.165	29.52
259.381	-5.29
259.597	15.19
259.814	47.96
260.03	4.95
260.246	76.63
260.463	25.43
260.679	119.64
260.895	27.48
261.112	-27.82
261.328	25.43
261.544	47.96
261.761	-11.43
261.977	56.15
262.193	-3.24
262.409	54.1
262.626	2.9
262.842	29.52
263.058	-27.82
263.274	-33.96
263.49	60.24
263.707	0.85
263.923	-3.24
264.139	-54.44
264.355	33.62
264.571	33.62
264.787	11.09
265.004	-25.77
265.22	-5.29
265.436	33.62
265.652	-5.29
265.868	74.58
266.084	-31.91
266.3	54.1
266.516	45.91
266.732	-13.48
266.948	7
267.164	17.24
267.38	9.05
267.596	25.43
267.812	62.29
268.028	47.96
268.244	-17.58
268.46	47.96
268.676	31.57
268.892	-3.24
269.108	23.38
269.324	-5.29
269.54	-42.15
269.756	-5.29
269.972	-17.58
270.188	11.09
270.403	-21.67
270.619	66.39
270.835	47.96
271.051	-7.34
271.267	-3.24
271.483	13.14
271.698	64.34
271.914	33.62
272.13	-44.2
272.346	-23.72
272.562	-25.77
272.777	-46.25
272.993	-15.53
273.209	11.09
273.425	27.48
273.64	-13.48
273.856	115.54
274.072	86.87
274.287	13.14
274.503	56.15
274.719	-1.19
274.934	27.48
275.15	-17.58
275.366	-23.72
275.581	-46.25
275.797	31.57
276.012	25.43
276.228	80.72
276.444	62.29
276.659	62.29
276.875	-33.96
277.09	43.86
277.306	90.96
277.521	45.91
277.737	-13.48
277.952	47.96
278.168	-9.39
278.383	60.24
278.599	37.72
278.814	21.33
279.03	-21.67
279.245	39.76
279.461	66.39
279.676	-13.48
279.892	-17.58
280.107	31.57
280.322	-15.53
280.538	84.82
280.753	0.85
280.969	58.2
281.184	66.39
281.399	9.05
281.615	-9.39
281.83	-66.73
282.045	31.57
282.26	-3.24
282.476	11.09
282.691	58.2
282.906	-52.39
283.122	-7.34
283.337	-5.29
283.552	-38.06
283.767	-58.54
283.983	31.57
284.198	13.14
284.413	70.48
284.628	47.96
284.843	21.33
285.058	-15.53
285.274	45.91
285.489	37.72
285.704	21.33
285.919	60.24
286.134	19.29
286.349	-74.92
286.564	-1.19
286.779	29.52
286.995	-19.63
287.21	-13.48
287.425	35.67
287.64	-68.78
287.855	-11.43
288.07	-21.67
288.285	58.2
288.5	-38.06
288.715	41.81
288.93	-68.78
289.145	-21.67
289.36	82.77
289.575	21.33
289.79	-13.48
290.004	2.9
290.219	19.29
290.434	4.95
290.649	62.29
290.864	95.06
291.079	-15.53
291.294	37.72
291.509	43.86
291.724	39.76
291.938	29.52
292.153	58.2
292.368	115.54
292.583	39.76
292.798	82.77
293.012	56.15
293.227	11.09
293.442	0.85
293.657	62.29
293.871	15.19
294.086	50
294.301	43.86
294.516	21.33
294.73	21.33
294.945	4.95
295.16	9.05
295.374	56.15
295.589	43.86
295.804	11.09
296.018	54.1
296.233	50
296.447	117.59
296.662	37.72
296.877	7
297.091	4.95
297.306	43.86
297.52	11.09
297.735	31.57
297.949	-9.39
298.164	21.33
298.378	68.44
298.593	52.05
298.807	-5.29
299.022	7
299.236	47.96
299.451	19.29
299.665	9.05
299.88	78.68
300.094	11.09
300.309	0.85
300.523	43.86
300.737	33.62
300.952	47.96
301.166	9.05
301.381	25.43
301.595	-5.29
301.809	-5.29
302.024	33.62
302.238	-25.77
302.452	70.48
302.667	39.76
302.881	35.67
303.095	56.15
303.309	78.68
303.524	58.2
303.738	29.52
303.952	21.33
304.166	-7.34
304.381	27.48
304.595	7
304.809	21.33
305.023	17.24
305.237	-5.29
305.452	-15.53
305.666	41.81
305.88	4.95
306.094	68.44
306.308	21.33
306.522	35.67
306.736	60.24
306.95	-7.34
307.164	23.38
307.379	29.52
307.593	31.57
307.807	23.38
308.021	9.05
308.235	27.48
308.449	-23.72
308.663	64.34
308.877	11.09
309.091	90.96
309.305	50
309.519	-15.53
309.733	64.34
309.947	19.29
310.161	99.16
310.374	74.58
310.588	64.34
310.802	-33.96
311.016	47.96
311.23	52.05
311.444	0.85
311.658	-11.43
311.872	19.29
312.085	68.44
312.299	-5.29
312.513	-17.58
312.727	74.58
312.941	0.85
313.154	9.05
313.368	27.48
313.582	-21.67
313.796	-31.91
314.009	41.81
314.223	95.06
314.437	27.48
314.651	23.38
314.864	31.57
315.078	21.33
315.292	-13.48
315.505	13.14
315.719	2.9
315.933	15.19
316.146	-44.2
316.36	4.95
316.573	90.96
316.787	39.76
317.001	33.62
317.214	52.05
317.428	-15.53
317.641	-48.3
317.855	25.43
318.068	-27.82
318.282	25.43
318.495	37.72
318.709	41.81
318.922	56.15
319.136	70.48
319.349	7
319.563	76.63
319.776	21.33
319.99	-13.48
320.203	-13.48
320.417	23.38
320.63	54.1
320.843	121.68
321.057	39.76
321.27	66.39
321.483	-11.43
321.697	-11.43
321.91	-7.34
322.124	50
322.337	43.86
322.55	-50.35
322.763	17.24
322.977	62.29
323.19	-17.58
323.403	35.67
323.617	23.38
323.83	25.43
324.043	-9.39
324.256	-7.34
324.469	2.9
324.683	0.85
324.896	93.01
325.109	66.39
325.322	-42.15
325.535	0.85
325.748	-17.58
325.962	39.76
326.175	-31.91
326.388	21.33
326.601	97.11
326.814	-72.87
327.027	-36.01
327.24	78.68
327.453	-36.01
327.666	9.05
327.879	84.82
328.092	33.62
328.305	52.05
328.518	-70.83
328.731	2.9
328.944	86.87
329.157	41.81
329.37	-23.72
329.583	103.25
329.796	70.48
330.009	35.67
330.222	64.34
330.435	99.16
330.648	37.72
330.861	2.9
331.073	-15.53
331.286	7
331.499	35.67
331.712	41.81
331.925	17.24
332.138	41.81
332.35	33.62
332.563	-48.3
332.776	39.76
332.989	-9.39
333.202	-5.29
333.414	27.48
333.627	35.67
333.84	-13.48
334.053	60.24
334.265	23.38
334.478	25.43
334.691	76.63
334.903	27.48
335.116	-11.43
335.329	29.52
335.541	68.44
335.754	68.44
335.966	-21.67
336.179	-5.29
336.392	33.62
336.604	9.05
336.817	82.77
337.029	25.43
337.242	33.62
337.454	29.52
337.667	25.43
337.88	64.34
338.092	35.67
338.305	27.48
338.517	43.86
338.729	9.05
338.942	25.43
339.154	13.14
339.367	-46.25
339.579	-40.11
339.792	-13.48
340.004	21.33
340.217	-23.72
340.429	78.68
340.641	37.72
340.854	19.29
341.066	-15.53
341.278	-29.87
341.491	58.2
341.703	21.33
341.915	-15.53
342.128	2.9
342.34	64.34
342.552	37.72
342.764	43.86
342.977	-13.48
343.189	19.29
343.401	17.24
343.613	23.38
343.826	11.09
344.038	52.05
344.25	31.57
344.462	23.38
344.674	74.58
344.886	78.68
345.099	41.81
345.311	43.86
345.523	-54.44
345.735	17.24
345.947	-29.87
346.159	78.68
346.371	121.68
346.583	-21.67
346.795	27.48
347.007	33.62
347.219	-5.29
347.431	27.48
347.643	76.63
347.855	47.96
348.067	47.96
348.279	-7.34
348.491	-13.48
348.703	72.53
348.915	117.59
349.127	19.29
349.339	25.43
349.551	35.67
349.763	68.44
349.975	52.05
350.187	27.48
350.399	41.81
350.61	35.67
350.822	62.29
351.034	25.43
351.246	86.87
351.458	-33.96
351.669	43.86
351.881	123.73
352.093	70.48
352.305	101.2
352.517	64.34
352.728	84.82
352.94	33.62
353.152	11.09
353.363	15.19
353.575	-3.24
353.787	-3.24
353.999	50
354.21	39.76
354.422	-44.2
354.633	-31.91
354.845	58.2
355.057	25.43
355.268	99.16
355.48	11.09
355.692	60.24
355.903	17.24
356.115	66.39
356.326	-109.74
356.538	4.95
356.749	39.76
356.961	62.29
357.172	7
357.384	-1.19
357.595	27.48
357.807	56.15
358.018	-38.06
358.23	123.73
358.441	31.57
358.653	54.1
358.864	70.48
359.075	7
359.287	105.3
359.498	107.35
359.709	19.29
359.921	35.67
360.132	17.24
360.344	-13.48
360.555	29.52
360.766	50
360.977	52.05
361.189	105.3
361.4	-3.24
361.611	105.3
361.823	43.86
362.034	74.58
362.245	9.05
362.456	45.91
362.667	35.67
362.879	-9.39
363.09	0.85
363.301	-33.96
363.512	-17.58
363.723	50
363.935	-13.48
364.146	74.58
364.357	95.06
364.568	-7.34
364.779	25.43
364.99	54.1
365.201	21.33
365.412	80.72
365.623	21.33
365.834	56.15
366.045	2.9
366.256	31.57
366.467	-64.68
366.678	43.86
366.889	13.14
367.1	31.57
367.311	-54.44
367.522	45.91
367.733	62.29
367.944	74.58
368.155	39.76
368.366	45.91
368.577	66.39
368.788	58.2
368.999	-9.39
369.209	9.05
369.42	103.25
369.631	80.72
369.842	54.1
370.053	60.24
370.264	0.85
370.474	17.24
370.685	11.09
370.896	7
371.107	76.63
371.317	39.76
371.528	-1.19
371.739	95.06
371.95	80.72
372.16	58.2
372.371	50
372.582	37.72
372.792	33.62
373.003	111.44
373.214	4.95
373.424	27.48
373.635	50
373.846	43.86
374.056	56.15
374.267	41.81
374.477	41.81
374.688	86.87
374.898	33.62
375.109	54.1
375.319	50
375.53	31.57
375.74	-3.24
375.951	74.58
376.161	19.29
376.372	95.06
376.582	37.72
376.793	70.48
377.003	4.95
377.214	41.81
377.424	4.95
377.635	33.62
377.845	21.33
378.055	-13.48
378.266	37.72
378.476	25.43
378.686	-1.19
378.897	88.92
379.107	47.96
379.317	95.06
379.528	43.86
379.738	86.87
379.948	-17.58
380.158	62.29
380.369	113.49
380.579	93.01
380.789	45.91
380.999	105.3
381.21	82.77
381.42	23.38
381.63	27.48
381.84	129.88
382.05	58.2
382.261	119.64
382.471	11.09
382.681	-1.19
382.891	35.67
383.101	144.21
383.311	-56.49
383.521	29.52
383.731	29.52
383.941	152.4
384.151	95.06
384.361	23.38
384.571	64.34
384.781	76.63
384.991	56.15
385.201	111.44
385.411	62.29
385.621	31.57
385.831	64.34
386.041	25.43
386.251	60.24
386.461	-17.58
386.671	41.81
386.881	25.43
387.091	2.9
387.301	41.81
387.511	2.9
387.72	25.43
387.93	47.96
388.14	2.9
388.35	105.3
388.56	9.05
388.769	82.77
388.979	-21.67
389.189	9.05
389.399	56.15
389.609	7
389.818	54.1
390.028	25.43
390.238	45.91
390.447	7
390.657	11.09
390.867	-7.34
391.076	-9.39
391.286	45.91
391.496	82.77
391.705	80.72
391.915	97.11
392.125	31.57
392.334	29.52
392.544	7
392.753	54.1
392.963	23.38
393.172	43.86
393.382	39.76
393.591	138.07
393.801	117.59
394.01	13.14
394.22	78.68
394.429	68.44
394.639	-23.72
394.848	50
395.058	70.48
395.267	58.2
395.477	9.05
395.686	41.81
395.895	113.49
396.105	123.73
396.314	35.67
396.524	90.96
396.733	29.52
396.942	86.87
397.152	117.59
397.361	113.49
397.57	111.44
397.78	66.39
397.989	39.76
398.198	162.64
398.407	72.53
398.617	125.78
398.826	-1.19
399.035	64.34
399.244	82.77
399.453	93.01
399.663	62.29
399.872	174.93
400.081	88.92
400.29	103.25
400.499	111.44
400.708	148.31
400.917	109.4
401.127	45.91
401.336	78.68
401.545	82.77
401.754	76.63
401.963	107.35
402.172	115.54
402.381	93.01
402.59	62.29
402.799	45.91
403.008	78.68
403.217	156.5
403.426	64.34
403.635	45.91
403.844	95.06
404.053	99.16
404.262	174.93
404.471	148.31
404.68	62.29
404.888	162.64
405.097	176.98
405.306	144.21
405.515	103.25
405.724	142.16
405.933	158.55
406.142	70.48
406.35	138.07
406.559	154.45
406.768	140.12
406.977	213.84
407.185	117.59
407.394	191.31
407.603	123.73
407.812	162.64
408.02	209.75
408.229	211.79
408.438	160.59
408.646	236.37
408.855	191.31
409.064	310.1
409.272	197.46
409.481	246.61
409.69	207.7
409.898	250.71
410.107	277.33
410.315	308.05
410.524	262.99
410.733	254.8
410.941	279.38
411.15	389.97
411.358	267.09
411.567	361.3
411.775	398.16
411.984	383.82
412.192	283.47
412.401	381.78
412.609	377.68
412.818	389.97
413.026	387.92
413.234	416.59
413.443	508.75
413.651	498.51
413.86	555.85
414.068	535.37
414.276	566.09
414.485	531.28
414.693	555.85
414.901	652.11
415.11	619.34
415.318	621.39
415.526	688.97
415.734	666.44
415.943	693.07
416.151	688.97
416.359	668.49
416.567	754.51
416.776	727.88
416.984	836.42
417.192	840.52
417.4	811.85
417.608	893.77
417.817	961.35
418.025	961.35
418.233	1035.08
418.441	947.01
418.649	1065.8
418.857	1084.23
419.065	1098.56
419.273	1160
419.481	1196.87
419.689	1243.97
419.897	1268.55
420.105	1207.11
420.313	1346.37
420.521	1432.38
420.729	1372.99
420.937	1559.36
421.145	1489.73
421.353	1575.74
421.561	1682.24
421.769	1727.29
421.977	1770.3
422.185	1764.15
422.393	1944.38
422.601	1930.04
422.809	1946.42
423.017	2136.88
423.224	2081.59
423.432	2079.54
423.64	2155.32
423.848	2509.62
424.056	2300.72
424.263	2523.95
424.471	2384.69
424.679	2409.26
424.887	2853.67
425.094	2683.69
425.302	2947.88
425.51	2935.59
425.718	3023.66
425.925	3033.9
426.133	3117.86
426.341	3271.46
426.548	3269.41
426.756	3541.79
426.964	3494.69
427.171	3681.05
427.379	3705.63
427.586	3867.42
427.794	3914.52
428.001	4180.76
428.209	4293.4
428.417	4219.67
428.624	4363.03
428.832	4582.16
429.039	4567.82
429.247	4604.69
429.454	4926.22
429.662	5380.87
429.869	4920.07
430.076	5317.38
430.284	5245.7
430.491	5401.35
430.699	5634.82
430.906	5640.96
431.114	5702.4
431.321	5913.34
431.528	5972.73
431.736	6507.25
431.943	6738.67
432.15	6548.21
432.358	6697.71
432.565	7092.97
432.772	6966
432.979	7316.2
433.187	7598.82
433.394	7561.95
433.601	8004.32
433.808	8030.94
434.016	8008.41
434.223	8397.53
434.43	8858.32
434.637	8456.92
434.844	9073.35
435.052	9327.3
435.259	9165.51
435.466	9433.8
435.673	9384.65
435.88	9759.42
436.087	10502.84
436.294	10316.47
436.501	10064.57
436.708	10384.05
436.915	10891.95
437.122	11078.32
437.329	11072.17
437.537	11483.81
437.743	11967.13
437.95	11561.64
438.157	12221.08
438.364	12624.53
438.571	12608.15
438.778	12692.12
438.985	13996.67
439.192	13267.59
439.399	13957.76
439.606	13267.59
439.813	14264.96
440.02	15305.32
440.227	14795.38
440.433	14897.78
440.64	15190.64
440.847	15067.76
441.054	15362.67
441.261	16437.85
441.467	16341.6
441.674	16616.02
441.881	17259.09
442.088	17087.06
442.294	17029.71
442.501	17441.36
442.708	17771.08
442.914	18565.69
443.121	19507.76
443.328	18942.52
443.534	20066.85
443.741	19434.03
443.948	19386.93
444.154	20662.81
444.361	20795.93
444.568	20550.17
444.774	20769.3
444.981	21078.55
445.187	21465.61
445.394	22409.73
445.6	22247.94
445.807	24437.22
446.013	23527.92
446.22	23726.57
446.426	24715.74
446.633	25213.4
446.839	25868.75
447.046	24670.68
447.252	25995.72
447.459	26237.38
447.665	26151.37
447.871	27347.38
448.078	28334.5
448.284	26956.22
448.491	27799.98
448.697	28725.66
448.903	29102.49
449.11	29520.27
449.316	29012.38
449.522	29446.55
449.728	30134.67
449.935	30374.28
450.141	30525.83
450.347	31172.99
450.553	30175.62
450.76	30937.47
450.966	31400.31
451.172	31314.3
451.378	31981.93
451.584	31457.65
451.791	31983.98
451.997	32072.04
452.203	32391.53
452.409	32633.19
452.615	32272.74
452.821	31248.76
453.027	30947.71
453.233	32526.69
453.44	30871.93
453.646	31576.44
453.852	31805.81
454.058	32229.74
454.264	30833.02
454.47	31936.88
454.676	31117.69
454.882	32117.1
455.088	29290.9
455.294	29847.95
455.5	30134.67
455.705	30642.56
455.911	29188.5
456.117	28699.04
456.323	28289.45
456.529	26806.72
456.735	28172.71
456.941	27075
457.147	26784.19
457.352	26065.35
457.558	25715.15
457.764	25410
457.97	25346.51
458.176	24654.3
458.381	24717.79
458.587	23818.73
458.793	23536.11
458.999	22432.26
459.204	23777.77
459.41	23173.62
459.616	21918.21
459.821	21819.91
460.027	21903.88
460.233	21133.84
460.438	20161.06
460.644	20488.73
460.85	19206.7
461.055	18874.93
461.261	19345.97
461.466	17574.47
461.672	17003.09
461.878	18524.73
462.083	17254.99
462.289	16974.42
462.494	16685.65
462.7	15960.67
462.905	15630.95
463.111	16153.18
463.316	16093.79
463.522	15669.86
463.727	15979.11
463.932	15762.02
464.138	15622.76
464.343	15694.44
464.549	15360.62
464.754	15762.02
464.959	15641.19
465.165	15270.51
465.37	14936.69
465.575	14252.67
465.781	15118.96
465.986	15196.78
466.191	14707.32
466.397	14172.8
466.602	13580.93
466.807	13968
467.012	14436.99
467.218	13914.75
467.423	13679.24
467.628	13902.47
467.833	14457.46
468.038	14043.78
468.244	13664.9
468.449	14097.02
468.654	13789.83
