Data from USB4F104151__62__11-52-31-922.txt Node

Date: Fri Mar 14 11:52:31 EDT 2025
User: louis
Spectrometer: USB4F10415
Trigger mode: 4
Integration Time (sec): 2.000000E-2
Scans to average: 1
Electric dark correction enabled: true
Nonlinearity correction enabled: false
Boxcar width: 0
XAxis mode: Wavelengths
Number of Pixels in Spectrum: 3648
>>>>>Begin Spectral Data<<<<<
178.204	-37.38
178.424	-37.38
178.644	-37.38
178.864	-35.33
179.084	-41.47
179.304	-10.75
179.524	-6.66
179.744	-64
179.964	15.87
180.184	-23.04
180.404	89.6
180.624	-29.18
180.844	77.31
181.064	-47.62
181.283	22.02
181.503	-82.43
181.723	58.88
181.943	-59.9
182.163	52.74
182.383	-25.09
182.602	52.74
182.822	38.4
183.042	-18.94
183.262	95.74
183.482	34.3
183.701	65.02
183.921	28.16
184.141	-107.01
184.361	28.16
184.58	-33.28
184.8	-4.61
185.02	13.82
185.239	69.12
185.459	3.58
185.679	62.98
185.898	-80.38
186.118	38.4
186.338	-33.28
186.557	42.5
186.777	3.58
186.997	85.5
187.216	22.02
187.436	112.13
187.655	17.92
187.875	3.58
188.095	60.93
188.314	13.82
188.534	-12.8
188.753	-8.7
188.973	114.17
189.192	54.78
189.412	108.03
189.631	9.73
189.851	-33.28
190.07	19.97
190.29	26.11
190.509	-8.7
190.729	-4.61
190.948	11.78
191.168	77.31
191.387	130.56
191.607	-6.66
191.826	46.59
192.045	15.87
192.265	54.78
192.484	11.78
192.704	26.11
192.923	3.58
193.142	71.17
193.362	-41.47
193.581	19.97
193.8	24.06
194.02	9.73
194.239	-25.09
194.458	30.21
194.678	15.87
194.897	93.69
195.116	22.02
195.335	38.4
195.555	42.5
195.774	1.54
195.993	-6.66
196.212	-53.76
196.432	62.98
196.651	22.02
196.87	48.64
197.089	15.87
197.308	34.3
197.528	19.97
197.747	26.11
197.966	-16.9
198.185	44.54
198.404	5.63
198.623	40.45
198.842	15.87
199.062	54.78
199.281	17.92
199.5	32.26
199.719	22.02
199.938	-72.19
200.157	-18.94
200.376	40.45
200.595	19.97
200.814	44.54
201.033	17.92
201.252	34.3
201.471	46.59
201.69	38.4
201.909	-4.61
202.128	56.83
202.347	26.11
202.566	15.87
202.785	-37.38
203.004	15.87
203.223	77.31
203.442	108.03
203.661	30.21
203.879	42.5
204.098	24.06
204.317	-20.99
204.536	36.35
204.755	9.73
204.974	50.69
205.193	13.82
205.411	81.41
205.63	-2.56
205.849	99.84
206.068	-39.42
206.287	13.82
206.505	5.63
206.724	11.78
206.943	-31.23
207.162	52.74
207.381	-23.04
207.599	3.58
207.818	-33.28
208.037	7.68
208.255	95.74
208.474	91.65
208.693	-25.09
208.911	-41.47
209.13	28.16
209.349	-2.56
209.567	67.07
209.786	69.12
210.005	7.68
210.223	42.5
210.442	56.83
210.661	1.54
210.879	54.78
211.098	7.68
211.316	32.26
211.535	-2.56
211.753	-31.23
211.972	32.26
212.191	22.02
212.409	3.58
212.628	71.17
212.846	-41.47
213.065	38.4
213.283	120.32
213.502	50.69
213.72	17.92
213.938	32.26
214.157	28.16
214.375	-51.71
214.594	28.16
214.812	13.82
215.031	32.26
215.249	36.35
215.467	97.79
215.686	40.45
215.904	-16.9
216.122	17.92
216.341	46.59
216.559	9.73
216.778	-2.56
216.996	40.45
217.214	52.74
217.432	-27.14
217.651	44.54
217.869	-4.61
218.087	81.41
218.306	17.92
218.524	-18.94
218.742	5.63
218.96	42.5
219.179	69.12
219.397	-18.94
219.615	89.6
219.833	85.5
220.051	-10.75
220.27	83.45
220.488	48.64
220.706	5.63
220.924	34.3
221.142	44.54
221.36	-20.99
221.578	19.97
221.796	22.02
222.015	9.73
222.233	-6.66
222.451	28.16
222.669	-12.8
222.887	26.11
223.105	44.54
223.323	19.97
223.541	19.97
223.759	34.3
223.977	17.92
224.195	38.4
224.413	44.54
224.631	112.13
224.849	40.45
225.067	58.88
225.285	34.3
225.503	54.78
225.721	9.73
225.939	7.68
226.157	7.68
226.375	105.98
226.592	-18.94
226.81	36.35
227.028	-10.75
227.246	7.68
227.464	19.97
227.682	-10.75
227.9	-16.9
228.117	17.92
228.335	32.26
228.553	67.07
228.771	48.64
228.989	-20.99
229.206	28.16
229.424	38.4
229.642	-45.57
229.86	28.16
230.077	24.06
230.295	7.68
230.513	56.83
230.731	-23.04
230.948	13.82
231.166	34.3
231.384	-39.42
231.601	9.73
231.819	67.07
232.037	42.5
232.254	-6.66
232.472	-41.47
232.689	26.11
232.907	11.78
233.125	-47.62
233.342	-14.85
233.56	-47.62
233.777	-37.38
233.995	15.87
234.213	9.73
234.43	89.6
234.648	32.26
234.865	-23.04
235.083	26.11
235.3	73.21
235.518	1.54
235.735	50.69
235.953	73.21
236.17	7.68
236.388	48.64
236.605	52.74
236.822	69.12
237.04	24.06
237.257	28.16
237.475	-14.85
237.692	26.11
237.909	-2.56
238.127	5.63
238.344	48.64
238.562	69.12
238.779	28.16
238.996	-33.28
239.214	13.82
239.431	24.06
239.648	7.68
239.865	-2.56
240.083	42.5
240.3	44.54
240.517	17.92
240.735	26.11
240.952	140.8
241.169	-33.28
241.386	32.26
241.603	17.92
241.821	40.45
242.038	-47.62
242.255	11.78
242.472	1.54
242.689	26.11
242.907	24.06
243.124	77.31
243.341	-4.61
243.558	11.78
243.775	67.07
243.992	-20.99
244.209	62.98
244.426	46.59
244.643	7.68
244.86	22.02
245.078	28.16
245.295	95.74
245.512	87.55
245.729	-10.75
245.946	-29.18
246.163	58.88
246.38	32.26
246.597	40.45
246.814	77.31
247.031	-16.9
247.248	28.16
247.464	-31.23
247.681	1.54
247.898	13.82
248.115	36.35
248.332	-20.99
248.549	48.64
248.766	75.26
248.983	42.5
249.2	15.87
249.417	54.78
249.633	38.4
249.85	87.55
250.067	95.74
250.284	58.88
250.501	11.78
250.717	118.27
250.934	9.73
251.151	32.26
251.368	11.78
251.585	-2.56
251.801	-6.66
252.018	75.26
252.235	91.65
252.451	3.58
252.668	-23.04
252.885	34.3
253.102	75.26
253.318	77.31
253.535	60.93
253.752	71.17
253.968	60.93
254.185	-47.62
254.401	46.59
254.618	46.59
254.835	-0.51
255.051	13.82
255.268	17.92
255.484	9.73
255.701	36.35
255.917	60.93
256.134	-14.85
256.351	9.73
256.567	-23.04
256.784	60.93
257	-23.04
257.217	67.07
257.433	24.06
257.65	110.08
257.866	79.36
258.082	13.82
258.299	-41.47
258.515	-51.71
258.732	-10.75
258.948	-61.95
259.165	-72.19
259.381	44.54
259.597	-100.86
259.814	56.83
260.03	26.11
260.246	19.97
260.463	17.92
260.679	15.87
260.895	67.07
261.112	-23.04
261.328	-4.61
261.544	58.88
261.761	83.45
261.977	40.45
262.193	52.74
262.409	85.5
262.626	36.35
262.842	54.78
263.058	11.78
263.274	114.17
263.49	56.83
263.707	87.55
263.923	-12.8
264.139	19.97
264.355	-41.47
264.571	30.21
264.787	36.35
265.004	46.59
265.22	5.63
265.436	-16.9
265.652	-20.99
265.868	46.59
266.084	-49.66
266.3	17.92
266.516	-8.7
266.732	-39.42
266.948	9.73
267.164	-49.66
267.38	46.59
267.596	3.58
267.812	40.45
268.028	97.79
268.244	40.45
268.46	30.21
268.676	56.83
268.892	54.78
269.108	93.69
269.324	-39.42
269.54	85.5
269.756	69.12
269.972	28.16
270.188	-51.71
270.403	56.83
270.619	5.63
270.835	91.65
271.051	50.69
271.267	24.06
271.483	85.5
271.698	50.69
271.914	54.78
272.13	-2.56
272.346	-6.66
272.562	9.73
272.777	40.45
272.993	-12.8
273.209	85.5
273.425	1.54
273.64	46.59
273.856	58.88
274.072	13.82
274.287	60.93
274.503	-18.94
274.719	56.83
274.934	83.45
275.15	-25.09
275.366	3.58
275.581	89.6
275.797	-16.9
276.012	-2.56
276.228	85.5
276.444	42.5
276.659	-10.75
276.875	44.54
277.09	-49.66
277.306	-6.66
277.521	42.5
277.737	71.17
277.952	52.74
278.168	5.63
278.383	77.31
278.599	-6.66
278.814	52.74
279.03	-0.51
279.245	-25.09
279.461	-25.09
279.676	81.41
279.892	-4.61
280.107	-12.8
280.322	44.54
280.538	73.21
280.753	-14.85
280.969	65.02
281.184	22.02
281.399	36.35
281.615	-2.56
281.83	44.54
282.045	1.54
282.26	1.54
282.476	62.98
282.691	36.35
282.906	26.11
283.122	32.26
283.337	1.54
283.552	30.21
283.767	9.73
283.983	48.64
284.198	-6.66
284.413	22.02
284.628	-23.04
284.843	3.58
285.058	46.59
285.274	-12.8
285.489	-18.94
285.704	69.12
285.919	36.35
286.134	-2.56
286.349	101.89
286.564	36.35
286.779	69.12
286.995	30.21
287.21	34.3
287.425	-8.7
287.64	-8.7
287.855	40.45
288.07	38.4
288.285	60.93
288.5	116.22
288.715	65.02
288.93	58.88
289.145	3.58
289.36	103.93
289.575	38.4
289.79	32.26
290.004	-25.09
290.219	48.64
290.434	144.89
290.649	65.02
290.864	-6.66
291.079	50.69
291.294	40.45
291.509	52.74
291.724	40.45
291.938	114.17
292.153	-20.99
292.368	-0.51
292.583	122.37
292.798	17.92
293.012	-29.18
293.227	65.02
293.442	26.11
293.657	7.68
293.871	79.36
294.086	24.06
294.301	-4.61
294.516	-74.24
294.73	48.64
294.945	56.83
295.16	32.26
295.374	79.36
295.589	-10.75
295.804	1.54
296.018	9.73
296.233	38.4
296.447	48.64
296.662	-10.75
296.877	28.16
297.091	73.21
297.306	67.07
297.52	13.82
297.735	36.35
297.949	46.59
298.164	56.83
298.378	-16.9
298.593	13.82
298.807	-57.86
299.022	40.45
299.236	87.55
299.451	81.41
299.665	-25.09
299.88	7.68
300.094	50.69
300.309	93.69
300.523	56.83
300.737	15.87
300.952	26.11
301.166	3.58
301.381	7.68
301.595	-27.14
301.809	52.74
302.024	28.16
302.238	65.02
302.452	5.63
302.667	19.97
302.881	50.69
303.095	24.06
303.309	93.69
303.524	48.64
303.738	24.06
303.952	28.16
304.166	71.17
304.381	30.21
304.595	79.36
304.809	36.35
305.023	-14.85
305.237	79.36
305.452	-2.56
305.666	54.78
305.88	19.97
306.094	32.26
306.308	-47.62
306.522	91.65
306.736	87.55
306.95	30.21
307.164	34.3
307.379	67.07
307.593	83.45
307.807	13.82
308.021	75.26
308.235	54.78
308.449	48.64
308.663	-51.71
308.877	65.02
309.091	54.78
309.305	54.78
309.519	7.68
309.733	108.03
309.947	-4.61
310.161	69.12
310.374	91.65
310.588	40.45
310.802	3.58
311.016	62.98
311.23	9.73
311.444	71.17
311.658	-41.47
311.872	17.92
312.085	99.84
312.299	30.21
312.513	95.74
312.727	93.69
312.941	30.21
313.154	65.02
313.368	73.21
313.582	28.16
313.796	-20.99
314.009	26.11
314.223	28.16
314.437	89.6
314.651	56.83
314.864	-0.51
315.078	17.92
315.292	71.17
315.505	-2.56
315.719	65.02
315.933	19.97
316.146	-18.94
316.36	-0.51
316.573	-8.7
316.787	54.78
317.001	62.98
317.214	-51.71
317.428	87.55
317.641	-0.51
317.855	-4.61
318.068	9.73
318.282	5.63
318.495	11.78
318.709	62.98
318.922	-18.94
319.136	34.3
319.349	112.13
319.563	3.58
319.776	22.02
319.99	-18.94
320.203	22.02
320.417	52.74
320.63	-4.61
320.843	97.79
321.057	87.55
321.27	65.02
321.483	-6.66
321.697	9.73
321.91	-0.51
322.124	97.79
322.337	101.89
322.55	40.45
322.763	26.11
322.977	17.92
323.19	26.11
323.403	40.45
323.617	30.21
323.83	7.68
324.043	7.68
324.256	52.74
324.469	24.06
324.683	103.93
324.896	26.11
325.109	54.78
325.322	-33.28
325.535	-35.33
325.748	60.93
325.962	-14.85
326.175	28.16
326.388	93.69
326.601	-12.8
326.814	40.45
327.027	11.78
327.24	71.17
327.453	-49.66
327.666	22.02
327.879	48.64
328.092	34.3
328.305	52.74
328.518	36.35
328.731	7.68
328.944	-0.51
329.157	22.02
329.37	52.74
329.583	65.02
329.796	13.82
330.009	34.3
330.222	-25.09
330.435	48.64
330.648	-25.09
330.861	-31.23
331.073	22.02
331.286	128.51
331.499	56.83
331.712	-23.04
331.925	28.16
332.138	75.26
332.35	97.79
332.563	-14.85
332.776	58.88
332.989	30.21
333.202	28.16
333.414	60.93
333.627	87.55
333.84	42.5
334.053	-20.99
334.265	52.74
334.478	19.97
334.691	54.78
334.903	50.69
335.116	-20.99
335.329	60.93
335.541	81.41
335.754	42.5
335.966	42.5
336.179	50.69
336.392	105.98
336.604	54.78
336.817	91.65
337.029	60.93
337.242	-37.38
337.454	5.63
337.667	-0.51
337.88	79.36
338.092	40.45
338.305	19.97
338.517	-33.28
338.729	-4.61
338.942	9.73
339.154	58.88
339.367	-31.23
339.579	-6.66
339.792	-10.75
340.004	44.54
340.217	11.78
340.429	9.73
340.641	36.35
340.854	38.4
341.066	24.06
341.278	52.74
341.491	60.93
341.703	38.4
341.915	17.92
342.128	36.35
342.34	65.02
342.552	19.97
342.764	1.54
342.977	101.89
343.189	38.4
343.401	79.36
343.613	26.11
343.826	-14.85
344.038	-14.85
344.25	-20.99
344.462	30.21
344.674	60.93
344.886	40.45
345.099	91.65
345.311	26.11
345.523	52.74
345.735	73.21
345.947	26.11
346.159	17.92
346.371	24.06
346.583	91.65
346.795	105.98
347.007	65.02
347.219	26.11
347.431	56.83
347.643	144.89
347.855	40.45
348.067	128.51
348.279	58.88
348.491	46.59
348.703	34.3
348.915	24.06
349.127	56.83
349.339	42.5
349.551	13.82
349.763	-2.56
349.975	85.5
350.187	24.06
350.399	24.06
350.61	114.17
350.822	-0.51
351.034	54.78
351.246	40.45
351.458	26.11
351.669	34.3
351.881	40.45
352.093	54.78
352.305	62.98
352.517	36.35
352.728	97.79
352.94	91.65
353.152	36.35
353.363	3.58
353.575	67.07
353.787	60.93
353.999	28.16
354.21	44.54
354.422	-14.85
354.633	46.59
354.845	73.21
355.057	93.69
355.268	22.02
355.48	3.58
355.692	50.69
355.903	73.21
356.115	81.41
356.326	22.02
356.538	69.12
356.749	42.5
356.961	-2.56
357.172	19.97
357.384	-39.42
357.595	110.08
357.807	28.16
358.018	-20.99
358.23	22.02
358.441	54.78
358.653	54.78
358.864	17.92
359.075	65.02
359.287	40.45
359.498	40.45
359.709	5.63
359.921	38.4
360.132	-6.66
360.344	11.78
360.555	81.41
360.766	28.16
360.977	22.02
361.189	22.02
361.4	24.06
361.611	77.31
361.823	116.22
362.034	116.22
362.245	-31.23
362.456	42.5
362.667	-33.28
362.879	26.11
363.09	116.22
363.301	91.65
363.512	87.55
363.723	56.83
363.935	11.78
364.146	-10.75
364.357	95.74
364.568	60.93
364.779	60.93
364.99	95.74
365.201	5.63
365.412	48.64
365.623	124.41
365.834	56.83
366.045	83.45
366.256	93.69
366.467	101.89
366.678	69.12
366.889	-0.51
367.1	38.4
367.311	116.22
367.522	-8.7
367.733	40.45
367.944	153.09
368.155	9.73
368.366	65.02
368.577	91.65
368.788	95.74
368.999	42.5
369.209	48.64
369.42	42.5
369.631	62.98
369.842	38.4
370.053	-14.85
370.264	46.59
370.474	73.21
370.685	34.3
370.896	9.73
371.107	71.17
371.317	24.06
371.528	15.87
371.739	128.51
371.95	13.82
372.16	69.12
372.371	17.92
372.582	58.88
372.792	71.17
373.003	32.26
373.214	40.45
373.424	50.69
373.635	62.98
373.846	101.89
374.056	-25.09
374.267	54.78
374.477	34.3
374.688	-12.8
374.898	67.07
375.109	13.82
375.319	-2.56
375.53	11.78
375.74	42.5
375.951	28.16
376.161	91.65
376.372	97.79
376.582	42.5
376.793	5.63
377.003	83.45
377.214	36.35
377.424	67.07
377.635	17.92
377.845	54.78
378.055	42.5
378.266	54.78
378.476	62.98
378.686	30.21
378.897	62.98
379.107	71.17
379.317	3.58
379.528	46.59
379.738	101.89
379.948	65.02
380.158	-6.66
380.369	73.21
380.579	22.02
380.789	22.02
380.999	67.07
381.21	81.41
381.42	95.74
381.63	54.78
381.84	38.4
382.05	46.59
382.261	128.51
382.471	-0.51
382.681	58.88
382.891	13.82
383.101	67.07
383.311	75.26
383.521	65.02
383.731	26.11
383.941	93.69
384.151	93.69
384.361	28.16
384.571	118.27
384.781	95.74
384.991	56.83
385.201	101.89
385.411	87.55
385.621	73.21
385.831	112.13
386.041	44.54
386.251	101.89
386.461	122.37
386.671	54.78
386.881	71.17
387.091	77.31
387.301	-0.51
387.511	65.02
387.72	75.26
387.93	46.59
388.14	5.63
388.35	85.5
388.56	48.64
388.769	77.31
388.979	79.36
389.189	-0.51
389.399	52.74
389.609	118.27
389.818	22.02
390.028	42.5
390.238	42.5
390.447	85.5
390.657	124.41
390.867	19.97
391.076	77.31
391.286	79.36
391.496	34.3
391.705	110.08
391.915	116.22
392.125	58.88
392.334	50.69
392.544	36.35
392.753	-4.61
392.963	95.74
393.172	36.35
393.382	67.07
393.591	62.98
393.801	153.09
394.01	118.27
394.22	65.02
394.429	103.93
394.639	99.84
394.848	75.26
395.058	79.36
395.267	40.45
395.477	69.12
395.686	173.57
395.895	103.93
396.105	165.37
396.314	89.6
396.524	71.17
396.733	120.32
396.942	138.75
397.152	87.55
397.361	120.32
397.57	62.98
397.78	114.17
397.989	40.45
398.198	52.74
398.407	114.17
398.617	124.41
398.826	85.5
399.035	95.74
399.244	116.22
399.453	114.17
399.663	116.22
399.872	101.89
400.081	-14.85
400.29	165.37
400.499	116.22
400.708	103.93
400.917	83.45
401.127	103.93
401.336	99.84
401.545	108.03
401.754	79.36
401.963	167.42
402.172	60.93
402.381	144.89
402.59	103.93
402.799	146.94
403.008	93.69
403.217	110.08
403.426	97.79
403.635	155.13
403.844	175.61
404.053	73.21
404.262	173.57
404.471	101.89
404.68	103.93
404.888	171.52
405.097	116.22
405.306	140.8
405.515	153.09
405.724	118.27
405.933	200.19
406.142	212.48
406.35	161.28
406.559	210.43
406.768	171.52
406.977	232.96
407.185	173.57
407.394	171.52
407.603	185.85
407.812	189.95
408.02	175.61
408.229	247.29
408.438	247.29
408.646	185.85
408.855	329.21
409.064	345.59
409.272	314.88
409.481	267.77
409.69	253.44
409.898	280.06
410.107	304.64
410.315	425.47
410.524	312.83
410.733	388.6
410.941	292.35
411.15	384.51
411.358	361.98
411.567	439.8
411.775	423.42
411.984	452.09
412.192	439.8
412.401	560.63
412.609	507.38
412.818	497.14
413.026	534.01
413.234	441.85
413.443	534.01
413.651	536.06
413.86	628.21
414.068	681.46
414.276	673.27
414.485	579.06
414.693	656.89
414.901	716.28
415.11	706.04
415.318	785.91
415.526	880.11
415.734	833.01
415.943	814.58
416.151	945.65
416.359	919.03
416.567	990.7
416.776	980.47
416.984	1025.52
417.192	1052.14
417.4	1050.1
417.608	1080.82
417.817	1068.53
418.025	1230.32
418.233	1351.15
418.441	1177.07
418.649	1166.83
418.857	1336.81
419.065	1367.53
419.273	1324.52
419.481	1506.79
419.689	1545.7
419.897	1570.28
420.105	1594.86
420.313	1523.18
420.521	1701.35
420.729	1773.03
420.937	1768.93
421.145	1877.48
421.353	1877.48
421.561	1957.35
421.769	2000.35
421.977	2121.18
422.185	2141.66
422.393	2377.18
422.601	2407.9
422.809	2313.69
423.017	2430.43
423.224	2526.68
423.432	2584.02
423.64	2696.66
423.848	2842.07
424.056	2747.86
424.263	2923.99
424.471	3132.88
424.679	3177.94
424.887	3306.96
425.094	3313.1
425.302	3251.66
425.51	3362.25
425.718	3640.78
425.925	3616.2
426.133	3775.94
426.341	4001.22
426.548	4048.32
426.756	4126.15
426.964	4230.59
427.171	4568.51
427.379	4541.88
427.586	4572.6
427.794	4658.62
428.001	5072.31
428.209	5199.28
428.417	5023.16
428.624	5434.8
428.832	5506.48
429.039	5547.44
429.247	5428.65
429.454	6184.35
429.662	6342.05
429.869	5922.21
430.076	6296.99
430.284	6249.89
430.491	6489.5
430.699	6813.08
430.906	6897.05
431.114	6931.86
431.321	7110.04
431.528	7363.98
431.736	7738.76
431.943	8074.63
432.15	8111.49
432.358	8074.63
432.565	8478.08
432.772	8531.33
432.979	8850.81
433.187	8975.74
433.394	9155.96
433.601	9676.14
433.808	9563.5
434.016	9639.28
434.223	9897.32
434.43	10517.86
434.637	10454.37
434.844	11035.99
435.052	11457.87
435.259	11083.09
435.466	11425.11
435.673	11124.05
435.88	12115.27
436.087	12733.76
436.294	12680.51
436.501	12250.44
436.708	12692.8
436.915	12920.12
437.122	13813.04
437.329	13659.44
437.537	13878.57
437.743	14458.15
437.95	14245.16
438.157	14904.6
438.364	15369.49
438.571	15420.69
438.778	15312.15
438.985	16954.62
439.192	16223.5
439.399	16930.05
439.606	16387.33
439.813	17157.37
440.02	18103.53
440.227	17800.43
440.433	17986.8
440.64	18124.01
440.847	18220.27
441.054	18750.69
441.261	20061.39
441.467	19760.34
441.674	19993.81
441.881	20833.47
442.088	20731.08
442.294	20765.89
442.501	20970.69
442.708	21814.45
442.914	22316.2
443.121	23356.57
443.328	22727.85
443.534	24628.36
443.741	23735.45
443.948	23362.72
444.154	25156.74
444.361	24824.97
444.568	25113.73
444.774	24962.18
444.981	25453.69
445.187	25947.25
445.394	27098.21
445.6	27163.75
445.807	29613.12
446.013	28099.67
446.22	28814.41
446.426	29979.7
446.633	30022.71
446.839	31292.45
447.046	29609.02
447.252	31456.29
447.459	31550.49
447.665	31120.42
447.871	32812.04
448.078	34147.32
448.284	32539.66
448.491	33340.42
448.697	34814.96
448.903	35189.74
449.11	35236.84
449.316	34790.38
449.522	35576.8
449.728	36529.11
449.935	36647.89
450.141	36682.7
450.347	37360.58
450.553	36443.09
450.76	36905.93
450.966	38210.49
451.172	37678.02
451.378	38532.02
451.584	37596.1
451.791	38765.49
451.997	38493.11
452.203	39492.52
452.409	39367.59
452.615	39052.2
452.821	37557.19
453.027	37346.25
453.233	39543.72
453.44	38198.2
453.646	38136.76
453.852	38335.42
454.058	39107.5
454.264	37632.96
454.47	38865.84
454.676	37567.43
454.882	38575.03
455.088	35884
455.294	36578.26
455.5	36502.48
455.705	37288.9
455.911	35632.1
456.117	34829.29
456.323	34319.35
456.529	32689.17
456.735	34137.08
456.941	33094.66
457.147	32443.41
457.352	31511.58
457.558	31368.23
457.764	31271.97
457.97	30897.19
458.176	29785.15
458.381	29938.74
458.587	28630.09
458.793	28609.61
458.999	27040.87
459.204	28972.1
459.41	28435.53
459.616	26350.7
459.821	26489.96
460.027	26182.77
460.233	25664.63
460.438	24175.76
460.644	24847.49
460.85	23739.54
461.055	23434.39
461.261	23065.76
461.466	21372.09
461.672	21075.13
461.878	22564.01
462.083	20696.26
462.289	20301
462.494	20341.96
462.7	19494.1
462.905	18625.76
463.111	19637.46
463.316	19748.05
463.522	18957.53
463.727	19035.36
463.932	19156.19
464.138	19111.13
464.343	18906.34
464.549	18263.27
464.754	18969.82
464.959	18730.21
465.165	19037.41
465.37	18167.02
465.575	17476.85
465.781	18281.71
465.986	18199.79
466.191	17640.69
466.397	17368.31
466.602	16370.95
466.807	16985.34
467.012	17140.99
467.218	16768.26
467.423	17052.92
467.628	16940.29
