Data from USB4F104151__75__11-52-43-540.txt Node

Date: Fri Mar 14 11:52:43 EDT 2025
User: louis
Spectrometer: USB4F10415
Trigger mode: 4
Integration Time (sec): 2.000000E-2
Scans to average: 1
Electric dark correction enabled: true
Nonlinearity correction enabled: false
Boxcar width: 0
XAxis mode: Wavelengths
Number of Pixels in Spectrum: 3648
>>>>>Begin Spectral Data<<<<<
178.204	-95.91
178.424	-95.91
178.644	-95.91
178.864	-124.58
179.084	-71.34
179.304	14.68
179.524	-20.14
179.744	-75.43
179.964	22.87
180.184	-5.8
180.404	59.73
180.624	14.68
180.844	-59.05
181.064	18.77
181.283	45.4
181.503	16.73
181.723	-32.43
181.943	63.83
182.163	51.54
182.383	-36.52
182.602	0.34
182.822	-38.57
183.042	72.02
183.262	43.35
183.482	4.44
183.701	-16.04
183.921	59.73
184.141	4.44
184.361	26.96
184.58	-9.9
184.8	-18.09
185.02	31.06
185.239	-22.19
185.459	-52.91
185.679	53.59
185.898	-11.95
186.118	55.64
186.338	20.82
186.557	22.87
186.777	6.49
186.997	-46.76
187.216	-5.8
187.436	-22.19
187.655	4.44
187.875	-9.9
188.095	55.64
188.314	35.16
188.534	12.63
188.753	-16.04
188.973	-32.43
189.192	-1.71
189.412	12.63
189.631	-7.85
189.851	2.39
190.07	2.39
190.29	-85.67
190.509	2.39
190.729	29.01
190.948	84.31
191.168	47.44
191.387	16.73
191.607	14.68
191.826	-7.85
192.045	-18.09
192.265	10.58
192.484	10.58
192.704	-26.28
192.923	-63.15
193.142	86.36
193.362	-3.75
193.581	53.59
193.8	-16.04
194.02	92.5
194.239	-24.23
194.458	33.11
194.678	2.39
194.897	41.3
195.116	-9.9
195.335	12.63
195.555	-20.14
195.774	-16.04
195.993	55.64
196.212	-26.28
196.432	-9.9
196.651	55.64
196.87	-30.38
197.089	59.73
197.308	26.96
197.528	39.25
197.747	82.26
197.966	-26.28
198.185	12.63
198.404	-7.85
198.623	8.53
198.842	4.44
199.062	18.77
199.281	53.59
199.5	41.3
199.719	31.06
199.938	43.35
200.157	72.02
200.376	-20.14
200.595	-20.14
200.814	-7.85
201.033	4.44
201.252	-16.04
201.471	2.39
201.69	-7.85
201.909	74.07
202.128	16.73
202.347	-71.34
202.566	-24.23
202.785	29.01
203.004	18.77
203.223	61.78
203.442	-40.62
203.661	-7.85
203.879	-11.95
204.098	41.3
204.317	-95.91
204.536	45.4
204.755	-5.8
204.974	53.59
205.193	57.68
205.411	76.12
205.63	-11.95
205.849	45.4
206.068	2.39
206.287	-38.57
206.505	59.73
206.724	37.2
206.943	-30.38
207.162	-3.75
207.381	65.88
207.599	6.49
207.818	-1.71
208.037	29.01
208.255	-85.67
208.474	35.16
208.693	41.3
208.911	78.16
209.13	43.35
209.349	0.34
209.567	84.31
209.786	4.44
210.005	-9.9
210.223	41.3
210.442	-54.95
210.661	-7.85
210.879	26.96
211.098	-24.23
211.316	-36.52
211.535	47.44
211.753	20.82
211.972	-16.04
212.191	20.82
212.409	24.92
212.628	26.96
212.846	-22.19
213.065	92.5
213.283	6.49
213.502	-44.71
213.72	-13.99
213.938	61.78
214.157	8.53
214.375	-1.71
214.594	-87.72
214.812	-1.71
215.031	-3.75
215.249	16.73
215.467	20.82
215.686	-7.85
215.904	53.59
216.122	55.64
216.341	-7.85
216.559	31.06
216.778	31.06
216.996	39.25
217.214	-48.81
217.432	63.83
217.651	-3.75
217.869	45.4
218.087	-75.43
218.306	10.58
218.524	49.49
218.742	-38.57
218.96	86.36
219.179	102.74
219.397	65.88
219.615	72.02
219.833	-20.14
220.051	6.49
220.27	88.4
220.488	49.49
220.706	92.5
220.924	31.06
221.142	-1.71
221.36	35.16
221.578	-30.38
221.796	31.06
222.015	4.44
222.233	31.06
222.451	-13.99
222.669	51.54
222.887	24.92
223.105	10.58
223.323	33.11
223.541	-7.85
223.759	55.64
223.977	-3.75
224.195	67.92
224.413	53.59
224.631	-3.75
224.849	12.63
225.067	57.68
225.285	-11.95
225.503	-1.71
225.721	-9.9
225.939	20.82
226.157	20.82
226.375	110.93
226.592	53.59
226.81	16.73
227.028	-30.38
227.246	-3.75
227.464	-32.43
227.682	-9.9
227.9	26.96
228.117	47.44
228.335	33.11
228.553	37.2
228.771	20.82
228.989	-48.81
229.206	6.49
229.424	26.96
229.642	35.16
229.86	37.2
230.077	47.44
230.295	53.59
230.513	35.16
230.731	35.16
230.948	69.97
231.166	-20.14
231.384	14.68
231.601	55.64
231.819	35.16
232.037	-34.47
232.254	4.44
232.472	37.2
232.689	12.63
232.907	80.21
233.125	14.68
233.342	14.68
233.56	-42.67
233.777	-7.85
233.995	31.06
234.213	29.01
234.43	16.73
234.648	-18.09
234.865	29.01
235.083	-26.28
235.3	-11.95
235.518	59.73
235.735	18.77
235.953	61.78
236.17	-1.71
236.388	-34.47
236.605	26.96
236.822	35.16
237.04	59.73
237.257	-65.19
237.475	-67.24
237.692	-34.47
237.909	-18.09
238.127	-36.52
238.344	20.82
238.562	-18.09
238.779	-5.8
238.996	-32.43
239.214	2.39
239.431	33.11
239.648	-9.9
239.865	0.34
240.083	-1.71
240.3	-30.38
240.517	18.77
240.735	47.44
240.952	69.97
241.169	18.77
241.386	-75.43
241.603	-9.9
241.821	47.44
242.038	18.77
242.255	14.68
242.472	59.73
242.689	53.59
242.907	6.49
243.124	45.4
243.341	-63.15
243.558	-13.99
243.775	37.2
243.992	-7.85
244.209	12.63
244.426	57.68
244.643	69.97
244.86	-48.81
245.078	-46.76
245.295	-3.75
245.512	84.31
245.729	18.77
245.946	26.96
246.163	26.96
246.38	72.02
246.597	-16.04
246.814	-20.14
247.031	35.16
247.248	10.58
247.464	106.84
247.681	-11.95
247.898	74.07
248.115	31.06
248.332	-5.8
248.549	47.44
248.766	-20.14
248.983	-13.99
249.2	24.92
249.417	22.87
249.633	24.92
249.85	-22.19
250.067	-26.28
250.284	-22.19
250.501	35.16
250.717	6.49
250.934	8.53
251.151	45.4
251.368	-1.71
251.585	26.96
251.801	14.68
252.018	-38.57
252.235	-22.19
252.451	18.77
252.668	-46.76
252.885	33.11
253.102	-26.28
253.318	22.87
253.535	37.2
253.752	-24.23
253.968	14.68
254.185	18.77
254.401	-5.8
254.618	26.96
254.835	-32.43
255.051	29.01
255.268	39.25
255.484	51.54
255.701	-22.19
255.917	16.73
256.134	-112.3
256.351	-1.71
256.567	-61.1
256.784	41.3
257	-9.9
257.217	43.35
257.433	67.92
257.65	6.49
257.866	24.92
258.082	12.63
258.299	-5.8
258.515	-1.71
258.732	10.58
258.948	20.82
259.165	41.3
259.381	18.77
259.597	41.3
259.814	-26.28
260.03	-26.28
260.246	53.59
260.463	8.53
260.679	29.01
260.895	-3.75
261.112	45.4
261.328	8.53
261.544	-32.43
261.761	20.82
261.977	6.49
262.193	-3.75
262.409	6.49
262.626	35.16
262.842	61.78
263.058	-1.71
263.274	49.49
263.49	-48.81
263.707	104.79
263.923	-11.95
264.139	-24.23
264.355	90.45
264.571	-1.71
264.787	45.4
265.004	8.53
265.22	-48.81
265.436	-5.8
265.652	24.92
265.868	74.07
266.084	43.35
266.3	-40.62
266.516	-40.62
266.732	-59.05
266.948	2.39
267.164	67.92
267.38	-7.85
267.596	12.63
267.812	53.59
268.028	47.44
268.244	12.63
268.46	47.44
268.676	-13.99
268.892	61.78
269.108	29.01
269.324	0.34
269.54	-3.75
269.756	29.01
269.972	-36.52
270.188	63.83
270.403	31.06
270.619	14.68
270.835	100.69
271.051	-13.99
271.267	-7.85
271.483	72.02
271.698	-20.14
271.914	24.92
272.13	8.53
272.346	-20.14
272.562	47.44
272.777	92.5
272.993	10.58
273.209	-13.99
273.425	0.34
273.64	0.34
273.856	-26.28
274.072	-34.47
274.287	-52.91
274.503	4.44
274.719	4.44
274.934	37.2
275.15	22.87
275.366	-24.23
275.581	10.58
275.797	31.06
276.012	20.82
276.228	35.16
276.444	-3.75
276.659	8.53
276.875	-42.67
277.09	33.11
277.306	-1.71
277.521	55.64
277.737	4.44
277.952	14.68
278.168	63.83
278.383	53.59
278.599	8.53
278.814	6.49
279.03	-22.19
279.245	94.55
279.461	57.68
279.676	74.07
279.892	-1.71
280.107	37.2
280.322	-32.43
280.538	-7.85
280.753	24.92
280.969	-65.19
281.184	24.92
281.399	24.92
281.615	39.25
281.83	47.44
282.045	-46.76
282.26	-30.38
282.476	-22.19
282.691	16.73
282.906	-81.58
283.122	14.68
283.337	24.92
283.552	45.4
283.767	0.34
283.983	-5.8
284.198	61.78
284.413	6.49
284.628	24.92
284.843	4.44
285.058	35.16
285.274	-28.33
285.489	8.53
285.704	86.36
285.919	92.5
286.134	8.53
286.349	51.54
286.564	-1.71
286.779	72.02
286.995	49.49
287.21	20.82
287.425	94.55
287.64	4.44
287.855	-75.43
288.07	74.07
288.285	49.49
288.5	41.3
288.715	-9.9
288.93	8.53
289.145	-16.04
289.36	10.58
289.575	16.73
289.79	82.26
290.004	-40.62
290.219	55.64
290.434	45.4
290.649	53.59
290.864	-13.99
291.079	26.96
291.294	45.4
291.509	39.25
291.724	-1.71
291.938	-50.86
292.153	10.58
292.368	2.39
292.583	96.6
292.798	-42.67
293.012	100.69
293.227	20.82
293.442	-7.85
293.657	-9.9
293.871	63.83
294.086	57.68
294.301	37.2
294.516	94.55
294.73	10.58
294.945	55.64
295.16	51.54
295.374	-5.8
295.589	100.69
295.804	8.53
296.018	-73.39
296.233	29.01
296.447	72.02
296.662	47.44
296.877	63.83
297.091	37.2
297.306	43.35
297.52	10.58
297.735	-1.71
297.949	12.63
298.164	-26.28
298.378	47.44
298.593	51.54
298.807	-42.67
299.022	10.58
299.236	-5.8
299.451	-38.57
299.665	18.77
299.88	-18.09
300.094	26.96
300.309	26.96
300.523	12.63
300.737	-3.75
300.952	43.35
301.166	8.53
301.381	-22.19
301.595	72.02
301.809	49.49
302.024	-63.15
302.238	26.96
302.452	72.02
302.667	86.36
302.881	37.2
303.095	-34.47
303.309	-24.23
303.524	49.49
303.738	-7.85
303.952	45.4
304.166	35.16
304.381	33.11
304.595	41.3
304.809	86.36
305.023	-57
305.237	37.2
305.452	33.11
305.666	49.49
305.88	14.68
306.094	18.77
306.308	53.59
306.522	-28.33
306.736	55.64
306.95	26.96
307.164	96.6
307.379	-1.71
307.593	22.87
307.807	-57
308.021	22.87
308.235	22.87
308.449	72.02
308.663	14.68
308.877	-28.33
309.091	86.36
309.305	35.16
309.519	45.4
309.733	31.06
309.947	-20.14
310.161	22.87
310.374	-3.75
310.588	92.5
310.802	-36.52
311.016	-22.19
311.23	10.58
311.444	-38.57
311.658	53.59
311.872	59.73
312.085	14.68
312.299	45.4
312.513	49.49
312.727	-26.28
312.941	61.78
313.154	2.39
313.368	8.53
313.582	8.53
313.796	10.58
314.009	45.4
314.223	18.77
314.437	31.06
314.651	149.84
314.864	45.4
315.078	43.35
315.292	6.49
315.505	29.01
315.719	-36.52
315.933	53.59
316.146	29.01
316.36	-48.81
316.573	78.16
316.787	49.49
317.001	20.82
317.214	26.96
317.428	-13.99
317.641	53.59
317.855	69.97
318.068	49.49
318.282	10.58
318.495	-1.71
318.709	16.73
318.922	-9.9
319.136	-28.33
319.349	18.77
319.563	35.16
319.776	47.44
319.99	-26.28
320.203	35.16
320.417	31.06
320.63	45.4
320.843	4.44
321.057	53.59
321.27	67.92
321.483	29.01
321.697	12.63
321.91	-93.87
322.124	47.44
322.337	57.68
322.55	-16.04
322.763	-52.91
322.977	41.3
323.19	53.59
323.403	-26.28
323.617	72.02
323.83	26.96
324.043	76.12
324.256	51.54
324.469	43.35
324.683	41.3
324.896	45.4
325.109	-7.85
325.322	2.39
325.535	-30.38
325.748	-65.19
325.962	57.68
326.175	20.82
326.388	69.97
326.601	4.44
326.814	0.34
327.027	24.92
327.24	69.97
327.453	-1.71
327.666	39.25
327.879	55.64
328.092	8.53
328.305	33.11
328.518	4.44
328.731	-13.99
328.944	86.36
329.157	53.59
329.37	-38.57
329.583	57.68
329.796	63.83
330.009	-16.04
330.222	18.77
330.435	-9.9
330.648	94.55
330.861	-69.29
331.073	59.73
331.286	106.84
331.499	49.49
331.712	86.36
331.925	16.73
332.138	10.58
332.35	47.44
332.563	18.77
332.776	-13.99
332.989	22.87
333.202	-63.15
333.414	55.64
333.627	39.25
333.84	26.96
334.053	-42.67
334.265	26.96
334.478	49.49
334.691	-36.52
334.903	51.54
335.116	-34.47
335.329	47.44
335.541	51.54
335.754	-50.86
335.966	29.01
336.179	8.53
336.392	63.83
336.604	-5.8
336.817	51.54
337.029	31.06
337.242	49.49
337.454	61.78
337.667	-22.19
337.88	39.25
338.092	37.2
338.305	10.58
338.517	33.11
338.729	119.12
338.942	24.92
339.154	39.25
339.367	24.92
339.579	31.06
339.792	-36.52
340.004	4.44
340.217	33.11
340.429	55.64
340.641	-11.95
340.854	72.02
341.066	16.73
341.278	22.87
341.491	49.49
341.703	-24.23
341.915	29.01
342.128	39.25
342.34	-18.09
342.552	24.92
342.764	4.44
342.977	51.54
343.189	55.64
343.401	31.06
343.613	-34.47
343.826	61.78
344.038	6.49
344.25	14.68
344.462	-44.71
344.674	61.78
344.886	22.87
345.099	12.63
345.311	53.59
345.523	29.01
345.735	-28.33
345.947	51.54
346.159	-73.39
346.371	53.59
346.583	35.16
346.795	94.55
347.007	-1.71
347.219	39.25
347.431	78.16
347.643	55.64
347.855	-7.85
348.067	31.06
348.279	10.58
348.491	-54.95
348.703	-36.52
348.915	24.92
349.127	26.96
349.339	55.64
349.551	-9.9
349.763	8.53
349.975	-38.57
350.187	33.11
350.399	8.53
350.61	98.64
350.822	53.59
351.034	-22.19
351.246	63.83
351.458	35.16
351.669	43.35
351.881	33.11
352.093	-7.85
352.305	119.12
352.517	45.4
352.728	33.11
352.94	29.01
353.152	49.49
353.363	29.01
353.575	45.4
353.787	37.2
353.999	127.32
354.21	53.59
354.422	84.31
354.633	47.44
354.845	-11.95
355.057	-36.52
355.268	84.31
355.48	47.44
355.692	-16.04
355.903	37.2
356.115	2.39
356.326	20.82
356.538	86.36
356.749	18.77
356.961	31.06
357.172	-57
357.384	-24.23
357.595	41.3
357.807	24.92
358.018	35.16
358.23	26.96
358.441	119.12
358.653	29.01
358.864	-5.8
359.075	-9.9
359.287	53.59
359.498	45.4
359.709	14.68
359.921	39.25
360.132	78.16
360.344	63.83
360.555	51.54
360.766	104.79
360.977	39.25
361.189	96.6
361.4	-13.99
361.611	67.92
361.823	41.3
362.034	16.73
362.245	-5.8
362.456	31.06
362.667	43.35
362.879	72.02
363.09	26.96
363.301	41.3
363.512	14.68
363.723	67.92
363.935	92.5
364.146	102.74
364.357	53.59
364.568	35.16
364.779	43.35
364.99	78.16
365.201	33.11
365.412	16.73
365.623	-24.23
365.834	57.68
366.045	-52.91
366.256	-18.09
366.467	20.82
366.678	-71.34
366.889	20.82
367.1	-1.71
367.311	-57
367.522	80.21
367.733	53.59
367.944	72.02
368.155	2.39
368.366	59.73
368.577	24.92
368.788	90.45
368.999	82.26
369.209	35.16
369.42	94.55
369.631	112.98
369.842	31.06
370.053	-9.9
370.264	37.2
370.474	31.06
370.685	37.2
370.896	47.44
371.107	2.39
371.317	0.34
371.528	-11.95
371.739	84.31
371.95	65.88
372.16	39.25
372.371	-3.75
372.582	72.02
372.792	86.36
373.003	0.34
373.214	53.59
373.424	24.92
373.635	76.12
373.846	51.54
374.056	-3.75
374.267	0.34
374.477	82.26
374.688	33.11
374.898	16.73
375.109	63.83
375.319	29.01
375.53	96.6
375.74	65.88
375.951	-16.04
376.161	-9.9
376.372	12.63
376.582	57.68
376.793	24.92
377.003	39.25
377.214	86.36
377.424	55.64
377.635	45.4
377.845	51.54
378.055	102.74
378.266	-11.95
378.476	92.5
378.686	92.5
378.897	74.07
379.107	-54.95
379.317	41.3
379.528	26.96
379.738	82.26
379.948	-22.19
380.158	112.98
380.369	47.44
380.579	125.27
380.789	80.21
380.999	37.2
381.21	8.53
381.42	41.3
381.63	22.87
381.84	31.06
382.05	43.35
382.261	96.6
382.471	98.64
382.681	61.78
382.891	37.2
383.101	24.92
383.311	26.96
383.521	-13.99
383.731	-1.71
383.941	67.92
384.151	24.92
384.361	47.44
384.571	39.25
384.781	-20.14
384.991	47.44
385.201	88.4
385.411	65.88
385.621	37.2
385.831	2.39
386.041	26.96
386.251	2.39
386.461	106.84
386.671	-1.71
386.881	-5.8
387.091	4.44
387.301	-7.85
387.511	-26.28
387.72	74.07
387.93	24.92
388.14	31.06
388.35	33.11
388.56	59.73
388.769	51.54
388.979	102.74
389.189	57.68
389.399	63.83
389.609	35.16
389.818	100.69
390.028	37.2
390.238	49.49
390.447	55.64
390.657	51.54
390.867	82.26
391.076	2.39
391.286	41.3
391.496	59.73
391.705	8.53
391.915	78.16
392.125	96.6
392.334	24.92
392.544	-13.99
392.753	57.68
392.963	33.11
393.172	106.84
393.382	-9.9
393.591	145.75
393.801	59.73
394.01	31.06
394.22	47.44
394.429	35.16
394.639	98.64
394.848	133.46
395.058	90.45
395.267	137.56
395.477	51.54
395.686	106.84
395.895	14.68
396.105	110.93
396.314	24.92
396.524	88.4
396.733	37.2
396.942	80.21
397.152	22.87
397.361	108.88
397.57	96.6
397.78	84.31
397.989	106.84
398.198	90.45
398.407	63.83
398.617	139.6
398.826	139.6
399.035	53.59
399.244	106.84
399.453	63.83
399.663	51.54
399.872	100.69
400.081	53.59
400.29	104.79
400.499	-11.95
400.708	108.88
400.917	102.74
401.127	104.79
401.336	45.4
401.545	26.96
401.754	90.45
401.963	127.32
402.172	198.99
402.381	57.68
402.59	121.17
402.799	131.41
403.008	145.75
403.217	143.7
403.426	104.79
403.635	72.02
403.844	162.13
404.053	72.02
404.262	104.79
404.471	98.64
404.68	155.99
404.888	92.5
405.097	61.78
405.306	100.69
405.515	129.36
405.724	190.8
405.933	141.65
406.142	125.27
406.35	100.69
406.559	121.17
406.768	102.74
406.977	203.09
407.185	221.52
407.394	205.14
407.603	129.36
407.812	108.88
408.02	201.04
408.229	219.47
408.438	201.04
408.646	139.6
408.855	219.47
409.064	162.13
409.272	221.52
409.481	266.58
409.69	250.19
409.898	223.57
410.107	225.62
410.315	305.49
410.524	268.63
410.733	268.63
410.941	242
411.15	215.38
411.358	289.1
411.567	389.46
411.775	307.54
411.984	344.4
412.192	330.06
412.401	328.02
412.609	395.6
412.818	385.36
413.026	381.26
413.234	364.88
413.443	469.33
413.651	395.6
413.86	471.37
414.068	549.2
414.276	596.3
414.485	495.95
414.693	444.75
414.901	618.83
415.11	573.77
415.318	588.11
415.526	674.12
415.734	670.03
415.943	633.16
416.151	676.17
416.359	663.88
416.567	698.7
416.776	790.86
416.984	768.33
417.192	766.28
417.4	842.06
417.608	864.58
417.817	860.49
418.025	926.02
418.233	997.7
418.441	946.5
418.649	975.17
418.857	1081.67
419.065	1098.05
419.273	1044.81
419.481	1126.72
419.689	1134.92
419.897	1179.97
420.105	1247.55
420.313	1233.22
420.521	1288.51
420.729	1255.75
420.937	1448.26
421.145	1454.4
421.353	1542.46
421.561	1706.3
421.769	1571.13
421.977	1653.05
422.185	1689.92
422.393	1792.31
422.601	1874.23
422.809	1878.33
423.017	1945.91
423.224	1847.61
423.432	2132.28
423.64	2099.51
423.848	2173.24
424.056	2197.81
424.263	2279.73
424.471	2363.7
424.679	2320.69
424.887	2699.56
425.094	2578.73
425.302	2582.83
425.51	2838.83
425.718	2801.96
425.925	2902.31
426.133	2965.8
426.341	3100.97
426.548	3334.43
426.756	3240.23
426.964	3348.77
427.171	3385.63
427.379	3537.18
427.586	3572
427.794	3899.67
428.001	3875.1
428.209	4198.68
428.417	4147.48
428.624	4143.38
428.832	4260.12
429.039	4464.91
429.247	4288.79
429.454	4864.27
429.662	5028.1
429.869	4708.62
430.076	5089.54
430.284	5048.58
430.491	5085.45
430.699	5454.08
430.906	5273.86
431.114	5441.79
431.321	5703.93
431.528	5884.16
431.736	6213.88
431.943	6549.75
432.15	6306.04
432.358	6404.34
432.565	6697.2
432.772	6600.94
432.979	6863.08
433.187	7168.23
433.394	7037.16
433.601	7719.14
433.808	7710.94
434.016	7688.42
434.223	8018.14
434.43	8403.16
434.637	8110.3
434.844	8853.71
435.052	9044.17
435.259	8812.75
435.466	8947.92
435.673	8812.75
435.88	9367.75
436.087	10148.03
436.294	10162.36
436.501	9730.24
436.708	9984.19
436.915	10305.72
437.122	10694.83
437.329	10731.7
437.537	11053.23
437.743	11212.97
437.95	11286.7
438.157	11782.31
438.364	12263.58
438.571	12187.8
438.778	12308.63
438.985	13430.92
439.192	12927.12
439.399	13176.97
439.606	13076.62
439.813	13768.84
440.02	14520.44
440.227	14346.36
440.433	14301.31
440.64	14532.73
440.847	14438.52
441.054	14964.85
441.261	15964.26
441.467	15724.65
441.674	15954.02
441.881	16644.18
442.088	16549.98
442.294	16334.94
442.501	16717.91
442.708	17129.55
442.914	18004.03
443.121	18333.76
443.328	18051.14
443.534	19656.75
443.741	18892.85
443.948	18622.52
444.154	20148.26
444.361	19824.68
444.568	19892.26
444.774	20154.4
444.981	20447.26
445.187	20717.59
445.394	21735.43
445.6	21766.15
445.807	23730.16
446.013	22456.32
446.22	23107.57
446.426	23963.62
446.633	24502.24
446.839	24928.22
447.046	23961.58
447.252	25184.21
447.459	25468.88
447.665	25219.03
447.871	26404.8
448.078	27578.29
448.284	26578.88
448.491	26845.12
448.697	28051.37
448.903	28669.86
449.11	28589.99
449.316	28018.6
449.522	29013.91
449.728	29388.69
449.935	29599.63
450.141	29638.55
450.347	30300.04
450.553	29439.89
450.76	29579.15
450.966	30826.37
451.172	30400.39
451.378	31229.82
451.584	30705.54
451.791	31278.97
451.997	31348.6
452.203	31623.03
452.409	31698.8
452.615	31733.62
452.821	30631.81
453.027	30185.35
453.233	31995.76
453.44	30785.41
453.646	31291.26
453.852	31100.79
454.058	31395.7
454.264	30812.03
454.47	31666.03
454.676	30699.39
454.882	31635.31
455.088	28676
455.294	29423.51
455.5	30093.19
455.705	30175.11
455.911	29022.11
456.117	28458.92
456.323	28006.31
456.529	26404.8
456.735	27824.04
456.941	27068.34
457.147	26556.35
457.352	26007.5
457.558	25597.9
457.764	25391.06
457.97	25421.78
458.176	24438.75
458.381	24700.89
458.587	23529.45
458.793	23617.52
458.999	22063.11
459.204	23934.95
459.41	23132.15
459.616	21430.29
459.821	21692.43
460.027	21661.71
460.233	21065.75
460.438	19775.53
460.644	20248.61
460.85	19312.69
461.055	19169.33
461.261	19052.59
461.466	17387.6
461.672	17143.89
461.878	18278.46
462.083	16988.24
462.289	16830.55
462.494	16662.62
462.7	15759.46
462.905	15593.58
463.111	16044.13
463.316	15855.72
463.522	15829.09
463.727	15777.89
463.932	15759.46
464.138	15607.91
464.343	15466.6
464.549	15042.67
464.754	15569
464.959	15392.87
465.165	15304.81
465.37	14841.97
465.575	14160
465.781	14831.73
465.986	14870.64
466.191	14512.25
466.397	14205.05
466.602	13428.87
466.807	14133.37
467.012	14096.51
467.218	14223.48
467.423	13832.32
467.628	13975.68
467.833	14243.96
468.038	13893.76
468.244	13496.46
