Data from USB4F104151__46__11-51-52-786.txt Node

Date: Fri Mar 14 11:51:52 EDT 2025
User: louis
Spectrometer: USB4F10415
Trigger mode: 4
Integration Time (sec): 2.000000E-2
Scans to average: 1
Electric dark correction enabled: true
Nonlinearity correction enabled: false
Boxcar width: 0
XAxis mode: Wavelengths
Number of Pixels in Spectrum: 3648
>>>>>Begin Spectral Data<<<<<
178.204	-127.49
178.424	-127.49
178.644	-127.49
178.864	-80.38
179.084	-113.15
179.304	24.06
179.524	67.07
179.744	-12.8
179.964	13.82
180.184	-20.99
180.404	-70.14
180.624	42.5
180.844	-33.28
181.064	-47.62
181.283	-20.99
181.503	-29.18
181.723	87.55
181.943	83.45
182.163	30.21
182.383	-49.66
182.602	60.93
182.822	95.74
183.042	42.5
183.262	19.97
183.482	-18.94
183.701	40.45
183.921	-0.51
184.141	-20.99
184.361	79.36
184.58	26.11
184.8	7.68
185.02	-16.9
185.239	-16.9
185.459	103.93
185.679	46.59
185.898	-33.28
186.118	89.6
186.338	-23.04
186.557	54.78
186.777	-53.76
186.997	40.45
187.216	-2.56
187.436	52.74
187.655	19.97
187.875	75.26
188.095	9.73
188.314	52.74
188.534	79.36
188.753	-41.47
188.973	30.21
189.192	-10.75
189.412	-18.94
189.631	-8.7
189.851	52.74
190.07	-29.18
190.29	-10.75
190.509	32.26
190.729	-0.51
190.948	36.35
191.168	67.07
191.387	99.84
191.607	15.87
191.826	-4.61
192.045	3.58
192.265	71.17
192.484	17.92
192.704	44.54
192.923	7.68
193.142	58.88
193.362	34.3
193.581	101.89
193.8	32.26
194.02	91.65
194.239	-43.52
194.458	52.74
194.678	-10.75
194.897	-4.61
195.116	-14.85
195.335	38.4
195.555	30.21
195.774	38.4
195.993	15.87
196.212	1.54
196.432	32.26
196.651	-0.51
196.87	-4.61
197.089	77.31
197.308	62.98
197.528	93.69
197.747	13.82
197.966	89.6
198.185	30.21
198.404	3.58
198.623	32.26
198.842	13.82
199.062	99.84
199.281	65.02
199.5	79.36
199.719	46.59
199.938	44.54
200.157	58.88
200.376	-68.09
200.595	13.82
200.814	-25.09
201.033	69.12
201.252	30.21
201.471	58.88
201.69	-4.61
201.909	-14.85
202.128	-31.23
202.347	7.68
202.566	-41.47
202.785	-0.51
203.004	60.93
203.223	122.37
203.442	-37.38
203.661	-31.23
203.879	89.6
204.098	81.41
204.317	-6.66
204.536	81.41
204.755	71.17
204.974	50.69
205.193	-20.99
205.411	140.8
205.63	34.3
205.849	5.63
206.068	60.93
206.287	24.06
206.505	-10.75
206.724	42.5
206.943	65.02
207.162	-12.8
207.381	-18.94
207.599	97.79
207.818	48.64
208.037	-16.9
208.255	5.63
208.474	-2.56
208.693	28.16
208.911	22.02
209.13	19.97
209.349	-41.47
209.567	95.74
209.786	17.92
210.005	11.78
210.223	26.11
210.442	-47.62
210.661	87.55
210.879	-14.85
211.098	48.64
211.316	60.93
211.535	65.02
211.753	46.59
211.972	81.41
212.191	17.92
212.409	36.35
212.628	50.69
212.846	26.11
213.065	32.26
213.283	-8.7
213.502	56.83
213.72	44.54
213.938	-6.66
214.157	24.06
214.375	-12.8
214.594	38.4
214.812	65.02
215.031	15.87
215.249	26.11
215.467	22.02
215.686	50.69
215.904	-14.85
216.122	3.58
216.341	52.74
216.559	-10.75
216.778	69.12
216.996	36.35
217.214	-39.42
217.432	40.45
217.651	42.5
217.869	-12.8
218.087	67.07
218.306	69.12
218.524	42.5
218.742	-0.51
218.96	112.13
219.179	-61.95
219.397	67.07
219.615	17.92
219.833	83.45
220.051	17.92
220.27	56.83
220.488	60.93
220.706	32.26
220.924	-45.57
221.142	48.64
221.36	-25.09
221.578	-16.9
221.796	-29.18
222.015	17.92
222.233	69.12
222.451	48.64
222.669	-14.85
222.887	58.88
223.105	24.06
223.323	52.74
223.541	-27.14
223.759	30.21
223.977	19.97
224.195	83.45
224.413	-4.61
224.631	50.69
224.849	1.54
225.067	42.5
225.285	-66.05
225.503	58.88
225.721	-4.61
225.939	-6.66
226.157	22.02
226.375	95.74
226.592	-55.81
226.81	54.78
227.028	87.55
227.246	52.74
227.464	50.69
227.682	89.6
227.9	11.78
228.117	69.12
228.335	15.87
228.553	3.58
228.771	-37.38
228.989	91.65
229.206	30.21
229.424	30.21
229.642	44.54
229.86	71.17
230.077	114.17
230.295	-8.7
230.513	28.16
230.731	30.21
230.948	32.26
231.166	79.36
231.384	-2.56
231.601	62.98
231.819	48.64
232.037	95.74
232.254	1.54
232.472	22.02
232.689	19.97
232.907	32.26
233.125	69.12
233.342	79.36
233.56	52.74
233.777	22.02
233.995	19.97
234.213	38.4
234.43	42.5
234.648	67.07
234.865	11.78
235.083	11.78
235.3	19.97
235.518	69.12
235.735	46.59
235.953	34.3
236.17	97.79
236.388	62.98
236.605	28.16
236.822	67.07
237.04	36.35
237.257	48.64
237.475	32.26
237.692	42.5
237.909	-10.75
238.127	42.5
238.344	5.63
238.562	87.55
238.779	-20.99
238.996	73.21
239.214	79.36
239.431	54.78
239.648	65.02
239.865	15.87
240.083	7.68
240.3	22.02
240.517	-25.09
240.735	97.79
240.952	56.83
241.169	46.59
241.386	-0.51
241.603	-39.42
241.821	48.64
242.038	19.97
242.255	50.69
242.472	1.54
242.689	38.4
242.907	-12.8
243.124	-37.38
243.341	-16.9
243.558	9.73
243.775	34.3
243.992	36.35
244.209	17.92
244.426	108.03
244.643	67.07
244.86	28.16
245.078	-14.85
245.295	69.12
245.512	19.97
245.729	-6.66
245.946	11.78
246.163	48.64
246.38	48.64
246.597	40.45
246.814	44.54
247.031	17.92
247.248	81.41
247.464	40.45
247.681	38.4
247.898	-0.51
248.115	17.92
248.332	11.78
248.549	36.35
248.766	60.93
248.983	-45.57
249.2	9.73
249.417	-33.28
249.633	-51.71
249.85	11.78
250.067	-0.51
250.284	9.73
250.501	3.58
250.717	38.4
250.934	-12.8
251.151	13.82
251.368	50.69
251.585	38.4
251.801	40.45
252.018	28.16
252.235	46.59
252.451	9.73
252.668	73.21
252.885	48.64
253.102	60.93
253.318	-2.56
253.535	-25.09
253.752	3.58
253.968	-8.7
254.185	-4.61
254.401	11.78
254.618	7.68
254.835	-29.18
255.051	44.54
255.268	26.11
255.484	-55.81
255.701	26.11
255.917	-0.51
256.134	-18.94
256.351	105.98
256.567	52.74
256.784	24.06
257	50.69
257.217	46.59
257.433	60.93
257.65	79.36
257.866	54.78
258.082	30.21
258.299	-39.42
258.515	34.3
258.732	-2.56
258.948	48.64
259.165	-16.9
259.381	-4.61
259.597	-4.61
259.814	58.88
260.03	-27.14
260.246	15.87
260.463	54.78
260.679	15.87
260.895	-23.04
261.112	91.65
261.328	50.69
261.544	34.3
261.761	118.27
261.977	28.16
262.193	-16.9
262.409	34.3
262.626	7.68
262.842	17.92
263.058	28.16
263.274	79.36
263.49	-10.75
263.707	48.64
263.923	60.93
264.139	-49.66
264.355	9.73
264.571	105.98
264.787	38.4
265.004	62.98
265.22	15.87
265.436	13.82
265.652	54.78
265.868	58.88
266.084	-23.04
266.3	48.64
266.516	-20.99
266.732	-31.23
266.948	-2.56
267.164	58.88
267.38	-0.51
267.596	38.4
267.812	54.78
268.028	-31.23
268.244	87.55
268.46	79.36
268.676	56.83
268.892	60.93
269.108	-47.62
269.324	36.35
269.54	50.69
269.756	79.36
269.972	46.59
270.188	112.13
270.403	22.02
270.619	-47.62
270.835	-10.75
271.051	-29.18
271.267	108.03
271.483	46.59
271.698	40.45
271.914	58.88
272.13	9.73
272.346	73.21
272.562	93.69
272.777	7.68
272.993	-23.04
273.209	5.63
273.425	93.69
273.64	-0.51
273.856	40.45
274.072	11.78
274.287	-55.81
274.503	56.83
274.719	128.51
274.934	11.78
275.15	-14.85
275.366	50.69
275.581	32.26
275.797	3.58
276.012	34.3
276.228	62.98
276.444	22.02
276.659	28.16
276.875	17.92
277.09	15.87
277.306	36.35
277.521	-33.28
277.737	58.88
277.952	69.12
278.168	38.4
278.383	3.58
278.599	77.31
278.814	46.59
279.03	56.83
279.245	118.27
279.461	83.45
279.676	24.06
279.892	-20.99
280.107	-0.51
280.322	19.97
280.538	67.07
280.753	-29.18
280.969	50.69
281.184	-2.56
281.399	81.41
281.615	46.59
281.83	50.69
282.045	46.59
282.26	-18.94
282.476	-31.23
282.691	77.31
282.906	48.64
283.122	-12.8
283.337	48.64
283.552	15.87
283.767	60.93
283.983	-18.94
284.198	50.69
284.413	58.88
284.628	-66.05
284.843	28.16
285.058	93.69
285.274	-14.85
285.489	34.3
285.704	3.58
285.919	32.26
286.134	-4.61
286.349	32.26
286.564	-37.38
286.779	116.22
286.995	69.12
287.21	19.97
287.425	48.64
287.64	32.26
287.855	95.74
288.07	9.73
288.285	44.54
288.5	26.11
288.715	112.13
288.93	36.35
289.145	44.54
289.36	81.41
289.575	24.06
289.79	30.21
290.004	69.12
290.219	32.26
290.434	60.93
290.649	62.98
290.864	-20.99
291.079	-0.51
291.294	56.83
291.509	46.59
291.724	34.3
291.938	-12.8
292.153	99.84
292.368	89.6
292.583	46.59
292.798	19.97
293.012	-2.56
293.227	-33.28
293.442	32.26
293.657	50.69
293.871	-68.09
294.086	48.64
294.301	38.4
294.516	62.98
294.73	32.26
294.945	-18.94
295.16	-16.9
295.374	42.5
295.589	26.11
295.804	13.82
296.018	58.88
296.233	5.63
296.447	56.83
296.662	40.45
296.877	69.12
297.091	42.5
297.306	7.68
297.52	48.64
297.735	128.51
297.949	48.64
298.164	7.68
298.378	65.02
298.593	24.06
298.807	13.82
299.022	17.92
299.236	56.83
299.451	50.69
299.665	-8.7
299.88	-0.51
300.094	19.97
300.309	54.78
300.523	32.26
300.737	62.98
300.952	34.3
301.166	89.6
301.381	71.17
301.595	-18.94
301.809	85.5
302.024	1.54
302.238	44.54
302.452	7.68
302.667	124.41
302.881	13.82
303.095	19.97
303.309	79.36
303.524	34.3
303.738	-31.23
303.952	7.68
304.166	87.55
304.381	9.73
304.595	83.45
304.809	60.93
305.023	-23.04
305.237	13.82
305.452	30.21
305.666	9.73
305.88	67.07
306.094	50.69
306.308	19.97
306.522	50.69
306.736	-16.9
306.95	19.97
307.164	83.45
307.379	-2.56
307.593	56.83
307.807	28.16
308.021	60.93
308.235	83.45
308.449	-61.95
308.663	87.55
308.877	101.89
309.091	87.55
309.305	148.99
309.519	-0.51
309.733	-14.85
309.947	-12.8
310.161	87.55
310.374	105.98
310.588	26.11
310.802	65.02
311.016	5.63
311.23	54.78
311.444	38.4
311.658	42.5
311.872	28.16
312.085	36.35
312.299	34.3
312.513	44.54
312.727	17.92
312.941	-12.8
313.154	93.69
313.368	-2.56
313.582	58.88
313.796	-23.04
314.009	73.21
314.223	24.06
314.437	-33.28
314.651	46.59
314.864	54.78
315.078	-51.71
315.292	11.78
315.505	73.21
315.719	97.79
315.933	-12.8
316.146	95.74
316.36	7.68
316.573	-8.7
316.787	69.12
317.001	48.64
317.214	30.21
317.428	116.22
317.641	-27.14
317.855	60.93
318.068	42.5
318.282	-49.66
318.495	48.64
318.709	71.17
318.922	-47.62
319.136	91.65
319.349	67.07
319.563	44.54
319.776	62.98
319.99	1.54
320.203	73.21
320.417	3.58
320.63	60.93
320.843	73.21
321.057	-64
321.27	36.35
321.483	75.26
321.697	85.5
321.91	91.65
322.124	-33.28
322.337	36.35
322.55	11.78
322.763	32.26
322.977	-2.56
323.19	-25.09
323.403	24.06
323.617	81.41
323.83	89.6
324.043	54.78
324.256	101.89
324.469	5.63
324.683	54.78
324.896	28.16
325.109	73.21
325.322	7.68
325.535	67.07
325.748	38.4
325.962	11.78
326.175	-4.61
326.388	48.64
326.601	87.55
326.814	65.02
327.027	15.87
327.24	73.21
327.453	3.58
327.666	-29.18
327.879	34.3
328.092	140.8
328.305	22.02
328.518	-61.95
328.731	42.5
328.944	24.06
329.157	85.5
329.37	32.26
329.583	22.02
329.796	73.21
330.009	-33.28
330.222	120.32
330.435	103.93
330.648	110.08
330.861	103.93
331.073	110.08
331.286	87.55
331.499	-8.7
331.712	87.55
331.925	26.11
332.138	50.69
332.35	46.59
332.563	38.4
332.776	71.17
332.989	38.4
333.202	71.17
333.414	5.63
333.627	34.3
333.84	3.58
334.053	52.74
334.265	42.5
334.478	11.78
334.691	62.98
334.903	62.98
335.116	-78.33
335.329	1.54
335.541	-12.8
335.754	50.69
335.966	1.54
336.179	56.83
336.392	34.3
336.604	50.69
336.817	1.54
337.029	36.35
337.242	19.97
337.454	42.5
337.667	38.4
337.88	48.64
338.092	26.11
338.305	89.6
338.517	3.58
338.729	60.93
338.942	-12.8
339.154	30.21
339.367	-6.66
339.579	42.5
339.792	-33.28
340.004	67.07
340.217	26.11
340.429	85.5
340.641	56.83
340.854	24.06
341.066	-16.9
341.278	13.82
341.491	65.02
341.703	19.97
341.915	-0.51
342.128	-4.61
342.34	62.98
342.552	7.68
342.764	-20.99
342.977	36.35
343.189	13.82
343.401	7.68
343.613	40.45
343.826	87.55
344.038	15.87
344.25	-4.61
344.462	-4.61
344.674	60.93
344.886	38.4
345.099	1.54
345.311	32.26
345.523	13.82
345.735	28.16
345.947	38.4
346.159	52.74
346.371	17.92
346.583	40.45
346.795	50.69
347.007	1.54
347.219	24.06
347.431	38.4
347.643	65.02
347.855	38.4
348.067	38.4
348.279	11.78
348.491	-4.61
348.703	60.93
348.915	54.78
349.127	36.35
349.339	69.12
349.551	52.74
349.763	56.83
349.975	71.17
350.187	52.74
350.399	52.74
350.61	-12.8
350.822	54.78
351.034	60.93
351.246	7.68
351.458	52.74
351.669	95.74
351.881	60.93
352.093	69.12
352.305	52.74
352.517	87.55
352.728	28.16
352.94	3.58
353.152	38.4
353.363	15.87
353.575	7.68
353.787	50.69
353.999	3.58
354.21	52.74
354.422	89.6
354.633	26.11
354.845	50.69
355.057	-55.81
355.268	83.45
355.48	65.02
355.692	9.73
355.903	75.26
356.115	-12.8
356.326	-8.7
356.538	54.78
356.749	30.21
356.961	48.64
357.172	56.83
357.384	34.3
357.595	40.45
357.807	77.31
358.018	89.6
358.23	-12.8
358.441	73.21
358.653	-0.51
358.864	28.16
359.075	40.45
359.287	17.92
359.498	-12.8
359.709	36.35
359.921	19.97
360.132	87.55
360.344	19.97
360.555	52.74
360.766	-29.18
360.977	65.02
361.189	7.68
361.4	110.08
361.611	67.07
361.823	99.84
362.034	67.07
362.245	50.69
362.456	69.12
362.667	44.54
362.879	62.98
363.09	77.31
363.301	-0.51
363.512	-16.9
363.723	15.87
363.935	30.21
364.146	-0.51
364.357	93.69
364.568	65.02
364.779	83.45
364.99	60.93
365.201	50.69
365.412	118.27
365.623	-96.77
365.834	62.98
366.045	44.54
366.256	67.07
366.467	30.21
366.678	132.61
366.889	-4.61
367.1	85.5
367.311	-12.8
367.522	79.36
367.733	65.02
367.944	52.74
368.155	62.98
368.366	58.88
368.577	46.59
368.788	110.08
368.999	89.6
369.209	77.31
369.42	13.82
369.631	62.98
369.842	65.02
370.053	87.55
370.264	105.98
370.474	46.59
370.685	48.64
370.896	3.58
371.107	58.88
371.317	62.98
371.528	34.3
371.739	40.45
371.95	97.79
372.16	73.21
372.371	108.03
372.582	32.26
372.792	1.54
373.003	79.36
373.214	26.11
373.424	30.21
373.635	62.98
373.846	105.98
374.056	3.58
374.267	32.26
374.477	60.93
374.688	7.68
374.898	22.02
375.109	142.85
375.319	91.65
375.53	42.5
375.74	22.02
375.951	19.97
376.161	97.79
376.372	48.64
376.582	52.74
376.793	56.83
377.003	40.45
377.214	15.87
377.424	3.58
377.635	101.89
377.845	15.87
378.055	65.02
378.266	48.64
378.476	15.87
378.686	58.88
378.897	24.06
379.107	46.59
379.317	48.64
379.528	46.59
379.738	77.31
379.948	30.21
380.158	77.31
380.369	50.69
380.579	24.06
380.789	38.4
380.999	34.3
381.21	103.93
381.42	144.89
381.63	19.97
381.84	144.89
382.05	26.11
382.261	62.98
382.471	112.13
382.681	60.93
382.891	103.93
383.101	38.4
383.311	-47.62
383.521	22.02
383.731	42.5
383.941	95.74
384.151	13.82
384.361	13.82
384.571	28.16
384.781	30.21
384.991	103.93
385.201	114.17
385.411	54.78
385.621	54.78
385.831	-33.28
386.041	87.55
386.251	62.98
386.461	65.02
386.671	5.63
386.881	50.69
387.091	105.98
387.301	110.08
387.511	77.31
387.72	36.35
387.93	11.78
388.14	54.78
388.35	69.12
388.56	32.26
388.769	91.65
388.979	-61.95
389.189	54.78
389.399	83.45
389.609	-4.61
389.818	75.26
390.028	101.89
390.238	81.41
390.447	30.21
390.657	79.36
390.867	44.54
391.076	24.06
391.286	77.31
391.496	60.93
391.705	-16.9
391.915	112.13
392.125	44.54
392.334	73.21
392.544	91.65
392.753	56.83
392.963	7.68
393.172	52.74
393.382	48.64
393.591	69.12
393.801	85.5
394.01	99.84
394.22	62.98
394.429	89.6
394.639	75.26
394.848	54.78
395.058	54.78
395.267	62.98
395.477	40.45
395.686	38.4
395.895	85.5
396.105	112.13
396.314	65.02
396.524	122.37
396.733	87.55
396.942	71.17
397.152	93.69
397.361	114.17
397.57	112.13
397.78	122.37
397.989	52.74
398.198	93.69
398.407	134.65
398.617	30.21
398.826	79.36
399.035	89.6
399.244	83.45
399.453	81.41
399.663	7.68
399.872	83.45
400.081	48.64
400.29	122.37
400.499	65.02
400.708	177.66
400.917	95.74
401.127	118.27
401.336	73.21
401.545	116.22
401.754	103.93
401.963	148.99
402.172	108.03
402.381	91.65
402.59	85.5
402.799	89.6
403.008	97.79
403.217	114.17
403.426	148.99
403.635	103.93
403.844	91.65
404.053	81.41
404.262	58.88
404.471	153.09
404.68	136.7
404.888	91.65
405.097	97.79
405.306	60.93
405.515	151.04
405.724	122.37
405.933	103.93
406.142	175.61
406.35	126.46
406.559	249.34
406.768	183.81
406.977	220.67
407.185	128.51
407.394	124.41
407.603	79.36
407.812	161.28
408.02	134.65
408.229	241.15
408.438	148.99
408.646	228.86
408.855	243.2
409.064	175.61
409.272	206.33
409.481	263.68
409.69	267.77
409.898	202.24
410.107	286.2
410.315	218.62
410.524	316.92
410.733	286.2
410.941	306.68
411.15	325.12
411.358	353.79
411.567	423.42
411.775	294.4
411.984	312.83
412.192	447.99
412.401	364.03
412.609	443.9
412.818	486.9
413.026	464.38
413.234	476.66
413.443	409.08
413.651	400.89
413.86	493.05
414.068	462.33
414.276	517.62
414.485	607.73
414.693	548.34
414.901	603.64
415.11	660.98
415.318	534.01
415.526	560.63
415.734	632.31
415.943	624.12
416.151	667.13
416.359	716.28
416.567	736.76
416.776	749.04
416.984	777.72
417.192	837.11
417.4	837.11
417.608	861.68
417.817	859.63
418.025	939.51
418.233	1046
418.441	921.07
418.649	1089.01
418.857	1048.05
419.065	1080.82
419.273	1041.9
419.481	1107.44
419.689	1199.6
419.897	1215.98
420.105	1279.47
420.313	1265.13
420.521	1297.9
420.729	1232.37
420.937	1347.05
421.145	1508.84
421.353	1564.14
421.561	1631.72
421.769	1596.9
421.977	1682.92
422.185	1777.12
422.393	1785.32
422.601	1867.24
422.809	1865.19
423.017	1967.59
423.224	2037.22
423.432	1922.53
423.64	1998.31
423.848	2282.97
424.056	2239.97
424.263	2364.89
424.471	2305.5
424.679	2325.98
424.887	2489.82
425.094	2588.12
425.302	2553.31
425.51	2686.42
425.718	2893.27
425.925	2708.95
426.133	2893.27
426.341	3089.87
426.548	3186.13
426.756	3292.62
426.964	3296.72
427.171	3376.59
427.379	3620.3
427.586	3575.24
427.794	3769.8
428.001	3864.01
428.209	4025.79
428.417	3925.44
428.624	4175.3
428.832	4296.13
429.039	4099.52
429.247	4419
429.454	4736.44
429.662	5037.49
429.869	4726.2
430.076	5002.68
430.284	4865.46
430.491	5029.3
430.699	5273.01
430.906	5350.83
431.114	5479.85
431.321	5606.83
431.528	5664.17
431.736	6008.23
431.943	6303.14
432.15	6188.45
432.358	6329.76
432.565	6557.08
432.772	6657.43
432.979	6849.94
433.187	6999.45
433.394	7214.48
433.601	7601.55
433.808	7615.88
434.016	7400.85
434.223	7855.5
434.43	8312.19
434.637	8154.5
434.844	8512.89
435.052	8691.07
435.259	8885.62
435.466	8813.95
435.673	8656.25
435.88	9422.19
436.087	9973.1
436.294	9819.5
436.501	9577.84
436.708	9827.69
436.915	10059.11
437.122	10509.66
437.329	10530.14
437.537	11185.49
437.743	11138.39
437.95	10925.4
438.157	11570.51
438.364	11896.14
438.571	11973.96
438.778	11828.56
438.985	13204.79
439.192	12557.63
439.399	13141.3
439.606	12760.38
439.813	13419.83
440.02	14284.07
440.227	13890.86
440.433	13864.24
440.64	14392.61
440.847	14153
441.054	14609.7
441.261	15258.9
441.467	15416.6
441.674	15607.06
441.881	16346.37
442.088	16170.25
442.294	15920.4
442.501	16461.06
442.708	16995.58
442.914	17444.09
443.121	18050.28
443.328	17822.96
443.534	18924.77
443.741	18511.08
443.948	18349.29
444.154	19633.36
444.361	19604.69
444.568	19383.51
444.774	19367.13
444.981	19760.34
445.187	20247.76
445.394	21034.18
445.6	21292.22
445.807	23125.15
446.013	21771.44
446.22	22217.9
446.426	23104.67
446.633	23510.17
446.839	24263.82
447.046	23137.44
447.252	24700.04
447.459	24589.45
447.665	24431.76
447.871	25730.17
448.078	26483.82
448.284	25410.68
448.491	26141.81
448.697	26961
448.903	27552.86
449.11	27663.45
449.316	27329.63
449.522	27638.87
449.728	28546.12
449.935	28550.22
450.141	28712.01
450.347	29072.45
450.553	28357.71
450.76	28912.71
450.966	29985.85
451.172	29635.64
451.378	29824.06
451.584	29307.97
451.791	30334
451.997	30078.01
452.203	30473.26
452.409	30665.77
452.615	30202.93
452.821	29117.51
453.027	29189.19
453.233	30436.4
453.44	29594.68
453.646	29735.99
453.852	29676.6
454.058	30471.22
454.264	29766.71
454.47	30344.24
454.676	29230.15
454.882	30317.62
455.088	27728.98
455.294	28130.39
455.5	28447.82
455.705	28718.15
455.911	27450.46
456.117	26780.78
456.323	26668.14
456.529	25500.79
456.735	26160.24
456.941	25396.35
457.147	25130.11
457.352	24425.61
457.558	24222.86
457.764	24337.55
457.97	23669.91
458.176	23213.21
458.381	23155.87
458.587	22170.8
458.793	21884.08
458.999	20960.45
459.204	22582.44
459.41	21808.31
459.616	20393.16
459.821	20337.87
460.027	20391.11
460.233	19739.86
460.438	19051.74
460.644	19309.79
460.85	18230.51
461.055	18068.72
461.261	17890.54
461.466	16528.64
461.672	15977.74
461.878	17411.32
462.083	15893.77
462.289	15783.18
462.494	15742.22
462.7	15004.96
462.905	14564.64
463.111	15021.34
463.316	15187.22
463.522	14720.29
463.727	14566.69
463.932	14837.02
464.138	14900.51
464.343	14689.57
464.549	14398.76
464.754	14683.42
464.959	14378.28
465.165	14347.56
465.37	13823.28
465.575	13411.64
465.781	14134.57
465.986	14202.15
466.191	13638.96
466.397	13434.16
466.602	12612.93
466.807	13276.47
467.012	13313.33
467.218	13188.41
467.423	12942.65
467.628	13040.95
467.833	13796.65
468.038	13221.17
468.244	12715.33
468.449	12893.5
