Data from USB4F104151__57__11-52-26-762.txt Node

Date: Fri Mar 14 11:52:26 EDT 2025
User: louis
Spectrometer: USB4F10415
Trigger mode: 4
Integration Time (sec): 2.000000E-2
Scans to average: 1
Electric dark correction enabled: true
Nonlinearity correction enabled: false
Boxcar width: 0
XAxis mode: Wavelengths
Number of Pixels in Spectrum: 3648
>>>>>Begin Spectral Data<<<<<
178.204	-149.84
178.424	-149.84
178.644	-149.84
178.864	-135.51
179.084	28.33
179.304	-29.01
179.524	20.14
179.744	-20.82
179.964	40.62
180.184	-20.82
180.404	40.62
180.624	22.19
180.844	32.43
181.064	-47.44
181.283	-2.39
181.503	-20.82
181.723	-14.68
181.943	-18.77
182.163	34.47
182.383	7.85
182.602	-6.49
182.822	-8.53
183.042	20.14
183.262	36.52
183.482	18.09
183.701	5.8
183.921	38.57
184.141	54.95
184.361	59.05
184.58	50.86
184.8	36.52
185.02	52.91
185.239	16.04
185.459	42.67
185.679	-20.82
185.898	-18.77
186.118	7.85
186.338	-10.58
186.557	36.52
186.777	-24.92
186.997	-18.77
187.216	24.23
187.436	69.29
187.655	59.05
187.875	54.95
188.095	3.75
188.314	5.8
188.534	-37.2
188.753	26.28
188.973	28.33
189.192	42.67
189.412	-2.39
189.631	-4.44
189.851	38.57
190.07	46.76
190.29	-31.06
190.509	-12.63
190.729	54.95
190.948	-29.01
191.168	91.82
191.387	22.19
191.607	69.29
191.826	-16.73
192.045	-12.63
192.265	7.85
192.484	63.15
192.704	-65.88
192.923	13.99
193.142	100.01
193.362	-0.34
193.581	46.76
193.8	54.95
194.02	32.43
194.239	-0.34
194.458	13.99
194.678	24.23
194.897	34.47
195.116	-2.39
195.335	63.15
195.555	16.04
195.774	44.71
195.993	20.14
196.212	-20.82
196.432	-31.06
196.651	16.04
196.87	30.38
197.089	89.77
197.308	48.81
197.528	24.23
197.747	-6.49
197.966	75.43
198.185	54.95
198.404	-14.68
198.623	50.86
198.842	-33.11
199.062	11.95
199.281	102.06
199.5	-24.92
199.719	9.9
199.938	-16.73
200.157	44.71
200.376	-0.34
200.595	20.14
200.814	42.67
201.033	32.43
201.252	7.85
201.471	-16.73
201.69	28.33
201.909	69.29
202.128	16.04
202.347	32.43
202.566	-49.49
202.785	89.77
203.004	-8.53
203.223	32.43
203.442	-10.58
203.661	11.95
203.879	13.99
204.098	71.34
204.317	-0.34
204.536	30.38
204.755	34.47
204.974	28.33
205.193	54.95
205.411	42.67
205.63	-4.44
205.849	20.14
206.068	44.71
206.287	-67.92
206.505	34.47
206.724	81.58
206.943	-43.35
207.162	13.99
207.381	-8.53
207.599	1.71
207.818	34.47
208.037	36.52
208.255	-26.96
208.474	42.67
208.693	7.85
208.911	67.24
209.13	11.95
209.349	28.33
209.567	-57.68
209.786	75.43
210.005	48.81
210.223	38.57
210.442	24.23
210.661	11.95
210.879	1.71
211.098	-8.53
211.316	22.19
211.535	11.95
211.753	32.43
211.972	13.99
212.191	18.09
212.409	34.47
212.628	-8.53
212.846	-6.49
213.065	20.14
213.283	18.09
213.502	52.91
213.72	22.19
213.938	57
214.157	-24.92
214.375	11.95
214.594	-4.44
214.812	-29.01
215.031	77.48
215.249	93.87
215.467	126.63
215.686	-14.68
215.904	32.43
216.122	32.43
216.341	50.86
216.559	-22.87
216.778	63.15
216.996	11.95
217.214	59.05
217.432	32.43
217.651	16.04
217.869	7.85
218.087	1.71
218.306	75.43
218.524	-8.53
218.742	-8.53
218.96	11.95
219.179	36.52
219.397	93.87
219.615	81.58
219.833	-4.44
220.051	81.58
220.27	59.05
220.488	3.75
220.706	46.76
220.924	11.95
221.142	85.67
221.36	-26.96
221.578	1.71
221.796	-18.77
222.015	46.76
222.233	3.75
222.451	9.9
222.669	7.85
222.887	54.95
223.105	-59.73
223.323	26.28
223.541	-18.77
223.759	9.9
223.977	34.47
224.195	44.71
224.413	5.8
224.631	73.39
224.849	-22.87
225.067	79.53
225.285	-6.49
225.503	59.05
225.721	-6.49
225.939	95.91
226.157	46.76
226.375	63.15
226.592	-18.77
226.81	46.76
227.028	18.09
227.246	30.38
227.464	-33.11
227.682	9.9
227.9	-0.34
228.117	13.99
228.335	24.23
228.553	-47.44
228.771	52.91
228.989	40.62
229.206	1.71
229.424	50.86
229.642	-6.49
229.86	26.28
230.077	69.29
230.295	38.57
230.513	-41.3
230.731	50.86
230.948	13.99
231.166	91.82
231.384	61.1
231.601	-63.83
231.819	16.04
232.037	-37.2
232.254	48.81
232.472	-31.06
232.689	28.33
232.907	9.9
233.125	20.14
233.342	46.76
233.56	-49.49
233.777	3.75
233.995	46.76
234.213	108.2
234.43	18.09
234.648	16.04
234.865	30.38
235.083	40.62
235.3	79.53
235.518	85.67
235.735	50.86
235.953	-4.44
236.17	1.71
236.388	34.47
236.605	44.71
236.822	95.91
237.04	20.14
237.257	-35.16
237.475	69.29
237.692	36.52
237.909	9.9
238.127	22.19
238.344	77.48
238.562	20.14
238.779	-26.96
238.996	-10.58
239.214	-29.01
239.431	28.33
239.648	-0.34
239.865	63.15
240.083	93.87
240.3	36.52
240.517	-2.39
240.735	32.43
240.952	97.96
241.169	28.33
241.386	59.05
241.603	-10.58
241.821	71.34
242.038	65.19
242.255	77.48
242.472	46.76
242.689	9.9
242.907	-6.49
243.124	5.8
243.341	5.8
243.558	61.1
243.775	50.86
243.992	-61.78
244.209	57
244.426	-78.16
244.643	87.72
244.86	-61.78
245.078	20.14
245.295	-0.34
245.512	108.2
245.729	34.47
245.946	77.48
246.163	67.24
246.38	-2.39
246.597	46.76
246.814	-8.53
247.031	-24.92
247.248	75.43
247.464	40.62
247.681	63.15
247.898	-8.53
248.115	44.71
248.332	7.85
248.549	18.09
248.766	11.95
248.983	95.91
249.2	9.9
249.417	-4.44
249.633	44.71
249.85	71.34
250.067	7.85
250.284	18.09
250.501	63.15
250.717	11.95
250.934	36.52
251.151	34.47
251.368	30.38
251.585	5.8
251.801	32.43
252.018	5.8
252.235	61.1
252.451	34.47
252.668	48.81
252.885	34.47
253.102	-26.96
253.318	32.43
253.535	5.8
253.752	11.95
253.968	32.43
254.185	38.57
254.401	30.38
254.618	-10.58
254.835	-20.82
255.051	87.72
255.268	30.38
255.484	-12.63
255.701	28.33
255.917	61.1
256.134	-55.64
256.351	38.57
256.567	50.86
256.784	36.52
257	22.19
257.217	40.62
257.433	-29.01
257.65	44.71
257.866	7.85
258.082	22.19
258.299	-45.4
258.515	71.34
258.732	-72.02
258.948	65.19
259.165	-33.11
259.381	-4.44
259.597	-8.53
259.814	7.85
260.03	16.04
260.246	40.62
260.463	40.62
260.679	48.81
260.895	30.38
261.112	-29.01
261.328	-24.92
261.544	-16.73
261.761	116.39
261.977	-37.2
262.193	-33.11
262.409	91.82
262.626	54.95
262.842	54.95
263.058	-43.35
263.274	71.34
263.49	26.28
263.707	118.44
263.923	-2.39
264.139	-6.49
264.355	9.9
264.571	83.63
264.787	1.71
265.004	7.85
265.22	26.28
265.436	13.99
265.652	79.53
265.868	1.71
266.084	32.43
266.3	52.91
266.516	20.14
266.732	52.91
266.948	-45.4
267.164	65.19
267.38	-12.63
267.596	40.62
267.812	114.34
268.028	-22.87
268.244	89.77
268.46	93.87
268.676	50.86
268.892	89.77
269.108	42.67
269.324	13.99
269.54	32.43
269.756	73.39
269.972	9.9
270.188	89.77
270.403	-24.92
270.619	-8.53
270.835	5.8
271.051	-59.73
271.267	-29.01
271.483	-20.82
271.698	26.28
271.914	65.19
272.13	16.04
272.346	-37.2
272.562	36.52
272.777	26.28
272.993	-55.64
273.209	26.28
273.425	57
273.64	52.91
273.856	40.62
274.072	24.23
274.287	-10.58
274.503	42.67
274.719	-33.11
274.934	34.47
275.15	-16.73
275.366	38.57
275.581	30.38
275.797	63.15
276.012	32.43
276.228	18.09
276.444	5.8
276.659	52.91
276.875	48.81
277.09	-22.87
277.306	108.2
277.521	13.99
277.737	54.95
277.952	22.19
278.168	26.28
278.383	112.3
278.599	11.95
278.814	110.25
279.03	-20.82
279.245	32.43
279.461	26.28
279.676	40.62
279.892	-0.34
280.107	26.28
280.322	81.58
280.538	13.99
280.753	-4.44
280.969	-31.06
281.184	28.33
281.399	61.1
281.615	22.19
281.83	63.15
282.045	52.91
282.26	65.19
282.476	3.75
282.691	54.95
282.906	3.75
283.122	73.39
283.337	26.28
283.552	36.52
283.767	38.57
283.983	67.24
284.198	28.33
284.413	48.81
284.628	44.71
284.843	-26.96
285.058	24.23
285.274	-33.11
285.489	20.14
285.704	63.15
285.919	3.75
286.134	44.71
286.349	38.57
286.564	9.9
286.779	3.75
286.995	40.62
287.21	-18.77
287.425	-12.63
287.64	11.95
287.855	38.57
288.07	13.99
288.285	32.43
288.5	61.1
288.715	9.9
288.93	-24.92
289.145	-29.01
289.36	100.01
289.575	63.15
289.79	-0.34
290.004	50.86
290.219	57
290.434	81.58
290.649	-4.44
290.864	-14.68
291.079	36.52
291.294	26.28
291.509	52.91
291.724	28.33
291.938	9.9
292.153	57
292.368	81.58
292.583	85.67
292.798	-0.34
293.012	38.57
293.227	-12.63
293.442	26.28
293.657	13.99
293.871	93.87
294.086	-0.34
294.301	48.81
294.516	26.28
294.73	5.8
294.945	1.71
295.16	44.71
295.374	-12.63
295.589	57
295.804	28.33
296.018	65.19
296.233	-18.77
296.447	63.15
296.662	73.39
296.877	63.15
297.091	13.99
297.306	36.52
297.52	26.28
297.735	71.34
297.949	20.14
298.164	59.05
298.378	1.71
298.593	24.23
298.807	36.52
299.022	-12.63
299.236	50.86
299.451	3.75
299.665	-8.53
299.88	59.05
300.094	57
300.309	104.11
300.523	73.39
300.737	24.23
300.952	-29.01
301.166	87.72
301.381	63.15
301.595	11.95
301.809	7.85
302.024	42.67
302.238	5.8
302.452	40.62
302.667	36.52
302.881	-6.49
303.095	46.76
303.309	-18.77
303.524	61.1
303.738	97.96
303.952	-37.2
304.166	100.01
304.381	-6.49
304.595	54.95
304.809	50.86
305.023	5.8
305.237	22.19
305.452	63.15
305.666	-14.68
305.88	22.19
306.094	42.67
306.308	65.19
306.522	7.85
306.736	77.48
306.95	85.67
307.164	-33.11
307.379	-31.06
307.593	81.58
307.807	7.85
308.021	32.43
308.235	7.85
308.449	7.85
308.663	-8.53
308.877	26.28
309.091	9.9
309.305	-33.11
309.519	-4.44
309.733	40.62
309.947	-51.54
310.161	-6.49
310.374	81.58
310.588	7.85
310.802	30.38
311.016	-18.77
311.23	44.71
311.444	65.19
311.658	87.72
311.872	48.81
312.085	-8.53
312.299	26.28
312.513	-2.39
312.727	63.15
312.941	7.85
313.154	97.96
313.368	22.19
313.582	114.34
313.796	9.9
314.009	44.71
314.223	44.71
314.437	24.23
314.651	48.81
314.864	-4.44
315.078	28.33
315.292	11.95
315.505	57
315.719	100.01
315.933	11.95
316.146	100.01
316.36	7.85
316.573	1.71
316.787	57
317.001	24.23
317.214	-115.03
317.428	44.71
317.641	-29.01
317.855	9.9
318.068	16.04
318.282	48.81
318.495	79.53
318.709	71.34
318.922	130.73
319.136	3.75
319.349	-8.53
319.563	-0.34
319.776	5.8
319.99	61.1
320.203	69.29
320.417	34.47
320.63	57
320.843	63.15
321.057	42.67
321.27	34.47
321.483	151.21
321.697	75.43
321.91	40.62
322.124	54.95
322.337	18.09
322.55	-88.4
322.763	5.8
322.977	7.85
323.19	59.05
323.403	75.43
323.617	-12.63
323.83	38.57
324.043	-22.87
324.256	77.48
324.469	13.99
324.683	106.15
324.896	59.05
325.109	97.96
325.322	63.15
325.535	44.71
325.748	61.1
325.962	13.99
326.175	-18.77
326.388	9.9
326.601	46.76
326.814	32.43
327.027	-8.53
327.24	71.34
327.453	-18.77
327.666	75.43
327.879	42.67
328.092	24.23
328.305	-55.64
328.518	24.23
328.731	-2.39
328.944	-51.54
329.157	16.04
329.37	108.2
329.583	63.15
329.796	11.95
330.009	11.95
330.222	63.15
330.435	26.28
330.648	54.95
330.861	77.48
331.073	38.57
331.286	50.86
331.499	36.52
331.712	9.9
331.925	9.9
332.138	38.57
332.35	-2.39
332.563	3.75
332.776	69.29
332.989	-16.73
333.202	9.9
333.414	-20.82
333.627	69.29
333.84	61.1
334.053	42.67
334.265	-22.87
334.478	108.2
334.691	-0.34
334.903	-10.58
335.116	-8.53
335.329	75.43
335.541	28.33
335.754	5.8
335.966	13.99
336.179	40.62
336.392	-18.77
336.604	-0.34
336.817	75.43
337.029	69.29
337.242	7.85
337.454	16.04
337.667	44.71
337.88	32.43
338.092	40.62
338.305	26.28
338.517	40.62
338.729	69.29
338.942	44.71
339.154	-18.77
339.367	18.09
339.579	-33.11
339.792	-22.87
340.004	-18.77
340.217	46.76
340.429	32.43
340.641	54.95
340.854	69.29
341.066	-45.4
341.278	65.19
341.491	104.11
341.703	16.04
341.915	-80.21
342.128	151.21
342.34	-8.53
342.552	46.76
342.764	44.71
342.977	-39.25
343.189	-39.25
343.401	-2.39
343.613	59.05
343.826	136.87
344.038	5.8
344.25	79.53
344.462	28.33
344.674	-24.92
344.886	50.86
345.099	30.38
345.311	-16.73
345.523	54.95
345.735	-0.34
345.947	57
346.159	-14.68
346.371	-4.44
346.583	7.85
346.795	106.15
347.007	18.09
347.219	11.95
347.431	13.99
347.643	28.33
347.855	13.99
348.067	100.01
348.279	5.8
348.491	44.71
348.703	67.24
348.915	61.1
349.127	5.8
349.339	73.39
349.551	81.58
349.763	73.39
349.975	40.62
350.187	89.77
350.399	32.43
350.61	81.58
350.822	59.05
351.034	91.82
351.246	61.1
351.458	42.67
351.669	22.19
351.881	24.23
352.093	50.86
352.305	61.1
352.517	22.19
352.728	52.91
352.94	34.47
353.152	65.19
353.363	61.1
353.575	108.2
353.787	116.39
353.999	81.58
354.21	104.11
354.422	63.15
354.633	128.68
354.845	9.9
355.057	-12.63
355.268	50.86
355.48	22.19
355.692	48.81
355.903	30.38
356.115	69.29
356.326	-49.49
356.538	40.62
356.749	-4.44
356.961	38.57
357.172	50.86
357.384	26.28
357.595	89.77
357.807	75.43
358.018	-26.96
358.23	22.19
358.441	75.43
358.653	100.01
358.864	65.19
359.075	22.19
359.287	59.05
359.498	18.09
359.709	9.9
359.921	-24.92
360.132	42.67
360.344	-45.4
360.555	-6.49
360.766	65.19
360.977	-22.87
361.189	75.43
361.4	46.76
361.611	40.62
361.823	-18.77
362.034	26.28
362.245	28.33
362.456	73.39
362.667	-6.49
362.879	-16.73
363.09	48.81
363.301	69.29
363.512	-0.34
363.723	16.04
363.935	63.15
364.146	7.85
364.357	20.14
364.568	40.62
364.779	16.04
364.99	112.3
365.201	-14.68
365.412	-14.68
365.623	-8.53
365.834	100.01
366.045	71.34
366.256	65.19
366.467	61.1
366.678	-18.77
366.889	24.23
367.1	122.54
367.311	32.43
367.522	-35.16
367.733	13.99
367.944	93.87
368.155	22.19
368.366	106.15
368.577	59.05
368.788	24.23
368.999	40.62
369.209	100.01
369.42	140.97
369.631	61.1
369.842	40.62
370.053	54.95
370.264	77.48
370.474	16.04
370.685	-12.63
370.896	32.43
371.107	40.62
371.317	9.9
371.528	-29.01
371.739	46.76
371.95	63.15
372.16	11.95
372.371	7.85
372.582	67.24
372.792	-2.39
373.003	71.34
373.214	-4.44
373.424	48.81
373.635	-16.73
373.846	34.47
374.056	5.8
374.267	13.99
374.477	75.43
374.688	73.39
374.898	75.43
375.109	67.24
375.319	161.45
375.53	67.24
375.74	95.91
375.951	42.67
376.161	-20.82
376.372	97.96
376.582	36.52
376.793	-8.53
377.003	20.14
377.214	26.28
377.424	87.72
377.635	65.19
377.845	54.95
378.055	89.77
378.266	36.52
378.476	59.05
378.686	32.43
378.897	71.34
379.107	87.72
379.317	22.19
379.528	106.15
379.738	16.04
379.948	38.57
380.158	67.24
380.369	69.29
380.579	91.82
380.789	11.95
380.999	149.16
381.21	163.5
381.42	93.87
381.63	-14.68
381.84	5.8
382.05	59.05
382.261	7.85
382.471	-43.35
382.681	16.04
382.891	46.76
383.101	77.48
383.311	61.1
383.521	48.81
383.731	-37.2
383.941	38.57
384.151	50.86
384.361	71.34
384.571	3.75
384.781	46.76
384.991	50.86
385.201	63.15
385.411	24.23
385.621	77.48
385.831	52.91
386.041	26.28
386.251	83.63
386.461	40.62
386.671	118.44
386.881	16.04
387.091	1.71
387.301	54.95
387.511	3.75
387.72	118.44
387.93	-16.73
388.14	9.9
388.35	50.86
388.56	104.11
388.769	171.69
388.979	44.71
389.189	32.43
389.399	63.15
389.609	57
389.818	75.43
390.028	95.91
390.238	50.86
390.447	50.86
390.657	40.62
390.867	-49.49
391.076	32.43
391.286	48.81
391.496	-0.34
391.705	38.57
391.915	106.15
392.125	67.24
392.334	57
392.544	9.9
392.753	114.34
392.963	1.71
393.172	42.67
393.382	71.34
393.591	52.91
393.801	30.38
394.01	97.96
394.22	83.63
394.429	77.48
394.639	3.75
394.848	114.34
395.058	34.47
395.267	112.3
395.477	130.73
395.686	59.05
395.895	87.72
396.105	71.34
396.314	108.2
396.524	48.81
396.733	69.29
396.942	151.21
397.152	50.86
397.361	28.33
397.57	50.86
397.78	61.1
397.989	28.33
398.198	93.87
398.407	120.49
398.617	-0.34
398.826	26.28
399.035	114.34
399.244	79.53
399.453	112.3
399.663	143.02
399.872	118.44
400.081	50.86
400.29	59.05
400.499	42.67
400.708	153.26
400.917	108.2
401.127	85.67
401.336	40.62
401.545	151.21
401.754	61.1
401.963	177.83
402.172	157.35
402.381	81.58
402.59	91.82
402.799	65.19
403.008	153.26
403.217	112.3
403.426	50.86
403.635	112.3
403.844	140.97
404.053	149.16
404.262	116.39
404.471	67.24
404.68	104.11
404.888	196.26
405.097	102.06
405.306	169.64
405.515	118.44
405.724	149.16
405.933	171.69
406.142	124.58
406.35	218.79
406.559	167.59
406.768	116.39
406.977	202.41
407.185	233.13
407.394	288.42
407.603	177.83
407.812	235.18
408.02	216.74
408.229	214.7
408.438	153.26
408.646	224.94
408.855	231.08
409.064	229.03
409.272	216.74
409.481	313
409.69	263.85
409.898	278.18
410.107	296.61
410.315	267.94
410.524	278.18
410.733	317.09
410.941	329.38
411.15	321.19
411.358	280.23
411.567	370.34
411.775	339.62
411.984	286.37
412.192	351.91
412.401	413.35
412.609	409.25
412.818	511.65
413.026	433.83
413.234	433.83
413.443	515.75
413.651	525.99
413.86	550.56
414.068	507.55
414.276	489.12
414.485	554.66
414.693	577.19
414.901	618.15
415.11	575.14
415.318	571.04
415.526	652.96
415.734	693.92
415.943	698.02
416.151	741.02
416.359	648.86
416.567	751.26
416.776	738.98
416.984	923.29
417.192	761.5
417.4	831.13
417.608	951.96
417.817	949.92
418.025	941.72
418.233	1078.94
418.441	941.72
418.649	1128.09
418.857	1029.79
419.065	1052.31
419.273	1105.56
419.481	1189.53
419.689	1287.83
419.897	1302.17
420.105	1357.46
420.313	1414.81
420.521	1437.33
420.729	1547.92
420.937	1584.79
421.145	1666.71
421.353	1678.99
421.561	1693.33
421.769	1715.86
421.977	1865.36
422.185	1797.78
422.393	1783.44
422.601	1980.04
422.809	1916.56
423.017	2107.02
423.224	2096.78
423.432	2258.57
423.64	2219.66
423.848	2344.58
424.056	2320.01
424.263	2512.52
424.471	2598.53
424.679	2580.1
424.887	2733.7
425.094	2760.32
425.302	2772.61
425.51	2940.54
425.718	3085.95
425.925	3075.71
426.133	3104.38
426.341	3393.14
426.548	3501.69
426.756	3483.25
426.964	3577.46
427.171	3704.43
427.379	3729.01
427.586	3915.37
427.794	4138.6
428.001	4292.2
428.209	4468.33
428.417	4361.83
428.624	4656.74
428.832	4730.47
429.039	4597.35
429.247	4709.99
429.454	4988.51
429.662	5287.51
429.869	5101.15
430.076	5465.69
430.284	5283.42
430.491	5602.9
430.699	5744.21
430.906	5582.42
431.114	5783.12
431.321	6067.79
431.528	6202.96
431.736	6405.7
431.943	6745.67
432.15	6821.44
432.358	6817.35
432.565	7200.32
432.772	7298.62
432.979	7595.57
433.187	7421.5
433.394	7636.53
433.601	8240.68
433.808	8232.49
434.016	8189.49
434.223	8388.14
434.43	9158.17
434.637	8885.8
434.844	9252.38
435.052	9526.81
435.259	9549.34
435.466	9547.29
435.673	9408.03
435.88	9999.89
436.087	10702.34
436.294	10677.77
436.501	10198.54
436.708	10642.95
436.915	11095.55
437.122	11177.47
437.329	11419.13
437.537	11748.86
437.743	12064.24
437.95	12156.4
438.157	12592.62
438.364	12842.47
438.571	12660.2
438.778	13086.18
438.985	14237.14
439.192	13723.1
439.399	14034.39
439.606	13743.58
439.813	14607.82
440.02	15252.93
440.227	15125.96
440.433	15142.34
440.64	15388.1
440.847	15685.05
441.054	15844.79
441.261	16606.64
441.467	16448.94
441.674	16946.6
441.881	17450.4
442.088	17503.65
442.294	17425.82
442.501	17606.05
442.708	18095.51
442.914	19031.43
443.121	19565.95
443.328	18961.8
443.534	20335.99
443.741	19776.89
443.948	19545.47
444.154	21200.23
444.361	21036.39
444.568	21327.21
444.774	21212.52
444.981	21542.24
445.187	22189.4
445.394	22859.09
445.6	22531.41
445.807	24552.76
446.013	23885.12
446.22	24268.09
446.426	25040.17
446.633	25341.22
446.839	26379.54
447.046	25410.85
447.252	26277.15
447.459	26580.25
447.665	26580.25
447.871	27284.75
448.078	28710.13
448.284	27505.93
448.491	27843.84
448.697	29381.87
448.903	29244.65
449.11	29654.25
449.316	29347.05
449.522	30086.37
449.728	30731.48
449.935	30602.46
450.141	30698.71
450.347	31798.47
450.553	30596.31
450.76	31091.92
450.966	31888.58
451.172	31917.25
451.378	32728.25
451.584	31890.63
451.791	32736.44
451.997	32210.11
452.203	32855.22
452.409	33344.69
452.615	32806.07
452.821	31470.79
453.027	31220.94
453.233	33176.75
453.44	31775.94
453.646	31941.83
453.852	32128.19
454.058	32855.22
454.264	31866.05
454.47	32619.7
454.676	31845.57
454.882	32390.33
455.088	29990.11
455.294	30319.84
455.5	30444.76
455.705	31069.39
455.911	29639.91
456.117	28931.31
456.323	28640.5
456.529	27098.38
456.735	28589.3
456.941	27989.25
457.147	27309.32
457.352	26281.24
457.558	26207.51
457.764	26049.82
457.97	25775.39
458.176	25115.95
458.381	25031.98
458.587	23932.22
458.793	23860.54
458.999	22644.05
459.204	24319.29
459.41	23436.61
459.616	22009.18
459.821	22205.78
460.027	22025.56
460.233	21284.2
460.438	20548.98
460.644	20899.18
460.85	19754.37
461.055	19432.83
461.261	19518.85
461.466	18070.93
461.672	17511.84
461.878	18732.43
462.083	17288.61
462.289	17098.15
462.494	16962.98
462.7	16156.08
462.905	15488.45
463.111	16426.42
463.316	16270.77
463.522	16221.62
463.727	15904.18
463.932	15740.35
464.138	16057.78
464.343	15963.58
464.549	15369.66
464.754	15781.31
464.959	15664.57
465.165	15951.29
465.37	14974.41
465.575	14585.29
465.781	15437.25
465.986	15500.73
466.191	14937.54
466.397	14495.18
466.602	13784.54
466.807	14503.37
467.012	14429.65
467.218	14249.43
467.423	14075.35
467.628	14083.54
467.833	14691.79
468.038	14208.47
468.244	13780.44
