Data from USB4F104151__60__11-52-30-962.txt Node

Date: Fri Mar 14 11:52:30 EDT 2025
User: louis
Spectrometer: USB4F10415
Trigger mode: 4
Integration Time (sec): 2.000000E-2
Scans to average: 1
Electric dark correction enabled: true
Nonlinearity correction enabled: false
Boxcar width: 0
XAxis mode: Wavelengths
Number of Pixels in Spectrum: 3648
>>>>>Begin Spectral Data<<<<<
178.204	-123.05
178.424	-123.05
178.644	-123.05
178.864	-30.89
179.084	-57.51
179.304	28.5
179.524	10.07
179.744	-0.17
179.964	1.88
180.184	-28.84
180.404	36.69
180.624	8.02
180.844	-10.41
181.064	-57.51
181.283	-4.27
181.503	-4.27
181.723	20.31
181.943	32.6
182.163	44.88
182.383	-39.08
182.602	61.27
182.822	118.61
183.042	46.93
183.262	98.13
183.482	44.88
183.701	-37.03
183.921	-6.31
184.141	34.64
184.361	30.55
184.58	-24.75
184.8	77.65
185.02	46.93
185.239	77.65
185.459	24.4
185.679	48.98
185.898	-0.17
186.118	59.22
186.338	36.69
186.557	55.12
186.777	-12.46
186.997	-2.22
187.216	81.75
187.436	73.56
187.655	83.8
187.875	26.45
188.095	36.69
188.314	55.12
188.534	98.13
188.753	-45.23
188.973	44.88
189.192	-0.17
189.412	16.21
189.631	18.26
189.851	30.55
190.07	26.45
190.29	-6.31
190.509	5.97
190.729	38.74
190.948	20.31
191.168	83.8
191.387	-12.46
191.607	1.88
191.826	-2.22
192.045	112.47
192.265	85.84
192.484	-10.41
192.704	69.46
192.923	-49.32
193.142	65.36
193.362	-16.55
193.581	36.69
193.8	24.4
194.02	63.32
194.239	-53.42
194.458	20.31
194.678	1.88
194.897	34.64
195.116	-12.46
195.335	-47.27
195.555	53.08
195.774	3.93
195.993	-10.41
196.212	75.6
196.432	38.74
196.651	59.22
196.87	34.64
197.089	65.36
197.308	77.65
197.528	65.36
197.747	10.07
197.966	67.41
198.185	10.07
198.404	-8.36
198.623	91.99
198.842	79.7
199.062	61.27
199.281	46.93
199.5	32.6
199.719	102.23
199.938	120.66
200.157	61.27
200.376	-12.46
200.595	-47.27
200.814	-16.55
201.033	48.98
201.252	30.55
201.471	79.7
201.69	32.6
201.909	79.7
202.128	32.6
202.347	77.65
202.566	48.98
202.785	-41.13
203.004	34.64
203.223	77.65
203.442	65.36
203.661	69.46
203.879	-0.17
204.098	106.32
204.317	-63.66
204.536	30.55
204.755	-55.47
204.974	42.84
205.193	8.02
205.411	71.51
205.63	53.08
205.849	12.12
206.068	8.02
206.287	3.93
206.505	61.27
206.724	-12.46
206.943	44.88
207.162	69.46
207.381	79.7
207.599	36.69
207.818	12.12
208.037	63.32
208.255	3.93
208.474	63.32
208.693	-16.55
208.911	32.6
209.13	36.69
209.349	87.89
209.567	-6.31
209.786	85.84
210.005	48.98
210.223	34.64
210.442	32.6
210.661	63.32
210.879	71.51
211.098	26.45
211.316	65.36
211.535	102.23
211.753	-16.55
211.972	-0.17
212.191	-2.22
212.409	20.31
212.628	16.21
212.846	36.69
213.065	20.31
213.283	28.5
213.502	51.03
213.72	24.4
213.938	-2.22
214.157	94.04
214.375	44.88
214.594	28.5
214.812	36.69
215.031	32.6
215.249	85.84
215.467	104.28
215.686	3.93
215.904	46.93
216.122	20.31
216.341	26.45
216.559	53.08
216.778	40.79
216.996	1.88
217.214	-39.08
217.432	75.6
217.651	44.88
217.869	48.98
218.087	94.04
218.306	106.32
218.524	22.36
218.742	18.26
218.96	59.22
219.179	67.41
219.397	16.21
219.615	132.95
219.833	26.45
220.051	5.97
220.27	42.84
220.488	12.12
220.706	12.12
220.924	-6.31
221.142	16.21
221.36	-0.17
221.578	-0.17
221.796	22.36
222.015	28.5
222.233	-30.89
222.451	51.03
222.669	-30.89
222.887	36.69
223.105	-14.51
223.323	10.07
223.541	14.17
223.759	18.26
223.977	18.26
224.195	40.79
224.413	53.08
224.631	28.5
224.849	26.45
225.067	77.65
225.285	22.36
225.503	-10.41
225.721	-41.13
225.939	16.21
226.157	44.88
226.375	94.04
226.592	3.93
226.81	26.45
227.028	-10.41
227.246	120.66
227.464	73.56
227.682	28.5
227.9	-4.27
228.117	16.21
228.335	1.88
228.553	24.4
228.771	63.32
228.989	-53.42
229.206	30.55
229.424	20.31
229.642	14.17
229.86	16.21
230.077	71.51
230.295	53.08
230.513	-0.17
230.731	75.6
230.948	57.17
231.166	-4.27
231.384	-20.65
231.601	57.17
231.819	114.52
232.037	-37.03
232.254	-24.75
232.472	67.41
232.689	38.74
232.907	51.03
233.125	67.41
233.342	-30.89
233.56	44.88
233.777	63.32
233.995	28.5
234.213	-26.79
234.43	-0.17
234.648	-22.7
234.865	65.36
235.083	112.47
235.3	55.12
235.518	-20.65
235.735	57.17
235.953	104.28
236.17	34.64
236.388	40.79
236.605	16.21
236.822	57.17
237.04	91.99
237.257	28.5
237.475	-18.6
237.692	34.64
237.909	46.93
238.127	20.31
238.344	42.84
238.562	53.08
238.779	-8.36
238.996	-26.79
239.214	40.79
239.431	22.36
239.648	61.27
239.865	110.42
240.083	53.08
240.3	28.5
240.517	57.17
240.735	-53.42
240.952	14.17
241.169	98.13
241.386	65.36
241.603	46.93
241.821	-14.51
242.038	165.71
242.255	79.7
242.472	18.26
242.689	1.88
242.907	36.69
243.124	38.74
243.341	104.28
243.558	26.45
243.775	32.6
243.992	34.64
244.209	20.31
244.426	24.4
244.643	10.07
244.86	14.17
245.078	18.26
245.295	14.17
245.512	14.17
245.729	16.21
245.946	42.84
246.163	20.31
246.38	36.69
246.597	30.55
246.814	44.88
247.031	38.74
247.248	61.27
247.464	73.56
247.681	46.93
247.898	128.85
248.115	-12.46
248.332	28.5
248.549	36.69
248.766	51.03
248.983	46.93
249.2	12.12
249.417	24.4
249.633	-8.36
249.85	98.13
250.067	10.07
250.284	48.98
250.501	46.93
250.717	114.52
250.934	77.65
251.151	-6.31
251.368	-14.51
251.585	30.55
251.801	59.22
252.018	36.69
252.235	30.55
252.451	-20.65
252.668	8.02
252.885	106.32
253.102	26.45
253.318	81.75
253.535	-20.65
253.752	65.36
253.968	-10.41
254.185	34.64
254.401	28.5
254.618	22.36
254.835	-18.6
255.051	32.6
255.268	104.28
255.484	53.08
255.701	79.7
255.917	-69.8
256.134	-8.36
256.351	22.36
256.567	34.64
256.784	32.6
257	38.74
257.217	81.75
257.433	8.02
257.65	40.79
257.866	28.5
258.082	34.64
258.299	-88.23
258.515	-2.22
258.732	59.22
258.948	28.5
259.165	-34.99
259.381	-0.17
259.597	18.26
259.814	75.6
260.03	18.26
260.246	36.69
260.463	8.02
260.679	108.37
260.895	40.79
261.112	-34.99
261.328	-6.31
261.544	-55.47
261.761	126.8
261.977	32.6
262.193	18.26
262.409	87.89
262.626	48.98
262.842	87.89
263.058	-0.17
263.274	94.04
263.49	-24.75
263.707	32.6
263.923	12.12
264.139	-32.94
264.355	28.5
264.571	3.93
264.787	57.17
265.004	12.12
265.22	75.6
265.436	38.74
265.652	16.21
265.868	-26.79
266.084	55.12
266.3	28.5
266.516	10.07
266.732	124.76
266.948	32.6
267.164	53.08
267.38	65.36
267.596	89.94
267.812	42.84
268.028	36.69
268.244	26.45
268.46	57.17
268.676	51.03
268.892	-4.27
269.108	-12.46
269.324	48.98
269.54	-22.7
269.756	57.17
269.972	40.79
270.188	12.12
270.403	30.55
270.619	12.12
270.835	-34.99
271.051	32.6
271.267	44.88
271.483	40.79
271.698	-16.55
271.914	65.36
272.13	5.97
272.346	91.99
272.562	5.97
272.777	102.23
272.993	16.21
273.209	22.36
273.425	57.17
273.64	-12.46
273.856	112.47
274.072	-45.23
274.287	34.64
274.503	26.45
274.719	46.93
274.934	24.4
275.15	8.02
275.366	-18.6
275.581	-20.65
275.797	24.4
276.012	-8.36
276.228	73.56
276.444	61.27
276.659	42.84
276.875	-6.31
277.09	81.75
277.306	-2.22
277.521	42.84
277.737	44.88
277.952	128.85
278.168	71.51
278.383	18.26
278.599	18.26
278.814	55.12
279.03	18.26
279.245	-8.36
279.461	79.7
279.676	5.97
279.892	-4.27
280.107	26.45
280.322	24.4
280.538	44.88
280.753	67.41
280.969	126.8
281.184	32.6
281.399	-16.55
281.615	57.17
281.83	22.36
282.045	-57.51
282.26	3.93
282.476	-16.55
282.691	71.51
282.906	69.46
283.122	81.75
283.337	42.84
283.552	3.93
283.767	14.17
283.983	59.22
284.198	30.55
284.413	42.84
284.628	-6.31
284.843	67.41
285.058	55.12
285.274	48.98
285.489	-24.75
285.704	63.32
285.919	-0.17
286.134	44.88
286.349	94.04
286.564	-26.79
286.779	3.93
286.995	-24.75
287.21	53.08
287.425	26.45
287.64	-18.6
287.855	51.03
288.07	-55.47
288.285	55.12
288.5	61.27
288.715	42.84
288.93	42.84
289.145	-14.51
289.36	30.55
289.575	32.6
289.79	77.65
290.004	89.94
290.219	69.46
290.434	22.36
290.649	16.21
290.864	-12.46
291.079	-20.65
291.294	81.75
291.509	26.45
291.724	22.36
291.938	46.93
292.153	112.47
292.368	26.45
292.583	73.56
292.798	-8.36
293.012	42.84
293.227	30.55
293.442	71.51
293.657	98.13
293.871	24.4
294.086	30.55
294.301	57.17
294.516	98.13
294.73	87.89
294.945	-12.46
295.16	79.7
295.374	59.22
295.589	46.93
295.804	14.17
296.018	63.32
296.233	-4.27
296.447	77.65
296.662	79.7
296.877	63.32
297.091	32.6
297.306	57.17
297.52	28.5
297.735	73.56
297.949	48.98
298.164	55.12
298.378	-0.17
298.593	42.84
298.807	102.23
299.022	46.93
299.236	18.26
299.451	59.22
299.665	130.9
299.88	106.32
300.094	-0.17
300.309	44.88
300.523	-0.17
300.737	-4.27
300.952	10.07
301.166	124.76
301.381	-43.18
301.595	40.79
301.809	69.46
302.024	55.12
302.238	48.98
302.452	102.23
302.667	87.89
302.881	32.6
303.095	77.65
303.309	61.27
303.524	-20.65
303.738	1.88
303.952	18.26
304.166	59.22
304.381	26.45
304.595	48.98
304.809	63.32
305.023	65.36
305.237	3.93
305.452	83.8
305.666	77.65
305.88	57.17
306.094	24.4
306.308	91.99
306.522	71.51
306.736	-14.51
306.95	51.03
307.164	20.31
307.379	10.07
307.593	85.84
307.807	79.7
308.021	44.88
308.235	102.23
308.449	-8.36
308.663	57.17
308.877	98.13
309.091	32.6
309.305	65.36
309.519	-32.94
309.733	77.65
309.947	20.31
310.161	32.6
310.374	-16.55
310.588	108.37
310.802	51.03
311.016	32.6
311.23	14.17
311.444	48.98
311.658	5.97
311.872	55.12
312.085	69.46
312.299	104.28
312.513	-2.22
312.727	16.21
312.941	14.17
313.154	51.03
313.368	55.12
313.582	83.8
313.796	65.36
314.009	-12.46
314.223	100.18
314.437	98.13
314.651	77.65
314.864	28.5
315.078	46.93
315.292	-0.17
315.505	36.69
315.719	87.89
315.933	32.6
316.146	46.93
316.36	38.74
316.573	67.41
316.787	73.56
317.001	102.23
317.214	-34.99
317.428	-4.27
317.641	16.21
317.855	79.7
318.068	42.84
318.282	-10.41
318.495	153.43
318.709	-2.22
318.922	51.03
319.136	77.65
319.349	40.79
319.563	112.47
319.776	36.69
319.99	30.55
320.203	-20.65
320.417	100.18
320.63	59.22
320.843	100.18
321.057	132.95
321.27	100.18
321.483	24.4
321.697	44.88
321.91	102.23
322.124	26.45
322.337	69.46
322.55	14.17
322.763	44.88
322.977	32.6
323.19	55.12
323.403	28.5
323.617	-20.65
323.83	114.52
324.043	51.03
324.256	34.64
324.469	28.5
324.683	83.8
324.896	48.98
325.109	8.02
325.322	14.17
325.535	81.75
325.748	89.94
325.962	34.64
326.175	-0.17
326.388	104.28
326.601	75.6
326.814	22.36
327.027	-0.17
327.24	40.79
327.453	-0.17
327.666	79.7
327.879	10.07
328.092	38.74
328.305	36.69
328.518	122.71
328.731	-16.55
328.944	53.08
329.157	106.32
329.37	28.5
329.583	51.03
329.796	77.65
330.009	-22.7
330.222	89.94
330.435	135
330.648	112.47
330.861	42.84
331.073	1.88
331.286	12.12
331.499	24.4
331.712	18.26
331.925	69.46
332.138	40.79
332.35	-8.36
332.563	32.6
332.776	63.32
332.989	-37.03
333.202	143.19
333.414	-20.65
333.627	55.12
333.84	14.17
334.053	102.23
334.265	38.74
334.478	3.93
334.691	32.6
334.903	32.6
335.116	-6.31
335.329	63.32
335.541	73.56
335.754	51.03
335.966	-2.22
336.179	-10.41
336.392	46.93
336.604	75.6
336.817	55.12
337.029	38.74
337.242	61.27
337.454	48.98
337.667	55.12
337.88	16.21
338.092	106.32
338.305	53.08
338.517	-28.84
338.729	63.32
338.942	67.41
339.154	51.03
339.367	10.07
339.579	48.98
339.792	5.97
340.004	83.8
340.217	38.74
340.429	106.32
340.641	65.36
340.854	75.6
341.066	63.32
341.278	57.17
341.491	71.51
341.703	40.79
341.915	-20.65
342.128	108.37
342.34	34.64
342.552	122.71
342.764	65.36
342.977	34.64
343.189	38.74
343.401	46.93
343.613	34.64
343.826	18.26
344.038	40.79
344.25	63.32
344.462	42.84
344.674	94.04
344.886	40.79
345.099	28.5
345.311	96.08
345.523	116.56
345.735	-28.84
345.947	57.17
346.159	46.93
346.371	51.03
346.583	24.4
346.795	12.12
347.007	48.98
347.219	104.28
347.431	81.75
347.643	30.55
347.855	55.12
348.067	34.64
348.279	-0.17
348.491	46.93
348.703	-2.22
348.915	65.36
349.127	12.12
349.339	73.56
349.551	34.64
349.763	18.26
349.975	30.55
350.187	18.26
350.399	3.93
350.61	5.97
350.822	36.69
351.034	61.27
351.246	26.45
351.458	-4.27
351.669	18.26
351.881	102.23
352.093	32.6
352.305	59.22
352.517	87.89
352.728	40.79
352.94	5.97
353.152	91.99
353.363	69.46
353.575	98.13
353.787	149.33
353.999	3.93
354.21	42.84
354.422	57.17
354.633	38.74
354.845	44.88
355.057	34.64
355.268	42.84
355.48	87.89
355.692	44.88
355.903	-51.37
356.115	28.5
356.326	46.93
356.538	40.79
356.749	-2.22
356.961	116.56
357.172	46.93
357.384	114.52
357.595	65.36
357.807	112.47
358.018	63.32
358.23	69.46
358.441	106.32
358.653	63.32
358.864	-0.17
359.075	42.84
359.287	73.56
359.498	40.79
359.709	38.74
359.921	44.88
360.132	26.45
360.344	22.36
360.555	8.02
360.766	44.88
360.977	26.45
361.189	126.8
361.4	85.84
361.611	40.79
361.823	85.84
362.034	130.9
362.245	38.74
362.456	120.66
362.667	89.94
362.879	42.84
363.09	61.27
363.301	32.6
363.512	20.31
363.723	57.17
363.935	-12.46
364.146	75.6
364.357	112.47
364.568	16.21
364.779	-18.6
364.99	73.56
365.201	-24.75
365.412	38.74
365.623	87.89
365.834	24.4
366.045	87.89
366.256	100.18
366.467	40.79
366.678	8.02
366.889	18.26
367.1	16.21
367.311	46.93
367.522	-4.27
367.733	75.6
367.944	14.17
368.155	48.98
368.366	46.93
368.577	53.08
368.788	175.95
368.999	55.12
369.209	24.4
369.42	149.33
369.631	100.18
369.842	30.55
370.053	63.32
370.264	55.12
370.474	34.64
370.685	3.93
370.896	24.4
371.107	61.27
371.317	65.36
371.528	83.8
371.739	40.79
371.95	-0.17
372.16	83.8
372.371	63.32
372.582	51.03
372.792	59.22
373.003	147.28
373.214	44.88
373.424	65.36
373.635	38.74
373.846	116.56
374.056	-10.41
374.267	69.46
374.477	98.13
374.688	65.36
374.898	180.05
375.109	98.13
375.319	69.46
375.53	69.46
375.74	79.7
375.951	81.75
376.161	61.27
376.372	120.66
376.582	-14.51
376.793	22.36
377.003	-2.22
377.214	75.6
377.424	65.36
377.635	96.08
377.845	3.93
378.055	28.5
378.266	32.6
378.476	32.6
378.686	65.36
378.897	16.21
379.107	51.03
379.317	63.32
379.528	38.74
379.738	28.5
379.948	26.45
380.158	132.95
380.369	48.98
380.579	24.4
380.789	85.84
380.999	65.36
381.21	8.02
381.42	122.71
381.63	65.36
381.84	75.6
382.05	30.55
382.261	-8.36
382.471	18.26
382.681	8.02
382.891	85.84
383.101	83.8
383.311	73.56
383.521	30.55
383.731	46.93
383.941	57.17
384.151	24.4
384.361	100.18
384.571	40.79
384.781	83.8
384.991	96.08
385.201	108.37
385.411	122.71
385.621	65.36
385.831	46.93
386.041	124.76
386.251	30.55
386.461	130.9
386.671	94.04
386.881	63.32
387.091	79.7
387.301	22.36
387.511	53.08
387.72	38.74
387.93	57.17
388.14	53.08
388.35	102.23
388.56	112.47
388.769	73.56
388.979	65.36
389.189	124.76
389.399	48.98
389.609	34.64
389.818	89.94
390.028	75.6
390.238	51.03
390.447	87.89
390.657	87.89
390.867	-34.99
391.076	44.88
391.286	85.84
391.496	104.28
391.705	102.23
391.915	124.76
392.125	110.42
392.334	112.47
392.544	85.84
392.753	102.23
392.963	38.74
393.172	102.23
393.382	63.32
393.591	28.5
393.801	26.45
394.01	126.8
394.22	65.36
394.429	114.52
394.639	83.8
394.848	69.46
395.058	167.76
395.267	122.71
395.477	40.79
395.686	34.64
395.895	102.23
396.105	71.51
396.314	85.84
396.524	126.8
396.733	120.66
396.942	159.57
397.152	186.19
397.361	81.75
397.57	-37.03
397.78	98.13
397.989	120.66
398.198	71.51
398.407	194.39
398.617	104.28
398.826	116.56
399.035	98.13
399.244	120.66
399.453	161.62
399.663	139.09
399.872	190.29
400.081	132.95
400.29	135
400.499	67.41
400.708	147.28
400.917	55.12
401.127	161.62
401.336	106.32
401.545	159.57
401.754	149.33
401.963	163.67
402.172	147.28
402.381	141.14
402.59	139.09
402.799	159.57
403.008	116.56
403.217	137.04
403.426	135
403.635	182.1
403.844	149.33
404.053	143.19
404.262	100.18
404.471	153.43
404.68	194.39
404.888	126.8
405.097	161.62
405.306	204.63
405.515	173.91
405.724	261.97
405.933	169.81
406.142	200.53
406.35	192.34
406.559	229.2
406.768	247.63
406.977	190.29
407.185	178
407.394	200.53
407.603	276.31
407.812	264.02
408.02	302.93
408.229	329.55
408.438	241.49
408.646	233.3
408.855	313.17
409.064	251.73
409.272	345.94
409.481	386.9
409.69	321.36
409.898	323.41
410.107	333.65
410.315	304.98
410.524	337.74
410.733	311.12
410.941	333.65
411.15	358.22
411.358	315.22
411.567	423.76
411.775	462.67
411.984	485.2
412.192	464.72
412.401	462.67
412.609	575.31
412.818	558.92
413.026	497.49
413.234	503.63
413.443	618.32
413.651	571.21
413.86	606.03
414.068	622.41
414.276	681.8
414.485	728.91
414.693	626.51
414.901	847.69
415.11	708.43
415.318	730.95
415.526	790.35
415.734	819.02
415.943	855.88
416.151	880.46
416.359	870.22
416.567	905.03
416.776	982.85
416.984	923.46
417.192	1005.38
417.4	1079.11
417.608	1087.3
417.817	1097.54
418.025	1199.94
418.233	1158.98
418.441	1244.99
418.649	1261.38
418.857	1460.03
419.065	1429.31
419.273	1347.39
419.481	1443.65
419.689	1554.24
419.897	1662.78
420.105	1582.91
420.313	1689.4
420.521	1679.16
420.729	1716.03
420.937	1744.7
421.145	1912.63
421.353	1943.35
421.561	1974.07
421.769	2006.84
421.977	2135.86
422.185	2213.68
422.393	2324.27
422.601	2424.62
422.809	2430.77
423.017	2428.72
423.224	2627.37
423.432	2619.18
423.64	2701.1
423.848	2899.75
424.056	2770.73
424.263	3094.31
424.471	3010.34
424.679	3190.56
424.887	3202.85
425.094	3383.07
425.302	3481.38
425.51	3641.12
425.718	3655.45
425.925	3745.56
426.133	3860.25
426.341	4099.86
426.548	4212.5
426.756	4224.79
426.964	4304.66
427.171	4505.36
427.379	4650.77
427.586	4812.56
427.794	4906.76
428.001	5033.74
428.209	5250.82
428.417	5299.97
428.624	5365.51
428.832	5666.56
429.039	5736.19
429.247	5609.22
429.454	6135.54
429.662	6387.44
429.869	6051.58
430.076	6420.21
430.284	6199.03
430.491	6524.66
430.699	6985.45
430.906	6989.55
431.114	7014.12
431.321	7216.87
431.528	7331.56
431.736	7966.43
431.943	8130.27
432.15	7984.86
432.358	8115.93
432.565	8586.96
432.772	8347.35
432.979	9049.8
433.187	9162.44
433.394	9103.05
433.601	9875.13
433.808	9819.84
434.016	9862.85
434.223	10194.62
434.43	10718.9
434.637	10647.22
434.844	11361.96
435.052	11470.5
435.259	11533.99
435.466	11452.07
435.673	11253.42
435.88	12256.92
436.087	12793.49
436.294	12678.8
436.501	12594.84
436.708	12770.96
436.915	13289.1
437.122	13620.87
437.329	13731.46
437.537	14347.9
437.743	14653.05
437.95	14261.88
438.157	15267.44
438.364	15513.19
438.571	15259.24
438.778	15883.87
438.985	17237.58
439.192	16436.83
439.399	17139.28
439.606	16516.7
439.813	17628.74
440.02	18329.15
440.227	18185.79
440.433	18009.67
440.64	18533.95
440.847	18675.26
441.054	18978.36
441.261	20368.93
441.467	19721.77
441.674	20420.13
441.881	21149.2
442.088	21327.38
442.294	20977.17
442.501	21345.81
442.708	22081.03
442.914	22758.91
443.121	23698.92
443.328	23309.81
443.534	24608.22
443.741	23864.81
443.948	23825.9
444.154	25624.01
444.361	25144.79
444.568	25490.9
444.774	25642.45
444.981	25486.8
445.187	26840.51
445.394	27360.69
445.6	27368.88
445.807	29740.43
446.013	29017.5
446.22	29341.08
446.426	30254.47
446.633	30530.95
446.839	31303.03
447.046	30340.49
447.252	31737.2
447.459	31737.2
447.665	32036.2
447.871	33285.47
448.078	34676.04
448.284	33219.93
448.491	33860.94
448.697	35611.96
448.903	35966.26
449.11	36181.29
449.316	35288.38
449.522	36136.24
449.728	36967.71
449.935	37168.41
450.141	37266.72
450.347	37932.31
450.553	37109.02
450.76	37410.07
450.966	38690.05
451.172	38309.13
451.378	39372.03
451.584	38298.89
451.791	39148.8
451.997	39046.4
452.203	39775.48
452.409	39972.08
452.615	39490.81
452.821	37879.06
453.027	37834
453.233	39890.16
453.44	38075.66
453.646	38413.58
453.852	38825.22
454.058	39632.12
454.264	38315.28
454.47	39220.48
454.676	37760.28
454.882	39830.77
455.088	36017.46
455.294	36478.25
455.5	37158.17
455.705	37551.38
455.911	35706.16
456.117	35325.24
456.323	35155.26
456.529	33066.33
456.735	34256.2
456.941	33680.72
457.147	33158.49
457.352	31978.86
457.558	31599.99
457.764	31628.66
457.97	31010.17
458.176	30682.5
458.381	30879.1
458.587	28947.87
458.793	29177.24
458.999	27356.6
459.204	29592.98
459.41	28683.68
459.616	26998.2
459.821	26475.97
460.027	26480.07
460.233	25927.11
460.438	24751.58
460.644	25060.82
460.85	23596.53
461.055	23447.02
461.261	23600.62
461.466	21915.14
461.672	21327.38
461.878	22486.53
462.083	21077.52
462.289	20917.78
462.494	20389.41
462.7	19535.4
462.905	19252.78
463.111	19854.89
463.316	19942.95
463.522	19416.62
463.727	19330.61
463.932	19328.56
464.138	19428.91
464.343	19095.09
464.549	18683.45
464.754	19306.03
464.959	19258.93
465.165	19138.1
465.37	18120.26
465.575	17884.74
465.781	18703.93
465.986	18609.72
466.191	17907.27
466.397	17428.04
466.602	16752.21
466.807	17077.84
467.012	17229.39
467.218	17272.4
467.423	16887.38
467.628	17108.56
