Data from USB4F104151__72__11-52-40-121.txt Node

Date: Fri Mar 14 11:52:40 EDT 2025
User: louis
Spectrometer: USB4F10415
Trigger mode: 4
Integration Time (sec): 2.000000E-2
Scans to average: 1
Electric dark correction enabled: true
Nonlinearity correction enabled: false
Boxcar width: 0
XAxis mode: Wavelengths
Number of Pixels in Spectrum: 3648
>>>>>Begin Spectral Data<<<<<
178.204	-87.72
178.424	-87.72
178.644	-87.72
178.864	-87.72
179.084	-102.06
179.304	41.3
179.524	-28.33
179.744	76.12
179.964	-7.85
180.184	-32.43
180.404	39.25
180.624	-5.8
180.844	-61.1
181.064	-71.34
181.283	39.25
181.503	-42.67
181.723	53.59
181.943	-36.52
182.163	4.44
182.383	-1.71
182.602	18.77
182.822	-36.52
183.042	37.2
183.262	-26.28
183.482	29.01
183.701	-30.38
183.921	131.41
184.141	-3.75
184.361	41.3
184.58	-67.24
184.8	-11.95
185.02	-36.52
185.239	33.11
185.459	51.54
185.679	65.88
185.898	-34.47
186.118	35.16
186.338	24.92
186.557	-11.95
186.777	-24.23
186.997	20.82
187.216	35.16
187.436	39.25
187.655	-11.95
187.875	18.77
188.095	-13.99
188.314	72.02
188.534	29.01
188.753	18.77
188.973	41.3
189.192	63.83
189.412	-61.1
189.631	47.44
189.851	18.77
190.07	26.96
190.29	18.77
190.509	26.96
190.729	33.11
190.948	63.83
191.168	31.06
191.387	2.39
191.607	-5.8
191.826	0.34
192.045	4.44
192.265	14.68
192.484	-40.62
192.704	12.63
192.923	-28.33
193.142	57.68
193.362	-22.19
193.581	76.12
193.8	41.3
194.02	8.53
194.239	47.44
194.458	45.4
194.678	-46.76
194.897	22.87
195.116	-3.75
195.335	78.16
195.555	57.68
195.774	35.16
195.993	24.92
196.212	4.44
196.432	-32.43
196.651	16.73
196.87	10.58
197.089	51.54
197.308	90.45
197.528	8.53
197.747	-28.33
197.966	37.2
198.185	35.16
198.404	61.78
198.623	-3.75
198.842	80.21
199.062	14.68
199.281	59.73
199.5	14.68
199.719	78.16
199.938	-61.1
200.157	41.3
200.376	6.49
200.595	82.26
200.814	53.59
201.033	-24.23
201.252	31.06
201.471	-3.75
201.69	-34.47
201.909	-34.47
202.128	39.25
202.347	51.54
202.566	-16.04
202.785	84.31
203.004	-1.71
203.223	82.26
203.442	12.63
203.661	-61.1
203.879	-16.04
204.098	61.78
204.317	-54.95
204.536	4.44
204.755	-44.71
204.974	-1.71
205.193	51.54
205.411	72.02
205.63	6.49
205.849	31.06
206.068	-20.14
206.287	26.96
206.505	43.35
206.724	6.49
206.943	-20.14
207.162	51.54
207.381	0.34
207.599	-30.38
207.818	-34.47
208.037	22.87
208.255	2.39
208.474	24.92
208.693	-18.09
208.911	-7.85
209.13	22.87
209.349	37.2
209.567	20.82
209.786	29.01
210.005	51.54
210.223	84.31
210.442	-18.09
210.661	26.96
210.879	26.96
211.098	43.35
211.316	94.55
211.535	14.68
211.753	67.92
211.972	102.74
212.191	-20.14
212.409	-32.43
212.628	63.83
212.846	49.49
213.065	31.06
213.283	74.07
213.502	14.68
213.72	-9.9
213.938	20.82
214.157	10.58
214.375	-5.8
214.594	-85.67
214.812	49.49
215.031	-24.23
215.249	24.92
215.467	2.39
215.686	88.4
215.904	24.92
216.122	26.96
216.341	0.34
216.559	-46.76
216.778	69.97
216.996	-26.28
217.214	39.25
217.432	-32.43
217.651	106.84
217.869	26.96
218.087	35.16
218.306	18.77
218.524	59.73
218.742	18.77
218.96	78.16
219.179	16.73
219.397	6.49
219.615	41.3
219.833	84.31
220.051	22.87
220.27	67.92
220.488	4.44
220.706	10.58
220.924	-30.38
221.142	-38.57
221.36	-7.85
221.578	41.3
221.796	65.88
222.015	20.82
222.233	2.39
222.451	82.26
222.669	-44.71
222.887	18.77
223.105	-5.8
223.323	86.36
223.541	-28.33
223.759	-22.19
223.977	133.46
224.195	43.35
224.413	2.39
224.631	49.49
224.849	45.4
225.067	80.21
225.285	18.77
225.503	65.88
225.721	-65.19
225.939	53.59
226.157	55.64
226.375	41.3
226.592	12.63
226.81	55.64
227.028	-5.8
227.246	182.61
227.464	78.16
227.682	8.53
227.9	80.21
228.117	-34.47
228.335	-71.34
228.553	41.3
228.771	8.53
228.989	78.16
229.206	-3.75
229.424	-40.62
229.642	-5.8
229.86	-38.57
230.077	8.53
230.295	-24.23
230.513	-28.33
230.731	33.11
230.948	41.3
231.166	2.39
231.384	65.88
231.601	26.96
231.819	-65.19
232.037	24.92
232.254	12.63
232.472	67.92
232.689	-44.71
232.907	0.34
233.125	-67.24
233.342	26.96
233.56	35.16
233.777	47.44
233.995	29.01
234.213	76.12
234.43	125.27
234.648	-9.9
234.865	14.68
235.083	35.16
235.3	47.44
235.518	45.4
235.735	22.87
235.953	14.68
236.17	94.55
236.388	-28.33
236.605	20.82
236.822	24.92
237.04	82.26
237.257	-18.09
237.475	-71.34
237.692	49.49
237.909	-5.8
238.127	31.06
238.344	16.73
238.562	69.97
238.779	-1.71
238.996	-5.8
239.214	-30.38
239.431	39.25
239.648	-38.57
239.865	-7.85
240.083	12.63
240.3	80.21
240.517	0.34
240.735	35.16
240.952	-22.19
241.169	39.25
241.386	2.39
241.603	39.25
241.821	6.49
242.038	43.35
242.255	22.87
242.472	59.73
242.689	51.54
242.907	-13.99
243.124	-13.99
243.341	31.06
243.558	-11.95
243.775	-20.14
243.992	-40.62
244.209	2.39
244.426	63.83
244.643	45.4
244.86	6.49
245.078	45.4
245.295	-26.28
245.512	69.97
245.729	80.21
245.946	-28.33
246.163	24.92
246.38	-24.23
246.597	59.73
246.814	47.44
247.031	-5.8
247.248	39.25
247.464	14.68
247.681	39.25
247.898	29.01
248.115	69.97
248.332	18.77
248.549	20.82
248.766	16.73
248.983	33.11
249.2	33.11
249.417	84.31
249.633	22.87
249.85	-3.75
250.067	22.87
250.284	20.82
250.501	55.64
250.717	80.21
250.934	39.25
251.151	10.58
251.368	14.68
251.585	61.78
251.801	49.49
252.018	-20.14
252.235	-1.71
252.451	-1.71
252.668	-7.85
252.885	59.73
253.102	-63.15
253.318	29.01
253.535	-54.95
253.752	-75.43
253.968	37.2
254.185	14.68
254.401	10.58
254.618	-26.28
254.835	39.25
255.051	43.35
255.268	-9.9
255.484	24.92
255.701	-13.99
255.917	82.26
256.134	-1.71
256.351	115.03
256.567	-7.85
256.784	-18.09
257	-38.57
257.217	24.92
257.433	82.26
257.65	63.83
257.866	12.63
258.082	18.77
258.299	-46.76
258.515	104.79
258.732	-9.9
258.948	59.73
259.165	26.96
259.381	72.02
259.597	78.16
259.814	63.83
260.03	-18.09
260.246	-1.71
260.463	49.49
260.679	-7.85
260.895	-9.9
261.112	31.06
261.328	-26.28
261.544	49.49
261.761	47.44
261.977	-5.8
262.193	-13.99
262.409	-9.9
262.626	-3.75
262.842	12.63
263.058	20.82
263.274	67.92
263.49	12.63
263.707	96.6
263.923	29.01
264.139	-7.85
264.355	47.44
264.571	55.64
264.787	16.73
265.004	-20.14
265.22	84.31
265.436	26.96
265.652	8.53
265.868	90.45
266.084	-13.99
266.3	49.49
266.516	55.64
266.732	49.49
266.948	12.63
267.164	16.73
267.38	-13.99
267.596	0.34
267.812	86.36
268.028	10.58
268.244	72.02
268.46	43.35
268.676	47.44
268.892	18.77
269.108	33.11
269.324	-28.33
269.54	-48.81
269.756	82.26
269.972	65.88
270.188	-63.15
270.403	-5.8
270.619	59.73
270.835	2.39
271.051	-9.9
271.267	16.73
271.483	2.39
271.698	12.63
271.914	63.83
272.13	26.96
272.346	31.06
272.562	51.54
272.777	37.2
272.993	100.69
273.209	26.96
273.425	12.63
273.64	-22.19
273.856	10.58
274.072	24.92
274.287	-32.43
274.503	84.31
274.719	-3.75
274.934	16.73
275.15	-30.38
275.366	-24.23
275.581	-67.24
275.797	59.73
276.012	-7.85
276.228	12.63
276.444	55.64
276.659	14.68
276.875	12.63
277.09	-20.14
277.306	4.44
277.521	65.88
277.737	-28.33
277.952	55.64
278.168	2.39
278.383	2.39
278.599	10.58
278.814	43.35
279.03	43.35
279.245	18.77
279.461	37.2
279.676	24.92
279.892	-9.9
280.107	24.92
280.322	12.63
280.538	-9.9
280.753	2.39
280.969	98.64
281.184	10.58
281.399	-9.9
281.615	51.54
281.83	31.06
282.045	-77.48
282.26	-32.43
282.476	-13.99
282.691	-71.34
282.906	69.97
283.122	39.25
283.337	69.97
283.552	35.16
283.767	-22.19
283.983	-28.33
284.198	-20.14
284.413	108.88
284.628	31.06
284.843	10.58
285.058	37.2
285.274	33.11
285.489	18.77
285.704	37.2
285.919	-59.05
286.134	6.49
286.349	84.31
286.564	31.06
286.779	39.25
286.995	65.88
287.21	43.35
287.425	-3.75
287.64	-106.15
287.855	-5.8
288.07	53.59
288.285	59.73
288.5	39.25
288.715	0.34
288.93	20.82
289.145	-32.43
289.36	24.92
289.575	10.58
289.79	29.01
290.004	59.73
290.219	53.59
290.434	74.07
290.649	18.77
290.864	33.11
291.079	59.73
291.294	-32.43
291.509	14.68
291.724	39.25
291.938	-16.04
292.153	41.3
292.368	39.25
292.583	8.53
292.798	33.11
293.012	-13.99
293.227	-3.75
293.442	-26.28
293.657	78.16
293.871	0.34
294.086	41.3
294.301	-20.14
294.516	47.44
294.73	-11.95
294.945	39.25
295.16	51.54
295.374	57.68
295.589	-26.28
295.804	0.34
296.018	-16.04
296.233	67.92
296.447	37.2
296.662	-3.75
296.877	61.78
297.091	63.83
297.306	26.96
297.52	-16.04
297.735	80.21
297.949	31.06
298.164	12.63
298.378	-22.19
298.593	6.49
298.807	14.68
299.022	43.35
299.236	63.83
299.451	-42.67
299.665	-16.04
299.88	39.25
300.094	10.58
300.309	61.78
300.523	29.01
300.737	55.64
300.952	55.64
301.166	31.06
301.381	-65.19
301.595	88.4
301.809	-42.67
302.024	-16.04
302.238	-44.71
302.452	20.82
302.667	57.68
302.881	24.92
303.095	47.44
303.309	57.68
303.524	0.34
303.738	53.59
303.952	39.25
304.166	76.12
304.381	-13.99
304.595	35.16
304.809	39.25
305.023	41.3
305.237	76.12
305.452	49.49
305.666	2.39
305.88	2.39
306.094	112.98
306.308	137.56
306.522	41.3
306.736	88.4
306.95	59.73
307.164	12.63
307.379	-26.28
307.593	-1.71
307.807	80.21
308.021	61.78
308.235	16.73
308.449	86.36
308.663	-24.23
308.877	65.88
309.091	-38.57
309.305	16.73
309.519	39.25
309.733	110.93
309.947	26.96
310.161	8.53
310.374	-1.71
310.588	63.83
310.802	12.63
311.016	8.53
311.23	29.01
311.444	41.3
311.658	63.83
311.872	115.03
312.085	59.73
312.299	72.02
312.513	-26.28
312.727	12.63
312.941	-20.14
313.154	35.16
313.368	0.34
313.582	16.73
313.796	22.87
314.009	45.4
314.223	49.49
314.437	45.4
314.651	49.49
314.864	10.58
315.078	-83.63
315.292	80.21
315.505	18.77
315.719	110.93
315.933	35.16
316.146	18.77
316.36	22.87
316.573	47.44
316.787	41.3
317.001	102.74
317.214	-1.71
317.428	-28.33
317.641	-63.15
317.855	26.96
318.068	-34.47
318.282	45.4
318.495	133.46
318.709	20.82
318.922	-22.19
319.136	8.53
319.349	-13.99
319.563	16.73
319.776	37.2
319.99	-26.28
320.203	-48.81
320.417	24.92
320.63	-22.19
320.843	39.25
321.057	-1.71
321.27	100.69
321.483	53.59
321.697	41.3
321.91	26.96
322.124	2.39
322.337	33.11
322.55	22.87
322.763	-1.71
322.977	82.26
323.19	8.53
323.403	67.92
323.617	53.59
323.83	80.21
324.043	12.63
324.256	33.11
324.469	12.63
324.683	8.53
324.896	67.92
325.109	37.2
325.322	-9.9
325.535	14.68
325.748	69.97
325.962	6.49
326.175	-54.95
326.388	63.83
326.601	51.54
326.814	57.68
327.027	4.44
327.24	35.16
327.453	-36.52
327.666	14.68
327.879	84.31
328.092	-3.75
328.305	51.54
328.518	16.73
328.731	-11.95
328.944	43.35
329.157	78.16
329.37	-46.76
329.583	61.78
329.796	51.54
330.009	14.68
330.222	53.59
330.435	94.55
330.648	-1.71
330.861	-42.67
331.073	2.39
331.286	47.44
331.499	0.34
331.712	4.44
331.925	12.63
332.138	53.59
332.35	55.64
332.563	-36.52
332.776	35.16
332.989	-11.95
333.202	61.78
333.414	0.34
333.627	100.69
333.84	39.25
334.053	10.58
334.265	12.63
334.478	20.82
334.691	108.88
334.903	26.96
335.116	6.49
335.329	47.44
335.541	-5.8
335.754	-57
335.966	-24.23
336.179	76.12
336.392	-20.14
336.604	41.3
336.817	4.44
337.029	-30.38
337.242	24.92
337.454	2.39
337.667	-5.8
337.88	16.73
338.092	61.78
338.305	33.11
338.517	35.16
338.729	80.21
338.942	-7.85
339.154	10.58
339.367	14.68
339.579	88.4
339.792	-28.33
340.004	4.44
340.217	-13.99
340.429	41.3
340.641	0.34
340.854	14.68
341.066	57.68
341.278	41.3
341.491	37.2
341.703	26.96
341.915	20.82
342.128	31.06
342.34	-3.75
342.552	-7.85
342.764	47.44
342.977	-18.09
343.189	57.68
343.401	119.12
343.613	43.35
343.826	41.3
344.038	43.35
344.25	14.68
344.462	-9.9
344.674	-24.23
344.886	33.11
345.099	43.35
345.311	16.73
345.523	92.5
345.735	-108.2
345.947	4.44
346.159	-11.95
346.371	6.49
346.583	29.01
346.795	69.97
347.007	-28.33
347.219	47.44
347.431	4.44
347.643	35.16
347.855	6.49
348.067	24.92
348.279	-30.38
348.491	61.78
348.703	12.63
348.915	29.01
349.127	59.73
349.339	61.78
349.551	-13.99
349.763	26.96
349.975	59.73
350.187	31.06
350.399	49.49
350.61	20.82
350.822	16.73
351.034	20.82
351.246	72.02
351.458	18.77
351.669	65.88
351.881	-18.09
352.093	-1.71
352.305	-9.9
352.517	2.39
352.728	14.68
352.94	2.39
353.152	37.2
353.363	0.34
353.575	-3.75
353.787	74.07
353.999	-11.95
354.21	45.4
354.422	-9.9
354.633	-16.04
354.845	6.49
355.057	84.31
355.268	-20.14
355.48	63.83
355.692	6.49
355.903	139.6
356.115	-9.9
356.326	47.44
356.538	98.64
356.749	22.87
356.961	59.73
357.172	69.97
357.384	117.08
357.595	-5.8
357.807	74.07
358.018	80.21
358.23	37.2
358.441	-11.95
358.653	45.4
358.864	37.2
359.075	43.35
359.287	94.55
359.498	-7.85
359.709	90.45
359.921	0.34
360.132	31.06
360.344	80.21
360.555	2.39
360.766	37.2
360.977	43.35
361.189	63.83
361.4	-3.75
361.611	-18.09
361.823	24.92
362.034	53.59
362.245	-46.76
362.456	49.49
362.667	-50.86
362.879	35.16
363.09	49.49
363.301	12.63
363.512	-20.14
363.723	22.87
363.935	2.39
364.146	14.68
364.357	-57
364.568	31.06
364.779	-3.75
364.99	100.69
365.201	24.92
365.412	18.77
365.623	-40.62
365.834	-42.67
366.045	-5.8
366.256	-18.09
366.467	63.83
366.678	35.16
366.889	104.79
367.1	100.69
367.311	76.12
367.522	20.82
367.733	67.92
367.944	76.12
368.155	65.88
368.366	18.77
368.577	63.83
368.788	92.5
368.999	22.87
369.209	8.53
369.42	-9.9
369.631	49.49
369.842	104.79
370.053	-54.95
370.264	51.54
370.474	-38.57
370.685	14.68
370.896	22.87
371.107	2.39
371.317	49.49
371.528	26.96
371.739	98.64
371.95	24.92
372.16	-42.67
372.371	-28.33
372.582	43.35
372.792	72.02
373.003	-77.48
373.214	39.25
373.424	57.68
373.635	69.97
373.846	53.59
374.056	84.31
374.267	18.77
374.477	-18.09
374.688	31.06
374.898	-18.09
375.109	-7.85
375.319	16.73
375.53	35.16
375.74	37.2
375.951	6.49
376.161	74.07
376.372	72.02
376.582	110.93
376.793	20.82
377.003	-3.75
377.214	39.25
377.424	-18.09
377.635	-50.86
377.845	8.53
378.055	76.12
378.266	2.39
378.476	2.39
378.686	45.4
378.897	53.59
379.107	61.78
379.317	82.26
379.528	12.63
379.738	47.44
379.948	86.36
380.158	26.96
380.369	16.73
380.579	-9.9
380.789	20.82
380.999	26.96
381.21	98.64
381.42	57.68
381.63	33.11
381.84	55.64
382.05	4.44
382.261	76.12
382.471	59.73
382.681	14.68
382.891	108.88
383.101	51.54
383.311	-34.47
383.521	55.64
383.731	92.5
383.941	115.03
384.151	37.2
384.361	-11.95
384.571	63.83
384.781	78.16
384.991	96.6
385.201	123.22
385.411	67.92
385.621	63.83
385.831	18.77
386.041	20.82
386.251	22.87
386.461	53.59
386.671	63.83
386.881	0.34
387.091	92.5
387.301	80.21
387.511	123.22
387.72	16.73
387.93	8.53
388.14	2.39
388.35	112.98
388.56	51.54
388.769	6.49
388.979	51.54
389.189	2.39
389.399	24.92
389.609	108.88
389.818	61.78
390.028	39.25
390.238	96.6
390.447	2.39
390.657	94.55
390.867	53.59
391.076	-26.28
391.286	-22.19
391.496	74.07
391.705	14.68
391.915	104.79
392.125	78.16
392.334	10.58
392.544	98.64
392.753	51.54
392.963	2.39
393.172	65.88
393.382	72.02
393.591	37.2
393.801	47.44
394.01	74.07
394.22	-20.14
394.429	45.4
394.639	55.64
394.848	76.12
395.058	18.77
395.267	82.26
395.477	61.78
395.686	84.31
395.895	98.64
396.105	88.4
396.314	59.73
396.524	29.01
396.733	110.93
396.942	94.55
397.152	63.83
397.361	65.88
397.57	55.64
397.78	39.25
397.989	72.02
398.198	112.98
398.407	12.63
398.617	16.73
398.826	59.73
399.035	90.45
399.244	-71.34
399.453	96.6
399.663	-30.38
399.872	80.21
400.081	78.16
400.29	139.6
400.499	45.4
400.708	110.93
400.917	108.88
401.127	35.16
401.336	14.68
401.545	78.16
401.754	59.73
401.963	104.79
402.172	47.44
402.381	35.16
402.59	80.21
402.799	78.16
403.008	108.88
403.217	72.02
403.426	69.97
403.635	29.01
403.844	-5.8
404.053	53.59
404.262	59.73
404.471	127.32
404.68	65.88
404.888	108.88
405.097	104.79
405.306	51.54
405.515	41.3
405.724	102.74
405.933	127.32
406.142	129.36
406.35	117.08
406.559	94.55
406.768	102.74
406.977	145.75
407.185	182.61
407.394	92.5
407.603	133.46
407.812	98.64
408.02	151.89
408.229	158.03
408.438	125.27
408.646	174.42
408.855	86.36
409.064	135.51
409.272	129.36
409.481	260.43
409.69	227.67
409.898	129.36
410.107	174.42
410.315	188.75
410.524	166.23
410.733	205.14
410.941	192.85
411.15	215.38
411.358	248.15
411.567	237.91
411.775	248.15
411.984	250.19
412.192	270.67
412.401	323.92
412.609	260.43
412.818	239.95
413.026	317.78
413.234	307.54
413.443	285.01
413.651	401.74
413.86	332.11
414.068	330.06
414.276	342.35
414.485	387.41
414.693	387.41
414.901	481.61
415.11	373.07
415.318	375.12
415.526	409.94
415.734	469.33
415.943	467.28
416.151	530.77
416.359	475.47
416.567	541.01
416.776	454.99
416.984	553.29
417.192	598.35
417.4	608.59
417.608	520.53
417.817	592.2
418.025	622.92
418.233	678.22
418.441	655.69
418.649	739.66
418.857	770.38
419.065	780.62
419.273	799.05
419.481	844.1
419.689	844.1
419.897	854.34
420.105	850.25
420.313	946.5
420.521	923.98
420.729	934.22
420.937	975.17
421.145	948.55
421.353	1007.94
421.561	1120.58
421.769	1169.73
421.977	1261.89
422.185	1308.99
422.393	1282.37
422.601	1354.05
422.809	1364.29
423.017	1347.9
423.224	1397.06
423.432	1356.1
423.64	1558.85
423.848	1608
424.056	1548.61
424.263	1673.53
424.471	1657.15
424.679	1743.16
424.887	1720.64
425.094	1806.65
425.302	1894.71
425.51	1907
425.718	2097.46
425.925	1982.78
426.133	2099.51
426.341	2199.86
426.548	2335.03
426.756	2345.27
426.964	2279.73
427.171	2517.29
427.379	2349.36
427.586	2525.49
427.794	2672.94
428.001	2718
428.209	2681.13
428.417	2758.96
428.624	3049.77
428.832	3107.11
429.039	3033.38
429.247	3082.53
429.454	3191.08
429.662	3494.18
429.869	3379.49
430.076	3479.84
430.284	3471.65
430.491	3569.95
430.699	3580.19
430.906	3760.41
431.114	3807.52
431.321	4049.18
431.528	4180.25
431.736	4376.85
431.943	4448.53
432.15	4229.4
432.358	4350.23
432.565	4806.92
432.772	4575.5
432.979	4907.27
433.187	5015.82
433.394	5011.72
433.601	5253.38
433.808	5339.4
434.016	5425.41
434.223	5671.17
434.43	5861.63
434.637	5744.89
434.844	6123.77
435.052	6344.95
435.259	6238.45
435.466	6230.26
435.673	6203.64
435.88	6795.5
436.087	6996.2
436.294	6942.96
436.501	6709.49
436.708	6990.06
436.915	7137.51
437.122	7637.22
437.329	7385.32
437.537	7911.64
437.743	7729.38
437.95	7745.76
438.157	8208.6
438.364	8589.52
438.571	8493.27
438.778	8546.51
438.985	9400.52
439.192	8890.57
439.399	9232.58
439.606	9023.69
439.813	9584.84
440.02	10111.16
440.227	9814.21
440.433	9967.81
440.64	10209.47
440.847	9748.67
441.054	10262.71
441.261	11002.03
441.467	10985.65
441.674	11157.68
441.881	11643.04
442.088	11237.55
442.294	11372.71
442.501	11804.83
442.708	11956.38
442.914	12284.06
443.121	13066.38
443.328	12400.79
443.534	13504.65
443.741	12972.18
443.948	12716.18
444.154	13662.34
444.361	13674.63
444.568	13801.6
444.774	13854.85
444.981	13936.77
445.187	14686.33
445.394	15075.44
445.6	15073.39
445.807	16205.92
446.013	15792.23
446.22	15976.55
446.426	16590.94
446.633	16810.07
446.839	17199.18
447.046	16445.53
447.252	17234
447.459	17797.19
447.665	17528.91
447.871	18055.23
448.078	18915.38
448.284	18309.18
448.491	18368.57
448.697	19251.25
448.903	19591.21
449.11	19529.77
449.316	19238.96
449.522	19755.05
449.728	20592.67
449.935	20590.62
450.141	20240.42
450.347	20580.38
450.553	20240.42
450.76	20631.58
450.966	21014.55
451.172	20664.35
451.378	21526.54
451.584	20858.9
451.791	21649.42
451.997	21491.73
452.203	21897.22
452.409	22173.7
452.615	21819.4
452.821	20996.12
453.027	20619.29
453.233	21872.65
453.44	20910.1
453.646	21356.56
453.852	21491.73
454.058	21731.34
454.264	20930.58
454.47	21571.6
454.676	21119
454.882	21694.47
455.088	19834.92
455.294	20332.58
455.5	20545.56
455.705	20588.57
455.911	19863.59
456.117	19611.69
456.323	19339.31
456.529	18303.04
456.735	18942
456.941	18522.17
457.147	18116.67
457.352	17647.69
457.558	17459.27
457.764	17778.76
457.97	17238.09
458.176	16861.27
458.381	16844.88
458.587	16103.52
458.793	16423
458.999	15128.69
459.204	16445.53
459.41	15968.35
459.616	14841.97
459.821	14796.92
460.027	14669.94
460.233	14434.43
460.438	13543.56
460.644	13670.53
460.85	13150.35
461.055	12961.94
461.261	13072.53
461.466	12312.73
461.672	11522.21
461.878	12427.42
462.083	11753.63
462.289	11442.34
462.494	11317.42
462.7	10899.63
462.905	10469.56
463.111	10963.12
463.316	11100.33
463.522	10737.84
463.727	10526.9
463.932	10653.87
464.138	10561.72
464.343	10631.35
464.549	10332.34
464.754	10780.85
464.959	10537.14
465.165	10401.97
465.37	10043.58
465.575	9906.37
465.781	10150.07
465.986	10401.97
466.191	9826.5
466.397	9586.88
466.602	9330.89
466.807	9496.77
467.012	9402.57
467.218	9369.8
467.423	9318.6
467.628	9425.09
467.833	9826.5
468.038	9382.09
468.244	9197.77
468.449	9451.72
468.654	9236.68
