Data from USB4F104151__43__11-51-48-467.txt Node

Date: Fri Mar 14 11:51:48 EDT 2025
User: louis
Spectrometer: USB4F10415
Trigger mode: 4
Integration Time (sec): 2.000000E-2
Scans to average: 1
Electric dark correction enabled: true
Nonlinearity correction enabled: false
Boxcar width: 0
XAxis mode: Wavelengths
Number of Pixels in Spectrum: 3648
>>>>>Begin Spectral Data<<<<<
178.204	-90.62
178.424	-90.62
178.644	-90.62
178.864	-61.95
179.084	-145.92
179.304	-35.33
179.524	-8.7
179.744	-61.95
179.964	1.54
180.184	7.68
180.404	65.02
180.624	24.06
180.844	-27.14
181.064	17.92
181.283	44.54
181.503	-33.28
181.723	5.63
181.943	-6.66
182.163	13.82
182.383	24.06
182.602	65.02
182.822	28.16
183.042	-14.85
183.262	-25.09
183.482	3.58
183.701	-0.51
183.921	-14.85
184.141	36.35
184.361	-20.99
184.58	-27.14
184.8	-6.66
185.02	19.97
185.239	-23.04
185.459	-12.8
185.679	-12.8
185.898	-78.33
186.118	30.21
186.338	11.78
186.557	-0.51
186.777	1.54
186.997	-43.52
187.216	32.26
187.436	40.45
187.655	-20.99
187.875	73.21
188.095	-2.56
188.314	5.63
188.534	65.02
188.753	-29.18
188.973	11.78
189.192	-39.42
189.412	48.64
189.631	-20.99
189.851	17.92
190.07	65.02
190.29	69.12
190.509	26.11
190.729	75.26
190.948	-25.09
191.168	11.78
191.387	22.02
191.607	13.82
191.826	-10.75
192.045	-117.25
192.265	56.83
192.484	24.06
192.704	38.4
192.923	7.68
193.142	99.84
193.362	-14.85
193.581	38.4
193.8	-31.23
194.02	11.78
194.239	1.54
194.458	-64
194.678	1.54
194.897	46.59
195.116	52.74
195.335	7.68
195.555	-37.38
195.774	-2.56
195.993	28.16
196.212	5.63
196.432	-2.56
196.651	11.78
196.87	79.36
197.089	26.11
197.308	-29.18
197.528	5.63
197.747	-47.62
197.966	-6.66
198.185	-31.23
198.404	-27.14
198.623	9.73
198.842	-8.7
199.062	22.02
199.281	15.87
199.5	-82.43
199.719	1.54
199.938	17.92
200.157	44.54
200.376	-0.51
200.595	60.93
200.814	1.54
201.033	-39.42
201.252	-31.23
201.471	-43.52
201.69	28.16
201.909	48.64
202.128	50.69
202.347	56.83
202.566	13.82
202.785	-33.28
203.004	22.02
203.223	28.16
203.442	11.78
203.661	-27.14
203.879	5.63
204.098	-35.33
204.317	-25.09
204.536	38.4
204.755	-41.47
204.974	-25.09
205.193	40.45
205.411	22.02
205.63	-64
205.849	28.16
206.068	13.82
206.287	9.73
206.505	5.63
206.724	-70.14
206.943	-68.09
207.162	-2.56
207.381	5.63
207.599	34.3
207.818	-51.71
208.037	28.16
208.255	26.11
208.474	69.12
208.693	40.45
208.911	-23.04
209.13	-27.14
209.349	48.64
209.567	34.3
209.786	105.98
210.005	38.4
210.223	-2.56
210.442	-0.51
210.661	-35.33
210.879	28.16
211.098	-10.75
211.316	-0.51
211.535	65.02
211.753	-29.18
211.972	56.83
212.191	65.02
212.409	42.5
212.628	-35.33
212.846	38.4
213.065	22.02
213.283	26.11
213.502	-25.09
213.72	-4.61
213.938	-20.99
214.157	62.98
214.375	-12.8
214.594	-16.9
214.812	17.92
215.031	-8.7
215.249	-66.05
215.467	11.78
215.686	-41.47
215.904	26.11
216.122	95.74
216.341	-27.14
216.559	9.73
216.778	15.87
216.996	38.4
217.214	11.78
217.432	13.82
217.651	15.87
217.869	11.78
218.087	58.88
218.306	28.16
218.524	9.73
218.742	48.64
218.96	-18.94
219.179	-51.71
219.397	-4.61
219.615	75.26
219.833	46.59
220.051	30.21
220.27	19.97
220.488	79.36
220.706	22.02
220.924	-39.42
221.142	19.97
221.36	56.83
221.578	-10.75
221.796	22.02
222.015	17.92
222.233	9.73
222.451	26.11
222.669	-29.18
222.887	-61.95
223.105	9.73
223.323	-16.9
223.541	67.07
223.759	108.03
223.977	5.63
224.195	67.07
224.413	-90.62
224.631	62.98
224.849	15.87
225.067	-47.62
225.285	3.58
225.503	-12.8
225.721	-20.99
225.939	-6.66
226.157	58.88
226.375	24.06
226.592	7.68
226.81	-0.51
227.028	69.12
227.246	-29.18
227.464	5.63
227.682	34.3
227.9	17.92
228.117	-25.09
228.335	77.31
228.553	26.11
228.771	-33.28
228.989	26.11
229.206	15.87
229.424	36.35
229.642	40.45
229.86	56.83
230.077	-6.66
230.295	77.31
230.513	34.3
230.731	48.64
230.948	-64
231.166	85.5
231.384	46.59
231.601	42.5
231.819	50.69
232.037	13.82
232.254	17.92
232.472	38.4
232.689	48.64
232.907	79.36
233.125	15.87
233.342	-74.24
233.56	-16.9
233.777	-68.09
233.995	-16.9
234.213	65.02
234.43	-37.38
234.648	9.73
234.865	42.5
235.083	128.51
235.3	22.02
235.518	-12.8
235.735	48.64
235.953	-10.75
236.17	-37.38
236.388	-27.14
236.605	81.41
236.822	-39.42
237.04	17.92
237.257	79.36
237.475	36.35
237.692	52.74
237.909	-31.23
238.127	-45.57
238.344	22.02
238.562	28.16
238.779	3.58
238.996	44.54
239.214	32.26
239.431	13.82
239.648	7.68
239.865	32.26
240.083	83.45
240.3	71.17
240.517	-33.28
240.735	-14.85
240.952	24.06
241.169	-2.56
241.386	42.5
241.603	36.35
241.821	5.63
242.038	-47.62
242.255	50.69
242.472	-2.56
242.689	-4.61
242.907	99.84
243.124	36.35
243.341	67.07
243.558	-14.85
243.775	11.78
243.992	-18.94
244.209	71.17
244.426	44.54
244.643	-12.8
244.86	-8.7
245.078	-10.75
245.295	77.31
245.512	-20.99
245.729	7.68
245.946	87.55
246.163	44.54
246.38	-23.04
246.597	-8.7
246.814	-43.52
247.031	1.54
247.248	5.63
247.464	46.59
247.681	7.68
247.898	3.58
248.115	36.35
248.332	34.3
248.549	65.02
248.766	32.26
248.983	-2.56
249.2	3.58
249.417	-18.94
249.633	-16.9
249.85	69.12
250.067	-25.09
250.284	-10.75
250.501	60.93
250.717	103.93
250.934	7.68
251.151	-8.7
251.368	13.82
251.585	42.5
251.801	79.36
252.018	60.93
252.235	24.06
252.451	62.98
252.668	-25.09
252.885	28.16
253.102	-14.85
253.318	30.21
253.535	13.82
253.752	-84.48
253.968	1.54
254.185	-18.94
254.401	-61.95
254.618	13.82
254.835	-18.94
255.051	65.02
255.268	36.35
255.484	17.92
255.701	44.54
255.917	-39.42
256.134	-8.7
256.351	34.3
256.567	-6.66
256.784	50.69
257	-29.18
257.217	77.31
257.433	56.83
257.65	-39.42
257.866	34.3
258.082	9.73
258.299	28.16
258.515	9.73
258.732	71.17
258.948	1.54
259.165	-6.66
259.381	7.68
259.597	-41.47
259.814	44.54
260.03	-35.33
260.246	-4.61
260.463	91.65
260.679	-0.51
260.895	36.35
261.112	34.3
261.328	13.82
261.544	3.58
261.761	81.41
261.977	56.83
262.193	28.16
262.409	-4.61
262.626	11.78
262.842	7.68
263.058	5.63
263.274	93.69
263.49	46.59
263.707	19.97
263.923	13.82
264.139	-70.14
264.355	3.58
264.571	81.41
264.787	-6.66
265.004	28.16
265.22	36.35
265.436	-10.75
265.652	40.45
265.868	-10.75
266.084	50.69
266.3	13.82
266.516	69.12
266.732	-59.9
266.948	9.73
267.164	-72.19
267.38	83.45
267.596	60.93
267.812	50.69
268.028	24.06
268.244	34.3
268.46	17.92
268.676	30.21
268.892	36.35
269.108	9.73
269.324	54.78
269.54	-10.75
269.756	-12.8
269.972	7.68
270.188	38.4
270.403	-43.52
270.619	-31.23
270.835	-4.61
271.051	-27.14
271.267	13.82
271.483	54.78
271.698	42.5
271.914	19.97
272.13	-2.56
272.346	34.3
272.562	5.63
272.777	-25.09
272.993	-23.04
273.209	-45.57
273.425	-0.51
273.64	-39.42
273.856	34.3
274.072	46.59
274.287	-6.66
274.503	24.06
274.719	11.78
274.934	9.73
275.15	-12.8
275.366	-14.85
275.581	-49.66
275.797	-27.14
276.012	22.02
276.228	-88.57
276.444	9.73
276.659	77.31
276.875	1.54
277.09	-8.7
277.306	-16.9
277.521	17.92
277.737	11.78
277.952	34.3
278.168	22.02
278.383	5.63
278.599	26.11
278.814	-27.14
279.03	79.36
279.245	9.73
279.461	48.64
279.676	24.06
279.892	24.06
280.107	30.21
280.322	-41.47
280.538	7.68
280.753	13.82
280.969	-35.33
281.184	50.69
281.399	11.78
281.615	-6.66
281.83	54.78
282.045	19.97
282.26	-10.75
282.476	60.93
282.691	11.78
282.906	32.26
283.122	-0.51
283.337	-29.18
283.552	19.97
283.767	-6.66
283.983	42.5
284.198	9.73
284.413	13.82
284.628	1.54
284.843	54.78
285.058	-25.09
285.274	-10.75
285.489	-90.62
285.704	32.26
285.919	-18.94
286.134	54.78
286.349	36.35
286.564	19.97
286.779	93.69
286.995	34.3
287.21	-78.33
287.425	-0.51
287.64	40.45
287.855	52.74
288.07	13.82
288.285	19.97
288.5	-2.56
288.715	-16.9
288.93	30.21
289.145	15.87
289.36	-45.57
289.575	32.26
289.79	7.68
290.004	-18.94
290.219	-29.18
290.434	26.11
290.649	-12.8
290.864	75.26
291.079	1.54
291.294	-10.75
291.509	-76.29
291.724	-16.9
291.938	19.97
292.153	-64
292.368	13.82
292.583	28.16
292.798	40.45
293.012	-0.51
293.227	44.54
293.442	11.78
293.657	-12.8
293.871	81.41
294.086	3.58
294.301	65.02
294.516	79.36
294.73	-20.99
294.945	34.3
295.16	-18.94
295.374	-12.8
295.589	30.21
295.804	-47.62
296.018	9.73
296.233	-45.57
296.447	26.11
296.662	36.35
296.877	-4.61
297.091	24.06
297.306	48.64
297.52	-23.04
297.735	-33.28
297.949	34.3
298.164	3.58
298.378	58.88
298.593	-8.7
298.807	5.63
299.022	15.87
299.236	32.26
299.451	42.5
299.665	28.16
299.88	19.97
300.094	-10.75
300.309	-53.76
300.523	54.78
300.737	54.78
300.952	67.07
301.166	-4.61
301.381	-98.81
301.595	67.07
301.809	-33.28
302.024	19.97
302.238	42.5
302.452	75.26
302.667	-20.99
302.881	116.22
303.095	7.68
303.309	32.26
303.524	87.55
303.738	-25.09
303.952	34.3
304.166	-59.9
304.381	-47.62
304.595	30.21
304.809	58.88
305.023	38.4
305.237	1.54
305.452	5.63
305.666	44.54
305.88	19.97
306.094	36.35
306.308	-68.09
306.522	1.54
306.736	7.68
306.95	38.4
307.164	-2.56
307.379	-70.14
307.593	44.54
307.807	-0.51
308.021	85.5
308.235	52.74
308.449	11.78
308.663	11.78
308.877	54.78
309.091	28.16
309.305	62.98
309.519	32.26
309.733	48.64
309.947	-16.9
310.161	-37.38
310.374	1.54
310.588	-2.56
310.802	28.16
311.016	36.35
311.23	-16.9
311.444	-14.85
311.658	67.07
311.872	-14.85
312.085	81.41
312.299	52.74
312.513	15.87
312.727	30.21
312.941	9.73
313.154	28.16
313.368	-8.7
313.582	15.87
313.796	44.54
314.009	-2.56
314.223	32.26
314.437	-37.38
314.651	69.12
314.864	11.78
315.078	5.63
315.292	44.54
315.505	-35.33
315.719	46.59
315.933	56.83
316.146	60.93
316.36	-55.81
316.573	50.69
316.787	48.64
317.001	-23.04
317.214	13.82
317.428	-2.56
317.641	-29.18
317.855	-4.61
318.068	26.11
318.282	-8.7
318.495	-16.9
318.709	30.21
318.922	40.45
319.136	69.12
319.349	-0.51
319.563	3.58
319.776	-37.38
319.99	48.64
320.203	48.64
320.417	71.17
320.63	38.4
320.843	-4.61
321.057	11.78
321.27	30.21
321.483	22.02
321.697	38.4
321.91	-25.09
322.124	105.98
322.337	1.54
322.55	-41.47
322.763	50.69
322.977	-20.99
323.19	11.78
323.403	-0.51
323.617	36.35
323.83	50.69
324.043	-25.09
324.256	-18.94
324.469	52.74
324.683	89.6
324.896	-53.76
325.109	50.69
325.322	9.73
325.535	38.4
325.748	34.3
325.962	42.5
326.175	-33.28
326.388	-29.18
326.601	3.58
326.814	9.73
327.027	-2.56
327.24	91.65
327.453	-16.9
327.666	-0.51
327.879	42.5
328.092	13.82
328.305	19.97
328.518	-0.51
328.731	15.87
328.944	-12.8
329.157	19.97
329.37	65.02
329.583	50.69
329.796	67.07
330.009	-10.75
330.222	75.26
330.435	-27.14
330.648	22.02
330.861	67.07
331.073	9.73
331.286	34.3
331.499	60.93
331.712	-35.33
331.925	-8.7
332.138	69.12
332.35	48.64
332.563	-25.09
332.776	52.74
332.989	-4.61
333.202	38.4
333.414	79.36
333.627	11.78
333.84	1.54
334.053	28.16
334.265	67.07
334.478	-8.7
334.691	-0.51
334.903	9.73
335.116	9.73
335.329	9.73
335.541	60.93
335.754	-12.8
335.966	13.82
336.179	48.64
336.392	-18.94
336.604	-12.8
336.817	36.35
337.029	11.78
337.242	-0.51
337.454	24.06
337.667	19.97
337.88	-31.23
338.092	93.69
338.305	28.16
338.517	-8.7
338.729	-66.05
338.942	52.74
339.154	103.93
339.367	40.45
339.579	65.02
339.792	24.06
340.004	-14.85
340.217	1.54
340.429	44.54
340.641	17.92
340.854	60.93
341.066	-10.75
341.278	26.11
341.491	28.16
341.703	58.88
341.915	-27.14
342.128	17.92
342.34	83.45
342.552	24.06
342.764	71.17
342.977	75.26
343.189	-16.9
343.401	38.4
343.613	32.26
343.826	58.88
344.038	69.12
344.25	28.16
344.462	-2.56
344.674	5.63
344.886	65.02
345.099	56.83
345.311	81.41
345.523	19.97
345.735	32.26
345.947	-10.75
346.159	-43.52
346.371	9.73
346.583	26.11
346.795	26.11
347.007	-18.94
347.219	26.11
347.431	-12.8
347.643	30.21
347.855	-29.18
348.067	36.35
348.279	38.4
348.491	42.5
348.703	85.5
348.915	-27.14
349.127	13.82
349.339	42.5
349.551	24.06
349.763	-0.51
349.975	46.59
350.187	62.98
350.399	5.63
350.61	-4.61
350.822	19.97
351.034	7.68
351.246	17.92
351.458	69.12
351.669	7.68
351.881	79.36
352.093	-4.61
352.305	26.11
352.517	-4.61
352.728	34.3
352.94	38.4
353.152	7.68
353.363	-12.8
353.575	30.21
353.787	48.64
353.999	-8.7
354.21	22.02
354.422	71.17
354.633	34.3
354.845	34.3
355.057	58.88
355.268	28.16
355.48	60.93
355.692	69.12
355.903	-25.09
356.115	62.98
356.326	5.63
356.538	87.55
356.749	22.02
356.961	73.21
357.172	9.73
357.384	11.78
357.595	77.31
357.807	60.93
358.018	-102.91
358.23	-27.14
358.441	71.17
358.653	130.56
358.864	7.68
359.075	38.4
359.287	7.68
359.498	60.93
359.709	11.78
359.921	3.58
360.132	44.54
360.344	-6.66
360.555	-2.56
360.766	-10.75
360.977	34.3
361.189	22.02
361.4	30.21
361.611	93.69
361.823	-45.57
362.034	44.54
362.245	-16.9
362.456	24.06
362.667	42.5
362.879	9.73
363.09	-16.9
363.301	54.78
363.512	11.78
363.723	34.3
363.935	-18.94
364.146	71.17
364.357	54.78
364.568	89.6
364.779	22.02
364.99	77.31
365.201	32.26
365.412	28.16
365.623	22.02
365.834	42.5
366.045	-37.38
366.256	52.74
366.467	22.02
366.678	38.4
366.889	-16.9
367.1	44.54
367.311	73.21
367.522	38.4
367.733	-55.81
367.944	-18.94
368.155	42.5
368.366	24.06
368.577	5.63
368.788	-59.9
368.999	116.22
369.209	17.92
369.42	153.09
369.631	28.16
369.842	13.82
370.053	54.78
370.264	26.11
370.474	26.11
370.685	32.26
370.896	42.5
371.107	34.3
371.317	42.5
371.528	-92.67
371.739	19.97
371.95	-6.66
372.16	30.21
372.371	34.3
372.582	-20.99
372.792	1.54
373.003	62.98
373.214	134.65
373.424	105.98
373.635	-12.8
373.846	30.21
374.056	67.07
374.267	9.73
374.477	46.59
374.688	42.5
374.898	3.58
375.109	36.35
375.319	28.16
375.53	54.78
375.74	26.11
375.951	58.88
376.161	-43.52
376.372	15.87
376.582	24.06
376.793	17.92
377.003	-47.62
377.214	22.02
377.424	5.63
377.635	71.17
377.845	1.54
378.055	60.93
378.266	17.92
378.476	28.16
378.686	-16.9
378.897	32.26
379.107	-57.86
379.317	54.78
379.528	42.5
379.738	73.21
379.948	9.73
380.158	38.4
380.369	26.11
380.579	62.98
380.789	7.68
380.999	97.79
381.21	22.02
381.42	38.4
381.63	65.02
381.84	75.26
382.05	112.13
382.261	-23.04
382.471	-4.61
382.681	-35.33
382.891	93.69
383.101	-6.66
383.311	7.68
383.521	54.78
383.731	99.84
383.941	32.26
384.151	105.98
384.361	71.17
384.571	26.11
384.781	38.4
384.991	79.36
385.201	26.11
385.411	50.69
385.621	11.78
385.831	138.75
386.041	17.92
386.251	32.26
386.461	24.06
386.671	-16.9
386.881	36.35
387.091	56.83
387.301	-12.8
387.511	5.63
387.72	7.68
387.93	26.11
388.14	-16.9
388.35	7.68
388.56	62.98
388.769	48.64
388.979	87.55
389.189	89.6
389.399	30.21
389.609	97.79
389.818	52.74
390.028	50.69
390.238	93.69
390.447	17.92
390.657	46.59
390.867	15.87
391.076	-29.18
391.286	-8.7
391.496	73.21
391.705	58.88
391.915	83.45
392.125	132.61
392.334	-39.42
392.544	169.47
392.753	-2.56
392.963	28.16
393.172	69.12
393.382	58.88
393.591	67.07
393.801	-18.94
394.01	60.93
394.22	32.26
394.429	101.89
394.639	48.64
394.848	62.98
395.058	5.63
395.267	138.75
395.477	75.26
395.686	62.98
395.895	89.6
396.105	159.23
396.314	124.41
396.524	83.45
396.733	81.41
396.942	136.7
397.152	40.45
397.361	95.74
397.57	89.6
397.78	79.36
397.989	91.65
398.198	17.92
398.407	-4.61
398.617	108.03
398.826	105.98
399.035	-14.85
399.244	163.33
399.453	71.17
399.663	28.16
399.872	60.93
400.081	28.16
400.29	138.75
400.499	75.26
400.708	50.69
400.917	-4.61
401.127	116.22
401.336	97.79
401.545	146.94
401.754	103.93
401.963	17.92
402.172	46.59
402.381	85.5
402.59	122.37
402.799	101.89
403.008	183.81
403.217	118.27
403.426	91.65
403.635	144.89
403.844	126.46
404.053	91.65
404.262	81.41
404.471	155.13
404.68	67.07
404.888	99.84
405.097	122.37
405.306	116.22
405.515	79.36
405.724	73.21
405.933	187.9
406.142	153.09
406.35	126.46
406.559	67.07
406.768	142.85
406.977	134.65
407.185	228.86
407.394	247.29
407.603	198.14
407.812	140.8
408.02	167.42
408.229	161.28
408.438	112.13
408.646	95.74
408.855	132.61
409.064	208.38
409.272	259.58
409.481	183.81
409.69	216.57
409.898	237.05
410.107	243.2
410.315	255.48
410.524	251.39
410.733	253.44
410.941	310.78
411.15	267.77
411.358	343.55
411.567	300.54
411.775	323.07
411.984	323.07
412.192	353.79
412.401	343.55
412.609	366.07
412.818	370.17
413.026	402.94
413.234	411.13
413.443	392.7
413.651	331.26
413.86	382.46
414.068	491
414.276	484.86
414.485	458.23
414.693	544.25
414.901	540.15
415.11	523.77
415.318	579.06
415.526	503.29
415.734	630.26
415.943	597.49
416.151	691.7
416.359	548.34
416.567	593.4
416.776	706.04
416.984	722.42
417.192	787.96
417.4	781.81
417.608	738.8
417.817	849.4
418.025	894.45
418.233	900.59
418.441	871.92
418.649	873.97
418.857	992.75
419.065	1000.94
419.273	962.03
419.481	1023.47
419.689	1134.06
419.897	1179.12
420.105	1211.89
420.313	1170.93
420.521	1328.62
420.729	1269.23
420.937	1388.01
421.145	1420.78
421.353	1328.62
421.561	1447.4
421.769	1564.14
421.977	1535.46
422.185	1627.62
422.393	1727.97
422.601	1805.8
422.809	1750.5
423.017	1805.8
423.224	1828.32
423.432	1963.49
423.64	1971.68
423.848	2127.33
424.056	2074.08
424.263	2231.77
424.471	2313.69
424.679	2211.29
424.887	2426.33
425.094	2446.81
425.302	2518.49
425.51	2598.36
425.718	2633.18
425.925	2719.19
426.133	2745.81
426.341	2999.76
426.548	3114.45
426.756	3196.37
426.964	3188.18
427.171	3227.09
427.379	3372.49
427.586	3481.03
427.794	3636.68
428.001	3651.02
428.209	3927.49
428.417	3872.2
428.624	4027.84
428.832	4130.24
429.039	4124.1
429.247	4019.65
429.454	4568.51
429.662	4709.82
429.869	4433.34
430.076	4865.46
430.284	4666.81
430.491	4926.9
430.699	5047.73
430.906	5156.27
431.114	5082.55
431.321	5359.02
431.528	5420.46
431.736	6018.47
431.943	6102.43
432.15	5828.01
432.358	5993.89
432.565	6393.25
432.772	6256.03
432.979	6626.71
433.187	6643.1
433.394	6704.54
433.601	7249.3
433.808	7194
434.016	7030.16
434.223	7411.09
434.43	8174.98
434.637	7767.43
434.844	8232.32
435.052	8328.58
435.259	8383.87
435.466	8560
435.673	8267.14
435.88	8938.87
436.087	9424.24
436.294	9436.53
436.501	9250.16
436.708	9414
436.915	9674.09
437.122	10153.32
437.329	10212.71
437.537	10497.38
437.743	10433.89
437.95	10655.07
438.157	11130.2
438.364	11402.58
438.571	11507.02
438.778	11543.89
438.985	12559.68
439.192	12129.61
439.399	12635.46
439.606	12272.96
439.813	12907.84
440.02	13507.89
440.227	13634.86
440.433	13462.83
440.64	13991.21
440.847	13714.73
441.054	14193.96
441.261	14966.04
441.467	14976.28
441.674	15123.74
441.881	15752.46
442.088	15631.63
442.294	15582.48
442.501	16080.14
442.708	16073.99
442.914	16751.87
443.121	17784.05
443.328	17308.92
443.534	18552.04
443.741	17929.45
443.948	17560.82
444.154	18715.87
444.361	18642.15
444.568	18760.93
444.774	18992.35
444.981	19277.02
445.187	19791.06
445.394	20589.77
445.6	20178.12
445.807	22199.47
446.013	21421.24
446.22	21806.26
446.426	22527.14
446.633	22910.11
446.839	23489.69
447.046	22387.88
447.252	23809.17
447.459	23798.93
447.665	23614.62
447.871	24433.8
448.078	25900.15
448.284	24775.81
448.491	25506.94
448.697	26371.18
448.903	26850.41
449.11	27108.45
449.316	26668.14
449.522	27038.82
449.728	27753.56
449.935	27853.91
450.141	28083.28
450.347	28546.12
450.553	27616.35
450.76	28116.05
450.966	28838.98
451.172	28752.97
451.378	29656.12
451.584	29045.83
451.791	29766.71
451.997	29729.85
452.203	30020.66
452.409	29987.89
452.615	29901.88
452.821	28879.94
453.027	28673.1
453.233	29975.61
453.44	28941.38
453.646	29334.59
453.852	29355.07
454.058	29715.51
454.264	28773.45
454.47	29512.77
454.676	28615.76
454.882	29447.23
455.088	27135.07
455.294	27911.25
455.5	28066.9
455.705	28185.68
455.911	27284.58
456.117	26618.99
456.323	26266.74
456.529	25035.91
456.735	25990.26
456.941	25570.43
457.147	24747.14
457.352	24249.49
457.558	24056.98
457.764	23841.94
457.97	23475.35
458.176	23055.52
458.381	23264.41
458.587	21949.62
458.793	21793.97
458.999	20999.36
459.204	22310.06
459.41	21826.74
459.616	20409.54
459.821	20454.6
460.027	20475.08
460.233	19758.29
460.438	18828.51
460.644	19090.65
460.85	17894.64
461.055	17843.44
461.261	17743.09
461.466	16336.13
461.672	15957.26
461.878	17036.54
462.083	16094.47
462.289	15758.61
462.494	15693.07
462.7	15009.05
462.905	14624.03
463.111	14910.75
463.316	15148.31
463.522	14935.32
463.727	14820.64
463.932	14851.36
464.138	14691.62
464.343	14454.05
464.549	14337.32
464.754	14677.28
464.959	14576.93
465.165	14327.08
465.37	13804.85
465.575	13391.16
465.781	14050.6
465.986	14150.95
466.191	13544.75
466.397	13389.11
466.602	12555.58
466.807	13118.78
467.012	13083.96
467.218	13016.38
467.423	12793.15
467.628	12920.12
467.833	13647.15
468.038	12952.89
468.244	12592.45
