Data from USB4F104151__35__11-51-40-147.txt Node

Date: Fri Mar 14 11:51:40 EDT 2025
User: louis
Spectrometer: USB4F10415
Trigger mode: 4
Integration Time (sec): 2.000000E-2
Scans to average: 1
Electric dark correction enabled: true
Nonlinearity correction enabled: false
Boxcar width: 0
XAxis mode: Wavelengths
Number of Pixels in Spectrum: 3648
>>>>>Begin Spectral Data<<<<<
178.204	-36.69
178.424	-36.69
178.644	-36.69
178.864	-137.04
179.084	-130.9
179.304	14.51
179.524	24.75
179.744	-63.32
179.964	-40.79
180.184	-18.26
180.404	30.89
180.624	45.23
180.844	6.31
181.064	14.51
181.283	-20.31
181.503	2.22
181.723	4.27
181.943	-32.6
182.163	30.89
182.383	55.47
182.602	96.43
182.822	47.27
183.042	8.36
183.262	28.84
183.482	75.95
183.701	59.56
183.921	12.46
184.141	-26.45
184.361	45.23
184.58	-10.07
184.8	47.27
185.02	57.51
185.239	63.66
185.459	57.51
185.679	8.36
185.898	-34.64
186.118	69.8
186.338	61.61
186.557	-22.36
186.777	-12.12
186.997	-10.07
187.216	-46.93
187.436	10.41
187.655	12.46
187.875	63.66
188.095	-5.97
188.314	26.79
188.534	-30.55
188.753	37.03
188.973	0.17
189.192	53.42
189.412	-24.4
189.631	8.36
189.851	41.13
190.07	-14.17
190.29	24.75
190.509	20.65
190.729	63.66
190.948	86.19
191.168	92.33
191.387	75.95
191.607	-5.97
191.826	-18.26
192.045	-28.5
192.265	0.17
192.484	18.6
192.704	8.36
192.923	-18.26
193.142	47.27
193.362	69.8
193.581	59.56
193.8	8.36
194.02	26.79
194.239	-12.12
194.458	32.94
194.678	-1.88
194.897	39.08
195.116	10.41
195.335	30.89
195.555	43.18
195.774	30.89
195.993	71.85
196.212	-8.02
196.432	61.61
196.651	37.03
196.87	18.6
197.089	86.19
197.308	-36.69
197.528	6.31
197.747	0.17
197.966	24.75
198.185	-8.02
198.404	-1.88
198.623	26.79
198.842	71.85
199.062	12.46
199.281	57.51
199.5	59.56
199.719	-10.07
199.938	45.23
200.157	53.42
200.376	-3.93
200.595	22.7
200.814	41.13
201.033	20.65
201.252	-40.79
201.471	10.41
201.69	8.36
201.909	-22.36
202.128	20.65
202.347	-22.36
202.566	-36.69
202.785	65.71
203.004	-28.5
203.223	59.56
203.442	-10.07
203.661	2.22
203.879	59.56
204.098	102.57
204.317	8.36
204.536	18.6
204.755	39.08
204.974	12.46
205.193	24.75
205.411	90.28
205.63	12.46
205.849	39.08
206.068	39.08
206.287	24.75
206.505	18.6
206.724	57.51
206.943	14.51
207.162	34.99
207.381	32.94
207.599	-38.74
207.818	8.36
208.037	22.7
208.255	39.08
208.474	-20.31
208.693	-20.31
208.911	-32.6
209.13	43.18
209.349	86.19
209.567	-59.22
209.786	-67.41
210.005	100.52
210.223	65.71
210.442	-34.64
210.661	4.27
210.879	67.75
211.098	-20.31
211.316	-32.6
211.535	45.23
211.753	-30.55
211.972	-30.55
212.191	-14.17
212.409	80.04
212.628	-55.12
212.846	-69.46
213.065	-8.02
213.283	98.47
213.502	10.41
213.72	51.37
213.938	-1.88
214.157	-42.84
214.375	37.03
214.594	-26.45
214.812	-26.45
215.031	4.27
215.249	-16.21
215.467	65.71
215.686	-42.84
215.904	26.79
216.122	-10.07
216.341	96.43
216.559	4.27
216.778	32.94
216.996	0.17
217.214	84.14
217.432	-73.56
217.651	30.89
217.869	26.79
218.087	34.99
218.306	-24.4
218.524	82.09
218.742	2.22
218.96	4.27
219.179	6.31
219.397	6.31
219.615	102.57
219.833	49.32
220.051	18.6
220.27	114.86
220.488	34.99
220.706	-5.97
220.924	-24.4
221.142	20.65
221.36	-1.88
221.578	-34.64
221.796	-53.08
222.015	-108.37
222.233	0.17
222.451	43.18
222.669	-10.07
222.887	75.95
223.105	22.7
223.323	69.8
223.541	0.17
223.759	88.23
223.977	43.18
224.195	121
224.413	18.6
224.631	59.56
224.849	41.13
225.067	75.95
225.285	-36.69
225.503	12.46
225.721	-46.93
225.939	37.03
226.157	8.36
226.375	57.51
226.592	12.46
226.81	-10.07
227.028	71.85
227.246	-1.88
227.464	22.7
227.682	51.37
227.9	-59.22
228.117	51.37
228.335	49.32
228.553	14.51
228.771	-44.88
228.989	47.27
229.206	14.51
229.424	-3.93
229.642	-55.12
229.86	-14.17
230.077	86.19
230.295	92.33
230.513	34.99
230.731	90.28
230.948	39.08
231.166	82.09
231.384	73.9
231.601	37.03
231.819	104.62
232.037	-18.26
232.254	6.31
232.472	18.6
232.689	32.94
232.907	-22.36
233.125	-8.02
233.342	26.79
233.56	4.27
233.777	49.32
233.995	-8.02
234.213	86.19
234.43	32.94
234.648	22.7
234.865	77.99
235.083	26.79
235.3	28.84
235.518	45.23
235.735	69.8
235.953	6.31
236.17	69.8
236.388	45.23
236.605	-14.17
236.822	75.95
237.04	51.37
237.257	57.51
237.475	53.42
237.692	0.17
237.909	112.81
238.127	20.65
238.344	22.7
238.562	75.95
238.779	-44.88
238.996	-3.93
239.214	-5.97
239.431	53.42
239.648	49.32
239.865	32.94
240.083	-8.02
240.3	-63.32
240.517	-16.21
240.735	22.7
240.952	112.81
241.169	82.09
241.386	43.18
241.603	24.75
241.821	37.03
242.038	30.89
242.255	47.27
242.472	6.31
242.689	10.41
242.907	32.94
243.124	-24.4
243.341	80.04
243.558	-38.74
243.775	41.13
243.992	-12.12
244.209	53.42
244.426	22.7
244.643	-12.12
244.86	30.89
245.078	-12.12
245.295	65.71
245.512	34.99
245.729	-1.88
245.946	86.19
246.163	-1.88
246.38	-36.69
246.597	73.9
246.814	34.99
247.031	16.55
247.248	39.08
247.464	57.51
247.681	96.43
247.898	69.8
248.115	16.55
248.332	-34.64
248.549	82.09
248.766	47.27
248.983	67.75
249.2	-14.17
249.417	49.32
249.633	43.18
249.85	37.03
250.067	39.08
250.284	-40.79
250.501	8.36
250.717	-30.55
250.934	-34.64
251.151	34.99
251.368	10.41
251.585	59.56
251.801	47.27
252.018	-30.55
252.235	-44.88
252.451	-8.02
252.668	-10.07
252.885	-46.93
253.102	43.18
253.318	102.57
253.535	22.7
253.752	61.61
253.968	34.99
254.185	41.13
254.401	-102.23
254.618	49.32
254.835	-8.02
255.051	-20.31
255.268	10.41
255.484	4.27
255.701	-3.93
255.917	77.99
256.134	26.79
256.351	43.18
256.567	18.6
256.784	65.71
257	-85.84
257.217	0.17
257.433	37.03
257.65	59.56
257.866	10.41
258.082	-5.97
258.299	61.61
258.515	41.13
258.732	-10.07
258.948	-10.07
259.165	-8.02
259.381	6.31
259.597	39.08
259.814	37.03
260.03	4.27
260.246	71.85
260.463	12.46
260.679	71.85
260.895	10.41
261.112	57.51
261.328	2.22
261.544	20.65
261.761	32.94
261.977	32.94
262.193	20.65
262.409	22.7
262.626	67.75
262.842	67.75
263.058	49.32
263.274	12.46
263.49	10.41
263.707	-44.88
263.923	65.71
264.139	4.27
264.355	20.65
264.571	-1.88
264.787	-44.88
265.004	125.1
265.22	34.99
265.436	43.18
265.652	43.18
265.868	69.8
266.084	-20.31
266.3	-12.12
266.516	-22.36
266.732	12.46
266.948	18.6
267.164	98.47
267.38	108.71
267.596	-26.45
267.812	92.33
268.028	82.09
268.244	94.38
268.46	37.03
268.676	2.22
268.892	53.42
269.108	53.42
269.324	6.31
269.54	-1.88
269.756	67.75
269.972	-63.32
270.188	51.37
270.403	-38.74
270.619	39.08
270.835	2.22
271.051	69.8
271.267	6.31
271.483	41.13
271.698	59.56
271.914	41.13
272.13	67.75
272.346	-18.26
272.562	20.65
272.777	110.76
272.993	65.71
273.209	-38.74
273.425	41.13
273.64	69.8
273.856	24.75
274.072	47.27
274.287	-51.03
274.503	30.89
274.719	-22.36
274.934	10.41
275.15	0.17
275.366	51.37
275.581	16.55
275.797	-28.5
276.012	104.62
276.228	32.94
276.444	6.31
276.659	75.95
276.875	-48.98
277.09	32.94
277.306	8.36
277.521	16.55
277.737	55.47
277.952	-1.88
278.168	0.17
278.383	45.23
278.599	92.33
278.814	22.7
279.03	-44.88
279.245	80.04
279.461	41.13
279.676	20.65
279.892	24.75
280.107	41.13
280.322	45.23
280.538	63.66
280.753	-1.88
280.969	-67.41
281.184	63.66
281.399	135.34
281.615	6.31
281.83	26.79
282.045	-20.31
282.26	-12.12
282.476	49.32
282.691	88.23
282.906	14.51
283.122	82.09
283.337	-65.36
283.552	80.04
283.767	45.23
283.983	57.51
284.198	2.22
284.413	43.18
284.628	43.18
284.843	47.27
285.058	55.47
285.274	30.89
285.489	-24.4
285.704	47.27
285.919	14.51
286.134	-28.5
286.349	12.46
286.564	86.19
286.779	73.9
286.995	20.65
287.21	2.22
287.425	-34.64
287.64	26.79
287.855	47.27
288.07	2.22
288.285	51.37
288.5	92.33
288.715	26.79
288.93	-89.94
289.145	-3.93
289.36	32.94
289.575	10.41
289.79	10.41
290.004	59.56
290.219	24.75
290.434	-10.07
290.649	51.37
290.864	-28.5
291.079	30.89
291.294	6.31
291.509	8.36
291.724	34.99
291.938	57.51
292.153	82.09
292.368	41.13
292.583	59.56
292.798	-16.21
293.012	43.18
293.227	-38.74
293.442	69.8
293.657	12.46
293.871	28.84
294.086	75.95
294.301	92.33
294.516	67.75
294.73	41.13
294.945	4.27
295.16	110.76
295.374	49.32
295.589	24.75
295.804	24.75
296.018	14.51
296.233	47.27
296.447	47.27
296.662	71.85
296.877	0.17
297.091	43.18
297.306	34.99
297.52	18.6
297.735	94.38
297.949	102.57
298.164	24.75
298.378	49.32
298.593	59.56
298.807	-28.5
299.022	8.36
299.236	94.38
299.451	-26.45
299.665	-28.5
299.88	45.23
300.094	24.75
300.309	-26.45
300.523	65.71
300.737	-14.17
300.952	34.99
301.166	63.66
301.381	6.31
301.595	-51.03
301.809	43.18
302.024	28.84
302.238	61.61
302.452	28.84
302.667	-3.93
302.881	71.85
303.095	32.94
303.309	22.7
303.524	24.75
303.738	39.08
303.952	24.75
304.166	37.03
304.381	6.31
304.595	127.14
304.809	67.75
305.023	26.79
305.237	51.37
305.452	-22.36
305.666	10.41
305.88	51.37
306.094	-5.97
306.308	0.17
306.522	-1.88
306.736	-18.26
306.95	39.08
307.164	26.79
307.379	88.23
307.593	67.75
307.807	88.23
308.021	53.42
308.235	67.75
308.449	-1.88
308.663	-65.36
308.877	47.27
309.091	26.79
309.305	14.51
309.519	8.36
309.733	39.08
309.947	37.03
310.161	110.76
310.374	-38.74
310.588	100.52
310.802	-18.26
311.016	51.37
311.23	26.79
311.444	26.79
311.658	28.84
311.872	75.95
312.085	49.32
312.299	37.03
312.513	-48.98
312.727	90.28
312.941	-59.22
313.154	14.51
313.368	63.66
313.582	24.75
313.796	8.36
314.009	32.94
314.223	80.04
314.437	80.04
314.651	22.7
314.864	34.99
315.078	63.66
315.292	75.95
315.505	26.79
315.719	63.66
315.933	69.8
316.146	20.65
316.36	-12.12
316.573	116.9
316.787	20.65
317.001	55.47
317.214	22.7
317.428	-1.88
317.641	12.46
317.855	37.03
318.068	16.55
318.282	-3.93
318.495	47.27
318.709	47.27
318.922	45.23
319.136	59.56
319.349	51.37
319.563	67.75
319.776	28.84
319.99	-42.84
320.203	-32.6
320.417	24.75
320.63	34.99
320.843	102.57
321.057	39.08
321.27	30.89
321.483	20.65
321.697	63.66
321.91	-44.88
322.124	65.71
322.337	69.8
322.55	16.55
322.763	-22.36
322.977	10.41
323.19	18.6
323.403	59.56
323.617	45.23
323.83	-5.97
324.043	67.75
324.256	51.37
324.469	-3.93
324.683	53.42
324.896	88.23
325.109	8.36
325.322	73.9
325.535	8.36
325.748	26.79
325.962	-14.17
326.175	104.62
326.388	28.84
326.601	55.47
326.814	53.42
327.027	67.75
327.24	47.27
327.453	16.55
327.666	8.36
327.879	16.55
328.092	39.08
328.305	14.51
328.518	32.94
328.731	8.36
328.944	-24.4
329.157	67.75
329.37	110.76
329.583	123.05
329.796	59.56
330.009	22.7
330.222	45.23
330.435	10.41
330.648	22.7
330.861	16.55
331.073	45.23
331.286	96.43
331.499	65.71
331.712	37.03
331.925	-1.88
332.138	59.56
332.35	100.52
332.563	65.71
332.776	26.79
332.989	-44.88
333.202	63.66
333.414	-34.64
333.627	49.32
333.84	34.99
334.053	55.47
334.265	65.71
334.478	-24.4
334.691	47.27
334.903	8.36
335.116	43.18
335.329	51.37
335.541	39.08
335.754	57.51
335.966	4.27
336.179	28.84
336.392	-1.88
336.604	20.65
336.817	49.32
337.029	77.99
337.242	-22.36
337.454	24.75
337.667	26.79
337.88	137.38
338.092	22.7
338.305	-30.55
338.517	71.85
338.729	30.89
338.942	61.61
339.154	147.62
339.367	24.75
339.579	65.71
339.792	-22.36
340.004	71.85
340.217	20.65
340.429	0.17
340.641	53.42
340.854	59.56
341.066	45.23
341.278	131.24
341.491	94.38
341.703	61.61
341.915	24.75
342.128	20.65
342.34	0.17
342.552	-3.93
342.764	8.36
342.977	10.41
343.189	30.89
343.401	43.18
343.613	37.03
343.826	73.9
344.038	-20.31
344.25	112.81
344.462	47.27
344.674	32.94
344.886	71.85
345.099	75.95
345.311	8.36
345.523	-1.88
345.735	-108.37
345.947	16.55
346.159	-5.97
346.371	49.32
346.583	-28.5
346.795	39.08
347.007	41.13
347.219	43.18
347.431	75.95
347.643	84.14
347.855	90.28
348.067	65.71
348.279	75.95
348.491	18.6
348.703	6.31
348.915	32.94
349.127	-26.45
349.339	92.33
349.551	-10.07
349.763	34.99
349.975	10.41
350.187	96.43
350.399	12.46
350.61	12.46
350.822	30.89
351.034	45.23
351.246	45.23
351.458	41.13
351.669	41.13
351.881	-1.88
352.093	-16.21
352.305	96.43
352.517	94.38
352.728	41.13
352.94	-10.07
353.152	106.67
353.363	69.8
353.575	20.65
353.787	10.41
353.999	67.75
354.21	22.7
354.422	-8.02
354.633	47.27
354.845	71.85
355.057	26.79
355.268	114.86
355.48	37.03
355.692	47.27
355.903	30.89
356.115	10.41
356.326	10.41
356.538	51.37
356.749	10.41
356.961	16.55
357.172	20.65
357.384	-28.5
357.595	-20.31
357.807	-24.4
358.018	41.13
358.23	77.99
358.441	71.85
358.653	47.27
358.864	92.33
359.075	-12.12
359.287	2.22
359.498	39.08
359.709	53.42
359.921	49.32
360.132	47.27
360.344	57.51
360.555	14.51
360.766	65.71
360.977	69.8
361.189	51.37
361.4	-10.07
361.611	47.27
361.823	49.32
362.034	14.51
362.245	18.6
362.456	49.32
362.667	-26.45
362.879	-3.93
363.09	-28.5
363.301	92.33
363.512	106.67
363.723	39.08
363.935	45.23
364.146	55.47
364.357	59.56
364.568	16.55
364.779	67.75
364.99	53.42
365.201	37.03
365.412	65.71
365.623	-3.93
365.834	53.42
366.045	18.6
366.256	80.04
366.467	30.89
366.678	34.99
366.889	12.46
367.1	67.75
367.311	39.08
367.522	73.9
367.733	14.51
367.944	24.75
368.155	59.56
368.366	-3.93
368.577	84.14
368.788	71.85
368.999	-34.64
369.209	116.9
369.42	114.86
369.631	43.18
369.842	37.03
370.053	30.89
370.264	59.56
370.474	63.66
370.685	57.51
370.896	77.99
371.107	6.31
371.317	45.23
371.528	82.09
371.739	67.75
371.95	22.7
372.16	30.89
372.371	75.95
372.582	6.31
372.792	0.17
373.003	26.79
373.214	104.62
373.424	39.08
373.635	20.65
373.846	77.99
374.056	77.99
374.267	71.85
374.477	53.42
374.688	59.56
374.898	43.18
375.109	47.27
375.319	51.37
375.53	26.79
375.74	10.41
375.951	59.56
376.161	22.7
376.372	41.13
376.582	88.23
376.793	98.47
377.003	41.13
377.214	-20.31
377.424	127.14
377.635	96.43
377.845	51.37
378.055	77.99
378.266	-12.12
378.476	84.14
378.686	34.99
378.897	57.51
379.107	100.52
379.317	94.38
379.528	14.51
379.738	112.81
379.948	-16.21
380.158	12.46
380.369	30.89
380.579	57.51
380.789	73.9
380.999	100.52
381.21	12.46
381.42	96.43
381.63	-14.17
381.84	80.04
382.05	43.18
382.261	73.9
382.471	55.47
382.681	26.79
382.891	30.89
383.101	-46.93
383.311	-69.46
383.521	82.09
383.731	69.8
383.941	57.51
384.151	116.9
384.361	112.81
384.571	84.14
384.781	14.51
384.991	145.58
385.201	125.1
385.411	63.66
385.621	65.71
385.831	51.37
386.041	41.13
386.251	0.17
386.461	-36.69
386.671	28.84
386.881	67.75
387.091	30.89
387.301	135.34
387.511	-28.5
387.72	45.23
387.93	135.34
388.14	10.41
388.35	39.08
388.56	92.33
388.769	-48.98
388.979	102.57
389.189	37.03
389.399	57.51
389.609	34.99
389.818	108.71
390.028	26.79
390.238	90.28
390.447	55.47
390.657	67.75
390.867	125.1
391.076	-20.31
391.286	123.05
391.496	65.71
391.705	8.36
391.915	108.71
392.125	80.04
392.334	88.23
392.544	69.8
392.753	-3.93
392.963	80.04
393.172	59.56
393.382	51.37
393.591	159.91
393.801	63.66
394.01	100.52
394.22	12.46
394.429	47.27
394.639	82.09
394.848	86.19
395.058	51.37
395.267	49.32
395.477	57.51
395.686	28.84
395.895	166.06
396.105	51.37
396.314	94.38
396.524	-8.02
396.733	75.95
396.942	88.23
397.152	86.19
397.361	90.28
397.57	116.9
397.78	94.38
397.989	108.71
398.198	92.33
398.407	65.71
398.617	106.67
398.826	90.28
399.035	32.94
399.244	108.71
399.453	121
399.663	127.14
399.872	69.8
400.081	90.28
400.29	127.14
400.499	166.06
400.708	114.86
400.917	153.77
401.127	149.67
401.336	94.38
401.545	88.23
401.754	43.18
401.963	157.86
402.172	133.29
402.381	121
402.59	166.06
402.799	129.19
403.008	127.14
403.217	104.62
403.426	34.99
403.635	147.62
403.844	137.38
404.053	125.1
404.262	141.48
404.471	184.49
404.68	194.73
404.888	186.54
405.097	137.38
405.306	149.67
405.515	141.48
405.724	186.54
405.933	192.68
406.142	129.19
406.35	174.25
406.559	188.58
406.768	215.21
406.977	231.59
407.185	149.67
407.394	182.44
407.603	176.3
407.812	270.5
408.02	237.74
408.229	176.3
408.438	272.55
408.646	209.06
408.855	317.61
409.064	305.32
409.272	272.55
409.481	319.65
409.69	309.41
409.898	274.6
410.107	329.89
410.315	317.61
410.524	301.22
410.733	329.89
410.941	333.99
411.15	473.25
411.358	387.24
411.567	448.68
411.775	454.82
411.984	422.05
412.192	438.44
412.401	452.77
412.609	499.88
412.818	506.02
413.026	428.2
413.234	522.4
413.443	487.59
413.651	534.69
413.86	563.36
414.068	694.43
414.276	600.23
414.485	632.99
414.693	655.52
414.901	784.54
415.11	704.67
415.318	694.43
415.526	780.45
415.734	780.45
415.943	790.69
416.151	946.33
416.359	667.81
416.567	917.66
416.776	952.48
416.984	923.8
417.192	1052.83
417.4	1034.39
417.608	917.66
417.817	1095.83
418.025	1106.07
418.233	1231
418.441	1202.33
418.649	1231
418.857	1360.02
419.065	1302.68
419.273	1364.12
419.481	1405.08
419.689	1491.09
419.897	1466.52
420.105	1599.63
420.313	1603.73
420.521	1613.97
420.729	1656.98
420.937	1767.57
421.145	1892.49
421.353	1767.57
421.561	1992.84
421.769	1958.03
421.977	2109.58
422.185	2148.49
422.393	2234.5
422.601	2353.29
422.809	2324.62
423.017	2416.77
423.224	2420.87
423.432	2545.8
423.64	2650.24
423.848	2912.38
424.056	2668.67
424.263	3012.73
424.471	2979.97
424.679	2957.44
424.887	3154.04
425.094	3166.33
425.302	3215.48
425.51	3440.76
425.718	3524.72
425.925	3457.14
426.133	3719.28
426.341	3969.13
426.548	3985.52
426.756	4020.33
426.964	4214.89
427.171	4333.67
427.379	4462.69
427.586	4636.77
427.794	4554.85
428.001	4872.29
428.209	5058.65
428.417	5025.89
428.624	5371.99
428.832	5398.62
429.039	5406.81
429.247	5527.64
429.454	6015.05
429.662	6170.7
429.869	5967.95
430.076	6402.12
430.284	6002.77
430.491	6453.32
430.699	6668.36
430.906	6742.08
431.114	6793.28
431.321	7098.43
431.528	7163.97
431.736	7704.63
431.943	8167.47
432.15	7811.12
432.358	7911.47
432.565	8402.99
432.772	8359.98
432.979	8902.69
433.187	8720.42
433.394	8837.16
433.601	9646.1
433.808	9564.18
434.016	9328.67
434.223	9811.99
434.43	10489.87
434.637	10311.69
434.844	10872.84
435.052	11057.15
435.259	10844.17
435.466	10979.33
435.673	11116.55
435.88	11640.83
436.087	12355.57
436.294	12253.17
436.501	12187.63
436.708	12216.3
436.915	12736.49
437.122	13262.82
437.329	13262.82
437.537	13760.47
437.743	13852.63
437.95	13598.68
438.157	14575.56
438.364	15198.15
438.571	15046.6
438.778	14845.9
438.985	16594.86
439.192	15771.58
439.399	16345.01
439.606	16291.76
439.813	16758.7
440.02	17799.07
440.227	17553.31
440.433	17526.69
440.64	18188.18
440.847	17993.62
441.054	18249.62
441.261	19447.68
441.467	19287.94
441.674	19539.84
441.881	20236.15
442.088	20516.72
442.294	20031.35
442.501	20512.63
442.708	21245.8
442.914	21905.24
443.121	22736.72
443.328	22329.17
443.534	24053.56
443.741	23293.77
443.948	22716.24
444.154	24575.8
444.361	24502.07
444.568	24477.49
444.774	24467.25
444.981	24872.75
445.187	25454.37
445.394	26404.63
445.6	26101.53
445.807	28966.64
446.013	27713.28
446.22	28043.01
446.426	29275.88
446.633	29531.88
446.839	30238.43
447.046	29142.77
447.252	30740.18
447.459	30912.21
447.665	30791.38
447.871	32044.74
448.078	33316.53
448.284	31850.18
448.491	32390.84
448.697	34115.23
448.903	34483.87
449.11	34797.21
449.316	34268.83
449.522	34735.77
449.728	35417.74
449.935	35731.08
450.141	35825.29
450.347	36683.39
450.553	35432.08
450.76	36109.96
450.966	37500.53
451.172	36781.69
451.378	37279.35
451.584	36783.74
451.791	37672.56
451.997	37641.84
452.203	38397.54
452.409	38737.5
452.615	38096.49
452.821	36847.22
453.027	36437.63
453.233	38325.86
453.44	36927.1
453.646	37453.42
453.852	37437.04
454.058	38415.97
454.264	36904.57
454.47	37766.76
454.676	36718.2
454.882	38043.24
455.088	34713.24
455.294	35296.91
455.5	35692.17
455.705	35995.27
455.911	34795.16
456.117	34092.71
456.323	33570.47
456.529	31784.65
456.735	33392.3
456.941	32102.08
457.147	32016.07
457.352	30572.25
457.558	30404.31
457.764	30910.16
457.97	29869.79
458.176	29687.53
458.381	29339.37
458.587	28135.17
458.793	27844.35
458.999	26412.82
459.204	28266.24
459.41	27606.79
459.616	25843.49
459.821	26079
460.027	25902.88
460.233	25102.12
460.438	24209.21
460.644	24340.28
460.85	23091.02
461.055	22853.45
461.261	22892.37
461.466	21090.15
461.672	20440.95
461.878	22058.84
462.083	20223.86
462.289	19928.95
462.494	19683.2
462.7	19015.56
462.905	18378.64
463.111	18980.75
463.316	19160.97
463.522	18759.56
463.727	18493.33
463.932	18749.32
464.138	18472.85
464.343	18653.07
464.549	18134.93
464.754	18569.1
464.959	18284.44
465.165	18243.48
465.37	17612.7
465.575	17303.46
465.781	17698.72
465.986	17952.66
466.191	17231.78
466.397	16910.25
466.602	16258.99
466.807	16854.95
467.012	16619.44
467.218	16529.33
