Data from USB4F104151__80__11-52-49-300.txt Node

Date: Fri Mar 14 11:52:49 EDT 2025
User: louis
Spectrometer: USB4F10415
Trigger mode: 4
Integration Time (sec): 2.000000E-2
Scans to average: 1
Electric dark correction enabled: true
Nonlinearity correction enabled: false
Boxcar width: 0
XAxis mode: Wavelengths
Number of Pixels in Spectrum: 3648
>>>>>Begin Spectral Data<<<<<
178.204	-60.76
178.424	-60.76
178.644	-60.76
178.864	-81.24
179.084	-27.99
179.304	62.12
179.524	2.73
179.744	4.78
179.964	55.98
180.184	-11.61
180.404	-5.46
180.624	15.02
180.844	-19.8
181.064	-85.33
181.283	0.68
181.503	-38.23
181.723	19.11
181.943	2.73
182.163	49.83
182.383	-36.18
182.602	19.11
182.822	45.74
183.042	-15.7
183.262	-11.61
183.482	-68.95
183.701	37.55
183.921	35.5
184.141	4.78
184.361	25.26
184.58	-36.18
184.8	15.02
185.02	-32.08
185.239	-15.7
185.459	84.65
185.679	4.78
185.898	-19.8
186.118	15.02
186.338	19.11
186.557	10.92
186.777	39.59
186.997	41.64
187.216	68.27
187.436	43.69
187.655	-27.99
187.875	-7.51
188.095	15.02
188.314	70.31
188.534	-5.46
188.753	17.07
188.973	0.68
189.192	127.66
189.412	25.26
189.631	68.27
189.851	41.64
190.07	2.73
190.29	-13.65
190.509	37.55
190.729	-27.99
190.948	29.35
191.168	62.12
191.387	21.16
191.607	29.35
191.826	66.22
192.045	-25.94
192.265	-9.56
192.484	8.87
192.704	-3.41
192.923	96.94
193.142	2.73
193.362	47.79
193.581	90.79
193.8	-13.65
194.02	121.51
194.239	-7.51
194.458	-9.56
194.678	19.11
194.897	25.26
195.116	6.83
195.335	-9.56
195.555	21.16
195.774	-11.61
195.993	-56.66
196.212	29.35
196.432	41.64
196.651	-40.28
196.87	51.88
197.089	88.75
197.308	35.5
197.528	39.59
197.747	2.73
197.966	176.81
198.185	37.55
198.404	51.88
198.623	72.36
198.842	23.21
199.062	82.6
199.281	41.64
199.5	39.59
199.719	27.31
199.938	6.83
200.157	-3.41
200.376	-3.41
200.595	-54.61
200.814	84.65
201.033	-48.47
201.252	68.27
201.471	8.87
201.69	-11.61
201.909	55.98
202.128	-27.99
202.347	25.26
202.566	47.79
202.785	49.83
203.004	-23.89
203.223	62.12
203.442	12.97
203.661	27.31
203.879	33.45
204.098	80.55
204.317	-3.41
204.536	53.93
204.755	29.35
204.974	92.84
205.193	37.55
205.411	37.55
205.63	49.83
205.849	51.88
206.068	12.97
206.287	-23.89
206.505	94.89
206.724	-34.13
206.943	47.79
207.162	55.98
207.381	62.12
207.599	82.6
207.818	4.78
208.037	6.83
208.255	-17.75
208.474	-11.61
208.693	55.98
208.911	37.55
209.13	27.31
209.349	70.31
209.567	70.31
209.786	17.07
210.005	19.11
210.223	78.51
210.442	-44.37
210.661	2.73
210.879	39.59
211.098	21.16
211.316	21.16
211.535	80.55
211.753	27.31
211.972	31.4
212.191	31.4
212.409	62.12
212.628	49.83
212.846	-5.46
213.065	58.03
213.283	27.31
213.502	23.21
213.72	70.31
213.938	123.56
214.157	92.84
214.375	10.92
214.594	4.78
214.812	21.16
215.031	49.83
215.249	-5.46
215.467	43.69
215.686	19.11
215.904	88.75
216.122	-9.56
216.341	80.55
216.559	33.45
216.778	90.79
216.996	31.4
217.214	-1.37
217.432	66.22
217.651	-27.99
217.869	41.64
218.087	12.97
218.306	12.97
218.524	55.98
218.742	23.21
218.96	29.35
219.179	17.07
219.397	0.68
219.615	-9.56
219.833	74.41
220.051	-60.76
220.27	129.7
220.488	10.92
220.706	-3.41
220.924	-13.65
221.142	8.87
221.36	0.68
221.578	98.99
221.796	8.87
222.015	92.84
222.233	37.55
222.451	39.59
222.669	41.64
222.887	-50.52
223.105	-50.52
223.323	29.35
223.541	-34.13
223.759	17.07
223.977	12.97
224.195	15.02
224.413	-7.51
224.631	35.5
224.849	15.02
225.067	55.98
225.285	-7.51
225.503	70.31
225.721	23.21
225.939	21.16
226.157	33.45
226.375	64.17
226.592	-7.51
226.81	27.31
227.028	88.75
227.246	101.03
227.464	82.6
227.682	-11.61
227.9	8.87
228.117	35.5
228.335	-5.46
228.553	15.02
228.771	-11.61
228.989	17.07
229.206	101.03
229.424	19.11
229.642	10.92
229.86	0.68
230.077	84.65
230.295	21.16
230.513	33.45
230.731	27.31
230.948	60.07
231.166	12.97
231.384	51.88
231.601	35.5
231.819	117.42
232.037	29.35
232.254	6.83
232.472	74.41
232.689	15.02
232.907	0.68
233.125	74.41
233.342	15.02
233.56	66.22
233.777	-1.37
233.995	51.88
234.213	-13.65
234.43	37.55
234.648	-46.42
234.865	2.73
235.083	0.68
235.3	33.45
235.518	84.65
235.735	15.02
235.953	8.87
236.17	-15.7
236.388	19.11
236.605	37.55
236.822	41.64
237.04	60.07
237.257	78.51
237.475	37.55
237.692	4.78
237.909	-9.56
238.127	-13.65
238.344	-1.37
238.562	45.74
238.779	-48.47
238.996	-9.56
239.214	55.98
239.431	25.26
239.648	-11.61
239.865	72.36
240.083	51.88
240.3	35.5
240.517	6.83
240.735	101.03
240.952	51.88
241.169	55.98
241.386	60.07
241.603	78.51
241.821	0.68
242.038	15.02
242.255	27.31
242.472	-68.95
242.689	53.93
242.907	-19.8
243.124	8.87
243.341	41.64
243.558	21.16
243.775	-9.56
243.992	-11.61
244.209	33.45
244.426	86.7
244.643	35.5
244.86	60.07
245.078	-34.13
245.295	-17.75
245.512	-13.65
245.729	-68.95
245.946	41.64
246.163	-54.61
246.38	74.41
246.597	-17.75
246.814	51.88
247.031	-3.41
247.248	10.92
247.464	51.88
247.681	23.21
247.898	-1.37
248.115	15.02
248.332	33.45
248.549	55.98
248.766	58.03
248.983	8.87
249.2	4.78
249.417	49.83
249.633	-23.89
249.85	82.6
250.067	17.07
250.284	72.36
250.501	15.02
250.717	70.31
250.934	-48.47
251.151	31.4
251.368	-38.23
251.585	25.26
251.801	55.98
252.018	2.73
252.235	72.36
252.451	15.02
252.668	-15.7
252.885	129.7
253.102	0.68
253.318	41.64
253.535	58.03
253.752	39.59
253.968	-5.46
254.185	23.21
254.401	6.83
254.618	47.79
254.835	27.31
255.051	111.27
255.268	41.64
255.484	12.97
255.701	-9.56
255.917	-13.65
256.134	37.55
256.351	4.78
256.567	-15.7
256.784	2.73
257	-38.23
257.217	2.73
257.433	-23.89
257.65	88.75
257.866	23.21
258.082	27.31
258.299	-48.47
258.515	74.41
258.732	-13.65
258.948	31.4
259.165	4.78
259.381	105.13
259.597	78.51
259.814	39.59
260.03	60.07
260.246	-23.89
260.463	-58.71
260.679	68.27
260.895	-7.51
261.112	21.16
261.328	-23.89
261.544	39.59
261.761	127.66
261.977	29.35
262.193	29.35
262.409	94.89
262.626	4.78
262.842	8.87
263.058	70.31
263.274	12.97
263.49	4.78
263.707	53.93
263.923	-15.7
264.139	-44.37
264.355	76.46
264.571	10.92
264.787	68.27
265.004	94.89
265.22	-3.41
265.436	70.31
265.652	35.5
265.868	72.36
266.084	66.22
266.3	31.4
266.516	-15.7
266.732	10.92
266.948	76.46
267.164	2.73
267.38	39.59
267.596	47.79
267.812	117.42
268.028	6.83
268.244	19.11
268.46	31.4
268.676	31.4
268.892	17.07
269.108	45.74
269.324	35.5
269.54	-11.61
269.756	27.31
269.972	47.79
270.188	60.07
270.403	31.4
270.619	17.07
270.835	37.55
271.051	49.83
271.267	2.73
271.483	-9.56
271.698	37.55
271.914	39.59
272.13	62.12
272.346	51.88
272.562	-21.84
272.777	88.75
272.993	62.12
273.209	6.83
273.425	-50.52
273.64	41.64
273.856	43.69
274.072	21.16
274.287	-17.75
274.503	94.89
274.719	-60.76
274.934	35.5
275.15	12.97
275.366	-66.9
275.581	-5.46
275.797	58.03
276.012	107.18
276.228	0.68
276.444	12.97
276.659	58.03
276.875	-15.7
277.09	21.16
277.306	109.23
277.521	-5.46
277.737	-85.33
277.952	23.21
278.168	66.22
278.383	-19.8
278.599	8.87
278.814	62.12
279.03	37.55
279.245	125.61
279.461	19.11
279.676	8.87
279.892	0.68
280.107	-58.71
280.322	78.51
280.538	66.22
280.753	66.22
280.969	39.59
281.184	15.02
281.399	86.7
281.615	47.79
281.83	-13.65
282.045	64.17
282.26	21.16
282.476	53.93
282.691	41.64
282.906	8.87
283.122	117.42
283.337	2.73
283.552	33.45
283.767	41.64
283.983	12.97
284.198	51.88
284.413	-36.18
284.628	-27.99
284.843	45.74
285.058	47.79
285.274	2.73
285.489	29.35
285.704	2.73
285.919	15.02
286.134	62.12
286.349	74.41
286.564	-1.37
286.779	49.83
286.995	74.41
287.21	-11.61
287.425	51.88
287.64	82.6
287.855	41.64
288.07	29.35
288.285	39.59
288.5	86.7
288.715	107.18
288.93	74.41
289.145	2.73
289.36	80.55
289.575	8.87
289.79	39.59
290.004	55.98
290.219	19.11
290.434	107.18
290.649	-17.75
290.864	6.83
291.079	37.55
291.294	66.22
291.509	-25.94
291.724	43.69
291.938	0.68
292.153	55.98
292.368	117.42
292.583	12.97
292.798	51.88
293.012	2.73
293.227	35.5
293.442	31.4
293.657	-15.7
293.871	29.35
294.086	72.36
294.301	82.6
294.516	45.74
294.73	78.51
294.945	6.83
295.16	49.83
295.374	64.17
295.589	-1.37
295.804	-5.46
296.018	86.7
296.233	62.12
296.447	17.07
296.662	-9.56
296.877	53.93
297.091	25.26
297.306	70.31
297.52	45.74
297.735	51.88
297.949	29.35
298.164	-7.51
298.378	27.31
298.593	23.21
298.807	4.78
299.022	47.79
299.236	-34.13
299.451	8.87
299.665	45.74
299.88	-11.61
300.094	96.94
300.309	10.92
300.523	-13.65
300.737	-15.7
300.952	17.07
301.166	49.83
301.381	-21.84
301.595	15.02
301.809	37.55
302.024	23.21
302.238	41.64
302.452	55.98
302.667	-27.99
302.881	-23.89
303.095	12.97
303.309	31.4
303.524	51.88
303.738	27.31
303.952	31.4
304.166	33.45
304.381	10.92
304.595	49.83
304.809	23.21
305.023	-5.46
305.237	64.17
305.452	70.31
305.666	137.9
305.88	-11.61
306.094	15.02
306.308	-1.37
306.522	80.55
306.736	-1.37
306.95	23.21
307.164	49.83
307.379	-21.84
307.593	72.36
307.807	0.68
308.021	78.51
308.235	47.79
308.449	8.87
308.663	-48.47
308.877	70.31
309.091	60.07
309.305	58.03
309.519	-40.28
309.733	86.7
309.947	29.35
310.161	33.45
310.374	88.75
310.588	78.51
310.802	-34.13
311.016	49.83
311.23	10.92
311.444	21.16
311.658	-9.56
311.872	23.21
312.085	-7.51
312.299	37.55
312.513	53.93
312.727	51.88
312.941	-7.51
313.154	70.31
313.368	-7.51
313.582	58.03
313.796	31.4
314.009	62.12
314.223	29.35
314.437	80.55
314.651	4.78
314.864	98.99
315.078	27.31
315.292	15.02
315.505	17.07
315.719	19.11
315.933	64.17
316.146	33.45
316.36	-36.18
316.573	17.07
316.787	8.87
317.001	-15.7
317.214	51.88
317.428	101.03
317.641	72.36
317.855	31.4
318.068	49.83
318.282	58.03
318.495	68.27
318.709	53.93
318.922	82.6
319.136	6.83
319.349	51.88
319.563	80.55
319.776	10.92
319.99	-27.99
320.203	21.16
320.417	82.6
320.63	72.36
320.843	117.42
321.057	-13.65
321.27	-42.32
321.483	80.55
321.697	96.94
321.91	62.12
322.124	-15.7
322.337	35.5
322.55	62.12
322.763	68.27
322.977	43.69
323.19	82.6
323.403	-23.89
323.617	49.83
323.83	33.45
324.043	39.59
324.256	4.78
324.469	8.87
324.683	39.59
324.896	76.46
325.109	8.87
325.322	17.07
325.535	49.83
325.748	129.7
325.962	62.12
326.175	15.02
326.388	43.69
326.601	49.83
326.814	55.98
327.027	-15.7
327.24	66.22
327.453	-11.61
327.666	49.83
327.879	53.93
328.092	-1.37
328.305	41.64
328.518	47.79
328.731	62.12
328.944	-1.37
329.157	80.55
329.37	-13.65
329.583	74.41
329.796	53.93
330.009	2.73
330.222	90.79
330.435	27.31
330.648	15.02
330.861	19.11
331.073	86.7
331.286	31.4
331.499	27.31
331.712	53.93
331.925	27.31
332.138	35.5
332.35	53.93
332.563	-25.94
332.776	41.64
332.989	8.87
333.202	76.46
333.414	17.07
333.627	-15.7
333.84	-38.23
334.053	31.4
334.265	-5.46
334.478	74.41
334.691	35.5
334.903	84.65
335.116	19.11
335.329	43.69
335.541	68.27
335.754	47.79
335.966	-60.76
336.179	6.83
336.392	27.31
336.604	17.07
336.817	53.93
337.029	66.22
337.242	41.64
337.454	82.6
337.667	51.88
337.88	107.18
338.092	47.79
338.305	53.93
338.517	94.89
338.729	107.18
338.942	21.16
339.154	45.74
339.367	-13.65
339.579	17.07
339.792	10.92
340.004	72.36
340.217	39.59
340.429	4.78
340.641	31.4
340.854	88.75
341.066	49.83
341.278	0.68
341.491	70.31
341.703	33.45
341.915	-19.8
342.128	84.65
342.34	29.35
342.552	21.16
342.764	10.92
342.977	31.4
343.189	2.73
343.401	64.17
343.613	-62.8
343.826	68.27
344.038	39.59
344.25	74.41
344.462	21.16
344.674	64.17
344.886	17.07
345.099	76.46
345.311	105.13
345.523	51.88
345.735	49.83
345.947	-36.18
346.159	47.79
346.371	41.64
346.583	35.5
346.795	33.45
347.007	6.83
347.219	60.07
347.431	109.23
347.643	17.07
347.855	70.31
348.067	70.31
348.279	76.46
348.491	6.83
348.703	2.73
348.915	15.02
349.127	-58.71
349.339	25.26
349.551	66.22
349.763	45.74
349.975	2.73
350.187	68.27
350.399	133.8
350.61	66.22
350.822	51.88
351.034	82.6
351.246	45.74
351.458	8.87
351.669	37.55
351.881	51.88
352.093	66.22
352.305	148.14
352.517	25.26
352.728	64.17
352.94	37.55
353.152	80.55
353.363	51.88
353.575	62.12
353.787	10.92
353.999	33.45
354.21	35.5
354.422	-3.41
354.633	53.93
354.845	-17.75
355.057	0.68
355.268	78.51
355.48	78.51
355.692	4.78
355.903	17.07
356.115	19.11
356.326	-23.89
356.538	94.89
356.749	27.31
356.961	101.03
357.172	31.4
357.384	-1.37
357.595	74.41
357.807	131.75
358.018	47.79
358.23	2.73
358.441	43.69
358.653	70.31
358.864	51.88
359.075	4.78
359.287	92.84
359.498	33.45
359.709	27.31
359.921	43.69
360.132	96.94
360.344	-34.13
360.555	-1.37
360.766	51.88
360.977	80.55
361.189	92.84
361.4	82.6
361.611	62.12
361.823	43.69
362.034	-7.51
362.245	-5.46
362.456	43.69
362.667	15.02
362.879	29.35
363.09	62.12
363.301	60.07
363.512	76.46
363.723	-9.56
363.935	19.11
364.146	90.79
364.357	4.78
364.568	53.93
364.779	49.83
364.99	51.88
365.201	21.16
365.412	58.03
365.623	39.59
365.834	6.83
366.045	109.23
366.256	29.35
366.467	55.98
366.678	21.16
366.889	31.4
367.1	-9.56
367.311	90.79
367.522	41.64
367.733	53.93
367.944	43.69
368.155	-30.04
368.366	10.92
368.577	43.69
368.788	55.98
368.999	80.55
369.209	6.83
369.42	-5.46
369.631	70.31
369.842	64.17
370.053	21.16
370.264	60.07
370.474	66.22
370.685	17.07
370.896	-3.41
371.107	64.17
371.317	23.21
371.528	12.97
371.739	103.08
371.95	47.79
372.16	35.5
372.371	-1.37
372.582	43.69
372.792	43.69
373.003	80.55
373.214	66.22
373.424	127.66
373.635	43.69
373.846	141.99
374.056	2.73
374.267	33.45
374.477	-11.61
374.688	12.97
374.898	31.4
375.109	47.79
375.319	101.03
375.53	107.18
375.74	35.5
375.951	33.45
376.161	55.98
376.372	109.23
376.582	39.59
376.793	92.84
377.003	55.98
377.214	29.35
377.424	51.88
377.635	49.83
377.845	21.16
378.055	41.64
378.266	4.78
378.476	31.4
378.686	51.88
378.897	53.93
379.107	-25.94
379.317	31.4
379.528	23.21
379.738	31.4
379.948	35.5
380.158	6.83
380.369	37.55
380.579	43.69
380.789	37.55
380.999	43.69
381.21	19.11
381.42	21.16
381.63	37.55
381.84	68.27
382.05	150.18
382.261	84.65
382.471	8.87
382.681	98.99
382.891	12.97
383.101	62.12
383.311	33.45
383.521	74.41
383.731	41.64
383.941	6.83
384.151	-7.51
384.361	66.22
384.571	47.79
384.781	68.27
384.991	47.79
385.201	125.61
385.411	51.88
385.621	21.16
385.831	-19.8
386.041	94.89
386.251	72.36
386.461	21.16
386.671	10.92
386.881	8.87
387.091	88.75
387.301	51.88
387.511	37.55
387.72	-3.41
387.93	35.5
388.14	45.74
388.35	84.65
388.56	115.37
388.769	92.84
388.979	49.83
389.189	8.87
389.399	53.93
389.609	15.02
389.818	33.45
390.028	62.12
390.238	55.98
390.447	105.13
390.657	66.22
390.867	94.89
391.076	49.83
391.286	-44.37
391.496	82.6
391.705	43.69
391.915	12.97
392.125	25.26
392.334	76.46
392.544	80.55
392.753	115.37
392.963	29.35
393.172	84.65
393.382	21.16
393.591	72.36
393.801	8.87
394.01	109.23
394.22	92.84
394.429	111.27
394.639	29.35
394.848	17.07
395.058	107.18
395.267	45.74
395.477	37.55
395.686	62.12
395.895	90.79
396.105	135.85
396.314	113.32
396.524	37.55
396.733	58.03
396.942	92.84
397.152	80.55
397.361	35.5
397.57	51.88
397.78	39.59
397.989	72.36
398.198	72.36
398.407	90.79
398.617	58.03
398.826	113.32
399.035	103.08
399.244	82.6
399.453	119.46
399.663	121.51
399.872	49.83
400.081	21.16
400.29	154.28
400.499	51.88
400.708	146.09
400.917	37.55
401.127	88.75
401.336	62.12
401.545	139.94
401.754	78.51
401.963	74.41
402.172	72.36
402.381	115.37
402.59	135.85
402.799	162.47
403.008	17.07
403.217	109.23
403.426	107.18
403.635	66.22
403.844	92.84
404.053	88.75
404.262	113.32
404.471	162.47
404.68	125.61
404.888	109.23
405.097	103.08
405.306	123.56
405.515	162.47
405.724	86.7
405.933	135.85
406.142	195.24
406.35	103.08
406.559	176.81
406.768	170.66
406.977	178.86
407.185	170.66
407.394	178.86
407.603	162.47
407.812	101.03
408.02	115.37
408.229	154.28
408.438	154.28
408.646	137.9
408.855	86.7
409.064	197.29
409.272	201.38
409.481	238.25
409.69	209.58
409.898	217.77
410.107	164.52
410.315	217.77
410.524	230.06
410.733	252.58
410.941	236.2
411.15	295.59
411.358	262.82
411.567	332.45
411.775	350.89
411.984	303.78
412.192	277.16
412.401	402.08
412.609	338.6
412.818	418.47
413.026	373.41
413.234	350.89
413.443	391.84
413.651	410.28
413.86	414.37
414.068	455.33
414.276	469.67
414.485	467.62
414.693	363.17
414.901	445.09
415.11	461.48
415.318	481.96
415.526	463.52
415.734	617.12
415.943	588.45
416.151	621.22
416.359	524.96
416.567	578.21
416.776	572.07
416.984	660.13
417.192	662.18
417.4	686.75
417.608	672.42
417.817	705.18
418.025	711.33
418.233	920.22
418.441	864.93
418.649	819.87
418.857	987.8
419.065	856.73
419.273	952.99
419.481	961.18
419.689	873.12
419.897	1045.15
420.105	1030.81
420.313	1182.36
420.521	1112.73
420.729	1219.22
420.937	1114.78
421.145	1278.62
421.353	1237.66
421.561	1438.36
421.769	1452.69
421.977	1481.36
422.185	1516.18
422.393	1516.18
422.601	1696.4
422.809	1630.87
423.017	1657.49
423.224	1702.54
423.432	1759.89
423.64	1723.02
423.848	1940.11
424.056	1923.73
424.263	1991.31
424.471	2054.8
424.679	2177.67
424.887	2384.52
425.094	2253.45
425.302	2302.6
425.51	2355.85
425.718	2431.62
425.925	2491.01
426.133	2527.88
426.341	2697.86
426.548	2876.03
426.756	2851.46
426.964	2833.02
427.171	3043.96
427.379	3017.34
427.586	3168.89
427.794	3254.9
428.001	3259
428.209	3543.67
428.417	3367.54
428.624	3637.88
428.832	3680.88
429.039	3711.6
429.247	3723.89
429.454	4074.09
429.662	4254.31
429.869	3977.84
430.076	4397.67
430.284	4166.25
430.491	4401.77
430.699	4723.3
430.906	4581.99
431.114	4741.73
431.321	4891.23
431.528	4924
431.736	5204.57
431.943	5501.53
432.15	5370.46
432.358	5460.57
432.565	5710.42
432.772	5636.69
432.979	5907.02
433.187	6038.09
433.394	6007.38
433.601	6613.57
433.808	6488.65
434.016	6603.33
434.223	6840.9
434.43	7045.7
434.637	7129.66
434.844	7529.02
435.052	7602.74
435.259	7506.49
435.466	7514.68
435.673	7606.84
435.88	8196.65
436.087	8389.16
436.294	8411.69
436.501	8290.86
436.708	8483.37
436.915	8624.68
437.122	9032.22
437.329	9044.51
437.537	9413.15
437.743	9669.14
437.95	9345.56
438.157	10019.35
438.364	10256.91
438.571	10244.62
438.778	10330.64
438.985	11170.3
439.192	10975.75
439.399	11248.13
439.606	10902.02
439.813	11610.62
440.02	12270.06
440.227	12327.41
440.433	12016.12
440.64	12440.04
440.847	12294.64
441.054	12622.31
441.261	13222.37
441.467	13341.15
441.674	13353.44
441.881	13887.96
442.088	14014.93
442.294	13797.85
442.501	14262.74
442.708	14518.73
442.914	14918.09
443.121	15591.87
443.328	15032.77
443.534	16163.25
443.741	15862.2
443.948	15835.58
444.154	16781.74
444.361	16538.03
444.568	16859.56
444.774	16900.52
444.981	16966.06
445.187	17521.06
445.394	18317.72
445.6	18006.42
445.807	19642.75
446.013	18821.52
446.22	19489.15
446.426	19831.16
446.633	20072.82
446.839	21252.45
447.046	19941.75
447.252	21164.39
447.459	21053.8
447.665	21172.58
447.871	22067.55
448.078	23040.33
448.284	21813.6
448.491	22358.36
448.697	23329.09
448.903	23695.68
449.11	24031.55
449.316	23511.36
449.522	24011.07
449.728	24615.22
449.935	24664.37
450.141	24607.03
450.347	24914.22
450.553	24361.27
450.76	24813.87
450.966	25579.81
451.172	25164.07
451.378	25909.54
451.584	25301.29
451.791	26106.14
451.997	25651.49
452.203	26579.22
452.409	26482.97
452.615	26233.11
452.821	25248.04
453.027	25082.16
453.233	26280.22
453.44	25174.31
453.646	25895.2
453.852	25411.88
454.058	25884.96
454.264	25485.61
454.47	26087.71
454.676	25129.26
454.882	26200.35
455.088	24054.08
455.294	24179
455.5	24324.41
455.705	24699.19
455.911	24068.41
456.117	23503.17
456.323	22878.54
456.529	21672.29
456.735	23056.71
456.941	22268.25
457.147	21827.93
457.352	21164.39
457.558	20836.72
457.764	21264.74
457.97	20728.17
458.176	20205.94
458.381	20601.2
458.587	19300.74
458.793	19192.2
458.999	18198.93
459.204	19696
459.41	18882.95
459.616	17670.56
459.821	17355.17
460.027	17803.67
460.233	16923.05
460.438	16353.71
460.644	16697.77
460.85	16062.9
461.055	15761.85
461.261	15579.58
461.466	14291.41
461.672	13916.63
461.878	15028.68
462.083	13973.97
462.289	13701.59
462.494	13490.65
462.7	12974.56
462.905	12585.45
463.111	12954.08
463.316	13103.59
463.522	13007.33
463.727	13089.25
463.932	12796.39
464.138	12605.93
464.343	12892.65
464.549	12397.04
464.754	12804.58
464.959	12820.97
465.165	12607.98
465.37	12249.58
465.575	11717.11
465.781	12255.73
465.986	12149.23
466.191	11960.82
466.397	11637.24
466.602	10994.18
466.807	11461.12
467.012	11414.01
467.218	11444.73
467.423	11215.36
467.628	11164.16
467.833	11792.89
468.038	11432.44
468.244	11149.82
468.449	11424.25
468.654	11063.81
