Data from USB4F104151__30__12-58-46-807.txt Node

Date: Fri Mar 14 12:58:46 EDT 2025
User: louis
Spectrometer: USB4F10415
Trigger mode: 4
Integration Time (sec): 1.000000E-2
Scans to average: 1
Electric dark correction enabled: true
Nonlinearity correction enabled: false
Boxcar width: 0
XAxis mode: Wavelengths
Number of Pixels in Spectrum: 3648
>>>>>Begin Spectral Data<<<<<
178.204	7.34
178.424	7.34
178.644	7.34
178.864	-17.24
179.084	-41.81
179.304	-9.05
179.524	40.11
179.744	52.39
179.964	-19.29
180.184	-4.95
180.404	-37.72
180.624	7.34
180.844	-23.38
181.064	-41.81
181.283	33.96
181.503	29.87
181.723	-27.48
181.943	-56.15
182.163	-27.48
182.383	29.87
182.602	56.49
182.822	27.82
183.042	19.63
183.262	-33.62
183.482	9.39
183.701	25.77
183.921	74.92
184.141	-37.72
184.361	33.96
184.58	46.25
184.8	70.83
185.02	42.15
185.239	70.83
185.459	15.53
185.679	31.91
185.898	29.87
186.118	40.11
186.338	17.58
186.557	97.45
186.777	-47.96
186.997	9.39
187.216	-15.19
187.436	27.82
187.655	-33.62
187.875	27.82
188.095	-37.72
188.314	5.29
188.534	-93.01
188.753	56.49
188.973	68.78
189.192	85.16
189.412	40.11
189.631	-0.85
189.851	42.15
190.07	7.34
190.29	33.96
190.509	13.48
190.729	-17.24
190.948	5.29
191.168	11.43
191.387	-19.29
191.607	-56.15
191.826	21.67
192.045	17.58
192.265	54.44
192.484	50.35
192.704	31.91
192.923	58.54
193.142	56.49
193.362	64.68
193.581	-33.62
193.8	74.92
194.02	-11.09
194.239	-29.52
194.458	58.54
194.678	38.06
194.897	44.2
195.116	25.77
195.335	40.11
195.555	-2.9
195.774	-23.38
195.993	1.19
196.212	-7
196.432	-7
196.651	-9.05
196.87	-9.05
197.089	-2.9
197.308	11.43
197.528	15.53
197.747	-88.92
197.966	62.63
198.185	48.3
198.404	-2.9
198.623	36.01
198.842	3.24
199.062	56.49
199.281	89.26
199.5	3.24
199.719	17.58
199.938	48.3
200.157	-9.05
200.376	-17.24
200.595	52.39
200.814	31.91
201.033	-2.9
201.252	3.24
201.471	-58.2
201.69	50.35
201.909	-9.05
202.128	33.96
202.347	-25.43
202.566	21.67
202.785	3.24
203.004	50.35
203.223	46.25
203.442	13.48
203.661	33.96
203.879	31.91
204.098	31.91
204.317	-68.44
204.536	-2.9
204.755	-9.05
204.974	17.58
205.193	72.87
205.411	66.73
205.63	5.29
205.849	-33.62
206.068	-0.85
206.287	-33.62
206.505	-25.43
206.724	11.43
206.943	29.87
207.162	-11.09
207.381	27.82
207.599	17.58
207.818	-52.05
208.037	87.21
208.255	-17.24
208.474	-0.85
208.693	54.44
208.911	13.48
209.13	15.53
209.349	44.2
209.567	-9.05
209.786	17.58
210.005	66.73
210.223	54.44
210.442	38.06
210.661	15.53
210.879	85.16
211.098	-7
211.316	91.31
211.535	50.35
211.753	-4.95
211.972	72.87
212.191	5.29
212.409	68.78
212.628	-31.57
212.846	42.15
213.065	21.67
213.283	31.91
213.502	62.63
213.72	93.35
213.938	-29.52
214.157	31.91
214.375	17.58
214.594	1.19
214.812	122.02
215.031	5.29
215.249	7.34
215.467	72.87
215.686	-17.24
215.904	23.72
216.122	-39.76
216.341	-23.38
216.559	13.48
216.778	70.83
216.996	25.77
217.214	11.43
217.432	11.43
217.651	48.3
217.869	-25.43
218.087	62.63
218.306	-27.48
218.524	3.24
218.742	36.01
218.96	29.87
219.179	-62.29
219.397	46.25
219.615	-11.09
219.833	64.68
220.051	-9.05
220.27	-13.14
220.488	66.73
220.706	-13.14
220.924	-39.76
221.142	-35.67
221.36	13.48
221.578	101.55
221.796	-113.49
222.015	25.77
222.233	-17.24
222.451	-35.67
222.669	44.2
222.887	-19.29
223.105	-21.33
223.323	15.53
223.541	36.01
223.759	19.63
223.977	-15.19
224.195	9.39
224.413	27.82
224.631	-21.33
224.849	15.53
225.067	103.59
225.285	-47.96
225.503	-33.62
225.721	1.19
225.939	-21.33
226.157	-50
226.375	-21.33
226.592	27.82
226.81	40.11
227.028	-25.43
227.246	64.68
227.464	3.24
227.682	13.48
227.9	74.92
228.117	33.96
228.335	-2.9
228.553	-0.85
228.771	21.67
228.989	-43.86
229.206	54.44
229.424	44.2
229.642	-4.95
229.86	-17.24
230.077	31.91
230.295	44.2
230.513	1.19
230.731	-2.9
230.948	44.2
231.166	38.06
231.384	-29.52
231.601	74.92
231.819	54.44
232.037	-37.72
232.254	17.58
232.472	-2.9
232.689	-2.9
232.907	66.73
233.125	1.19
233.342	-29.52
233.56	-76.63
233.777	107.69
233.995	3.24
234.213	-15.19
234.43	-43.86
234.648	9.39
234.865	-21.33
235.083	-11.09
235.3	-7
235.518	-23.38
235.735	72.87
235.953	15.53
236.17	31.91
236.388	25.77
236.605	-17.24
236.822	-33.62
237.04	79.02
237.257	56.49
237.475	-39.76
237.692	-15.19
237.909	15.53
238.127	-13.14
238.344	33.96
238.562	17.58
238.779	50.35
238.996	42.15
239.214	-7
239.431	52.39
239.648	23.72
239.865	42.15
240.083	-0.85
240.3	31.91
240.517	-29.52
240.735	-2.9
240.952	-23.38
241.169	70.83
241.386	-11.09
241.603	-0.85
241.821	83.11
242.038	40.11
242.255	15.53
242.472	-4.95
242.689	54.44
242.907	21.67
243.124	-7
243.341	-17.24
243.558	44.2
243.775	7.34
243.992	21.67
244.209	58.54
244.426	97.45
244.643	-33.62
244.86	33.96
245.078	13.48
245.295	9.39
245.512	58.54
245.729	74.92
245.946	-17.24
246.163	-17.24
246.38	-43.86
246.597	11.43
246.814	48.3
247.031	58.54
247.248	15.53
247.464	42.15
247.681	5.29
247.898	-13.14
248.115	29.87
248.332	33.96
248.549	-35.67
248.766	83.11
248.983	19.63
249.2	9.39
249.417	36.01
249.633	3.24
249.85	31.91
250.067	52.39
250.284	23.72
250.501	13.48
250.717	79.02
250.934	-21.33
251.151	25.77
251.368	-47.96
251.585	27.82
251.801	31.91
252.018	-35.67
252.235	31.91
252.451	3.24
252.668	7.34
252.885	7.34
253.102	-43.86
253.318	-17.24
253.535	-0.85
253.752	-17.24
253.968	31.91
254.185	31.91
254.401	13.48
254.618	42.15
254.835	-11.09
255.051	31.91
255.268	85.16
255.484	5.29
255.701	62.63
255.917	74.92
256.134	25.77
256.351	-21.33
256.567	-50
256.784	-4.95
257	25.77
257.217	1.19
257.433	11.43
257.65	5.29
257.866	-27.48
258.082	-19.29
258.299	29.87
258.515	3.24
258.732	72.87
258.948	7.34
259.165	13.48
259.381	66.73
259.597	-45.91
259.814	-11.09
260.03	42.15
260.246	70.83
260.463	38.06
260.679	17.58
260.895	11.43
261.112	33.96
261.328	-7
261.544	5.29
261.761	-7
261.977	-52.05
262.193	33.96
262.409	-2.9
262.626	52.39
262.842	81.07
263.058	-64.34
263.274	58.54
263.49	60.59
263.707	87.21
263.923	-19.29
264.139	-33.62
264.355	54.44
264.571	29.87
264.787	7.34
265.004	21.67
265.22	-29.52
265.436	-23.38
265.652	-7
265.868	76.97
266.084	-2.9
266.3	13.48
266.516	40.11
266.732	56.49
266.948	-2.9
267.164	21.67
267.38	19.63
267.596	-43.86
267.812	64.68
268.028	38.06
268.244	48.3
268.46	40.11
268.676	17.58
268.892	38.06
269.108	-17.24
269.324	17.58
269.54	13.48
269.756	54.44
269.972	58.54
270.188	40.11
270.403	-4.95
270.619	87.21
270.835	27.82
271.051	13.48
271.267	-27.48
271.483	38.06
271.698	38.06
271.914	54.44
272.13	11.43
272.346	-54.1
272.562	56.49
272.777	27.82
272.993	-9.05
273.209	38.06
273.425	62.63
273.64	-27.48
273.856	103.59
274.072	-54.1
274.287	5.29
274.503	19.63
274.719	-21.33
274.934	23.72
275.15	11.43
275.366	-25.43
275.581	7.34
275.797	58.54
276.012	-52.05
276.228	58.54
276.444	21.67
276.659	-9.05
276.875	-19.29
277.09	95.4
277.306	15.53
277.521	-7
277.737	-2.9
277.952	113.83
278.168	-29.52
278.383	36.01
278.599	-31.57
278.814	3.24
279.03	19.63
279.245	76.97
279.461	23.72
279.676	7.34
279.892	58.54
280.107	-23.38
280.322	83.11
280.538	76.97
280.753	17.58
280.969	31.91
281.184	29.87
281.399	-2.9
281.615	5.29
281.83	23.72
282.045	7.34
282.26	-35.67
282.476	9.39
282.691	111.78
282.906	-9.05
283.122	56.49
283.337	-47.96
283.552	-21.33
283.767	-21.33
283.983	29.87
284.198	74.92
284.413	5.29
284.628	-25.43
284.843	1.19
285.058	40.11
285.274	15.53
285.489	15.53
285.704	-45.91
285.919	-9.05
286.134	21.67
286.349	23.72
286.564	-7
286.779	56.49
286.995	-19.29
287.21	36.01
287.425	54.44
287.64	-11.09
287.855	3.24
288.07	-15.19
288.285	19.63
288.5	50.35
288.715	-41.81
288.93	15.53
289.145	58.54
289.36	-9.05
289.575	31.91
289.79	31.91
290.004	76.97
290.219	-35.67
290.434	13.48
290.649	-15.19
290.864	31.91
291.079	5.29
291.294	-45.91
291.509	-7
291.724	-2.9
291.938	36.01
292.153	-33.62
292.368	-56.15
292.583	-2.9
292.798	-17.24
293.012	7.34
293.227	68.78
293.442	13.48
293.657	72.87
293.871	44.2
294.086	64.68
294.301	87.21
294.516	17.58
294.73	56.49
294.945	7.34
295.16	1.19
295.374	72.87
295.589	48.3
295.804	-11.09
296.018	-7
296.233	17.58
296.447	-60.24
296.662	95.4
296.877	91.31
297.091	38.06
297.306	79.02
297.52	40.11
297.735	-50
297.949	-2.9
298.164	-4.95
298.378	36.01
298.593	46.25
298.807	62.63
299.022	-17.24
299.236	46.25
299.451	-13.14
299.665	33.96
299.88	-23.38
300.094	-33.62
300.309	-35.67
300.523	29.87
300.737	38.06
300.952	-15.19
301.166	33.96
301.381	-11.09
301.595	42.15
301.809	46.25
302.024	3.24
302.238	87.21
302.452	-2.9
302.667	-17.24
302.881	29.87
303.095	-21.33
303.309	31.91
303.524	40.11
303.738	87.21
303.952	-7
304.166	9.39
304.381	66.73
304.595	91.31
304.809	13.48
305.023	38.06
305.237	-15.19
305.452	7.34
305.666	85.16
305.88	11.43
306.094	25.77
306.308	-45.91
306.522	23.72
306.736	-15.19
306.95	-4.95
307.164	-13.14
307.379	38.06
307.593	11.43
307.807	52.39
308.021	64.68
308.235	21.67
308.449	3.24
308.663	-21.33
308.877	64.68
309.091	-27.48
309.305	40.11
309.519	-15.19
309.733	29.87
309.947	21.67
310.161	54.44
310.374	-19.29
310.588	-2.9
310.802	-50
311.016	-4.95
311.23	-47.96
311.444	-47.96
311.658	-11.09
311.872	21.67
312.085	-39.76
312.299	-33.62
312.513	-17.24
312.727	21.67
312.941	-17.24
313.154	79.02
313.368	99.5
313.582	9.39
313.796	7.34
314.009	19.63
314.223	9.39
314.437	25.77
314.651	21.67
314.864	40.11
315.078	11.43
315.292	-13.14
315.505	7.34
315.719	95.4
315.933	11.43
316.146	40.11
316.36	25.77
316.573	29.87
316.787	-7
317.001	-33.62
317.214	-21.33
317.428	81.07
317.641	-31.57
317.855	7.34
318.068	-0.85
318.282	-13.14
318.495	103.59
318.709	21.67
318.922	44.2
319.136	85.16
319.349	-9.05
319.563	-64.34
319.776	79.02
319.99	1.19
320.203	-7
320.417	3.24
320.63	15.53
320.843	72.87
321.057	23.72
321.27	62.63
321.483	7.34
321.697	29.87
321.91	-7
322.124	29.87
322.337	1.19
322.55	85.16
322.763	-37.72
322.977	5.29
323.19	-25.43
323.403	58.54
323.617	5.29
323.83	1.19
324.043	31.91
324.256	29.87
324.469	27.82
324.683	52.39
324.896	17.58
325.109	-27.48
325.322	-2.9
325.535	-39.76
325.748	17.58
325.962	7.34
326.175	62.63
326.388	5.29
326.601	70.83
326.814	-21.33
327.027	54.44
327.24	60.59
327.453	19.63
327.666	70.83
327.879	79.02
328.092	50.35
328.305	-41.81
328.518	68.78
328.731	27.82
328.944	23.72
329.157	44.2
329.37	-9.05
329.583	17.58
329.796	54.44
330.009	-17.24
330.222	-50
330.435	64.68
330.648	-31.57
330.861	36.01
331.073	68.78
331.286	-11.09
331.499	38.06
331.712	-23.38
331.925	31.91
332.138	25.77
332.35	-19.29
332.563	54.44
332.776	52.39
332.989	5.29
333.202	27.82
333.414	50.35
333.627	13.48
333.84	-33.62
334.053	29.87
334.265	-13.14
334.478	-23.38
334.691	23.72
334.903	21.67
335.116	-33.62
335.329	74.92
335.541	1.19
335.754	42.15
335.966	-4.95
336.179	33.96
336.392	-7
336.604	13.48
336.817	29.87
337.029	97.45
337.242	91.31
337.454	25.77
337.667	60.59
337.88	48.3
338.092	-41.81
338.305	21.67
338.517	-7
338.729	31.91
338.942	11.43
339.154	-29.52
339.367	27.82
339.579	46.25
339.792	-23.38
340.004	103.59
340.217	-17.24
340.429	-21.33
340.641	-7
340.854	13.48
341.066	33.96
341.278	27.82
341.491	-29.52
341.703	50.35
341.915	66.73
342.128	5.29
342.34	76.97
342.552	-19.29
342.764	-15.19
342.977	-0.85
343.189	7.34
343.401	72.87
343.613	-27.48
343.826	87.21
344.038	-27.48
344.25	11.43
344.462	64.68
344.674	54.44
344.886	31.91
345.099	-11.09
345.311	-47.96
345.523	87.21
345.735	-2.9
345.947	15.53
346.159	5.29
346.371	29.87
346.583	-13.14
346.795	56.49
347.007	-33.62
347.219	46.25
347.431	56.49
347.643	7.34
347.855	79.02
348.067	17.58
348.279	72.87
348.491	29.87
348.703	29.87
348.915	89.26
349.127	33.96
349.339	-25.43
349.551	17.58
349.763	107.69
349.975	64.68
350.187	31.91
350.399	23.72
350.61	-21.33
350.822	15.53
351.034	23.72
351.246	-31.57
351.458	40.11
351.669	7.34
351.881	-13.14
352.093	-7
352.305	11.43
352.517	27.82
352.728	56.49
352.94	17.58
353.152	-27.48
353.363	36.01
353.575	-0.85
353.787	-9.05
353.999	-7
354.21	-11.09
354.422	87.21
354.633	15.53
354.845	50.35
355.057	58.54
355.268	42.15
355.48	-45.91
355.692	25.77
355.903	-54.1
356.115	19.63
356.326	-0.85
356.538	-0.85
356.749	79.02
356.961	1.19
357.172	52.39
357.384	21.67
357.595	58.54
357.807	-9.05
358.018	-25.43
358.23	107.69
358.441	85.16
358.653	-74.58
358.864	-97.11
359.075	21.67
359.287	-2.9
359.498	17.58
359.709	27.82
359.921	48.3
360.132	-17.24
360.344	50.35
360.555	42.15
360.766	7.34
360.977	48.3
361.189	54.44
361.4	40.11
361.611	5.29
361.823	27.82
362.034	-41.81
362.245	13.48
362.456	44.2
362.667	-21.33
362.879	-25.43
363.09	72.87
363.301	44.2
363.512	23.72
363.723	62.63
363.935	-13.14
364.146	-25.43
364.357	1.19
364.568	-13.14
364.779	52.39
364.99	66.73
365.201	15.53
365.412	46.25
365.623	13.48
365.834	-15.19
366.045	17.58
366.256	36.01
366.467	15.53
366.678	-11.09
366.889	29.87
367.1	29.87
367.311	-9.05
367.522	23.72
367.733	58.54
367.944	-4.95
368.155	11.43
368.366	27.82
368.577	7.34
368.788	-0.85
368.999	5.29
369.209	-11.09
369.42	-23.38
369.631	19.63
369.842	60.59
370.053	19.63
370.264	7.34
370.474	-7
370.685	19.63
370.896	-27.48
371.107	-27.48
371.317	1.19
371.528	13.48
371.739	7.34
371.95	-21.33
372.16	42.15
372.371	-7
372.582	-19.29
372.792	25.77
373.003	56.49
373.214	79.02
373.424	-17.24
373.635	27.82
373.846	5.29
374.056	-23.38
374.267	-0.85
374.477	19.63
374.688	42.15
374.898	-33.62
375.109	44.2
375.319	44.2
375.53	64.68
375.74	-27.48
375.951	-21.33
376.161	62.63
376.372	64.68
376.582	52.39
376.793	-7
377.003	21.67
377.214	1.19
377.424	-21.33
377.635	58.54
377.845	17.58
378.055	31.91
378.266	-15.19
378.476	-45.91
378.686	5.29
378.897	68.78
379.107	56.49
379.317	25.77
379.528	72.87
379.738	31.91
379.948	36.01
380.158	29.87
380.369	-27.48
380.579	-39.76
380.789	70.83
380.999	36.01
381.21	46.25
381.42	58.54
381.63	-0.85
381.84	70.83
382.05	-9.05
382.261	93.35
382.471	11.43
382.681	64.68
382.891	25.77
383.101	1.19
383.311	-11.09
383.521	29.87
383.731	124.07
383.941	-4.95
384.151	-23.38
384.361	54.44
384.571	105.64
384.781	27.82
384.991	29.87
385.201	-58.2
385.411	-25.43
385.621	33.96
385.831	-37.72
386.041	44.2
386.251	-15.19
386.461	62.63
386.671	33.96
386.881	13.48
387.091	42.15
387.301	29.87
387.511	46.25
387.72	15.53
387.93	25.77
388.14	33.96
388.35	-27.48
388.56	70.83
388.769	29.87
388.979	-9.05
389.189	-17.24
389.399	29.87
389.609	58.54
389.818	38.06
390.028	-4.95
390.238	50.35
390.447	7.34
390.657	-2.9
390.867	29.87
391.076	17.58
391.286	-4.95
391.496	38.06
391.705	-50
391.915	87.21
392.125	5.29
392.334	68.78
392.544	66.73
392.753	-9.05
392.963	-0.85
393.172	124.07
393.382	-80.72
393.591	72.87
393.801	33.96
394.01	-11.09
394.22	93.35
394.429	-0.85
394.639	36.01
394.848	17.58
395.058	-43.86
395.267	66.73
395.477	68.78
395.686	60.59
395.895	95.4
396.105	15.53
396.314	95.4
396.524	109.74
396.733	31.91
396.942	48.3
397.152	-45.91
397.361	50.35
397.57	25.77
397.78	74.92
397.989	38.06
398.198	54.44
398.407	-7
398.617	83.11
398.826	23.72
399.035	70.83
399.244	38.06
399.453	11.43
399.663	119.98
399.872	-21.33
400.081	64.68
400.29	33.96
400.499	70.83
400.708	97.45
400.917	31.91
401.127	40.11
401.336	33.96
401.545	107.69
401.754	99.5
401.963	72.87
402.172	79.02
402.381	42.15
402.59	29.87
402.799	99.5
403.008	70.83
403.217	64.68
403.426	-23.38
403.635	27.82
403.844	9.39
404.053	36.01
404.262	-4.95
404.471	148.65
404.68	52.39
404.888	62.63
405.097	46.25
405.306	5.29
405.515	91.31
405.724	5.29
405.933	44.2
406.142	70.83
406.35	27.82
406.559	79.02
406.768	40.11
406.977	52.39
407.185	31.91
407.394	95.4
407.603	103.59
407.812	146.6
408.02	93.35
408.229	56.49
408.438	76.97
408.646	146.6
408.855	66.73
409.064	56.49
409.272	128.17
409.481	122.02
409.69	146.6
409.898	81.07
410.107	160.94
410.315	160.94
410.524	117.93
410.733	140.46
410.941	154.79
411.15	214.18
411.358	175.27
411.567	251.05
411.775	136.36
411.984	169.13
412.192	146.6
412.401	160.94
412.609	242.85
412.818	271.53
413.026	242.85
413.234	187.56
413.443	277.67
413.651	283.81
413.86	240.81
414.068	255.14
414.276	292.01
414.485	277.67
414.693	314.53
414.901	298.15
415.11	269.48
415.318	249
415.526	332.97
415.734	375.97
415.943	304.29
416.151	355.49
416.359	345.25
416.567	394.4
416.776	365.73
416.984	441.51
417.192	427.17
417.4	433.32
417.608	449.7
417.817	572.58
418.025	439.46
418.233	533.67
418.441	455.84
418.649	482.47
418.857	572.58
419.065	578.72
419.273	574.63
419.481	554.15
419.689	658.59
419.897	732.32
420.105	654.5
420.313	685.22
420.521	724.13
420.729	769.18
420.937	763.04
421.145	734.37
421.353	771.23
421.561	834.72
421.769	953.5
421.977	887.97
422.185	1008.8
422.393	984.22
422.601	1047.71
422.809	996.51
423.017	1076.38
423.224	1105.05
423.432	1156.25
423.64	1064.09
423.848	1209.5
424.056	1211.54
424.263	1359
424.471	1238.17
424.679	1318.04
424.887	1410.2
425.094	1408.15
425.302	1436.82
425.51	1430.68
425.718	1455.25
425.925	1531.03
426.133	1563.79
426.341	1709.2
426.548	1641.62
426.756	1748.11
426.964	1823.89
427.171	1922.19
427.379	1926.29
427.586	2038.92
427.794	2057.36
428.001	2090.12
428.209	2299.02
428.417	2112.65
428.624	2284.68
428.832	2290.82
429.039	2299.02
429.247	2358.41
429.454	2473.09
429.662	2671.75
429.869	2526.34
430.076	2755.71
430.284	2784.38
430.491	2761.86
430.699	2913.41
430.906	2825.34
431.114	2894.97
431.321	3218.55
431.528	3107.96
431.736	3402.87
431.943	3398.77
432.15	3220.6
432.358	3314.81
432.565	3611.76
432.772	3456.12
432.979	3636.34
433.187	3796.08
433.394	3826.8
433.601	4129.9
433.808	4068.46
434.016	4060.27
434.223	4154.48
434.43	4519.01
434.637	4463.72
434.844	4686.95
435.052	4805.73
435.259	4783.2
435.466	4826.21
435.673	4668.52
435.88	5153.88
436.087	5543
436.294	5198.94
436.501	5213.28
436.708	5282.91
436.915	5524.57
437.122	5682.26
437.329	5821.52
437.537	5942.35
437.743	6083.66
437.95	5981.26
438.157	6257.74
438.364	6593.61
438.571	6532.17
438.778	6562.89
438.985	7134.27
439.192	6978.62
439.399	7078.97
439.606	6855.75
439.813	7191.61
440.02	7861.3
440.227	7633.97
440.433	7732.28
440.64	7713.84
440.847	7662.65
441.054	8008.75
441.261	8393.77
441.467	8367.15
441.674	8510.5
441.881	8778.79
442.088	8993.83
442.294	8836.13
442.501	8983.59
442.708	9294.88
442.914	9520.15
443.121	9815.06
443.328	9739.29
443.534	10456.08
443.741	10060.82
443.948	9980.95
444.154	10662.92
444.361	10611.72
444.568	10470.41
444.774	10638.34
444.981	10796.04
445.187	11144.19
445.394	11498.49
445.6	11752.44
445.807	12659.69
446.013	12217.33
446.22	12209.14
446.426	12774.38
446.633	12938.21
446.839	13415.39
447.046	12680.17
447.252	13679.58
447.459	13560.8
447.665	13663.19
447.871	14379.98
448.078	14853.06
448.284	14177.23
448.491	14183.38
448.697	15131.59
448.903	15418.3
449.11	15365.06
449.316	15004.61
449.522	15498.17
449.728	15870.9
449.935	16176.05
450.141	15956.92
450.347	16311.22
450.553	15711.16
450.76	16094.13
450.966	16620.46
451.172	16405.42
451.378	16743.34
451.584	16573.36
451.791	16999.34
451.997	16958.38
452.203	17329.06
452.409	17355.68
452.615	17175.46
452.821	16286.64
453.027	16604.08
453.233	17140.65
453.44	16614.32
453.646	16665.52
453.852	16980.9
454.058	17388.45
454.264	16720.81
454.47	16892.84
454.676	16462.77
454.882	17165.22
455.088	15619
455.294	15948.73
455.5	16202.68
455.705	16343.99
455.911	15700.92
456.117	15254.47
456.323	15152.07
456.529	14392.27
456.735	14945.22
456.941	14642.12
457.147	14212.05
457.352	13808.6
457.558	13843.42
457.764	13695.96
457.97	13523.93
458.176	13401.05
458.381	13292.51
458.587	12583.91
458.793	12641.26
458.999	12030.96
459.204	12889.06
459.41	12532.72
459.616	11625.47
459.821	11635.71
460.027	11750.39
460.233	11475.96
460.438	10886.15
460.644	10982.4
460.85	10615.82
461.055	10335.24
461.261	10298.38
461.466	9552.92
461.672	9196.57
461.878	10085.39
462.083	9341.98
462.289	9051.17
462.494	9077.79
462.7	8561.7
462.905	8281.13
463.111	8596.52
463.316	8596.52
463.522	8662.05
463.727	8487.98
463.932	8576.04
464.138	8467.5
464.343	8295.47
464.549	8293.42
464.754	8432.68
464.959	8444.97
465.165	8281.13
465.37	8002.61
465.575	7779.38
465.781	8086.58
465.986	8115.25
466.191	7881.78
466.397	7552.06
466.602	7253.05
466.807	7631.93
467.012	7791.67
467.218	7502.9
467.423	7437.37
467.628	7375.93
467.833	7990.32
468.038	7429.18
468.244	7275.58
468.449	7666.74
468.654	7158.85
468.859	7390.27
469.064	7380.03
469.269	6986.82
469.474	7117.89
469.679	7087.17
