Data from USB4F104151__17__12-58-33-419.txt Node

Date: Fri Mar 14 12:58:33 EDT 2025
User: louis
Spectrometer: USB4F10415
Trigger mode: 4
Integration Time (sec): 1.000000E-2
Scans to average: 1
Electric dark correction enabled: true
Nonlinearity correction enabled: false
Boxcar width: 0
XAxis mode: Wavelengths
Number of Pixels in Spectrum: 3648
>>>>>Begin Spectral Data<<<<<
178.204	-7.17
178.424	-7.17
178.644	-7.17
178.864	-44.03
179.084	-3.07
179.304	-68.61
179.524	-25.6
179.744	93.18
179.964	66.56
180.184	-27.65
180.404	-15.36
180.624	58.37
180.844	5.12
181.064	-41.98
181.283	-27.65
181.503	29.7
181.723	-46.08
181.943	23.55
182.163	13.31
182.383	33.79
182.602	60.42
182.822	-35.84
183.042	-15.36
183.262	44.03
183.482	68.61
183.701	-39.94
183.921	23.55
184.141	23.55
184.361	64.51
184.58	-1.02
184.8	80.89
185.02	11.26
185.239	82.94
185.459	58.37
185.679	9.22
185.898	-31.74
186.118	31.74
186.338	-17.41
186.557	64.51
186.777	37.89
186.997	58.37
187.216	33.79
187.436	-33.79
187.655	7.17
187.875	33.79
188.095	23.55
188.314	19.46
188.534	66.56
188.753	46.08
188.973	9.22
189.192	-5.12
189.412	-13.31
189.631	9.22
189.851	33.79
190.07	33.79
190.29	-23.55
190.509	50.18
190.729	7.17
190.948	87.04
191.168	144.38
191.387	87.04
191.607	-23.55
191.826	25.6
192.045	-5.12
192.265	9.22
192.484	111.61
192.704	25.6
192.923	19.46
193.142	46.08
193.362	93.18
193.581	35.84
193.8	-17.41
194.02	89.09
194.239	78.85
194.458	33.79
194.678	27.65
194.897	66.56
195.116	64.51
195.335	39.94
195.555	35.84
195.774	117.76
195.993	82.94
196.212	35.84
196.432	35.84
196.651	68.61
196.87	25.6
197.089	56.32
197.308	87.04
197.528	-11.26
197.747	41.98
197.966	31.74
198.185	56.32
198.404	15.36
198.623	19.46
198.842	39.94
199.062	66.56
199.281	60.42
199.5	-21.5
199.719	41.98
199.938	50.18
200.157	60.42
200.376	89.09
200.595	48.13
200.814	41.98
201.033	19.46
201.252	97.28
201.471	56.32
201.69	60.42
201.909	70.65
202.128	-5.12
202.347	19.46
202.566	62.46
202.785	5.12
203.004	-1.02
203.223	78.85
203.442	142.33
203.661	-7.17
203.879	-9.22
204.098	15.36
204.317	-7.17
204.536	50.18
204.755	31.74
204.974	31.74
205.193	25.6
205.411	-31.74
205.63	-13.31
205.849	58.37
206.068	44.03
206.287	9.22
206.505	11.26
206.724	58.37
206.943	-7.17
207.162	35.84
207.381	19.46
207.599	70.65
207.818	66.56
208.037	7.17
208.255	9.22
208.474	64.51
208.693	27.65
208.911	64.51
209.13	-15.36
209.349	91.13
209.567	21.5
209.786	115.71
210.005	31.74
210.223	31.74
210.442	9.22
210.661	13.31
210.879	7.17
211.098	70.65
211.316	58.37
211.535	3.07
211.753	-11.26
211.972	-48.13
212.191	21.5
212.409	1.02
212.628	15.36
212.846	46.08
213.065	7.17
213.283	-7.17
213.502	72.7
213.72	62.46
213.938	80.89
214.157	19.46
214.375	74.75
214.594	66.56
214.812	54.27
215.031	99.33
215.249	19.46
215.467	87.04
215.686	95.23
215.904	76.8
216.122	37.89
216.341	52.22
216.559	-29.7
216.778	37.89
216.996	39.94
217.214	-21.5
217.432	70.65
217.651	15.36
217.869	41.98
218.087	31.74
218.306	-7.17
218.524	64.51
218.742	-5.12
218.96	-5.12
219.179	9.22
219.397	109.57
219.615	-37.89
219.833	5.12
220.051	39.94
220.27	29.7
220.488	15.36
220.706	72.7
220.924	-3.07
221.142	31.74
221.36	50.18
221.578	80.89
221.796	64.51
222.015	64.51
222.233	11.26
222.451	-7.17
222.669	-1.02
222.887	33.79
223.105	19.46
223.323	60.42
223.541	33.79
223.759	119.81
223.977	31.74
224.195	46.08
224.413	-19.46
224.631	44.03
224.849	68.61
225.067	-15.36
225.285	17.41
225.503	56.32
225.721	1.02
225.939	-1.02
226.157	76.8
226.375	31.74
226.592	-25.6
226.81	-1.02
227.028	105.47
227.246	39.94
227.464	-21.5
227.682	113.66
227.9	41.98
228.117	5.12
228.335	-25.6
228.553	56.32
228.771	58.37
228.989	27.65
229.206	35.84
229.424	-46.08
229.642	7.17
229.86	46.08
230.077	5.12
230.295	-27.65
230.513	31.74
230.731	54.27
230.948	19.46
231.166	82.94
231.384	76.8
231.601	39.94
231.819	-17.41
232.037	66.56
232.254	25.6
232.472	64.51
232.689	25.6
232.907	89.09
233.125	44.03
233.342	-9.22
233.56	64.51
233.777	84.99
233.995	39.94
234.213	5.12
234.43	-33.79
234.648	113.66
234.865	52.22
235.083	27.65
235.3	-31.74
235.518	48.13
235.735	58.37
235.953	84.99
236.17	-29.7
236.388	-11.26
236.605	-1.02
236.822	33.79
237.04	25.6
237.257	44.03
237.475	31.74
237.692	70.65
237.909	35.84
238.127	13.31
238.344	89.09
238.562	82.94
238.779	23.55
238.996	5.12
239.214	-50.18
239.431	58.37
239.648	54.27
239.865	54.27
240.083	-7.17
240.3	109.57
240.517	80.89
240.735	62.46
240.952	35.84
241.169	15.36
241.386	46.08
241.603	-29.7
241.821	97.28
242.038	89.09
242.255	56.32
242.472	-46.08
242.689	39.94
242.907	1.02
243.124	52.22
243.341	23.55
243.558	35.84
243.775	1.02
243.992	7.17
244.209	23.55
244.426	74.75
244.643	50.18
244.86	5.12
245.078	19.46
245.295	13.31
245.512	41.98
245.729	-3.07
245.946	72.7
246.163	11.26
246.38	27.65
246.597	44.03
246.814	111.61
247.031	13.31
247.248	39.94
247.464	60.42
247.681	9.22
247.898	21.5
248.115	64.51
248.332	-15.36
248.549	54.27
248.766	31.74
248.983	60.42
249.2	21.5
249.417	-1.02
249.633	-25.6
249.85	46.08
250.067	44.03
250.284	48.13
250.501	33.79
250.717	50.18
250.934	50.18
251.151	62.46
251.368	50.18
251.585	31.74
251.801	68.61
252.018	64.51
252.235	11.26
252.451	113.66
252.668	-17.41
252.885	70.65
253.102	-23.55
253.318	74.75
253.535	-39.94
253.752	3.07
253.968	9.22
254.185	15.36
254.401	3.07
254.618	87.04
254.835	27.65
255.051	68.61
255.268	15.36
255.484	46.08
255.701	150.53
255.917	56.32
256.134	58.37
256.351	48.13
256.567	-1.02
256.784	64.51
257	15.36
257.217	35.84
257.433	54.27
257.65	99.33
257.866	50.18
258.082	107.52
258.299	62.46
258.515	-15.36
258.732	60.42
258.948	91.13
259.165	93.18
259.381	-1.02
259.597	17.41
259.814	87.04
260.03	27.65
260.246	-17.41
260.463	5.12
260.679	66.56
260.895	-3.07
261.112	35.84
261.328	11.26
261.544	-23.55
261.761	25.6
261.977	27.65
262.193	13.31
262.409	60.42
262.626	128
262.842	58.37
263.058	11.26
263.274	46.08
263.49	21.5
263.707	58.37
263.923	9.22
264.139	-25.6
264.355	-7.17
264.571	41.98
264.787	-5.12
265.004	41.98
265.22	84.99
265.436	-27.65
265.652	52.22
265.868	31.74
266.084	33.79
266.3	13.31
266.516	50.18
266.732	39.94
266.948	31.74
267.164	84.99
267.38	-9.22
267.596	56.32
267.812	1.02
268.028	66.56
268.244	78.85
268.46	-25.6
268.676	41.98
268.892	56.32
269.108	68.61
269.324	27.65
269.54	52.22
269.756	76.8
269.972	27.65
270.188	48.13
270.403	-48.13
270.619	89.09
270.835	-11.26
271.051	41.98
271.267	95.23
271.483	-41.98
271.698	37.89
271.914	113.66
272.13	41.98
272.346	52.22
272.562	-19.46
272.777	72.7
272.993	48.13
273.209	33.79
273.425	82.94
273.64	41.98
273.856	-17.41
274.072	60.42
274.287	46.08
274.503	64.51
274.719	60.42
274.934	17.41
275.15	31.74
275.366	7.17
275.581	17.41
275.797	31.74
276.012	3.07
276.228	46.08
276.444	-31.74
276.659	117.76
276.875	13.31
277.09	9.22
277.306	33.79
277.521	64.51
277.737	72.7
277.952	-13.31
278.168	-15.36
278.383	56.32
278.599	44.03
278.814	19.46
279.03	-56.32
279.245	66.56
279.461	58.37
279.676	-9.22
279.892	62.46
280.107	44.03
280.322	130.05
280.538	44.03
280.753	-13.31
280.969	-13.31
281.184	35.84
281.399	70.65
281.615	7.17
281.83	68.61
282.045	37.89
282.26	44.03
282.476	-3.07
282.691	39.94
282.906	41.98
283.122	54.27
283.337	-5.12
283.552	-13.31
283.767	66.56
283.983	33.79
284.198	60.42
284.413	58.37
284.628	33.79
284.843	62.46
285.058	60.42
285.274	101.37
285.489	-5.12
285.704	37.89
285.919	-29.7
286.134	25.6
286.349	31.74
286.564	46.08
286.779	23.55
286.995	19.46
287.21	-41.98
287.425	5.12
287.64	76.8
287.855	109.57
288.07	1.02
288.285	89.09
288.5	119.81
288.715	37.89
288.93	3.07
289.145	7.17
289.36	7.17
289.575	25.6
289.79	39.94
290.004	35.84
290.219	15.36
290.434	-19.46
290.649	46.08
290.864	54.27
291.079	68.61
291.294	62.46
291.509	109.57
291.724	15.36
291.938	54.27
292.153	7.17
292.368	13.31
292.583	41.98
292.798	7.17
293.012	76.8
293.227	48.13
293.442	68.61
293.657	70.65
293.871	66.56
294.086	9.22
294.301	23.55
294.516	52.22
294.73	17.41
294.945	44.03
295.16	103.42
295.374	93.18
295.589	48.13
295.804	-27.65
296.018	25.6
296.233	27.65
296.447	72.7
296.662	31.74
296.877	33.79
297.091	80.89
297.306	54.27
297.52	37.89
297.735	125.95
297.949	56.32
298.164	68.61
298.378	41.98
298.593	-17.41
298.807	72.7
299.022	48.13
299.236	-15.36
299.451	17.41
299.665	93.18
299.88	39.94
300.094	44.03
300.309	-9.22
300.523	1.02
300.737	-7.17
300.952	56.32
301.166	13.31
301.381	31.74
301.595	31.74
301.809	37.89
302.024	58.37
302.238	-3.07
302.452	-3.07
302.667	17.41
302.881	140.29
303.095	39.94
303.309	27.65
303.524	-17.41
303.738	39.94
303.952	68.61
304.166	-41.98
304.381	17.41
304.595	60.42
304.809	-39.94
305.023	50.18
305.237	66.56
305.452	52.22
305.666	41.98
305.88	7.17
306.094	-37.89
306.308	13.31
306.522	25.6
306.736	21.5
306.95	58.37
307.164	29.7
307.379	115.71
307.593	-7.17
307.807	87.04
308.021	44.03
308.235	60.42
308.449	17.41
308.663	76.8
308.877	125.95
309.091	84.99
309.305	115.71
309.519	46.08
309.733	-54.27
309.947	25.6
310.161	89.09
310.374	56.32
310.588	33.79
310.802	-21.5
311.016	142.33
311.23	-5.12
311.444	95.23
311.658	19.46
311.872	66.56
312.085	56.32
312.299	-5.12
312.513	37.89
312.727	66.56
312.941	48.13
313.154	41.98
313.368	19.46
313.582	62.46
313.796	87.04
314.009	3.07
314.223	-39.94
314.437	44.03
314.651	50.18
314.864	44.03
315.078	44.03
315.292	25.6
315.505	35.84
315.719	46.08
315.933	21.5
316.146	15.36
316.36	15.36
316.573	95.23
316.787	70.65
317.001	64.51
317.214	23.55
317.428	54.27
317.641	50.18
317.855	82.94
318.068	3.07
318.282	123.9
318.495	31.74
318.709	58.37
318.922	46.08
319.136	37.89
319.349	11.26
319.563	31.74
319.776	21.5
319.99	17.41
320.203	7.17
320.417	11.26
320.63	11.26
320.843	35.84
321.057	136.19
321.27	74.75
321.483	68.61
321.697	119.81
321.91	95.23
322.124	7.17
322.337	17.41
322.55	17.41
322.763	27.65
322.977	-35.84
323.19	11.26
323.403	23.55
323.617	7.17
323.83	56.32
324.043	125.95
324.256	21.5
324.469	37.89
324.683	58.37
324.896	46.08
325.109	64.51
325.322	31.74
325.535	66.56
325.748	41.98
325.962	66.56
326.175	31.74
326.388	-11.26
326.601	95.23
326.814	46.08
327.027	74.75
327.24	66.56
327.453	33.79
327.666	35.84
327.879	7.17
328.092	121.85
328.305	44.03
328.518	5.12
328.731	72.7
328.944	37.89
329.157	35.84
329.37	66.56
329.583	-5.12
329.796	68.61
330.009	3.07
330.222	121.85
330.435	-21.5
330.648	66.56
330.861	107.52
331.073	15.36
331.286	95.23
331.499	48.13
331.712	64.51
331.925	3.07
332.138	48.13
332.35	95.23
332.563	31.74
332.776	21.5
332.989	48.13
333.202	130.05
333.414	82.94
333.627	54.27
333.84	58.37
334.053	62.46
334.265	56.32
334.478	-7.17
334.691	-35.84
334.903	89.09
335.116	72.7
335.329	41.98
335.541	111.61
335.754	66.56
335.966	33.79
336.179	19.46
336.392	3.07
336.604	-1.02
336.817	39.94
337.029	11.26
337.242	62.46
337.454	13.31
337.667	23.55
337.88	48.13
338.092	58.37
338.305	58.37
338.517	21.5
338.729	50.18
338.942	64.51
339.154	-21.5
339.367	7.17
339.579	76.8
339.792	17.41
340.004	74.75
340.217	25.6
340.429	130.05
340.641	33.79
340.854	31.74
341.066	21.5
341.278	-13.31
341.491	41.98
341.703	115.71
341.915	93.18
342.128	17.41
342.34	15.36
342.552	91.13
342.764	56.32
342.977	89.09
343.189	46.08
343.401	113.66
343.613	-13.31
343.826	-35.84
344.038	64.51
344.25	54.27
344.462	19.46
344.674	60.42
344.886	50.18
345.099	80.89
345.311	9.22
345.523	50.18
345.735	5.12
345.947	80.89
346.159	105.47
346.371	31.74
346.583	44.03
346.795	72.7
347.007	-52.22
347.219	48.13
347.431	103.42
347.643	25.6
347.855	-27.65
348.067	27.65
348.279	50.18
348.491	17.41
348.703	91.13
348.915	-13.31
349.127	13.31
349.339	-35.84
349.551	11.26
349.763	-25.6
349.975	-9.22
350.187	128
350.399	99.33
350.61	54.27
350.822	95.23
351.034	50.18
351.246	15.36
351.458	60.42
351.669	84.99
351.881	21.5
352.093	107.52
352.305	-11.26
352.517	105.47
352.728	39.94
352.94	97.28
353.152	1.02
353.363	-37.89
353.575	15.36
353.787	13.31
353.999	46.08
354.21	31.74
354.422	-25.6
354.633	97.28
354.845	70.65
355.057	21.5
355.268	37.89
355.48	66.56
355.692	-27.65
355.903	58.37
356.115	-15.36
356.326	68.61
356.538	58.37
356.749	21.5
356.961	66.56
357.172	91.13
357.384	-7.17
357.595	48.13
357.807	74.75
358.018	93.18
358.23	11.26
358.441	17.41
358.653	128
358.864	64.51
359.075	29.7
359.287	89.09
359.498	105.47
359.709	9.22
359.921	-13.31
360.132	44.03
360.344	50.18
360.555	9.22
360.766	52.22
360.977	35.84
361.189	64.51
361.4	-17.41
361.611	-11.26
361.823	5.12
362.034	97.28
362.245	54.27
362.456	136.19
362.667	52.22
362.879	21.5
363.09	25.6
363.301	87.04
363.512	58.37
363.723	64.51
363.935	3.07
364.146	-37.89
364.357	41.98
364.568	46.08
364.779	48.13
364.99	142.33
365.201	33.79
365.412	60.42
365.623	11.26
365.834	9.22
366.045	-37.89
366.256	89.09
366.467	7.17
366.678	41.98
366.889	150.53
367.1	99.33
367.311	56.32
367.522	-13.31
367.733	11.26
367.944	76.8
368.155	-1.02
368.366	89.09
368.577	39.94
368.788	31.74
368.999	-13.31
369.209	-15.36
369.42	54.27
369.631	105.47
369.842	-33.79
370.053	17.41
370.264	11.26
370.474	74.75
370.685	50.18
370.896	44.03
371.107	48.13
371.317	66.56
371.528	44.03
371.739	7.17
371.95	39.94
372.16	64.51
372.371	46.08
372.582	29.7
372.792	80.89
373.003	64.51
373.214	76.8
373.424	62.46
373.635	-25.6
373.846	68.61
374.056	39.94
374.267	-7.17
374.477	-19.46
374.688	99.33
374.898	39.94
375.109	11.26
375.319	76.8
375.53	19.46
375.74	-1.02
375.951	7.17
376.161	-13.31
376.372	70.65
376.582	70.65
376.793	31.74
377.003	3.07
377.214	39.94
377.424	66.56
377.635	68.61
377.845	41.98
378.055	50.18
378.266	97.28
378.476	60.42
378.686	23.55
378.897	78.85
379.107	74.75
379.317	76.8
379.528	-29.7
379.738	23.55
379.948	37.89
380.158	21.5
380.369	44.03
380.579	62.46
380.789	66.56
380.999	76.8
381.21	41.98
381.42	35.84
381.63	52.22
381.84	132.09
382.05	31.74
382.261	27.65
382.471	21.5
382.681	66.56
382.891	95.23
383.101	121.85
383.311	60.42
383.521	95.23
383.731	-9.22
383.941	58.37
384.151	23.55
384.361	13.31
384.571	78.85
384.781	89.09
384.991	97.28
385.201	5.12
385.411	76.8
385.621	93.18
385.831	17.41
386.041	52.22
386.251	15.36
386.461	54.27
386.671	95.23
386.881	41.98
387.091	97.28
387.301	62.46
387.511	-62.46
387.72	74.75
387.93	35.84
388.14	50.18
388.35	89.09
388.56	52.22
388.769	76.8
388.979	1.02
389.189	54.27
389.399	60.42
389.609	113.66
389.818	66.56
390.028	21.5
390.238	31.74
390.447	54.27
390.657	66.56
390.867	15.36
391.076	7.17
391.286	5.12
391.496	70.65
391.705	39.94
391.915	41.98
392.125	-19.46
392.334	130.05
392.544	91.13
392.753	70.65
392.963	56.32
393.172	82.94
393.382	60.42
393.591	109.57
393.801	25.6
394.01	89.09
394.22	70.65
394.429	82.94
394.639	54.27
394.848	80.89
395.058	54.27
395.267	66.56
395.477	27.65
395.686	76.8
395.895	56.32
396.105	109.57
396.314	72.7
396.524	58.37
396.733	60.42
396.942	60.42
397.152	23.55
397.361	93.18
397.57	121.85
397.78	107.52
397.989	64.51
398.198	171.01
398.407	44.03
398.617	58.37
398.826	82.94
399.035	56.32
399.244	60.42
399.453	93.18
399.663	87.04
399.872	111.61
400.081	33.79
400.29	105.47
400.499	142.33
400.708	56.32
400.917	140.29
401.127	66.56
401.336	134.14
401.545	138.24
401.754	84.99
401.963	64.51
402.172	54.27
402.381	111.61
402.59	91.13
402.799	107.52
403.008	78.85
403.217	171.01
403.426	89.09
403.635	95.23
403.844	103.42
404.053	125.95
404.262	44.03
404.471	164.86
404.68	117.76
404.888	242.68
405.097	115.71
405.306	187.39
405.515	164.86
405.724	152.57
405.933	117.76
406.142	107.52
406.35	125.95
406.559	164.86
406.768	60.42
406.977	107.52
407.185	199.68
407.394	136.19
407.603	171.01
407.812	103.42
408.02	187.39
408.229	154.62
408.438	132.09
408.646	205.82
408.855	123.9
409.064	156.67
409.272	166.91
409.481	195.58
409.69	189.44
409.898	259.07
410.107	248.83
410.315	265.21
410.524	158.72
410.733	230.4
410.941	220.16
411.15	277.5
411.358	295.93
411.567	279.55
411.775	193.53
411.984	304.12
412.192	240.64
412.401	246.78
412.609	279.55
412.818	406.52
413.026	334.84
413.234	336.89
413.443	281.6
413.651	392.19
413.86	365.56
414.068	410.62
414.276	392.19
414.485	427
414.693	427
414.901	498.68
415.11	414.71
415.318	443.39
415.526	455.67
415.734	533.5
415.943	539.64
416.151	490.49
416.359	506.87
416.567	615.41
416.776	642.04
416.984	617.46
417.192	650.23
417.4	695.29
417.608	621.56
417.817	697.33
418.025	814.07
418.233	752.63
418.441	689.14
418.649	760.82
418.857	836.6
419.065	840.69
419.273	803.83
419.481	877.55
419.689	930.8
419.897	1051.63
420.105	928.75
420.313	1008.62
420.521	1086.45
420.729	1076.21
420.937	975.86
421.145	1088.5
421.353	1147.89
421.561	1252.33
421.769	1250.28
421.977	1354.73
422.185	1240.05
422.393	1412.07
422.601	1512.42
422.809	1424.36
423.017	1588.2
423.224	1557.48
423.432	1594.34
423.64	1649.64
423.848	1725.41
424.056	1631.21
424.263	1768.42
424.471	1745.89
424.679	1844.2
424.887	2030.56
425.094	1973.22
425.302	1917.92
425.51	2137.06
425.718	2233.31
425.925	2137.06
426.133	2257.89
426.341	2354.14
426.548	2388.96
426.756	2405.34
426.964	2532.31
427.171	2630.62
427.379	2665.43
427.586	2761.69
427.794	2833.36
428.001	3068.88
428.209	3068.88
428.417	3034.07
428.624	3316.69
428.832	3365.84
429.039	3195.86
429.247	3222.48
429.454	3681.22
429.662	3746.76
429.869	3683.27
430.076	3830.73
430.284	3763.14
430.491	3935.17
430.699	4109.25
430.906	4121.54
431.114	4080.58
431.321	4281.28
431.528	4391.87
431.736	4690.87
431.943	4948.92
432.15	4760.5
432.358	4740.02
432.565	5045.17
432.772	5100.47
432.979	5309.36
433.187	5489.58
433.394	5456.81
433.601	5913.51
433.808	5794.73
434.016	5809.06
434.223	6075.3
434.43	6388.64
434.637	6308.77
434.844	6724.51
435.052	6691.74
435.259	6761.37
435.466	6695.83
435.673	6777.75
435.88	7244.69
436.087	7465.87
436.294	7291.79
436.501	7345.04
436.708	7469.97
436.915	7801.74
437.122	8053.64
437.329	8057.73
437.537	8395.65
437.743	8379.26
437.95	8442.75
438.157	8993.65
438.364	9106.29
438.571	8979.32
438.778	9306.99
438.985	10081.13
439.192	9585.52
439.399	9958.25
439.606	9841.51
439.813	10085.22
440.02	10875.74
440.227	10709.85
440.433	10523.49
440.64	11176.79
440.847	10851.16
441.054	11166.55
441.261	12022.6
441.467	11672.4
441.674	12028.74
441.881	12647.23
442.088	12403.52
442.294	12419.91
442.501	12733.25
442.708	12942.14
442.914	13396.79
443.121	14271.27
443.328	13495.09
443.534	14451.49
443.741	14258.98
443.948	14086.95
444.154	14863.13
444.361	14992.16
444.568	15158.04
444.774	15010.59
444.981	15211.29
445.187	15569.68
445.394	16288.52
445.6	16130.83
445.807	17605.36
446.013	16825.09
446.22	17480.44
446.426	17961.71
446.633	17881.84
446.839	18434.79
447.046	17744.63
447.252	19198.68
447.459	19006.17
447.665	18926.3
447.871	19716.82
448.078	20558.53
448.284	19749.59
448.491	20323.02
448.697	21158.59
448.903	21529.27
449.11	21424.83
449.316	21285.56
449.522	21451.45
449.728	22198.96
449.935	22377.13
450.141	22026.93
450.347	22760.1
450.553	22108.85
450.76	22313.64
450.966	23394.97
451.172	23095.97
451.378	23775.89
451.584	22674.09
451.791	23364.25
451.997	23653.02
452.203	23911.06
452.409	23995.03
452.615	23995.03
452.821	23122.59
453.027	22768.29
453.233	23816.85
453.44	23143.07
453.646	23415.45
453.852	23571.1
454.058	23947.92
454.264	23173.79
454.47	23554.71
454.676	22989.47
454.882	23882.39
455.088	21934.77
455.294	22080.18
455.5	22575.78
455.705	22919.84
455.911	21668.53
456.117	21234.36
456.323	21023.42
456.529	19929.81
456.735	20630.21
456.941	20378.31
457.147	19946.19
457.352	19372.76
457.558	19120.86
457.764	19184.35
457.97	18920.16
458.176	18264.81
458.381	18291.43
458.587	17558.26
458.793	17564.4
458.999	16489.22
459.204	17867.5
459.41	16882.43
459.616	16349.96
459.821	16233.22
460.027	16102.15
460.233	15778.58
460.438	15045.4
460.644	15221.53
460.85	14379.81
461.055	14295.85
461.261	14127.91
461.466	13218.61
461.672	12845.88
461.878	13787.95
462.083	12696.38
462.289	12630.85
462.494	12493.63
462.7	11754.32
462.905	11553.62
463.111	11844.43
463.316	11957.07
463.522	11832.14
463.727	11637.58
463.932	11844.43
464.138	11731.79
464.343	11498.32
464.549	11256.66
464.754	11684.69
464.959	11479.89
465.165	11576.14
465.37	11068.25
465.575	10789.72
465.781	11262.8
465.986	11289.43
466.191	10818.39
466.397	10593.12
466.602	10195.81
466.807	10511.2
467.012	10443.62
467.218	10294.11
467.423	10472.29
467.628	10427.23
467.833	10922.84
468.038	10361.7
468.244	10099.56
468.449	10457.95
