Data from USB4F104151__14__12-58-30-000.txt Node

Date: Fri Mar 14 12:58:30 EDT 2025
User: louis
Spectrometer: USB4F10415
Trigger mode: 4
Integration Time (sec): 1.000000E-2
Scans to average: 1
Electric dark correction enabled: true
Nonlinearity correction enabled: false
Boxcar width: 0
XAxis mode: Wavelengths
Number of Pixels in Spectrum: 3648
>>>>>Begin Spectral Data<<<<<
178.204	-10.24
178.424	-10.24
178.644	-10.24
178.864	-16.38
179.084	-20.48
179.304	8.19
179.524	18.43
179.744	-34.82
179.964	34.82
180.184	-14.34
180.404	20.48
180.624	49.15
180.844	6.14
181.064	-83.97
181.283	26.62
181.503	-8.19
181.723	-22.53
181.943	-59.39
182.163	-55.3
182.383	-30.72
182.602	18.43
182.822	12.29
183.042	-55.3
183.262	55.3
183.482	20.48
183.701	-26.62
183.921	-40.96
184.141	-14.34
184.361	-71.68
184.58	26.62
184.8	-20.48
185.02	102.4
185.239	-22.53
185.459	-20.48
185.679	-16.38
185.898	-12.29
186.118	40.96
186.338	71.68
186.557	8.19
186.777	-12.29
186.997	-10.24
187.216	51.2
187.436	55.3
187.655	22.53
187.875	30.72
188.095	20.48
188.314	-28.67
188.534	-14.34
188.753	-8.19
188.973	61.44
189.192	-10.24
189.412	55.3
189.631	-45.06
189.851	-12.29
190.07	38.91
190.29	43.01
190.509	22.53
190.729	18.43
190.948	45.06
191.168	149.5
191.387	-6.14
191.607	8.19
191.826	28.67
192.045	-18.43
192.265	96.25
192.484	38.91
192.704	6.14
192.923	-8.19
193.142	4.1
193.362	-28.67
193.581	-0
193.8	45.06
194.02	16.38
194.239	-69.63
194.458	30.72
194.678	-36.86
194.897	86.01
195.116	26.62
195.335	24.58
195.555	16.38
195.774	-22.53
195.993	-59.39
196.212	83.97
196.432	-10.24
196.651	16.38
196.87	-16.38
197.089	143.36
197.308	47.1
197.528	-4.1
197.747	12.29
197.966	20.48
198.185	24.58
198.404	28.67
198.623	8.19
198.842	-6.14
199.062	16.38
199.281	36.86
199.5	-0
199.719	32.77
199.938	-34.82
200.157	6.14
200.376	-0
200.595	32.77
200.814	20.48
201.033	-4.1
201.252	32.77
201.471	12.29
201.69	10.24
201.909	4.1
202.128	-18.43
202.347	40.96
202.566	-34.82
202.785	-10.24
203.004	53.25
203.223	55.3
203.442	28.67
203.661	38.91
203.879	4.1
204.098	49.15
204.317	-47.1
204.536	20.48
204.755	-16.38
204.974	-40.96
205.193	-14.34
205.411	-10.24
205.63	40.96
205.849	14.34
206.068	-12.29
206.287	24.58
206.505	38.91
206.724	53.25
206.943	6.14
207.162	6.14
207.381	10.24
207.599	-106.49
207.818	-6.14
208.037	-34.82
208.255	16.38
208.474	20.48
208.693	-18.43
208.911	24.58
209.13	28.67
209.349	16.38
209.567	75.77
209.786	83.97
210.005	-45.06
210.223	49.15
210.442	63.49
210.661	-36.86
210.879	14.34
211.098	45.06
211.316	-43.01
211.535	26.62
211.753	-4.1
211.972	-26.62
212.191	55.3
212.409	63.49
212.628	-18.43
212.846	4.1
213.065	63.49
213.283	63.49
213.502	55.3
213.72	18.43
213.938	-32.77
214.157	73.73
214.375	-12.29
214.594	-24.58
214.812	43.01
215.031	43.01
215.249	-18.43
215.467	51.2
215.686	22.53
215.904	63.49
216.122	6.14
216.341	-10.24
216.559	16.38
216.778	4.1
216.996	55.3
217.214	-0
217.432	45.06
217.651	-43.01
217.869	18.43
218.087	40.96
218.306	14.34
218.524	57.34
218.742	51.2
218.96	4.1
219.179	73.73
219.397	14.34
219.615	16.38
219.833	22.53
220.051	40.96
220.27	32.77
220.488	14.34
220.706	-38.91
220.924	4.1
221.142	30.72
221.36	-47.1
221.578	55.3
221.796	30.72
222.015	24.58
222.233	32.77
222.451	22.53
222.669	55.3
222.887	-40.96
223.105	24.58
223.323	28.67
223.541	-43.01
223.759	59.39
223.977	43.01
224.195	53.25
224.413	-12.29
224.631	-30.72
224.849	-0
225.067	40.96
225.285	34.82
225.503	-22.53
225.721	10.24
225.939	47.1
226.157	14.34
226.375	65.53
226.592	45.06
226.81	-36.86
227.028	59.39
227.246	-0
227.464	53.25
227.682	73.73
227.9	36.86
228.117	18.43
228.335	20.48
228.553	-8.19
228.771	-55.3
228.989	104.45
229.206	-38.91
229.424	-6.14
229.642	8.19
229.86	-30.72
230.077	-0
230.295	-6.14
230.513	98.3
230.731	57.34
230.948	38.91
231.166	-30.72
231.384	45.06
231.601	8.19
231.819	-20.48
232.037	-8.19
232.254	30.72
232.472	30.72
232.689	16.38
232.907	112.64
233.125	-10.24
233.342	18.43
233.56	49.15
233.777	-4.1
233.995	32.77
234.213	77.82
234.43	-0
234.648	-47.1
234.865	16.38
235.083	-43.01
235.3	20.48
235.518	10.24
235.735	28.67
235.953	63.49
236.17	-45.06
236.388	-10.24
236.605	-2.05
236.822	4.1
237.04	47.1
237.257	14.34
237.475	-53.25
237.692	114.69
237.909	131.07
238.127	-59.39
238.344	18.43
238.562	75.77
238.779	20.48
238.996	-0
239.214	86.01
239.431	24.58
239.648	-16.38
239.865	-24.58
240.083	20.48
240.3	-28.67
240.517	-65.54
240.735	-18.43
240.952	12.29
241.169	26.62
241.386	55.3
241.603	-8.19
241.821	10.24
242.038	55.3
242.255	-28.67
242.472	24.58
242.689	-36.86
242.907	81.92
243.124	16.38
243.341	59.39
243.558	-6.14
243.775	53.25
243.992	-10.24
244.209	38.91
244.426	75.77
244.643	57.34
244.86	26.62
245.078	28.67
245.295	26.62
245.512	22.53
245.729	55.3
245.946	36.86
246.163	-2.05
246.38	30.72
246.597	45.06
246.814	-59.39
247.031	-24.58
247.248	-10.24
247.464	49.15
247.681	49.15
247.898	8.19
248.115	43.01
248.332	-12.29
248.549	49.15
248.766	20.48
248.983	38.91
249.2	90.11
249.417	59.39
249.633	30.72
249.85	8.19
250.067	18.43
250.284	6.14
250.501	69.63
250.717	36.86
250.934	-30.72
251.151	-45.06
251.368	-34.82
251.585	45.06
251.801	-10.24
252.018	47.1
252.235	16.38
252.451	14.34
252.668	22.53
252.885	8.19
253.102	24.58
253.318	2.05
253.535	83.97
253.752	2.05
253.968	14.34
254.185	18.43
254.401	-30.72
254.618	-2.05
254.835	67.58
255.051	55.3
255.268	24.58
255.484	-26.62
255.701	-0
255.917	-16.38
256.134	2.05
256.351	-16.38
256.567	-28.67
256.784	40.96
257	-0
257.217	30.72
257.433	61.44
257.65	-16.38
257.866	-22.53
258.082	-2.05
258.299	-18.43
258.515	34.82
258.732	45.06
258.948	30.72
259.165	26.62
259.381	16.38
259.597	-18.43
259.814	24.58
260.03	67.58
260.246	12.29
260.463	26.62
260.679	40.96
260.895	12.29
261.112	53.25
261.328	-26.62
261.544	-32.77
261.761	-8.19
261.977	-14.34
262.193	83.97
262.409	16.38
262.626	40.96
262.842	63.49
263.058	67.58
263.274	63.49
263.49	38.91
263.707	-14.34
263.923	12.29
264.139	-22.53
264.355	22.53
264.571	22.53
264.787	55.3
265.004	36.86
265.22	61.44
265.436	-10.24
265.652	108.54
265.868	65.53
266.084	57.34
266.3	92.16
266.516	6.14
266.732	34.82
266.948	28.67
267.164	104.45
267.38	53.25
267.596	-14.34
267.812	6.14
268.028	30.72
268.244	-26.62
268.46	-69.63
268.676	59.39
268.892	26.62
269.108	-8.19
269.324	30.72
269.54	16.38
269.756	-16.38
269.972	28.67
270.188	26.62
270.403	-0
270.619	-2.05
270.835	98.3
271.051	-6.14
271.267	32.77
271.483	-2.05
271.698	34.82
271.914	-40.96
272.13	-18.43
272.346	71.68
272.562	10.24
272.777	-4.1
272.993	-18.43
273.209	81.92
273.425	63.49
273.64	51.2
273.856	40.96
274.072	45.06
274.287	-55.3
274.503	-12.29
274.719	-6.14
274.934	10.24
275.15	6.14
275.366	-6.14
275.581	12.29
275.797	30.72
276.012	-20.48
276.228	63.49
276.444	-26.62
276.659	47.1
276.875	-55.3
277.09	36.86
277.306	-18.43
277.521	-6.14
277.737	12.29
277.952	32.77
278.168	55.3
278.383	63.49
278.599	-6.14
278.814	28.67
279.03	47.1
279.245	-0
279.461	67.58
279.676	49.15
279.892	-2.05
280.107	8.19
280.322	114.69
280.538	24.58
280.753	16.38
280.969	-22.53
281.184	18.43
281.399	86.01
281.615	6.14
281.83	-4.1
282.045	30.72
282.26	32.77
282.476	-16.38
282.691	83.97
282.906	45.06
283.122	-26.62
283.337	-36.86
283.552	22.53
283.767	-18.43
283.983	-20.48
284.198	10.24
284.413	18.43
284.628	-45.06
284.843	16.38
285.058	-10.24
285.274	38.91
285.489	16.38
285.704	-2.05
285.919	30.72
286.134	47.1
286.349	43.01
286.564	8.19
286.779	10.24
286.995	-51.2
287.21	34.82
287.425	32.77
287.64	43.01
287.855	34.82
288.07	-34.82
288.285	-6.14
288.5	98.3
288.715	49.15
288.93	-0
289.145	4.1
289.36	-2.05
289.575	-14.34
289.79	47.1
290.004	43.01
290.219	-0
290.434	49.15
290.649	-0
290.864	18.43
291.079	-38.91
291.294	-0
291.509	20.48
291.724	2.05
291.938	-24.58
292.153	18.43
292.368	-2.05
292.583	63.49
292.798	75.77
293.012	8.19
293.227	-32.77
293.442	49.15
293.657	-12.29
293.871	26.62
294.086	-0
294.301	34.82
294.516	6.14
294.73	-10.24
294.945	-57.34
295.16	24.58
295.374	-2.05
295.589	47.1
295.804	-0
296.018	28.67
296.233	122.88
296.447	53.25
296.662	-30.72
296.877	43.01
297.091	57.34
297.306	6.14
297.52	-22.53
297.735	18.43
297.949	6.14
298.164	-43.01
298.378	45.06
298.593	-24.58
298.807	16.38
299.022	-2.05
299.236	8.19
299.451	59.39
299.665	18.43
299.88	57.34
300.094	40.96
300.309	-4.1
300.523	12.29
300.737	40.96
300.952	14.34
301.166	106.49
301.381	24.58
301.595	-4.1
301.809	26.62
302.024	-57.34
302.238	-2.05
302.452	10.24
302.667	65.53
302.881	2.05
303.095	51.2
303.309	-36.86
303.524	10.24
303.738	26.62
303.952	-55.3
304.166	38.91
304.381	38.91
304.595	-24.58
304.809	14.34
305.023	67.58
305.237	12.29
305.452	-49.15
305.666	34.82
305.88	-4.1
306.094	-20.48
306.308	-22.53
306.522	61.44
306.736	57.34
306.95	63.49
307.164	-49.15
307.379	4.1
307.593	71.68
307.807	-30.72
308.021	-22.53
308.235	6.14
308.449	-30.72
308.663	-2.05
308.877	59.39
309.091	-51.2
309.305	49.15
309.519	-59.39
309.733	-8.19
309.947	-57.34
310.161	43.01
310.374	-8.19
310.588	16.38
310.802	32.77
311.016	-2.05
311.23	12.29
311.444	8.19
311.658	24.58
311.872	59.39
312.085	98.3
312.299	47.1
312.513	-2.05
312.727	55.3
312.941	-18.43
313.154	36.86
313.368	51.2
313.582	-43.01
313.796	6.14
314.009	47.1
314.223	28.67
314.437	67.58
314.651	81.92
314.864	-28.67
315.078	-20.48
315.292	14.34
315.505	2.05
315.719	55.3
315.933	63.49
316.146	83.97
316.36	6.14
316.573	67.58
316.787	12.29
317.001	-14.34
317.214	-30.72
317.428	40.96
317.641	77.82
317.855	63.49
318.068	16.38
318.282	47.1
318.495	112.64
318.709	-10.24
318.922	20.48
319.136	36.86
319.349	-2.05
319.563	49.15
319.776	-10.24
319.99	86.01
320.203	22.53
320.417	30.72
320.63	116.73
320.843	34.82
321.057	30.72
321.27	88.06
321.483	-28.67
321.697	38.91
321.91	73.73
322.124	36.86
322.337	86.01
322.55	32.77
322.763	-75.77
322.977	-6.14
323.19	51.2
323.403	32.77
323.617	45.06
323.83	22.53
324.043	59.39
324.256	67.58
324.469	18.43
324.683	16.38
324.896	10.24
325.109	-49.15
325.322	-2.05
325.535	59.39
325.748	40.96
325.962	-30.72
326.175	-26.62
326.388	-16.38
326.601	12.29
326.814	-0
327.027	-14.34
327.24	34.82
327.453	-16.38
327.666	81.92
327.879	8.19
328.092	22.53
328.305	-2.05
328.518	-20.48
328.731	55.3
328.944	38.91
329.157	8.19
329.37	36.86
329.583	43.01
329.796	92.16
330.009	22.53
330.222	22.53
330.435	-12.29
330.648	30.72
330.861	18.43
331.073	-0
331.286	69.63
331.499	14.34
331.712	40.96
331.925	24.58
332.138	32.77
332.35	38.91
332.563	-63.49
332.776	30.72
332.989	59.39
333.202	55.3
333.414	-53.25
333.627	-20.48
333.84	10.24
334.053	90.11
334.265	-12.29
334.478	12.29
334.691	10.24
334.903	-26.62
335.116	34.82
335.329	16.38
335.541	34.82
335.754	6.14
335.966	49.15
336.179	-0
336.392	12.29
336.604	114.69
336.817	79.87
337.029	14.34
337.242	16.38
337.454	-45.06
337.667	-51.2
337.88	16.38
338.092	10.24
338.305	90.11
338.517	67.58
338.729	-10.24
338.942	2.05
339.154	47.1
339.367	-16.38
339.579	22.53
339.792	-28.67
340.004	43.01
340.217	-6.14
340.429	38.91
340.641	36.86
340.854	-8.19
341.066	55.3
341.278	22.53
341.491	59.39
341.703	18.43
341.915	-14.34
342.128	67.58
342.34	4.1
342.552	-20.48
342.764	10.24
342.977	6.14
343.189	63.49
343.401	51.2
343.613	-34.82
343.826	2.05
344.038	98.3
344.25	22.53
344.462	24.58
344.674	30.72
344.886	22.53
345.099	-2.05
345.311	53.25
345.523	36.86
345.735	32.77
345.947	30.72
346.159	-14.34
346.371	28.67
346.583	92.16
346.795	20.48
347.007	8.19
347.219	22.53
347.431	47.1
347.643	18.43
347.855	18.43
348.067	-6.14
348.279	26.62
348.491	22.53
348.703	-0
348.915	-59.39
349.127	77.82
349.339	14.34
349.551	26.62
349.763	34.82
349.975	-24.58
350.187	34.82
350.399	53.25
350.61	30.72
350.822	8.19
351.034	-14.34
351.246	90.11
351.458	92.16
351.669	-43.01
351.881	36.86
352.093	6.14
352.305	88.06
352.517	16.38
352.728	24.58
352.94	-0
353.152	22.53
353.363	-36.86
353.575	16.38
353.787	63.49
353.999	47.1
354.21	45.06
354.422	-2.05
354.633	67.58
354.845	77.82
355.057	55.3
355.268	69.63
355.48	14.34
355.692	18.43
355.903	-10.24
356.115	18.43
356.326	2.05
356.538	47.1
356.749	26.62
356.961	71.68
357.172	14.34
357.384	-34.82
357.595	51.2
357.807	-6.14
358.018	43.01
358.23	45.06
358.441	-10.24
358.653	38.91
358.864	18.43
359.075	24.58
359.287	43.01
359.498	26.62
359.709	2.05
359.921	14.34
360.132	32.77
360.344	98.3
360.555	-22.53
360.766	16.38
360.977	-2.05
361.189	88.06
361.4	45.06
361.611	65.53
361.823	-0
362.034	47.1
362.245	28.67
362.456	16.38
362.667	36.86
362.879	49.15
363.09	16.38
363.301	45.06
363.512	28.67
363.723	49.15
363.935	16.38
364.146	67.58
364.357	-75.77
364.568	71.68
364.779	34.82
364.99	16.38
365.201	38.91
365.412	51.2
365.623	-51.2
365.834	30.72
366.045	8.19
366.256	65.53
366.467	-20.48
366.678	16.38
366.889	-73.73
367.1	-10.24
367.311	40.96
367.522	94.21
367.733	100.35
367.944	38.91
368.155	18.43
368.366	38.91
368.577	43.01
368.788	-20.48
368.999	73.73
369.209	49.15
369.42	88.06
369.631	6.14
369.842	-26.62
370.053	88.06
370.264	16.38
370.474	28.67
370.685	-16.38
370.896	40.96
371.107	-28.67
371.317	14.34
371.528	8.19
371.739	2.05
371.95	-4.1
372.16	-16.38
372.371	-38.91
372.582	22.53
372.792	2.05
373.003	51.2
373.214	40.96
373.424	100.35
373.635	30.72
373.846	65.53
374.056	24.58
374.267	-4.1
374.477	38.91
374.688	-14.34
374.898	26.62
375.109	-10.24
375.319	2.05
375.53	40.96
375.74	32.77
375.951	73.73
376.161	22.53
376.372	47.1
376.582	102.4
376.793	-8.19
377.003	102.4
377.214	16.38
377.424	77.82
377.635	36.86
377.845	-30.72
378.055	45.06
378.266	-32.77
378.476	30.72
378.686	63.49
378.897	79.87
379.107	16.38
379.317	79.87
379.528	59.39
379.738	116.73
379.948	16.38
380.158	49.15
380.369	43.01
380.579	-0
380.789	55.3
380.999	-14.34
381.21	90.11
381.42	122.88
381.63	57.34
381.84	-38.91
382.05	-6.14
382.261	20.48
382.471	59.39
382.681	-12.29
382.891	43.01
383.101	51.2
383.311	20.48
383.521	40.96
383.731	92.16
383.941	-51.2
384.151	16.38
384.361	45.06
384.571	47.1
384.781	63.49
384.991	10.24
385.201	83.97
385.411	-18.43
385.621	49.15
385.831	20.48
386.041	75.77
386.251	55.3
386.461	10.24
386.671	40.96
386.881	-6.14
387.091	16.38
387.301	-10.24
387.511	-55.3
387.72	14.34
387.93	-55.3
388.14	-4.1
388.35	65.53
388.56	-34.82
388.769	-0
388.979	79.87
389.189	24.58
389.399	57.34
389.609	51.2
389.818	63.49
390.028	10.24
390.238	24.58
390.447	-2.05
390.657	69.63
390.867	20.48
391.076	-4.1
391.286	63.49
391.496	26.62
391.705	-6.14
391.915	14.34
392.125	30.72
392.334	49.15
392.544	65.53
392.753	104.45
392.963	24.58
393.172	-12.29
393.382	-0
393.591	18.43
393.801	6.14
394.01	30.72
394.22	49.15
394.429	65.53
394.639	40.96
394.848	-40.96
395.058	55.3
395.267	-8.19
395.477	57.34
395.686	57.34
395.895	104.45
396.105	65.53
396.314	30.72
396.524	65.53
396.733	-12.29
396.942	79.87
397.152	49.15
397.361	104.45
397.57	79.87
397.78	-30.72
397.989	59.39
398.198	69.63
398.407	28.67
398.617	71.68
398.826	75.77
399.035	-16.38
399.244	18.43
399.453	49.15
399.663	61.44
399.872	32.77
400.081	22.53
400.29	38.91
400.499	2.05
400.708	88.06
400.917	49.15
401.127	32.77
401.336	12.29
401.545	57.34
401.754	106.49
401.963	73.73
402.172	69.63
402.381	104.45
402.59	73.73
402.799	63.49
403.008	167.93
403.217	135.17
403.426	65.53
403.635	100.35
403.844	30.72
404.053	49.15
404.262	114.69
404.471	108.54
404.68	53.25
404.888	79.87
405.097	53.25
405.306	88.06
405.515	63.49
405.724	151.55
405.933	81.92
406.142	79.87
406.35	126.97
406.559	92.16
406.768	92.16
406.977	161.79
407.185	145.41
407.394	131.07
407.603	120.83
407.812	81.92
408.02	73.73
408.229	126.97
408.438	178.17
408.646	120.83
408.855	114.69
409.064	169.98
409.272	75.77
409.481	135.17
409.69	159.74
409.898	212.99
410.107	141.31
410.315	163.84
410.524	206.84
410.733	122.88
410.941	122.88
411.15	180.22
411.358	141.31
411.567	178.17
411.775	196.6
411.984	212.99
412.192	237.56
412.401	290.81
412.609	266.24
412.818	268.28
413.026	294.91
413.234	212.99
413.443	284.67
413.651	286.72
413.86	352.25
414.068	374.78
414.276	292.86
414.485	296.96
414.693	370.68
414.901	329.72
415.11	368.63
415.318	368.63
415.526	442.36
415.734	403.45
415.943	477.18
416.151	501.75
416.359	485.37
416.567	458.74
416.776	491.51
416.984	550.9
417.192	548.86
417.4	499.7
417.608	552.95
417.817	514.04
418.025	565.24
418.233	647.16
418.441	655.35
418.649	636.92
418.857	669.69
419.065	741.36
419.273	620.53
419.481	806.9
419.689	694.26
419.897	784.37
420.105	854
420.313	841.72
420.521	835.57
420.729	980.98
420.937	952.31
421.145	980.98
421.353	1060.85
421.561	1060.85
421.769	1046.51
421.977	1097.71
422.185	1157.1
422.393	1075.18
422.601	1210.35
422.809	1218.54
423.017	1236.97
423.224	1398.76
423.432	1415.15
423.64	1298.41
423.848	1433.58
424.056	1439.72
424.263	1499.11
424.471	1548.26
424.679	1566.7
424.887	1683.43
425.094	1738.73
425.302	1636.33
425.51	1808.36
425.718	1720.29
425.925	1855.46
426.133	1964
426.341	1998.82
426.548	2088.93
426.756	2095.07
426.964	2086.88
427.171	2258.91
427.379	2299.87
427.586	2355.16
427.794	2443.23
428.001	2437.08
428.209	2705.37
428.417	2572.25
428.624	2783.19
428.832	2787.29
429.039	2750.42
429.247	2695.13
429.454	3061.71
429.662	3194.83
429.869	2967.51
430.076	3237.84
430.284	3160.02
430.491	3243.98
430.699	3485.64
430.906	3524.55
431.114	3571.66
431.321	3684.3
431.528	3749.83
431.736	3911.62
431.943	4108.23
432.15	3944.39
432.358	4024.26
432.565	4448.19
432.772	4208.58
432.979	4585.4
433.187	4634.55
433.394	4528.06
433.601	4855.73
433.808	5072.82
434.016	4904.89
434.223	5085.11
434.43	5248.94
434.637	5175.22
434.844	5566.38
435.052	5760.94
435.259	5502.89
435.466	5734.31
435.673	5654.44
435.88	6010.79
436.087	6436.77
436.294	6377.37
436.501	6215.59
436.708	6287.26
436.915	6449.05
437.122	6936.47
437.329	6909.85
437.537	7061.4
437.743	7368.59
437.95	7145.36
438.157	7606.16
438.364	7722.89
438.571	7749.51
438.778	7798.66
438.985	8478.59
439.192	8140.68
439.399	8275.84
439.606	8228.74
439.813	8722.3
440.02	9363.31
440.227	9156.47
440.433	8888.18
440.64	9041.78
440.847	9209.72
441.054	9404.27
441.261	10096.49
441.467	9871.21
441.674	10270.56
441.881	10510.18
442.088	10411.87
442.294	10389.35
442.501	10792.8
442.708	11190.1
442.914	11304.79
443.121	11884.36
443.328	11591.5
443.534	12615.49
443.741	12128.07
443.948	11800.4
444.154	12949.31
444.361	12580.67
444.568	12635.97
444.774	12787.52
444.981	13010.75
445.187	13328.18
445.394	13936.43
445.6	13793.07
445.807	14849.82
446.013	14313.25
446.22	14690.08
446.426	15363.86
446.633	15236.89
446.839	15785.74
447.046	15378.2
447.252	16066.31
447.459	16285.45
447.665	16197.38
447.871	16916.22
448.078	17405.69
448.284	16449.28
448.491	17215.23
448.697	17868.53
448.903	18087.66
449.11	18147.05
449.316	17770.22
449.522	18134.76
449.728	18663.14
449.935	18906.85
450.141	19080.92
450.347	19320.54
450.553	18749.15
450.76	19003.1
450.966	19537.62
451.172	19470.04
451.378	19969.74
451.584	19554.01
451.791	20000.46
451.997	20135.63
452.203	20457.16
452.409	20403.91
452.615	20379.34
452.821	19511
453.027	19443.42
453.233	20655.81
453.44	19605.2
453.646	20158.16
453.852	20018.89
454.058	20356.81
454.264	19783.38
454.47	20104.91
454.676	19467.99
454.882	20494.02
455.088	18194.15
455.294	18966.24
455.5	18865.89
455.705	19467.99
455.911	18403.05
456.117	18153.19
456.323	17907.44
456.529	16871.17
456.735	17719.03
456.941	17309.43
457.147	17051.39
457.352	16369.41
457.558	16471.81
457.764	16516.87
457.97	16246.54
458.176	15451.92
458.381	15939.34
458.587	14862.11
458.793	15310.61
458.999	14090.02
459.204	15249.18
459.41	14624.54
459.616	13631.28
459.821	13635.38
460.027	13672.24
460.233	13322.04
460.438	12844.86
460.644	12846.91
460.85	12425.03
461.055	12207.94
461.261	12134.21
461.466	11267.92
461.672	10897.24
461.878	11693.9
462.083	10733.4
462.289	10657.63
462.494	10467.17
462.7	10121.06
462.905	9860.97
463.111	10157.92
463.316	10266.47
463.522	10041.19
463.727	10092.39
463.932	9983.85
464.138	9936.74
464.343	9934.7
464.549	9613.17
464.754	10055.53
464.959	9959.27
465.165	9652.08
465.37	9428.85
465.575	9291.63
465.781	9535.34
465.986	9621.36
466.191	9205.62
466.397	9064.31
466.602	8548.22
466.807	8806.27
467.012	9029.49
467.218	8888.18
467.423	8599.42
467.628	8968.06
467.833	9230.2
468.038	8576.89
468.244	8486.78
468.449	8976.25
468.654	8722.3
468.859	8591.23
469.064	8685.44
469.269	8224.64
