Data from USB4F104151__53__12-59-14-444.txt Node

Date: Fri Mar 14 12:59:14 EDT 2025
User: louis
Spectrometer: USB4F10415
Trigger mode: 4
Integration Time (sec): 1.000000E-2
Scans to average: 1
Electric dark correction enabled: true
Nonlinearity correction enabled: false
Boxcar width: 0
XAxis mode: Wavelengths
Number of Pixels in Spectrum: 3648
>>>>>Begin Spectral Data<<<<<
178.204	23.89
178.424	23.89
178.644	23.89
178.864	-115.37
179.084	-68.27
179.304	-58.03
179.524	42.32
179.744	7.51
179.964	58.71
180.184	38.23
180.404	11.61
180.624	-62.12
180.844	1.37
181.064	-55.98
181.283	38.23
181.503	-58.03
181.723	36.18
181.943	-90.79
182.163	60.76
182.383	-2.73
182.602	-51.88
182.822	44.37
183.042	3.41
183.262	3.41
183.482	-10.92
183.701	32.08
183.921	17.75
184.141	-78.51
184.361	48.47
184.58	-29.35
184.8	1.37
185.02	-23.21
185.239	58.71
185.459	-33.45
185.679	60.76
185.898	-103.08
186.118	66.9
186.338	-15.02
186.557	85.33
186.777	-68.27
186.997	40.28
187.216	11.61
187.436	-68.27
187.655	87.38
187.875	3.41
188.095	17.75
188.314	-19.11
188.534	-15.02
188.753	-55.98
188.973	-47.79
189.192	40.28
189.412	-19.11
189.631	13.65
189.851	-8.87
190.07	60.76
190.29	-33.45
190.509	23.89
190.729	1.37
190.948	3.41
191.168	3.41
191.387	40.28
191.607	-10.92
191.826	-21.16
192.045	36.18
192.265	-17.07
192.484	-45.74
192.704	13.65
192.923	-0.68
193.142	-4.78
193.362	-21.16
193.581	11.61
193.8	21.84
194.02	-37.55
194.239	-86.7
194.458	21.84
194.678	17.75
194.897	-8.87
195.116	-15.02
195.335	50.52
195.555	40.28
195.774	-29.35
195.993	58.71
196.212	21.84
196.432	30.04
196.651	-12.97
196.87	15.7
197.089	30.04
197.308	-47.79
197.528	38.23
197.747	-58.03
197.966	27.99
198.185	68.95
198.404	40.28
198.623	7.51
198.842	19.8
199.062	44.37
199.281	11.61
199.5	3.41
199.719	40.28
199.938	25.94
200.157	5.46
200.376	52.56
200.595	-19.11
200.814	13.65
201.033	79.19
201.252	-21.16
201.471	32.08
201.69	15.7
201.909	50.52
202.128	95.57
202.347	1.37
202.566	46.42
202.785	-90.79
203.004	9.56
203.223	48.47
203.442	54.61
203.661	27.99
203.879	52.56
204.098	9.56
204.317	13.65
204.536	21.84
204.755	109.91
204.974	3.41
205.193	73.04
205.411	17.75
205.63	38.23
205.849	34.13
206.068	-19.11
206.287	-64.17
206.505	25.94
206.724	-43.69
206.943	-17.07
207.162	-2.73
207.381	-27.31
207.599	-45.74
207.818	17.75
208.037	36.18
208.255	-29.35
208.474	11.61
208.693	27.99
208.911	15.7
209.13	-2.73
209.349	68.95
209.567	50.52
209.786	-72.36
210.005	-2.73
210.223	-6.83
210.442	19.8
210.661	21.84
210.879	-4.78
211.098	-0.68
211.316	40.28
211.535	32.08
211.753	23.89
211.972	-6.83
212.191	1.37
212.409	19.8
212.628	27.99
212.846	-19.11
213.065	27.99
213.283	42.32
213.502	-12.97
213.72	-21.16
213.938	-33.45
214.157	-29.35
214.375	23.89
214.594	-23.21
214.812	27.99
215.031	48.47
215.249	-66.22
215.467	-37.55
215.686	91.48
215.904	83.28
216.122	68.95
216.341	-76.46
216.559	-19.11
216.778	-2.73
216.996	54.61
217.214	44.37
217.432	-12.97
217.651	93.52
217.869	99.67
218.087	5.46
218.306	56.66
218.524	-2.73
218.742	5.46
218.96	23.89
219.179	19.8
219.397	-0.68
219.615	-8.87
219.833	-19.11
220.051	-12.97
220.27	75.09
220.488	-45.74
220.706	-41.64
220.924	36.18
221.142	-25.26
221.36	23.89
221.578	25.94
221.796	11.61
222.015	68.95
222.233	23.89
222.451	52.56
222.669	-25.26
222.887	23.89
223.105	118.1
223.323	32.08
223.541	-33.45
223.759	25.94
223.977	25.94
224.195	85.33
224.413	3.41
224.631	7.51
224.849	81.24
225.067	62.8
225.285	-51.88
225.503	9.56
225.721	-19.11
225.939	-2.73
226.157	-2.73
226.375	109.91
226.592	64.85
226.81	27.99
227.028	-17.07
227.246	30.04
227.464	19.8
227.682	21.84
227.9	48.47
228.117	-2.73
228.335	21.84
228.553	32.08
228.771	-12.97
228.989	3.41
229.206	-66.22
229.424	66.9
229.642	73.04
229.86	52.56
230.077	46.42
230.295	-37.55
230.513	-86.7
230.731	54.61
230.948	54.61
231.166	62.8
231.384	44.37
231.601	56.66
231.819	30.04
232.037	-12.97
232.254	85.33
232.472	36.18
232.689	-17.07
232.907	32.08
233.125	34.13
233.342	1.37
233.56	23.89
233.777	-2.73
233.995	93.52
234.213	75.09
234.43	36.18
234.648	60.76
234.865	-43.69
235.083	44.37
235.3	34.13
235.518	-19.11
235.735	48.47
235.953	30.04
236.17	34.13
236.388	64.85
236.605	103.76
236.822	27.99
237.04	7.51
237.257	68.95
237.475	62.8
237.692	13.65
237.909	64.85
238.127	-41.64
238.344	32.08
238.562	-4.78
238.779	-10.92
238.996	21.84
239.214	27.99
239.431	60.76
239.648	21.84
239.865	27.99
240.083	15.7
240.3	95.57
240.517	40.28
240.735	36.18
240.952	-47.79
241.169	71
241.386	9.56
241.603	62.8
241.821	19.8
242.038	21.84
242.255	56.66
242.472	-4.78
242.689	64.85
242.907	50.52
243.124	-8.87
243.341	-8.87
243.558	-15.02
243.775	60.76
243.992	3.41
244.209	34.13
244.426	54.61
244.643	30.04
244.86	-62.12
245.078	-12.97
245.295	103.76
245.512	19.8
245.729	-49.83
245.946	48.47
246.163	36.18
246.38	34.13
246.597	-35.5
246.814	5.46
247.031	-82.6
247.248	40.28
247.464	7.51
247.681	-66.22
247.898	36.18
248.115	71
248.332	-21.16
248.549	48.47
248.766	30.04
248.983	-55.98
249.2	32.08
249.417	-31.4
249.633	3.41
249.85	40.28
250.067	19.8
250.284	-2.73
250.501	66.9
250.717	-2.73
250.934	21.84
251.151	-19.11
251.368	13.65
251.585	-12.97
251.801	21.84
252.018	50.52
252.235	52.56
252.451	27.99
252.668	68.95
252.885	-12.97
253.102	56.66
253.318	32.08
253.535	15.7
253.752	27.99
253.968	-37.55
254.185	15.7
254.401	13.65
254.618	32.08
254.835	1.37
255.051	23.89
255.268	1.37
255.484	54.61
255.701	-49.83
255.917	44.37
256.134	-33.45
256.351	-27.31
256.567	-49.83
256.784	11.61
257	25.94
257.217	40.28
257.433	-33.45
257.65	52.56
257.866	-2.73
258.082	64.85
258.299	-0.68
258.515	75.09
258.732	40.28
258.948	-21.16
259.165	3.41
259.381	-15.02
259.597	-33.45
259.814	7.51
260.03	-6.83
260.246	81.24
260.463	13.65
260.679	15.7
260.895	62.8
261.112	40.28
261.328	3.41
261.544	3.41
261.761	40.28
261.977	-23.21
262.193	-12.97
262.409	32.08
262.626	-6.83
262.842	-21.16
263.058	27.99
263.274	64.85
263.49	71
263.707	-27.31
263.923	42.32
264.139	-10.92
264.355	56.66
264.571	54.61
264.787	15.7
265.004	36.18
265.22	-23.21
265.436	17.75
265.652	5.46
265.868	-27.31
266.084	19.8
266.3	71
266.516	42.32
266.732	-41.64
266.948	-35.5
267.164	30.04
267.38	9.56
267.596	19.8
267.812	56.66
268.028	-35.5
268.244	38.23
268.46	132.44
268.676	75.09
268.892	-2.73
269.108	42.32
269.324	-12.97
269.54	71
269.756	17.75
269.972	-19.11
270.188	21.84
270.403	-10.92
270.619	60.76
270.835	11.61
271.051	-23.21
271.267	15.7
271.483	-15.02
271.698	11.61
271.914	-2.73
272.13	23.89
272.346	3.41
272.562	7.51
272.777	13.65
272.993	23.89
273.209	56.66
273.425	87.38
273.64	44.37
273.856	-29.35
274.072	-12.97
274.287	-31.4
274.503	13.65
274.719	91.48
274.934	-70.31
275.15	-74.41
275.366	62.8
275.581	-33.45
275.797	85.33
276.012	-53.93
276.228	-19.11
276.444	27.99
276.659	7.51
276.875	34.13
277.09	54.61
277.306	93.52
277.521	3.41
277.737	52.56
277.952	-6.83
278.168	40.28
278.383	21.84
278.599	-41.64
278.814	-12.97
279.03	-4.78
279.245	7.51
279.461	32.08
279.676	-0.68
279.892	-10.92
280.107	-33.45
280.322	7.51
280.538	9.56
280.753	-15.02
280.969	-4.78
281.184	-8.87
281.399	11.61
281.615	85.33
281.83	68.95
282.045	19.8
282.26	40.28
282.476	23.89
282.691	97.62
282.906	-41.64
283.122	-19.11
283.337	75.09
283.552	58.71
283.767	19.8
283.983	-10.92
284.198	1.37
284.413	36.18
284.628	27.99
284.843	15.7
285.058	-68.27
285.274	5.46
285.489	-23.21
285.704	-2.73
285.919	50.52
286.134	-6.83
286.349	7.51
286.564	13.65
286.779	15.7
286.995	32.08
287.21	-49.83
287.425	19.8
287.64	-21.16
287.855	83.28
288.07	17.75
288.285	-4.78
288.5	-27.31
288.715	13.65
288.93	3.41
289.145	77.14
289.36	62.8
289.575	-60.07
289.79	-2.73
290.004	44.37
290.219	3.41
290.434	50.52
290.649	-74.41
290.864	-19.11
291.079	-2.73
291.294	48.47
291.509	-33.45
291.724	15.7
291.938	9.56
292.153	-12.97
292.368	-27.31
292.583	-72.36
292.798	19.8
293.012	3.41
293.227	-41.64
293.442	77.14
293.657	40.28
293.871	13.65
294.086	-45.74
294.301	25.94
294.516	34.13
294.73	3.41
294.945	13.65
295.16	36.18
295.374	9.56
295.589	17.75
295.804	-23.21
296.018	19.8
296.233	-8.87
296.447	38.23
296.662	46.42
296.877	40.28
297.091	-19.11
297.306	-10.92
297.52	19.8
297.735	40.28
297.949	-27.31
298.164	30.04
298.378	25.94
298.593	32.08
298.807	-23.21
299.022	-53.93
299.236	52.56
299.451	3.41
299.665	25.94
299.88	68.95
300.094	-21.16
300.309	-31.4
300.523	40.28
300.737	75.09
300.952	-21.16
301.166	34.13
301.381	-8.87
301.595	44.37
301.809	68.95
302.024	17.75
302.238	-8.87
302.452	15.7
302.667	77.14
302.881	56.66
303.095	-15.02
303.309	-10.92
303.524	30.04
303.738	30.04
303.952	-12.97
304.166	81.24
304.381	-10.92
304.595	52.56
304.809	21.84
305.023	87.38
305.237	-2.73
305.452	52.56
305.666	11.61
305.88	34.13
306.094	30.04
306.308	36.18
306.522	32.08
306.736	36.18
306.95	-27.31
307.164	23.89
307.379	5.46
307.593	-21.16
307.807	36.18
308.021	23.89
308.235	60.76
308.449	-0.68
308.663	85.33
308.877	1.37
309.091	-17.07
309.305	-4.78
309.519	15.7
309.733	-0.68
309.947	-27.31
310.161	68.95
310.374	48.47
310.588	-90.79
310.802	-2.73
311.016	44.37
311.23	19.8
311.444	77.14
311.658	34.13
311.872	19.8
312.085	38.23
312.299	52.56
312.513	32.08
312.727	5.46
312.941	19.8
313.154	19.8
313.368	66.9
313.582	48.47
313.796	-19.11
314.009	56.66
314.223	81.24
314.437	40.28
314.651	3.41
314.864	48.47
315.078	21.84
315.292	7.51
315.505	-68.27
315.719	42.32
315.933	-2.73
316.146	-27.31
316.36	50.52
316.573	-12.97
316.787	1.37
317.001	58.71
317.214	13.65
317.428	83.28
317.641	13.65
317.855	-21.16
318.068	-19.11
318.282	44.37
318.495	11.61
318.709	23.89
318.922	11.61
319.136	42.32
319.349	64.85
319.563	21.84
319.776	-2.73
319.99	52.56
320.203	5.46
320.417	85.33
320.63	52.56
320.843	64.85
321.057	7.51
321.27	-4.78
321.483	-33.45
321.697	23.89
321.91	46.42
322.124	-10.92
322.337	36.18
322.55	-8.87
322.763	-2.73
322.977	30.04
323.19	1.37
323.403	58.71
323.617	-37.55
323.83	73.04
324.043	-29.35
324.256	1.37
324.469	21.84
324.683	19.8
324.896	-21.16
325.109	-2.73
325.322	-51.88
325.535	-6.83
325.748	3.41
325.962	34.13
326.175	9.56
326.388	48.47
326.601	60.76
326.814	83.28
327.027	-2.73
327.24	91.48
327.453	27.99
327.666	42.32
327.879	85.33
328.092	48.47
328.305	34.13
328.518	-0.68
328.731	77.14
328.944	85.33
329.157	-17.07
329.37	-4.78
329.583	161.11
329.796	91.48
330.009	25.94
330.222	54.61
330.435	44.37
330.648	23.89
330.861	42.32
331.073	-19.11
331.286	38.23
331.499	60.76
331.712	11.61
331.925	-0.68
332.138	54.61
332.35	81.24
332.563	21.84
332.776	62.8
332.989	-0.68
333.202	68.95
333.414	7.51
333.627	77.14
333.84	30.04
334.053	5.46
334.265	32.08
334.478	85.33
334.691	-21.16
334.903	87.38
335.116	-4.78
335.329	60.76
335.541	-8.87
335.754	38.23
335.966	11.61
336.179	68.95
336.392	79.19
336.604	75.09
336.817	3.41
337.029	-0.68
337.242	17.75
337.454	91.48
337.667	21.84
337.88	52.56
338.092	13.65
338.305	89.43
338.517	30.04
338.729	38.23
338.942	27.99
339.154	62.8
339.367	-49.83
339.579	-45.74
339.792	3.41
340.004	-43.69
340.217	-47.79
340.429	64.85
340.641	89.43
340.854	11.61
341.066	-43.69
341.278	7.51
341.491	-2.73
341.703	7.51
341.915	36.18
342.128	95.57
342.34	13.65
342.552	34.13
342.764	-4.78
342.977	-19.11
343.189	30.04
343.401	32.08
343.613	58.71
343.826	-41.64
344.038	-25.26
344.25	-19.11
344.462	52.56
344.674	38.23
344.886	46.42
345.099	68.95
345.311	62.8
345.523	44.37
345.735	-0.68
345.947	48.47
346.159	83.28
346.371	21.84
346.583	15.7
346.795	56.66
347.007	13.65
347.219	32.08
347.431	-19.11
347.643	83.28
347.855	1.37
348.067	40.28
348.279	-19.11
348.491	19.8
348.703	52.56
348.915	77.14
349.127	5.46
349.339	44.37
349.551	38.23
349.763	-12.97
349.975	36.18
350.187	9.56
350.399	32.08
350.61	5.46
350.822	-0.68
351.034	118.1
351.246	17.75
351.458	-15.02
351.669	-8.87
351.881	64.85
352.093	-19.11
352.305	101.72
352.517	64.85
352.728	27.99
352.94	-29.35
353.152	-2.73
353.363	-29.35
353.575	30.04
353.787	64.85
353.999	-4.78
354.21	9.56
354.422	27.99
354.633	-6.83
354.845	-10.92
355.057	11.61
355.268	21.84
355.48	25.94
355.692	-6.83
355.903	58.71
356.115	11.61
356.326	-4.78
356.538	-8.87
356.749	15.7
356.961	9.56
357.172	-6.83
357.384	44.37
357.595	91.48
357.807	48.47
358.018	38.23
358.23	38.23
358.441	23.89
358.653	46.42
358.864	-49.83
359.075	-10.92
359.287	79.19
359.498	93.52
359.709	40.28
359.921	54.61
360.132	101.72
360.344	62.8
360.555	27.99
360.766	46.42
360.977	42.32
361.189	21.84
361.4	46.42
361.611	13.65
361.823	27.99
362.034	32.08
362.245	62.8
362.456	-12.97
362.667	23.89
362.879	3.41
363.09	52.56
363.301	38.23
363.512	11.61
363.723	-29.35
363.935	-8.87
364.146	52.56
364.357	66.9
364.568	5.46
364.779	91.48
364.99	-19.11
365.201	46.42
365.412	68.95
365.623	-60.07
365.834	40.28
366.045	68.95
366.256	105.81
366.467	-0.68
366.678	32.08
366.889	3.41
367.1	30.04
367.311	-90.79
367.522	36.18
367.733	46.42
367.944	5.46
368.155	-8.87
368.366	-15.02
368.577	83.28
368.788	23.89
368.999	-19.11
369.209	11.61
369.42	27.99
369.631	5.46
369.842	93.52
370.053	27.99
370.264	40.28
370.474	-51.88
370.685	-25.26
370.896	60.76
371.107	52.56
371.317	23.89
371.528	62.8
371.739	36.18
371.95	-17.07
372.16	77.14
372.371	32.08
372.582	136.53
372.792	50.52
373.003	44.37
373.214	15.7
373.424	48.47
373.635	-15.02
373.846	32.08
374.056	81.24
374.267	23.89
374.477	-45.74
374.688	30.04
374.898	19.8
375.109	81.24
375.319	52.56
375.53	95.57
375.74	38.23
375.951	62.8
376.161	40.28
376.372	54.61
376.582	-17.07
376.793	-8.87
377.003	52.56
377.214	62.8
377.424	3.41
377.635	52.56
377.845	-62.12
378.055	13.65
378.266	23.89
378.476	-10.92
378.686	64.85
378.897	38.23
379.107	23.89
379.317	42.32
379.528	11.61
379.738	23.89
379.948	13.65
380.158	32.08
380.369	38.23
380.579	91.48
380.789	101.72
380.999	23.89
381.21	36.18
381.42	46.42
381.63	-19.11
381.84	-37.55
382.05	25.94
382.261	114
382.471	3.41
382.681	-10.92
382.891	42.32
383.101	25.94
383.311	46.42
383.521	5.46
383.731	30.04
383.941	71
384.151	19.8
384.361	40.28
384.571	50.52
384.781	-17.07
384.991	27.99
385.201	54.61
385.411	-35.5
385.621	114
385.831	27.99
386.041	-17.07
386.251	60.76
386.461	48.47
386.671	62.8
386.881	64.85
387.091	38.23
387.301	21.84
387.511	46.42
387.72	17.75
387.93	11.61
388.14	15.7
388.35	56.66
388.56	46.42
388.769	-0.68
388.979	79.19
389.189	-4.78
389.399	-6.83
389.609	-23.21
389.818	150.87
390.028	27.99
390.238	30.04
390.447	44.37
390.657	62.8
390.867	-39.59
391.076	44.37
391.286	48.47
391.496	-49.83
391.705	-4.78
391.915	46.42
392.125	23.89
392.334	42.32
392.544	36.18
392.753	-4.78
392.963	56.66
393.172	97.62
393.382	36.18
393.591	48.47
393.801	-4.78
394.01	95.57
394.22	27.99
394.429	34.13
394.639	17.75
394.848	114
395.058	42.32
395.267	62.8
395.477	56.66
395.686	109.91
395.895	34.13
396.105	46.42
396.314	30.04
396.524	40.28
396.733	85.33
396.942	126.29
397.152	19.8
397.361	107.86
397.57	3.41
397.78	27.99
397.989	62.8
398.198	52.56
398.407	-0.68
398.617	81.24
398.826	46.42
399.035	23.89
399.244	77.14
399.453	85.33
399.663	95.57
399.872	62.8
400.081	46.42
400.29	83.28
400.499	15.7
400.708	83.28
400.917	21.84
401.127	52.56
401.336	19.8
401.545	71
401.754	126.29
401.963	111.96
402.172	40.28
402.381	40.28
402.59	44.37
402.799	97.62
403.008	85.33
403.217	68.95
403.426	32.08
403.635	187.73
403.844	71
404.053	23.89
404.262	-0.68
404.471	109.91
404.68	64.85
404.888	73.04
405.097	73.04
405.306	114
405.515	75.09
405.724	159.06
405.933	120.15
406.142	109.91
406.35	85.33
406.559	150.87
406.768	126.29
406.977	191.83
407.185	114
407.394	93.52
407.603	118.1
407.812	81.24
408.02	200.02
408.229	62.8
408.438	134.48
408.646	177.49
408.855	128.34
409.064	154.96
409.272	99.67
409.481	114
409.69	120.15
409.898	136.53
410.107	118.1
410.315	226.64
410.524	236.88
410.733	236.88
410.941	216.4
411.15	290.13
411.358	210.26
411.567	236.88
411.775	238.93
411.984	245.07
412.192	253.27
412.401	292.18
412.609	259.41
412.818	275.79
413.026	286.03
413.234	384.34
413.443	306.51
413.651	310.61
413.86	341.33
414.068	324.94
414.276	361.81
414.485	341.33
414.693	380.24
414.901	437.58
415.11	460.11
415.318	402.77
415.526	453.97
415.734	408.91
415.943	353.62
416.151	456.01
416.359	501.07
416.567	468.3
416.776	566.6
416.984	537.93
417.192	472.4
417.4	599.37
417.608	490.83
417.817	673.1
418.025	673.1
418.233	628.04
418.441	605.52
418.649	724.3
418.857	744.78
419.065	728.39
419.273	673.1
419.481	726.35
419.689	847.18
419.897	849.22
420.105	902.47
420.313	933.19
420.521	933.19
420.729	922.95
420.937	937.29
421.145	1088.84
421.353	1056.07
421.561	1082.69
421.769	1045.83
421.977	1185.09
422.185	1137.99
422.393	1256.77
422.601	1307.97
422.809	1307.97
423.017	1297.73
423.224	1346.88
423.432	1365.31
423.64	1449.28
423.848	1606.97
424.056	1439.04
424.263	1537.34
424.471	1805.63
424.679	1727.8
424.887	1701.18
425.094	1766.71
425.302	1762.62
425.51	1766.71
425.718	1951.03
425.925	1932.6
426.133	1971.51
426.341	2061.62
426.548	2196.79
426.756	2266.42
426.964	2121.01
427.171	2377.01
427.379	2487.6
427.586	2444.59
427.794	2559.28
428.001	2686.25
428.209	2811.18
428.417	2831.66
428.624	2968.87
428.832	2940.2
429.039	2917.67
429.247	2921.77
429.454	3101.99
429.662	3407.14
429.869	3185.96
430.076	3362.08
430.284	3386.66
430.491	3429.66
430.699	3415.33
430.906	3667.23
431.114	3695.9
431.321	3878.17
431.528	3896.6
431.736	4265.24
431.943	4240.66
432.15	4103.45
432.358	4168.98
432.565	4547.86
432.772	4500.75
432.979	4746.51
433.187	4912.39
433.394	4789.52
433.601	5207.3
433.808	5147.91
434.016	5094.66
434.223	5459.2
434.43	5694.72
434.637	5641.47
434.844	5948.67
435.052	6180.09
435.259	6055.16
435.466	6096.12
435.673	6016.25
435.88	6341.88
436.087	6851.82
436.294	6821.1
436.501	6651.12
436.708	6825.2
436.915	6923.5
437.122	7165.16
437.329	7281.89
437.537	7417.06
437.743	7642.34
437.95	7781.6
438.157	7959.77
438.364	8137.95
438.571	8119.51
438.778	8301.78
438.985	8907.98
439.192	8479.96
439.399	9028.81
439.606	8721.62
439.813	9295.05
440.02	9790.66
440.227	9671.87
440.433	9589.95
440.64	10036.41
440.847	9839.81
441.054	10267.83
441.261	10654.9
441.467	10624.18
441.674	10853.55
441.881	11216.04
442.088	11197.61
442.294	11195.56
442.501	11388.07
442.708	11711.65
442.914	12250.27
443.121	12635.28
443.328	12434.58
443.534	13169.8
443.741	12672.15
443.948	12631.19
444.154	13517.96
444.361	13649.03
444.568	13597.83
444.774	13579.4
444.981	13984.9
445.187	14032
445.394	14779.51
445.6	14634.1
445.807	15891.55
446.013	15432.81
446.22	15420.52
446.426	16464.99
446.633	16622.68
446.839	17134.67
447.046	16383.07
447.252	17187.92
447.459	17271.89
447.665	17275.98
447.871	18201.66
448.078	18723.9
448.284	17953.86
448.491	18347.07
448.697	19194.93
448.903	19688.49
449.11	19618.86
449.316	19405.87
449.522	19520.56
449.728	20050.98
449.935	20311.07
450.141	20161.57
450.347	20837.4
450.553	20493.34
450.76	20554.78
450.966	21224.47
451.172	20810.78
451.378	21861.38
451.584	21312.53
451.791	21556.24
451.997	21801.99
452.203	22242.31
452.409	22107.14
452.615	21892.1
452.821	21312.53
453.027	20894.74
453.233	22250.5
453.44	21296.14
453.646	21371.92
453.852	21353.49
454.058	21830.66
454.264	21251.09
454.47	21486.61
454.676	21079.06
454.882	22180.87
455.088	20233.25
455.294	20317.22
455.5	20927.51
455.705	20999.19
455.911	20278.3
456.117	19819.56
456.323	19319.85
456.529	18490.43
456.735	19166.26
456.941	18877.49
457.147	18402.36
457.352	17697.86
457.558	17734.73
457.764	17701.96
457.97	17398.86
458.176	16913.49
458.381	16981.07
458.587	16211.04
458.793	16395.36
458.999	15279.21
459.204	16546.9
459.41	16047.2
459.616	15193.2
459.821	15053.94
460.027	15000.69
460.233	14609.53
460.438	13651.08
460.644	14011.52
460.85	13323.4
461.055	13214.86
461.261	13102.22
461.466	12098.72
461.672	11773.09
461.878	12493.97
462.083	11807.91
462.289	11513
462.494	11359.4
462.7	10876.08
462.905	10808.5
463.111	10912.94
463.316	11146.41
463.522	10804.4
463.727	10931.37
463.932	10912.94
464.138	10833.07
464.343	10728.63
464.549	10734.77
464.754	10960.05
464.959	10622.13
465.165	10788.02
465.37	10288.31
465.575	10083.52
465.781	10362.04
465.986	10458.29
466.191	10024.12
466.397	10015.93
466.602	9587.91
466.807	9577.67
467.012	9729.22
467.218	9444.55
467.423	9647.3
467.628	9749.7
467.833	9880.77
468.038	9743.55
468.244	9356.49
468.449	9751.74
468.654	9563.33
468.859	9360.58
