Data from USB4F104151__10__12-58-27-440.txt Node

Date: Fri Mar 14 12:58:27 EDT 2025
User: louis
Spectrometer: USB4F10415
Trigger mode: 4
Integration Time (sec): 1.000000E-2
Scans to average: 1
Electric dark correction enabled: true
Nonlinearity correction enabled: false
Boxcar width: 0
XAxis mode: Wavelengths
Number of Pixels in Spectrum: 3648
>>>>>Begin Spectral Data<<<<<
178.204	-35.84
178.424	-35.84
178.644	-35.84
178.864	-37.89
179.084	-72.7
179.304	29.7
179.524	1.02
179.744	-76.8
179.964	-29.7
180.184	35.84
180.404	33.79
180.624	19.46
180.844	5.12
181.064	-44.03
181.283	60.42
181.503	-52.22
181.723	17.41
181.943	-11.26
182.163	21.5
182.383	-7.17
182.602	113.66
182.822	25.6
183.042	17.41
183.262	31.74
183.482	87.04
183.701	-15.36
183.921	25.6
184.141	-9.22
184.361	89.09
184.58	-9.22
184.8	-17.41
185.02	-5.12
185.239	11.26
185.459	-1.02
185.679	-11.26
185.898	-50.18
186.118	27.65
186.338	11.26
186.557	-13.31
186.777	41.98
186.997	37.89
187.216	52.22
187.436	121.85
187.655	23.55
187.875	58.37
188.095	48.13
188.314	27.65
188.534	-1.02
188.753	37.89
188.973	5.12
189.192	27.65
189.412	23.55
189.631	-21.5
189.851	113.66
190.07	50.18
190.29	11.26
190.509	-58.37
190.729	5.12
190.948	3.07
191.168	37.89
191.387	1.02
191.607	9.22
191.826	15.36
192.045	9.22
192.265	25.6
192.484	9.22
192.704	9.22
192.923	-25.6
193.142	87.04
193.362	-11.26
193.581	54.27
193.8	5.12
194.02	48.13
194.239	41.98
194.458	3.07
194.678	54.27
194.897	37.89
195.116	46.08
195.335	-1.02
195.555	39.94
195.774	9.22
195.993	13.31
196.212	72.7
196.432	29.7
196.651	33.79
196.87	7.17
197.089	-9.22
197.308	-37.89
197.528	39.94
197.747	23.55
197.966	76.8
198.185	80.89
198.404	35.84
198.623	-11.26
198.842	62.46
199.062	-13.31
199.281	117.76
199.5	56.32
199.719	70.65
199.938	-19.46
200.157	46.08
200.376	21.5
200.595	44.03
200.814	-29.7
201.033	48.13
201.252	33.79
201.471	46.08
201.69	-62.46
201.909	52.22
202.128	-56.32
202.347	-33.79
202.566	9.22
202.785	15.36
203.004	25.6
203.223	50.18
203.442	-21.5
203.661	37.89
203.879	-46.08
204.098	17.41
204.317	-3.07
204.536	-9.22
204.755	33.79
204.974	46.08
205.193	68.61
205.411	52.22
205.63	31.74
205.849	9.22
206.068	-37.89
206.287	25.6
206.505	15.36
206.724	64.51
206.943	39.94
207.162	-23.55
207.381	-11.26
207.599	33.79
207.818	-5.12
208.037	1.02
208.255	3.07
208.474	44.03
208.693	-11.26
208.911	91.13
209.13	29.7
209.349	37.89
209.567	70.65
209.786	25.6
210.005	13.31
210.223	17.41
210.442	35.84
210.661	13.31
210.879	15.36
211.098	-7.17
211.316	-23.55
211.535	87.04
211.753	13.31
211.972	56.32
212.191	89.09
212.409	-25.6
212.628	5.12
212.846	52.22
213.065	82.94
213.283	9.22
213.502	21.5
213.72	70.65
213.938	44.03
214.157	74.75
214.375	70.65
214.594	-1.02
214.812	31.74
215.031	15.36
215.249	37.89
215.467	27.65
215.686	21.5
215.904	60.42
216.122	56.32
216.341	41.98
216.559	-23.55
216.778	66.56
216.996	-23.55
217.214	41.98
217.432	29.7
217.651	78.85
217.869	19.46
218.087	54.27
218.306	1.02
218.524	93.18
218.742	21.5
218.96	31.74
219.179	-1.02
219.397	-23.55
219.615	64.51
219.833	-5.12
220.051	-29.7
220.27	64.51
220.488	37.89
220.706	31.74
220.924	1.02
221.142	64.51
221.36	41.98
221.578	58.37
221.796	60.42
222.015	9.22
222.233	5.12
222.451	119.81
222.669	60.42
222.887	25.6
223.105	46.08
223.323	37.89
223.541	29.7
223.759	58.37
223.977	-11.26
224.195	60.42
224.413	62.46
224.631	48.13
224.849	11.26
225.067	70.65
225.285	95.23
225.503	37.89
225.721	21.5
225.939	-3.07
226.157	37.89
226.375	84.99
226.592	-9.22
226.81	-11.26
227.028	74.75
227.246	33.79
227.464	19.46
227.682	68.61
227.9	84.99
228.117	31.74
228.335	19.46
228.553	-33.79
228.771	105.47
228.989	74.75
229.206	46.08
229.424	82.94
229.642	37.89
229.86	15.36
230.077	39.94
230.295	-39.94
230.513	70.65
230.731	15.36
230.948	66.56
231.166	31.74
231.384	23.55
231.601	-17.41
231.819	37.89
232.037	7.17
232.254	68.61
232.472	82.94
232.689	56.32
232.907	9.22
233.125	-11.26
233.342	31.74
233.56	48.13
233.777	70.65
233.995	25.6
234.213	52.22
234.43	-37.89
234.648	46.08
234.865	62.46
235.083	78.85
235.3	54.27
235.518	-9.22
235.735	48.13
235.953	31.74
236.17	37.89
236.388	21.5
236.605	48.13
236.822	-7.17
237.04	-23.55
237.257	29.7
237.475	44.03
237.692	87.04
237.909	-39.94
238.127	74.75
238.344	29.7
238.562	70.65
238.779	54.27
238.996	25.6
239.214	35.84
239.431	64.51
239.648	-50.18
239.865	23.55
240.083	19.46
240.3	17.41
240.517	54.27
240.735	99.33
240.952	35.84
241.169	31.74
241.386	29.7
241.603	56.32
241.821	21.5
242.038	31.74
242.255	25.6
242.472	39.94
242.689	101.37
242.907	46.08
243.124	19.46
243.341	54.27
243.558	80.89
243.775	25.6
243.992	-13.31
244.209	54.27
244.426	119.81
244.643	-3.07
244.86	29.7
245.078	91.13
245.295	27.65
245.512	56.32
245.729	-37.89
245.946	105.47
246.163	48.13
246.38	-21.5
246.597	39.94
246.814	46.08
247.031	-25.6
247.248	29.7
247.464	74.75
247.681	-9.22
247.898	64.51
248.115	60.42
248.332	-9.22
248.549	82.94
248.766	29.7
248.983	-15.36
249.2	44.03
249.417	52.22
249.633	29.7
249.85	-19.46
250.067	-11.26
250.284	23.55
250.501	50.18
250.717	7.17
250.934	58.37
251.151	70.65
251.368	1.02
251.585	19.46
251.801	50.18
252.018	50.18
252.235	5.12
252.451	80.89
252.668	1.02
252.885	44.03
253.102	78.85
253.318	62.46
253.535	46.08
253.752	15.36
253.968	-3.07
254.185	35.84
254.401	5.12
254.618	41.98
254.835	56.32
255.051	80.89
255.268	48.13
255.484	41.98
255.701	11.26
255.917	-5.12
256.134	7.17
256.351	31.74
256.567	35.84
256.784	-33.79
257	-27.65
257.217	15.36
257.433	46.08
257.65	91.13
257.866	17.41
258.082	62.46
258.299	91.13
258.515	21.5
258.732	5.12
258.948	-21.5
259.165	15.36
259.381	91.13
259.597	-19.46
259.814	3.07
260.03	7.17
260.246	68.61
260.463	3.07
260.679	1.02
260.895	11.26
261.112	50.18
261.328	21.5
261.544	19.46
261.761	111.61
261.977	35.84
262.193	17.41
262.409	46.08
262.626	25.6
262.842	1.02
263.058	-17.41
263.274	48.13
263.49	60.42
263.707	121.85
263.923	35.84
264.139	1.02
264.355	11.26
264.571	64.51
264.787	72.7
265.004	39.94
265.22	39.94
265.436	9.22
265.652	13.31
265.868	54.27
266.084	74.75
266.3	-19.46
266.516	140.29
266.732	23.55
266.948	91.13
267.164	68.61
267.38	15.36
267.596	39.94
267.812	58.37
268.028	62.46
268.244	-1.02
268.46	78.85
268.676	-3.07
268.892	17.41
269.108	68.61
269.324	-3.07
269.54	29.7
269.756	62.46
269.972	-1.02
270.188	58.37
270.403	82.94
270.619	-48.13
270.835	-13.31
271.051	5.12
271.267	-50.18
271.483	33.79
271.698	31.74
271.914	56.32
272.13	19.46
272.346	7.17
272.562	23.55
272.777	41.98
272.993	60.42
273.209	93.18
273.425	13.31
273.64	-7.17
273.856	13.31
274.072	39.94
274.287	21.5
274.503	46.08
274.719	-27.65
274.934	31.74
275.15	74.75
275.366	60.42
275.581	33.79
275.797	-29.7
276.012	3.07
276.228	13.31
276.444	-7.17
276.659	23.55
276.875	-13.31
277.09	7.17
277.306	48.13
277.521	33.79
277.737	37.89
277.952	80.89
278.168	33.79
278.383	91.13
278.599	107.52
278.814	41.98
279.03	9.22
279.245	64.51
279.461	54.27
279.676	13.31
279.892	82.94
280.107	13.31
280.322	3.07
280.538	70.65
280.753	78.85
280.969	58.37
281.184	84.99
281.399	39.94
281.615	-11.26
281.83	5.12
282.045	-33.79
282.26	76.8
282.476	25.6
282.691	-1.02
282.906	76.8
283.122	91.13
283.337	11.26
283.552	27.65
283.767	15.36
283.983	15.36
284.198	37.89
284.413	41.98
284.628	41.98
284.843	101.37
285.058	54.27
285.274	33.79
285.489	7.17
285.704	64.51
285.919	19.46
286.134	9.22
286.349	35.84
286.564	46.08
286.779	31.74
286.995	-17.41
287.21	-3.07
287.425	33.79
287.64	29.7
287.855	68.61
288.07	13.31
288.285	31.74
288.5	15.36
288.715	54.27
288.93	3.07
289.145	15.36
289.36	11.26
289.575	74.75
289.79	29.7
290.004	99.33
290.219	60.42
290.434	-21.5
290.649	72.7
290.864	-19.46
291.079	66.56
291.294	93.18
291.509	-25.6
291.724	-7.17
291.938	21.5
292.153	72.7
292.368	23.55
292.583	62.46
292.798	62.46
293.012	80.89
293.227	-41.98
293.442	68.61
293.657	-3.07
293.871	60.42
294.086	29.7
294.301	66.56
294.516	17.41
294.73	54.27
294.945	11.26
295.16	19.46
295.374	-11.26
295.589	-13.31
295.804	5.12
296.018	113.66
296.233	3.07
296.447	48.13
296.662	-46.08
296.877	56.32
297.091	48.13
297.306	56.32
297.52	-41.98
297.735	-5.12
297.949	29.7
298.164	54.27
298.378	15.36
298.593	80.89
298.807	3.07
299.022	54.27
299.236	15.36
299.451	33.79
299.665	-29.7
299.88	39.94
300.094	31.74
300.309	44.03
300.523	-1.02
300.737	48.13
300.952	58.37
301.166	78.85
301.381	21.5
301.595	78.85
301.809	-29.7
302.024	74.75
302.238	50.18
302.452	-23.55
302.667	74.75
302.881	68.61
303.095	-21.5
303.309	35.84
303.524	27.65
303.738	-3.07
303.952	62.46
304.166	-27.65
304.381	56.32
304.595	41.98
304.809	3.07
305.023	5.12
305.237	-33.79
305.452	31.74
305.666	37.89
305.88	-7.17
306.094	31.74
306.308	66.56
306.522	50.18
306.736	-5.12
306.95	76.8
307.164	5.12
307.379	21.5
307.593	87.04
307.807	80.89
308.021	95.23
308.235	62.46
308.449	7.17
308.663	41.98
308.877	62.46
309.091	46.08
309.305	29.7
309.519	46.08
309.733	21.5
309.947	50.18
310.161	15.36
310.374	-3.07
310.588	19.46
310.802	48.13
311.016	41.98
311.23	-11.26
311.444	48.13
311.658	76.8
311.872	48.13
312.085	37.89
312.299	64.51
312.513	82.94
312.727	-17.41
312.941	-33.79
313.154	152.57
313.368	39.94
313.582	35.84
313.796	21.5
314.009	91.13
314.223	89.09
314.437	115.71
314.651	3.07
314.864	33.79
315.078	21.5
315.292	7.17
315.505	46.08
315.719	-21.5
315.933	29.7
316.146	37.89
316.36	19.46
316.573	-25.6
316.787	23.55
317.001	27.65
317.214	44.03
317.428	41.98
317.641	33.79
317.855	7.17
318.068	60.42
318.282	58.37
318.495	25.6
318.709	-15.36
318.922	23.55
319.136	37.89
319.349	37.89
319.563	62.46
319.776	52.22
319.99	52.22
320.203	58.37
320.417	56.32
320.63	48.13
320.843	78.85
321.057	74.75
321.27	15.36
321.483	13.31
321.697	25.6
321.91	87.04
322.124	27.65
322.337	89.09
322.55	54.27
322.763	41.98
322.977	76.8
323.19	21.5
323.403	44.03
323.617	66.56
323.83	95.23
324.043	41.98
324.256	54.27
324.469	-25.6
324.683	66.56
324.896	21.5
325.109	31.74
325.322	50.18
325.535	3.07
325.748	62.46
325.962	62.46
326.175	58.37
326.388	-21.5
326.601	46.08
326.814	-3.07
327.027	21.5
327.24	62.46
327.453	87.04
327.666	105.47
327.879	60.42
328.092	5.12
328.305	11.26
328.518	-11.26
328.731	13.31
328.944	64.51
329.157	60.42
329.37	95.23
329.583	3.07
329.796	62.46
330.009	31.74
330.222	52.22
330.435	-1.02
330.648	93.18
330.861	1.02
331.073	48.13
331.286	80.89
331.499	21.5
331.712	25.6
331.925	29.7
332.138	27.65
332.35	68.61
332.563	29.7
332.776	48.13
332.989	5.12
333.202	60.42
333.414	11.26
333.627	21.5
333.84	19.46
334.053	99.33
334.265	68.61
334.478	37.89
334.691	46.08
334.903	33.79
335.116	70.65
335.329	103.42
335.541	29.7
335.754	64.51
335.966	44.03
336.179	48.13
336.392	-1.02
336.604	80.89
336.817	54.27
337.029	82.94
337.242	-9.22
337.454	72.7
337.667	5.12
337.88	62.46
338.092	11.26
338.305	78.85
338.517	-9.22
338.729	72.7
338.942	44.03
339.154	70.65
339.367	46.08
339.579	52.22
339.792	9.22
340.004	39.94
340.217	70.65
340.429	-9.22
340.641	37.89
340.854	105.47
341.066	5.12
341.278	-19.46
341.491	39.94
341.703	39.94
341.915	-41.98
342.128	46.08
342.34	91.13
342.552	33.79
342.764	37.89
342.977	17.41
343.189	-13.31
343.401	48.13
343.613	-13.31
343.826	5.12
344.038	62.46
344.25	41.98
344.462	54.27
344.674	78.85
344.886	76.8
345.099	72.7
345.311	5.12
345.523	-25.6
345.735	66.56
345.947	-13.31
346.159	9.22
346.371	33.79
346.583	5.12
346.795	95.23
347.007	44.03
347.219	-33.79
347.431	56.32
347.643	97.28
347.855	123.9
348.067	29.7
348.279	101.37
348.491	70.65
348.703	13.31
348.915	-19.46
349.127	23.55
349.339	76.8
349.551	29.7
349.763	41.98
349.975	13.31
350.187	68.61
350.399	13.31
350.61	-13.31
350.822	54.27
351.034	-31.74
351.246	46.08
351.458	46.08
351.669	35.84
351.881	46.08
352.093	27.65
352.305	41.98
352.517	19.46
352.728	103.42
352.94	-5.12
353.152	93.18
353.363	11.26
353.575	7.17
353.787	87.04
353.999	39.94
354.21	70.65
354.422	11.26
354.633	74.75
354.845	17.41
355.057	-21.5
355.268	-19.46
355.48	29.7
355.692	-5.12
355.903	101.37
356.115	87.04
356.326	70.65
356.538	1.02
356.749	15.36
356.961	95.23
357.172	48.13
357.384	13.31
357.595	21.5
357.807	60.42
358.018	31.74
358.23	62.46
358.441	99.33
358.653	15.36
358.864	60.42
359.075	31.74
359.287	-23.55
359.498	-27.65
359.709	115.71
359.921	82.94
360.132	13.31
360.344	9.22
360.555	23.55
360.766	89.09
360.977	-17.41
361.189	66.56
361.4	17.41
361.611	37.89
361.823	54.27
362.034	70.65
362.245	68.61
362.456	46.08
362.667	9.22
362.879	54.27
363.09	52.22
363.301	62.46
363.512	48.13
363.723	101.37
363.935	-11.26
364.146	58.37
364.357	33.79
364.568	54.27
364.779	31.74
364.99	29.7
365.201	13.31
365.412	21.5
365.623	15.36
365.834	89.09
366.045	60.42
366.256	29.7
366.467	70.65
366.678	31.74
366.889	50.18
367.1	-50.18
367.311	35.84
367.522	58.37
367.733	44.03
367.944	15.36
368.155	52.22
368.366	39.94
368.577	66.56
368.788	80.89
368.999	93.18
369.209	9.22
369.42	7.17
369.631	103.42
369.842	60.42
370.053	13.31
370.264	101.37
370.474	-29.7
370.685	80.89
370.896	-3.07
371.107	52.22
371.317	35.84
371.528	-13.31
371.739	-19.46
371.95	107.52
372.16	37.89
372.371	11.26
372.582	68.61
372.792	-50.18
373.003	74.75
373.214	33.79
373.424	82.94
373.635	35.84
373.846	31.74
374.056	107.52
374.267	52.22
374.477	5.12
374.688	74.75
374.898	72.7
375.109	48.13
375.319	-68.61
375.53	107.52
375.74	78.85
375.951	101.37
376.161	44.03
376.372	46.08
376.582	-19.46
376.793	29.7
377.003	50.18
377.214	113.66
377.424	64.51
377.635	33.79
377.845	87.04
378.055	70.65
378.266	37.89
378.476	76.8
378.686	56.32
378.897	39.94
379.107	19.46
379.317	54.27
379.528	93.18
379.738	103.42
379.948	111.61
380.158	15.36
380.369	128
380.579	136.19
380.789	48.13
380.999	27.65
381.21	111.61
381.42	70.65
381.63	64.51
381.84	103.42
382.05	41.98
382.261	56.32
382.471	9.22
382.681	48.13
382.891	-39.94
383.101	-5.12
383.311	35.84
383.521	25.6
383.731	105.47
383.941	48.13
384.151	125.95
384.361	44.03
384.571	-3.07
384.781	46.08
384.991	58.37
385.201	117.76
385.411	60.42
385.621	66.56
385.831	23.55
386.041	21.5
386.251	66.56
386.461	62.46
386.671	76.8
386.881	93.18
387.091	44.03
387.301	84.99
387.511	97.28
387.72	15.36
387.93	70.65
388.14	64.51
388.35	25.6
388.56	54.27
388.769	31.74
388.979	-60.42
389.189	7.17
389.399	56.32
389.609	25.6
389.818	25.6
390.028	39.94
390.238	-44.03
390.447	46.08
390.657	-1.02
390.867	82.94
391.076	35.84
391.286	44.03
391.496	19.46
391.705	64.51
391.915	46.08
392.125	48.13
392.334	54.27
392.544	103.42
392.753	37.89
392.963	-1.02
393.172	31.74
393.382	-3.07
393.591	37.89
393.801	56.32
394.01	99.33
394.22	68.61
394.429	72.7
394.639	-13.31
394.848	66.56
395.058	125.95
395.267	25.6
395.477	48.13
395.686	54.27
395.895	54.27
396.105	-35.84
396.314	46.08
396.524	44.03
396.733	25.6
396.942	115.71
397.152	50.18
397.361	136.19
397.57	97.28
397.78	-21.5
397.989	121.85
398.198	78.85
398.407	5.12
398.617	95.23
398.826	1.02
399.035	107.52
399.244	21.5
399.453	74.75
399.663	78.85
399.872	33.79
400.081	39.94
400.29	66.56
400.499	37.89
400.708	123.9
400.917	115.71
401.127	-19.46
401.336	68.61
401.545	150.53
401.754	84.99
401.963	144.38
402.172	103.42
402.381	70.65
402.59	80.89
402.799	80.89
403.008	121.85
403.217	95.23
403.426	46.08
403.635	56.32
403.844	107.52
404.053	125.95
404.262	99.33
404.471	107.52
404.68	179.2
404.888	128
405.097	87.04
405.306	136.19
405.515	84.99
405.724	97.28
405.933	68.61
406.142	107.52
406.35	76.8
406.559	136.19
406.768	152.57
406.977	128
407.185	58.37
407.394	193.53
407.603	142.33
407.812	195.58
408.02	181.25
408.229	191.49
408.438	144.38
408.646	132.09
408.855	187.39
409.064	232.44
409.272	138.24
409.481	203.77
409.69	177.15
409.898	203.77
410.107	154.62
410.315	234.49
410.524	201.72
410.733	193.53
410.941	187.39
411.15	220.16
411.358	173.05
411.567	254.97
411.775	232.44
411.984	218.11
412.192	275.45
412.401	373.75
412.609	224.25
412.818	332.79
413.026	353.27
413.234	279.55
413.443	275.45
413.651	302.08
413.86	347.13
414.068	336.89
414.276	390.14
414.485	420.86
414.693	484.34
414.901	433.15
415.11	427
415.318	494.58
415.526	435.19
415.734	467.96
415.943	461.82
416.151	531.45
416.359	568.31
416.567	525.3
416.776	529.4
416.984	529.4
417.192	601.08
417.4	556.02
417.608	578.55
417.817	603.13
418.025	697.33
418.233	648.18
418.441	635.89
418.649	705.53
418.857	732.15
419.065	814.07
419.273	848.88
419.481	816.12
419.689	895.99
419.897	852.98
420.105	900.08
420.313	984.05
420.521	1012.72
420.729	1010.67
420.937	1094.64
421.145	1022.96
421.353	1145.84
421.561	1104.88
421.769	1170.41
421.977	1381.35
422.185	1260.52
422.393	1352.68
422.601	1412.07
422.809	1448.94
423.017	1457.13
423.224	1416.17
423.432	1467.37
423.64	1625.06
423.848	1627.11
424.056	1571.82
424.263	1788.9
424.471	1659.88
424.679	1717.22
424.887	1833.96
425.094	1874.92
425.302	1926.11
425.51	2003.94
425.718	2143.2
425.925	2089.95
426.133	2233.31
426.341	2327.52
426.548	2421.72
426.756	2315.23
426.964	2343.9
427.171	2620.38
427.379	2667.48
427.586	2632.66
427.794	2706.39
428.001	2886.61
428.209	2962.39
428.417	2978.77
428.624	2970.58
428.832	3042.26
429.039	3152.85
429.247	3101.65
429.454	3369.93
429.662	3570.63
429.869	3384.27
430.076	3691.46
430.284	3470.28
430.491	3607.5
430.699	3800.01
430.906	3873.73
431.114	4004.8
431.321	4191.17
431.528	4154.3
431.736	4445.12
431.943	4537.27
432.15	4559.8
432.358	4539.32
432.565	4928.44
432.772	4664.25
432.979	5024.69
433.187	5247.92
433.394	5237.68
433.601	5561.26
433.808	5540.78
434.016	5522.35
434.223	5673.9
434.43	6114.21
434.637	5807.02
434.844	6265.76
435.052	6488.99
435.259	6405.02
435.466	6384.54
435.673	6329.25
435.88	6607.77
436.087	7250.83
436.294	7295.89
436.501	7070.61
436.708	7185.3
436.915	7445.39
437.122	7705.48
437.329	7766.92
437.537	7977.86
437.743	8002.44
437.95	7967.62
438.157	8418.18
438.364	8846.2
438.571	8766.33
438.778	8774.52
438.985	9626.48
439.192	9141.11
439.399	9577.33
439.606	9294.71
439.813	9745.26
440.02	10470.24
440.227	10232.68
440.433	10072.93
440.64	10455.9
440.847	10290.02
441.054	10429.28
441.261	11207.51
441.467	11160.41
441.674	11455.31
441.881	11901.77
442.088	11983.69
442.294	11692.88
442.501	12129.09
442.708	12346.18
442.914	12639.04
443.121	13427.51
443.328	12821.31
443.534	13839.15
443.741	13433.65
443.948	13361.97
444.154	14252.84
444.361	14261.03
444.568	14304.04
444.774	14127.91
444.981	14639.9
445.187	14949.15
445.394	15627.03
445.6	15403.8
445.807	16947.97
446.013	15940.36
446.22	16544.52
446.426	16831.23
446.633	17163
446.839	17824.5
447.046	17087.23
447.252	18033.39
447.459	18000.62
447.665	17826.54
447.871	18877.15
448.078	19688.15
448.284	18588.39
448.491	19258.07
448.697	20067.02
448.903	20572.87
449.11	20511.43
449.316	20019.92
449.522	20820.67
449.728	21144.25
449.935	21140.16
450.141	21164.73
450.347	21600.95
450.553	21177.02
450.76	21338.81
450.966	21996.21
451.172	21971.63
451.378	22545.06
451.584	21971.63
451.791	22590.12
451.997	22801.06
452.203	22893.22
452.409	23057.06
452.615	22581.93
452.821	22082.22
453.027	21686.97
453.233	22747.81
453.44	22207.15
453.646	22215.34
453.852	22262.44
454.058	22786.72
454.264	22026.93
454.47	22706.85
454.676	21850.8
454.882	22725.29
455.088	20749
455.294	20820.67
455.5	21091.01
455.705	21828.27
455.911	20880.07
456.117	20138.7
456.323	19976.91
456.529	19024.61
456.735	19774.16
456.941	19516.12
457.147	19090.14
457.352	18537.19
457.558	18098.92
457.764	18299.62
457.97	18047.72
458.176	17474.29
458.381	17869.55
458.587	16767.74
458.793	16761.6
458.999	15899.41
459.204	16974.59
459.41	16495.36
459.616	15522.58
459.821	15571.73
460.027	15612.69
460.233	15151.9
460.438	14371.62
460.644	14484.26
460.85	13706.03
461.055	13677.36
461.261	13531.95
461.466	12477.25
461.672	12125
461.878	13095.74
462.083	12065.61
462.289	11930.44
462.494	11846.48
462.7	11180.89
462.905	11033.43
463.111	11455.31
463.316	11422.55
463.522	11117.4
463.727	11260.76
463.932	11121.49
464.138	11041.62
464.343	11002.71
464.549	10847.07
464.754	11086.68
464.959	11070.3
465.165	11047.77
465.37	10539.87
465.575	10414.95
465.781	10597.21
465.986	10890.07
466.191	10179.43
466.397	10009.45
466.602	9628.53
466.807	10048.36
467.012	9855.85
467.218	9986.92
467.423	9952.1
467.628	9958.25
467.833	10240.87
468.038	9839.47
468.244	9749.36
468.449	9970.54
468.654	9562.99
468.859	9710.44
469.064	9448.3
469.269	9333.62
469.474	9374.58
