Data from USB4F104151__42__12-59-05-006.txt Node

Date: Fri Mar 14 12:59:05 EDT 2025
User: louis
Spectrometer: USB4F10415
Trigger mode: 4
Integration Time (sec): 1.000000E-2
Scans to average: 1
Electric dark correction enabled: true
Nonlinearity correction enabled: false
Boxcar width: 0
XAxis mode: Wavelengths
Number of Pixels in Spectrum: 3648
>>>>>Begin Spectral Data<<<<<
178.204	-28.16
178.424	-28.16
178.644	-28.16
178.864	-15.87
179.084	-77.31
179.304	-11.78
179.524	10.75
179.744	16.9
179.964	31.23
180.184	8.7
180.404	-3.58
180.624	-3.58
180.844	-19.97
181.064	-32.26
181.283	37.38
181.503	-28.16
181.723	-5.63
181.943	-46.59
182.163	-3.58
182.383	-46.59
182.602	29.18
182.822	-19.97
183.042	-83.45
183.262	-13.82
183.482	-38.4
183.701	12.8
183.921	-28.16
184.141	-1.54
184.361	25.09
184.58	-22.02
184.8	-1.54
185.02	-46.59
185.239	-26.11
185.459	-34.3
185.679	14.85
185.898	-7.68
186.118	-54.78
186.338	55.81
186.557	25.09
186.777	-3.58
186.997	12.8
187.216	20.99
187.436	76.29
187.655	8.7
187.875	-19.97
188.095	16.9
188.314	-3.58
188.534	-75.26
188.753	-38.4
188.973	53.76
189.192	-13.82
189.412	6.66
189.631	23.04
189.851	-22.02
190.07	-5.63
190.29	-7.68
190.509	10.75
190.729	66.05
190.948	-19.97
191.168	-1.54
191.387	6.66
191.607	53.76
191.826	-32.26
192.045	-56.83
192.265	33.28
192.484	14.85
192.704	-50.69
192.923	-24.06
193.142	-9.73
193.362	-103.93
193.581	-1.54
193.8	29.18
194.02	-13.82
194.239	-3.58
194.458	0.51
194.678	4.61
194.897	-50.69
195.116	45.57
195.335	23.04
195.555	-1.54
195.774	-11.78
195.993	-19.97
196.212	20.99
196.432	-13.82
196.651	-73.21
196.87	-56.83
197.089	8.7
197.308	43.52
197.528	-9.73
197.747	-85.5
197.966	-17.92
198.185	8.7
198.404	-34.3
198.623	14.85
198.842	-15.87
199.062	23.04
199.281	111.1
199.5	-1.54
199.719	-42.5
199.938	-9.73
200.157	-11.78
200.376	-11.78
200.595	-17.92
200.814	31.23
201.033	70.14
201.252	47.62
201.471	-28.16
201.69	-17.92
201.909	-50.69
202.128	-58.88
202.347	6.66
202.566	-22.02
202.785	4.61
203.004	-65.02
203.223	23.04
203.442	98.81
203.661	-1.54
203.879	37.38
204.098	29.18
204.317	-26.11
204.536	59.9
204.755	90.62
204.974	37.38
205.193	20.99
205.411	35.33
205.63	-5.63
205.849	-75.26
206.068	-1.54
206.287	-13.82
206.505	-30.21
206.724	29.18
206.943	-46.59
207.162	6.66
207.381	57.86
207.599	8.7
207.818	-5.63
208.037	0.51
208.255	8.7
208.474	35.33
208.693	-28.16
208.911	14.85
209.13	-48.64
209.349	84.48
209.567	55.81
209.786	10.75
210.005	-15.87
210.223	-95.74
210.442	31.23
210.661	-9.73
210.879	-34.3
211.098	-28.16
211.316	-17.92
211.535	53.76
211.753	45.57
211.972	33.28
212.191	-56.83
212.409	6.66
212.628	31.23
212.846	-32.26
213.065	-26.11
213.283	59.9
213.502	-7.68
213.72	39.42
213.938	-13.82
214.157	10.75
214.375	16.9
214.594	18.94
214.812	16.9
215.031	-17.92
215.249	-54.78
215.467	0.51
215.686	29.18
215.904	37.38
216.122	25.09
216.341	8.7
216.559	-42.5
216.778	-15.87
216.996	-26.11
217.214	31.23
217.432	-44.54
217.651	16.9
217.869	18.94
218.087	-50.69
218.306	35.33
218.524	31.23
218.742	2.56
218.96	-24.06
219.179	37.38
219.397	-3.58
219.615	-17.92
219.833	27.14
220.051	-97.79
220.27	39.42
220.488	-81.41
220.706	4.61
220.924	41.47
221.142	23.04
221.36	31.23
221.578	12.8
221.796	-9.73
222.015	27.14
222.233	-13.82
222.451	8.7
222.669	12.8
222.887	-7.68
223.105	55.81
223.323	-38.4
223.541	39.42
223.759	31.23
223.977	-17.92
224.195	2.56
224.413	39.42
224.631	25.09
224.849	47.62
225.067	20.99
225.285	23.04
225.503	6.66
225.721	-13.82
225.939	-13.82
226.157	25.09
226.375	-3.58
226.592	-26.11
226.81	12.8
227.028	20.99
227.246	72.19
227.464	45.57
227.682	20.99
227.9	70.14
228.117	-56.83
228.335	-42.5
228.553	64
228.771	-44.54
228.989	-24.06
229.206	-73.21
229.424	-7.68
229.642	-17.92
229.86	-1.54
230.077	-1.54
230.295	37.38
230.513	-54.78
230.731	25.09
230.948	-3.58
231.166	64
231.384	49.66
231.601	-19.97
231.819	25.09
232.037	-36.35
232.254	-73.21
232.472	-7.68
232.689	49.66
232.907	-3.58
233.125	-24.06
233.342	25.09
233.56	-22.02
233.777	-13.82
233.995	-15.87
234.213	-42.5
234.43	12.8
234.648	68.09
234.865	37.38
235.083	4.61
235.3	-26.11
235.518	-7.68
235.735	27.14
235.953	27.14
236.17	4.61
236.388	35.33
236.605	2.56
236.822	59.9
237.04	55.81
237.257	47.62
237.475	-42.5
237.692	18.94
237.909	4.61
238.127	-48.64
238.344	4.61
238.562	61.95
238.779	-30.21
238.996	-28.16
239.214	35.33
239.431	2.56
239.648	33.28
239.865	47.62
240.083	-17.92
240.3	102.91
240.517	-28.16
240.735	37.38
240.952	53.76
241.169	49.66
241.386	-22.02
241.603	55.81
241.821	-22.02
242.038	-34.3
242.255	-7.68
242.472	18.94
242.689	14.85
242.907	14.85
243.124	-7.68
243.341	47.62
243.558	64
243.775	-34.3
243.992	-30.21
244.209	0.51
244.426	-11.78
244.643	-11.78
244.86	16.9
245.078	12.8
245.295	-28.16
245.512	-46.59
245.729	12.8
245.946	37.38
246.163	33.28
246.38	41.47
246.597	-44.54
246.814	-28.16
247.031	-36.35
247.248	-85.5
247.464	-28.16
247.681	41.47
247.898	2.56
248.115	-15.87
248.332	-42.5
248.549	49.66
248.766	-9.73
248.983	-24.06
249.2	41.47
249.417	33.28
249.633	-11.78
249.85	-5.63
250.067	45.57
250.284	-24.06
250.501	4.61
250.717	16.9
250.934	20.99
251.151	-50.69
251.368	-42.5
251.585	0.51
251.801	-1.54
252.018	6.66
252.235	35.33
252.451	23.04
252.668	-19.97
252.885	35.33
253.102	-122.37
253.318	-28.16
253.535	4.61
253.752	-42.5
253.968	23.04
254.185	6.66
254.401	6.66
254.618	29.18
254.835	-36.35
255.051	25.09
255.268	-28.16
255.484	4.61
255.701	27.14
255.917	29.18
256.134	29.18
256.351	68.09
256.567	-65.02
256.784	2.56
257	-62.98
257.217	4.61
257.433	-30.21
257.65	33.28
257.866	-5.63
258.082	4.61
258.299	25.09
258.515	4.61
258.732	12.8
258.948	-3.58
259.165	33.28
259.381	33.28
259.597	-30.21
259.814	-11.78
260.03	-5.63
260.246	8.7
260.463	18.94
260.679	8.7
260.895	-30.21
261.112	59.9
261.328	23.04
261.544	-24.06
261.761	16.9
261.977	80.38
262.193	0.51
262.409	25.09
262.626	12.8
262.842	-22.02
263.058	14.85
263.274	35.33
263.49	-9.73
263.707	47.62
263.923	14.85
264.139	8.7
264.355	16.9
264.571	49.66
264.787	-56.83
265.004	-46.59
265.22	-50.69
265.436	-26.11
265.652	49.66
265.868	8.7
266.084	20.99
266.3	-11.78
266.516	-7.68
266.732	47.62
266.948	-40.45
267.164	78.33
267.38	-22.02
267.596	70.14
267.812	59.9
268.028	-3.58
268.244	31.23
268.46	4.61
268.676	-40.45
268.892	10.75
269.108	-122.37
269.324	-67.07
269.54	12.8
269.756	-24.06
269.972	-69.12
270.188	-17.92
270.403	-1.54
270.619	10.75
270.835	-40.45
271.051	-13.82
271.267	-19.97
271.483	16.9
271.698	-101.89
271.914	25.09
272.13	-44.54
272.346	-24.06
272.562	-46.59
272.777	70.14
272.993	-9.73
273.209	53.76
273.425	14.85
273.64	-13.82
273.856	-101.89
274.072	-3.58
274.287	14.85
274.503	68.09
274.719	47.62
274.934	25.09
275.15	16.9
275.366	18.94
275.581	18.94
275.797	-17.92
276.012	-50.69
276.228	35.33
276.444	29.18
276.659	0.51
276.875	-15.87
277.09	6.66
277.306	-52.74
277.521	35.33
277.737	-9.73
277.952	8.7
278.168	-52.74
278.383	14.85
278.599	31.23
278.814	23.04
279.03	-5.63
279.245	59.9
279.461	59.9
279.676	43.52
279.892	27.14
280.107	29.18
280.322	41.47
280.538	-42.5
280.753	43.52
280.969	53.76
281.184	-5.63
281.399	-9.73
281.615	0.51
281.83	8.7
282.045	-48.64
282.26	57.86
282.476	-81.41
282.691	14.85
282.906	23.04
283.122	-9.73
283.337	-17.92
283.552	31.23
283.767	-108.03
283.983	47.62
284.198	-9.73
284.413	20.99
284.628	12.8
284.843	35.33
285.058	-52.74
285.274	33.28
285.489	12.8
285.704	-5.63
285.919	37.38
286.134	-11.78
286.349	-26.11
286.564	10.75
286.779	0.51
286.995	16.9
287.21	0.51
287.425	37.38
287.64	27.14
287.855	37.38
288.07	-36.35
288.285	18.94
288.5	-3.58
288.715	-15.87
288.93	12.8
289.145	-17.92
289.36	29.18
289.575	37.38
289.79	-11.78
290.004	53.76
290.219	55.81
290.434	-73.21
290.649	29.18
290.864	20.99
291.079	-85.5
291.294	78.33
291.509	-48.64
291.724	47.62
291.938	-58.88
292.153	23.04
292.368	-34.3
292.583	76.29
292.798	35.33
293.012	12.8
293.227	29.18
293.442	16.9
293.657	12.8
293.871	16.9
294.086	-58.88
294.301	-11.78
294.516	6.66
294.73	53.76
294.945	59.9
295.16	33.28
295.374	-22.02
295.589	-50.69
295.804	-46.59
296.018	47.62
296.233	14.85
296.447	39.42
296.662	35.33
296.877	-17.92
297.091	-60.93
297.306	0.51
297.52	8.7
297.735	43.52
297.949	8.7
298.164	82.43
298.378	4.61
298.593	29.18
298.807	4.61
299.022	20.99
299.236	-26.11
299.451	-3.58
299.665	-79.36
299.88	-32.26
300.094	39.42
300.309	-30.21
300.523	-62.98
300.737	-24.06
300.952	-26.11
301.166	10.75
301.381	-26.11
301.595	31.23
301.809	-19.97
302.024	86.53
302.238	-3.58
302.452	4.61
302.667	-22.02
302.881	-1.54
303.095	-26.11
303.309	23.04
303.524	-48.64
303.738	29.18
303.952	-19.97
304.166	37.38
304.381	18.94
304.595	-22.02
304.809	-28.16
305.023	70.14
305.237	4.61
305.452	33.28
305.666	6.66
305.88	61.95
306.094	57.86
306.308	20.99
306.522	10.75
306.736	12.8
306.95	-48.64
307.164	-13.82
307.379	4.61
307.593	23.04
307.807	76.29
308.021	29.18
308.235	-13.82
308.449	8.7
308.663	-5.63
308.877	10.75
309.091	41.47
309.305	57.86
309.519	-60.93
309.733	29.18
309.947	53.76
310.161	12.8
310.374	23.04
310.588	6.66
310.802	84.48
311.016	-7.68
311.23	-9.73
311.444	16.9
311.658	-7.68
311.872	-1.54
312.085	43.52
312.299	-17.92
312.513	-99.84
312.727	-13.82
312.941	-58.88
313.154	14.85
313.368	-11.78
313.582	14.85
313.796	12.8
314.009	-13.82
314.223	70.14
314.437	47.62
314.651	12.8
314.864	39.42
315.078	39.42
315.292	-1.54
315.505	-36.35
315.719	29.18
315.933	-11.78
316.146	78.33
316.36	-19.97
316.573	53.76
316.787	80.38
317.001	-28.16
317.214	-77.31
317.428	-81.41
317.641	61.95
317.855	-5.63
318.068	43.52
318.282	-7.68
318.495	37.38
318.709	8.7
318.922	31.23
319.136	0.51
319.349	55.81
319.563	-7.68
319.776	-1.54
319.99	-19.97
320.203	-15.87
320.417	33.28
320.63	6.66
320.843	33.28
321.057	-48.64
321.27	-32.26
321.483	-11.78
321.697	0.51
321.91	51.71
322.124	25.09
322.337	18.94
322.55	-42.5
322.763	-15.87
322.977	-22.02
323.19	8.7
323.403	45.57
323.617	-32.26
323.83	25.09
324.043	66.05
324.256	45.57
324.469	-5.63
324.683	39.42
324.896	55.81
325.109	-3.58
325.322	-40.45
325.535	12.8
325.748	-5.63
325.962	29.18
326.175	31.23
326.388	37.38
326.601	-7.68
326.814	14.85
327.027	14.85
327.24	12.8
327.453	-54.78
327.666	29.18
327.879	39.42
328.092	-26.11
328.305	2.56
328.518	-1.54
328.731	43.52
328.944	31.23
329.157	23.04
329.37	37.38
329.583	-3.58
329.796	-3.58
330.009	-5.63
330.222	35.33
330.435	-1.54
330.648	-19.97
330.861	4.61
331.073	14.85
331.286	-30.21
331.499	-34.3
331.712	-44.54
331.925	-67.07
332.138	2.56
332.35	0.51
332.563	-28.16
332.776	-26.11
332.989	-24.06
333.202	12.8
333.414	-24.06
333.627	29.18
333.84	-24.06
334.053	82.43
334.265	-17.92
334.478	-36.35
334.691	-28.16
334.903	-48.64
335.116	37.38
335.329	64
335.541	-32.26
335.754	47.62
335.966	18.94
336.179	-17.92
336.392	6.66
336.604	37.38
336.817	-65.02
337.029	72.19
337.242	-28.16
337.454	12.8
337.667	-40.45
337.88	-19.97
338.092	35.33
338.305	12.8
338.517	20.99
338.729	143.87
338.942	2.56
339.154	35.33
339.367	-60.93
339.579	8.7
339.792	0.51
340.004	-9.73
340.217	-3.58
340.429	-32.26
340.641	-22.02
340.854	-44.54
341.066	0.51
341.278	-5.63
341.491	49.66
341.703	25.09
341.915	16.9
342.128	-28.16
342.34	0.51
342.552	57.86
342.764	16.9
342.977	31.23
343.189	-11.78
343.401	84.48
343.613	29.18
343.826	-32.26
344.038	49.66
344.25	-30.21
344.462	-5.63
344.674	-40.45
344.886	59.9
345.099	82.43
345.311	-52.74
345.523	6.66
345.735	8.7
345.947	-11.78
346.159	35.33
346.371	61.95
346.583	-38.4
346.795	-3.58
347.007	4.61
347.219	25.09
347.431	-34.3
347.643	35.33
347.855	86.53
348.067	-5.63
348.279	41.47
348.491	-13.82
348.703	-38.4
348.915	41.47
349.127	47.62
349.339	68.09
349.551	-15.87
349.763	-11.78
349.975	-28.16
350.187	-32.26
350.399	18.94
350.61	10.75
350.822	-11.78
351.034	35.33
351.246	25.09
351.458	47.62
351.669	14.85
351.881	78.33
352.093	-13.82
352.305	-19.97
352.517	14.85
352.728	27.14
352.94	6.66
353.152	10.75
353.363	-24.06
353.575	0.51
353.787	43.52
353.999	-26.11
354.21	43.52
354.422	-24.06
354.633	23.04
354.845	57.86
355.057	12.8
355.268	47.62
355.48	78.33
355.692	12.8
355.903	-3.58
356.115	-17.92
356.326	-34.3
356.538	25.09
356.749	-7.68
356.961	-44.54
357.172	31.23
357.384	-24.06
357.595	-5.63
357.807	35.33
358.018	-24.06
358.23	6.66
358.441	37.38
358.653	-62.98
358.864	51.71
359.075	47.62
359.287	47.62
359.498	4.61
359.709	55.81
359.921	-40.45
360.132	64
360.344	29.18
360.555	8.7
360.766	27.14
360.977	33.28
361.189	29.18
361.4	-52.74
361.611	66.05
361.823	-24.06
362.034	43.52
362.245	23.04
362.456	-44.54
362.667	-26.11
362.879	6.66
363.09	49.66
363.301	27.14
363.512	43.52
363.723	29.18
363.935	-1.54
364.146	55.81
364.357	16.9
364.568	61.95
364.779	-54.78
364.99	82.43
365.201	-28.16
365.412	-36.35
365.623	-40.45
365.834	37.38
366.045	35.33
366.256	6.66
366.467	109.05
366.678	8.7
366.889	-15.87
367.1	27.14
367.311	-71.17
367.522	39.42
367.733	-34.3
367.944	14.85
368.155	-24.06
368.366	-3.58
368.577	16.9
368.788	41.47
368.999	-36.35
369.209	-9.73
369.42	-19.97
369.631	66.05
369.842	23.04
370.053	4.61
370.264	-50.69
370.474	70.14
370.685	-15.87
370.896	-58.88
371.107	39.42
371.317	12.8
371.528	12.8
371.739	-38.4
371.95	-7.68
372.16	94.72
372.371	-9.73
372.582	59.9
372.792	-46.59
373.003	64
373.214	80.38
373.424	12.8
373.635	12.8
373.846	27.14
374.056	-3.58
374.267	33.28
374.477	-30.21
374.688	-13.82
374.898	4.61
375.109	68.09
375.319	31.23
375.53	-3.58
375.74	8.7
375.951	14.85
376.161	-30.21
376.372	92.67
376.582	29.18
376.793	86.53
377.003	-28.16
377.214	-13.82
377.424	27.14
377.635	70.14
377.845	-7.68
378.055	70.14
378.266	-19.97
378.476	53.76
378.686	-38.4
378.897	45.57
379.107	20.99
379.317	35.33
379.528	-1.54
379.738	-34.3
379.948	-9.73
380.158	55.81
380.369	12.8
380.579	59.9
380.789	-58.88
380.999	25.09
381.21	59.9
381.42	102.91
381.63	72.19
381.84	35.33
382.05	-13.82
382.261	-3.58
382.471	43.52
382.681	20.99
382.891	12.8
383.101	20.99
383.311	-46.59
383.521	-28.16
383.731	-48.64
383.941	35.33
384.151	82.43
384.361	43.52
384.571	57.86
384.781	-32.26
384.991	33.28
385.201	-5.63
385.411	47.62
385.621	41.47
385.831	74.24
386.041	29.18
386.251	-17.92
386.461	37.38
386.671	10.75
386.881	-1.54
387.091	14.85
387.301	4.61
387.511	-1.54
387.72	-56.83
387.93	57.86
388.14	115.2
388.35	-19.97
388.56	25.09
388.769	-19.97
388.979	-5.63
389.189	8.7
389.399	8.7
389.609	16.9
389.818	37.38
390.028	18.94
390.238	-3.58
390.447	16.9
390.657	78.33
390.867	0.51
391.076	12.8
391.286	-19.97
391.496	51.71
391.705	45.57
391.915	-7.68
392.125	10.75
392.334	-11.78
392.544	84.48
392.753	-36.35
392.963	41.47
393.172	29.18
393.382	-30.21
393.591	39.42
393.801	4.61
394.01	-34.3
394.22	49.66
394.429	23.04
394.639	12.8
394.848	-19.97
395.058	102.91
395.267	23.04
395.477	16.9
395.686	74.24
395.895	43.52
396.105	72.19
396.314	-11.78
396.524	47.62
396.733	27.14
396.942	76.29
397.152	109.05
397.361	37.38
397.57	86.53
397.78	41.47
397.989	29.18
398.198	0.51
398.407	-19.97
398.617	55.81
398.826	45.57
399.035	84.48
399.244	8.7
399.453	-36.35
399.663	-17.92
399.872	127.49
400.081	-1.54
400.29	-7.68
400.499	47.62
400.708	92.67
400.917	29.18
401.127	94.72
401.336	23.04
401.545	70.14
401.754	16.9
401.963	109.05
402.172	43.52
402.381	47.62
402.59	68.09
402.799	43.52
403.008	72.19
403.217	115.2
403.426	74.24
403.635	43.52
403.844	45.57
404.053	37.38
404.262	76.29
404.471	39.42
404.68	53.76
404.888	-7.68
405.097	27.14
405.306	51.71
405.515	70.14
405.724	33.28
405.933	37.38
406.142	64
406.35	111.1
406.559	64
406.768	94.72
406.977	127.49
407.185	61.95
407.394	107.01
407.603	39.42
407.812	156.16
408.02	53.76
408.229	145.92
408.438	102.91
408.646	127.49
408.855	139.77
409.064	176.64
409.272	145.92
409.481	154.11
409.69	92.67
409.898	143.87
410.107	190.97
410.315	195.07
410.524	164.35
410.733	135.68
410.941	213.5
411.15	154.11
411.358	211.45
411.567	225.79
411.775	182.78
411.984	176.64
412.192	256.51
412.401	223.74
412.609	219.64
412.818	184.83
413.026	209.4
413.234	236.03
413.443	320
413.651	293.37
413.86	371.19
414.068	399.87
414.276	350.71
414.485	356.86
414.693	352.76
414.901	389.63
415.11	336.38
415.318	356.86
415.526	375.29
415.734	416.25
415.943	434.68
416.151	465.4
416.359	479.74
416.567	504.31
416.776	500.22
416.984	553.46
417.192	543.22
417.4	510.46
417.608	555.51
417.817	569.85
418.025	653.81
418.233	625.14
418.441	627.19
418.649	649.72
418.857	571.9
419.065	653.81
419.273	735.73
419.481	631.29
419.689	719.35
419.897	836.08
420.105	883.19
420.313	838.13
420.521	963.06
420.729	967.15
420.937	1016.3
421.145	897.52
421.353	999.92
421.561	1053.17
421.769	1061.36
421.977	1141.23
422.185	1165.81
422.393	1221.1
422.601	1274.35
422.809	1325.55
423.017	1307.12
423.224	1311.21
423.432	1372.65
423.64	1335.79
423.848	1489.39
424.056	1597.93
424.263	1630.7
424.471	1655.27
424.679	1659.37
424.887	1642.98
425.094	1735.14
425.302	1833.44
425.51	1802.72
425.718	1886.69
425.925	1950.18
426.133	1964.51
426.341	2058.72
426.548	2157.02
426.756	2243.04
426.964	2273.76
427.171	2288.09
427.379	2390.49
427.586	2456.03
427.794	2574.81
428.001	2578.9
428.209	2748.89
428.417	2795.99
428.624	2853.33
428.832	2836.95
429.039	2918.87
429.247	2879.96
429.454	3097.04
429.662	3391.95
429.869	3150.29
430.076	3416.52
430.284	3203.54
430.491	3469.77
430.699	3699.14
430.906	3643.85
431.114	3758.53
431.321	3836.36
431.528	3928.52
431.736	4092.35
431.943	4178.37
432.15	4362.69
432.358	4190.66
432.565	4442.56
432.772	4327.87
432.979	4934.07
433.187	4817.33
433.394	4936.12
433.601	5124.53
433.808	5050.8
434.016	5124.53
434.223	5079.47
434.43	5593.51
434.637	5712.3
434.844	5857.7
435.052	5863.85
435.259	6107.55
435.466	5986.72
435.673	6121.89
435.88	6429.09
436.087	6472.09
436.294	6562.2
436.501	6554.01
436.708	6619.55
436.915	6912.41
437.122	7190.93
437.329	7207.31
437.537	7358.86
437.743	7498.13
437.95	7491.98
438.157	7856.52
438.364	8268.16
438.571	8085.89
438.778	8063.36
438.985	9146.74
439.192	8737.15
439.399	8857.98
439.606	8675.71
439.813	9079.16
440.02	9824.62
440.227	9507.18
440.433	9451.89
440.64	9820.52
440.847	9730.41
441.054	9841
441.261	10664.29
441.467	10539.36
441.674	10860.89
441.881	11286.87
442.088	10951
442.294	11028.82
442.501	11221.33
442.708	11710.8
442.914	11934.03
443.121	12572.99
443.328	12273.99
443.534	12863.8
443.741	12740.93
443.948	12468.55
444.154	13396.28
444.361	13457.71
444.568	13705.52
444.774	13416.76
444.981	13504.82
445.187	13930.8
445.394	14840.09
445.6	14244.13
445.807	15868.17
446.013	15268.12
446.22	15579.41
446.426	16097.55
446.633	16105.74
446.839	16492.8
447.046	16185.61
447.252	16826.62
447.459	17043.71
447.665	16978.17
447.871	17815.79
448.078	18690.27
448.284	17674.48
448.491	18194.67
448.697	18925.79
448.903	19298.52
449.11	19384.54
449.316	18946.27
449.522	19515.61
449.728	19921.1
449.935	19738.83
450.141	20179.15
450.347	20719.81
450.553	20111.57
450.76	19931.34
450.966	20908.22
451.172	20539.59
451.378	21082.3
451.584	20707.52
451.791	21305.53
451.997	21346.49
452.203	21809.33
452.409	21643.45
452.615	21668.02
452.821	20580.55
453.027	20553.93
453.233	21969.07
453.44	21082.3
453.646	20859.07
453.852	21196.99
454.058	21418.17
454.264	20728
454.47	21188.8
454.676	20797.63
454.882	21708.98
455.088	19615.96
455.294	19843.28
455.5	20019.41
455.705	20490.44
455.911	19531.99
456.117	19167.45
456.323	19112.16
456.529	18168.04
456.735	18604.26
456.941	18444.52
457.147	18209
457.352	17103.1
457.558	17547.51
457.764	17371.38
457.97	16789.76
458.176	16666.88
458.381	16705.79
458.587	15946
458.793	16054.54
458.999	14971.16
459.204	15995.15
459.41	15642.9
459.616	14547.23
459.821	14696.74
460.027	14666.02
460.233	14403.88
460.438	13566.26
460.644	13723.95
460.85	12949.82
461.055	12978.49
461.261	12857.66
461.466	11974.99
461.672	11424.08
461.878	12384.58
462.083	11518.29
462.289	11307.35
462.494	11260.24
462.7	10735.96
462.905	10400.1
463.111	11006.3
463.316	10731.87
463.522	10357.09
463.727	10623.33
463.932	10629.47
464.138	10627.42
464.343	10477.92
464.549	10289.51
464.754	10621.28
464.959	10510.69
465.165	10492.26
465.37	9898.34
465.575	9701.74
465.781	10252.64
465.986	10240.36
466.191	9902.44
466.397	9685.36
466.602	9009.53
466.807	9529.71
467.012	9582.96
467.218	9447.79
467.423	9296.24
467.628	9367.92
467.833	9824.62
468.038	9433.46
