Data from USB4F104151__18__12-58-33-860.txt Node

Date: Fri Mar 14 12:58:33 EDT 2025
User: louis
Spectrometer: USB4F10415
Trigger mode: 4
Integration Time (sec): 1.000000E-2
Scans to average: 1
Electric dark correction enabled: true
Nonlinearity correction enabled: false
Boxcar width: 0
XAxis mode: Wavelengths
Number of Pixels in Spectrum: 3648
>>>>>Begin Spectral Data<<<<<
178.204	-44.54
178.424	-44.54
178.644	-44.54
178.864	-81.41
179.084	-15.87
179.304	-9.73
179.524	-11.78
179.744	37.38
179.964	61.95
180.184	-93.69
180.404	25.09
180.624	-9.73
180.844	-7.68
181.064	12.8
181.283	8.7
181.503	-9.73
181.723	-3.58
181.943	23.04
182.163	35.33
182.383	-17.92
182.602	37.38
182.822	29.18
183.042	18.94
183.262	35.33
183.482	-60.93
183.701	37.38
183.921	6.66
184.141	6.66
184.361	45.57
184.58	20.99
184.8	-3.58
185.02	-9.73
185.239	78.33
185.459	45.57
185.679	10.75
185.898	-15.87
186.118	16.9
186.338	61.95
186.557	45.57
186.777	29.18
186.997	25.09
187.216	14.85
187.436	37.38
187.655	16.9
187.875	18.94
188.095	-5.63
188.314	16.9
188.534	-1.54
188.753	-13.82
188.973	-9.73
189.192	98.81
189.412	10.75
189.631	-19.97
189.851	4.61
190.07	45.57
190.29	20.99
190.509	-73.21
190.729	74.24
190.948	14.85
191.168	94.72
191.387	72.19
191.607	-15.87
191.826	111.1
192.045	-19.97
192.265	4.61
192.484	-42.5
192.704	59.9
192.923	27.14
193.142	6.66
193.362	12.8
193.581	25.09
193.8	6.66
194.02	59.9
194.239	23.04
194.458	51.71
194.678	0.51
194.897	2.56
195.116	27.14
195.335	4.61
195.555	-15.87
195.774	-9.73
195.993	10.75
196.212	27.14
196.432	2.56
196.651	-44.54
196.87	41.47
197.089	117.25
197.308	-54.78
197.528	117.25
197.747	8.7
197.966	4.61
198.185	49.66
198.404	66.05
198.623	37.38
198.842	6.66
199.062	29.18
199.281	78.33
199.5	-40.45
199.719	33.28
199.938	-5.63
200.157	68.09
200.376	-9.73
200.595	12.8
200.814	-24.06
201.033	-7.68
201.252	84.48
201.471	-22.02
201.69	10.75
201.909	-56.83
202.128	25.09
202.347	-5.63
202.566	59.9
202.785	-5.63
203.004	57.86
203.223	53.76
203.442	57.86
203.661	41.47
203.879	2.56
204.098	16.9
204.317	98.81
204.536	59.9
204.755	-17.92
204.974	-36.35
205.193	59.9
205.411	4.61
205.63	78.33
205.849	27.14
206.068	12.8
206.287	-5.63
206.505	10.75
206.724	-15.87
206.943	-13.82
207.162	14.85
207.381	6.66
207.599	-36.35
207.818	-19.97
208.037	-11.78
208.255	98.81
208.474	-26.11
208.693	53.76
208.911	-22.02
209.13	66.05
209.349	104.96
209.567	-3.58
209.786	76.29
210.005	31.23
210.223	6.66
210.442	23.04
210.661	0.51
210.879	43.52
211.098	111.1
211.316	-11.78
211.535	37.38
211.753	37.38
211.972	25.09
212.191	49.66
212.409	14.85
212.628	29.18
212.846	61.95
213.065	49.66
213.283	45.57
213.502	18.94
213.72	57.86
213.938	-54.78
214.157	31.23
214.375	-13.82
214.594	-11.78
214.812	102.91
215.031	-13.82
215.249	25.09
215.467	64
215.686	4.61
215.904	66.05
216.122	-7.68
216.341	20.99
216.559	-30.21
216.778	-17.92
216.996	39.42
217.214	-5.63
217.432	57.86
217.651	43.52
217.869	8.7
218.087	-3.58
218.306	-24.06
218.524	47.62
218.742	37.38
218.96	80.38
219.179	64
219.397	-1.54
219.615	-46.59
219.833	84.48
220.051	-7.68
220.27	55.81
220.488	33.28
220.706	2.56
220.924	-13.82
221.142	-1.54
221.36	20.99
221.578	100.86
221.796	41.47
222.015	68.09
222.233	4.61
222.451	12.8
222.669	-9.73
222.887	-3.58
223.105	20.99
223.323	-24.06
223.541	51.71
223.759	35.33
223.977	27.14
224.195	6.66
224.413	59.9
224.631	16.9
224.849	16.9
225.067	-22.02
225.285	74.24
225.503	12.8
225.721	14.85
225.939	12.8
226.157	-40.45
226.375	90.62
226.592	-24.06
226.81	35.33
227.028	59.9
227.246	-15.87
227.464	-58.88
227.682	0.51
227.9	6.66
228.117	35.33
228.335	-5.63
228.553	-40.45
228.771	82.43
228.989	18.94
229.206	-22.02
229.424	10.75
229.642	59.9
229.86	45.57
230.077	-34.3
230.295	31.23
230.513	53.76
230.731	37.38
230.948	55.81
231.166	35.33
231.384	33.28
231.601	68.09
231.819	25.09
232.037	14.85
232.254	33.28
232.472	4.61
232.689	39.42
232.907	90.62
233.125	-36.35
233.342	-58.88
233.56	4.61
233.777	37.38
233.995	-11.78
234.213	70.14
234.43	-48.64
234.648	45.57
234.865	18.94
235.083	90.62
235.3	-9.73
235.518	45.57
235.735	-5.63
235.953	129.53
236.17	-48.64
236.388	14.85
236.605	33.28
236.822	8.7
237.04	31.23
237.257	27.14
237.475	-1.54
237.692	-11.78
237.909	53.76
238.127	84.48
238.344	76.29
238.562	20.99
238.779	117.25
238.996	20.99
239.214	37.38
239.431	23.04
239.648	49.66
239.865	0.51
240.083	-3.58
240.3	-1.54
240.517	16.9
240.735	51.71
240.952	43.52
241.169	12.8
241.386	16.9
241.603	47.62
241.821	-13.82
242.038	2.56
242.255	51.71
242.472	57.86
242.689	90.62
242.907	49.66
243.124	2.56
243.341	2.56
243.558	-17.92
243.775	20.99
243.992	59.9
244.209	23.04
244.426	18.94
244.643	45.57
244.86	39.42
245.078	27.14
245.295	4.61
245.512	-11.78
245.729	55.81
245.946	-15.87
246.163	143.87
246.38	72.19
246.597	25.09
246.814	27.14
247.031	0.51
247.248	80.38
247.464	45.57
247.681	37.38
247.898	-42.5
248.115	-15.87
248.332	-17.92
248.549	33.28
248.766	12.8
248.983	-7.68
249.2	66.05
249.417	18.94
249.633	31.23
249.85	-5.63
250.067	-34.3
250.284	-24.06
250.501	45.57
250.717	8.7
250.934	-42.5
251.151	66.05
251.368	-11.78
251.585	43.52
251.801	0.51
252.018	51.71
252.235	45.57
252.451	29.18
252.668	8.7
252.885	16.9
253.102	88.57
253.318	-5.63
253.535	-1.54
253.752	80.38
253.968	12.8
254.185	31.23
254.401	-36.35
254.618	27.14
254.835	41.47
255.051	10.75
255.268	8.7
255.484	23.04
255.701	37.38
255.917	33.28
256.134	-17.92
256.351	10.75
256.567	6.66
256.784	109.05
257	6.66
257.217	111.1
257.433	10.75
257.65	23.04
257.866	-13.82
258.082	127.49
258.299	8.7
258.515	39.42
258.732	41.47
258.948	66.05
259.165	29.18
259.381	0.51
259.597	8.7
259.814	90.62
260.03	39.42
260.246	43.52
260.463	-38.4
260.679	49.66
260.895	25.09
261.112	92.67
261.328	-5.63
261.544	-3.58
261.761	57.86
261.977	-1.54
262.193	-17.92
262.409	76.29
262.626	29.18
262.842	-15.87
263.058	-3.58
263.274	61.95
263.49	20.99
263.707	23.04
263.923	-32.26
264.139	-17.92
264.355	37.38
264.571	-28.16
264.787	25.09
265.004	33.28
265.22	-19.97
265.436	51.71
265.652	55.81
265.868	-26.11
266.084	31.23
266.3	33.28
266.516	33.28
266.732	55.81
266.948	-13.82
267.164	53.76
267.38	43.52
267.596	8.7
267.812	68.09
268.028	72.19
268.244	12.8
268.46	37.38
268.676	14.85
268.892	72.19
269.108	39.42
269.324	35.33
269.54	39.42
269.756	31.23
269.972	-24.06
270.188	12.8
270.403	25.09
270.619	16.9
270.835	55.81
271.051	74.24
271.267	10.75
271.483	27.14
271.698	-28.16
271.914	61.95
272.13	78.33
272.346	29.18
272.562	35.33
272.777	53.76
272.993	6.66
273.209	61.95
273.425	-11.78
273.64	45.57
273.856	10.75
274.072	-32.26
274.287	12.8
274.503	-1.54
274.719	82.43
274.934	-13.82
275.15	53.76
275.366	55.81
275.581	12.8
275.797	53.76
276.012	-1.54
276.228	39.42
276.444	33.28
276.659	96.77
276.875	39.42
277.09	14.85
277.306	33.28
277.521	0.51
277.737	-24.06
277.952	39.42
278.168	-67.07
278.383	31.23
278.599	88.57
278.814	-36.35
279.03	-7.68
279.245	6.66
279.461	90.62
279.676	45.57
279.892	-120.32
280.107	4.61
280.322	-1.54
280.538	55.81
280.753	-7.68
280.969	39.42
281.184	51.71
281.399	31.23
281.615	29.18
281.83	-11.78
282.045	59.9
282.26	-5.63
282.476	-1.54
282.691	55.81
282.906	10.75
283.122	-42.5
283.337	-5.63
283.552	4.61
283.767	-22.02
283.983	80.38
284.198	33.28
284.413	53.76
284.628	20.99
284.843	45.57
285.058	39.42
285.274	51.71
285.489	76.29
285.704	23.04
285.919	49.66
286.134	82.43
286.349	47.62
286.564	-19.97
286.779	57.86
286.995	59.9
287.21	-24.06
287.425	96.77
287.64	10.75
287.855	45.57
288.07	25.09
288.285	23.04
288.5	55.81
288.715	14.85
288.93	-5.63
289.145	-9.73
289.36	14.85
289.575	37.38
289.79	88.57
290.004	70.14
290.219	102.91
290.434	20.99
290.649	-89.6
290.864	14.85
291.079	49.66
291.294	41.47
291.509	10.75
291.724	16.9
291.938	-32.26
292.153	43.52
292.368	37.38
292.583	49.66
292.798	88.57
293.012	4.61
293.227	27.14
293.442	12.8
293.657	53.76
293.871	-50.69
294.086	39.42
294.301	37.38
294.516	41.47
294.73	14.85
294.945	-24.06
295.16	53.76
295.374	16.9
295.589	33.28
295.804	-11.78
296.018	23.04
296.233	33.28
296.447	6.66
296.662	18.94
296.877	-3.58
297.091	35.33
297.306	27.14
297.52	6.66
297.735	53.76
297.949	90.62
298.164	31.23
298.378	25.09
298.593	37.38
298.807	31.23
299.022	-9.73
299.236	-1.54
299.451	12.8
299.665	25.09
299.88	80.38
300.094	27.14
300.309	-26.11
300.523	64
300.737	12.8
300.952	16.9
301.166	-40.45
301.381	-5.63
301.595	96.77
301.809	-24.06
302.024	2.56
302.238	12.8
302.452	139.77
302.667	16.9
302.881	23.04
303.095	-7.68
303.309	53.76
303.524	-11.78
303.738	4.61
303.952	86.53
304.166	66.05
304.381	-24.06
304.595	80.38
304.809	47.62
305.023	66.05
305.237	0.51
305.452	-15.87
305.666	29.18
305.88	102.91
306.094	72.19
306.308	37.38
306.522	72.19
306.736	72.19
306.95	29.18
307.164	12.8
307.379	33.28
307.593	102.91
307.807	33.28
308.021	61.95
308.235	49.66
308.449	33.28
308.663	-5.63
308.877	29.18
309.091	14.85
309.305	6.66
309.519	-56.83
309.733	74.24
309.947	47.62
310.161	72.19
310.374	41.47
310.588	16.9
310.802	59.9
311.016	27.14
311.23	37.38
311.444	23.04
311.658	66.05
311.872	53.76
312.085	61.95
312.299	82.43
312.513	57.86
312.727	12.8
312.941	31.23
313.154	74.24
313.368	0.51
313.582	18.94
313.796	29.18
314.009	16.9
314.223	-3.58
314.437	64
314.651	29.18
314.864	31.23
315.078	25.09
315.292	45.57
315.505	37.38
315.719	119.29
315.933	-30.21
316.146	33.28
316.36	-46.59
316.573	-3.58
316.787	61.95
317.001	-17.92
317.214	6.66
317.428	33.28
317.641	12.8
317.855	51.71
318.068	20.99
318.282	45.57
318.495	55.81
318.709	16.9
318.922	78.33
319.136	49.66
319.349	66.05
319.563	45.57
319.776	-3.58
319.99	94.72
320.203	-11.78
320.417	68.09
320.63	70.14
320.843	74.24
321.057	45.57
321.27	55.81
321.483	43.52
321.697	72.19
321.91	4.61
322.124	47.62
322.337	31.23
322.55	39.42
322.763	53.76
322.977	12.8
323.19	10.75
323.403	23.04
323.617	8.7
323.83	51.71
324.043	-28.16
324.256	39.42
324.469	12.8
324.683	102.91
324.896	70.14
325.109	31.23
325.322	29.18
325.535	-13.82
325.748	57.86
325.962	31.23
326.175	-7.68
326.388	51.71
326.601	0.51
326.814	-32.26
327.027	49.66
327.24	10.75
327.453	-19.97
327.666	80.38
327.879	66.05
328.092	82.43
328.305	-11.78
328.518	37.38
328.731	-1.54
328.944	43.52
329.157	55.81
329.37	109.05
329.583	20.99
329.796	18.94
330.009	-1.54
330.222	119.29
330.435	20.99
330.648	61.95
330.861	-28.16
331.073	-87.55
331.286	35.33
331.499	-3.58
331.712	20.99
331.925	12.8
332.138	86.53
332.35	70.14
332.563	90.62
332.776	57.86
332.989	55.81
333.202	-1.54
333.414	0.51
333.627	27.14
333.84	-30.21
334.053	23.04
334.265	-7.68
334.478	53.76
334.691	-17.92
334.903	45.57
335.116	41.47
335.329	-15.87
335.541	72.19
335.754	45.57
335.966	-50.69
336.179	20.99
336.392	-5.63
336.604	16.9
336.817	14.85
337.029	29.18
337.242	23.04
337.454	74.24
337.667	6.66
337.88	16.9
338.092	4.61
338.305	41.47
338.517	-19.97
338.729	53.76
338.942	14.85
339.154	37.38
339.367	-28.16
339.579	12.8
339.792	92.67
340.004	86.53
340.217	-5.63
340.429	41.47
340.641	12.8
340.854	104.96
341.066	-9.73
341.278	70.14
341.491	-11.78
341.703	51.71
341.915	29.18
342.128	23.04
342.34	35.33
342.552	66.05
342.764	59.9
342.977	47.62
343.189	39.42
343.401	18.94
343.613	-105.98
343.826	80.38
344.038	31.23
344.25	-9.73
344.462	-7.68
344.674	8.7
344.886	20.99
345.099	49.66
345.311	35.33
345.523	29.18
345.735	0.51
345.947	70.14
346.159	-1.54
346.371	8.7
346.583	94.72
346.795	70.14
347.007	16.9
347.219	41.47
347.431	18.94
347.643	43.52
347.855	72.19
348.067	12.8
348.279	14.85
348.491	51.71
348.703	18.94
348.915	23.04
349.127	29.18
349.339	53.76
349.551	-19.97
349.763	33.28
349.975	-7.68
350.187	61.95
350.399	2.56
350.61	33.28
350.822	-11.78
351.034	14.85
351.246	64
351.458	-36.35
351.669	14.85
351.881	-3.58
352.093	90.62
352.305	25.09
352.517	37.38
352.728	88.57
352.94	96.77
353.152	6.66
353.363	64
353.575	33.28
353.787	57.86
353.999	37.38
354.21	59.9
354.422	35.33
354.633	-56.83
354.845	37.38
355.057	86.53
355.268	-7.68
355.48	41.47
355.692	-17.92
355.903	51.71
356.115	-3.58
356.326	35.33
356.538	72.19
356.749	0.51
356.961	72.19
357.172	70.14
357.384	-11.78
357.595	72.19
357.807	4.61
358.018	80.38
358.23	25.09
358.441	70.14
358.653	74.24
358.864	41.47
359.075	-32.26
359.287	94.72
359.498	29.18
359.709	55.81
359.921	29.18
360.132	2.56
360.344	84.48
360.555	18.94
360.766	-32.26
360.977	33.28
361.189	43.52
361.4	37.38
361.611	-15.87
361.823	-3.58
362.034	43.52
362.245	29.18
362.456	29.18
362.667	107.01
362.879	29.18
363.09	51.71
363.301	41.47
363.512	31.23
363.723	-17.92
363.935	-3.58
364.146	66.05
364.357	-32.26
364.568	20.99
364.779	18.94
364.99	55.81
365.201	39.42
365.412	39.42
365.623	35.33
365.834	29.18
366.045	10.75
366.256	2.56
366.467	8.7
366.678	37.38
366.889	78.33
367.1	92.67
367.311	35.33
367.522	80.38
367.733	12.8
367.944	25.09
368.155	66.05
368.366	27.14
368.577	-22.02
368.788	72.19
368.999	20.99
369.209	53.76
369.42	82.43
369.631	72.19
369.842	96.77
370.053	33.28
370.264	-26.11
370.474	27.14
370.685	90.62
370.896	84.48
371.107	47.62
371.317	16.9
371.528	-22.02
371.739	10.75
371.95	51.71
372.16	18.94
372.371	55.81
372.582	66.05
372.792	45.57
373.003	37.38
373.214	68.09
373.424	29.18
373.635	6.66
373.846	64
374.056	43.52
374.267	-9.73
374.477	-15.87
374.688	-15.87
374.898	53.76
375.109	55.81
375.319	45.57
375.53	4.61
375.74	74.24
375.951	16.9
376.161	68.09
376.372	37.38
376.582	-1.54
376.793	2.56
377.003	45.57
377.214	94.72
377.424	59.9
377.635	18.94
377.845	25.09
378.055	57.86
378.266	6.66
378.476	66.05
378.686	-5.63
378.897	33.28
379.107	53.76
379.317	37.38
379.528	35.33
379.738	66.05
379.948	29.18
380.158	33.28
380.369	68.09
380.579	25.09
380.789	37.38
380.999	-7.68
381.21	84.48
381.42	47.62
381.63	51.71
381.84	18.94
382.05	25.09
382.261	-36.35
382.471	8.7
382.681	84.48
382.891	55.81
383.101	49.66
383.311	53.76
383.521	82.43
383.731	55.81
383.941	-19.97
384.151	18.94
384.361	12.8
384.571	64
384.781	66.05
384.991	31.23
385.201	-9.73
385.411	59.9
385.621	-19.97
385.831	51.71
386.041	74.24
386.251	115.2
386.461	92.67
386.671	61.95
386.881	143.87
387.091	59.9
387.301	70.14
387.511	18.94
387.72	84.48
387.93	47.62
388.14	25.09
388.35	90.62
388.56	53.76
388.769	49.66
388.979	92.67
389.189	6.66
389.399	33.28
389.609	0.51
389.818	31.23
390.028	29.18
390.238	55.81
390.447	53.76
390.657	107.01
390.867	61.95
391.076	121.34
391.286	80.38
391.496	-30.21
391.705	16.9
391.915	37.38
392.125	82.43
392.334	20.99
392.544	145.92
392.753	115.2
392.963	41.47
393.172	104.96
393.382	82.43
393.591	45.57
393.801	41.47
394.01	53.76
394.22	131.58
394.429	-3.58
394.639	131.58
394.848	-26.11
395.058	94.72
395.267	90.62
395.477	109.05
395.686	49.66
395.895	78.33
396.105	94.72
396.314	66.05
396.524	104.96
396.733	-7.68
396.942	86.53
397.152	29.18
397.361	127.49
397.57	55.81
397.78	96.77
397.989	70.14
398.198	119.29
398.407	39.42
398.617	55.81
398.826	78.33
399.035	90.62
399.244	92.67
399.453	98.81
399.663	96.77
399.872	129.53
400.081	100.86
400.29	145.92
400.499	119.29
400.708	66.05
400.917	55.81
401.127	41.47
401.336	86.53
401.545	117.25
401.754	111.1
401.963	137.73
402.172	74.24
402.381	76.29
402.59	150.01
402.799	41.47
403.008	66.05
403.217	39.42
403.426	98.81
403.635	20.99
403.844	70.14
404.053	98.81
404.262	49.66
404.471	70.14
404.68	107.01
404.888	102.91
405.097	76.29
405.306	129.53
405.515	168.45
405.724	82.43
405.933	111.1
406.142	127.49
406.35	152.06
406.559	147.97
406.768	162.3
406.977	135.68
407.185	102.91
407.394	104.96
407.603	178.69
407.812	133.63
408.02	137.73
408.229	174.59
408.438	127.49
408.646	125.44
408.855	168.45
409.064	131.58
409.272	188.93
409.481	252.41
409.69	172.54
409.898	186.88
410.107	193.02
410.315	256.51
410.524	168.45
410.733	184.83
410.941	213.5
411.15	225.79
411.358	336.38
411.567	236.03
411.775	295.42
411.984	260.6
412.192	233.98
412.401	383.48
412.609	315.9
412.818	295.42
413.026	334.33
413.234	367.1
413.443	326.14
413.651	307.71
413.86	393.72
414.068	410.11
414.276	369.15
414.485	522.74
414.693	438.78
414.901	416.25
415.11	365.05
415.318	397.82
415.526	412.15
415.734	524.79
415.943	485.88
416.151	537.08
416.359	575.99
416.567	619
416.776	567.8
416.984	596.47
417.192	707.06
417.4	649.72
417.608	569.85
417.817	659.96
418.025	702.97
418.233	760.31
418.441	725.49
418.649	829.94
418.857	874.99
419.065	860.66
419.273	842.23
419.481	856.56
419.689	985.58
419.897	1012.21
420.105	1014.26
420.313	983.54
420.521	1053.17
420.729	1102.32
420.937	1061.36
421.145	1010.16
421.353	1208.81
421.561	1208.81
421.769	1163.76
421.977	1317.36
422.185	1380.84
422.393	1376.75
422.601	1401.32
422.809	1425.9
423.017	1495.53
423.224	1511.91
423.432	1599.98
423.64	1702.37
423.848	1724.9
424.056	1712.61
424.263	1833.44
424.471	1753.57
424.679	1821.16
424.887	1890.79
425.094	1993.19
425.302	2077.15
425.51	2019.81
425.718	2150.88
425.925	2169.31
426.133	2333.15
426.341	2421.21
426.548	2529.75
426.756	2550.23
426.964	2550.23
427.171	2744.79
427.379	2750.93
427.586	2765.27
427.794	2752.98
428.001	3064.27
428.209	2992.59
428.417	2984.4
428.624	3199.44
428.832	3205.58
429.039	3250.64
429.247	3181.01
429.454	3676.62
429.662	3936.71
429.869	3674.57
430.076	3832.26
430.284	3609.03
430.491	3875.27
430.699	4090.31
430.906	3979.72
431.114	4088.26
431.321	4446.65
431.528	4465.08
431.736	4721.08
431.943	4903.35
432.15	4657.59
432.358	4766.14
432.565	5032.37
432.772	5134.77
432.979	5304.75
433.187	5376.43
433.394	5613.99
433.601	5792.17
433.808	5657
434.016	5702.06
434.223	5962.15
434.43	6482.33
434.637	6119.84
434.844	6517.15
435.052	6779.29
435.259	6726.04
435.466	6683.03
435.673	6789.53
435.88	7117.2
436.087	7541.13
436.294	7451.02
436.501	7551.37
436.708	7424.4
436.915	7735.69
437.122	8182.15
437.329	8006.02
437.537	8331.65
437.743	8614.27
437.95	8395.14
438.157	8853.88
438.364	9236.85
438.571	9259.38
438.778	9152.88
438.985	9933.16
439.192	9740.65
439.399	10064.23
439.606	9818.47
439.813	10164.58
440.02	10805.6
440.227	10760.54
440.433	10705.24
440.64	11024.73
440.847	10862.94
441.054	11125.08
441.261	11850.06
441.467	11796.81
441.674	12163.4
441.881	12517.7
442.088	12390.72
442.294	12300.61
442.501	12663.1
442.708	12896.57
442.914	13515.06
443.121	14098.73
443.328	13685.04
443.534	14510.37
443.741	14037.29
443.948	13947.18
444.154	14948.64
444.361	14721.31
444.568	15223.06
444.774	15069.47
444.981	15210.78
445.187	15859.98
445.394	16310.54
445.6	15952.14
445.807	17541.36
446.013	16947.45
446.22	17307.9
446.426	17780.98
446.633	18082.03
446.839	18813.15
447.046	17893.61
447.252	18948.32
447.459	19144.92
447.665	18958.56
447.871	19816.66
448.078	20945.09
448.284	19751.12
448.491	20107.47
448.697	21205.18
448.903	21297.34
449.11	21348.54
449.316	21450.94
449.522	21795
449.728	22378.67
449.935	22372.52
450.141	22423.72
450.347	22610.09
450.553	22018.22
450.76	22493.35
450.966	23455.9
451.172	22925.47
451.378	23298.2
451.584	23152.8
451.791	23435.42
451.997	23539.86
452.203	23937.17
452.409	24058
452.615	24068.24
452.821	23177.37
453.027	22726.82
453.233	23904.4
453.44	22843.56
453.646	23634.07
453.852	23519.39
454.058	23644.31
454.264	23048.35
454.47	23771.29
454.676	22685.86
454.882	23558.3
455.088	22044.85
455.294	22085.81
455.5	22419.63
455.705	22542.5
455.911	21616.82
456.117	21495.99
456.323	20766.92
456.529	20211.92
456.735	21033.15
456.941	20140.24
457.147	19751.12
457.352	19302.62
457.558	19075.29
457.764	19372.25
457.97	18680.03
458.176	18489.57
458.381	18616.55
458.587	17537.27
458.793	17545.46
458.999	16474.37
459.204	17858.8
459.41	17199.35
459.616	16175.37
459.821	16161.03
460.027	16120.07
460.233	15776.02
460.438	15057.18
460.644	15423.76
460.85	14489.89
461.055	14561.57
461.261	14358.82
461.466	13359.41
461.672	12611.9
461.878	13934.89
462.083	12671.29
462.289	12437.83
462.494	12429.63
462.7	11991.37
462.905	11460.95
463.111	11874.63
463.316	11917.64
463.522	11538.77
463.727	11635.02
463.932	11774.28
464.138	12038.47
464.343	11524.43
464.549	11178.33
464.754	11768.14
464.959	11678.03
465.165	11350.35
465.37	10975.58
465.575	10875.23
465.781	11139.41
465.986	11227.48
466.191	10813.79
466.397	10639.71
466.602	10033.51
466.807	10568.03
467.012	10594.65
467.218	10238.31
467.423	10469.73
467.628	10557.79
467.833	10594.65
468.038	10406.24
468.244	10228.07
468.449	10557.79
468.654	10197.35
468.859	9980.26
