Data from USB4F104151__29__12-58-46-427.txt Node

Date: Fri Mar 14 12:58:46 EDT 2025
User: louis
Spectrometer: USB4F10415
Trigger mode: 4
Integration Time (sec): 1.000000E-2
Scans to average: 1
Electric dark correction enabled: true
Nonlinearity correction enabled: false
Boxcar width: 0
XAxis mode: Wavelengths
Number of Pixels in Spectrum: 3648
>>>>>Begin Spectral Data<<<<<
178.204	-53.76
178.424	-53.76
178.644	-53.76
178.864	-72.19
179.084	-35.33
179.304	-78.33
179.524	-8.7
179.744	50.69
179.964	22.02
180.184	-12.8
180.404	7.68
180.624	1.54
180.844	28.16
181.064	-39.42
181.283	24.06
181.503	-16.9
181.723	22.02
181.943	15.87
182.163	13.82
182.383	-14.85
182.602	-51.71
182.822	-10.75
183.042	114.17
183.262	-18.94
183.482	-20.99
183.701	7.68
183.921	40.45
184.141	40.45
184.361	7.68
184.58	-61.95
184.8	-0.51
185.02	36.35
185.239	11.78
185.459	-49.66
185.679	60.93
185.898	-10.75
186.118	48.64
186.338	34.3
186.557	11.78
186.777	-55.81
186.997	11.78
187.216	-39.42
187.436	19.97
187.655	69.12
187.875	-16.9
188.095	13.82
188.314	17.92
188.534	-12.8
188.753	-80.38
188.973	13.82
189.192	40.45
189.412	48.64
189.631	-12.8
189.851	9.73
190.07	97.79
190.29	56.83
190.509	-49.66
190.729	13.82
190.948	36.35
191.168	7.68
191.387	83.45
191.607	30.21
191.826	73.21
192.045	-27.14
192.265	30.21
192.484	-8.7
192.704	-4.61
192.923	22.02
193.142	81.41
193.362	-4.61
193.581	44.54
193.8	15.87
194.02	30.21
194.239	15.87
194.458	-8.7
194.678	-43.52
194.897	71.17
195.116	-20.99
195.335	15.87
195.555	36.35
195.774	3.58
195.993	62.98
196.212	-41.47
196.432	7.68
196.651	-45.57
196.87	7.68
197.089	67.07
197.308	81.41
197.528	44.54
197.747	-4.61
197.966	26.11
198.185	13.82
198.404	-0.51
198.623	-43.52
198.842	60.93
199.062	22.02
199.281	28.16
199.5	36.35
199.719	-8.7
199.938	22.02
200.157	11.78
200.376	19.97
200.595	-4.61
200.814	-23.04
201.033	-16.9
201.252	40.45
201.471	5.63
201.69	5.63
201.909	83.45
202.128	11.78
202.347	85.5
202.566	52.74
202.785	19.97
203.004	-10.75
203.223	134.65
203.442	-0.51
203.661	-6.66
203.879	7.68
204.098	-8.7
204.317	36.35
204.536	-33.28
204.755	81.41
204.974	-10.75
205.193	-25.09
205.411	-20.99
205.63	-10.75
205.849	50.69
206.068	-2.56
206.287	26.11
206.505	-27.14
206.724	38.4
206.943	-27.14
207.162	89.6
207.381	93.69
207.599	17.92
207.818	128.51
208.037	103.93
208.255	-16.9
208.474	65.02
208.693	3.58
208.911	26.11
209.13	-23.04
209.349	9.73
209.567	11.78
209.786	48.64
210.005	50.69
210.223	-18.94
210.442	7.68
210.661	-20.99
210.879	-8.7
211.098	11.78
211.316	77.31
211.535	77.31
211.753	-45.57
211.972	13.82
212.191	-10.75
212.409	-23.04
212.628	40.45
212.846	93.69
213.065	69.12
213.283	-33.28
213.502	19.97
213.72	22.02
213.938	44.54
214.157	-27.14
214.375	-14.85
214.594	11.78
214.812	-8.7
215.031	58.88
215.249	-57.86
215.467	15.87
215.686	28.16
215.904	17.92
216.122	-35.33
216.341	7.68
216.559	22.02
216.778	24.06
216.996	44.54
217.214	52.74
217.432	-12.8
217.651	26.11
217.869	13.82
218.087	-10.75
218.306	-2.56
218.524	3.58
218.742	-4.61
218.96	54.78
219.179	54.78
219.397	65.02
219.615	69.12
219.833	1.54
220.051	9.73
220.27	40.45
220.488	17.92
220.706	9.73
220.924	3.58
221.142	-2.56
221.36	54.78
221.578	-2.56
221.796	65.02
222.015	91.65
222.233	38.4
222.451	32.26
222.669	46.59
222.887	-4.61
223.105	9.73
223.323	34.3
223.541	28.16
223.759	77.31
223.977	13.82
224.195	48.64
224.413	-0.51
224.631	-23.04
224.849	-14.85
225.067	65.02
225.285	19.97
225.503	-6.66
225.721	7.68
225.939	5.63
226.157	-18.94
226.375	77.31
226.592	36.35
226.81	15.87
227.028	19.97
227.246	62.98
227.464	-8.7
227.682	11.78
227.9	17.92
228.117	44.54
228.335	-6.66
228.553	19.97
228.771	75.26
228.989	52.74
229.206	-29.18
229.424	52.74
229.642	-2.56
229.86	15.87
230.077	32.26
230.295	36.35
230.513	42.5
230.731	65.02
230.948	13.82
231.166	65.02
231.384	38.4
231.601	67.07
231.819	48.64
232.037	30.21
232.254	-51.71
232.472	52.74
232.689	52.74
232.907	-49.66
233.125	93.69
233.342	46.59
233.56	40.45
233.777	9.73
233.995	3.58
234.213	3.58
234.43	15.87
234.648	40.45
234.865	-33.28
235.083	3.58
235.3	-25.09
235.518	15.87
235.735	28.16
235.953	56.83
236.17	97.79
236.388	5.63
236.605	19.97
236.822	50.69
237.04	15.87
237.257	1.54
237.475	-33.28
237.692	26.11
237.909	95.74
238.127	3.58
238.344	44.54
238.562	-14.85
238.779	-33.28
238.996	-18.94
239.214	13.82
239.431	-64
239.648	32.26
239.865	-39.42
240.083	67.07
240.3	54.78
240.517	48.64
240.735	58.88
240.952	17.92
241.169	77.31
241.386	48.64
241.603	19.97
241.821	28.16
242.038	-18.94
242.255	3.58
242.472	-10.75
242.689	1.54
242.907	15.87
243.124	48.64
243.341	9.73
243.558	-4.61
243.775	36.35
243.992	22.02
244.209	15.87
244.426	30.21
244.643	-2.56
244.86	-8.7
245.078	32.26
245.295	-55.81
245.512	-8.7
245.729	-18.94
245.946	65.02
246.163	34.3
246.38	71.17
246.597	46.59
246.814	40.45
247.031	50.69
247.248	11.78
247.464	-12.8
247.681	-10.75
247.898	-45.57
248.115	38.4
248.332	-43.52
248.549	-14.85
248.766	34.3
248.983	69.12
249.2	-37.38
249.417	24.06
249.633	-16.9
249.85	44.54
250.067	15.87
250.284	44.54
250.501	3.58
250.717	5.63
250.934	-8.7
251.151	38.4
251.368	-16.9
251.585	11.78
251.801	-37.38
252.018	-20.99
252.235	19.97
252.451	50.69
252.668	-0.51
252.885	60.93
253.102	-29.18
253.318	36.35
253.535	-37.38
253.752	-23.04
253.968	24.06
254.185	62.98
254.401	22.02
254.618	-18.94
254.835	26.11
255.051	13.82
255.268	48.64
255.484	56.83
255.701	13.82
255.917	52.74
256.134	-0.51
256.351	-27.14
256.567	-72.19
256.784	1.54
257	56.83
257.217	-8.7
257.433	93.69
257.65	24.06
257.866	32.26
258.082	-20.99
258.299	-53.76
258.515	-8.7
258.732	15.87
258.948	32.26
259.165	-35.33
259.381	26.11
259.597	-2.56
259.814	3.58
260.03	46.59
260.246	36.35
260.463	26.11
260.679	-41.47
260.895	1.54
261.112	-12.8
261.328	65.02
261.544	46.59
261.761	28.16
261.977	91.65
262.193	77.31
262.409	15.87
262.626	15.87
262.842	30.21
263.058	5.63
263.274	32.26
263.49	-33.28
263.707	99.84
263.923	-4.61
264.139	60.93
264.355	97.79
264.571	22.02
264.787	73.21
265.004	60.93
265.22	32.26
265.436	60.93
265.652	69.12
265.868	-2.56
266.084	-61.95
266.3	103.93
266.516	5.63
266.732	3.58
266.948	36.35
267.164	105.98
267.38	36.35
267.596	34.3
267.812	38.4
268.028	15.87
268.244	-45.57
268.46	77.31
268.676	24.06
268.892	7.68
269.108	-18.94
269.324	-10.75
269.54	7.68
269.756	52.74
269.972	54.78
270.188	79.36
270.403	-68.09
270.619	28.16
270.835	44.54
271.051	52.74
271.267	40.45
271.483	13.82
271.698	-12.8
271.914	-23.04
272.13	48.64
272.346	5.63
272.562	-0.51
272.777	52.74
272.993	-43.52
273.209	11.78
273.425	-45.57
273.64	40.45
273.856	11.78
274.072	28.16
274.287	7.68
274.503	91.65
274.719	30.21
274.934	-12.8
275.15	-53.76
275.366	22.02
275.581	7.68
275.797	108.03
276.012	-10.75
276.228	32.26
276.444	62.98
276.659	87.55
276.875	7.68
277.09	-37.38
277.306	3.58
277.521	81.41
277.737	1.54
277.952	24.06
278.168	112.13
278.383	26.11
278.599	-18.94
278.814	22.02
279.03	26.11
279.245	40.45
279.461	-37.38
279.676	38.4
279.892	-31.23
280.107	56.83
280.322	-12.8
280.538	13.82
280.753	56.83
280.969	46.59
281.184	3.58
281.399	46.59
281.615	-0.51
281.83	60.93
282.045	42.5
282.26	36.35
282.476	40.45
282.691	-29.18
282.906	56.83
283.122	-27.14
283.337	69.12
283.552	17.92
283.767	26.11
283.983	85.5
284.198	-25.09
284.413	3.58
284.628	-12.8
284.843	26.11
285.058	105.98
285.274	11.78
285.489	3.58
285.704	38.4
285.919	-2.56
286.134	48.64
286.349	36.35
286.564	62.98
286.779	-0.51
286.995	73.21
287.21	-4.61
287.425	22.02
287.64	-41.47
287.855	-4.61
288.07	-25.09
288.285	60.93
288.5	32.26
288.715	26.11
288.93	-12.8
289.145	-0.51
289.36	-8.7
289.575	7.68
289.79	-0.51
290.004	44.54
290.219	30.21
290.434	-37.38
290.649	30.21
290.864	28.16
291.079	42.5
291.294	62.98
291.509	60.93
291.724	-16.9
291.938	26.11
292.153	15.87
292.368	36.35
292.583	62.98
292.798	40.45
293.012	24.06
293.227	67.07
293.442	1.54
293.657	15.87
293.871	44.54
294.086	-20.99
294.301	79.36
294.516	22.02
294.73	54.78
294.945	-0.51
295.16	38.4
295.374	52.74
295.589	91.65
295.804	26.11
296.018	36.35
296.233	38.4
296.447	3.58
296.662	1.54
296.877	34.3
297.091	26.11
297.306	46.59
297.52	-12.8
297.735	7.68
297.949	28.16
298.164	11.78
298.378	11.78
298.593	5.63
298.807	32.26
299.022	60.93
299.236	42.5
299.451	32.26
299.665	81.41
299.88	-12.8
300.094	36.35
300.309	11.78
300.523	32.26
300.737	-25.09
300.952	9.73
301.166	144.89
301.381	93.69
301.595	24.06
301.809	-27.14
302.024	77.31
302.238	11.78
302.452	26.11
302.667	44.54
302.881	-0.51
303.095	-0.51
303.309	81.41
303.524	42.5
303.738	13.82
303.952	19.97
304.166	17.92
304.381	26.11
304.595	38.4
304.809	-31.23
305.023	77.31
305.237	22.02
305.452	13.82
305.666	44.54
305.88	40.45
306.094	-37.38
306.308	3.58
306.522	85.5
306.736	77.31
306.95	-64
307.164	7.68
307.379	38.4
307.593	56.83
307.807	58.88
308.021	-4.61
308.235	44.54
308.449	48.64
308.663	73.21
308.877	71.17
309.091	75.26
309.305	56.83
309.519	19.97
309.733	-4.61
309.947	-4.61
310.161	44.54
310.374	-27.14
310.588	62.98
310.802	-18.94
311.016	42.5
311.23	-27.14
311.444	-27.14
311.658	93.69
311.872	-8.7
312.085	24.06
312.299	-33.28
312.513	38.4
312.727	30.21
312.941	36.35
313.154	19.97
313.368	97.79
313.582	34.3
313.796	-12.8
314.009	38.4
314.223	9.73
314.437	112.13
314.651	-10.75
314.864	58.88
315.078	-16.9
315.292	7.68
315.505	67.07
315.719	69.12
315.933	60.93
316.146	24.06
316.36	69.12
316.573	54.78
316.787	11.78
317.001	97.79
317.214	-16.9
317.428	-43.52
317.641	-90.62
317.855	-37.38
318.068	19.97
318.282	15.87
318.495	44.54
318.709	30.21
318.922	17.92
319.136	-33.28
319.349	-27.14
319.563	40.45
319.776	-27.14
319.99	38.4
320.203	36.35
320.417	5.63
320.63	103.93
320.843	36.35
321.057	105.98
321.27	34.3
321.483	36.35
321.697	85.5
321.91	3.58
322.124	-49.66
322.337	69.12
322.55	13.82
322.763	44.54
322.977	-18.94
323.19	19.97
323.403	-41.47
323.617	38.4
323.83	17.92
324.043	77.31
324.256	-2.56
324.469	-6.66
324.683	91.65
324.896	-12.8
325.109	46.59
325.322	22.02
325.535	67.07
325.748	3.58
325.962	69.12
326.175	56.83
326.388	22.02
326.601	30.21
326.814	11.78
327.027	69.12
327.24	15.87
327.453	-14.85
327.666	42.5
327.879	93.69
328.092	65.02
328.305	38.4
328.518	-33.28
328.731	32.26
328.944	81.41
329.157	-37.38
329.37	52.74
329.583	11.78
329.796	75.26
330.009	36.35
330.222	-4.61
330.435	34.3
330.648	34.3
330.861	-20.99
331.073	24.06
331.286	34.3
331.499	-4.61
331.712	-31.23
331.925	69.12
332.138	-0.51
332.35	77.31
332.563	11.78
332.776	110.08
332.989	-41.47
333.202	5.63
333.414	7.68
333.627	-20.99
333.84	11.78
334.053	28.16
334.265	1.54
334.478	36.35
334.691	77.31
334.903	75.26
335.116	56.83
335.329	118.27
335.541	9.73
335.754	-6.66
335.966	15.87
336.179	65.02
336.392	17.92
336.604	93.69
336.817	62.98
337.029	3.58
337.242	36.35
337.454	77.31
337.667	-4.61
337.88	60.93
338.092	-2.56
338.305	114.17
338.517	32.26
338.729	-6.66
338.942	56.83
339.154	-35.33
339.367	24.06
339.579	91.65
339.792	-27.14
340.004	48.64
340.217	-6.66
340.429	-0.51
340.641	89.6
340.854	73.21
341.066	7.68
341.278	1.54
341.491	48.64
341.703	-14.85
341.915	28.16
342.128	83.45
342.34	48.64
342.552	79.36
342.764	28.16
342.977	-57.86
343.189	48.64
343.401	-4.61
343.613	-39.42
343.826	5.63
344.038	60.93
344.25	11.78
344.462	79.36
344.674	40.45
344.886	52.74
345.099	11.78
345.311	54.78
345.523	42.5
345.735	30.21
345.947	-12.8
346.159	-12.8
346.371	-70.14
346.583	79.36
346.795	42.5
347.007	-18.94
347.219	48.64
347.431	44.54
347.643	36.35
347.855	-14.85
348.067	83.45
348.279	-0.51
348.491	60.93
348.703	30.21
348.915	26.11
349.127	-23.04
349.339	-12.8
349.551	-4.61
349.763	28.16
349.975	-39.42
350.187	28.16
350.399	69.12
350.61	60.93
350.822	-18.94
351.034	42.5
351.246	28.16
351.458	60.93
351.669	58.88
351.881	-18.94
352.093	-14.85
352.305	36.35
352.517	46.59
352.728	-51.71
352.94	-8.7
353.152	34.3
353.363	54.78
353.575	22.02
353.787	65.02
353.999	22.02
354.21	-41.47
354.422	13.82
354.633	-12.8
354.845	-10.75
355.057	34.3
355.268	28.16
355.48	77.31
355.692	-16.9
355.903	-4.61
356.115	75.26
356.326	-2.56
356.538	24.06
356.749	85.5
356.961	44.54
357.172	58.88
357.384	46.59
357.595	67.07
357.807	15.87
358.018	17.92
358.23	3.58
358.441	11.78
358.653	46.59
358.864	-45.57
359.075	79.36
359.287	97.79
359.498	19.97
359.709	58.88
359.921	36.35
360.132	-37.38
360.344	22.02
360.555	32.26
360.766	17.92
360.977	69.12
361.189	62.98
361.4	38.4
361.611	13.82
361.823	-41.47
362.034	54.78
362.245	-16.9
362.456	22.02
362.667	5.63
362.879	13.82
363.09	54.78
363.301	15.87
363.512	36.35
363.723	-12.8
363.935	22.02
364.146	69.12
364.357	40.45
364.568	56.83
364.779	5.63
364.99	62.98
365.201	65.02
365.412	36.35
365.623	30.21
365.834	56.83
366.045	-14.85
366.256	40.45
366.467	48.64
366.678	7.68
366.889	5.63
367.1	9.73
367.311	-33.28
367.522	62.98
367.733	17.92
367.944	83.45
368.155	40.45
368.366	30.21
368.577	79.36
368.788	85.5
368.999	-47.62
369.209	32.26
369.42	-20.99
369.631	73.21
369.842	42.5
370.053	99.84
370.264	81.41
370.474	-37.38
370.685	-8.7
370.896	30.21
371.107	77.31
371.317	19.97
371.528	22.02
371.739	11.78
371.95	34.3
372.16	60.93
372.371	-31.23
372.582	71.17
372.792	65.02
373.003	-14.85
373.214	65.02
373.424	24.06
373.635	-59.9
373.846	-29.18
374.056	-20.99
374.267	54.78
374.477	9.73
374.688	26.11
374.898	17.92
375.109	-2.56
375.319	126.46
375.53	46.59
375.74	22.02
375.951	118.27
376.161	3.58
376.372	28.16
376.582	-37.38
376.793	60.93
377.003	1.54
377.214	48.64
377.424	48.64
377.635	50.69
377.845	73.21
378.055	91.65
378.266	-45.57
378.476	7.68
378.686	-25.09
378.897	17.92
379.107	75.26
379.317	60.93
379.528	-8.7
379.738	54.78
379.948	15.87
380.158	60.93
380.369	5.63
380.579	7.68
380.789	44.54
380.999	17.92
381.21	79.36
381.42	120.32
381.63	44.54
381.84	-2.56
382.05	73.21
382.261	30.21
382.471	58.88
382.681	56.83
382.891	-6.66
383.101	22.02
383.311	-33.28
383.521	9.73
383.731	81.41
383.941	77.31
384.151	46.59
384.361	3.58
384.571	48.64
384.781	46.59
384.991	-16.9
385.201	38.4
385.411	-2.56
385.621	-6.66
385.831	50.69
386.041	101.89
386.251	77.31
386.461	71.17
386.671	24.06
386.881	85.5
387.091	79.36
387.301	48.64
387.511	44.54
387.72	-14.85
387.93	36.35
388.14	24.06
388.35	-6.66
388.56	15.87
388.769	32.26
388.979	81.41
389.189	-12.8
389.399	52.74
389.609	-8.7
389.818	60.93
390.028	-18.94
390.238	38.4
390.447	5.63
390.657	-20.99
390.867	-55.81
391.076	11.78
391.286	52.74
391.496	75.26
391.705	73.21
391.915	50.69
392.125	122.37
392.334	155.13
392.544	3.58
392.753	3.58
392.963	22.02
393.172	52.74
393.382	28.16
393.591	60.93
393.801	54.78
394.01	83.45
394.22	28.16
394.429	17.92
394.639	62.98
394.848	15.87
395.058	19.97
395.267	81.41
395.477	22.02
395.686	65.02
395.895	36.35
396.105	95.74
396.314	-18.94
396.524	19.97
396.733	7.68
396.942	56.83
397.152	99.84
397.361	91.65
397.57	17.92
397.78	67.07
397.989	44.54
398.198	112.13
398.407	7.68
398.617	36.35
398.826	-16.9
399.035	26.11
399.244	69.12
399.453	60.93
399.663	44.54
399.872	89.6
400.081	54.78
400.29	81.41
400.499	75.26
400.708	79.36
400.917	11.78
401.127	62.98
401.336	101.89
401.545	97.79
401.754	34.3
401.963	134.65
402.172	19.97
402.381	65.02
402.59	48.64
402.799	13.82
403.008	122.37
403.217	38.4
403.426	120.32
403.635	101.89
403.844	36.35
404.053	46.59
404.262	81.41
404.471	60.93
404.68	54.78
404.888	112.13
405.097	132.61
405.306	105.98
405.515	103.93
405.724	81.41
405.933	108.03
406.142	44.54
406.35	108.03
406.559	114.17
406.768	65.02
406.977	128.51
407.185	224.76
407.394	99.84
407.603	95.74
407.812	120.32
408.02	110.08
408.229	153.09
408.438	99.84
408.646	91.65
408.855	124.41
409.064	126.46
409.272	95.74
409.481	208.38
409.69	95.74
409.898	112.13
410.107	146.94
410.315	159.23
410.524	136.7
410.733	167.42
410.941	71.17
411.15	165.37
411.358	216.57
411.567	159.23
411.775	93.69
411.984	157.18
412.192	235
412.401	122.37
412.609	232.96
412.818	292.35
413.026	189.95
413.234	275.96
413.443	151.04
413.651	177.66
413.86	292.35
414.068	300.54
414.276	300.54
414.485	300.54
414.693	286.2
414.901	292.35
415.11	282.11
415.318	278.01
415.526	361.98
415.734	398.84
415.943	343.55
416.151	407.03
416.359	411.13
416.567	435.71
416.776	374.27
416.984	511.48
417.192	550.39
417.4	517.62
417.608	435.71
417.817	402.94
418.025	460.28
418.233	513.53
418.441	536.06
418.649	521.72
418.857	564.73
419.065	564.73
419.273	536.06
419.481	667.13
419.689	609.78
419.897	658.93
420.105	689.65
420.313	757.24
420.521	742.9
420.729	775.67
420.937	736.76
421.145	697.85
421.353	884.21
421.561	873.97
421.769	884.21
421.977	1031.66
422.185	894.45
422.393	955.89
422.601	1017.33
422.809	1013.23
423.017	962.03
423.224	1146.35
423.432	1129.97
423.64	1226.22
423.848	1213.93
424.056	1248.75
424.263	1291.76
424.471	1275.37
424.679	1291.76
424.887	1345
425.094	1519.08
425.302	1465.83
425.51	1562.09
425.718	1506.79
425.925	1601
426.133	1553.9
426.341	1609.19
426.548	1785.32
426.756	1842.66
426.964	1793.51
427.171	1928.67
427.379	1967.59
427.586	1908.19
427.794	2037.22
428.001	2043.36
428.209	2276.83
428.417	2182.62
428.624	2395.61
428.832	2321.88
429.039	2461.15
429.247	2407.9
429.454	2530.78
429.662	2641.37
429.869	2528.73
430.076	2723.29
430.284	2596.31
430.491	2735.57
430.699	3018.19
430.906	2964.95
431.114	3050.96
431.321	3034.58
431.528	3075.54
431.736	3292.62
431.943	3452.36
432.15	3358.16
432.358	3456.46
432.565	3593.67
432.772	3646.92
432.979	3898.82
433.187	3829.19
433.394	3769.8
433.601	4111.81
433.808	4107.71
434.016	4122.05
434.223	4328.89
434.43	4543.93
434.637	4474.3
434.844	4881.85
435.052	4863.41
435.259	4849.08
435.466	4820.41
435.673	4935.09
435.88	5051.83
436.087	5340.59
436.294	5492.14
436.501	5365.17
436.708	5287.34
436.915	5576.11
437.122	5701.03
437.329	5737.9
437.537	5809.58
437.743	5860.77
437.95	6024.61
438.157	6419.87
438.364	6526.36
438.571	6534.56
438.778	6485.41
438.985	7308.69
439.192	6958.49
439.399	7194
439.606	7136.66
439.813	7329.17
440.02	7890.31
440.227	7542.16
440.433	7671.18
440.64	7777.67
440.847	7828.87
441.054	7943.56
441.261	8627.58
441.467	8435.07
441.674	8568.19
441.881	8930.68
442.088	8754.55
442.294	8902.01
442.501	9031.03
442.708	9254.26
442.914	9680.24
443.121	9977.19
443.328	9663.85
443.534	10478.94
443.741	10163.56
443.948	10087.78
444.154	10876.25
444.361	10669.41
444.568	10812.76
444.774	10882.39
444.981	10941.79
445.187	11138.39
445.394	11803.98
445.6	11502.93
445.807	12672.32
446.013	12315.97
446.22	12410.18
446.426	12875.07
446.633	12938.55
446.839	13567.28
447.046	12983.61
447.252	13741.36
447.459	13913.39
447.665	13702.45
447.871	14380.32
448.078	14855.45
448.284	14206.25
448.491	14939.42
448.697	15066.39
448.903	15572.24
449.11	15463.7
449.316	15226.14
449.522	15754.51
449.728	16221.45
449.935	16135.43
450.141	15883.53
450.347	16289.03
450.553	15813.9
450.76	16141.58
450.966	16672
451.172	16762.11
451.378	17059.07
451.584	16649.47
451.791	17065.21
451.997	17128.7
452.203	17534.2
452.409	17300.73
452.615	17265.91
452.821	16745.73
453.027	16389.38
453.233	17483
453.44	16719.1
453.646	17165.56
453.852	17075.45
454.058	17345.78
454.264	16856.32
454.47	17077.5
454.676	16723.2
454.882	17257.72
455.088	15813.9
455.294	15965.45
455.5	16311.56
455.705	16303.37
455.911	15826.19
456.117	15682.83
456.323	15394.07
456.529	14497.06
456.735	15056.15
456.941	14859.55
457.147	14560.55
457.352	14232.87
457.558	13765.93
457.764	13964.59
457.97	13704.49
458.176	13659.44
458.381	13602.1
458.587	12901.69
458.793	12866.88
458.999	12281.16
459.204	12993.85
459.41	12758.33
459.616	11871.56
459.821	11816.27
460.027	11779.4
460.233	11443.54
460.438	10947.93
460.644	11234.64
460.85	10667.36
461.055	10415.46
461.261	10556.77
461.466	9649.52
461.672	9497.97
461.878	9897.32
462.083	9289.07
462.289	9035.13
462.494	9096.57
462.7	8310.15
462.905	8371.58
463.111	8668.54
463.316	8646.01
463.522	8650.11
463.727	8584.57
463.932	8641.92
464.138	8541.57
464.343	8435.07
464.549	8338.82
464.754	8564.09
464.959	8449.41
465.165	8355.2
465.37	8101.25
465.575	7720.33
465.781	8097.16
465.986	8111.49
466.191	8054.15
466.397	7869.83
466.602	7439.76
466.807	7519.63
467.012	7572.88
467.218	7591.31
467.423	7593.36
467.628	7634.32
467.833	8007.05
468.038	7570.83
468.244	7417.23
468.449	7550.35
468.654	7507.34
468.859	7423.37
469.064	7386.51
469.269	7062.93
469.474	7220.63
