Data from USB4F104151__86__12-59-55-660.txt Node

Date: Fri Mar 14 12:59:55 EDT 2025
User: louis
Spectrometer: USB4F10415
Trigger mode: 4
Integration Time (sec): 1.000000E-2
Scans to average: 1
Electric dark correction enabled: true
Nonlinearity correction enabled: false
Boxcar width: 0
XAxis mode: Wavelengths
Number of Pixels in Spectrum: 3648
>>>>>Begin Spectral Data<<<<<
178.204	-92.67
178.424	-92.67
178.644	-92.67
178.864	-16.9
179.084	-8.7
179.304	-33.28
179.524	-27.14
179.744	-8.7
179.964	46.59
180.184	32.26
180.404	-31.23
180.624	67.07
180.844	1.54
181.064	-74.24
181.283	44.54
181.503	-33.28
181.723	15.87
181.943	-8.7
182.163	19.97
182.383	24.06
182.602	-43.52
182.822	54.78
183.042	-4.61
183.262	48.64
183.482	32.26
183.701	15.87
183.921	36.35
184.141	-76.29
184.361	52.74
184.58	15.87
184.8	-23.04
185.02	11.78
185.239	13.82
185.459	24.06
185.679	-16.9
185.898	-35.33
186.118	-109.05
186.338	-37.38
186.557	85.5
186.777	-39.42
186.997	-68.09
187.216	-4.61
187.436	28.16
187.655	11.78
187.875	-53.76
188.095	-41.47
188.314	-49.66
188.534	-27.14
188.753	-27.14
188.973	-8.7
189.192	-18.94
189.412	-8.7
189.631	24.06
189.851	13.82
190.07	1.54
190.29	-53.76
190.509	15.87
190.729	3.58
190.948	-8.7
191.168	-6.66
191.387	26.11
191.607	5.63
191.826	-4.61
192.045	54.78
192.265	19.97
192.484	7.68
192.704	-43.52
192.923	-10.75
193.142	-2.56
193.362	-12.8
193.581	1.54
193.8	19.97
194.02	-29.18
194.239	-84.48
194.458	11.78
194.678	-57.86
194.897	17.92
195.116	22.02
195.335	5.63
195.555	-18.94
195.774	-16.9
195.993	-0.51
196.212	26.11
196.432	-0.51
196.651	-20.99
196.87	38.4
197.089	-6.66
197.308	-12.8
197.528	75.26
197.747	11.78
197.966	-8.7
198.185	13.82
198.404	-4.61
198.623	-29.18
198.842	-23.04
199.062	-8.7
199.281	19.97
199.5	-10.75
199.719	19.97
199.938	-14.85
200.157	11.78
200.376	34.3
200.595	-49.66
200.814	40.45
201.033	-2.56
201.252	-8.7
201.471	3.58
201.69	13.82
201.909	-0.51
202.128	-57.86
202.347	32.26
202.566	-0.51
202.785	-104.96
203.004	-39.42
203.223	-20.99
203.442	67.07
203.661	-16.9
203.879	71.17
204.098	15.87
204.317	30.21
204.536	3.58
204.755	103.93
204.974	-8.7
205.193	-8.7
205.411	17.92
205.63	-31.23
205.849	5.63
206.068	5.63
206.287	32.26
206.505	69.12
206.724	26.11
206.943	-20.99
207.162	32.26
207.381	-12.8
207.599	-18.94
207.818	30.21
208.037	7.68
208.255	-29.18
208.474	-6.66
208.693	38.4
208.911	28.16
209.13	-37.38
209.349	-14.85
209.567	11.78
209.786	7.68
210.005	-14.85
210.223	-51.71
210.442	-64
210.661	30.21
210.879	-53.76
211.098	19.97
211.316	46.59
211.535	-2.56
211.753	44.54
211.972	-2.56
212.191	-35.33
212.409	93.69
212.628	97.79
212.846	3.58
213.065	-51.71
213.283	13.82
213.502	-55.81
213.72	95.74
213.938	81.41
214.157	-20.99
214.375	9.73
214.594	77.31
214.812	9.73
215.031	-43.52
215.249	-35.33
215.467	44.54
215.686	17.92
215.904	15.87
216.122	15.87
216.341	36.35
216.559	13.82
216.778	50.69
216.996	-2.56
217.214	17.92
217.432	-33.28
217.651	22.02
217.869	19.97
218.087	-0.51
218.306	-0.51
218.524	22.02
218.742	-80.38
218.96	-37.38
219.179	-23.04
219.397	32.26
219.615	5.63
219.833	60.93
220.051	7.68
220.27	11.78
220.488	-41.47
220.706	-4.61
220.924	9.73
221.142	-27.14
221.36	26.11
221.578	9.73
221.796	-55.81
222.015	-10.75
222.233	-12.8
222.451	40.45
222.669	-14.85
222.887	24.06
223.105	24.06
223.323	11.78
223.541	13.82
223.759	-8.7
223.977	-16.9
224.195	17.92
224.413	-45.57
224.631	30.21
224.849	-10.75
225.067	5.63
225.285	65.02
225.503	22.02
225.721	-74.24
225.939	-23.04
226.157	-10.75
226.375	71.17
226.592	-25.09
226.81	5.63
227.028	-20.99
227.246	58.88
227.464	-43.52
227.682	17.92
227.9	-33.28
228.117	3.58
228.335	-27.14
228.553	79.36
228.771	60.93
228.989	1.54
229.206	42.5
229.424	1.54
229.642	-23.04
229.86	-20.99
230.077	9.73
230.295	65.02
230.513	28.16
230.731	38.4
230.948	22.02
231.166	-43.52
231.384	44.54
231.601	-45.57
231.819	28.16
232.037	-25.09
232.254	54.78
232.472	93.69
232.689	-6.66
232.907	67.07
233.125	-12.8
233.342	-64
233.56	-66.05
233.777	-27.14
233.995	-18.94
234.213	24.06
234.43	-43.52
234.648	-45.57
234.865	-18.94
235.083	-6.66
235.3	-53.76
235.518	52.74
235.735	44.54
235.953	-6.66
236.17	7.68
236.388	19.97
236.605	44.54
236.822	28.16
237.04	56.83
237.257	-20.99
237.475	-51.71
237.692	46.59
237.909	11.78
238.127	-29.18
238.344	48.64
238.562	24.06
238.779	-18.94
238.996	1.54
239.214	62.98
239.431	34.3
239.648	44.54
239.865	-16.9
240.083	46.59
240.3	3.58
240.517	19.97
240.735	13.82
240.952	-35.33
241.169	-53.76
241.386	15.87
241.603	42.5
241.821	52.74
242.038	101.89
242.255	60.93
242.472	19.97
242.689	-20.99
242.907	69.12
243.124	-10.75
243.341	60.93
243.558	-4.61
243.775	5.63
243.992	-12.8
244.209	28.16
244.426	-45.57
244.643	19.97
244.86	-31.23
245.078	-82.43
245.295	24.06
245.512	-25.09
245.729	-16.9
245.946	32.26
246.163	-57.86
246.38	81.41
246.597	-18.94
246.814	-29.18
247.031	52.74
247.248	-57.86
247.464	24.06
247.681	-20.99
247.898	-8.7
248.115	36.35
248.332	-18.94
248.549	3.58
248.766	-49.66
248.983	-10.75
249.2	26.11
249.417	30.21
249.633	-20.99
249.85	-76.29
250.067	1.54
250.284	5.63
250.501	-29.18
250.717	52.74
250.934	-2.56
251.151	56.83
251.368	-86.53
251.585	15.87
251.801	-4.61
252.018	-6.66
252.235	36.35
252.451	-18.94
252.668	19.97
252.885	24.06
253.102	-20.99
253.318	9.73
253.535	15.87
253.752	5.63
253.968	-2.56
254.185	28.16
254.401	-10.75
254.618	46.59
254.835	32.26
255.051	46.59
255.268	15.87
255.484	81.41
255.701	-18.94
255.917	44.54
256.134	46.59
256.351	17.92
256.567	42.5
256.784	24.06
257	56.83
257.217	34.3
257.433	-2.56
257.65	5.63
257.866	32.26
258.082	19.97
258.299	44.54
258.515	48.64
258.732	-29.18
258.948	-2.56
259.165	26.11
259.381	34.3
259.597	17.92
259.814	-47.62
260.03	13.82
260.246	44.54
260.463	-18.94
260.679	58.88
260.895	-12.8
261.112	77.31
261.328	32.26
261.544	-53.76
261.761	-0.51
261.977	22.02
262.193	-27.14
262.409	38.4
262.626	-25.09
262.842	-12.8
263.058	13.82
263.274	11.78
263.49	9.73
263.707	22.02
263.923	24.06
264.139	-23.04
264.355	34.3
264.571	-35.33
264.787	44.54
265.004	46.59
265.22	-18.94
265.436	50.69
265.652	-12.8
265.868	32.26
266.084	36.35
266.3	5.63
266.516	-29.18
266.732	40.45
266.948	22.02
267.164	3.58
267.38	-12.8
267.596	11.78
267.812	67.07
268.028	-2.56
268.244	-23.04
268.46	60.93
268.676	58.88
268.892	60.93
269.108	28.16
269.324	-4.61
269.54	26.11
269.756	11.78
269.972	19.97
270.188	-51.71
270.403	3.58
270.619	60.93
270.835	-20.99
271.051	15.87
271.267	28.16
271.483	28.16
271.698	-6.66
271.914	42.5
272.13	15.87
272.346	15.87
272.562	7.68
272.777	50.69
272.993	-37.38
273.209	-37.38
273.425	3.58
273.64	-45.57
273.856	-39.42
274.072	65.02
274.287	-25.09
274.503	22.02
274.719	62.98
274.934	40.45
275.15	13.82
275.366	24.06
275.581	19.97
275.797	34.3
276.012	22.02
276.228	-16.9
276.444	-29.18
276.659	-4.61
276.875	42.5
277.09	-2.56
277.306	-6.66
277.521	-12.8
277.737	9.73
277.952	24.06
278.168	3.58
278.383	-6.66
278.599	-12.8
278.814	56.83
279.03	36.35
279.245	-37.38
279.461	48.64
279.676	-35.33
279.892	22.02
280.107	-14.85
280.322	81.41
280.538	79.36
280.753	40.45
280.969	-0.51
281.184	9.73
281.399	3.58
281.615	5.63
281.83	1.54
282.045	-31.23
282.26	-59.9
282.476	77.31
282.691	-33.28
282.906	-4.61
283.122	-0.51
283.337	-47.62
283.552	-20.99
283.767	9.73
283.983	3.58
284.198	-41.47
284.413	-27.14
284.628	22.02
284.843	-4.61
285.058	7.68
285.274	-76.29
285.489	28.16
285.704	-20.99
285.919	-45.57
286.134	26.11
286.349	-20.99
286.564	-18.94
286.779	-43.52
286.995	60.93
287.21	7.68
287.425	-4.61
287.64	26.11
287.855	79.36
288.07	9.73
288.285	48.64
288.5	15.87
288.715	22.02
288.93	-10.75
289.145	-10.75
289.36	-0.51
289.575	32.26
289.79	15.87
290.004	-8.7
290.219	60.93
290.434	93.69
290.649	3.58
290.864	-27.14
291.079	58.88
291.294	9.73
291.509	58.88
291.724	-37.38
291.938	-57.86
292.153	30.21
292.368	15.87
292.583	19.97
292.798	-2.56
293.012	36.35
293.227	-0.51
293.442	-20.99
293.657	54.78
293.871	17.92
294.086	-18.94
294.301	52.74
294.516	77.31
294.73	-27.14
294.945	-37.38
295.16	-0.51
295.374	38.4
295.589	-20.99
295.804	-2.56
296.018	11.78
296.233	-6.66
296.447	-74.24
296.662	44.54
296.877	26.11
297.091	5.63
297.306	11.78
297.52	71.17
297.735	3.58
297.949	40.45
298.164	-2.56
298.378	-25.09
298.593	5.63
298.807	-0.51
299.022	-59.9
299.236	77.31
299.451	-16.9
299.665	-45.57
299.88	13.82
300.094	60.93
300.309	60.93
300.523	19.97
300.737	-0.51
300.952	65.02
301.166	58.88
301.381	-31.23
301.595	19.97
301.809	15.87
302.024	65.02
302.238	-45.57
302.452	-76.29
302.667	-74.24
302.881	-10.75
303.095	15.87
303.309	38.4
303.524	-14.85
303.738	15.87
303.952	-20.99
304.166	54.78
304.381	-4.61
304.595	54.78
304.809	-12.8
305.023	-8.7
305.237	22.02
305.452	19.97
305.666	89.6
305.88	-39.42
306.094	30.21
306.308	50.69
306.522	79.36
306.736	-72.19
306.95	-18.94
307.164	-0.51
307.379	-33.28
307.593	58.88
307.807	54.78
308.021	69.12
308.235	65.02
308.449	-86.53
308.663	-4.61
308.877	5.63
309.091	-102.91
309.305	-23.04
309.519	-20.99
309.733	87.55
309.947	52.74
310.161	36.35
310.374	38.4
310.588	30.21
310.802	46.59
311.016	19.97
311.23	44.54
311.444	-12.8
311.658	36.35
311.872	-47.62
312.085	-16.9
312.299	11.78
312.513	87.55
312.727	22.02
312.941	-29.18
313.154	11.78
313.368	-12.8
313.582	48.64
313.796	-27.14
314.009	1.54
314.223	-18.94
314.437	7.68
314.651	24.06
314.864	19.97
315.078	44.54
315.292	56.83
315.505	-8.7
315.719	36.35
315.933	-39.42
316.146	48.64
316.36	13.82
316.573	17.92
316.787	89.6
317.001	17.92
317.214	-8.7
317.428	-23.04
317.641	9.73
317.855	-8.7
318.068	-2.56
318.282	50.69
318.495	11.78
318.709	-4.61
318.922	19.97
319.136	3.58
319.349	-20.99
319.563	3.58
319.776	26.11
319.99	17.92
320.203	-35.33
320.417	60.93
320.63	17.92
320.843	24.06
321.057	-27.14
321.27	34.3
321.483	28.16
321.697	17.92
321.91	81.41
322.124	22.02
322.337	19.97
322.55	108.03
322.763	17.92
322.977	73.21
323.19	30.21
323.403	13.82
323.617	-64
323.83	-23.04
324.043	28.16
324.256	11.78
324.469	32.26
324.683	-4.61
324.896	-4.61
325.109	38.4
325.322	-53.76
325.535	7.68
325.748	34.3
325.962	19.97
326.175	-12.8
326.388	-6.66
326.601	56.83
326.814	71.17
327.027	69.12
327.24	56.83
327.453	24.06
327.666	52.74
327.879	-16.9
328.092	40.45
328.305	-14.85
328.518	50.69
328.731	-12.8
328.944	-31.23
329.157	19.97
329.37	79.36
329.583	-6.66
329.796	9.73
330.009	-94.72
330.222	-12.8
330.435	-10.75
330.648	-66.05
330.861	-18.94
331.073	-41.47
331.286	-31.23
331.499	50.69
331.712	-45.57
331.925	19.97
332.138	34.3
332.35	-33.28
332.563	5.63
332.776	30.21
332.989	42.5
333.202	-18.94
333.414	22.02
333.627	26.11
333.84	15.87
334.053	5.63
334.265	-18.94
334.478	5.63
334.691	54.78
334.903	11.78
335.116	1.54
335.329	7.68
335.541	28.16
335.754	85.5
335.966	81.41
336.179	54.78
336.392	-6.66
336.604	7.68
336.817	40.45
337.029	5.63
337.242	3.58
337.454	69.12
337.667	-12.8
337.88	67.07
338.092	22.02
338.305	-8.7
338.517	30.21
338.729	44.54
338.942	54.78
339.154	40.45
339.367	54.78
339.579	3.58
339.792	54.78
340.004	-20.99
340.217	15.87
340.429	-45.57
340.641	36.35
340.854	-68.09
341.066	28.16
341.278	42.5
341.491	36.35
341.703	13.82
341.915	3.58
342.128	19.97
342.34	13.82
342.552	-43.52
342.764	28.16
342.977	-2.56
343.189	17.92
343.401	-25.09
343.613	-20.99
343.826	13.82
344.038	-18.94
344.25	-47.62
344.462	101.89
344.674	77.31
344.886	-10.75
345.099	65.02
345.311	26.11
345.523	-18.94
345.735	5.63
345.947	-6.66
346.159	11.78
346.371	-27.14
346.583	-37.38
346.795	52.74
347.007	28.16
347.219	-16.9
347.431	1.54
347.643	-2.56
347.855	11.78
348.067	110.08
348.279	71.17
348.491	-45.57
348.703	13.82
348.915	17.92
349.127	-27.14
349.339	-27.14
349.551	-12.8
349.763	-12.8
349.975	71.17
350.187	7.68
350.399	13.82
350.61	11.78
350.822	9.73
351.034	110.08
351.246	-33.28
351.458	-16.9
351.669	19.97
351.881	15.87
352.093	-33.28
352.305	-10.75
352.517	11.78
352.728	19.97
352.94	-74.24
353.152	3.58
353.363	-37.38
353.575	26.11
353.787	-29.18
353.999	-12.8
354.21	9.73
354.422	11.78
354.633	34.3
354.845	32.26
355.057	38.4
355.268	73.21
355.48	28.16
355.692	38.4
355.903	7.68
356.115	26.11
356.326	-72.19
356.538	38.4
356.749	48.64
356.961	54.78
357.172	-6.66
357.384	46.59
357.595	19.97
357.807	40.45
358.018	-45.57
358.23	32.26
358.441	26.11
358.653	24.06
358.864	22.02
359.075	-18.94
359.287	-4.61
359.498	54.78
359.709	46.59
359.921	75.26
360.132	-86.53
360.344	62.98
360.555	-16.9
360.766	36.35
360.977	36.35
361.189	69.12
361.4	54.78
361.611	112.13
361.823	38.4
362.034	46.59
362.245	44.54
362.456	44.54
362.667	44.54
362.879	36.35
363.09	-20.99
363.301	101.89
363.512	-4.61
363.723	22.02
363.935	-18.94
364.146	40.45
364.357	60.93
364.568	56.83
364.779	-0.51
364.99	50.69
365.201	-8.7
365.412	50.69
365.623	24.06
365.834	11.78
366.045	-4.61
366.256	42.5
366.467	24.06
366.678	34.3
366.889	69.12
367.1	11.78
367.311	91.65
367.522	-27.14
367.733	22.02
367.944	32.26
368.155	5.63
368.366	11.78
368.577	36.35
368.788	15.87
368.999	5.63
369.209	19.97
369.42	-2.56
369.631	-8.7
369.842	-4.61
370.053	7.68
370.264	48.64
370.474	32.26
370.685	73.21
370.896	60.93
371.107	124.41
371.317	67.07
371.528	-61.95
371.739	105.98
371.95	77.31
372.16	9.73
372.371	-27.14
372.582	9.73
372.792	24.06
373.003	24.06
373.214	44.54
373.424	-20.99
373.635	-51.71
373.846	95.74
374.056	5.63
374.267	77.31
374.477	-45.57
374.688	65.02
374.898	26.11
375.109	13.82
375.319	32.26
375.53	48.64
375.74	52.74
375.951	-10.75
376.161	73.21
376.372	-51.71
376.582	11.78
376.793	24.06
377.003	19.97
377.214	75.26
377.424	52.74
377.635	13.82
377.845	5.63
378.055	42.5
378.266	-0.51
378.476	-20.99
378.686	83.45
378.897	83.45
379.107	-49.66
379.317	5.63
379.528	3.58
379.738	36.35
379.948	-14.85
380.158	75.26
380.369	-6.66
380.579	-27.14
380.789	44.54
380.999	7.68
381.21	5.63
381.42	42.5
381.63	-29.18
381.84	58.88
382.05	95.74
382.261	-29.18
382.471	81.41
382.681	15.87
382.891	36.35
383.101	85.5
383.311	40.45
383.521	-0.51
383.731	17.92
383.941	60.93
384.151	19.97
384.361	56.83
384.571	95.74
384.781	15.87
384.991	56.83
385.201	42.5
385.411	-12.8
385.621	24.06
385.831	79.36
386.041	19.97
386.251	24.06
386.461	22.02
386.671	-59.9
386.881	-0.51
387.091	58.88
387.301	-14.85
387.511	-47.62
387.72	-4.61
387.93	-14.85
388.14	26.11
388.35	3.58
388.56	-12.8
388.769	54.78
388.979	36.35
389.189	13.82
389.399	44.54
389.609	-8.7
389.818	-82.43
390.028	1.54
390.238	-2.56
390.447	30.21
390.657	52.74
390.867	65.02
391.076	7.68
391.286	65.02
391.496	-43.52
391.705	46.59
391.915	36.35
392.125	7.68
392.334	128.51
392.544	48.64
392.753	69.12
392.963	28.16
393.172	38.4
393.382	9.73
393.591	22.02
393.801	24.06
394.01	101.89
394.22	36.35
394.429	-29.18
394.639	60.93
394.848	77.31
395.058	26.11
395.267	26.11
395.477	46.59
395.686	89.6
395.895	85.5
396.105	69.12
396.314	-45.57
396.524	97.79
396.733	-20.99
396.942	-16.9
397.152	87.55
397.361	69.12
397.57	50.69
397.78	38.4
397.989	28.16
398.198	65.02
398.407	15.87
398.617	89.6
398.826	52.74
399.035	13.82
399.244	-2.56
399.453	28.16
399.663	22.02
399.872	-23.04
400.081	-6.66
400.29	71.17
400.499	73.21
400.708	110.08
400.917	42.5
401.127	54.78
401.336	75.26
401.545	77.31
401.754	48.64
401.963	81.41
402.172	24.06
402.381	34.3
402.59	38.4
402.799	52.74
403.008	7.68
403.217	79.36
403.426	11.78
403.635	28.16
403.844	54.78
404.053	101.89
404.262	34.3
404.471	71.17
404.68	93.69
404.888	77.31
405.097	11.78
405.306	71.17
405.515	85.5
405.724	54.78
405.933	146.94
406.142	62.98
406.35	50.69
406.559	42.5
406.768	28.16
406.977	108.03
407.185	101.89
407.394	87.55
407.603	97.79
407.812	114.17
408.02	54.78
408.229	130.56
408.438	81.41
408.646	85.5
408.855	89.6
409.064	110.08
409.272	62.98
409.481	159.23
409.69	99.84
409.898	77.31
410.107	112.13
410.315	163.33
410.524	69.12
410.733	122.37
410.941	105.98
411.15	185.85
411.358	103.93
411.567	159.23
411.775	204.28
411.984	210.43
412.192	112.13
412.401	216.57
412.609	179.71
412.818	275.96
413.026	192
413.234	290.3
413.443	237.05
413.651	218.62
413.86	247.29
414.068	345.59
414.276	314.88
414.485	251.39
414.693	366.07
414.901	341.5
415.11	316.92
415.318	308.73
415.526	343.55
415.734	325.12
415.943	423.42
416.151	417.27
416.359	329.21
416.567	413.18
416.776	404.99
416.984	435.71
417.192	423.42
417.4	523.77
417.608	474.62
417.817	460.28
418.025	589.3
418.233	556.54
418.441	566.78
418.649	519.67
418.857	642.55
419.065	628.21
419.273	558.58
419.481	609.78
419.689	636.41
419.897	730.61
420.105	683.51
420.313	679.41
420.521	716.28
420.729	759.28
420.937	765.43
421.145	769.52
421.353	859.63
421.561	910.83
421.769	933.36
421.977	849.4
422.185	925.17
422.393	1076.72
422.601	1048.05
422.809	1060.34
423.017	1017.33
423.224	1029.62
423.432	1158.64
423.64	1089.01
423.848	1328.62
424.056	1302
424.263	1277.42
424.471	1320.43
424.679	1367.53
424.887	1398.25
425.094	1463.79
425.302	1394.15
425.51	1492.46
425.718	1510.89
425.925	1609.19
426.133	1676.77
426.341	1668.58
426.548	1805.8
426.756	1867.24
426.964	1793.51
427.171	1934.82
427.379	1873.38
427.586	2061.79
427.794	2035.17
428.001	2178.53
428.209	2272.73
428.417	2184.67
428.624	2321.88
428.832	2436.57
429.039	2299.36
429.247	2407.9
429.454	2698.71
429.662	2766.29
429.869	2553.31
430.076	2821.59
430.284	2696.66
430.491	2837.97
430.699	3030.48
430.906	2893.27
431.114	2889.17
431.321	3061.2
431.528	3147.22
431.736	3349.96
431.943	3544.52
432.15	3456.46
432.358	3431.88
432.565	3702.22
432.772	3567.05
432.979	3988.93
433.187	3956.16
433.394	3962.31
433.601	4060.61
433.808	4199.87
434.016	4287.93
434.223	4429.24
434.43	4724.15
434.637	4449.72
434.844	4863.41
435.052	4924.85
435.259	4912.57
435.466	5103.03
435.673	4875.7
435.88	5295.54
436.087	5469.61
436.294	5565.87
436.501	5410.22
436.708	5610.92
436.915	5737.9
437.122	5973.41
437.329	5815.72
437.537	6165.92
437.743	6206.88
437.95	6213.03
438.157	6677.91
438.364	6907.29
438.571	6739.35
438.778	6641.05
438.985	7464.33
439.192	7220.63
439.399	7294.35
439.606	7122.32
439.813	7466.38
440.02	7853.45
440.227	7992.71
440.433	7728.52
440.64	7998.85
440.847	8076.68
441.054	8246.66
441.261	8637.82
441.467	8734.07
441.674	8922.49
441.881	9026.93
442.088	9039.22
442.294	8940.92
442.501	9350.51
442.708	9373.04
442.914	9725.29
443.121	10265.96
443.328	10104.17
443.534	10661.21
443.741	10132.84
443.948	10376.55
444.154	11081.05
444.361	11113.81
444.568	11122.01
444.774	11156.82
444.981	11224.4
445.187	11593.04
445.394	12113.22
445.6	11779.4
445.807	13137.21
446.013	12561.73
446.22	12545.34
446.426	13352.24
446.633	13346.1
446.839	14021.93
447.046	13425.97
447.252	14355.75
447.459	14120.23
447.665	14054.7
447.871	14638.37
448.078	15322.39
448.284	14564.64
448.491	14916.89
448.697	15721.74
448.903	15799.57
449.11	15889.68
449.316	15734.03
449.522	16264.46
449.728	16571.65
449.935	16327.94
450.141	16516.36
450.347	17057.02
450.553	16463.11
450.76	16592.13
450.966	17227
451.172	16882.94
451.378	17503.48
451.584	17222.91
451.791	17747.19
451.997	17554.68
452.203	18025.71
452.409	17960.17
452.615	17726.71
452.821	17040.64
453.027	17093.88
453.233	17945.84
453.44	17333.5
453.646	17210.62
453.852	17571.06
454.058	17851.63
454.264	17212.67
454.47	17616.12
454.676	17095.93
454.882	17784.05
455.088	16411.91
455.294	16700.67
455.5	16561.41
455.705	16964.86
455.911	16219.4
456.117	15875.34
456.323	15842.57
456.529	14904.6
456.735	15625.49
456.941	15357.21
457.147	15015.19
457.352	14419.24
457.558	14380.32
457.764	14255.4
457.97	14103.85
458.176	13722.93
458.381	13862.19
458.587	13284.66
458.793	13231.41
458.999	12264.77
459.204	13397.3
459.41	12803.39
459.616	12301.64
459.821	11984.2
460.027	12053.83
460.233	11881.8
460.438	11304.28
460.644	11382.1
460.85	10763.61
461.055	10866.01
461.261	10607.97
461.466	9969
461.672	9360.75
461.878	10345.83
462.083	9672.04
462.289	9487.73
462.494	9096.57
462.7	8904.06
462.905	8756.6
463.111	8916.34
463.316	9078.13
463.522	8682.88
463.727	8977.78
463.932	8965.5
464.138	8736.12
464.343	8734.07
464.549	8752.51
464.754	8711.55
464.959	8799.61
465.165	8650.11
465.37	8295.81
465.575	8174.98
465.781	8381.82
465.986	8443.26
466.191	8291.71
466.397	8072.58
466.602	7650.7
466.807	8060.29
467.012	8033.67
467.218	7830.92
467.423	7990.66
467.628	7701.9
467.833	8248.71
468.038	8062.34
468.244	7708.04
468.449	7892.36
468.654	7640.46
