Data from USB4F104151__54__12-59-18-004.txt Node

Date: Fri Mar 14 12:59:18 EDT 2025
User: louis
Spectrometer: USB4F10415
Trigger mode: 4
Integration Time (sec): 1.000000E-2
Scans to average: 1
Electric dark correction enabled: true
Nonlinearity correction enabled: false
Boxcar width: 0
XAxis mode: Wavelengths
Number of Pixels in Spectrum: 3648
>>>>>Begin Spectral Data<<<<<
178.204	-66.56
178.424	-66.56
178.644	-66.56
178.864	-64.51
179.084	-117.76
179.304	-19.46
179.524	19.46
179.744	-5.12
179.964	39.94
180.184	-46.08
180.404	-3.07
180.624	-52.22
180.844	39.94
181.064	-31.74
181.283	44.03
181.503	-29.7
181.723	44.03
181.943	-91.13
182.163	-21.5
182.383	-103.42
182.602	-23.55
182.822	9.22
183.042	19.46
183.262	-78.85
183.482	-35.84
183.701	7.17
183.921	3.07
184.141	-7.17
184.361	52.22
184.58	-17.41
184.8	-39.94
185.02	-35.84
185.239	76.8
185.459	-48.13
185.679	21.5
185.898	33.79
186.118	-29.7
186.338	-3.07
186.557	-48.13
186.777	-21.5
186.997	-17.41
187.216	-52.22
187.436	17.41
187.655	-1.02
187.875	-21.5
188.095	-66.56
188.314	41.98
188.534	-54.27
188.753	17.41
188.973	58.37
189.192	-56.32
189.412	-5.12
189.631	1.02
189.851	21.5
190.07	41.98
190.29	25.6
190.509	-3.07
190.729	7.17
190.948	-33.79
191.168	27.65
191.387	1.02
191.607	11.26
191.826	-19.46
192.045	-50.18
192.265	7.17
192.484	-11.26
192.704	13.31
192.923	-82.94
193.142	-1.02
193.362	-70.65
193.581	-5.12
193.8	35.84
194.02	17.41
194.239	-39.94
194.458	13.31
194.678	-64.51
194.897	33.79
195.116	-78.85
195.335	-50.18
195.555	-29.7
195.774	-39.94
195.993	-35.84
196.212	7.17
196.432	-52.22
196.651	-56.32
196.87	-11.26
197.089	-21.5
197.308	-56.32
197.528	111.61
197.747	-44.03
197.966	-48.13
198.185	-3.07
198.404	-74.75
198.623	-25.6
198.842	-15.36
199.062	33.79
199.281	-41.98
199.5	1.02
199.719	39.94
199.938	5.12
200.157	-25.6
200.376	37.89
200.595	41.98
200.814	-29.7
201.033	9.22
201.252	7.17
201.471	-80.89
201.69	23.55
201.909	-33.79
202.128	-68.61
202.347	-3.07
202.566	52.22
202.785	-29.7
203.004	-72.7
203.223	72.7
203.442	19.46
203.661	-15.36
203.879	-52.22
204.098	25.6
204.317	19.46
204.536	29.7
204.755	-33.79
204.974	29.7
205.193	7.17
205.411	-37.89
205.63	11.26
205.849	13.31
206.068	-35.84
206.287	-87.04
206.505	-15.36
206.724	-11.26
206.943	-48.13
207.162	13.31
207.381	15.36
207.599	-52.22
207.818	11.26
208.037	9.22
208.255	-27.65
208.474	17.41
208.693	-58.37
208.911	-46.08
209.13	11.26
209.349	9.22
209.567	-33.79
209.786	37.89
210.005	-9.22
210.223	82.94
210.442	-27.65
210.661	-37.89
210.879	21.5
211.098	33.79
211.316	-15.36
211.535	78.85
211.753	-27.65
211.972	-56.32
212.191	-64.51
212.409	46.08
212.628	-44.03
212.846	-17.41
213.065	17.41
213.283	-19.46
213.502	-25.6
213.72	50.18
213.938	-5.12
214.157	-64.51
214.375	-3.07
214.594	-3.07
214.812	13.31
215.031	-80.89
215.249	-1.02
215.467	-21.5
215.686	-27.65
215.904	23.55
216.122	-3.07
216.341	-62.46
216.559	41.98
216.778	25.6
216.996	-41.98
217.214	-13.31
217.432	-25.6
217.651	-21.5
217.869	46.08
218.087	1.02
218.306	-23.55
218.524	-17.41
218.742	-25.6
218.96	-41.98
219.179	-56.32
219.397	-27.65
219.615	74.75
219.833	-64.51
220.051	-27.65
220.27	-11.26
220.488	3.07
220.706	3.07
220.924	-5.12
221.142	-11.26
221.36	11.26
221.578	15.36
221.796	17.41
222.015	17.41
222.233	-23.55
222.451	-25.6
222.669	-41.98
222.887	-9.22
223.105	9.22
223.323	-11.26
223.541	13.31
223.759	27.65
223.977	-33.79
224.195	-5.12
224.413	-60.42
224.631	-37.89
224.849	15.36
225.067	48.13
225.285	-70.65
225.503	-9.22
225.721	-23.55
225.939	17.41
226.157	-7.17
226.375	9.22
226.592	-29.7
226.81	-37.89
227.028	-50.18
227.246	37.89
227.464	-35.84
227.682	-7.17
227.9	-37.89
228.117	-64.51
228.335	-58.37
228.553	-39.94
228.771	-9.22
228.989	70.65
229.206	-19.46
229.424	23.55
229.642	-27.65
229.86	-3.07
230.077	-9.22
230.295	11.26
230.513	-68.61
230.731	68.61
230.948	17.41
231.166	17.41
231.384	-31.74
231.601	17.41
231.819	31.74
232.037	-29.7
232.254	-68.61
232.472	82.94
232.689	-44.03
232.907	-48.13
233.125	-80.89
233.342	-46.08
233.56	-46.08
233.777	-29.7
233.995	3.07
234.213	-31.74
234.43	-68.61
234.648	29.7
234.865	3.07
235.083	9.22
235.3	-46.08
235.518	-7.17
235.735	-46.08
235.953	-5.12
236.17	-7.17
236.388	17.41
236.605	21.5
236.822	-41.98
237.04	-35.84
237.257	50.18
237.475	-13.31
237.692	13.31
237.909	-31.74
238.127	7.17
238.344	29.7
238.562	78.85
238.779	-1.02
238.996	-60.42
239.214	-54.27
239.431	-23.55
239.648	-64.51
239.865	1.02
240.083	-29.7
240.3	25.6
240.517	33.79
240.735	15.36
240.952	13.31
241.169	3.07
241.386	-19.46
241.603	52.22
241.821	-89.09
242.038	-48.13
242.255	37.89
242.472	-1.02
242.689	5.12
242.907	58.37
243.124	-13.31
243.341	-19.46
243.558	-48.13
243.775	25.6
243.992	-7.17
244.209	-39.94
244.426	-25.6
244.643	29.7
244.86	39.94
245.078	25.6
245.295	-76.8
245.512	-58.37
245.729	93.18
245.946	-21.5
246.163	-46.08
246.38	9.22
246.597	60.42
246.814	-7.17
247.031	-33.79
247.248	-21.5
247.464	-62.46
247.681	-1.02
247.898	-56.32
248.115	-9.22
248.332	3.07
248.549	29.7
248.766	46.08
248.983	-29.7
249.2	70.65
249.417	60.42
249.633	-15.36
249.85	44.03
250.067	-56.32
250.284	-78.85
250.501	-46.08
250.717	9.22
250.934	-74.75
251.151	-9.22
251.368	-5.12
251.585	25.6
251.801	-11.26
252.018	52.22
252.235	19.46
252.451	13.31
252.668	33.79
252.885	-9.22
253.102	-5.12
253.318	-13.31
253.535	23.55
253.752	9.22
253.968	-64.51
254.185	9.22
254.401	-29.7
254.618	17.41
254.835	-33.79
255.051	3.07
255.268	-5.12
255.484	-23.55
255.701	-78.85
255.917	-29.7
256.134	-13.31
256.351	9.22
256.567	-9.22
256.784	-15.36
257	-56.32
257.217	5.12
257.433	-23.55
257.65	17.41
257.866	-23.55
258.082	44.03
258.299	-25.6
258.515	-7.17
258.732	-89.09
258.948	46.08
259.165	15.36
259.381	-31.74
259.597	17.41
259.814	-15.36
260.03	-19.46
260.246	-27.65
260.463	-27.65
260.679	-27.65
260.895	1.02
261.112	60.42
261.328	17.41
261.544	-25.6
261.761	-39.94
261.977	39.94
262.193	27.65
262.409	-9.22
262.626	-13.31
262.842	-3.07
263.058	-33.79
263.274	3.07
263.49	-60.42
263.707	33.79
263.923	37.89
264.139	21.5
264.355	-11.26
264.571	33.79
264.787	-11.26
265.004	17.41
265.22	33.79
265.436	-64.51
265.652	-50.18
265.868	-37.89
266.084	-95.23
266.3	-19.46
266.516	-5.12
266.732	21.5
266.948	-21.5
267.164	-60.42
267.38	-15.36
267.596	-25.6
267.812	50.18
268.028	-13.31
268.244	31.74
268.46	13.31
268.676	-13.31
268.892	48.13
269.108	15.36
269.324	-41.98
269.54	-64.51
269.756	68.61
269.972	66.56
270.188	-41.98
270.403	-17.41
270.619	-3.07
270.835	-27.65
271.051	87.04
271.267	-33.79
271.483	-39.94
271.698	3.07
271.914	-15.36
272.13	50.18
272.346	7.17
272.562	3.07
272.777	7.17
272.993	-25.6
273.209	1.02
273.425	-89.09
273.64	-74.75
273.856	25.6
274.072	62.46
274.287	-15.36
274.503	-44.03
274.719	21.5
274.934	9.22
275.15	-64.51
275.366	-44.03
275.581	-37.89
275.797	46.08
276.012	33.79
276.228	1.02
276.444	-70.65
276.659	82.94
276.875	-50.18
277.09	-39.94
277.306	-76.8
277.521	33.79
277.737	-35.84
277.952	-7.17
278.168	-3.07
278.383	35.84
278.599	-25.6
278.814	-33.79
279.03	48.13
279.245	50.18
279.461	-7.17
279.676	-115.71
279.892	-56.32
280.107	11.26
280.322	-21.5
280.538	-23.55
280.753	-5.12
280.969	-13.31
281.184	-19.46
281.399	15.36
281.615	-31.74
281.83	31.74
282.045	-21.5
282.26	-37.89
282.476	-35.84
282.691	-23.55
282.906	-60.42
283.122	9.22
283.337	-13.31
283.552	35.84
283.767	-11.26
283.983	-11.26
284.198	-95.23
284.413	25.6
284.628	29.7
284.843	11.26
285.058	-41.98
285.274	-17.41
285.489	-15.36
285.704	41.98
285.919	-60.42
286.134	-35.84
286.349	9.22
286.564	-19.46
286.779	-7.17
286.995	-3.07
287.21	31.74
287.425	50.18
287.64	-13.31
287.855	-1.02
288.07	11.26
288.285	11.26
288.5	76.8
288.715	9.22
288.93	-62.46
289.145	21.5
289.36	23.55
289.575	3.07
289.79	-35.84
290.004	-13.31
290.219	17.41
290.434	-5.12
290.649	-64.51
290.864	-35.84
291.079	-39.94
291.294	1.02
291.509	-29.7
291.724	-21.5
291.938	3.07
292.153	-1.02
292.368	-1.02
292.583	-13.31
292.798	3.07
293.012	11.26
293.227	-46.08
293.442	1.02
293.657	-87.04
293.871	11.26
294.086	27.65
294.301	3.07
294.516	48.13
294.73	54.27
294.945	-58.37
295.16	19.46
295.374	46.08
295.589	31.74
295.804	44.03
296.018	-46.08
296.233	48.13
296.447	-1.02
296.662	-33.79
296.877	52.22
297.091	-7.17
297.306	3.07
297.52	-23.55
297.735	-21.5
297.949	-33.79
298.164	5.12
298.378	19.46
298.593	-48.13
298.807	-21.5
299.022	-25.6
299.236	17.41
299.451	-60.42
299.665	-19.46
299.88	52.22
300.094	3.07
300.309	-21.5
300.523	-33.79
300.737	48.13
300.952	3.07
301.166	3.07
301.381	60.42
301.595	7.17
301.809	-46.08
302.024	33.79
302.238	19.46
302.452	9.22
302.667	39.94
302.881	-33.79
303.095	-15.36
303.309	84.99
303.524	-21.5
303.738	54.27
303.952	19.46
304.166	33.79
304.381	-48.13
304.595	-5.12
304.809	39.94
305.023	9.22
305.237	-5.12
305.452	21.5
305.666	62.46
305.88	5.12
306.094	-31.74
306.308	-41.98
306.522	-5.12
306.736	-3.07
306.95	1.02
307.164	-3.07
307.379	-13.31
307.593	-31.74
307.807	52.22
308.021	-21.5
308.235	-39.94
308.449	-35.84
308.663	-17.41
308.877	56.32
309.091	-35.84
309.305	9.22
309.519	-78.85
309.733	37.89
309.947	-3.07
310.161	-54.27
310.374	-15.36
310.588	46.08
310.802	5.12
311.016	50.18
311.23	-29.7
311.444	35.84
311.658	17.41
311.872	1.02
312.085	-70.65
312.299	7.17
312.513	39.94
312.727	-21.5
312.941	35.84
313.154	5.12
313.368	29.7
313.582	70.65
313.796	-19.46
314.009	17.41
314.223	5.12
314.437	-111.61
314.651	29.7
314.864	-27.65
315.078	-17.41
315.292	-33.79
315.505	-21.5
315.719	74.75
315.933	-27.65
316.146	11.26
316.36	-15.36
316.573	33.79
316.787	-13.31
317.001	5.12
317.214	-56.32
317.428	5.12
317.641	-46.08
317.855	1.02
318.068	1.02
318.282	-21.5
318.495	41.98
318.709	-46.08
318.922	-19.46
319.136	-46.08
319.349	-35.84
319.563	-23.55
319.776	84.99
319.99	-13.31
320.203	-52.22
320.417	33.79
320.63	-17.41
320.843	-27.65
321.057	-5.12
321.27	3.07
321.483	15.36
321.697	48.13
321.91	19.46
322.124	11.26
322.337	13.31
322.55	48.13
322.763	5.12
322.977	19.46
323.19	-15.36
323.403	-21.5
323.617	7.17
323.83	-17.41
324.043	-3.07
324.256	13.31
324.469	-27.65
324.683	33.79
324.896	-140.29
325.109	41.98
325.322	-15.36
325.535	50.18
325.748	-5.12
325.962	-48.13
326.175	-9.22
326.388	-25.6
326.601	41.98
326.814	-11.26
327.027	-44.03
327.24	50.18
327.453	-5.12
327.666	3.07
327.879	66.56
328.092	-35.84
328.305	23.55
328.518	-7.17
328.731	-50.18
328.944	3.07
329.157	-78.85
329.37	-58.37
329.583	66.56
329.796	-3.07
330.009	-48.13
330.222	-7.17
330.435	-50.18
330.648	21.5
330.861	-58.37
331.073	-48.13
331.286	-9.22
331.499	9.22
331.712	23.55
331.925	-25.6
332.138	50.18
332.35	-72.7
332.563	23.55
332.776	3.07
332.989	15.36
333.202	21.5
333.414	-11.26
333.627	58.37
333.84	13.31
334.053	27.65
334.265	-23.55
334.478	-9.22
334.691	-21.5
334.903	-58.37
335.116	66.56
335.329	-29.7
335.541	62.46
335.754	19.46
335.966	-1.02
336.179	58.37
336.392	64.51
336.604	-1.02
336.817	23.55
337.029	-9.22
337.242	31.74
337.454	39.94
337.667	-78.85
337.88	101.37
338.092	-60.42
338.305	1.02
338.517	-50.18
338.729	58.37
338.942	21.5
339.154	48.13
339.367	-41.98
339.579	48.13
339.792	46.08
340.004	17.41
340.217	-64.51
340.429	-72.7
340.641	-70.65
340.854	-1.02
341.066	-17.41
341.278	-1.02
341.491	-5.12
341.703	54.27
341.915	-19.46
342.128	1.02
342.34	7.17
342.552	-52.22
342.764	-19.46
342.977	41.98
343.189	48.13
343.401	-3.07
343.613	-33.79
343.826	-17.41
344.038	15.36
344.25	-37.89
344.462	-17.41
344.674	1.02
344.886	54.27
345.099	-31.74
345.311	31.74
345.523	-1.02
345.735	-44.03
345.947	9.22
346.159	-9.22
346.371	-82.94
346.583	-39.94
346.795	41.98
347.007	19.46
347.219	-23.55
347.431	-9.22
347.643	-39.94
347.855	25.6
348.067	25.6
348.279	17.41
348.491	-39.94
348.703	-15.36
348.915	3.07
349.127	19.46
349.339	13.31
349.551	7.17
349.763	-3.07
349.975	3.07
350.187	48.13
350.399	-48.13
350.61	23.55
350.822	27.65
351.034	17.41
351.246	19.46
351.458	-27.65
351.669	13.31
351.881	-29.7
352.093	-7.17
352.305	21.5
352.517	17.41
352.728	33.79
352.94	3.07
353.152	-35.84
353.363	-29.7
353.575	-19.46
353.787	-84.99
353.999	11.26
354.21	-3.07
354.422	1.02
354.633	-21.5
354.845	-15.36
355.057	-19.46
355.268	54.27
355.48	-35.84
355.692	25.6
355.903	-23.55
356.115	-37.89
356.326	-17.41
356.538	29.7
356.749	-52.22
356.961	91.13
357.172	66.56
357.384	-66.56
357.595	-52.22
357.807	-25.6
358.018	68.61
358.23	-25.6
358.441	-37.89
358.653	35.84
358.864	-3.07
359.075	-7.17
359.287	52.22
359.498	9.22
359.709	21.5
359.921	-64.51
360.132	-58.37
360.344	33.79
360.555	27.65
360.766	-23.55
360.977	35.84
361.189	-23.55
361.4	1.02
361.611	-5.12
361.823	9.22
362.034	-37.89
362.245	-62.46
362.456	82.94
362.667	11.26
362.879	-84.99
363.09	-7.17
363.301	-39.94
363.512	60.42
363.723	-37.89
363.935	1.02
364.146	-35.84
364.357	3.07
364.568	-3.07
364.779	-70.65
364.99	7.17
365.201	-1.02
365.412	17.41
365.623	-60.42
365.834	39.94
366.045	-3.07
366.256	41.98
366.467	37.89
366.678	-9.22
366.889	3.07
367.1	39.94
367.311	-5.12
367.522	1.02
367.733	9.22
367.944	19.46
368.155	-62.46
368.366	13.31
368.577	-29.7
368.788	68.61
368.999	-11.26
369.209	3.07
369.42	29.7
369.631	1.02
369.842	37.89
370.053	44.03
370.264	-11.26
370.474	7.17
370.685	-7.17
370.896	-17.41
371.107	-19.46
371.317	11.26
371.528	-68.61
371.739	-31.74
371.95	-82.94
372.16	-1.02
372.371	-7.17
372.582	48.13
372.792	39.94
373.003	5.12
373.214	5.12
373.424	15.36
373.635	29.7
373.846	-27.65
374.056	-39.94
374.267	-27.65
374.477	-5.12
374.688	-21.5
374.898	-23.55
375.109	25.6
375.319	58.37
375.53	-29.7
375.74	35.84
375.951	-11.26
376.161	3.07
376.372	50.18
376.582	41.98
376.793	-19.46
377.003	7.17
377.214	33.79
377.424	35.84
377.635	27.65
377.845	-89.09
378.055	7.17
378.266	-29.7
378.476	9.22
378.686	-56.32
378.897	23.55
379.107	-5.12
379.317	-5.12
379.528	-17.41
379.738	1.02
379.948	-76.8
380.158	-27.65
380.369	-3.07
380.579	72.7
380.789	-15.36
380.999	9.22
381.21	-25.6
381.42	48.13
381.63	-54.27
381.84	-13.31
382.05	17.41
382.261	52.22
382.471	60.42
382.681	27.65
382.891	50.18
383.101	58.37
383.311	33.79
383.521	41.98
383.731	-9.22
383.941	21.5
384.151	-11.26
384.361	1.02
384.571	115.71
384.781	-29.7
384.991	-23.55
385.201	25.6
385.411	-17.41
385.621	58.37
385.831	-29.7
386.041	-3.07
386.251	19.46
386.461	1.02
386.671	52.22
386.881	46.08
387.091	-15.36
387.301	48.13
387.511	-7.17
387.72	66.56
387.93	11.26
388.14	37.89
388.35	-15.36
388.56	-5.12
388.769	37.89
388.979	-60.42
389.189	5.12
389.399	37.89
389.609	-15.36
389.818	1.02
390.028	25.6
390.238	41.98
390.447	76.8
390.657	-25.6
390.867	-13.31
391.076	50.18
391.286	-7.17
391.496	25.6
391.705	-27.65
391.915	84.99
392.125	44.03
392.334	3.07
392.544	52.22
392.753	1.02
392.963	-3.07
393.172	109.57
393.382	-44.03
393.591	60.42
393.801	132.09
394.01	35.84
394.22	62.46
394.429	-17.41
394.639	15.36
394.848	11.26
395.058	62.46
395.267	56.32
395.477	52.22
395.686	27.65
395.895	89.09
396.105	68.61
396.314	93.18
396.524	-13.31
396.733	-35.84
396.942	5.12
397.152	-39.94
397.361	-46.08
397.57	46.08
397.78	76.8
397.989	3.07
398.198	93.18
398.407	21.5
398.617	99.33
398.826	11.26
399.035	19.46
399.244	21.5
399.453	105.47
399.663	76.8
399.872	44.03
400.081	5.12
400.29	54.27
400.499	132.09
400.708	91.13
400.917	21.5
401.127	66.56
401.336	27.65
401.545	103.42
401.754	60.42
401.963	60.42
402.172	-15.36
402.381	23.55
402.59	44.03
402.799	-39.94
403.008	52.22
403.217	31.74
403.426	93.18
403.635	25.6
403.844	187.39
404.053	50.18
404.262	62.46
404.471	111.61
404.68	70.65
404.888	101.37
405.097	64.51
405.306	58.37
405.515	95.23
405.724	109.57
405.933	74.75
406.142	111.61
406.35	93.18
406.559	56.32
406.768	93.18
406.977	78.85
407.185	107.52
407.394	128
407.603	115.71
407.812	87.04
408.02	121.85
408.229	78.85
408.438	107.52
408.646	117.76
408.855	134.14
409.064	103.42
409.272	91.13
409.481	197.63
409.69	144.38
409.898	117.76
410.107	142.33
410.315	199.68
410.524	150.53
410.733	203.77
410.941	171.01
411.15	199.68
411.358	195.58
411.567	252.92
411.775	216.06
411.984	224.25
412.192	209.92
412.401	230.4
412.609	254.97
412.818	281.6
413.026	232.44
413.234	218.11
413.443	254.97
413.651	240.64
413.86	328.7
414.068	351.23
414.276	318.46
414.485	275.45
414.693	295.93
414.901	345.08
415.11	379.9
415.318	353.27
415.526	394.23
415.734	357.37
415.943	418.81
416.151	506.87
416.359	484.34
416.567	480.25
416.776	455.67
416.984	586.74
417.192	590.84
417.4	541.69
417.608	517.11
417.817	558.07
418.025	625.65
418.233	662.52
418.441	670.71
418.649	672.76
418.857	695.29
419.065	629.75
419.273	728.05
419.481	730.1
419.689	865.27
419.897	838.64
420.105	844.79
420.313	830.45
420.521	877.55
420.729	922.61
420.937	918.51
421.145	984.05
421.353	1119.21
421.561	1094.64
421.769	994.29
421.977	1201.13
422.185	1162.22
422.393	1240.05
422.601	1326.06
422.809	1268.72
423.017	1303.53
423.224	1479.66
423.432	1375.21
423.64	1389.55
423.848	1571.82
424.056	1463.27
424.263	1580.01
424.471	1616.87
424.679	1608.68
424.887	1524.71
425.094	1776.61
425.302	1795.04
425.51	1838.05
425.718	1938.4
425.925	1899.49
426.133	1926.11
426.341	2055.14
426.548	2221.02
426.756	2153.44
426.964	2241.5
427.171	2331.61
427.379	2464.73
427.586	2503.64
427.794	2638.81
428.001	2685.91
428.209	2753.49
428.417	2724.82
428.624	2874.32
428.832	2782.17
429.039	2950.1
429.247	2884.56
429.454	3242.96
429.662	3421.13
429.869	3173.33
430.076	3441.61
430.284	3212.24
430.491	3480.52
430.699	3496.91
430.906	3576.78
431.114	3638.22
431.321	3771.33
431.528	3890.12
431.736	4105.15
431.943	4361.15
432.15	4295.61
432.358	4355.01
432.565	4447.16
432.772	4451.26
432.979	4795.32
433.187	4789.17
433.394	4856.76
433.601	5153.71
433.808	5219.25
434.016	5139.38
434.223	5356.46
434.43	5821.35
434.637	5563.31
434.844	5862.31
435.052	6110.11
435.259	6132.64
435.466	5997.48
435.673	6005.67
435.88	6421.41
436.087	6736.79
436.294	6753.18
436.501	6693.79
436.708	6753.18
436.915	6902.68
437.122	7183.25
437.329	7232.4
437.537	7330.7
437.743	7713.67
437.95	7463.82
438.157	7875.46
438.364	8407.94
438.571	8412.03
438.778	8276.87
438.985	9005.94
439.192	8797.05
439.399	8924.02
439.606	8905.59
439.813	9134.96
440.02	9827.18
440.227	9855.85
440.433	9444.21
440.64	9790.31
440.847	9728.88
441.054	10255.2
441.261	10802.01
441.467	10611.55
441.674	10910.55
441.881	11352.91
442.088	11289.43
442.294	11377.49
442.501	11305.81
442.708	11803.47
442.914	12145.48
443.121	12833.6
443.328	12376.9
443.534	13058.87
443.741	12798.78
443.948	13038.39
444.154	13681.46
444.361	13513.52
444.568	13691.7
444.774	13634.35
444.981	13947.69
445.187	14381.86
445.394	14856.99
445.6	14666.53
445.807	15971.08
446.013	15665.94
446.22	15631.12
446.426	16536.32
446.633	16550.66
446.839	16980.73
447.046	16347.91
447.252	17429.24
447.459	17289.98
447.665	17171.19
447.871	18111.21
448.078	19090.14
448.284	17965.81
448.491	18750.18
448.697	19305.18
448.903	19782.35
449.11	19821.27
449.316	19327.71
449.522	19671.76
449.728	20116.17
449.935	20275.91
450.141	20306.63
450.347	20775.62
450.553	20316.87
450.76	20439.75
450.966	21310.14
451.172	20755.14
451.378	21611.19
451.584	21111.49
451.791	21641.91
451.997	21516.98
452.203	22241.96
452.409	21891.76
452.615	21809.84
452.821	21201.6
453.027	20853.44
453.233	22125.23
453.44	21054.14
453.646	21672.63
453.852	21893.81
454.058	22192.81
454.264	21154.49
454.47	21410.49
454.676	20980.42
454.882	21938.87
455.088	20026.06
455.294	20449.99
455.5	20777.67
455.705	20931.26
455.911	20185.8
456.117	19770.07
456.323	19587.8
456.529	18604.77
456.735	19213.02
456.941	18696.93
457.147	18510.57
457.352	17930.99
457.558	17844.98
457.764	17769.2
457.97	17310.46
458.176	17111.8
458.381	17097.47
458.587	16028.43
458.793	16417.54
458.999	15436.56
459.204	16505.6
459.41	15977.23
459.616	15035.16
459.821	14850.85
460.027	15000.35
460.233	14381.86
460.438	13978.41
460.644	14256.93
460.85	13296.44
461.055	13165.37
461.261	13218.61
461.466	12008.26
461.672	11826
461.878	12821.31
462.083	11807.56
462.289	11752.27
462.494	11430.74
462.7	11191.13
462.905	10711.9
463.111	11150.17
463.316	11152.21
463.522	10951.51
463.727	10898.27
463.932	10822.49
464.138	10769.24
464.343	10685.28
464.549	10492.77
464.754	10812.25
464.959	10754.91
465.165	10713.95
465.37	10171.24
465.575	9943.91
465.781	10302.31
465.986	10384.23
466.191	9972.58
466.397	9837.42
