Data from USB4F104151__94__13-00-11-698.txt Node

Date: Fri Mar 14 13:00:11 EDT 2025
User: louis
Spectrometer: USB4F10415
Trigger mode: 4
Integration Time (sec): 1.000000E-2
Scans to average: 1
Electric dark correction enabled: true
Nonlinearity correction enabled: false
Boxcar width: 0
XAxis mode: Wavelengths
Number of Pixels in Spectrum: 3648
>>>>>Begin Spectral Data<<<<<
178.204	-3.07
178.424	-3.07
178.644	-3.07
178.864	-97.28
179.084	-7.17
179.304	1.02
179.524	7.17
179.744	33.79
179.964	-11.26
180.184	15.36
180.404	-11.26
180.624	-66.56
180.844	-39.94
181.064	11.26
181.283	7.17
181.503	39.94
181.723	13.31
181.943	-15.36
182.163	21.5
182.383	-23.55
182.602	87.04
182.822	-11.26
183.042	-62.46
183.262	-50.18
183.482	-9.22
183.701	-1.02
183.921	41.98
184.141	-48.13
184.361	-11.26
184.58	27.65
184.8	23.55
185.02	3.07
185.239	52.22
185.459	-3.07
185.679	56.32
185.898	-3.07
186.118	70.65
186.338	25.6
186.557	52.22
186.777	-39.94
186.997	-68.61
187.216	37.89
187.436	15.36
187.655	66.56
187.875	5.12
188.095	72.7
188.314	-17.41
188.534	54.27
188.753	33.79
188.973	-54.27
189.192	33.79
189.412	-21.5
189.631	80.89
189.851	21.5
190.07	-3.07
190.29	5.12
190.509	-7.17
190.729	58.37
190.948	21.5
191.168	105.47
191.387	39.94
191.607	-39.94
191.826	33.79
192.045	-11.26
192.265	87.04
192.484	-39.94
192.704	11.26
192.923	13.31
193.142	29.7
193.362	72.7
193.581	25.6
193.8	62.46
194.02	64.51
194.239	-1.02
194.458	11.26
194.678	17.41
194.897	-56.32
195.116	27.65
195.335	15.36
195.555	35.84
195.774	7.17
195.993	54.27
196.212	37.89
196.432	46.08
196.651	-39.94
196.87	1.02
197.089	23.55
197.308	54.27
197.528	93.18
197.747	-9.22
197.966	50.18
198.185	-5.12
198.404	46.08
198.623	15.36
198.842	3.07
199.062	60.42
199.281	46.08
199.5	-19.46
199.719	-13.31
199.938	58.37
200.157	44.03
200.376	3.07
200.595	29.7
200.814	17.41
201.033	46.08
201.252	29.7
201.471	-29.7
201.69	66.56
201.909	50.18
202.128	50.18
202.347	9.22
202.566	70.65
202.785	60.42
203.004	-17.41
203.223	31.74
203.442	95.23
203.661	74.75
203.879	13.31
204.098	54.27
204.317	27.65
204.536	87.04
204.755	-21.5
204.974	-15.36
205.193	29.7
205.411	76.8
205.63	11.26
205.849	-35.84
206.068	46.08
206.287	5.12
206.505	-1.02
206.724	33.79
206.943	-1.02
207.162	-27.65
207.381	-11.26
207.599	15.36
207.818	46.08
208.037	27.65
208.255	-13.31
208.474	50.18
208.693	72.7
208.911	31.74
209.13	-13.31
209.349	80.89
209.567	-72.7
209.786	13.31
210.005	7.17
210.223	13.31
210.442	41.98
210.661	5.12
210.879	21.5
211.098	1.02
211.316	37.89
211.535	84.99
211.753	-21.5
211.972	66.56
212.191	5.12
212.409	-33.79
212.628	48.13
212.846	52.22
213.065	23.55
213.283	-1.02
213.502	5.12
213.72	-46.08
213.938	-54.27
214.157	1.02
214.375	1.02
214.594	35.84
214.812	25.6
215.031	5.12
215.249	-33.79
215.467	-3.07
215.686	19.46
215.904	62.46
216.122	5.12
216.341	35.84
216.559	99.33
216.778	-17.41
216.996	78.85
217.214	35.84
217.432	46.08
217.651	52.22
217.869	-37.89
218.087	-39.94
218.306	-23.55
218.524	62.46
218.742	-44.03
218.96	27.65
219.179	44.03
219.397	-33.79
219.615	56.32
219.833	31.74
220.051	-23.55
220.27	-62.46
220.488	41.98
220.706	3.07
220.924	66.56
221.142	82.94
221.36	52.22
221.578	109.57
221.796	13.31
222.015	7.17
222.233	48.13
222.451	5.12
222.669	13.31
222.887	46.08
223.105	-19.46
223.323	-3.07
223.541	-17.41
223.759	21.5
223.977	-3.07
224.195	-27.65
224.413	-1.02
224.631	23.55
224.849	37.89
225.067	23.55
225.285	-13.31
225.503	74.75
225.721	-27.65
225.939	41.98
226.157	3.07
226.375	37.89
226.592	-27.65
226.81	48.13
227.028	25.6
227.246	29.7
227.464	44.03
227.682	31.74
227.9	5.12
228.117	9.22
228.335	-7.17
228.553	21.5
228.771	132.09
228.989	54.27
229.206	50.18
229.424	52.22
229.642	-19.46
229.86	-1.02
230.077	-9.22
230.295	23.55
230.513	-21.5
230.731	64.51
230.948	-19.46
231.166	29.7
231.384	-1.02
231.601	13.31
231.819	82.94
232.037	-78.85
232.254	48.13
232.472	-17.41
232.689	-7.17
232.907	44.03
233.125	37.89
233.342	48.13
233.56	19.46
233.777	-3.07
233.995	31.74
234.213	-25.6
234.43	-33.79
234.648	31.74
234.865	41.98
235.083	-9.22
235.3	17.41
235.518	117.76
235.735	66.56
235.953	78.85
236.17	48.13
236.388	33.79
236.605	39.94
236.822	35.84
237.04	-33.79
237.257	1.02
237.475	3.07
237.692	1.02
237.909	-5.12
238.127	-17.41
238.344	68.61
238.562	11.26
238.779	5.12
238.996	50.18
239.214	11.26
239.431	78.85
239.648	60.42
239.865	52.22
240.083	1.02
240.3	-1.02
240.517	-103.42
240.735	-25.6
240.952	-41.98
241.169	-7.17
241.386	66.56
241.603	54.27
241.821	19.46
242.038	-33.79
242.255	17.41
242.472	7.17
242.689	-33.79
242.907	-9.22
243.124	58.37
243.341	11.26
243.558	-1.02
243.775	5.12
243.992	31.74
244.209	66.56
244.426	52.22
244.643	-3.07
244.86	-9.22
245.078	13.31
245.295	37.89
245.512	3.07
245.729	31.74
245.946	48.13
246.163	15.36
246.38	29.7
246.597	-13.31
246.814	-27.65
247.031	48.13
247.248	1.02
247.464	31.74
247.681	11.26
247.898	41.98
248.115	52.22
248.332	25.6
248.549	70.65
248.766	72.7
248.983	74.75
249.2	66.56
249.417	62.46
249.633	1.02
249.85	-19.46
250.067	-11.26
250.284	27.65
250.501	19.46
250.717	-35.84
250.934	1.02
251.151	-7.17
251.368	23.55
251.585	21.5
251.801	3.07
252.018	44.03
252.235	5.12
252.451	23.55
252.668	-3.07
252.885	52.22
253.102	58.37
253.318	29.7
253.535	-52.22
253.752	80.89
253.968	-11.26
254.185	50.18
254.401	62.46
254.618	44.03
254.835	-48.13
255.051	60.42
255.268	50.18
255.484	46.08
255.701	13.31
255.917	1.02
256.134	41.98
256.351	1.02
256.567	-25.6
256.784	5.12
257	-15.36
257.217	-1.02
257.433	-9.22
257.65	44.03
257.866	25.6
258.082	-11.26
258.299	-5.12
258.515	58.37
258.732	-15.36
258.948	35.84
259.165	74.75
259.381	-13.31
259.597	-58.37
259.814	-9.22
260.03	29.7
260.246	5.12
260.463	37.89
260.679	17.41
260.895	46.08
261.112	-3.07
261.328	29.7
261.544	7.17
261.761	109.57
261.977	44.03
262.193	9.22
262.409	17.41
262.626	21.5
262.842	-1.02
263.058	23.55
263.274	-31.74
263.49	19.46
263.707	39.94
263.923	17.41
264.139	-7.17
264.355	52.22
264.571	-17.41
264.787	62.46
265.004	-25.6
265.22	-17.41
265.436	-11.26
265.652	33.79
265.868	15.36
266.084	-13.31
266.3	72.7
266.516	46.08
266.732	89.09
266.948	-27.65
267.164	31.74
267.38	35.84
267.596	19.46
267.812	76.8
268.028	78.85
268.244	-23.55
268.46	15.36
268.676	58.37
268.892	66.56
269.108	-29.7
269.324	-82.94
269.54	-1.02
269.756	3.07
269.972	-17.41
270.188	37.89
270.403	29.7
270.619	48.13
270.835	60.42
271.051	15.36
271.267	25.6
271.483	21.5
271.698	21.5
271.914	7.17
272.13	-3.07
272.346	-27.65
272.562	-11.26
272.777	11.26
272.993	95.23
273.209	-3.07
273.425	54.27
273.64	21.5
273.856	128
274.072	-39.94
274.287	41.98
274.503	21.5
274.719	11.26
274.934	-11.26
275.15	-7.17
275.366	-9.22
275.581	46.08
275.797	5.12
276.012	50.18
276.228	56.32
276.444	33.79
276.659	46.08
276.875	1.02
277.09	-15.36
277.306	-39.94
277.521	48.13
277.737	54.27
277.952	35.84
278.168	11.26
278.383	37.89
278.599	-33.79
278.814	7.17
279.03	56.32
279.245	17.41
279.461	-15.36
279.676	13.31
279.892	17.41
280.107	76.8
280.322	9.22
280.538	46.08
280.753	5.12
280.969	39.94
281.184	1.02
281.399	-27.65
281.615	56.32
281.83	-35.84
282.045	19.46
282.26	29.7
282.476	33.79
282.691	99.33
282.906	46.08
283.122	29.7
283.337	48.13
283.552	-1.02
283.767	3.07
283.983	54.27
284.198	66.56
284.413	-9.22
284.628	44.03
284.843	39.94
285.058	9.22
285.274	-9.22
285.489	37.89
285.704	84.99
285.919	78.85
286.134	80.89
286.349	37.89
286.564	-5.12
286.779	41.98
286.995	29.7
287.21	72.7
287.425	-1.02
287.64	-50.18
287.855	31.74
288.07	35.84
288.285	41.98
288.5	31.74
288.715	78.85
288.93	50.18
289.145	21.5
289.36	7.17
289.575	44.03
289.79	3.07
290.004	23.55
290.219	46.08
290.434	117.76
290.649	66.56
290.864	-3.07
291.079	13.31
291.294	-60.42
291.509	21.5
291.724	19.46
291.938	1.02
292.153	-5.12
292.368	19.46
292.583	48.13
292.798	35.84
293.012	60.42
293.227	17.41
293.442	87.04
293.657	21.5
293.871	-3.07
294.086	27.65
294.301	29.7
294.516	82.94
294.73	-11.26
294.945	1.02
295.16	39.94
295.374	-7.17
295.589	72.7
295.804	23.55
296.018	39.94
296.233	78.85
296.447	-15.36
296.662	56.32
296.877	54.27
297.091	-5.12
297.306	-15.36
297.52	52.22
297.735	15.36
297.949	-23.55
298.164	1.02
298.378	-17.41
298.593	70.65
298.807	52.22
299.022	-11.26
299.236	23.55
299.451	31.74
299.665	70.65
299.88	-1.02
300.094	-21.5
300.309	74.75
300.523	5.12
300.737	13.31
300.952	-3.07
301.166	7.17
301.381	35.84
301.595	95.23
301.809	17.41
302.024	-19.46
302.238	41.98
302.452	31.74
302.667	64.51
302.881	56.32
303.095	50.18
303.309	-1.02
303.524	-15.36
303.738	15.36
303.952	64.51
304.166	1.02
304.381	-13.31
304.595	-3.07
304.809	33.79
305.023	76.8
305.237	58.37
305.452	111.61
305.666	3.07
305.88	46.08
306.094	39.94
306.308	21.5
306.522	46.08
306.736	-11.26
306.95	58.37
307.164	48.13
307.379	3.07
307.593	23.55
307.807	1.02
308.021	-25.6
308.235	13.31
308.449	-27.65
308.663	29.7
308.877	23.55
309.091	17.41
309.305	3.07
309.519	-9.22
309.733	39.94
309.947	-54.27
310.161	39.94
310.374	37.89
310.588	89.09
310.802	44.03
311.016	87.04
311.23	-17.41
311.444	11.26
311.658	7.17
311.872	56.32
312.085	-41.98
312.299	64.51
312.513	11.26
312.727	39.94
312.941	35.84
313.154	-1.02
313.368	7.17
313.582	13.31
313.796	19.46
314.009	119.81
314.223	46.08
314.437	97.28
314.651	-7.17
314.864	11.26
315.078	111.61
315.292	56.32
315.505	37.89
315.719	33.79
315.933	39.94
316.146	41.98
316.36	3.07
316.573	-25.6
316.787	7.17
317.001	52.22
317.214	3.07
317.428	41.98
317.641	27.65
317.855	33.79
318.068	31.74
318.282	1.02
318.495	70.65
318.709	25.6
318.922	-35.84
319.136	9.22
319.349	93.18
319.563	64.51
319.776	44.03
319.99	33.79
320.203	25.6
320.417	-37.89
320.63	72.7
320.843	29.7
321.057	-11.26
321.27	15.36
321.483	103.42
321.697	31.74
321.91	19.46
322.124	25.6
322.337	-41.98
322.55	-19.46
322.763	54.27
322.977	-3.07
323.19	-29.7
323.403	31.74
323.617	-13.31
323.83	9.22
324.043	1.02
324.256	60.42
324.469	15.36
324.683	13.31
324.896	72.7
325.109	37.89
325.322	25.6
325.535	107.52
325.748	13.31
325.962	-23.55
326.175	31.74
326.388	9.22
326.601	50.18
326.814	-25.6
327.027	1.02
327.24	56.32
327.453	-9.22
327.666	62.46
327.879	82.94
328.092	27.65
328.305	-11.26
328.518	21.5
328.731	68.61
328.944	33.79
329.157	21.5
329.37	-5.12
329.583	33.79
329.796	21.5
330.009	46.08
330.222	21.5
330.435	-17.41
330.648	54.27
330.861	27.65
331.073	-11.26
331.286	48.13
331.499	107.52
331.712	21.5
331.925	5.12
332.138	-11.26
332.35	68.61
332.563	-37.89
332.776	78.85
332.989	-7.17
333.202	5.12
333.414	46.08
333.627	-9.22
333.84	-25.6
334.053	-3.07
334.265	27.65
334.478	19.46
334.691	23.55
334.903	44.03
335.116	25.6
335.329	87.04
335.541	13.31
335.754	132.09
335.966	11.26
336.179	56.32
336.392	62.46
336.604	-3.07
336.817	35.84
337.029	64.51
337.242	-1.02
337.454	17.41
337.667	56.32
337.88	15.36
338.092	46.08
338.305	17.41
338.517	74.75
338.729	11.26
338.942	80.89
339.154	31.74
339.367	41.98
339.579	21.5
339.792	80.89
340.004	29.7
340.217	44.03
340.429	31.74
340.641	46.08
340.854	-21.5
341.066	-3.07
341.278	54.27
341.491	1.02
341.703	15.36
341.915	23.55
342.128	21.5
342.34	50.18
342.552	21.5
342.764	29.7
342.977	-7.17
343.189	25.6
343.401	70.65
343.613	-3.07
343.826	111.61
344.038	-29.7
344.25	13.31
344.462	-13.31
344.674	31.74
344.886	-9.22
345.099	48.13
345.311	-15.36
345.523	60.42
345.735	82.94
345.947	54.27
346.159	-13.31
346.371	29.7
346.583	41.98
346.795	58.37
347.007	-72.7
347.219	80.89
347.431	17.41
347.643	33.79
347.855	15.36
348.067	25.6
348.279	46.08
348.491	68.61
348.703	-68.61
348.915	-35.84
349.127	87.04
349.339	70.65
349.551	21.5
349.763	70.65
349.975	3.07
350.187	58.37
350.399	21.5
350.61	52.22
350.822	-44.03
351.034	111.61
351.246	-17.41
351.458	105.47
351.669	46.08
351.881	-44.03
352.093	3.07
352.305	48.13
352.517	-23.55
352.728	29.7
352.94	-17.41
353.152	91.13
353.363	58.37
353.575	37.89
353.787	39.94
353.999	50.18
354.21	3.07
354.422	62.46
354.633	-3.07
354.845	84.99
355.057	-5.12
355.268	25.6
355.48	-3.07
355.692	39.94
355.903	123.9
356.115	41.98
356.326	7.17
356.538	37.89
356.749	-13.31
356.961	70.65
357.172	125.95
357.384	54.27
357.595	44.03
357.807	44.03
358.018	-3.07
358.23	95.23
358.441	48.13
358.653	27.65
358.864	-41.98
359.075	97.28
359.287	27.65
359.498	44.03
359.709	19.46
359.921	35.84
360.132	-19.46
360.344	-9.22
360.555	3.07
360.766	15.36
360.977	17.41
361.189	-27.65
361.4	5.12
361.611	11.26
361.823	13.31
362.034	25.6
362.245	-1.02
362.456	-41.98
362.667	25.6
362.879	91.13
363.09	-50.18
363.301	84.99
363.512	3.07
363.723	74.75
363.935	-5.12
364.146	82.94
364.357	11.26
364.568	5.12
364.779	27.65
364.99	56.32
365.201	70.65
365.412	123.9
365.623	-1.02
365.834	72.7
366.045	-15.36
366.256	39.94
366.467	44.03
366.678	13.31
366.889	5.12
367.1	31.74
367.311	37.89
367.522	74.75
367.733	-1.02
367.944	35.84
368.155	62.46
368.366	50.18
368.577	64.51
368.788	17.41
368.999	-21.5
369.209	9.22
369.42	80.89
369.631	97.28
369.842	31.74
370.053	115.71
370.264	33.79
370.474	76.8
370.685	35.84
370.896	80.89
371.107	113.66
371.317	1.02
371.528	74.75
371.739	46.08
371.95	25.6
372.16	-27.65
372.371	140.29
372.582	-37.89
372.792	23.55
373.003	-13.31
373.214	25.6
373.424	64.51
373.635	-15.36
373.846	119.81
374.056	-13.31
374.267	41.98
374.477	-3.07
374.688	15.36
374.898	3.07
375.109	9.22
375.319	39.94
375.53	35.84
375.74	35.84
375.951	-11.26
376.161	-15.36
376.372	27.65
376.582	66.56
376.793	37.89
377.003	41.98
377.214	-1.02
377.424	41.98
377.635	95.23
377.845	9.22
378.055	11.26
378.266	37.89
378.476	31.74
378.686	-29.7
378.897	54.27
379.107	9.22
379.317	93.18
379.528	-76.8
379.738	68.61
379.948	-1.02
380.158	62.46
380.369	-15.36
380.579	50.18
380.789	50.18
380.999	54.27
381.21	15.36
381.42	56.32
381.63	107.52
381.84	15.36
382.05	7.17
382.261	46.08
382.471	87.04
382.681	62.46
382.891	33.79
383.101	-9.22
383.311	1.02
383.521	31.74
383.731	29.7
383.941	11.26
384.151	97.28
384.361	56.32
384.571	37.89
384.781	70.65
384.991	70.65
385.201	117.76
385.411	64.51
385.621	113.66
385.831	9.22
386.041	-31.74
386.251	50.18
386.461	29.7
386.671	-7.17
386.881	113.66
387.091	3.07
387.301	9.22
387.511	-21.5
387.72	82.94
387.93	56.32
388.14	31.74
388.35	31.74
388.56	82.94
388.769	50.18
388.979	82.94
389.189	31.74
389.399	54.27
389.609	-37.89
389.818	95.23
390.028	-27.65
390.238	48.13
390.447	84.99
390.657	48.13
390.867	11.26
391.076	39.94
391.286	37.89
391.496	41.98
391.705	9.22
391.915	27.65
392.125	31.74
392.334	46.08
392.544	64.51
392.753	95.23
392.963	9.22
393.172	54.27
393.382	-37.89
393.591	37.89
393.801	-54.27
394.01	84.99
394.22	31.74
394.429	37.89
394.639	50.18
394.848	82.94
395.058	62.46
395.267	46.08
395.477	19.46
395.686	105.47
395.895	80.89
396.105	37.89
396.314	56.32
396.524	15.36
396.733	-17.41
396.942	101.37
397.152	89.09
397.361	9.22
397.57	25.6
397.78	50.18
397.989	54.27
398.198	50.18
398.407	80.89
398.617	41.98
398.826	82.94
399.035	-1.02
399.244	91.13
399.453	-3.07
399.663	33.79
399.872	48.13
400.081	56.32
400.29	121.85
400.499	19.46
400.708	107.52
400.917	-25.6
401.127	78.85
401.336	111.61
401.545	101.37
401.754	97.28
401.963	52.22
402.172	56.32
402.381	17.41
402.59	130.05
402.799	82.94
403.008	156.67
403.217	93.18
403.426	95.23
403.635	5.12
403.844	78.85
404.053	140.29
404.262	66.56
404.471	158.72
404.68	103.42
404.888	87.04
405.097	111.61
405.306	74.75
405.515	54.27
405.724	97.28
405.933	117.76
406.142	70.65
406.35	154.62
406.559	68.61
406.768	119.81
406.977	97.28
407.185	113.66
407.394	144.38
407.603	105.47
407.812	111.61
408.02	70.65
408.229	95.23
408.438	146.43
408.646	136.19
408.855	162.81
409.064	185.34
409.272	123.9
409.481	162.81
409.69	111.61
409.898	132.09
410.107	128
410.315	228.35
410.524	115.71
410.733	101.37
410.941	130.05
411.15	197.63
411.358	224.25
411.567	232.44
411.775	218.11
411.984	183.29
412.192	179.2
412.401	281.6
412.609	226.3
412.818	230.4
413.026	244.73
413.234	238.59
413.443	302.08
413.651	222.2
413.86	250.88
414.068	283.64
414.276	254.97
414.485	267.26
414.693	390.14
414.901	367.61
415.11	386.04
415.318	390.14
415.526	390.14
415.734	371.71
415.943	295.93
416.151	455.67
416.359	467.96
416.567	429.05
416.776	476.15
416.984	506.87
417.192	504.82
417.4	515.06
417.608	498.68
417.817	508.92
418.025	584.7
418.233	578.55
418.441	633.85
418.649	621.56
418.857	687.09
419.065	701.43
419.273	685.05
419.481	738.29
419.689	652.28
419.897	740.34
420.105	789.49
420.313	746.48
420.521	846.84
420.729	805.88
420.937	898.03
421.145	984.05
421.353	861.17
421.561	992.24
421.769	957.43
421.977	1031.15
422.185	1039.34
422.393	1082.35
422.601	1063.92
422.809	1145.84
423.017	1100.78
423.224	1143.79
423.432	1381.35
423.64	1281
423.848	1324.01
424.056	1334.25
424.263	1326.06
424.471	1463.27
424.679	1489.9
424.887	1602.54
425.094	1512.42
425.302	1602.54
425.51	1643.49
425.718	1848.29
425.925	1672.17
426.133	1758.18
426.341	1840.1
426.548	2098.14
426.756	1897.44
426.964	2153.44
427.171	2083.81
427.379	2251.74
427.586	2128.86
427.794	2352.09
428.001	2407.39
428.209	2479.07
428.417	2501.59
428.624	2520.03
428.832	2536.41
429.039	2560.98
429.247	2690.01
429.454	2743.25
429.662	3011.54
429.869	2898.9
430.076	2943.96
430.284	2946
430.491	3056.59
430.699	3126.22
430.906	3249.1
431.114	3341.26
431.321	3337.17
431.528	3425.23
431.736	3699.66
431.943	3922.88
432.15	3888.07
432.358	3730.38
432.565	4033.47
432.772	3959.75
432.979	4117.44
433.187	4275.13
433.394	4443.07
433.601	4727.74
433.808	4625.34
434.016	4578.23
434.223	4793.27
434.43	4996.02
434.637	4965.3
434.844	5321.65
435.052	5419.95
435.259	5419.95
435.466	5368.75
435.673	5362.61
435.88	5745.58
436.087	6040.48
436.294	6060.96
436.501	5882.79
436.708	5886.89
436.915	6288.29
437.122	6507.42
437.329	6382.49
437.537	6697.88
437.743	6847.38
437.95	6759.32
438.157	7211.92
438.364	7267.22
438.571	7080.85
438.778	7320.46
438.985	8059.78
439.192	7672.71
439.399	7961.48
439.606	7711.63
439.813	8383.36
440.02	8741.75
440.227	8573.82
440.433	8362.88
440.64	8883.06
440.847	8813.43
441.054	9079.67
441.261	9450.35
441.467	9468.78
441.674	9694.06
441.881	9993.06
442.088	10113.89
442.294	9929.58
442.501	10175.33
442.708	10492.77
442.914	10812.25
443.121	11311.96
443.328	10869.59
443.534	11662.16
443.741	11258.71
443.948	11299.67
444.154	12129.09
444.361	11889.48
444.568	12202.82
444.774	11995.98
444.981	12352.32
445.187	12499.78
445.394	13048.63
445.6	13134.65
445.807	14369.57
446.013	13857.58
446.22	14115.62
446.426	14392.1
446.633	14660.38
446.839	15031.07
447.046	14576.42
447.252	15432.47
447.459	15557.39
447.665	15547.15
447.871	16286.47
448.078	16761.6
448.284	15958.8
448.491	16374.53
448.697	17175.29
448.903	17472.25
449.11	17472.25
449.316	17275.64
449.522	17666.8
449.728	18060.01
449.935	18273
450.141	18125.55
450.347	18526.95
450.553	18105.07
450.76	18215.66
450.966	18846.43
451.172	18768.61
451.378	19329.75
451.584	18719.46
451.791	19524.31
451.997	19157.72
452.203	19559.13
452.409	19505.88
452.615	19466.97
452.821	18932.45
453.027	18676.45
453.233	19671.76
453.44	18946.78
453.646	19120.86
453.852	19378.9
454.058	19806.93
454.264	19071.71
454.47	19198.68
454.676	18963.17
454.882	19720.92
455.088	18121.45
455.294	18322.15
455.5	18432.74
455.705	18612.96
455.911	18012.91
456.117	17654.51
456.323	17322.74
456.529	16204.55
456.735	17048.32
456.941	16567.04
457.147	16501.51
457.352	15801.1
457.558	15708.94
457.764	15944.46
457.97	15452.95
458.176	15379.22
458.381	15395.61
458.587	14416.68
458.793	14455.59
458.999	13708.08
459.204	14711.58
459.41	14222.12
459.616	13339.44
459.821	13339.44
460.027	13421.36
460.233	13157.18
460.438	12217.16
460.644	12669.76
460.85	12057.42
461.055	11719.5
461.261	11621.2
461.466	11006.81
461.672	10320.74
461.878	11402.07
462.083	10494.82
462.289	10275.68
462.494	10183.52
462.7	9841.51
462.905	9444.21
463.111	9839.47
463.316	10138.47
463.522	9751.4
463.727	9714.54
463.932	9698.16
464.138	9429.87
464.343	9655.15
464.549	9376.62
464.754	9376.62
464.959	9483.12
465.165	9395.06
465.37	8991.61
465.575	8940.41
465.781	9212.79
465.986	9323.38
466.191	8991.61
466.397	8878.97
466.602	8307.59
466.807	8676.22
467.012	8518.53
467.218	8676.22
467.423	8598.4
467.628	8543.1
467.833	9085.81
468.038	8688.51
468.244	8491.9
468.449	8850.3
468.654	8369.02
468.859	8682.36
469.064	8254.34
469.269	8006.53
469.474	8125.32
