Data from USB4F104151__40__12-59-04-285.txt Node

Date: Fri Mar 14 12:59:04 EDT 2025
User: louis
Spectrometer: USB4F10415
Trigger mode: 4
Integration Time (sec): 1.000000E-2
Scans to average: 1
Electric dark correction enabled: true
Nonlinearity correction enabled: false
Boxcar width: 0
XAxis mode: Wavelengths
Number of Pixels in Spectrum: 3648
>>>>>Begin Spectral Data<<<<<
178.204	-71.17
178.424	-71.17
178.644	-71.17
178.864	-91.65
179.084	-36.35
179.304	14.85
179.524	6.66
179.744	-50.69
179.964	-22.02
180.184	-7.68
180.404	51.71
180.624	-3.58
180.844	-5.63
181.064	2.56
181.283	-24.06
181.503	18.94
181.723	18.94
181.943	-40.45
182.163	25.09
182.383	27.14
182.602	33.28
182.822	16.9
183.042	-5.63
183.262	0.51
183.482	6.66
183.701	4.61
183.921	-32.26
184.141	-60.93
184.361	41.47
184.58	-19.97
184.8	66.05
185.02	-132.61
185.239	2.56
185.459	55.81
185.679	-19.97
185.898	51.71
186.118	6.66
186.338	10.75
186.557	-42.5
186.777	23.04
186.997	31.23
187.216	-30.21
187.436	16.9
187.655	72.19
187.875	41.47
188.095	27.14
188.314	12.8
188.534	-13.82
188.753	10.75
188.973	27.14
189.192	29.18
189.412	8.7
189.631	39.42
189.851	-24.06
190.07	100.86
190.29	18.94
190.509	35.33
190.729	-22.02
190.948	115.2
191.168	-30.21
191.387	27.14
191.607	-62.98
191.826	16.9
192.045	39.42
192.265	-1.54
192.484	0.51
192.704	31.23
192.923	14.85
193.142	57.86
193.362	102.91
193.581	29.18
193.8	14.85
194.02	39.42
194.239	0.51
194.458	20.99
194.678	39.42
194.897	4.61
195.116	78.33
195.335	80.38
195.555	-22.02
195.774	16.9
195.993	-11.78
196.212	31.23
196.432	-44.54
196.651	14.85
196.87	-26.11
197.089	49.66
197.308	35.33
197.528	-34.3
197.747	29.18
197.966	33.28
198.185	-24.06
198.404	14.85
198.623	12.8
198.842	-34.3
199.062	23.04
199.281	27.14
199.5	4.61
199.719	14.85
199.938	-1.54
200.157	10.75
200.376	39.42
200.595	94.72
200.814	-17.92
201.033	-9.73
201.252	-36.35
201.471	25.09
201.69	-15.87
201.909	43.52
202.128	39.42
202.347	66.05
202.566	59.9
202.785	31.23
203.004	-38.4
203.223	107.01
203.442	47.62
203.661	6.66
203.879	29.18
204.098	35.33
204.317	23.04
204.536	41.47
204.755	27.14
204.974	39.42
205.193	0.51
205.411	51.71
205.63	-9.73
205.849	-9.73
206.068	10.75
206.287	-32.26
206.505	104.96
206.724	-1.54
206.943	-54.78
207.162	18.94
207.381	-7.68
207.599	43.52
207.818	43.52
208.037	64
208.255	20.99
208.474	-7.68
208.693	25.09
208.911	-71.17
209.13	4.61
209.349	80.38
209.567	0.51
209.786	23.04
210.005	37.38
210.223	-54.78
210.442	-7.68
210.661	55.81
210.879	53.76
211.098	14.85
211.316	51.71
211.535	-30.21
211.753	-17.92
211.972	39.42
212.191	-36.35
212.409	14.85
212.628	-7.68
212.846	4.61
213.065	43.52
213.283	2.56
213.502	39.42
213.72	12.8
213.938	33.28
214.157	-44.54
214.375	68.09
214.594	20.99
214.812	-22.02
215.031	35.33
215.249	-26.11
215.467	80.38
215.686	-9.73
215.904	10.75
216.122	23.04
216.341	6.66
216.559	25.09
216.778	49.66
216.996	64
217.214	35.33
217.432	61.95
217.651	-17.92
217.869	-48.64
218.087	8.7
218.306	2.56
218.524	-34.3
218.742	-54.78
218.96	49.66
219.179	49.66
219.397	12.8
219.615	94.72
219.833	49.66
220.051	-15.87
220.27	74.24
220.488	27.14
220.706	47.62
220.924	16.9
221.142	29.18
221.36	45.57
221.578	37.38
221.796	20.99
222.015	12.8
222.233	-15.87
222.451	86.53
222.669	23.04
222.887	10.75
223.105	2.56
223.323	31.23
223.541	-30.21
223.759	45.57
223.977	14.85
224.195	92.67
224.413	10.75
224.631	18.94
224.849	33.28
225.067	39.42
225.285	41.47
225.503	-34.3
225.721	-28.16
225.939	64
226.157	0.51
226.375	51.71
226.592	33.28
226.81	-19.97
227.028	35.33
227.246	10.75
227.464	66.05
227.682	66.05
227.9	27.14
228.117	64
228.335	45.57
228.553	41.47
228.771	-48.64
228.989	29.18
229.206	10.75
229.424	55.81
229.642	57.86
229.86	-38.4
230.077	78.33
230.295	25.09
230.513	-19.97
230.731	45.57
230.948	102.91
231.166	64
231.384	-17.92
231.601	8.7
231.819	78.33
232.037	10.75
232.254	31.23
232.472	47.62
232.689	113.15
232.907	-32.26
233.125	115.2
233.342	-17.92
233.56	14.85
233.777	2.56
233.995	-77.31
234.213	88.57
234.43	33.28
234.648	-38.4
234.865	49.66
235.083	33.28
235.3	-1.54
235.518	31.23
235.735	16.9
235.953	121.34
236.17	-44.54
236.388	16.9
236.605	29.18
236.822	61.95
237.04	55.81
237.257	6.66
237.475	-9.73
237.692	23.04
237.909	-1.54
238.127	-15.87
238.344	-52.74
238.562	-17.92
238.779	-52.74
238.996	61.95
239.214	14.85
239.431	33.28
239.648	68.09
239.865	39.42
240.083	12.8
240.3	8.7
240.517	10.75
240.735	12.8
240.952	10.75
241.169	-1.54
241.386	-42.5
241.603	64
241.821	-32.26
242.038	107.01
242.255	14.85
242.472	45.57
242.689	39.42
242.907	31.23
243.124	27.14
243.341	53.76
243.558	-15.87
243.775	31.23
243.992	14.85
244.209	53.76
244.426	84.48
244.643	80.38
244.86	-28.16
245.078	47.62
245.295	31.23
245.512	66.05
245.729	20.99
245.946	55.81
246.163	55.81
246.38	47.62
246.597	25.09
246.814	25.09
247.031	-9.73
247.248	27.14
247.464	53.76
247.681	-15.87
247.898	14.85
248.115	-42.5
248.332	10.75
248.549	53.76
248.766	70.14
248.983	80.38
249.2	27.14
249.417	25.09
249.633	-1.54
249.85	2.56
250.067	51.71
250.284	2.56
250.501	39.42
250.717	-48.64
250.934	4.61
251.151	31.23
251.368	64
251.585	-26.11
251.801	41.47
252.018	16.9
252.235	-13.82
252.451	72.19
252.668	16.9
252.885	20.99
253.102	-9.73
253.318	39.42
253.535	47.62
253.752	51.71
253.968	78.33
254.185	16.9
254.401	47.62
254.618	31.23
254.835	-38.4
255.051	80.38
255.268	47.62
255.484	6.66
255.701	14.85
255.917	0.51
256.134	68.09
256.351	2.56
256.567	-15.87
256.784	27.14
257	20.99
257.217	57.86
257.433	-11.78
257.65	14.85
257.866	14.85
258.082	41.47
258.299	-24.06
258.515	49.66
258.732	59.9
258.948	31.23
259.165	53.76
259.381	43.52
259.597	4.61
259.814	23.04
260.03	49.66
260.246	6.66
260.463	25.09
260.679	-1.54
260.895	-26.11
261.112	16.9
261.328	20.99
261.544	-24.06
261.761	31.23
261.977	-9.73
262.193	8.7
262.409	59.9
262.626	10.75
262.842	0.51
263.058	18.94
263.274	27.14
263.49	25.09
263.707	4.61
263.923	-34.3
264.139	43.52
264.355	-32.26
264.571	0.51
264.787	-48.64
265.004	25.09
265.22	10.75
265.436	12.8
265.652	35.33
265.868	82.43
266.084	-34.3
266.3	137.73
266.516	-30.21
266.732	57.86
266.948	-1.54
267.164	12.8
267.38	31.23
267.596	-1.54
267.812	33.28
268.028	59.9
268.244	72.19
268.46	-1.54
268.676	23.04
268.892	57.86
269.108	37.38
269.324	-11.78
269.54	-71.17
269.756	8.7
269.972	4.61
270.188	-38.4
270.403	23.04
270.619	33.28
270.835	-1.54
271.051	-42.5
271.267	92.67
271.483	78.33
271.698	-13.82
271.914	57.86
272.13	-5.63
272.346	-13.82
272.562	35.33
272.777	64
272.993	115.2
273.209	35.33
273.425	25.09
273.64	-17.92
273.856	8.7
274.072	-11.78
274.287	-54.78
274.503	-17.92
274.719	-58.88
274.934	-1.54
275.15	18.94
275.366	55.81
275.581	41.47
275.797	37.38
276.012	72.19
276.228	-13.82
276.444	29.18
276.659	47.62
276.875	18.94
277.09	-28.16
277.306	-7.68
277.521	4.61
277.737	12.8
277.952	96.77
278.168	23.04
278.383	59.9
278.599	35.33
278.814	66.05
279.03	-19.97
279.245	2.56
279.461	27.14
279.676	37.38
279.892	33.28
280.107	18.94
280.322	35.33
280.538	53.76
280.753	-52.74
280.969	35.33
281.184	57.86
281.399	100.86
281.615	-3.58
281.83	35.33
282.045	-79.36
282.26	68.09
282.476	-42.5
282.691	14.85
282.906	27.14
283.122	39.42
283.337	-24.06
283.552	43.52
283.767	45.57
283.983	-11.78
284.198	6.66
284.413	84.48
284.628	33.28
284.843	16.9
285.058	-60.93
285.274	6.66
285.489	18.94
285.704	47.62
285.919	39.42
286.134	-5.63
286.349	35.33
286.564	0.51
286.779	66.05
286.995	6.66
287.21	12.8
287.425	27.14
287.64	16.9
287.855	41.47
288.07	-5.63
288.285	72.19
288.5	20.99
288.715	-40.45
288.93	31.23
289.145	45.57
289.36	8.7
289.575	20.99
289.79	-15.87
290.004	33.28
290.219	14.85
290.434	10.75
290.649	47.62
290.864	84.48
291.079	-17.92
291.294	-5.63
291.509	-42.5
291.724	12.8
291.938	90.62
292.153	20.99
292.368	35.33
292.583	2.56
292.798	4.61
293.012	45.57
293.227	-1.54
293.442	16.9
293.657	8.7
293.871	33.28
294.086	53.76
294.301	88.57
294.516	45.57
294.73	55.81
294.945	-3.58
295.16	90.62
295.374	76.29
295.589	76.29
295.804	0.51
296.018	43.52
296.233	16.9
296.447	14.85
296.662	-22.02
296.877	107.01
297.091	39.42
297.306	90.62
297.52	4.61
297.735	39.42
297.949	6.66
298.164	39.42
298.378	2.56
298.593	33.28
298.807	-24.06
299.022	88.57
299.236	-28.16
299.451	35.33
299.665	27.14
299.88	-19.97
300.094	31.23
300.309	-38.4
300.523	-58.88
300.737	74.24
300.952	-1.54
301.166	31.23
301.381	-11.78
301.595	29.18
301.809	94.72
302.024	0.51
302.238	-19.97
302.452	12.8
302.667	16.9
302.881	25.09
303.095	43.52
303.309	94.72
303.524	29.18
303.738	2.56
303.952	23.04
304.166	31.23
304.381	-3.58
304.595	39.42
304.809	12.8
305.023	53.76
305.237	41.47
305.452	53.76
305.666	-26.11
305.88	39.42
306.094	14.85
306.308	39.42
306.522	-40.45
306.736	78.33
306.95	-7.68
307.164	27.14
307.379	23.04
307.593	61.95
307.807	37.38
308.021	25.09
308.235	84.48
308.449	12.8
308.663	-7.68
308.877	61.95
309.091	-30.21
309.305	29.18
309.519	0.51
309.733	31.23
309.947	51.71
310.161	-24.06
310.374	53.76
310.588	8.7
310.802	59.9
311.016	41.47
311.23	-1.54
311.444	23.04
311.658	43.52
311.872	2.56
312.085	23.04
312.299	70.14
312.513	37.38
312.727	66.05
312.941	-17.92
313.154	18.94
313.368	66.05
313.582	27.14
313.796	43.52
314.009	0.51
314.223	6.66
314.437	45.57
314.651	49.66
314.864	-58.88
315.078	25.09
315.292	45.57
315.505	-32.26
315.719	-7.68
315.933	57.86
316.146	23.04
316.36	-93.69
316.573	90.62
316.787	0.51
317.001	0.51
317.214	-11.78
317.428	8.7
317.641	6.66
317.855	-34.3
318.068	-36.35
318.282	25.09
318.495	29.18
318.709	-7.68
318.922	2.56
319.136	82.43
319.349	66.05
319.563	61.95
319.776	14.85
319.99	10.75
320.203	51.71
320.417	61.95
320.63	8.7
320.843	113.15
321.057	4.61
321.27	53.76
321.483	23.04
321.697	29.18
321.91	39.42
322.124	96.77
322.337	-38.4
322.55	80.38
322.763	41.47
322.977	-1.54
323.19	-5.63
323.403	35.33
323.617	23.04
323.83	55.81
324.043	-28.16
324.256	16.9
324.469	-46.59
324.683	37.38
324.896	39.42
325.109	-3.58
325.322	-17.92
325.535	49.66
325.748	66.05
325.962	41.47
326.175	14.85
326.388	39.42
326.601	92.67
326.814	31.23
327.027	33.28
327.24	29.18
327.453	-15.87
327.666	80.38
327.879	-1.54
328.092	10.75
328.305	68.09
328.518	16.9
328.731	-7.68
328.944	-1.54
329.157	14.85
329.37	59.9
329.583	23.04
329.796	2.56
330.009	10.75
330.222	49.66
330.435	64
330.648	41.47
330.861	16.9
331.073	94.72
331.286	57.86
331.499	14.85
331.712	-44.54
331.925	43.52
332.138	31.23
332.35	57.86
332.563	82.43
332.776	57.86
332.989	37.38
333.202	74.24
333.414	0.51
333.627	43.52
333.84	45.57
334.053	41.47
334.265	133.63
334.478	55.81
334.691	23.04
334.903	23.04
335.116	-1.54
335.329	49.66
335.541	88.57
335.754	47.62
335.966	39.42
336.179	37.38
336.392	20.99
336.604	45.57
336.817	55.81
337.029	27.14
337.242	4.61
337.454	41.47
337.667	-1.54
337.88	66.05
338.092	41.47
338.305	43.52
338.517	41.47
338.729	49.66
338.942	82.43
339.154	12.8
339.367	-17.92
339.579	47.62
339.792	23.04
340.004	41.47
340.217	64
340.429	29.18
340.641	16.9
340.854	0.51
341.066	-9.73
341.278	31.23
341.491	25.09
341.703	-1.54
341.915	37.38
342.128	41.47
342.34	31.23
342.552	25.09
342.764	-28.16
342.977	55.81
343.189	80.38
343.401	14.85
343.613	90.62
343.826	31.23
344.038	-3.58
344.25	2.56
344.462	31.23
344.674	4.61
344.886	4.61
345.099	70.14
345.311	-17.92
345.523	-22.02
345.735	29.18
345.947	111.1
346.159	4.61
346.371	82.43
346.583	29.18
346.795	51.71
347.007	2.56
347.219	80.38
347.431	31.23
347.643	23.04
347.855	-50.69
348.067	47.62
348.279	47.62
348.491	18.94
348.703	23.04
348.915	61.95
349.127	-5.63
349.339	100.86
349.551	-13.82
349.763	49.66
349.975	-22.02
350.187	59.9
350.399	66.05
350.61	66.05
350.822	0.51
351.034	59.9
351.246	8.7
351.458	18.94
351.669	-22.02
351.881	86.53
352.093	-42.5
352.305	37.38
352.517	8.7
352.728	47.62
352.94	23.04
353.152	70.14
353.363	35.33
353.575	59.9
353.787	82.43
353.999	57.86
354.21	2.56
354.422	129.53
354.633	31.23
354.845	90.62
355.057	84.48
355.268	10.75
355.48	66.05
355.692	8.7
355.903	76.29
356.115	14.85
356.326	-42.5
356.538	88.57
356.749	6.66
356.961	57.86
357.172	23.04
357.384	39.42
357.595	41.47
357.807	78.33
358.018	70.14
358.23	121.34
358.441	107.01
358.653	-19.97
358.864	72.19
359.075	68.09
359.287	-1.54
359.498	88.57
359.709	39.42
359.921	-1.54
360.132	86.53
360.344	96.77
360.555	33.28
360.766	14.85
360.977	-48.64
361.189	51.71
361.4	66.05
361.611	113.15
361.823	-36.35
362.034	10.75
362.245	49.66
362.456	14.85
362.667	92.67
362.879	43.52
363.09	37.38
363.301	33.28
363.512	43.52
363.723	-17.92
363.935	82.43
364.146	51.71
364.357	31.23
364.568	39.42
364.779	23.04
364.99	74.24
365.201	10.75
365.412	-5.63
365.623	-67.07
365.834	18.94
366.045	-17.92
366.256	82.43
366.467	-42.5
366.678	18.94
366.889	35.33
367.1	33.28
367.311	47.62
367.522	88.57
367.733	16.9
367.944	39.42
368.155	-32.26
368.366	-15.87
368.577	68.09
368.788	25.09
368.999	43.52
369.209	12.8
369.42	20.99
369.631	39.42
369.842	84.48
370.053	57.86
370.264	64
370.474	31.23
370.685	23.04
370.896	102.91
371.107	90.62
371.317	57.86
371.528	-9.73
371.739	14.85
371.95	8.7
372.16	76.29
372.371	-34.3
372.582	29.18
372.792	51.71
373.003	64
373.214	64
373.424	82.43
373.635	10.75
373.846	96.77
374.056	23.04
374.267	39.42
374.477	74.24
374.688	2.56
374.898	39.42
375.109	61.95
375.319	31.23
375.53	-11.78
375.74	20.99
375.951	53.76
376.161	14.85
376.372	68.09
376.582	-13.82
376.793	57.86
377.003	51.71
377.214	-5.63
377.424	72.19
377.635	57.86
377.845	0.51
378.055	47.62
378.266	39.42
378.476	76.29
378.686	47.62
378.897	27.14
379.107	100.86
379.317	88.57
379.528	35.33
379.738	66.05
379.948	-40.45
380.158	47.62
380.369	12.8
380.579	53.76
380.789	12.8
380.999	31.23
381.21	45.57
381.42	39.42
381.63	-7.68
381.84	18.94
382.05	45.57
382.261	39.42
382.471	57.86
382.681	4.61
382.891	129.53
383.101	57.86
383.311	-9.73
383.521	55.81
383.731	45.57
383.941	74.24
384.151	74.24
384.361	47.62
384.571	29.18
384.781	10.75
384.991	16.9
385.201	55.81
385.411	25.09
385.621	4.61
385.831	-40.45
386.041	14.85
386.251	55.81
386.461	66.05
386.671	-3.58
386.881	39.42
387.091	-13.82
387.301	31.23
387.511	57.86
387.72	8.7
387.93	20.99
388.14	-22.02
388.35	23.04
388.56	80.38
388.769	41.47
388.979	4.61
389.189	57.86
389.399	59.9
389.609	-5.63
389.818	80.38
390.028	72.19
390.238	76.29
390.447	-11.78
390.657	35.33
390.867	37.38
391.076	78.33
391.286	88.57
391.496	37.38
391.705	0.51
391.915	39.42
392.125	4.61
392.334	-15.87
392.544	-17.92
392.753	18.94
392.963	29.18
393.172	-22.02
393.382	70.14
393.591	47.62
393.801	55.81
394.01	16.9
394.22	47.62
394.429	14.85
394.639	-15.87
394.848	74.24
395.058	25.09
395.267	90.62
395.477	57.86
395.686	94.72
395.895	88.57
396.105	80.38
396.314	39.42
396.524	94.72
396.733	57.86
396.942	88.57
397.152	72.19
397.361	68.09
397.57	115.2
397.78	66.05
397.989	53.76
398.198	125.44
398.407	98.81
398.617	82.43
398.826	74.24
399.035	49.66
399.244	76.29
399.453	47.62
399.663	84.48
399.872	66.05
400.081	86.53
400.29	55.81
400.499	43.52
400.708	74.24
400.917	74.24
401.127	96.77
401.336	12.8
401.545	80.38
401.754	72.19
401.963	18.94
402.172	139.77
402.381	135.68
402.59	55.81
402.799	68.09
403.008	70.14
403.217	61.95
403.426	45.57
403.635	12.8
403.844	70.14
404.053	64
404.262	129.53
404.471	143.87
404.68	96.77
404.888	150.01
405.097	18.94
405.306	107.01
405.515	131.58
405.724	123.39
405.933	154.11
406.142	61.95
406.35	145.92
406.559	133.63
406.768	121.34
406.977	123.39
407.185	170.49
407.394	162.3
407.603	111.1
407.812	78.33
408.02	211.45
408.229	203.26
408.438	107.01
408.646	129.53
408.855	160.25
409.064	98.81
409.272	174.59
409.481	180.73
409.69	121.34
409.898	272.89
410.107	236.03
410.315	236.03
410.524	197.12
410.733	285.18
410.941	258.56
411.15	201.21
411.358	332.28
411.567	160.25
411.775	195.07
411.984	254.46
412.192	236.03
412.401	195.07
412.609	258.56
412.818	297.47
413.026	252.41
413.234	305.66
413.443	332.28
413.651	279.04
413.86	328.19
414.068	266.75
414.276	352.76
414.485	408.06
414.693	350.71
414.901	424.44
415.11	377.34
415.318	410.11
415.526	336.38
415.734	420.35
415.943	373.24
416.151	446.97
416.359	489.98
416.567	506.36
416.776	535.03
416.984	535.03
417.192	541.18
417.4	557.56
417.608	561.66
417.817	637.43
418.025	745.97
418.233	600.57
418.441	657.91
418.649	649.72
418.857	739.83
419.065	670.2
419.273	754.16
419.481	874.99
419.689	852.47
419.897	766.45
420.105	776.69
420.313	809.46
420.521	854.51
420.729	1020.4
420.937	985.58
421.145	973.3
421.353	1114.61
421.561	1083.89
421.769	1116.65
421.977	1198.57
422.185	1165.81
422.393	1200.62
422.601	1233.39
422.809	1290.73
423.017	1321.45
423.224	1292.78
423.432	1378.79
423.64	1454.57
423.848	1532.39
424.056	1391.08
424.263	1526.25
424.471	1685.99
424.679	1688.04
424.887	1688.04
425.094	1833.44
425.302	1808.87
425.51	1884.64
425.718	1915.36
425.925	1837.54
426.133	2060.77
426.341	2193.89
426.548	2322.91
426.756	2165.21
426.964	2300.38
427.171	2367.96
427.379	2410.97
427.586	2415.07
427.794	2535.9
428.001	2767.32
428.209	2785.75
428.417	2712.02
428.624	2859.48
428.832	2984.4
429.039	2890.2
429.247	2804.18
429.454	3271.12
429.662	3398.09
429.869	3121.62
430.076	3447.24
430.284	3295.69
430.491	3443.15
430.699	3815.88
430.906	3510.73
431.114	3668.42
431.321	3762.63
431.528	3932.61
431.736	4047.3
431.943	4227.52
432.15	4219.33
432.358	4202.94
432.565	4487.61
432.772	4530.62
432.979	4833.72
433.187	4686.26
433.394	4747.7
433.601	5128.63
433.808	5071.28
434.016	5147.06
434.223	5466.54
434.43	5798.31
434.637	5552.56
434.844	5853.61
435.052	6101.41
435.259	5872.04
435.466	6128.03
435.673	6031.78
435.88	6322.59
436.087	6734.23
436.294	6734.23
436.501	6519.2
436.708	6723.99
436.915	6779.29
437.122	7149.97
437.329	7145.87
437.537	7475.6
437.743	7508.37
437.95	7444.88
438.157	7815.56
438.364	8204.67
438.571	8102.28
438.778	8294.79
438.985	9091.45
439.192	8507.77
439.399	8821.11
439.606	8644.99
439.813	9142.64
440.02	9679.21
440.227	9697.64
440.433	9580.91
440.64	9750.89
440.847	9859.43
441.054	9982.31
441.261	10703.2
441.467	10453.34
441.674	10758.49
441.881	11186.52
442.088	11075.93
442.294	10948.95
442.501	11487.57
442.708	11516.24
442.914	12073.29
443.121	12482.88
443.328	12101.96
443.534	13218.1
443.741	12476.74
443.948	12480.83
444.154	13277.49
444.361	13564.21
444.568	13566.26
444.774	13285.69
444.981	13660.46
445.187	14063.91
445.394	14717.22
445.6	14256.42
445.807	16124.17
446.013	14981.4
446.22	15544.59
446.426	16072.97
446.633	16132.36
446.839	16689.41
447.046	16075.02
447.252	17025.28
447.459	16894.21
447.665	17015.04
447.871	17846.51
448.078	18487.53
448.284	17570.04
448.491	17940.72
448.697	18759.91
448.903	19097.82
449.11	19278.04
449.316	19128.54
449.522	19488.98
449.728	19744.98
449.935	19921.1
450.141	20166.86
450.347	20359.37
450.553	20027.6
450.76	20173
450.966	20793.54
451.172	20598.98
451.378	21055.68
451.584	20539.59
451.791	21133.5
451.997	21289.15
452.203	21592.25
452.409	21584.05
452.615	21545.14
452.821	20625.61
453.027	20496.58
453.233	21539
453.44	20650.18
453.646	21233.85
453.852	21074.11
454.058	21487.8
454.264	20840.64
454.47	21045.44
454.676	20859.07
454.882	21698.74
455.088	19472.6
455.294	19994.83
455.5	20150.48
455.705	20187.34
455.911	19859.66
456.117	19519.7
456.323	18985.18
456.529	18145.52
456.735	18716.9
456.941	18075.88
457.147	17854.7
457.352	17484.02
457.558	17094.91
457.764	17330.42
457.97	16890.11
458.176	16580.87
458.381	16662.79
458.587	15927.56
458.793	15970.57
458.999	14981.4
459.204	16124.17
459.41	15716.62
459.616	14616.86
459.821	14592.29
460.027	14549.28
460.233	14117.16
460.438	13715.76
460.644	13678.9
460.85	12990.78
461.055	12843.32
461.261	12765.5
461.466	11831.63
461.672	11567.44
461.878	12386.63
462.083	11647.31
462.289	11460.95
462.494	11383.12
462.7	10678.62
462.905	10402.15
463.111	10729.82
463.316	10975.58
463.522	10502.5
463.727	10568.03
463.932	10600.8
464.138	10344.8
464.343	10545.5
464.549	10203.49
464.754	10176.87
464.959	10502.5
465.165	10342.75
465.37	10010.98
465.575	9693.55
465.781	10101.09
465.986	10199.4
466.191	9654.64
466.397	9601.39
466.602	8956.28
466.807	9599.34
467.012	9568.62
467.218	9615.73
467.423	9384.3
467.628	9421.17
467.833	9791.85
468.038	9451.89
468.244	9265.52
468.449	9617.77
468.654	9312.63
468.859	9120.12
469.064	9111.92
469.269	8706.43
469.474	8767.87
469.679	9105.78
