Data from USB4F104151__25__12-58-39-269.txt Node

Date: Fri Mar 14 12:58:39 EDT 2025
User: louis
Spectrometer: USB4F10415
Trigger mode: 4
Integration Time (sec): 1.000000E-2
Scans to average: 1
Electric dark correction enabled: true
Nonlinearity correction enabled: false
Boxcar width: 0
XAxis mode: Wavelengths
Number of Pixels in Spectrum: 3648
>>>>>Begin Spectral Data<<<<<
178.204	-15.87
178.424	-15.87
178.644	-15.87
178.864	-22.02
179.084	4.61
179.304	-24.06
179.524	-19.97
179.744	-30.21
179.964	68.09
180.184	-42.5
180.404	-1.54
180.624	33.28
180.844	29.18
181.064	6.66
181.283	4.61
181.503	-19.97
181.723	-3.58
181.943	-42.5
182.163	-19.97
182.383	-3.58
182.602	78.33
182.822	45.57
183.042	111.1
183.262	-52.74
183.482	55.81
183.701	57.86
183.921	6.66
184.141	-17.92
184.361	-3.58
184.58	-15.87
184.8	55.81
185.02	14.85
185.239	72.19
185.459	45.57
185.679	53.76
185.898	-5.63
186.118	111.1
186.338	14.85
186.557	66.05
186.777	72.19
186.997	43.52
187.216	33.28
187.436	100.86
187.655	-3.58
187.875	33.28
188.095	-38.4
188.314	68.09
188.534	18.94
188.753	41.47
188.973	55.81
189.192	14.85
189.412	16.9
189.631	43.52
189.851	70.14
190.07	-7.68
190.29	41.47
190.509	70.14
190.729	16.9
190.948	16.9
191.168	25.09
191.387	78.33
191.607	-1.54
191.826	-19.97
192.045	37.38
192.265	-19.97
192.484	12.8
192.704	12.8
192.923	39.42
193.142	88.57
193.362	33.28
193.581	86.53
193.8	53.76
194.02	57.86
194.239	59.9
194.458	4.61
194.678	57.86
194.897	23.04
195.116	0.51
195.335	51.71
195.555	84.48
195.774	68.09
195.993	92.67
196.212	53.76
196.432	119.29
196.651	25.09
196.87	23.04
197.089	-11.78
197.308	68.09
197.528	53.76
197.747	35.33
197.966	29.18
198.185	80.38
198.404	4.61
198.623	29.18
198.842	-24.06
199.062	-3.58
199.281	53.76
199.5	55.81
199.719	-1.54
199.938	-19.97
200.157	47.62
200.376	-46.59
200.595	49.66
200.814	31.23
201.033	39.42
201.252	-17.92
201.471	49.66
201.69	70.14
201.909	70.14
202.128	111.1
202.347	10.75
202.566	0.51
202.785	33.28
203.004	25.09
203.223	45.57
203.442	20.99
203.661	49.66
203.879	64
204.098	92.67
204.317	-7.68
204.536	-9.73
204.755	41.47
204.974	78.33
205.193	27.14
205.411	76.29
205.63	2.56
205.849	23.04
206.068	96.77
206.287	35.33
206.505	12.8
206.724	31.23
206.943	45.57
207.162	47.62
207.381	47.62
207.599	-5.63
207.818	109.05
208.037	12.8
208.255	-36.35
208.474	29.18
208.693	-3.58
208.911	94.72
209.13	10.75
209.349	43.52
209.567	68.09
209.786	43.52
210.005	8.7
210.223	25.09
210.442	-44.54
210.661	78.33
210.879	55.81
211.098	70.14
211.316	-24.06
211.535	37.38
211.753	88.57
211.972	43.52
212.191	61.95
212.409	53.76
212.628	59.9
212.846	61.95
213.065	4.61
213.283	53.76
213.502	84.48
213.72	61.95
213.938	82.43
214.157	45.57
214.375	23.04
214.594	-28.16
214.812	-3.58
215.031	39.42
215.249	47.62
215.467	-22.02
215.686	70.14
215.904	29.18
216.122	-19.97
216.341	-13.82
216.559	20.99
216.778	31.23
216.996	131.58
217.214	27.14
217.432	59.9
217.651	20.99
217.869	39.42
218.087	20.99
218.306	49.66
218.524	39.42
218.742	10.75
218.96	39.42
219.179	-28.16
219.397	14.85
219.615	12.8
219.833	-11.78
220.051	-32.26
220.27	16.9
220.488	47.62
220.706	80.38
220.924	-1.54
221.142	37.38
221.36	-32.26
221.578	6.66
221.796	23.04
222.015	96.77
222.233	51.71
222.451	61.95
222.669	-11.78
222.887	84.48
223.105	-48.64
223.323	39.42
223.541	-19.97
223.759	59.9
223.977	-11.78
224.195	104.96
224.413	86.53
224.631	8.7
224.849	53.76
225.067	33.28
225.285	-36.35
225.503	76.29
225.721	23.04
225.939	-9.73
226.157	25.09
226.375	55.81
226.592	33.28
226.81	33.28
227.028	12.8
227.246	16.9
227.464	41.47
227.682	51.71
227.9	-13.82
228.117	20.99
228.335	6.66
228.553	111.1
228.771	10.75
228.989	111.1
229.206	41.47
229.424	47.62
229.642	66.05
229.86	41.47
230.077	66.05
230.295	29.18
230.513	53.76
230.731	37.38
230.948	92.67
231.166	64
231.384	33.28
231.601	39.42
231.819	39.42
232.037	8.7
232.254	-5.63
232.472	4.61
232.689	86.53
232.907	72.19
233.125	53.76
233.342	45.57
233.56	57.86
233.777	80.38
233.995	39.42
234.213	18.94
234.43	84.48
234.648	94.72
234.865	-34.3
235.083	94.72
235.3	12.8
235.518	-15.87
235.735	49.66
235.953	8.7
236.17	64
236.388	16.9
236.605	16.9
236.822	84.48
237.04	49.66
237.257	88.57
237.475	18.94
237.692	39.42
237.909	51.71
238.127	29.18
238.344	92.67
238.562	39.42
238.779	-9.73
238.996	104.96
239.214	12.8
239.431	37.38
239.648	74.24
239.865	29.18
240.083	37.38
240.3	49.66
240.517	41.47
240.735	39.42
240.952	53.76
241.169	86.53
241.386	47.62
241.603	-7.68
241.821	37.38
242.038	88.57
242.255	64
242.472	-1.54
242.689	10.75
242.907	68.09
243.124	80.38
243.341	39.42
243.558	47.62
243.775	33.28
243.992	20.99
244.209	61.95
244.426	76.29
244.643	8.7
244.86	-52.74
245.078	4.61
245.295	31.23
245.512	47.62
245.729	-9.73
245.946	29.18
246.163	45.57
246.38	47.62
246.597	-36.35
246.814	33.28
247.031	98.81
247.248	29.18
247.464	78.33
247.681	33.28
247.898	16.9
248.115	12.8
248.332	12.8
248.549	14.85
248.766	35.33
248.983	84.48
249.2	45.57
249.417	119.29
249.633	-30.21
249.85	47.62
250.067	45.57
250.284	53.76
250.501	4.61
250.717	86.53
250.934	-3.58
251.151	10.75
251.368	84.48
251.585	23.04
251.801	35.33
252.018	-22.02
252.235	29.18
252.451	-22.02
252.668	12.8
252.885	29.18
253.102	72.19
253.318	-26.11
253.535	-1.54
253.752	55.81
253.968	2.56
254.185	55.81
254.401	-19.97
254.618	80.38
254.835	14.85
255.051	45.57
255.268	70.14
255.484	72.19
255.701	-1.54
255.917	51.71
256.134	20.99
256.351	31.23
256.567	6.66
256.784	76.29
257	51.71
257.217	90.62
257.433	-3.58
257.65	82.43
257.866	84.48
258.082	12.8
258.299	35.33
258.515	61.95
258.732	23.04
258.948	-3.58
259.165	25.09
259.381	90.62
259.597	64
259.814	78.33
260.03	49.66
260.246	31.23
260.463	111.1
260.679	29.18
260.895	37.38
261.112	82.43
261.328	64
261.544	37.38
261.761	23.04
261.977	47.62
262.193	45.57
262.409	57.86
262.626	51.71
262.842	12.8
263.058	47.62
263.274	66.05
263.49	27.14
263.707	78.33
263.923	27.14
264.139	61.95
264.355	-28.16
264.571	72.19
264.787	-22.02
265.004	53.76
265.22	18.94
265.436	10.75
265.652	-30.21
265.868	51.71
266.084	12.8
266.3	-7.68
266.516	31.23
266.732	129.53
266.948	129.53
267.164	-26.11
267.38	23.04
267.596	23.04
267.812	37.38
268.028	68.09
268.244	-40.45
268.46	61.95
268.676	49.66
268.892	31.23
269.108	43.52
269.324	-42.5
269.54	41.47
269.756	-3.58
269.972	4.61
270.188	39.42
270.403	2.56
270.619	-3.58
270.835	66.05
271.051	45.57
271.267	-40.45
271.483	45.57
271.698	70.14
271.914	66.05
272.13	39.42
272.346	76.29
272.562	-22.02
272.777	76.29
272.993	23.04
273.209	27.14
273.425	86.53
273.64	-3.58
273.856	2.56
274.072	-28.16
274.287	-9.73
274.503	96.77
274.719	23.04
274.934	61.95
275.15	-7.68
275.366	55.81
275.581	16.9
275.797	29.18
276.012	41.47
276.228	61.95
276.444	-1.54
276.659	-1.54
276.875	33.28
277.09	86.53
277.306	-9.73
277.521	68.09
277.737	55.81
277.952	119.29
278.168	-5.63
278.383	53.76
278.599	41.47
278.814	25.09
279.03	49.66
279.245	104.96
279.461	-5.63
279.676	49.66
279.892	98.81
280.107	14.85
280.322	-9.73
280.538	55.81
280.753	-9.73
280.969	33.28
281.184	23.04
281.399	129.53
281.615	-30.21
281.83	64
282.045	-38.4
282.26	-9.73
282.476	20.99
282.691	66.05
282.906	-7.68
283.122	23.04
283.337	45.57
283.552	41.47
283.767	-15.87
283.983	61.95
284.198	39.42
284.413	55.81
284.628	41.47
284.843	14.85
285.058	47.62
285.274	37.38
285.489	6.66
285.704	43.52
285.919	70.14
286.134	29.18
286.349	59.9
286.564	119.29
286.779	6.66
286.995	64
287.21	49.66
287.425	96.77
287.64	66.05
287.855	41.47
288.07	12.8
288.285	53.76
288.5	-7.68
288.715	14.85
288.93	8.7
289.145	8.7
289.36	43.52
289.575	45.57
289.79	35.33
290.004	25.09
290.219	12.8
290.434	55.81
290.649	72.19
290.864	61.95
291.079	-26.11
291.294	12.8
291.509	41.47
291.724	66.05
291.938	31.23
292.153	39.42
292.368	20.99
292.583	2.56
292.798	41.47
293.012	-1.54
293.227	29.18
293.442	4.61
293.657	35.33
293.871	6.66
294.086	88.57
294.301	29.18
294.516	-26.11
294.73	39.42
294.945	6.66
295.16	20.99
295.374	57.86
295.589	-58.88
295.804	14.85
296.018	119.29
296.233	115.2
296.447	45.57
296.662	-13.82
296.877	64
297.091	70.14
297.306	-19.97
297.52	94.72
297.735	16.9
297.949	-22.02
298.164	92.67
298.378	64
298.593	78.33
298.807	37.38
299.022	20.99
299.236	31.23
299.451	16.9
299.665	4.61
299.88	47.62
300.094	76.29
300.309	-54.78
300.523	16.9
300.737	68.09
300.952	53.76
301.166	74.24
301.381	61.95
301.595	-9.73
301.809	20.99
302.024	23.04
302.238	31.23
302.452	55.81
302.667	-7.68
302.881	53.76
303.095	74.24
303.309	53.76
303.524	-32.26
303.738	-1.54
303.952	31.23
304.166	6.66
304.381	29.18
304.595	14.85
304.809	14.85
305.023	8.7
305.237	43.52
305.452	6.66
305.666	-3.58
305.88	59.9
306.094	72.19
306.308	55.81
306.522	70.14
306.736	59.9
306.95	66.05
307.164	49.66
307.379	68.09
307.593	66.05
307.807	18.94
308.021	82.43
308.235	102.91
308.449	23.04
308.663	20.99
308.877	98.81
309.091	90.62
309.305	39.42
309.519	41.47
309.733	37.38
309.947	117.25
310.161	98.81
310.374	23.04
310.588	49.66
310.802	53.76
311.016	39.42
311.23	14.85
311.444	16.9
311.658	80.38
311.872	68.09
312.085	6.66
312.299	6.66
312.513	72.19
312.727	61.95
312.941	64
313.154	86.53
313.368	-15.87
313.582	14.85
313.796	82.43
314.009	2.56
314.223	84.48
314.437	143.87
314.651	4.61
314.864	74.24
315.078	41.47
315.292	-30.21
315.505	-38.4
315.719	39.42
315.933	23.04
316.146	55.81
316.36	-24.06
316.573	37.38
316.787	68.09
317.001	78.33
317.214	8.7
317.428	45.57
317.641	-1.54
317.855	53.76
318.068	57.86
318.282	96.77
318.495	33.28
318.709	12.8
318.922	35.33
319.136	6.66
319.349	-9.73
319.563	0.51
319.776	2.56
319.99	47.62
320.203	20.99
320.417	-1.54
320.63	-19.97
320.843	33.28
321.057	31.23
321.27	47.62
321.483	-5.63
321.697	47.62
321.91	78.33
322.124	86.53
322.337	41.47
322.55	12.8
322.763	88.57
322.977	6.66
323.19	-5.63
323.403	43.52
323.617	92.67
323.83	27.14
324.043	12.8
324.256	37.38
324.469	57.86
324.683	37.38
324.896	-13.82
325.109	16.9
325.322	27.14
325.535	92.67
325.748	43.52
325.962	102.91
326.175	39.42
326.388	37.38
326.601	61.95
326.814	45.57
327.027	92.67
327.24	96.77
327.453	64
327.666	45.57
327.879	94.72
328.092	49.66
328.305	55.81
328.518	4.61
328.731	86.53
328.944	102.91
329.157	-38.4
329.37	78.33
329.583	102.91
329.796	47.62
330.009	86.53
330.222	61.95
330.435	80.38
330.648	59.9
330.861	33.28
331.073	53.76
331.286	109.05
331.499	47.62
331.712	55.81
331.925	68.09
332.138	29.18
332.35	70.14
332.563	61.95
332.776	55.81
332.989	-30.21
333.202	-30.21
333.414	78.33
333.627	64
333.84	49.66
334.053	29.18
334.265	84.48
334.478	61.95
334.691	-11.78
334.903	41.47
335.116	47.62
335.329	111.1
335.541	-28.16
335.754	27.14
335.966	82.43
336.179	10.75
336.392	23.04
336.604	135.68
336.817	61.95
337.029	14.85
337.242	-32.26
337.454	68.09
337.667	-3.58
337.88	25.09
338.092	6.66
338.305	53.76
338.517	25.09
338.729	86.53
338.942	29.18
339.154	41.47
339.367	37.38
339.579	53.76
339.792	37.38
340.004	64
340.217	43.52
340.429	20.99
340.641	72.19
340.854	61.95
341.066	43.52
341.278	27.14
341.491	23.04
341.703	119.29
341.915	115.2
342.128	82.43
342.34	92.67
342.552	18.94
342.764	41.47
342.977	4.61
343.189	0.51
343.401	6.66
343.613	23.04
343.826	43.52
344.038	-11.78
344.25	25.09
344.462	29.18
344.674	94.72
344.886	72.19
345.099	84.48
345.311	8.7
345.523	20.99
345.735	61.95
345.947	-3.58
346.159	-17.92
346.371	47.62
346.583	-5.63
346.795	45.57
347.007	113.15
347.219	2.56
347.431	29.18
347.643	109.05
347.855	66.05
348.067	78.33
348.279	51.71
348.491	-9.73
348.703	2.56
348.915	66.05
349.127	29.18
349.339	29.18
349.551	6.66
349.763	137.73
349.975	82.43
350.187	92.67
350.399	92.67
350.61	-26.11
350.822	45.57
351.034	88.57
351.246	33.28
351.458	86.53
351.669	98.81
351.881	6.66
352.093	-30.21
352.305	61.95
352.517	45.57
352.728	127.49
352.94	111.1
353.152	23.04
353.363	74.24
353.575	45.57
353.787	90.62
353.999	45.57
354.21	53.76
354.422	16.9
354.633	23.04
354.845	8.7
355.057	104.96
355.268	74.24
355.48	59.9
355.692	59.9
355.903	41.47
356.115	68.09
356.326	45.57
356.538	55.81
356.749	51.71
356.961	45.57
357.172	20.99
357.384	55.81
357.595	61.95
357.807	16.9
358.018	72.19
358.23	61.95
358.441	78.33
358.653	47.62
358.864	2.56
359.075	98.81
359.287	53.76
359.498	-5.63
359.709	47.62
359.921	8.7
360.132	88.57
360.344	4.61
360.555	29.18
360.766	20.99
360.977	6.66
361.189	80.38
361.4	-3.58
361.611	113.15
361.823	68.09
362.034	66.05
362.245	86.53
362.456	145.92
362.667	100.86
362.879	59.9
363.09	115.2
363.301	64
363.512	113.15
363.723	37.38
363.935	29.18
364.146	66.05
364.357	84.48
364.568	-24.06
364.779	10.75
364.99	119.29
365.201	68.09
365.412	20.99
365.623	51.71
365.834	55.81
366.045	78.33
366.256	-5.63
366.467	55.81
366.678	64
366.889	20.99
367.1	35.33
367.311	61.95
367.522	61.95
367.733	70.14
367.944	2.56
368.155	16.9
368.366	96.77
368.577	61.95
368.788	57.86
368.999	45.57
369.209	10.75
369.42	117.25
369.631	92.67
369.842	94.72
370.053	68.09
370.264	61.95
370.474	25.09
370.685	57.86
370.896	39.42
371.107	31.23
371.317	123.39
371.528	27.14
371.739	74.24
371.95	18.94
372.16	49.66
372.371	55.81
372.582	66.05
372.792	-11.78
373.003	115.2
373.214	4.61
373.424	49.66
373.635	31.23
373.846	98.81
374.056	49.66
374.267	55.81
374.477	133.63
374.688	82.43
374.898	39.42
375.109	35.33
375.319	6.66
375.53	96.77
375.74	86.53
375.951	55.81
376.161	41.47
376.372	84.48
376.582	20.99
376.793	80.38
377.003	45.57
377.214	57.86
377.424	29.18
377.635	88.57
377.845	2.56
378.055	68.09
378.266	86.53
378.476	92.67
378.686	-9.73
378.897	70.14
379.107	92.67
379.317	119.29
379.528	39.42
379.738	23.04
379.948	82.43
380.158	-28.16
380.369	74.24
380.579	51.71
380.789	59.9
380.999	33.28
381.21	14.85
381.42	59.9
381.63	66.05
381.84	61.95
382.05	76.29
382.261	145.92
382.471	27.14
382.681	80.38
382.891	12.8
383.101	16.9
383.311	64
383.521	47.62
383.731	82.43
383.941	80.38
384.151	41.47
384.361	47.62
384.571	70.14
384.781	80.38
384.991	6.66
385.201	53.76
385.411	102.91
385.621	-15.87
385.831	45.57
386.041	33.28
386.251	12.8
386.461	74.24
386.671	-44.54
386.881	55.81
387.091	8.7
387.301	80.38
387.511	76.29
387.72	-19.97
387.93	29.18
388.14	20.99
388.35	16.9
388.56	80.38
388.769	51.71
388.979	29.18
389.189	80.38
389.399	117.25
389.609	29.18
389.818	29.18
390.028	-7.68
390.238	115.2
390.447	92.67
390.657	78.33
390.867	117.25
391.076	61.95
391.286	55.81
391.496	61.95
391.705	14.85
391.915	92.67
392.125	61.95
392.334	76.29
392.544	78.33
392.753	61.95
392.963	78.33
393.172	72.19
393.382	45.57
393.591	86.53
393.801	0.51
394.01	92.67
394.22	131.58
394.429	18.94
394.639	82.43
394.848	86.53
395.058	102.91
395.267	72.19
395.477	80.38
395.686	84.48
395.895	129.53
396.105	66.05
396.314	129.53
396.524	23.04
396.733	4.61
396.942	47.62
397.152	92.67
397.361	102.91
397.57	53.76
397.78	68.09
397.989	131.58
398.198	127.49
398.407	80.38
398.617	107.01
398.826	164.35
399.035	31.23
399.244	123.39
399.453	57.86
399.663	61.95
399.872	104.96
400.081	76.29
400.29	66.05
400.499	92.67
400.708	176.64
400.917	154.11
401.127	0.51
401.336	109.05
401.545	154.11
401.754	115.2
401.963	115.2
402.172	57.86
402.381	107.01
402.59	72.19
402.799	31.23
403.008	51.71
403.217	178.69
403.426	145.92
403.635	215.55
403.844	70.14
404.053	123.39
404.262	123.39
404.471	160.25
404.68	88.57
404.888	141.82
405.097	90.62
405.306	86.53
405.515	123.39
405.724	131.58
405.933	133.63
406.142	117.25
406.35	139.77
406.559	111.1
406.768	119.29
406.977	203.26
407.185	127.49
407.394	115.2
407.603	98.81
407.812	168.45
408.02	139.77
408.229	145.92
408.438	152.06
408.646	156.16
408.855	121.34
409.064	145.92
409.272	233.98
409.481	195.07
409.69	168.45
409.898	182.78
410.107	227.84
410.315	197.12
410.524	248.32
410.733	209.4
410.941	203.26
411.15	248.32
411.358	188.93
411.567	223.74
411.775	238.08
411.984	229.88
412.192	254.46
412.401	367.1
412.609	283.13
412.818	303.61
413.026	338.43
413.234	291.32
413.443	346.62
413.651	328.19
413.86	338.43
414.068	387.58
414.276	354.81
414.485	418.3
414.693	401.91
414.901	401.91
415.11	428.54
415.318	434.68
415.526	475.64
415.734	489.98
415.943	481.78
416.151	483.83
416.359	489.98
416.567	506.36
416.776	621.05
416.984	592.37
417.192	565.75
417.4	619
417.608	530.94
417.817	662.01
418.025	608.76
418.233	696.82
418.441	684.53
418.649	731.64
418.857	770.55
419.065	805.36
419.273	817.65
419.481	913.91
419.689	817.65
419.897	967.15
420.105	887.28
420.313	868.85
420.521	905.71
420.729	952.82
420.937	952.82
421.145	924.15
421.353	1094.13
421.561	1255.92
421.769	1174
421.977	1184.24
422.185	1225.2
422.393	1233.39
422.601	1327.6
422.809	1348.08
423.017	1378.79
423.224	1356.27
423.432	1372.65
423.64	1448.43
423.848	1636.84
424.056	1524.2
424.263	1710.57
424.471	1663.46
424.679	1714.66
424.887	1843.68
425.094	1864.16
425.302	1853.92
425.51	1853.92
425.718	2116.06
425.925	2073.06
426.133	2148.83
426.341	2294.24
426.548	2281.95
426.756	2232.8
426.964	2200.03
427.171	2341.34
427.379	2443.74
427.586	2492.89
427.794	2660.82
428.001	2671.06
428.209	2867.67
428.417	2808.28
428.624	3047.89
428.832	2978.26
429.039	3088.85
429.247	3045.84
429.454	3394
429.662	3506.63
429.869	3258.83
430.076	3543.5
430.284	3334.61
430.491	3625.42
430.699	3776.97
430.906	3770.82
431.114	3801.54
431.321	3897.8
431.528	4002.24
431.736	4164.03
431.943	4577.72
432.15	4172.22
432.358	4456.89
432.565	4499.9
432.772	4704.7
432.979	4782.52
433.187	4970.93
433.394	4942.26
433.601	5177.78
433.808	5280.18
434.016	5317.04
434.223	5460.4
434.43	5720.49
434.637	5566.89
434.844	6117.79
435.052	6257.06
435.259	6205.86
435.466	6275.49
435.673	6091.17
435.88	6599.07
436.087	6920.6
436.294	6853.02
436.501	6592.92
436.708	6697.37
436.915	6953.37
437.122	7428.49
437.329	7422.35
437.537	7637.39
437.743	7592.33
437.95	7653.77
438.157	7965.06
438.364	8522.11
438.571	8212.87
438.778	8354.18
438.985	9238.9
439.192	8913.27
439.399	8987
439.606	8909.18
439.813	9394.54
440.02	10000.74
440.227	9804.14
440.433	9574.77
440.64	10107.24
440.847	9906.54
441.054	10193.25
441.261	10969.43
441.467	10703.2
441.674	11088.21
441.881	11235.67
442.088	11487.57
442.294	11417.94
442.501	11555.15
442.708	11864.39
442.914	12214.6
443.121	12835.13
443.328	12261.7
443.534	12878.14
443.741	12943.67
443.948	12773.69
444.154	13830.44
444.361	13746.48
444.568	13900.08
444.774	13967.66
444.981	14084.39
445.187	14192.94
445.394	15008.03
445.6	14694.69
445.807	16206.09
446.013	15434
446.22	15753.49
446.426	16408.84
446.633	16572.68
446.839	17002.75
447.046	16437.51
447.252	17342.71
447.459	17830.13
447.665	17500.4
447.871	18247.91
448.078	19087.58
448.284	18202.86
448.491	18471.14
448.697	19024.09
448.903	19669.2
449.11	19527.89
449.316	19368.15
449.522	19939.54
449.728	20623.56
449.935	20852.93
450.141	20404.42
450.347	20912.32
450.553	20381.9
450.76	20558.02
450.966	21469.37
451.172	21274.81
451.378	21498.04
451.584	21072.06
451.791	21702.84
451.997	21747.89
452.203	22110.38
452.409	22118.57
452.615	21680.31
452.821	21141.69
453.027	20994.24
453.233	22216.88
453.44	21262.52
453.646	21448.89
453.852	21649.59
454.058	22182.06
454.264	21194.94
454.47	21610.68
454.676	21215.42
454.882	22030.51
455.088	20234.44
455.294	20435.14
455.5	20676.8
455.705	20807.87
455.911	20164.81
456.117	19787.99
456.323	19333.34
456.529	18448.61
456.735	19284.19
456.941	18817.25
457.147	18487.53
457.352	18008.3
457.558	17477.88
457.764	17828.08
457.97	17176.83
458.176	17023.23
458.381	16855.29
458.587	16189.7
458.793	16103.69
458.999	15294.74
459.204	16513.28
459.41	15972.62
459.616	14991.64
459.821	14999.84
460.027	14989.6
460.233	14717.22
460.438	13777.2
460.644	14065.96
460.85	13240.63
461.055	13013.31
461.261	13109.56
461.466	11837.77
461.672	11747.66
461.878	12699.97
462.083	11786.57
462.289	11479.38
462.494	11538.77
462.7	11024.73
462.905	10606.94
463.111	11014.49
463.316	11069.78
463.522	10955.1
463.727	10821.98
463.932	10797.4
464.138	10883.42
464.343	10922.33
464.549	10328.42
464.754	10914.14
464.959	10615.13
465.165	10623.33
465.37	10148.2
465.575	10029.41
465.781	10275.17
465.986	10375.52
466.191	10019.18
466.397	9879.91
466.602	9468.27
466.807	9632.11
467.012	9765.23
467.218	9699.69
467.423	9476.46
467.628	9656.68
467.833	9998.7
468.038	9589.1
468.244	9417.07
468.449	9709.93
468.654	9384.3
468.859	9326.96
469.064	9255.28
469.269	9040.25
469.474	9097.59
469.679	9177.46
