Data from USB4F104151__80__11-37-40-765.txt Node

Date: Fri Mar 14 11:37:40 EDT 2025
User: louis
Spectrometer: USB4F10415
Trigger mode: 4
Integration Time (sec): 2.000000E-2
Scans to average: 1
Electric dark correction enabled: true
Nonlinearity correction enabled: false
Boxcar width: 0
XAxis mode: Wavelengths
Number of Pixels in Spectrum: 3648
>>>>>Begin Spectral Data<<<<<
178.204	-79.36
178.424	-79.36
178.644	-79.36
178.864	-95.74
179.084	-40.45
179.304	-36.35
179.524	12.8
179.744	-42.5
179.964	-1.54
180.184	-22.02
180.404	53.76
180.624	20.99
180.844	-44.54
181.064	-9.73
181.283	-3.58
181.503	12.8
181.723	59.9
181.943	-79.36
182.163	53.76
182.383	-40.45
182.602	41.47
182.822	0.51
183.042	-5.63
183.262	6.66
183.482	33.28
183.701	-3.58
183.921	-11.78
184.141	59.9
184.361	-24.06
184.58	35.33
184.8	37.38
185.02	-32.26
185.239	0.51
185.459	31.23
185.679	4.61
185.898	45.57
186.118	8.7
186.338	27.14
186.557	86.53
186.777	35.33
186.997	-7.68
187.216	47.62
187.436	82.43
187.655	51.71
187.875	35.33
188.095	4.61
188.314	23.04
188.534	102.91
188.753	-9.73
188.973	113.15
189.192	2.56
189.412	49.66
189.631	39.42
189.851	-30.21
190.07	41.47
190.29	45.57
190.509	-17.92
190.729	-52.74
190.948	94.72
191.168	53.76
191.387	80.38
191.607	-9.73
191.826	61.95
192.045	-50.69
192.265	14.85
192.484	12.8
192.704	-46.59
192.923	10.75
193.142	35.33
193.362	98.81
193.581	16.9
193.8	-5.63
194.02	23.04
194.239	25.09
194.458	-1.54
194.678	-65.02
194.897	27.14
195.116	8.7
195.335	16.9
195.555	12.8
195.774	6.66
195.993	31.23
196.212	64
196.432	29.18
196.651	-26.11
196.87	31.23
197.089	102.91
197.308	-11.78
197.528	-1.54
197.747	-44.54
197.966	49.66
198.185	-3.58
198.404	37.38
198.623	-26.11
198.842	41.47
199.062	10.75
199.281	27.14
199.5	-42.5
199.719	113.15
199.938	-44.54
200.157	23.04
200.376	68.09
200.595	-7.68
200.814	8.7
201.033	31.23
201.252	43.52
201.471	72.19
201.69	41.47
201.909	33.28
202.128	76.29
202.347	64
202.566	113.15
202.785	37.38
203.004	-34.3
203.223	27.14
203.442	12.8
203.661	2.56
203.879	-7.68
204.098	-42.5
204.317	-7.68
204.536	-3.58
204.755	66.05
204.974	66.05
205.193	8.7
205.411	25.09
205.63	80.38
205.849	-48.64
206.068	14.85
206.287	-40.45
206.505	33.28
206.724	23.04
206.943	96.77
207.162	-9.73
207.381	20.99
207.599	10.75
207.818	49.66
208.037	-26.11
208.255	35.33
208.474	8.7
208.693	55.81
208.911	66.05
209.13	-5.63
209.349	35.33
209.567	8.7
209.786	78.33
210.005	10.75
210.223	39.42
210.442	-9.73
210.661	94.72
210.879	-30.21
211.098	-19.97
211.316	8.7
211.535	35.33
211.753	61.95
211.972	-26.11
212.191	37.38
212.409	55.81
212.628	6.66
212.846	68.09
213.065	61.95
213.283	80.38
213.502	-48.64
213.72	45.57
213.938	18.94
214.157	68.09
214.375	-11.78
214.594	8.7
214.812	37.38
215.031	64
215.249	33.28
215.467	66.05
215.686	-3.58
215.904	123.39
216.122	37.38
216.341	35.33
216.559	72.19
216.778	104.96
216.996	88.57
217.214	6.66
217.432	-17.92
217.651	49.66
217.869	47.62
218.087	4.61
218.306	35.33
218.524	-24.06
218.742	39.42
218.96	35.33
219.179	51.71
219.397	10.75
219.615	49.66
219.833	80.38
220.051	31.23
220.27	31.23
220.488	-30.21
220.706	10.75
220.924	41.47
221.142	31.23
221.36	45.57
221.578	-7.68
221.796	10.75
222.015	20.99
222.233	100.86
222.451	6.66
222.669	18.94
222.887	-85.5
223.105	41.47
223.323	59.9
223.541	-19.97
223.759	-3.58
223.977	18.94
224.195	59.9
224.413	74.24
224.631	12.8
224.849	-26.11
225.067	94.72
225.285	27.14
225.503	41.47
225.721	27.14
225.939	31.23
226.157	31.23
226.375	121.34
226.592	16.9
226.81	-24.06
227.028	-50.69
227.246	90.62
227.464	-15.87
227.682	88.57
227.9	-58.88
228.117	18.94
228.335	-30.21
228.553	-1.54
228.771	31.23
228.989	-19.97
229.206	72.19
229.424	55.81
229.642	-73.21
229.86	12.8
230.077	61.95
230.295	20.99
230.513	59.9
230.731	61.95
230.948	20.99
231.166	51.71
231.384	41.47
231.601	76.29
231.819	-17.92
232.037	72.19
232.254	14.85
232.472	47.62
232.689	41.47
232.907	70.14
233.125	27.14
233.342	-32.26
233.56	12.8
233.777	72.19
233.995	23.04
234.213	2.56
234.43	20.99
234.648	59.9
234.865	-3.58
235.083	59.9
235.3	41.47
235.518	-17.92
235.735	23.04
235.953	-9.73
236.17	-3.58
236.388	-30.21
236.605	23.04
236.822	57.86
237.04	-13.82
237.257	88.57
237.475	31.23
237.692	20.99
237.909	20.99
238.127	10.75
238.344	47.62
238.562	-7.68
238.779	-56.83
238.996	49.66
239.214	29.18
239.431	18.94
239.648	25.09
239.865	-11.78
240.083	20.99
240.3	82.43
240.517	47.62
240.735	53.76
240.952	92.67
241.169	72.19
241.386	-7.68
241.603	96.77
241.821	-9.73
242.038	-3.58
242.255	70.14
242.472	45.57
242.689	41.47
242.907	20.99
243.124	59.9
243.341	18.94
243.558	16.9
243.775	12.8
243.992	29.18
244.209	29.18
244.426	-11.78
244.643	80.38
244.86	-19.97
245.078	31.23
245.295	82.43
245.512	2.56
245.729	6.66
245.946	61.95
246.163	23.04
246.38	14.85
246.597	78.33
246.814	78.33
247.031	-62.98
247.248	80.38
247.464	64
247.681	6.66
247.898	41.47
248.115	51.71
248.332	25.09
248.549	33.28
248.766	47.62
248.983	82.43
249.2	88.57
249.417	45.57
249.633	57.86
249.85	53.76
250.067	37.38
250.284	8.7
250.501	-3.58
250.717	-17.92
250.934	27.14
251.151	0.51
251.368	61.95
251.585	88.57
251.801	10.75
252.018	33.28
252.235	90.62
252.451	6.66
252.668	64
252.885	100.86
253.102	70.14
253.318	72.19
253.535	47.62
253.752	55.81
253.968	27.14
254.185	-34.3
254.401	18.94
254.618	-26.11
254.835	29.18
255.051	-22.02
255.268	-65.02
255.484	39.42
255.701	-22.02
255.917	61.95
256.134	35.33
256.351	49.66
256.567	20.99
256.784	96.77
257	31.23
257.217	45.57
257.433	-40.45
257.65	39.42
257.866	-28.16
258.082	43.52
258.299	111.1
258.515	25.09
258.732	6.66
258.948	35.33
259.165	18.94
259.381	51.71
259.597	-7.68
259.814	104.96
260.03	35.33
260.246	31.23
260.463	10.75
260.679	84.48
260.895	90.62
261.112	80.38
261.328	39.42
261.544	115.2
261.761	43.52
261.977	-5.63
262.193	61.95
262.409	12.8
262.626	31.23
262.842	53.76
263.058	-22.02
263.274	12.8
263.49	82.43
263.707	2.56
263.923	43.52
264.139	-34.3
264.355	18.94
264.571	55.81
264.787	92.67
265.004	39.42
265.22	88.57
265.436	76.29
265.652	64
265.868	74.24
266.084	107.01
266.3	27.14
266.516	59.9
266.732	72.19
266.948	31.23
267.164	88.57
267.38	53.76
267.596	76.29
267.812	27.14
268.028	76.29
268.244	55.81
268.46	45.57
268.676	53.76
268.892	14.85
269.108	55.81
269.324	23.04
269.54	-9.73
269.756	86.53
269.972	-17.92
270.188	45.57
270.403	39.42
270.619	53.76
270.835	64
271.051	51.71
271.267	-5.63
271.483	70.14
271.698	41.47
271.914	70.14
272.13	66.05
272.346	45.57
272.562	51.71
272.777	37.38
272.993	10.75
273.209	66.05
273.425	66.05
273.64	20.99
273.856	27.14
274.072	35.33
274.287	31.23
274.503	-22.02
274.719	47.62
274.934	-17.92
275.15	-13.82
275.366	39.42
275.581	-5.63
275.797	2.56
276.012	41.47
276.228	39.42
276.444	27.14
276.659	-26.11
276.875	20.99
277.09	55.81
277.306	-48.64
277.521	-3.58
277.737	41.47
277.952	-9.73
278.168	80.38
278.383	-1.54
278.599	16.9
278.814	80.38
279.03	70.14
279.245	25.09
279.461	-22.02
279.676	20.99
279.892	-34.3
280.107	-1.54
280.322	45.57
280.538	45.57
280.753	-30.21
280.969	51.71
281.184	49.66
281.399	113.15
281.615	-32.26
281.83	-19.97
282.045	4.61
282.26	74.24
282.476	0.51
282.691	20.99
282.906	27.14
283.122	-32.26
283.337	-40.45
283.552	96.77
283.767	16.9
283.983	45.57
284.198	14.85
284.413	68.09
284.628	-38.4
284.843	20.99
285.058	37.38
285.274	23.04
285.489	-1.54
285.704	55.81
285.919	20.99
286.134	39.42
286.349	12.8
286.564	-1.54
286.779	29.18
286.995	0.51
287.21	14.85
287.425	23.04
287.64	-9.73
287.855	57.86
288.07	6.66
288.285	45.57
288.5	-13.82
288.715	68.09
288.93	51.71
289.145	18.94
289.36	8.7
289.575	43.52
289.79	82.43
290.004	14.85
290.219	23.04
290.434	51.71
290.649	14.85
290.864	68.09
291.079	53.76
291.294	25.09
291.509	-22.02
291.724	45.57
291.938	-3.58
292.153	45.57
292.368	80.38
292.583	47.62
292.798	88.57
293.012	12.8
293.227	27.14
293.442	59.9
293.657	31.23
293.871	82.43
294.086	12.8
294.301	59.9
294.516	12.8
294.73	-3.58
294.945	72.19
295.16	12.8
295.374	-44.54
295.589	59.9
295.804	18.94
296.018	-7.68
296.233	88.57
296.447	96.77
296.662	51.71
296.877	14.85
297.091	14.85
297.306	-3.58
297.52	0.51
297.735	51.71
297.949	37.38
298.164	12.8
298.378	43.52
298.593	-36.35
298.807	29.18
299.022	39.42
299.236	61.95
299.451	33.28
299.665	57.86
299.88	70.14
300.094	86.53
300.309	23.04
300.523	2.56
300.737	25.09
300.952	6.66
301.166	27.14
301.381	-5.63
301.595	18.94
301.809	-5.63
302.024	20.99
302.238	-34.3
302.452	68.09
302.667	14.85
302.881	96.77
303.095	72.19
303.309	-13.82
303.524	-38.4
303.738	98.81
303.952	14.85
304.166	31.23
304.381	-30.21
304.595	53.76
304.809	-22.02
305.023	53.76
305.237	35.33
305.452	-7.68
305.666	33.28
305.88	-1.54
306.094	84.48
306.308	64
306.522	57.86
306.736	29.18
306.95	29.18
307.164	51.71
307.379	33.28
307.593	72.19
307.807	72.19
308.021	92.67
308.235	31.23
308.449	39.42
308.663	31.23
308.877	51.71
309.091	41.47
309.305	20.99
309.519	12.8
309.733	-46.59
309.947	18.94
310.161	-9.73
310.374	-5.63
310.588	12.8
310.802	72.19
311.016	25.09
311.23	55.81
311.444	55.81
311.658	29.18
311.872	68.09
312.085	20.99
312.299	51.71
312.513	12.8
312.727	88.57
312.941	16.9
313.154	29.18
313.368	-19.97
313.582	14.85
313.796	-1.54
314.009	47.62
314.223	68.09
314.437	18.94
314.651	61.95
314.864	-40.45
315.078	59.9
315.292	23.04
315.505	37.38
315.719	94.72
315.933	39.42
316.146	-46.59
316.36	2.56
316.573	31.23
316.787	141.82
317.001	78.33
317.214	-26.11
317.428	43.52
317.641	70.14
317.855	12.8
318.068	23.04
318.282	82.43
318.495	16.9
318.709	51.71
318.922	37.38
319.136	31.23
319.349	2.56
319.563	23.04
319.776	117.25
319.99	49.66
320.203	55.81
320.417	53.76
320.63	88.57
320.843	49.66
321.057	43.52
321.27	8.7
321.483	111.1
321.697	76.29
321.91	6.66
322.124	141.82
322.337	55.81
322.55	45.57
322.763	27.14
322.977	72.19
323.19	-17.92
323.403	0.51
323.617	-26.11
323.83	27.14
324.043	43.52
324.256	2.56
324.469	10.75
324.683	84.48
324.896	141.82
325.109	31.23
325.322	-13.82
325.535	37.38
325.748	107.01
325.962	20.99
326.175	20.99
326.388	31.23
326.601	23.04
326.814	8.7
327.027	107.01
327.24	53.76
327.453	16.9
327.666	51.71
327.879	35.33
328.092	68.09
328.305	78.33
328.518	127.49
328.731	-32.26
328.944	102.91
329.157	20.99
329.37	4.61
329.583	14.85
329.796	125.44
330.009	-42.5
330.222	92.67
330.435	12.8
330.648	18.94
330.861	76.29
331.073	-9.73
331.286	43.52
331.499	37.38
331.712	41.47
331.925	31.23
332.138	35.33
332.35	-11.78
332.563	6.66
332.776	57.86
332.989	4.61
333.202	29.18
333.414	14.85
333.627	31.23
333.84	45.57
334.053	-24.06
334.265	39.42
334.478	107.01
334.691	57.86
334.903	64
335.116	27.14
335.329	55.81
335.541	25.09
335.754	78.33
335.966	-11.78
336.179	70.14
336.392	49.66
336.604	-26.11
336.817	72.19
337.029	-9.73
337.242	-19.97
337.454	20.99
337.667	64
337.88	100.86
338.092	35.33
338.305	59.9
338.517	-5.63
338.729	43.52
338.942	109.05
339.154	12.8
339.367	25.09
339.579	39.42
339.792	-36.35
340.004	25.09
340.217	80.38
340.429	104.96
340.641	-3.58
340.854	-3.58
341.066	43.52
341.278	29.18
341.491	59.9
341.703	20.99
341.915	23.04
342.128	12.8
342.34	-7.68
342.552	2.56
342.764	-26.11
342.977	4.61
343.189	74.24
343.401	88.57
343.613	61.95
343.826	64
344.038	86.53
344.25	-17.92
344.462	57.86
344.674	78.33
344.886	37.38
345.099	100.86
345.311	6.66
345.523	59.9
345.735	29.18
345.947	33.28
346.159	45.57
346.371	23.04
346.583	35.33
346.795	96.77
347.007	70.14
347.219	86.53
347.431	68.09
347.643	61.95
347.855	55.81
348.067	80.38
348.279	-38.4
348.491	150.01
348.703	12.8
348.915	113.15
349.127	-26.11
349.339	53.76
349.551	35.33
349.763	88.57
349.975	92.67
350.187	78.33
350.399	88.57
350.61	47.62
350.822	45.57
351.034	102.91
351.246	100.86
351.458	51.71
351.669	78.33
351.881	70.14
352.093	47.62
352.305	68.09
352.517	27.14
352.728	88.57
352.94	2.56
353.152	72.19
353.363	-19.97
353.575	86.53
353.787	-13.82
353.999	125.44
354.21	111.1
354.422	57.86
354.633	61.95
354.845	59.9
355.057	37.38
355.268	51.71
355.48	39.42
355.692	4.61
355.903	27.14
356.115	59.9
356.326	68.09
356.538	92.67
356.749	43.52
356.961	84.48
357.172	84.48
357.384	100.86
357.595	154.11
357.807	113.15
358.018	-1.54
358.23	64
358.441	90.62
358.653	121.34
358.864	51.71
359.075	18.94
359.287	43.52
359.498	33.28
359.709	104.96
359.921	88.57
360.132	41.47
360.344	49.66
360.555	6.66
360.766	61.95
360.977	39.42
361.189	29.18
361.4	35.33
361.611	107.01
361.823	61.95
362.034	39.42
362.245	92.67
362.456	61.95
362.667	14.85
362.879	39.42
363.09	-9.73
363.301	27.14
363.512	84.48
363.723	43.52
363.935	107.01
364.146	80.38
364.357	41.47
364.568	55.81
364.779	35.33
364.99	80.38
365.201	68.09
365.412	6.66
365.623	96.77
365.834	41.47
366.045	43.52
366.256	29.18
366.467	53.76
366.678	78.33
366.889	20.99
367.1	2.56
367.311	104.96
367.522	74.24
367.733	61.95
367.944	76.29
368.155	-40.45
368.366	-9.73
368.577	104.96
368.788	78.33
368.999	35.33
369.209	111.1
369.42	43.52
369.631	131.58
369.842	14.85
370.053	41.47
370.264	51.71
370.474	25.09
370.685	117.25
370.896	55.81
371.107	27.14
371.317	133.63
371.528	53.76
371.739	94.72
371.95	88.57
372.16	70.14
372.371	31.23
372.582	94.72
372.792	76.29
373.003	47.62
373.214	51.71
373.424	49.66
373.635	20.99
373.846	39.42
374.056	37.38
374.267	145.92
374.477	68.09
374.688	68.09
374.898	-17.92
375.109	113.15
375.319	35.33
375.53	90.62
375.74	2.56
375.951	-50.69
376.161	31.23
376.372	92.67
376.582	80.38
376.793	25.09
377.003	45.57
377.214	8.7
377.424	88.57
377.635	55.81
377.845	35.33
378.055	100.86
378.266	96.77
378.476	64
378.686	127.49
378.897	37.38
379.107	43.52
379.317	39.42
379.528	-34.3
379.738	61.95
379.948	6.66
380.158	127.49
380.369	25.09
380.579	41.47
380.789	84.48
380.999	57.86
381.21	115.2
381.42	94.72
381.63	64
381.84	23.04
382.05	49.66
382.261	47.62
382.471	23.04
382.681	61.95
382.891	55.81
383.101	20.99
383.311	16.9
383.521	25.09
383.731	121.34
383.941	55.81
384.151	8.7
384.361	-17.92
384.571	23.04
384.781	137.73
384.991	-11.78
385.201	100.86
385.411	64
385.621	37.38
385.831	82.43
386.041	74.24
386.251	47.62
386.461	16.9
386.671	88.57
386.881	74.24
387.091	104.96
387.301	31.23
387.511	74.24
387.72	96.77
387.93	80.38
388.14	27.14
388.35	53.76
388.56	117.25
388.769	94.72
388.979	51.71
389.189	72.19
389.399	37.38
389.609	55.81
389.818	27.14
390.028	35.33
390.238	90.62
390.447	47.62
390.657	59.9
390.867	57.86
391.076	49.66
391.286	43.52
391.496	94.72
391.705	88.57
391.915	139.77
392.125	84.48
392.334	137.73
392.544	88.57
392.753	139.77
392.963	121.34
393.172	41.47
393.382	82.43
393.591	64
393.801	86.53
394.01	109.05
394.22	61.95
394.429	78.33
394.639	68.09
394.848	27.14
395.058	80.38
395.267	72.19
395.477	82.43
395.686	14.85
395.895	115.2
396.105	113.15
396.314	86.53
396.524	18.94
396.733	41.47
396.942	160.25
397.152	55.81
397.361	107.01
397.57	102.91
397.78	172.54
397.989	109.05
398.198	195.07
398.407	82.43
398.617	164.35
398.826	94.72
399.035	117.25
399.244	143.87
399.453	123.39
399.663	100.86
399.872	84.48
400.081	92.67
400.29	205.31
400.499	78.33
400.708	182.78
400.917	166.4
401.127	170.49
401.336	113.15
401.545	129.53
401.754	109.05
401.963	115.2
402.172	166.4
402.381	80.38
402.59	129.53
402.799	96.77
403.008	135.68
403.217	176.64
403.426	145.92
403.635	150.01
403.844	147.97
404.053	137.73
404.262	121.34
404.471	119.29
404.68	104.96
404.888	100.86
405.097	164.35
405.306	162.3
405.515	154.11
405.724	223.74
405.933	203.26
406.142	119.29
406.35	221.69
406.559	113.15
406.768	285.18
406.977	201.21
407.185	172.54
407.394	135.68
407.603	145.92
407.812	276.99
408.02	240.12
408.229	268.8
408.438	223.74
408.646	274.94
408.855	217.6
409.064	301.56
409.272	326.14
409.481	354.81
409.69	190.97
409.898	334.33
410.107	330.23
410.315	309.76
410.524	342.52
410.733	350.71
410.941	348.67
411.15	365.05
411.358	436.73
411.567	375.29
411.775	420.35
411.984	432.63
412.192	387.58
412.401	481.78
412.609	557.56
412.818	549.37
413.026	588.28
413.234	535.03
413.443	614.9
413.651	549.37
413.86	621.05
414.068	606.71
414.276	633.33
414.485	655.86
414.693	655.86
414.901	737.78
415.11	707.06
415.318	670.2
415.526	756.21
415.734	786.93
415.943	821.75
416.151	899.57
416.359	893.43
416.567	928.24
416.776	1006.06
416.984	993.78
417.192	1042.93
417.4	938.48
417.608	971.25
417.817	1092.08
418.025	1118.7
418.233	1221.1
418.441	1200.62
418.649	1298.92
418.857	1288.68
419.065	1276.4
419.273	1374.7
419.481	1460.71
419.689	1442.28
419.897	1507.82
420.105	1647.08
420.313	1626.6
420.521	1683.94
420.729	1663.46
420.937	1659.37
421.145	1796.58
421.353	1927.65
421.561	2025.95
421.769	2046.43
421.977	2085.34
422.185	2173.41
422.393	2333.15
422.601	2478.55
422.809	2464.22
423.017	2423.26
423.224	2513.37
423.432	2595.29
423.64	2660.82
423.848	2810.33
424.056	2763.22
424.263	2976.21
424.471	2980.31
424.679	3058.13
424.887	3230.16
425.094	3297.74
425.302	3312.08
425.51	3461.58
425.718	3635.66
425.925	3525.07
426.133	3725.77
426.341	3953.09
426.548	4073.92
426.756	4094.4
426.964	4129.22
427.171	4475.32
427.379	4618.68
427.586	4710.84
427.794	4714.94
428.001	4985.27
428.209	5220.78
428.417	5112.24
428.624	5327.28
428.832	5431.73
429.039	5380.53
429.247	5484.97
429.454	6019.49
429.662	6226.34
429.869	5833.13
430.076	6269.34
430.284	6146.47
430.491	6470.05
430.699	6820.25
430.906	6717.85
431.114	6828.44
431.321	7182.74
431.528	7164.31
431.736	7666.06
431.943	8235.39
432.15	7821.7
432.358	7809.42
432.565	8384.9
432.772	8288.64
432.979	8747.39
433.187	9136.5
433.394	8989.05
433.601	9585.01
433.808	9789.8
434.016	9400.69
434.223	10109.29
434.43	10492.26
434.637	10234.21
434.844	10991.96
435.052	11270.48
435.259	11088.21
435.466	11368.79
435.673	11034.97
435.88	11764.04
436.087	12546.37
436.294	12497.22
436.501	12101.96
436.708	12566.85
436.915	12824.89
437.122	13357.36
437.329	13265.21
437.537	13769.01
437.743	13990.19
437.95	13822.25
438.157	14532.9
438.364	15112.47
438.571	15182.1
438.778	15347.99
438.985	16697.6
439.192	16036.11
439.399	16388.36
439.606	16048.4
439.813	16900.35
440.02	18088.17
440.227	17809.65
440.433	17289.46
440.64	18219.24
440.847	18137.32
441.054	18694.37
441.261	19454.17
441.467	19493.08
441.674	19742.93
441.881	20498.63
442.088	20637.89
442.294	20582.6
442.501	21205.18
442.708	21215.42
442.914	22050.99
443.121	22988.96
443.328	22784.16
443.534	24080.53
443.741	23449.75
443.948	22800.55
444.154	24840.32
444.361	24459.4
444.568	24766.6
444.774	24744.07
444.981	25196.67
445.187	25471.1
445.394	26517.61
445.6	26163.31
445.807	28913.73
446.013	27701.34
446.22	28203.09
446.426	29554.75
446.633	29642.81
446.839	30529.58
447.046	29409.34
447.252	31053.86
447.459	31115.3
447.665	30867.5
447.871	32301.08
448.078	33636.35
448.284	31909.91
448.491	32847.88
448.697	34336.76
448.903	34963.43
449.11	34830.32
449.316	34357.24
449.522	34838.51
449.728	35876.83
449.935	36405.2
450.141	35911.64
450.347	36655.06
450.553	35702.75
450.76	36102.11
450.966	37273.54
451.172	37074.89
451.378	37867.45
451.584	36861.9
451.791	37803.97
451.997	38002.62
452.203	38539.19
452.409	38543.28
452.615	38272.95
452.821	36837.33
453.027	36437.97
453.233	38533.04
453.44	37160.9
453.646	37445.57
453.852	37494.72
454.058	38346.68
454.264	37001.16
454.47	37963.71
454.676	36450.26
454.882	38148.03
455.088	34742.25
455.294	35473.38
455.5	35958.75
455.705	35987.42
455.911	34887.66
456.117	34152.44
456.323	33964.03
456.529	31631.39
456.735	33153.03
456.941	32325.65
457.147	31821.85
457.352	30681.13
457.558	30496.81
457.764	30900.26
457.97	30496.81
458.176	29446.21
458.381	29478.97
458.587	27813.98
458.793	27723.86
458.999	26237.04
459.204	28561.48
459.41	27490.4
459.616	25901.17
459.821	25718.9
460.027	25737.34
460.233	25157.76
460.438	24232.08
460.644	23931.03
460.85	23124.13
461.055	22622.37
461.261	22700.2
461.466	20986.05
461.672	20535.49
461.878	21807.28
462.083	20404.42
462.289	20302.03
462.494	20009.17
462.7	18899.17
462.905	18544.87
463.111	19060.96
463.316	19388.63
463.522	18852.06
463.727	18933.98
463.932	18684.13
464.138	18704.61
464.343	18530.53
464.549	17885.42
464.754	18757.86
464.959	18333.93
465.165	18403.56
465.37	17404.15
465.575	17072.38
465.781	17617.14
465.986	17897.71
466.191	17299.7
466.397	16984.32
466.602	16255.24
466.807	16609.54
467.012	16666.88
467.218	16654.59
467.423	16429.32
467.628	16630.02
467.833	17193.21
468.038	16525.57
