Data from USB4F104151__12__11-36-25-368.txt Node

Date: Fri Mar 14 11:36:25 EDT 2025
User: louis
Spectrometer: USB4F10415
Trigger mode: 4
Integration Time (sec): 2.000000E-2
Scans to average: 1
Electric dark correction enabled: true
Nonlinearity correction enabled: false
Boxcar width: 0
XAxis mode: Wavelengths
Number of Pixels in Spectrum: 3648
>>>>>Begin Spectral Data<<<<<
178.204	-52.22
178.424	-52.22
178.644	-52.22
178.864	-50.18
179.084	-52.22
179.304	-9.22
179.524	76.8
179.744	-33.79
179.964	9.22
180.184	33.79
180.404	54.27
180.624	-11.26
180.844	-31.74
181.064	-31.74
181.283	9.22
181.503	-46.08
181.723	-19.46
181.943	-35.84
182.163	-17.41
182.383	31.74
182.602	-33.79
182.822	-15.36
183.042	39.94
183.262	21.5
183.482	27.65
183.701	3.07
183.921	-48.13
184.141	-27.65
184.361	-13.31
184.58	27.65
184.8	-23.55
185.02	64.51
185.239	-31.74
185.459	3.07
185.679	48.13
185.898	-41.98
186.118	-13.31
186.338	56.32
186.557	41.98
186.777	-62.46
186.997	68.61
187.216	56.32
187.436	-33.79
187.655	1.02
187.875	27.65
188.095	35.84
188.314	56.32
188.534	9.22
188.753	15.36
188.973	-5.12
189.192	66.56
189.412	68.61
189.631	3.07
189.851	29.7
190.07	70.65
190.29	-17.41
190.509	-3.07
190.729	-17.41
190.948	41.98
191.168	29.7
191.387	-37.89
191.607	35.84
191.826	17.41
192.045	-17.41
192.265	17.41
192.484	-25.6
192.704	66.56
192.923	-33.79
193.142	48.13
193.362	-15.36
193.581	31.74
193.8	3.07
194.02	80.89
194.239	54.27
194.458	7.17
194.678	9.22
194.897	17.41
195.116	82.94
195.335	27.65
195.555	80.89
195.774	37.89
195.993	-17.41
196.212	-23.55
196.432	31.74
196.651	72.7
196.87	-52.22
197.089	56.32
197.308	-35.84
197.528	17.41
197.747	-52.22
197.966	56.32
198.185	27.65
198.404	27.65
198.623	3.07
198.842	11.26
199.062	44.03
199.281	21.5
199.5	-3.07
199.719	72.7
199.938	37.89
200.157	111.61
200.376	5.12
200.595	-25.6
200.814	-33.79
201.033	17.41
201.252	17.41
201.471	13.31
201.69	111.61
201.909	54.27
202.128	5.12
202.347	25.6
202.566	33.79
202.785	21.5
203.004	-27.65
203.223	37.89
203.442	56.32
203.661	17.41
203.879	5.12
204.098	-7.17
204.317	-84.99
204.536	19.46
204.755	27.65
204.974	-58.37
205.193	7.17
205.411	125.95
205.63	60.42
205.849	33.79
206.068	46.08
206.287	1.02
206.505	39.94
206.724	31.74
206.943	-54.27
207.162	72.7
207.381	-72.7
207.599	-15.36
207.818	25.6
208.037	19.46
208.255	31.74
208.474	11.26
208.693	-25.6
208.911	15.36
209.13	-17.41
209.349	105.47
209.567	35.84
209.786	-3.07
210.005	19.46
210.223	54.27
210.442	-21.5
210.661	39.94
210.879	17.41
211.098	13.31
211.316	-15.36
211.535	-3.07
211.753	1.02
211.972	1.02
212.191	-15.36
212.409	37.89
212.628	44.03
212.846	-1.02
213.065	35.84
213.283	21.5
213.502	-13.31
213.72	70.65
213.938	13.31
214.157	66.56
214.375	9.22
214.594	72.7
214.812	93.18
215.031	23.55
215.249	13.31
215.467	80.89
215.686	9.22
215.904	25.6
216.122	-31.74
216.341	5.12
216.559	48.13
216.778	93.18
216.996	62.46
217.214	-13.31
217.432	101.37
217.651	-27.65
217.869	17.41
218.087	80.89
218.306	25.6
218.524	-3.07
218.742	41.98
218.96	-25.6
219.179	15.36
219.397	-33.79
219.615	60.42
219.833	-35.84
220.051	-44.03
220.27	11.26
220.488	29.7
220.706	-1.02
220.924	-1.02
221.142	31.74
221.36	29.7
221.578	19.46
221.796	31.74
222.015	46.08
222.233	74.75
222.451	-33.79
222.669	21.5
222.887	58.37
223.105	7.17
223.323	5.12
223.541	31.74
223.759	7.17
223.977	-11.26
224.195	93.18
224.413	97.28
224.631	29.7
224.849	-48.13
225.067	19.46
225.285	125.95
225.503	-54.27
225.721	-41.98
225.939	46.08
226.157	44.03
226.375	31.74
226.592	-21.5
226.81	39.94
227.028	-1.02
227.246	-21.5
227.464	84.99
227.682	46.08
227.9	35.84
228.117	-7.17
228.335	70.65
228.553	3.07
228.771	66.56
228.989	46.08
229.206	44.03
229.424	46.08
229.642	-15.36
229.86	72.7
230.077	41.98
230.295	-52.22
230.513	19.46
230.731	48.13
230.948	60.42
231.166	15.36
231.384	9.22
231.601	27.65
231.819	62.46
232.037	11.26
232.254	41.98
232.472	25.6
232.689	17.41
232.907	138.24
233.125	39.94
233.342	76.8
233.56	-17.41
233.777	29.7
233.995	29.7
234.213	52.22
234.43	78.85
234.648	72.7
234.865	-5.12
235.083	44.03
235.3	-17.41
235.518	5.12
235.735	62.46
235.953	78.85
236.17	21.5
236.388	17.41
236.605	56.32
236.822	121.85
237.04	29.7
237.257	48.13
237.475	52.22
237.692	44.03
237.909	-1.02
238.127	-11.26
238.344	13.31
238.562	33.79
238.779	9.22
238.996	27.65
239.214	31.74
239.431	9.22
239.648	5.12
239.865	19.46
240.083	74.75
240.3	-3.07
240.517	19.46
240.735	56.32
240.952	68.61
241.169	87.04
241.386	13.31
241.603	23.55
241.821	25.6
242.038	11.26
242.255	50.18
242.472	-27.65
242.689	48.13
242.907	27.65
243.124	52.22
243.341	11.26
243.558	44.03
243.775	-11.26
243.992	21.5
244.209	27.65
244.426	44.03
244.643	3.07
244.86	-17.41
245.078	27.65
245.295	9.22
245.512	-66.56
245.729	15.36
245.946	-25.6
246.163	-7.17
246.38	25.6
246.597	78.85
246.814	-5.12
247.031	-33.79
247.248	23.55
247.464	17.41
247.681	52.22
247.898	35.84
248.115	74.75
248.332	60.42
248.549	56.32
248.766	-15.36
248.983	54.27
249.2	11.26
249.417	48.13
249.633	-41.98
249.85	121.85
250.067	-13.31
250.284	-33.79
250.501	-9.22
250.717	21.5
250.934	-29.7
251.151	39.94
251.368	-5.12
251.585	48.13
251.801	39.94
252.018	-11.26
252.235	27.65
252.451	29.7
252.668	48.13
252.885	72.7
253.102	9.22
253.318	58.37
253.535	25.6
253.752	1.02
253.968	29.7
254.185	15.36
254.401	-27.65
254.618	-3.07
254.835	44.03
255.051	-46.08
255.268	23.55
255.484	-29.7
255.701	62.46
255.917	23.55
256.134	-1.02
256.351	52.22
256.567	21.5
256.784	3.07
257	-27.65
257.217	62.46
257.433	-15.36
257.65	27.65
257.866	46.08
258.082	23.55
258.299	-25.6
258.515	5.12
258.732	113.66
258.948	-15.36
259.165	19.46
259.381	9.22
259.597	17.41
259.814	-1.02
260.03	-5.12
260.246	-44.03
260.463	84.99
260.679	76.8
260.895	27.65
261.112	25.6
261.328	-56.32
261.544	33.79
261.761	132.09
261.977	-48.13
262.193	29.7
262.409	-15.36
262.626	-3.07
262.842	15.36
263.058	25.6
263.274	-27.65
263.49	-3.07
263.707	52.22
263.923	72.7
264.139	7.17
264.355	11.26
264.571	56.32
264.787	46.08
265.004	35.84
265.22	-50.18
265.436	35.84
265.652	29.7
265.868	-3.07
266.084	31.74
266.3	56.32
266.516	25.6
266.732	-13.31
266.948	5.12
267.164	78.85
267.38	35.84
267.596	21.5
267.812	21.5
268.028	-11.26
268.244	27.65
268.46	-9.22
268.676	-50.18
268.892	19.46
269.108	-29.7
269.324	27.65
269.54	-27.65
269.756	-15.36
269.972	-39.94
270.188	37.89
270.403	-21.5
270.619	3.07
270.835	44.03
271.051	60.42
271.267	31.74
271.483	31.74
271.698	7.17
271.914	-13.31
272.13	-31.74
272.346	105.47
272.562	89.09
272.777	31.74
272.993	15.36
273.209	13.31
273.425	39.94
273.64	-48.13
273.856	60.42
274.072	3.07
274.287	-5.12
274.503	62.46
274.719	74.75
274.934	115.71
275.15	48.13
275.366	29.7
275.581	15.36
275.797	-3.07
276.012	48.13
276.228	84.99
276.444	-15.36
276.659	101.37
276.875	-21.5
277.09	-37.89
277.306	89.09
277.521	60.42
277.737	21.5
277.952	13.31
278.168	58.37
278.383	-39.94
278.599	115.71
278.814	7.17
279.03	21.5
279.245	-17.41
279.461	-35.84
279.676	27.65
279.892	46.08
280.107	37.89
280.322	-35.84
280.538	-76.8
280.753	-60.42
280.969	-33.79
281.184	-39.94
281.399	9.22
281.615	3.07
281.83	50.18
282.045	-9.22
282.26	5.12
282.476	-7.17
282.691	9.22
282.906	-21.5
283.122	56.32
283.337	7.17
283.552	37.89
283.767	31.74
283.983	97.28
284.198	44.03
284.413	58.37
284.628	7.17
284.843	19.46
285.058	76.8
285.274	25.6
285.489	39.94
285.704	82.94
285.919	21.5
286.134	54.27
286.349	56.32
286.564	-5.12
286.779	33.79
286.995	-50.18
287.21	23.55
287.425	-23.55
287.64	35.84
287.855	-33.79
288.07	1.02
288.285	93.18
288.5	11.26
288.715	35.84
288.93	68.61
289.145	15.36
289.36	21.5
289.575	62.46
289.79	31.74
290.004	37.89
290.219	-68.61
290.434	-25.6
290.649	-11.26
290.864	37.89
291.079	19.46
291.294	-29.7
291.509	31.74
291.724	39.94
291.938	64.51
292.153	70.65
292.368	-37.89
292.583	15.36
292.798	62.46
293.012	7.17
293.227	58.37
293.442	15.36
293.657	103.42
293.871	93.18
294.086	11.26
294.301	-3.07
294.516	125.95
294.73	-50.18
294.945	9.22
295.16	15.36
295.374	62.46
295.589	29.7
295.804	-72.7
296.018	39.94
296.233	-15.36
296.447	-5.12
296.662	46.08
296.877	11.26
297.091	50.18
297.306	-9.22
297.52	-1.02
297.735	11.26
297.949	21.5
298.164	66.56
298.378	-5.12
298.593	23.55
298.807	54.27
299.022	23.55
299.236	13.31
299.451	93.18
299.665	39.94
299.88	52.22
300.094	105.47
300.309	21.5
300.523	15.36
300.737	-1.02
300.952	31.74
301.166	60.42
301.381	-21.5
301.595	70.65
301.809	41.98
302.024	21.5
302.238	-21.5
302.452	103.42
302.667	29.7
302.881	76.8
303.095	50.18
303.309	48.13
303.524	15.36
303.738	33.79
303.952	35.84
304.166	50.18
304.381	78.85
304.595	39.94
304.809	91.13
305.023	56.32
305.237	56.32
305.452	105.47
305.666	72.7
305.88	5.12
306.094	87.04
306.308	-9.22
306.522	56.32
306.736	82.94
306.95	101.37
307.164	-25.6
307.379	54.27
307.593	41.98
307.807	25.6
308.021	23.55
308.235	37.89
308.449	21.5
308.663	7.17
308.877	113.66
309.091	-7.17
309.305	113.66
309.519	-21.5
309.733	89.09
309.947	39.94
310.161	15.36
310.374	39.94
310.588	5.12
310.802	-3.07
311.016	46.08
311.23	50.18
311.444	-25.6
311.658	-19.46
311.872	15.36
312.085	54.27
312.299	56.32
312.513	19.46
312.727	-19.46
312.941	48.13
313.154	-15.36
313.368	80.89
313.582	-13.31
313.796	7.17
314.009	48.13
314.223	-29.7
314.437	48.13
314.651	142.33
314.864	9.22
315.078	-21.5
315.292	17.41
315.505	3.07
315.719	84.99
315.933	146.43
316.146	29.7
316.36	21.5
316.573	52.22
316.787	-1.02
317.001	37.89
317.214	-3.07
317.428	-11.26
317.641	-9.22
317.855	44.03
318.068	5.12
318.282	31.74
318.495	97.28
318.709	125.95
318.922	-33.79
319.136	89.09
319.349	7.17
319.563	-9.22
319.776	82.94
319.99	-9.22
320.203	70.65
320.417	68.61
320.63	31.74
320.843	87.04
321.057	37.89
321.27	-1.02
321.483	23.55
321.697	48.13
321.91	84.99
322.124	105.47
322.337	31.74
322.55	27.65
322.763	54.27
322.977	50.18
323.19	-82.94
323.403	-48.13
323.617	27.65
323.83	-1.02
324.043	-7.17
324.256	87.04
324.469	72.7
324.683	97.28
324.896	56.32
325.109	119.81
325.322	35.84
325.535	39.94
325.748	64.51
325.962	33.79
326.175	7.17
326.388	48.13
326.601	56.32
326.814	91.13
327.027	52.22
327.24	101.37
327.453	-37.89
327.666	41.98
327.879	97.28
328.092	-1.02
328.305	11.26
328.518	89.09
328.731	64.51
328.944	56.32
329.157	15.36
329.37	15.36
329.583	136.19
329.796	-13.31
330.009	72.7
330.222	21.5
330.435	39.94
330.648	82.94
330.861	56.32
331.073	7.17
331.286	54.27
331.499	50.18
331.712	29.7
331.925	-13.31
332.138	48.13
332.35	111.61
332.563	39.94
332.776	39.94
332.989	-21.5
333.202	41.98
333.414	-37.89
333.627	52.22
333.84	60.42
334.053	60.42
334.265	15.36
334.478	-5.12
334.691	46.08
334.903	35.84
335.116	84.99
335.329	9.22
335.541	70.65
335.754	52.22
335.966	33.79
336.179	84.99
336.392	23.55
336.604	17.41
336.817	41.98
337.029	56.32
337.242	31.74
337.454	68.61
337.667	-50.18
337.88	21.5
338.092	29.7
338.305	103.42
338.517	76.8
338.729	66.56
338.942	52.22
339.154	54.27
339.367	21.5
339.579	29.7
339.792	-29.7
340.004	39.94
340.217	44.03
340.429	5.12
340.641	15.36
340.854	54.27
341.066	-9.22
341.278	111.61
341.491	87.04
341.703	70.65
341.915	82.94
342.128	84.99
342.34	56.32
342.552	80.89
342.764	29.7
342.977	-11.26
343.189	31.74
343.401	64.51
343.613	-19.46
343.826	31.74
344.038	-9.22
344.25	25.6
344.462	-13.31
344.674	-9.22
344.886	23.55
345.099	72.7
345.311	37.89
345.523	19.46
345.735	39.94
345.947	68.61
346.159	23.55
346.371	7.17
346.583	11.26
346.795	95.23
347.007	9.22
347.219	-5.12
347.431	39.94
347.643	50.18
347.855	-17.41
348.067	74.75
348.279	11.26
348.491	56.32
348.703	87.04
348.915	41.98
349.127	54.27
349.339	25.6
349.551	-21.5
349.763	44.03
349.975	50.18
350.187	82.94
350.399	46.08
350.61	54.27
350.822	31.74
351.034	-19.46
351.246	64.51
351.458	78.85
351.669	-1.02
351.881	78.85
352.093	76.8
352.305	21.5
352.517	13.31
352.728	23.55
352.94	-13.31
353.152	113.66
353.363	70.65
353.575	7.17
353.787	35.84
353.999	-1.02
354.21	70.65
354.422	41.98
354.633	33.79
354.845	29.7
355.057	103.42
355.268	39.94
355.48	46.08
355.692	50.18
355.903	7.17
356.115	35.84
356.326	-1.02
356.538	56.32
356.749	-19.46
356.961	41.98
357.172	39.94
357.384	25.6
357.595	105.47
357.807	56.32
358.018	48.13
358.23	54.27
358.441	39.94
358.653	3.07
358.864	39.94
359.075	-5.12
359.287	19.46
359.498	-23.55
359.709	76.8
359.921	-17.41
360.132	31.74
360.344	64.51
360.555	-7.17
360.766	11.26
360.977	11.26
361.189	-3.07
361.4	89.09
361.611	89.09
361.823	29.7
362.034	31.74
362.245	39.94
362.456	-31.74
362.667	70.65
362.879	15.36
363.09	52.22
363.301	21.5
363.512	35.84
363.723	23.55
363.935	39.94
364.146	44.03
364.357	-17.41
364.568	7.17
364.779	74.75
364.99	109.57
365.201	35.84
365.412	89.09
365.623	31.74
365.834	39.94
366.045	-52.22
366.256	64.51
366.467	60.42
366.678	46.08
366.889	-23.55
367.1	-33.79
367.311	35.84
367.522	48.13
367.733	115.71
367.944	117.76
368.155	46.08
368.366	68.61
368.577	99.33
368.788	66.56
368.999	-1.02
369.209	15.36
369.42	111.61
369.631	113.66
369.842	9.22
370.053	111.61
370.264	64.51
370.474	39.94
370.685	46.08
370.896	3.07
371.107	35.84
371.317	70.65
371.528	27.65
371.739	44.03
371.95	89.09
372.16	125.95
372.371	41.98
372.582	89.09
372.792	37.89
373.003	46.08
373.214	11.26
373.424	121.85
373.635	56.32
373.846	52.22
374.056	1.02
374.267	89.09
374.477	107.52
374.688	29.7
374.898	44.03
375.109	76.8
375.319	19.46
375.53	50.18
375.74	72.7
375.951	1.02
376.161	54.27
376.372	121.85
376.582	46.08
376.793	37.89
377.003	64.51
377.214	31.74
377.424	5.12
377.635	31.74
377.845	33.79
378.055	60.42
378.266	84.99
378.476	76.8
378.686	48.13
378.897	19.46
379.107	50.18
379.317	117.76
379.528	91.13
379.738	58.37
379.948	29.7
380.158	91.13
380.369	97.28
380.579	62.46
380.789	39.94
380.999	82.94
381.21	66.56
381.42	82.94
381.63	5.12
381.84	101.37
382.05	52.22
382.261	29.7
382.471	101.37
382.681	62.46
382.891	23.55
383.101	78.85
383.311	56.32
383.521	39.94
383.731	46.08
383.941	113.66
384.151	39.94
384.361	99.33
384.571	56.32
384.781	-25.6
384.991	130.05
385.201	82.94
385.411	142.33
385.621	50.18
385.831	39.94
386.041	-17.41
386.251	50.18
386.461	48.13
386.671	70.65
386.881	27.65
387.091	66.56
387.301	-15.36
387.511	111.61
387.72	25.6
387.93	97.28
388.14	56.32
388.35	-66.56
388.56	82.94
388.769	48.13
388.979	72.7
389.189	7.17
389.399	95.23
389.609	39.94
389.818	87.04
390.028	46.08
390.238	72.7
390.447	-9.22
390.657	31.74
390.867	23.55
391.076	136.19
391.286	103.42
391.496	103.42
391.705	21.5
391.915	68.61
392.125	62.46
392.334	80.89
392.544	89.09
392.753	-7.17
392.963	54.27
393.172	72.7
393.382	21.5
393.591	44.03
393.801	35.84
394.01	101.37
394.22	70.65
394.429	25.6
394.639	109.57
394.848	-11.26
395.058	29.7
395.267	66.56
395.477	111.61
395.686	23.55
395.895	76.8
396.105	113.66
396.314	39.94
396.524	189.44
396.733	70.65
396.942	128
397.152	107.52
397.361	56.32
397.57	80.89
397.78	62.46
397.989	84.99
398.198	78.85
398.407	50.18
398.617	68.61
398.826	154.62
399.035	68.61
399.244	97.28
399.453	115.71
399.663	48.13
399.872	117.76
400.081	80.89
400.29	70.65
400.499	93.18
400.708	130.05
400.917	76.8
401.127	62.46
401.336	54.27
401.545	93.18
401.754	115.71
401.963	125.95
402.172	84.99
402.381	21.5
402.59	109.57
402.799	91.13
403.008	103.42
403.217	136.19
403.426	103.42
403.635	31.74
403.844	95.23
404.053	115.71
404.262	171.01
404.471	125.95
404.68	154.62
404.888	111.61
405.097	216.06
405.306	84.99
405.515	199.68
405.724	125.95
405.933	105.47
406.142	156.67
406.35	179.2
406.559	191.49
406.768	130.05
406.977	261.12
407.185	224.25
407.394	203.77
407.603	187.39
407.812	248.83
408.02	261.12
408.229	185.34
408.438	234.49
408.646	201.72
408.855	248.83
409.064	242.68
409.272	211.96
409.481	242.68
409.69	328.7
409.898	275.45
410.107	224.25
410.315	300.03
410.524	365.56
410.733	310.27
410.941	289.79
411.15	343.03
411.358	383.99
411.567	455.67
411.775	383.99
411.984	343.03
412.192	398.33
412.401	504.82
412.609	422.91
412.818	539.64
413.026	515.06
413.234	445.43
413.443	515.06
413.651	476.15
413.86	478.2
414.068	607.22
414.276	623.61
414.485	629.75
414.693	683
414.901	695.29
415.11	680.95
415.318	605.17
415.526	728.05
415.734	754.68
415.943	814.07
416.151	771.06
416.359	801.78
416.567	824.31
416.776	797.68
416.984	871.41
417.192	1051.63
417.4	912.37
417.608	930.8
417.817	992.24
418.025	945.14
418.233	1113.07
418.441	1151.98
418.649	1123.31
418.857	1227.76
419.065	1197.04
419.273	1270.76
419.481	1307.63
419.689	1397.74
419.897	1479.66
420.105	1371.12
420.313	1424.36
420.521	1555.43
420.729	1473.51
420.937	1580.01
421.145	1723.37
421.353	1762.28
421.561	1887.2
421.769	1825.76
421.977	2071.52
422.185	1876.96
422.393	2145.25
422.601	2169.82
422.809	2048.99
423.017	2175.97
423.224	2241.5
423.432	2345.95
423.64	2380.76
423.848	2657.24
424.056	2595.8
424.263	2741.21
424.471	2671.58
424.679	2798.55
424.887	2898.9
425.094	2806.74
425.302	2950.1
425.51	3259.34
425.718	3269.58
425.925	3306.45
426.133	3312.59
426.341	3652.55
426.548	3748.81
426.756	3742.66
426.964	3849.16
427.171	4092.87
427.379	4004.8
427.586	4166.59
427.794	4271.04
428.001	4451.26
428.209	4672.44
428.417	4555.71
428.624	4903.86
428.832	4887.48
429.039	4953.01
429.247	5004.21
429.454	5434.29
429.662	5761.96
429.869	5315.5
430.076	5780.39
430.284	5690.28
430.491	5821.35
430.699	6118.31
430.906	6265.76
431.114	6329.25
431.321	6591.39
431.528	6642.59
431.736	7046.04
431.943	7414.67
432.15	7285.65
432.358	7168.91
432.565	7701.39
432.772	7637.9
432.979	8139.65
433.187	8211.33
433.394	8094.6
433.601	8807.29
433.808	8915.83
434.016	8704.89
434.223	9102.2
434.43	9702.25
434.637	9331.57
434.844	9900.9
435.052	10322.79
435.259	10220.39
435.466	10085.22
435.673	10314.59
435.88	11002.71
436.087	11361.11
436.294	11342.67
436.501	11119.45
436.708	11383.63
436.915	11842.38
437.122	12303.17
437.329	12307.27
437.537	12610.37
437.743	12925.75
437.95	12897.08
438.157	13583.15
438.364	13613.87
438.571	13861.68
438.778	14005.03
438.985	15399.7
439.192	14457.64
439.399	15205.14
439.606	14711.58
439.813	15729.42
440.02	16349.96
440.227	16120.59
440.433	16104.2
440.64	16556.8
440.847	16677.63
441.054	16841.47
441.261	17906.41
441.467	17941.23
441.674	18332.39
441.881	18801.38
442.088	18658.02
442.294	18621.16
442.501	19092.19
442.708	19663.57
442.914	20439.75
443.121	21037.76
443.328	20466.38
443.534	22096.56
443.741	21576.37
443.948	21058.24
444.154	22641.32
444.361	22370.99
444.568	22428.33
444.774	22891.17
444.981	23042.72
445.187	23579.29
445.394	24713.86
445.6	24261.26
445.807	26819.17
446.013	25391.74
446.22	26073.71
446.426	27042.4
446.633	27028.07
446.839	28308.05
447.046	26565.23
447.252	28508.75
447.459	28447.31
447.665	28641.87
447.871	29694.52
448.078	30980.65
448.284	29098.56
448.491	30163.51
448.697	31433.25
448.903	32221.72
449.11	32043.54
449.316	31629.85
449.522	32127.51
449.728	32872.97
449.935	33055.24
450.141	33161.73
450.347	33927.67
450.553	32735.76
450.76	33438.21
450.966	34228.73
451.172	33534.46
451.378	34576.88
451.584	33958.39
451.791	34451.95
451.997	34900.46
452.203	34808.3
452.409	35181.03
452.615	35299.81
452.821	33821.18
453.027	33362.43
453.233	35316.2
453.44	33825.28
453.646	34390.52
453.852	34343.41
454.058	35029.48
454.264	34058.74
454.47	34537.97
454.676	34165.24
454.882	35138.02
455.088	31803.93
455.294	31935
455.5	32467.47
455.705	33055.24
455.911	31861.27
456.117	31205.92
456.323	31097.38
456.529	28926.53
456.735	30249.52
456.941	29442.62
457.147	29035.08
457.352	27802.2
457.558	27636.31
457.764	28011.09
457.97	27513.44
458.176	26792.55
458.381	26808.93
458.587	25567.87
458.793	25289.34
458.999	24324.75
459.204	26102.39
459.41	25182.85
459.616	23644.82
459.821	23616.15
460.027	23579.29
460.233	22735.53
460.438	22010.54
460.644	22102.7
460.85	20718.28
461.055	20591.3
461.261	20755.14
461.466	19049.18
461.672	18580.2
461.878	19909.33
462.083	18774.75
462.289	18264.81
462.494	18006.77
462.7	17236.73
462.905	16900.86
463.111	17234.68
463.316	17591.03
463.522	17044.22
463.727	17185.53
463.932	16843.52
464.138	16728.83
464.343	17042.17
464.549	16567.04
464.754	16929.53
464.959	16800.51
465.165	16577.28
465.37	15932.17
465.575	15579.92
465.781	15948.56
465.986	16165.64
466.191	15594.26
466.397	15436.56
466.602	14826.27
466.807	15166.23
467.012	15213.34
467.218	14916.38
467.423	14828.32
467.628	15033.11
467.833	15620.88
