Data from USB4F104151__58__11-37-22-161.txt Node

Date: Fri Mar 14 11:37:22 EDT 2025
User: louis
Spectrometer: USB4F10415
Trigger mode: 4
Integration Time (sec): 2.000000E-2
Scans to average: 1
Electric dark correction enabled: true
Nonlinearity correction enabled: false
Boxcar width: 0
XAxis mode: Wavelengths
Number of Pixels in Spectrum: 3648
>>>>>Begin Spectral Data<<<<<
178.204	-68.95
178.424	-68.95
178.644	-68.95
178.864	-42.32
179.084	-83.28
179.304	39.59
179.524	29.35
179.744	39.59
179.964	37.55
180.184	-7.51
180.404	-25.94
180.624	-62.8
180.844	10.92
181.064	6.83
181.283	-42.32
181.503	4.78
181.723	-30.04
181.943	-83.28
182.163	17.07
182.383	33.45
182.602	31.4
182.822	29.35
183.042	49.83
183.262	51.88
183.482	-13.65
183.701	10.92
183.921	27.31
184.141	-48.47
184.361	55.98
184.58	-42.32
184.8	-9.56
185.02	-34.13
185.239	-42.32
185.459	15.02
185.679	-44.37
185.898	-50.52
186.118	31.4
186.338	19.11
186.557	-42.32
186.777	17.07
186.997	-9.56
187.216	-7.51
187.436	-21.85
187.655	23.21
187.875	-9.56
188.095	2.73
188.314	-44.37
188.534	29.35
188.753	-3.41
188.973	23.21
189.192	43.69
189.412	-23.89
189.631	-11.61
189.851	-42.32
190.07	-7.51
190.29	47.79
190.509	-19.8
190.729	-11.61
190.948	37.55
191.168	51.88
191.387	-5.46
191.607	-7.51
191.826	35.5
192.045	-13.65
192.265	-58.71
192.484	-62.8
192.704	-1.37
192.923	31.4
193.142	60.07
193.362	21.16
193.581	19.11
193.8	-17.75
194.02	29.35
194.239	15.02
194.458	49.83
194.678	17.07
194.897	-32.08
195.116	-40.28
195.335	-23.89
195.555	23.21
195.774	-44.37
195.993	21.16
196.212	-3.41
196.432	15.02
196.651	15.02
196.87	23.21
197.089	8.87
197.308	45.74
197.528	21.16
197.747	4.78
197.966	-30.04
198.185	23.21
198.404	2.73
198.623	2.73
198.842	19.11
199.062	2.73
199.281	62.12
199.5	-11.61
199.719	-9.56
199.938	55.98
200.157	-13.65
200.376	4.78
200.595	-11.61
200.814	21.16
201.033	10.92
201.252	2.73
201.471	45.74
201.69	-17.75
201.909	23.21
202.128	-25.94
202.347	-19.8
202.566	6.83
202.785	-5.46
203.004	-9.56
203.223	6.83
203.442	12.97
203.661	6.83
203.879	-44.37
204.098	-9.56
204.317	2.73
204.536	8.87
204.755	37.55
204.974	-71
205.193	-21.85
205.411	41.64
205.63	68.27
205.849	31.4
206.068	66.22
206.287	-48.47
206.505	10.92
206.724	-15.7
206.943	-25.94
207.162	-7.51
207.381	-27.99
207.599	27.31
207.818	2.73
208.037	25.26
208.255	-23.89
208.474	-23.89
208.693	51.88
208.911	8.87
209.13	8.87
209.349	12.97
209.567	-19.8
209.786	-21.85
210.005	23.21
210.223	29.35
210.442	-38.23
210.661	37.55
210.879	-120.15
211.098	-11.61
211.316	47.79
211.535	51.88
211.753	-7.51
211.972	58.03
212.191	-30.04
212.409	-13.65
212.628	15.02
212.846	55.98
213.065	12.97
213.283	43.69
213.502	37.55
213.72	86.7
213.938	-21.85
214.157	37.55
214.375	31.4
214.594	29.35
214.812	-25.94
215.031	47.79
215.249	6.83
215.467	-15.7
215.686	39.59
215.904	17.07
216.122	17.07
216.341	15.02
216.559	-5.46
216.778	-1.37
216.996	-58.71
217.214	15.02
217.432	62.12
217.651	-30.04
217.869	31.4
218.087	0.68
218.306	-34.13
218.524	49.83
218.742	-83.28
218.96	-38.23
219.179	39.59
219.397	-5.46
219.615	37.55
219.833	-9.56
220.051	27.31
220.27	-17.75
220.488	29.35
220.706	-27.99
220.924	92.84
221.142	47.79
221.36	-19.8
221.578	45.74
221.796	-34.13
222.015	27.31
222.233	-13.65
222.451	39.59
222.669	-32.08
222.887	47.79
223.105	-11.61
223.323	0.68
223.541	-68.95
223.759	-58.71
223.977	8.87
224.195	8.87
224.413	45.74
224.631	23.21
224.849	31.4
225.067	37.55
225.285	29.35
225.503	-1.37
225.721	-34.13
225.939	-38.23
226.157	47.79
226.375	31.4
226.592	-1.37
226.81	6.83
227.028	64.17
227.246	-48.47
227.464	29.35
227.682	10.92
227.9	-11.61
228.117	-30.04
228.335	39.59
228.553	60.07
228.771	10.92
228.989	41.64
229.206	-30.04
229.424	-7.51
229.642	-42.32
229.86	-17.75
230.077	-42.32
230.295	-27.99
230.513	15.02
230.731	121.51
230.948	88.75
231.166	23.21
231.384	55.98
231.601	41.64
231.819	-46.42
232.037	-3.41
232.254	-19.8
232.472	19.11
232.689	37.55
232.907	-19.8
233.125	53.93
233.342	19.11
233.56	-13.65
233.777	55.98
233.995	27.31
234.213	-32.08
234.43	49.83
234.648	-21.85
234.865	17.07
235.083	-9.56
235.3	-30.04
235.518	51.88
235.735	51.88
235.953	2.73
236.17	15.02
236.388	60.07
236.605	-42.32
236.822	10.92
237.04	25.26
237.257	23.21
237.475	-9.56
237.692	-15.7
237.909	-21.85
238.127	8.87
238.344	37.55
238.562	-21.85
238.779	-52.56
238.996	45.74
239.214	-46.42
239.431	-32.08
239.648	-25.94
239.865	17.07
240.083	0.68
240.3	-7.51
240.517	55.98
240.735	23.21
240.952	84.65
241.169	98.99
241.386	-95.57
241.603	88.75
241.821	-11.61
242.038	60.07
242.255	4.78
242.472	25.26
242.689	23.21
242.907	-52.56
243.124	-44.37
243.341	19.11
243.558	64.17
243.775	-17.75
243.992	-21.85
244.209	6.83
244.426	15.02
244.643	-3.41
244.86	10.92
245.078	23.21
245.295	12.97
245.512	39.59
245.729	39.59
245.946	-9.56
246.163	-13.65
246.38	-5.46
246.597	64.17
246.814	80.55
247.031	27.31
247.248	25.26
247.464	35.5
247.681	23.21
247.898	17.07
248.115	-3.41
248.332	6.83
248.549	39.59
248.766	10.92
248.983	31.4
249.2	-9.56
249.417	125.61
249.633	-25.94
249.85	31.4
250.067	15.02
250.284	0.68
250.501	-42.32
250.717	-7.51
250.934	-36.18
251.151	-13.65
251.368	0.68
251.585	29.35
251.801	82.6
252.018	-40.28
252.235	21.16
252.451	68.27
252.668	62.12
252.885	12.97
253.102	19.11
253.318	12.97
253.535	-15.7
253.752	-17.75
253.968	-23.89
254.185	-44.37
254.401	2.73
254.618	-11.61
254.835	-44.37
255.051	10.92
255.268	25.26
255.484	-13.65
255.701	-68.95
255.917	19.11
256.134	47.79
256.351	10.92
256.567	-17.75
256.784	-5.46
257	-30.04
257.217	15.02
257.433	41.64
257.65	53.93
257.866	90.79
258.082	10.92
258.299	6.83
258.515	51.88
258.732	-17.75
258.948	-11.61
259.165	23.21
259.381	-46.42
259.597	6.83
259.814	-13.65
260.03	8.87
260.246	88.75
260.463	-34.13
260.679	33.45
260.895	29.35
261.112	33.45
261.328	-34.13
261.544	-52.56
261.761	86.7
261.977	-25.94
262.193	-5.46
262.409	37.55
262.626	76.46
262.842	6.83
263.058	53.93
263.274	-13.65
263.49	10.92
263.707	84.65
263.923	8.87
264.139	33.45
264.355	23.21
264.571	76.46
264.787	-25.94
265.004	6.83
265.22	39.59
265.436	62.12
265.652	-32.08
265.868	19.11
266.084	6.83
266.3	82.6
266.516	-21.85
266.732	2.73
266.948	-1.37
267.164	29.35
267.38	-1.37
267.596	-7.51
267.812	64.17
268.028	-34.13
268.244	31.4
268.46	47.79
268.676	27.31
268.892	-23.89
269.108	-11.61
269.324	-1.37
269.54	-40.28
269.756	-17.75
269.972	-17.75
270.188	35.5
270.403	27.31
270.619	66.22
270.835	4.78
271.051	6.83
271.267	60.07
271.483	-3.41
271.698	-56.66
271.914	47.79
272.13	4.78
272.346	8.87
272.562	15.02
272.777	-38.23
272.993	23.21
273.209	-3.41
273.425	80.55
273.64	-34.13
273.856	25.26
274.072	-9.56
274.287	4.78
274.503	68.27
274.719	39.59
274.934	-17.75
275.15	55.98
275.366	-5.46
275.581	-5.46
275.797	-7.51
276.012	-25.94
276.228	-40.28
276.444	64.17
276.659	-13.65
276.875	60.07
277.09	4.78
277.306	27.31
277.521	103.08
277.737	-32.08
277.952	39.59
278.168	55.98
278.383	15.02
278.599	41.64
278.814	-23.89
279.03	47.79
279.245	62.12
279.461	-32.08
279.676	68.27
279.892	-21.85
280.107	10.92
280.322	-9.56
280.538	43.69
280.753	-17.75
280.969	47.79
281.184	-3.41
281.399	21.16
281.615	-52.56
281.83	-42.32
282.045	25.26
282.26	8.87
282.476	39.59
282.691	-34.13
282.906	6.83
283.122	2.73
283.337	15.02
283.552	53.93
283.767	17.07
283.983	-23.89
284.198	-56.66
284.413	-11.61
284.628	23.21
284.843	10.92
285.058	60.07
285.274	0.68
285.489	2.73
285.704	53.93
285.919	-25.94
286.134	21.16
286.349	21.16
286.564	70.31
286.779	96.94
286.995	-99.67
287.21	-58.71
287.425	80.55
287.64	10.92
287.855	23.21
288.07	21.16
288.285	-58.71
288.5	21.16
288.715	27.31
288.93	6.83
289.145	27.31
289.36	82.6
289.575	41.64
289.79	33.45
290.004	64.17
290.219	74.41
290.434	-7.51
290.649	-1.37
290.864	-15.7
291.079	33.45
291.294	10.92
291.509	-19.8
291.724	23.21
291.938	64.17
292.153	-23.89
292.368	4.78
292.583	-114
292.798	-27.99
293.012	-5.46
293.227	6.83
293.442	-3.41
293.657	-15.7
293.871	49.83
294.086	-13.65
294.301	-13.65
294.516	6.83
294.73	-15.7
294.945	-17.75
295.16	-48.47
295.374	33.45
295.589	23.21
295.804	-23.89
296.018	-15.7
296.233	19.11
296.447	45.74
296.662	31.4
296.877	21.16
297.091	-27.99
297.306	0.68
297.52	-30.04
297.735	21.16
297.949	12.97
298.164	-23.89
298.378	31.4
298.593	35.5
298.807	12.97
299.022	6.83
299.236	45.74
299.451	15.02
299.665	-3.41
299.88	21.16
300.094	-9.56
300.309	-36.18
300.523	12.97
300.737	-91.48
300.952	25.26
301.166	64.17
301.381	17.07
301.595	74.41
301.809	25.26
302.024	58.03
302.238	-23.89
302.452	-19.8
302.667	15.02
302.881	60.07
303.095	8.87
303.309	60.07
303.524	-52.56
303.738	98.99
303.952	45.74
304.166	-19.8
304.381	2.73
304.595	12.97
304.809	-23.89
305.023	-17.75
305.237	-9.56
305.452	4.78
305.666	37.55
305.88	6.83
306.094	35.5
306.308	0.68
306.522	31.4
306.736	33.45
306.95	43.69
307.164	-21.85
307.379	37.55
307.593	-9.56
307.807	55.98
308.021	-25.94
308.235	103.08
308.449	-46.42
308.663	31.4
308.877	6.83
309.091	31.4
309.305	-1.37
309.519	-32.08
309.733	127.66
309.947	-13.65
310.161	-44.37
310.374	27.31
310.588	53.93
310.802	-42.32
311.016	27.31
311.23	-25.94
311.444	15.02
311.658	10.92
311.872	23.21
312.085	12.97
312.299	-1.37
312.513	-46.42
312.727	39.59
312.941	10.92
313.154	37.55
313.368	47.79
313.582	29.35
313.796	31.4
314.009	-27.99
314.223	21.16
314.437	55.98
314.651	37.55
314.864	39.59
315.078	-15.7
315.292	66.22
315.505	68.27
315.719	-9.56
315.933	6.83
316.146	60.07
316.36	-3.41
316.573	60.07
316.787	37.55
317.001	-19.8
317.214	-23.89
317.428	37.55
317.641	-27.99
317.855	-42.32
318.068	62.12
318.282	-11.61
318.495	2.73
318.709	62.12
318.922	-5.46
319.136	37.55
319.349	-44.37
319.563	4.78
319.776	62.12
319.99	-5.46
320.203	-19.8
320.417	2.73
320.63	105.13
320.843	15.02
321.057	74.41
321.27	0.68
321.483	47.79
321.697	37.55
321.91	62.12
322.124	-5.46
322.337	64.17
322.55	27.31
322.763	47.79
322.977	64.17
323.19	47.79
323.403	55.98
323.617	19.11
323.83	58.03
324.043	21.16
324.256	-5.46
324.469	10.92
324.683	17.07
324.896	-3.41
325.109	-3.41
325.322	-25.94
325.535	78.51
325.748	31.4
325.962	2.73
326.175	-19.8
326.388	31.4
326.601	-19.8
326.814	-13.65
327.027	27.31
327.24	-36.18
327.453	-1.37
327.666	10.92
327.879	58.03
328.092	72.36
328.305	6.83
328.518	15.02
328.731	-34.13
328.944	-50.52
329.157	-1.37
329.37	17.07
329.583	10.92
329.796	58.03
330.009	8.87
330.222	35.5
330.435	-9.56
330.648	64.17
330.861	45.74
331.073	60.07
331.286	-13.65
331.499	23.21
331.712	-9.56
331.925	-5.46
332.138	29.35
332.35	-9.56
332.563	-25.94
332.776	23.21
332.989	23.21
333.202	-5.46
333.414	-25.94
333.627	8.87
333.84	-13.65
334.053	6.83
334.265	10.92
334.478	2.73
334.691	-32.08
334.903	60.07
335.116	39.59
335.329	-11.61
335.541	-13.65
335.754	72.36
335.966	-7.51
336.179	-23.89
336.392	4.78
336.604	68.27
336.817	41.64
337.029	90.79
337.242	21.16
337.454	35.5
337.667	39.59
337.88	88.75
338.092	-1.37
338.305	-73.04
338.517	-9.56
338.729	12.97
338.942	25.26
339.154	10.92
339.367	2.73
339.579	-30.04
339.792	-25.94
340.004	10.92
340.217	23.21
340.429	-17.75
340.641	37.55
340.854	-40.28
341.066	-56.66
341.278	103.08
341.491	12.97
341.703	55.98
341.915	76.46
342.128	45.74
342.34	-15.7
342.552	33.45
342.764	-34.13
342.977	31.4
343.189	-11.61
343.401	39.59
343.613	39.59
343.826	74.41
344.038	39.59
344.25	-11.61
344.462	49.83
344.674	45.74
344.886	-13.65
345.099	8.87
345.311	101.03
345.523	6.83
345.735	-52.56
345.947	15.02
346.159	6.83
346.371	19.11
346.583	31.4
346.795	23.21
347.007	-27.99
347.219	66.22
347.431	90.79
347.643	55.98
347.855	27.31
348.067	21.16
348.279	31.4
348.491	19.11
348.703	84.65
348.915	21.16
349.127	-13.65
349.339	-1.37
349.551	64.17
349.763	37.55
349.975	23.21
350.187	51.88
350.399	84.65
350.61	84.65
350.822	47.79
351.034	-17.75
351.246	-9.56
351.458	23.21
351.669	72.36
351.881	88.75
352.093	-44.37
352.305	88.75
352.517	21.16
352.728	60.07
352.94	4.78
353.152	19.11
353.363	4.78
353.575	31.4
353.787	-17.75
353.999	15.02
354.21	60.07
354.422	45.74
354.633	-5.46
354.845	-32.08
355.057	12.97
355.268	-1.37
355.48	12.97
355.692	-32.08
355.903	51.88
356.115	10.92
356.326	49.83
356.538	60.07
356.749	-11.61
356.961	-9.56
357.172	-9.56
357.384	45.74
357.595	43.69
357.807	58.03
358.018	72.36
358.23	47.79
358.441	-19.8
358.653	58.03
358.864	58.03
359.075	-116.05
359.287	49.83
359.498	60.07
359.709	25.26
359.921	6.83
360.132	43.69
360.344	58.03
360.555	31.4
360.766	105.13
360.977	-21.85
361.189	2.73
361.4	94.89
361.611	113.32
361.823	-46.42
362.034	-7.51
362.245	-85.33
362.456	12.97
362.667	35.5
362.879	19.11
363.09	-52.56
363.301	76.46
363.512	70.31
363.723	43.69
363.935	0.68
364.146	35.5
364.357	-50.52
364.568	68.27
364.779	39.59
364.99	55.98
365.201	-38.23
365.412	39.59
365.623	-66.9
365.834	-5.46
366.045	-66.9
366.256	45.74
366.467	12.97
366.678	25.26
366.889	49.83
367.1	23.21
367.311	55.98
367.522	23.21
367.733	80.55
367.944	27.31
368.155	25.26
368.366	-17.75
368.577	19.11
368.788	-17.75
368.999	-9.56
369.209	49.83
369.42	47.79
369.631	-5.46
369.842	47.79
370.053	25.26
370.264	74.41
370.474	55.98
370.685	23.21
370.896	53.93
371.107	51.88
371.317	-3.41
371.528	66.22
371.739	47.79
371.95	49.83
372.16	0.68
372.371	96.94
372.582	-50.52
372.792	0.68
373.003	60.07
373.214	2.73
373.424	53.93
373.635	49.83
373.846	8.87
374.056	-11.61
374.267	10.92
374.477	17.07
374.688	4.78
374.898	82.6
375.109	72.36
375.319	25.26
375.53	84.65
375.74	15.02
375.951	55.98
376.161	55.98
376.372	43.69
376.582	80.55
376.793	-19.8
377.003	31.4
377.214	53.93
377.424	88.75
377.635	-5.46
377.845	4.78
378.055	49.83
378.266	10.92
378.476	37.55
378.686	2.73
378.897	-11.61
379.107	-7.51
379.317	6.83
379.528	35.5
379.738	31.4
379.948	8.87
380.158	49.83
380.369	-21.85
380.579	72.36
380.789	10.92
380.999	-21.85
381.21	-13.65
381.42	55.98
381.63	55.98
381.84	60.07
382.05	10.92
382.261	-19.8
382.471	37.55
382.681	-3.41
382.891	-64.85
383.101	68.27
383.311	-25.94
383.521	62.12
383.731	2.73
383.941	53.93
384.151	10.92
384.361	64.17
384.571	21.16
384.781	35.5
384.991	72.36
385.201	51.88
385.411	33.45
385.621	43.69
385.831	-9.56
386.041	10.92
386.251	37.55
386.461	123.56
386.671	125.61
386.881	15.02
387.091	51.88
387.301	101.03
387.511	92.84
387.72	60.07
387.93	31.4
388.14	62.12
388.35	-17.75
388.56	39.59
388.769	-1.37
388.979	-32.08
389.189	43.69
389.399	84.65
389.609	43.69
389.818	53.93
390.028	-32.08
390.238	66.22
390.447	17.07
390.657	2.73
390.867	35.5
391.076	15.02
391.286	6.83
391.496	45.74
391.705	15.02
391.915	105.13
392.125	39.59
392.334	70.31
392.544	72.36
392.753	74.41
392.963	-1.37
393.172	15.02
393.382	47.79
393.591	105.13
393.801	94.89
394.01	72.36
394.22	58.03
394.429	37.55
394.639	21.16
394.848	90.79
395.058	-9.56
395.267	76.46
395.477	96.94
395.686	68.27
395.895	31.4
396.105	121.51
396.314	51.88
396.524	62.12
396.733	64.17
396.942	148.14
397.152	60.07
397.361	148.14
397.57	47.79
397.78	29.35
397.989	88.75
398.198	141.99
398.407	64.17
398.617	64.17
398.826	45.74
399.035	6.83
399.244	162.47
399.453	96.94
399.663	55.98
399.872	123.56
400.081	66.22
400.29	88.75
400.499	68.27
400.708	78.51
400.917	119.46
401.127	113.32
401.336	131.75
401.545	115.37
401.754	111.27
401.963	129.7
402.172	107.18
402.381	68.27
402.59	64.17
402.799	109.22
403.008	96.94
403.217	98.99
403.426	137.9
403.635	68.27
403.844	121.51
404.053	129.7
404.262	125.61
404.471	211.62
404.68	96.94
404.888	129.7
405.097	232.1
405.306	137.9
405.515	168.62
405.724	141.99
405.933	92.84
406.142	156.33
406.35	176.81
406.559	225.96
406.768	176.81
406.977	197.29
407.185	236.2
407.394	162.47
407.603	141.99
407.812	228.01
408.02	191.14
408.229	242.34
408.438	223.91
408.646	228.01
408.855	215.72
409.064	203.43
409.272	271.01
409.481	244.39
409.69	289.45
409.898	277.16
410.107	307.88
410.315	344.74
410.524	336.55
410.733	311.97
410.941	373.41
411.15	285.35
411.358	432.8
411.567	357.03
411.775	391.84
411.984	414.37
412.192	471.72
412.401	420.52
412.609	424.61
412.818	502.43
413.026	553.63
413.234	527.01
413.443	524.96
413.651	563.87
413.86	455.33
414.068	549.54
414.276	670.37
414.485	680.61
414.693	555.68
414.901	633.5
415.11	615.07
415.318	742.05
415.526	684.7
415.734	813.73
415.943	838.3
416.151	793.25
416.359	756.38
416.567	862.88
416.776	948.89
416.984	955.04
417.192	989.85
417.4	1014.43
417.608	936.6
417.817	979.61
418.025	1159.83
418.233	1272.47
418.441	1204.89
418.649	1204.89
418.857	1305.24
419.065	1424.02
419.273	1303.19
419.481	1426.07
419.689	1503.89
419.897	1446.55
420.105	1510.04
420.313	1579.67
420.521	1561.23
420.729	1620.63
420.937	1747.6
421.145	1723.02
421.353	1946.25
421.561	1985.16
421.769	1956.49
421.977	2110.09
422.185	2122.38
422.393	2204.3
422.601	2306.7
422.809	2370.18
423.017	2413.19
423.224	2364.04
423.432	2456.2
423.64	2693.76
423.848	2796.16
424.056	2794.11
424.263	2867.84
424.471	3013.24
424.679	2968.19
424.887	3279.48
425.094	3246.71
425.302	3232.38
425.51	3492.47
425.718	3463.8
425.925	3445.37
426.133	3601.01
426.341	3832.43
426.548	4043.37
426.756	4143.72
426.964	4153.96
427.171	4325.99
427.379	4504.17
427.586	4428.39
427.794	4622.95
428.001	4876.9
428.209	5087.84
428.417	4987.49
428.624	5366.36
428.832	5341.79
429.039	5364.31
429.247	5233.24
429.454	5829.2
429.662	6189.64
429.869	5861.97
430.076	6349.39
430.284	6081.1
430.491	6380.11
430.699	6801.99
430.906	6595.14
431.114	6871.62
431.321	7045.7
431.528	6971.97
431.736	7608.89
431.943	7983.66
432.15	7868.98
432.358	7883.31
432.565	8229.42
432.772	8174.13
432.979	8731.17
433.187	8868.39
433.394	8862.24
433.601	9452.06
433.808	9474.59
434.016	9382.43
434.223	9984.53
434.43	10373.64
434.637	10261.01
434.844	10885.64
435.052	11100.67
435.259	11090.43
435.466	10992.13
435.673	11024.9
435.88	11721.21
436.087	12173.81
436.294	12360.17
436.501	12012.02
436.708	12392.94
436.915	12820.97
437.122	13148.64
437.329	13396.45
437.537	13826.52
437.743	13924.82
437.95	13629.91
438.157	14389.71
438.364	14961.09
438.571	15161.8
438.778	15022.53
438.985	16566.7
439.192	16058.81
439.399	16236.98
439.606	16148.92
439.813	16675.24
440.02	17678.75
440.227	17447.33
440.433	17220
440.64	17719.71
440.847	17957.27
441.054	17957.27
441.261	19462.53
441.467	19327.36
441.674	19648.89
441.881	20439.41
442.088	20226.42
442.294	20236.66
442.501	20554.1
442.708	20918.64
442.914	21836.13
443.121	22759.76
443.328	22401.36
443.534	23572.8
443.741	23103.82
443.948	22800.72
444.154	24510.77
444.361	24236.34
444.568	24586.55
444.774	24363.32
444.981	24578.36
445.187	25424.17
445.394	26378.52
445.6	25864.48
445.807	28698.87
446.013	27273.48
446.22	27779.33
446.426	28942.58
446.633	29370.6
446.839	30234.85
447.046	28993.78
447.252	30406.87
447.459	30666.97
447.665	30460.12
447.871	31719.62
448.078	33458.35
448.284	31682.76
448.491	32680.12
448.697	33994.92
448.903	34177.19
449.11	34517.15
449.316	33919.14
449.522	34547.87
449.728	35340.43
449.935	35795.08
450.141	35473.55
450.347	36520.06
450.553	35262.61
450.76	35754.12
450.966	36943.99
451.172	36513.92
451.378	37412.98
451.584	36520.06
451.791	37699.69
451.997	37462.13
452.203	38158.44
452.409	37804.14
452.615	37947.5
452.821	36468.86
453.027	36046.98
453.233	37871.72
453.44	36360.32
453.646	37058.68
453.852	36872.31
454.058	37527.66
454.264	36388.99
454.47	37236.85
454.676	36585.6
454.882	37613.68
455.088	34529.44
455.294	34769.05
455.5	35344.53
455.705	35676.3
455.911	34162.85
456.117	33642.67
456.323	33317.04
456.529	31387.85
456.735	32932.02
456.941	32004.29
457.147	31551.69
457.352	30525.66
457.558	29853.92
457.764	30036.19
457.97	29354.22
458.176	29268.2
458.381	29090.03
458.587	27699.46
458.793	27625.73
458.999	26210.59
459.204	27730.18
459.41	27101.45
459.616	25440.55
459.821	25524.52
460.027	25192.75
460.233	24613.17
460.438	23562.56
460.644	23820.61
460.85	22698.32
461.055	22473.04
461.261	22358.36
461.466	20797.81
461.672	20142.46
461.878	21606.75
462.083	20300.15
462.289	19734.91
462.494	19489.15
462.7	18946.44
462.905	18127.25
463.111	18889.1
463.316	18934.15
463.522	18522.51
463.727	18649.49
463.932	18026.9
464.138	18243.99
464.343	18184.6
464.549	17830.3
464.754	18801.04
464.959	18221.46
465.165	17916.31
465.37	17301.92
465.575	16791.98
465.781	17572.25
465.986	17795.48
466.191	17025.45
466.397	16732.59
466.602	15937.98
466.807	16658.86
