Data from USB4F104151__35__11-36-49-105.txt Node

Date: Fri Mar 14 11:36:49 EDT 2025
User: louis
Spectrometer: USB4F10415
Trigger mode: 4
Integration Time (sec): 2.000000E-2
Scans to average: 1
Electric dark correction enabled: true
Nonlinearity correction enabled: false
Boxcar width: 0
XAxis mode: Wavelengths
Number of Pixels in Spectrum: 3648
>>>>>Begin Spectral Data<<<<<
178.204	-80.38
178.424	-80.38
178.644	-80.38
178.864	-80.38
179.084	-68.09
179.304	-8.7
179.524	30.21
179.744	-59.9
179.964	34.3
180.184	9.73
180.404	26.11
180.624	19.97
180.844	22.02
181.064	-35.33
181.283	-51.71
181.503	-29.18
181.723	42.5
181.943	-61.95
182.163	91.65
182.383	1.54
182.602	-0.51
182.822	-80.38
183.042	-14.85
183.262	-70.14
183.482	71.17
183.701	-23.04
183.921	24.06
184.141	9.73
184.361	62.98
184.58	19.97
184.8	15.87
185.02	7.68
185.239	7.68
185.459	-43.52
185.679	52.74
185.898	-88.57
186.118	50.69
186.338	-49.66
186.557	28.16
186.777	1.54
186.997	-41.47
187.216	-70.14
187.436	22.02
187.655	1.54
187.875	7.68
188.095	-6.66
188.314	42.5
188.534	1.54
188.753	-47.62
188.973	46.59
189.192	97.79
189.412	42.5
189.631	48.64
189.851	30.21
190.07	-8.7
190.29	17.92
190.509	-10.75
190.729	13.82
190.948	36.35
191.168	34.3
191.387	-2.56
191.607	11.78
191.826	-20.99
192.045	-31.23
192.265	-18.94
192.484	9.73
192.704	38.4
192.923	-10.75
193.142	24.06
193.362	9.73
193.581	-51.71
193.8	5.63
194.02	9.73
194.239	-33.28
194.458	67.07
194.678	-12.8
194.897	30.21
195.116	-12.8
195.335	54.78
195.555	42.5
195.774	24.06
195.993	-8.7
196.212	-12.8
196.432	28.16
196.651	-43.52
196.87	-45.57
197.089	30.21
197.308	58.88
197.528	-16.9
197.747	-8.7
197.966	-10.75
198.185	9.73
198.404	-57.86
198.623	73.21
198.842	-8.7
199.062	19.97
199.281	-35.33
199.5	-0.51
199.719	-6.66
199.938	30.21
200.157	36.35
200.376	-51.71
200.595	-14.85
200.814	44.54
201.033	-27.14
201.252	17.92
201.471	-31.23
201.69	11.78
201.909	7.68
202.128	-29.18
202.347	9.73
202.566	54.78
202.785	9.73
203.004	9.73
203.223	62.98
203.442	46.59
203.661	-45.57
203.879	48.64
204.098	13.82
204.317	1.54
204.536	46.59
204.755	-2.56
204.974	46.59
205.193	-55.81
205.411	17.92
205.63	24.06
205.849	-16.9
206.068	-39.42
206.287	-4.61
206.505	71.17
206.724	28.16
206.943	7.68
207.162	-47.62
207.381	-25.09
207.599	3.58
207.818	-6.66
208.037	-4.61
208.255	-16.9
208.474	26.11
208.693	7.68
208.911	50.69
209.13	11.78
209.349	50.69
209.567	-0.51
209.786	13.82
210.005	36.35
210.223	-25.09
210.442	9.73
210.661	19.97
210.879	-49.66
211.098	9.73
211.316	3.58
211.535	85.5
211.753	34.3
211.972	73.21
212.191	67.07
212.409	-23.04
212.628	22.02
212.846	-8.7
213.065	-10.75
213.283	34.3
213.502	19.97
213.72	-35.33
213.938	36.35
214.157	-27.14
214.375	9.73
214.594	30.21
214.812	22.02
215.031	50.69
215.249	15.87
215.467	73.21
215.686	30.21
215.904	-23.04
216.122	32.26
216.341	11.78
216.559	24.06
216.778	71.17
216.996	67.07
217.214	-18.94
217.432	-53.76
217.651	1.54
217.869	87.55
218.087	-47.62
218.306	-51.71
218.524	91.65
218.742	-51.71
218.96	71.17
219.179	-70.14
219.397	40.45
219.615	38.4
219.833	-6.66
220.051	38.4
220.27	1.54
220.488	40.45
220.706	-23.04
220.924	-35.33
221.142	13.82
221.36	-70.14
221.578	42.5
221.796	-10.75
222.015	-45.57
222.233	58.88
222.451	5.63
222.669	-4.61
222.887	26.11
223.105	52.74
223.323	40.45
223.541	-20.99
223.759	17.92
223.977	-45.57
224.195	30.21
224.413	-43.52
224.631	3.58
224.849	36.35
225.067	22.02
225.285	54.78
225.503	28.16
225.721	-47.62
225.939	60.93
226.157	71.17
226.375	108.03
226.592	-33.28
226.81	19.97
227.028	17.92
227.246	95.74
227.464	19.97
227.682	120.32
227.9	-6.66
228.117	1.54
228.335	5.63
228.553	1.54
228.771	5.63
228.989	116.22
229.206	46.59
229.424	58.88
229.642	38.4
229.86	-2.56
230.077	-4.61
230.295	3.58
230.513	46.59
230.731	22.02
230.948	67.07
231.166	-4.61
231.384	5.63
231.601	-4.61
231.819	83.45
232.037	-31.23
232.254	38.4
232.472	65.02
232.689	44.54
232.907	26.11
233.125	1.54
233.342	26.11
233.56	-16.9
233.777	19.97
233.995	-0.51
234.213	67.07
234.43	-90.62
234.648	30.21
234.865	30.21
235.083	48.64
235.3	-16.9
235.518	93.69
235.735	46.59
235.953	9.73
236.17	75.26
236.388	46.59
236.605	24.06
236.822	69.12
237.04	60.93
237.257	77.31
237.475	81.41
237.692	-41.47
237.909	22.02
238.127	77.31
238.344	17.92
238.562	44.54
238.779	22.02
238.996	5.63
239.214	-49.66
239.431	48.64
239.648	42.5
239.865	-23.04
240.083	44.54
240.3	85.5
240.517	3.58
240.735	46.59
240.952	-31.23
241.169	40.45
241.386	28.16
241.603	-12.8
241.821	5.63
242.038	19.97
242.255	52.74
242.472	-31.23
242.689	40.45
242.907	15.87
243.124	44.54
243.341	-14.85
243.558	-10.75
243.775	13.82
243.992	-55.81
244.209	48.64
244.426	17.92
244.643	34.3
244.86	24.06
245.078	-66.05
245.295	5.63
245.512	40.45
245.729	60.93
245.946	28.16
246.163	-2.56
246.38	75.26
246.597	-23.04
246.814	-10.75
247.031	-27.14
247.248	-49.66
247.464	11.78
247.681	38.4
247.898	-45.57
248.115	52.74
248.332	71.17
248.549	-76.29
248.766	46.59
248.983	-0.51
249.2	-35.33
249.417	26.11
249.633	36.35
249.85	44.54
250.067	46.59
250.284	-16.9
250.501	9.73
250.717	-8.7
250.934	-43.52
251.151	-12.8
251.368	-4.61
251.585	44.54
251.801	-20.99
252.018	-10.75
252.235	52.74
252.451	-14.85
252.668	-45.57
252.885	-10.75
253.102	26.11
253.318	34.3
253.535	-18.94
253.752	-12.8
253.968	13.82
254.185	-18.94
254.401	-27.14
254.618	28.16
254.835	-8.7
255.051	91.65
255.268	-29.18
255.484	26.11
255.701	-20.99
255.917	50.69
256.134	-4.61
256.351	-12.8
256.567	-35.33
256.784	32.26
257	-37.38
257.217	-2.56
257.433	36.35
257.65	3.58
257.866	30.21
258.082	65.02
258.299	-39.42
258.515	-53.76
258.732	7.68
258.948	-27.14
259.165	-6.66
259.381	44.54
259.597	-8.7
259.814	108.03
260.03	40.45
260.246	-29.18
260.463	73.21
260.679	19.97
260.895	-33.28
261.112	-2.56
261.328	54.78
261.544	19.97
261.761	9.73
261.977	-31.23
262.193	-16.9
262.409	9.73
262.626	-16.9
262.842	-27.14
263.058	-47.62
263.274	32.26
263.49	-23.04
263.707	30.21
263.923	34.3
264.139	7.68
264.355	-4.61
264.571	24.06
264.787	42.5
265.004	65.02
265.22	30.21
265.436	13.82
265.652	-53.76
265.868	9.73
266.084	-4.61
266.3	65.02
266.516	60.93
266.732	32.26
266.948	5.63
267.164	54.78
267.38	38.4
267.596	30.21
267.812	30.21
268.028	36.35
268.244	-0.51
268.46	-6.66
268.676	19.97
268.892	26.11
269.108	22.02
269.324	-47.62
269.54	1.54
269.756	-2.56
269.972	-0.51
270.188	-4.61
270.403	30.21
270.619	-27.14
270.835	22.02
271.051	13.82
271.267	60.93
271.483	7.68
271.698	1.54
271.914	24.06
272.13	46.59
272.346	30.21
272.562	-78.33
272.777	17.92
272.993	71.17
273.209	3.58
273.425	5.63
273.64	9.73
273.856	-29.18
274.072	-14.85
274.287	22.02
274.503	91.65
274.719	22.02
274.934	26.11
275.15	-59.9
275.366	22.02
275.581	-0.51
275.797	-0.51
276.012	30.21
276.228	30.21
276.444	17.92
276.659	77.31
276.875	-55.81
277.09	17.92
277.306	-8.7
277.521	30.21
277.737	30.21
277.952	1.54
278.168	73.21
278.383	-33.28
278.599	28.16
278.814	60.93
279.03	-64
279.245	95.74
279.461	-53.76
279.676	-4.61
279.892	-35.33
280.107	19.97
280.322	-27.14
280.538	-14.85
280.753	-4.61
280.969	44.54
281.184	54.78
281.399	52.74
281.615	56.83
281.83	52.74
282.045	28.16
282.26	24.06
282.476	46.59
282.691	-10.75
282.906	-18.94
283.122	-66.05
283.337	3.58
283.552	30.21
283.767	17.92
283.983	-41.47
284.198	-10.75
284.413	62.98
284.628	-43.52
284.843	40.45
285.058	-14.85
285.274	1.54
285.489	5.63
285.704	13.82
285.919	-27.14
286.134	13.82
286.349	7.68
286.564	58.88
286.779	50.69
286.995	19.97
287.21	15.87
287.425	85.5
287.64	-0.51
287.855	9.73
288.07	19.97
288.285	46.59
288.5	13.82
288.715	11.78
288.93	-2.56
289.145	17.92
289.36	-4.61
289.575	9.73
289.79	-2.56
290.004	-18.94
290.219	54.78
290.434	46.59
290.649	-45.57
290.864	-8.7
291.079	50.69
291.294	50.69
291.509	17.92
291.724	11.78
291.938	5.63
292.153	13.82
292.368	15.87
292.583	11.78
292.798	30.21
293.012	5.63
293.227	-16.9
293.442	13.82
293.657	13.82
293.871	75.26
294.086	-4.61
294.301	83.45
294.516	-23.04
294.73	-57.86
294.945	58.88
295.16	24.06
295.374	38.4
295.589	65.02
295.804	7.68
296.018	36.35
296.233	-10.75
296.447	-16.9
296.662	19.97
296.877	19.97
297.091	26.11
297.306	-29.18
297.52	-35.33
297.735	54.78
297.949	62.98
298.164	75.26
298.378	83.45
298.593	-12.8
298.807	32.26
299.022	24.06
299.236	36.35
299.451	44.54
299.665	-39.42
299.88	26.11
300.094	-49.66
300.309	58.88
300.523	28.16
300.737	3.58
300.952	58.88
301.166	19.97
301.381	11.78
301.595	-6.66
301.809	19.97
302.024	-55.81
302.238	93.69
302.452	58.88
302.667	-88.57
302.881	73.21
303.095	-2.56
303.309	-39.42
303.524	22.02
303.738	-4.61
303.952	13.82
304.166	34.3
304.381	17.92
304.595	54.78
304.809	11.78
305.023	28.16
305.237	-2.56
305.452	-31.23
305.666	48.64
305.88	38.4
306.094	-14.85
306.308	91.65
306.522	22.02
306.736	1.54
306.95	-29.18
307.164	15.87
307.379	73.21
307.593	46.59
307.807	46.59
308.021	85.5
308.235	17.92
308.449	38.4
308.663	9.73
308.877	42.5
309.091	30.21
309.305	54.78
309.519	-59.9
309.733	-14.85
309.947	9.73
310.161	32.26
310.374	-2.56
310.588	83.45
310.802	-8.7
311.016	-0.51
311.23	1.54
311.444	34.3
311.658	22.02
311.872	-20.99
312.085	77.31
312.299	13.82
312.513	50.69
312.727	30.21
312.941	24.06
313.154	38.4
313.368	62.98
313.582	44.54
313.796	-25.09
314.009	-6.66
314.223	11.78
314.437	9.73
314.651	62.98
314.864	-18.94
315.078	-2.56
315.292	38.4
315.505	-27.14
315.719	11.78
315.933	13.82
316.146	85.5
316.36	-27.14
316.573	-23.04
316.787	44.54
317.001	46.59
317.214	77.31
317.428	5.63
317.641	-12.8
317.855	83.45
318.068	11.78
318.282	-18.94
318.495	60.93
318.709	32.26
318.922	79.36
319.136	50.69
319.349	30.21
319.563	48.64
319.776	5.63
319.99	19.97
320.203	42.5
320.417	95.74
320.63	38.4
320.843	75.26
321.057	42.5
321.27	32.26
321.483	-18.94
321.697	34.3
321.91	34.3
322.124	26.11
322.337	3.58
322.55	-31.23
322.763	17.92
322.977	-12.8
323.19	13.82
323.403	19.97
323.617	95.74
323.83	112.13
324.043	67.07
324.256	50.69
324.469	-78.33
324.683	73.21
324.896	11.78
325.109	-31.23
325.322	-0.51
325.535	28.16
325.748	24.06
325.962	11.78
326.175	83.45
326.388	85.5
326.601	65.02
326.814	26.11
327.027	13.82
327.24	46.59
327.453	13.82
327.666	11.78
327.879	-0.51
328.092	62.98
328.305	3.58
328.518	60.93
328.731	-57.86
328.944	-14.85
329.157	44.54
329.37	75.26
329.583	-16.9
329.796	91.65
330.009	-4.61
330.222	-6.66
330.435	28.16
330.648	40.45
330.861	17.92
331.073	30.21
331.286	11.78
331.499	108.03
331.712	-6.66
331.925	28.16
332.138	3.58
332.35	-25.09
332.563	38.4
332.776	79.36
332.989	46.59
333.202	-12.8
333.414	77.31
333.627	24.06
333.84	19.97
334.053	58.88
334.265	-0.51
334.478	62.98
334.691	52.74
334.903	26.11
335.116	30.21
335.329	46.59
335.541	17.92
335.754	91.65
335.966	36.35
336.179	67.07
336.392	13.82
336.604	42.5
336.817	91.65
337.029	-12.8
337.242	17.92
337.454	-12.8
337.667	22.02
337.88	28.16
338.092	-47.62
338.305	3.58
338.517	-10.75
338.729	38.4
338.942	75.26
339.154	62.98
339.367	58.88
339.579	-47.62
339.792	65.02
340.004	65.02
340.217	-31.23
340.429	19.97
340.641	7.68
340.854	42.5
341.066	-12.8
341.278	5.63
341.491	97.79
341.703	73.21
341.915	13.82
342.128	73.21
342.34	5.63
342.552	60.93
342.764	3.58
342.977	30.21
343.189	-10.75
343.401	38.4
343.613	-53.76
343.826	-2.56
344.038	-20.99
344.25	28.16
344.462	19.97
344.674	77.31
344.886	-4.61
345.099	-16.9
345.311	22.02
345.523	75.26
345.735	15.87
345.947	-4.61
346.159	-10.75
346.371	28.16
346.583	69.12
346.795	54.78
347.007	5.63
347.219	42.5
347.431	-39.42
347.643	60.93
347.855	28.16
348.067	-6.66
348.279	-66.05
348.491	50.69
348.703	-8.7
348.915	-35.33
349.127	-18.94
349.339	71.17
349.551	-31.23
349.763	97.79
349.975	22.02
350.187	54.78
350.399	48.64
350.61	30.21
350.822	-31.23
351.034	17.92
351.246	52.74
351.458	5.63
351.669	1.54
351.881	50.69
352.093	30.21
352.305	73.21
352.517	9.73
352.728	95.74
352.94	46.59
353.152	99.84
353.363	5.63
353.575	50.69
353.787	52.74
353.999	95.74
354.21	71.17
354.422	71.17
354.633	28.16
354.845	38.4
355.057	54.78
355.268	75.26
355.48	-18.94
355.692	50.69
355.903	38.4
356.115	7.68
356.326	-0.51
356.538	-2.56
356.749	28.16
356.961	17.92
357.172	30.21
357.384	24.06
357.595	105.98
357.807	1.54
358.018	-57.86
358.23	-2.56
358.441	71.17
358.653	101.89
358.864	30.21
359.075	71.17
359.287	79.36
359.498	-18.94
359.709	22.02
359.921	5.63
360.132	75.26
360.344	22.02
360.555	-29.18
360.766	54.78
360.977	-8.7
361.189	56.83
361.4	52.74
361.611	67.07
361.823	54.78
362.034	48.64
362.245	42.5
362.456	-29.18
362.667	7.68
362.879	34.3
363.09	48.64
363.301	71.17
363.512	3.58
363.723	67.07
363.935	-35.33
364.146	132.61
364.357	52.74
364.568	56.83
364.779	9.73
364.99	81.41
365.201	38.4
365.412	87.55
365.623	13.82
365.834	-39.42
366.045	32.26
366.256	62.98
366.467	142.85
366.678	114.17
366.889	62.98
367.1	9.73
367.311	44.54
367.522	65.02
367.733	50.69
367.944	97.79
368.155	60.93
368.366	-0.51
368.577	73.21
368.788	30.21
368.999	83.45
369.209	62.98
369.42	-18.94
369.631	48.64
369.842	17.92
370.053	26.11
370.264	69.12
370.474	26.11
370.685	77.31
370.896	71.17
371.107	77.31
371.317	19.97
371.528	-49.66
371.739	28.16
371.95	75.26
372.16	26.11
372.371	67.07
372.582	24.06
372.792	77.31
373.003	79.36
373.214	62.98
373.424	81.41
373.635	-33.28
373.846	46.59
374.056	-18.94
374.267	3.58
374.477	15.87
374.688	26.11
374.898	5.63
375.109	108.03
375.319	26.11
375.53	52.74
375.74	9.73
375.951	46.59
376.161	62.98
376.372	54.78
376.582	69.12
376.793	36.35
377.003	30.21
377.214	9.73
377.424	40.45
377.635	17.92
377.845	-10.75
378.055	67.07
378.266	13.82
378.476	9.73
378.686	-18.94
378.897	87.55
379.107	69.12
379.317	60.93
379.528	17.92
379.738	38.4
379.948	24.06
380.158	60.93
380.369	7.68
380.579	93.69
380.789	-16.9
380.999	42.5
381.21	58.88
381.42	52.74
381.63	79.36
381.84	48.64
382.05	34.3
382.261	83.45
382.471	-14.85
382.681	-10.75
382.891	19.97
383.101	65.02
383.311	11.78
383.521	87.55
383.731	54.78
383.941	50.69
384.151	99.84
384.361	44.54
384.571	38.4
384.781	38.4
384.991	83.45
385.201	69.12
385.411	101.89
385.621	17.92
385.831	46.59
386.041	19.97
386.251	58.88
386.461	103.93
386.671	52.74
386.881	91.65
387.091	22.02
387.301	30.21
387.511	-2.56
387.72	56.83
387.93	65.02
388.14	71.17
388.35	52.74
388.56	42.5
388.769	38.4
388.979	108.03
389.189	65.02
389.399	108.03
389.609	-45.57
389.818	67.07
390.028	-33.28
390.238	54.78
390.447	22.02
390.657	58.88
390.867	54.78
391.076	1.54
391.286	-12.8
391.496	13.82
391.705	79.36
391.915	34.3
392.125	67.07
392.334	5.63
392.544	46.59
392.753	30.21
392.963	77.31
393.172	30.21
393.382	30.21
393.591	87.55
393.801	52.74
394.01	87.55
394.22	124.41
394.429	46.59
394.639	50.69
394.848	56.83
395.058	75.26
395.267	28.16
395.477	165.37
395.686	50.69
395.895	134.65
396.105	142.85
396.314	19.97
396.524	17.92
396.733	69.12
396.942	103.93
397.152	95.74
397.361	116.22
397.57	136.7
397.78	87.55
397.989	40.45
398.198	103.93
398.407	9.73
398.617	87.55
398.826	73.21
399.035	95.74
399.244	85.5
399.453	161.28
399.663	128.51
399.872	112.13
400.081	75.26
400.29	159.23
400.499	46.59
400.708	159.23
400.917	75.26
401.127	67.07
401.336	79.36
401.545	130.56
401.754	17.92
401.963	155.13
402.172	124.41
402.381	28.16
402.59	54.78
402.799	85.5
403.008	140.8
403.217	153.09
403.426	132.61
403.635	157.18
403.844	155.13
404.053	122.37
404.262	87.55
404.471	169.47
404.68	153.09
404.888	194.05
405.097	93.69
405.306	177.66
405.515	126.46
405.724	169.47
405.933	142.85
406.142	200.19
406.35	167.42
406.559	153.09
406.768	165.37
406.977	177.66
407.185	169.47
407.394	210.43
407.603	157.18
407.812	157.18
408.02	192
408.229	165.37
408.438	241.15
408.646	230.91
408.855	226.81
409.064	292.35
409.272	275.96
409.481	349.69
409.69	261.63
409.898	316.92
410.107	329.21
410.315	292.35
410.524	259.58
410.733	298.49
410.941	400.89
411.15	374.27
411.358	368.12
411.567	415.23
411.775	417.27
411.984	450.04
412.192	458.23
412.401	468.47
412.609	439.8
412.818	517.62
413.026	525.82
413.234	507.38
413.443	595.45
413.651	536.06
413.86	505.34
414.068	587.26
414.276	652.79
414.485	679.41
414.693	620.02
414.901	685.56
415.11	749.04
415.318	806.39
415.526	714.23
415.734	796.15
415.943	822.77
416.151	824.82
416.359	855.54
416.567	783.86
416.776	927.22
416.984	935.41
417.192	1029.62
417.4	1076.72
417.608	1021.42
417.817	1074.67
418.025	1158.64
418.233	1242.61
418.441	1246.7
418.649	1177.07
418.857	1256.94
419.065	1324.52
419.273	1379.82
419.481	1437.16
419.689	1480.17
419.897	1549.8
420.105	1584.62
420.313	1523.18
420.521	1627.62
420.729	1758.69
420.937	1781.22
421.145	1891.81
421.353	1914.34
421.561	1990.11
421.769	2104.8
421.977	2176.48
422.185	2106.85
422.393	2164.19
422.601	2348.51
422.809	2389.47
423.017	2422.24
423.224	2559.45
423.432	2524.63
423.64	2633.18
423.848	2809.3
424.056	2739.67
424.263	2991.57
424.471	2977.23
424.679	3032.53
424.887	3268.05
425.094	3380.68
425.302	3286.48
425.51	3403.21
425.718	3538.38
425.925	3476.94
426.133	3761.61
426.341	3896.77
426.548	4197.82
426.756	4093.38
426.964	4212.16
427.171	4332.99
427.379	4615.61
427.586	4631.99
427.794	4816.31
428.001	4894.13
428.209	5270.96
428.417	4988.34
428.624	5369.26
428.832	5338.54
429.039	5461.42
429.247	5479.85
429.454	6147.49
429.662	6337.95
429.869	5977.51
430.076	6247.84
430.284	6061.48
430.491	6452.64
430.699	6837.66
430.906	6886.81
431.114	6686.11
431.321	7128.47
431.528	7519.63
431.736	7771.53
431.943	8091.01
432.15	7914.89
432.358	8136.07
432.565	8447.36
432.772	8287.62
432.979	8777.08
433.187	8942.97
433.394	8832.38
433.601	9659.76
433.808	9403.76
434.016	9893.23
434.223	9745.77
434.43	10542.43
434.637	10349.92
434.844	10978.65
435.052	11105.62
435.259	11291.99
435.466	11181.4
435.673	11117.91
435.88	11969.87
436.087	12457.28
436.294	12502.34
436.501	12072.26
436.708	12537.15
436.915	13043
437.122	13440.31
437.329	13378.87
437.537	13847.85
437.743	14218.54
437.95	14015.79
438.157	14734.62
438.364	15287.57
438.571	15234.33
438.778	15435.03
438.985	16573.7
439.192	16000.27
439.399	16467.2
439.606	16100.62
439.813	17175.8
440.02	18087.15
440.227	17677.55
440.433	17671.41
440.64	18310.38
440.847	18078.96
441.054	18709.73
441.261	19721.43
441.467	19741.91
441.674	20079.82
441.881	20563.14
442.088	20708.55
442.294	20280.52
442.501	21245.12
442.708	21679.29
442.914	22473.9
443.121	23323.8
443.328	22596.78
443.534	24347.79
443.741	23774.36
443.948	23303.32
444.154	24917.12
444.361	24841.35
444.568	25064.58
444.774	25066.63
444.981	25472.12
445.187	25992.31
445.394	27290.72
445.6	26901.61
445.807	29604.92
446.013	28515.4
446.22	28761.16
446.426	29869.11
446.633	30348.34
446.839	31251.49
447.046	29813.82
447.252	31337.51
447.459	31853.59
447.665	31669.28
447.871	32760.84
448.078	34188.28
448.284	32693.26
448.491	33600.51
448.697	34620.4
448.903	35613.66
449.11	35441.64
449.316	34866.16
449.522	35515.36
449.728	36658.13
449.935	36963.28
450.141	36821.97
450.347	37491.65
450.553	36748.24
450.76	36963.28
450.966	38304.7
451.172	37755.84
451.378	38554.55
451.584	38206.39
451.791	39066.54
451.997	38491.06
452.203	39353.26
452.409	39185.32
452.615	39177.13
452.821	37854.14
453.027	37391.3
453.233	39535.52
453.44	37567.43
453.646	38118.33
453.852	38480.82
454.058	38886.32
454.264	37718.98
454.47	38470.58
454.676	37342.15
454.882	39093.16
455.088	35593.18
455.294	36189.14
455.5	36770.77
455.705	37249.99
455.911	35511.27
456.117	34866.16
456.323	34743.28
456.529	32853
456.735	34157.56
456.941	33600.51
457.147	32949.26
457.352	31824.92
457.558	31263.78
457.764	31546.4
457.97	30821.42
458.176	30254.13
458.381	29955.13
458.587	28716.11
458.793	28679.24
458.999	27137.12
459.204	29121.6
459.41	28400.72
459.616	26506.35
459.821	26578.03
460.027	26250.35
460.233	25941.11
460.438	24677.51
460.644	24816.77
460.85	23970.96
461.055	23264.41
461.261	23129.25
461.466	21798.07
461.672	21023.94
461.878	22535.34
462.083	21091.52
462.289	20483.27
462.494	20333.77
462.7	19340.5
462.905	19164.38
463.111	19514.58
463.316	19840.21
463.522	19084.51
463.727	19238.11
463.932	19311.83
464.138	19322.07
464.343	19121.37
464.549	18558.18
464.754	19377.37
464.959	19352.79
465.165	18910.43
465.37	18212.07
465.575	17745.14
465.781	18152.68
465.986	18611.43
466.191	17849.58
466.397	17767.66
466.602	16590.08
466.807	17229.05
467.012	17194.23
467.218	17233.15
467.423	17233.15
467.628	17100.03
