Data from USB4F104151__4__11-36-17-309.txt Node

Date: Fri Mar 14 11:36:17 EDT 2025
User: louis
Spectrometer: USB4F10415
Trigger mode: 4
Integration Time (sec): 2.000000E-2
Scans to average: 1
Electric dark correction enabled: true
Nonlinearity correction enabled: false
Boxcar width: 0
XAxis mode: Wavelengths
Number of Pixels in Spectrum: 3648
>>>>>Begin Spectral Data<<<<<
178.204	-94.04
178.424	-94.04
178.644	-94.04
178.864	-91.99
179.084	-61.27
179.304	34.99
179.524	14.51
179.744	-30.55
179.964	-59.22
180.184	61.61
180.404	8.36
180.624	34.99
180.844	-8.02
181.064	-22.36
181.283	-36.69
181.503	-44.88
181.723	47.27
181.943	28.84
182.163	-14.17
182.383	10.41
182.602	28.84
182.822	-5.97
183.042	-14.17
183.262	-32.6
183.482	84.14
183.701	61.61
183.921	12.46
184.141	-51.03
184.361	26.79
184.58	-12.12
184.8	-61.27
185.02	-65.36
185.239	47.27
185.459	24.75
185.679	28.84
185.898	-16.21
186.118	-20.31
186.338	69.8
186.557	-10.07
186.777	16.55
186.997	14.51
187.216	-14.17
187.436	55.47
187.655	8.36
187.875	-44.88
188.095	-36.69
188.314	37.03
188.534	12.46
188.753	-67.41
188.973	18.6
189.192	39.08
189.412	-65.36
189.631	26.79
189.851	73.9
190.07	69.8
190.29	34.99
190.509	-12.12
190.729	8.36
190.948	49.32
191.168	69.8
191.387	16.55
191.607	47.27
191.826	22.7
192.045	10.41
192.265	-51.03
192.484	-10.07
192.704	-14.17
192.923	2.22
193.142	10.41
193.362	-5.97
193.581	-38.74
193.8	45.23
194.02	45.23
194.239	20.65
194.458	-53.08
194.678	65.71
194.897	8.36
195.116	4.27
195.335	-8.02
195.555	0.17
195.774	-5.97
195.993	-3.93
196.212	20.65
196.432	-12.12
196.651	6.31
196.87	30.89
197.089	-5.97
197.308	-83.8
197.528	6.31
197.747	-16.21
197.966	-65.36
198.185	10.41
198.404	-12.12
198.623	-28.5
198.842	88.23
199.062	-18.26
199.281	51.37
199.5	4.27
199.719	-22.36
199.938	108.71
200.157	-34.64
200.376	-14.17
200.595	-14.17
200.814	28.84
201.033	53.42
201.252	61.61
201.471	20.65
201.69	80.04
201.909	22.7
202.128	8.36
202.347	80.04
202.566	-67.41
202.785	-40.79
203.004	8.36
203.223	69.8
203.442	-10.07
203.661	-59.22
203.879	14.51
204.098	96.43
204.317	-24.4
204.536	16.55
204.755	-59.22
204.974	16.55
205.193	69.8
205.411	-38.74
205.63	-24.4
205.849	34.99
206.068	-12.12
206.287	-14.17
206.505	-3.93
206.724	53.42
206.943	14.51
207.162	-42.84
207.381	-32.6
207.599	57.51
207.818	-20.31
208.037	-36.69
208.255	-3.93
208.474	22.7
208.693	-69.46
208.911	-20.31
209.13	51.37
209.349	51.37
209.567	-42.84
209.786	77.99
210.005	-1.88
210.223	-69.46
210.442	-8.02
210.661	-30.55
210.879	-46.93
211.098	-32.6
211.316	73.9
211.535	63.66
211.753	-5.97
211.972	4.27
212.191	55.47
212.409	-26.45
212.628	63.66
212.846	-16.21
213.065	-3.93
213.283	63.66
213.502	37.03
213.72	-32.6
213.938	32.94
214.157	12.46
214.375	10.41
214.594	-57.17
214.812	-18.26
215.031	-30.55
215.249	-61.27
215.467	-53.08
215.686	-59.22
215.904	-55.12
216.122	8.36
216.341	65.71
216.559	51.37
216.778	-30.55
216.996	98.47
217.214	-61.27
217.432	53.42
217.651	-28.5
217.869	-22.36
218.087	37.03
218.306	41.13
218.524	24.75
218.742	0.17
218.96	37.03
219.179	43.18
219.397	-57.17
219.615	10.41
219.833	-28.5
220.051	71.85
220.27	-12.12
220.488	-8.02
220.706	18.6
220.924	-26.45
221.142	26.79
221.36	-14.17
221.578	-12.12
221.796	-16.21
222.015	22.7
222.233	47.27
222.451	22.7
222.669	-20.31
222.887	-28.5
223.105	61.61
223.323	-14.17
223.541	-28.5
223.759	-42.84
223.977	67.75
224.195	-36.69
224.413	24.75
224.631	12.46
224.849	-67.41
225.067	-5.97
225.285	-20.31
225.503	14.51
225.721	-57.17
225.939	8.36
226.157	-20.31
226.375	114.86
226.592	2.22
226.81	20.65
227.028	30.89
227.246	30.89
227.464	-42.84
227.682	-5.97
227.9	-1.88
228.117	-16.21
228.335	-24.4
228.553	0.17
228.771	-20.31
228.989	-14.17
229.206	-48.98
229.424	-14.17
229.642	-22.36
229.86	-8.02
230.077	82.09
230.295	22.7
230.513	-1.88
230.731	-48.98
230.948	26.79
231.166	34.99
231.384	-10.07
231.601	37.03
231.819	94.38
232.037	49.32
232.254	-44.88
232.472	-3.93
232.689	-34.64
232.907	12.46
233.125	43.18
233.342	16.55
233.56	4.27
233.777	34.99
233.995	65.71
234.213	22.7
234.43	-22.36
234.648	2.22
234.865	-42.84
235.083	43.18
235.3	-14.17
235.518	-63.32
235.735	-16.21
235.953	-16.21
236.17	-46.93
236.388	24.75
236.605	20.65
236.822	-8.02
237.04	8.36
237.257	-16.21
237.475	2.22
237.692	-16.21
237.909	-5.97
238.127	10.41
238.344	8.36
238.562	4.27
238.779	-28.5
238.996	69.8
239.214	0.17
239.431	2.22
239.648	-34.64
239.865	-22.36
240.083	24.75
240.3	14.51
240.517	41.13
240.735	-10.07
240.952	-12.12
241.169	22.7
241.386	53.42
241.603	-36.69
241.821	-3.93
242.038	24.75
242.255	49.32
242.472	-8.02
242.689	-12.12
242.907	10.41
243.124	20.65
243.341	-40.79
243.558	63.66
243.775	0.17
243.992	10.41
244.209	34.99
244.426	51.37
244.643	-5.97
244.86	-16.21
245.078	61.61
245.295	69.8
245.512	-16.21
245.729	-38.74
245.946	86.19
246.163	51.37
246.38	30.89
246.597	-5.97
246.814	-16.21
247.031	-3.93
247.248	-67.41
247.464	-63.32
247.681	10.41
247.898	75.95
248.115	-3.93
248.332	32.94
248.549	47.27
248.766	73.9
248.983	53.42
249.2	-36.69
249.417	0.17
249.633	39.08
249.85	57.51
250.067	-38.74
250.284	14.51
250.501	4.27
250.717	4.27
250.934	-114.52
251.151	71.85
251.368	-3.93
251.585	-36.69
251.801	-32.6
252.018	18.6
252.235	61.61
252.451	-24.4
252.668	-30.55
252.885	-53.08
253.102	-30.55
253.318	86.19
253.535	8.36
253.752	10.41
253.968	96.43
254.185	-28.5
254.401	49.32
254.618	16.55
254.835	-57.17
255.051	61.61
255.268	-16.21
255.484	41.13
255.701	18.6
255.917	49.32
256.134	-3.93
256.351	-3.93
256.567	-53.08
256.784	20.65
257	28.84
257.217	51.37
257.433	34.99
257.65	-8.02
257.866	59.56
258.082	0.17
258.299	-22.36
258.515	49.32
258.732	-16.21
258.948	-16.21
259.165	12.46
259.381	8.36
259.597	16.55
259.814	-12.12
260.03	73.9
260.246	16.55
260.463	22.7
260.679	-22.36
260.895	-89.94
261.112	16.55
261.328	12.46
261.544	2.22
261.761	86.19
261.977	-79.7
262.193	-69.46
262.409	20.65
262.626	-38.74
262.842	69.8
263.058	0.17
263.274	-14.17
263.49	28.84
263.707	106.67
263.923	34.99
264.139	-12.12
264.355	4.27
264.571	65.71
264.787	-38.74
265.004	-8.02
265.22	34.99
265.436	-10.07
265.652	26.79
265.868	30.89
266.084	6.31
266.3	-36.69
266.516	-1.88
266.732	10.41
266.948	49.32
267.164	8.36
267.38	2.22
267.596	-20.31
267.812	71.85
268.028	2.22
268.244	-102.23
268.46	22.7
268.676	6.31
268.892	-73.56
269.108	-10.07
269.324	-3.93
269.54	34.99
269.756	18.6
269.972	-28.5
270.188	2.22
270.403	28.84
270.619	71.85
270.835	-57.17
271.051	-55.12
271.267	-20.31
271.483	-26.45
271.698	49.32
271.914	-34.64
272.13	10.41
272.346	-12.12
272.562	47.27
272.777	20.65
272.993	-65.36
273.209	41.13
273.425	14.51
273.64	-59.22
273.856	65.71
274.072	4.27
274.287	47.27
274.503	12.46
274.719	-22.36
274.934	20.65
275.15	-14.17
275.366	37.03
275.581	-22.36
275.797	67.75
276.012	-24.4
276.228	26.79
276.444	55.47
276.659	37.03
276.875	10.41
277.09	-22.36
277.306	-36.69
277.521	24.75
277.737	2.22
277.952	51.37
278.168	59.56
278.383	49.32
278.599	16.55
278.814	6.31
279.03	61.61
279.245	-16.21
279.461	41.13
279.676	12.46
279.892	-3.93
280.107	-3.93
280.322	18.6
280.538	82.09
280.753	-20.31
280.969	28.84
281.184	-8.02
281.399	-16.21
281.615	71.85
281.83	18.6
282.045	20.65
282.26	-10.07
282.476	2.22
282.691	61.61
282.906	16.55
283.122	-24.4
283.337	-3.93
283.552	-26.45
283.767	-5.97
283.983	30.89
284.198	24.75
284.413	-44.88
284.628	12.46
284.843	26.79
285.058	-22.36
285.274	-16.21
285.489	-36.69
285.704	-32.6
285.919	-32.6
286.134	4.27
286.349	-36.69
286.564	-46.93
286.779	-51.03
286.995	-18.26
287.21	-14.17
287.425	-30.55
287.64	30.89
287.855	32.94
288.07	-12.12
288.285	-36.69
288.5	16.55
288.715	57.51
288.93	37.03
289.145	-8.02
289.36	14.51
289.575	-85.84
289.79	4.27
290.004	4.27
290.219	-36.69
290.434	-24.4
290.649	28.84
290.864	26.79
291.079	67.75
291.294	34.99
291.509	-10.07
291.724	4.27
291.938	-8.02
292.153	20.65
292.368	8.36
292.583	59.56
292.798	10.41
293.012	12.46
293.227	-5.97
293.442	16.55
293.657	-12.12
293.871	4.27
294.086	-5.97
294.301	0.17
294.516	-10.07
294.73	32.94
294.945	-5.97
295.16	-26.45
295.374	143.53
295.589	20.65
295.804	26.79
296.018	0.17
296.233	34.99
296.447	6.31
296.662	-24.4
296.877	20.65
297.091	10.41
297.306	37.03
297.52	-18.26
297.735	0.17
297.949	32.94
298.164	80.04
298.378	22.7
298.593	-61.27
298.807	10.41
299.022	4.27
299.236	34.99
299.451	26.79
299.665	-16.21
299.88	-24.4
300.094	10.41
300.309	-20.31
300.523	-18.26
300.737	-8.02
300.952	73.9
301.166	6.31
301.381	-34.64
301.595	-30.55
301.809	4.27
302.024	28.84
302.238	-1.88
302.452	32.94
302.667	24.75
302.881	18.6
303.095	-18.26
303.309	-14.17
303.524	-20.31
303.738	-42.84
303.952	14.51
304.166	-3.93
304.381	-73.56
304.595	0.17
304.809	-3.93
305.023	-34.64
305.237	2.22
305.452	-1.88
305.666	-20.31
305.88	0.17
306.094	18.6
306.308	43.18
306.522	14.51
306.736	14.51
306.95	80.04
307.164	69.8
307.379	41.13
307.593	51.37
307.807	82.09
308.021	32.94
308.235	22.7
308.449	-59.22
308.663	24.75
308.877	-20.31
309.091	18.6
309.305	77.99
309.519	-61.27
309.733	-38.74
309.947	-30.55
310.161	75.95
310.374	55.47
310.588	-18.26
310.802	28.84
311.016	39.08
311.23	-1.88
311.444	90.28
311.658	41.13
311.872	43.18
312.085	-5.97
312.299	121
312.513	16.55
312.727	-40.79
312.941	-1.88
313.154	43.18
313.368	-48.98
313.582	6.31
313.796	-40.79
314.009	-10.07
314.223	-12.12
314.437	22.7
314.651	-10.07
314.864	45.23
315.078	-30.55
315.292	-32.6
315.505	2.22
315.719	28.84
315.933	30.89
316.146	14.51
316.36	-3.93
316.573	26.79
316.787	39.08
317.001	34.99
317.214	20.65
317.428	-22.36
317.641	-55.12
317.855	51.37
318.068	-12.12
318.282	63.66
318.495	82.09
318.709	8.36
318.922	-26.45
319.136	55.47
319.349	-32.6
319.563	37.03
319.776	-18.26
319.99	12.46
320.203	12.46
320.417	-16.21
320.63	-28.5
320.843	20.65
321.057	26.79
321.27	-71.51
321.483	2.22
321.697	-57.17
321.91	20.65
322.124	24.75
322.337	30.89
322.55	4.27
322.763	49.32
322.977	-16.21
323.19	4.27
323.403	4.27
323.617	0.17
323.83	28.84
324.043	-12.12
324.256	59.56
324.469	6.31
324.683	-5.97
324.896	16.55
325.109	-12.12
325.322	-30.55
325.535	75.95
325.748	-3.93
325.962	22.7
326.175	16.55
326.388	39.08
326.601	12.46
326.814	-22.36
327.027	108.71
327.24	24.75
327.453	-38.74
327.666	-28.5
327.879	-12.12
328.092	22.7
328.305	-36.69
328.518	16.55
328.731	8.36
328.944	75.95
329.157	-10.07
329.37	-30.55
329.583	8.36
329.796	75.95
330.009	-34.64
330.222	-24.4
330.435	-30.55
330.648	2.22
330.861	-14.17
331.073	57.51
331.286	-14.17
331.499	53.42
331.712	37.03
331.925	-16.21
332.138	-57.17
332.35	49.32
332.563	-18.26
332.776	55.47
332.989	22.7
333.202	30.89
333.414	10.41
333.627	16.55
333.84	37.03
334.053	-38.74
334.265	-10.07
334.478	12.46
334.691	55.47
334.903	28.84
335.116	26.79
335.329	-30.55
335.541	39.08
335.754	37.03
335.966	-30.55
336.179	41.13
336.392	-5.97
336.604	-16.21
336.817	20.65
337.029	-28.5
337.242	-48.98
337.454	2.22
337.667	-38.74
337.88	10.41
338.092	47.27
338.305	12.46
338.517	-14.17
338.729	41.13
338.942	51.37
339.154	0.17
339.367	-40.79
339.579	39.08
339.792	4.27
340.004	51.37
340.217	8.36
340.429	32.94
340.641	12.46
340.854	-5.97
341.066	49.32
341.278	57.51
341.491	-28.5
341.703	-57.17
341.915	-28.5
342.128	-3.93
342.34	-3.93
342.552	-10.07
342.764	57.51
342.977	-5.97
343.189	4.27
343.401	-20.31
343.613	26.79
343.826	20.65
344.038	67.75
344.25	30.89
344.462	57.51
344.674	84.14
344.886	45.23
345.099	96.43
345.311	43.18
345.523	0.17
345.735	-12.12
345.947	0.17
346.159	37.03
346.371	73.9
346.583	-3.93
346.795	34.99
347.007	12.46
347.219	67.75
347.431	-3.93
347.643	55.47
347.855	24.75
348.067	28.84
348.279	28.84
348.491	-46.93
348.703	41.13
348.915	37.03
349.127	-5.97
349.339	8.36
349.551	61.61
349.763	41.13
349.975	8.36
350.187	24.75
350.399	10.41
350.61	-36.69
350.822	-5.97
351.034	-36.69
351.246	-8.02
351.458	43.18
351.669	63.66
351.881	45.23
352.093	-18.26
352.305	-36.69
352.517	24.75
352.728	49.32
352.94	77.99
353.152	12.46
353.363	6.31
353.575	57.51
353.787	-28.5
353.999	0.17
354.21	92.33
354.422	65.71
354.633	80.04
354.845	-5.97
355.057	4.27
355.268	45.23
355.48	-12.12
355.692	-16.21
355.903	37.03
356.115	-73.56
356.326	-12.12
356.538	32.94
356.749	30.89
356.961	45.23
357.172	75.95
357.384	-32.6
357.595	26.79
357.807	-20.31
358.018	4.27
358.23	18.6
358.441	69.8
358.653	26.79
358.864	-3.93
359.075	-32.6
359.287	-3.93
359.498	4.27
359.709	-14.17
359.921	82.09
360.132	45.23
360.344	-42.84
360.555	-46.93
360.766	43.18
360.977	-12.12
361.189	28.84
361.4	49.32
361.611	104.62
361.823	84.14
362.034	24.75
362.245	-12.12
362.456	10.41
362.667	65.71
362.879	43.18
363.09	-3.93
363.301	2.22
363.512	55.47
363.723	-22.36
363.935	84.14
364.146	28.84
364.357	26.79
364.568	45.23
364.779	18.6
364.99	49.32
365.201	112.81
365.412	71.85
365.623	-20.31
365.834	0.17
366.045	-12.12
366.256	67.75
366.467	-28.5
366.678	37.03
366.889	-16.21
367.1	18.6
367.311	45.23
367.522	86.19
367.733	-16.21
367.944	34.99
368.155	-12.12
368.366	8.36
368.577	71.85
368.788	131.24
368.999	-26.45
369.209	-18.26
369.42	22.7
369.631	114.86
369.842	-1.88
370.053	32.94
370.264	-5.97
370.474	0.17
370.685	61.61
370.896	37.03
371.107	61.61
371.317	63.66
371.528	37.03
371.739	82.09
371.95	16.55
372.16	59.56
372.371	-63.32
372.582	-85.84
372.792	8.36
373.003	30.89
373.214	39.08
373.424	-20.31
373.635	22.7
373.846	-38.74
374.056	-18.26
374.267	-28.5
374.477	92.33
374.688	16.55
374.898	55.47
375.109	-69.46
375.319	47.27
375.53	-12.12
375.74	-12.12
375.951	26.79
376.161	45.23
376.372	-5.97
376.582	100.52
376.793	-12.12
377.003	22.7
377.214	28.84
377.424	57.51
377.635	8.36
377.845	57.51
378.055	77.99
378.266	-10.07
378.476	4.27
378.686	-12.12
378.897	6.31
379.107	30.89
379.317	32.94
379.528	75.95
379.738	65.71
379.948	20.65
380.158	-16.21
380.369	-3.93
380.579	98.47
380.789	43.18
380.999	114.86
381.21	84.14
381.42	110.76
381.63	-77.65
381.84	-61.27
382.05	16.55
382.261	39.08
382.471	75.95
382.681	37.03
382.891	-8.02
383.101	-30.55
383.311	41.13
383.521	43.18
383.731	22.7
383.941	45.23
384.151	-24.4
384.361	-28.5
384.571	16.55
384.781	16.55
384.991	102.57
385.201	65.71
385.411	75.95
385.621	80.04
385.831	4.27
386.041	-20.31
386.251	69.8
386.461	-16.21
386.671	69.8
386.881	16.55
387.091	30.89
387.301	12.46
387.511	-24.4
387.72	45.23
387.93	12.46
388.14	10.41
388.35	94.38
388.56	49.32
388.769	96.43
388.979	20.65
389.189	16.55
389.399	37.03
389.609	24.75
389.818	2.22
390.028	-1.88
390.238	-8.02
390.447	-5.97
390.657	96.43
390.867	8.36
391.076	41.13
391.286	28.84
391.496	43.18
391.705	2.22
391.915	75.95
392.125	102.57
392.334	121
392.544	45.23
392.753	82.09
392.963	-63.32
393.172	-8.02
393.382	98.47
393.591	63.66
393.801	20.65
394.01	129.19
394.22	20.65
394.429	34.99
394.639	-38.74
394.848	-26.45
395.058	59.56
395.267	41.13
395.477	45.23
395.686	106.67
395.895	98.47
396.105	114.86
396.314	104.62
396.524	53.42
396.733	86.19
396.942	-10.07
397.152	30.89
397.361	41.13
397.57	34.99
397.78	43.18
397.989	96.43
398.198	141.48
398.407	102.57
398.617	116.9
398.826	104.62
399.035	104.62
399.244	110.76
399.453	-8.02
399.663	30.89
399.872	47.27
400.081	24.75
400.29	135.34
400.499	57.51
400.708	77.99
400.917	75.95
401.127	28.84
401.336	123.05
401.545	145.58
401.754	77.99
401.963	57.51
402.172	139.43
402.381	82.09
402.59	100.52
402.799	90.28
403.008	90.28
403.217	-1.88
403.426	53.42
403.635	32.94
403.844	53.42
404.053	8.36
404.262	24.75
404.471	159.91
404.68	61.61
404.888	37.03
405.097	127.14
405.306	82.09
405.515	118.95
405.724	131.24
405.933	92.33
406.142	145.58
406.35	133.29
406.559	164.01
406.768	110.76
406.977	176.3
407.185	137.38
407.394	139.43
407.603	118.95
407.812	135.34
408.02	194.73
408.229	198.82
408.438	155.82
408.646	86.19
408.855	213.16
409.064	241.83
409.272	137.38
409.481	211.11
409.69	221.35
409.898	149.67
410.107	192.68
410.315	192.68
410.524	161.96
410.733	290.98
410.941	209.06
411.15	260.26
411.358	182.44
411.567	268.45
411.775	268.45
411.984	250.02
412.192	282.79
412.401	299.17
412.609	370.85
412.818	290.98
413.026	313.51
413.234	305.32
413.443	282.79
413.651	366.76
413.86	463.01
414.068	374.95
414.276	450.72
414.485	407.72
414.693	477.35
414.901	561.31
415.11	452.77
415.318	481.44
415.526	551.07
415.734	553.12
415.943	587.94
416.151	569.51
416.359	626.85
416.567	596.13
416.776	649.38
416.984	686.24
417.192	673.95
417.4	731.3
417.608	710.82
417.817	741.54
418.025	796.83
418.233	917.66
418.441	809.12
418.649	845.98
418.857	917.66
419.065	1003.68
419.273	899.23
419.481	981.15
419.689	1077.4
419.897	1028.25
420.105	1067.16
420.313	1179.8
420.521	1220.76
420.729	1249.43
420.937	1214.62
421.145	1247.38
421.353	1298.58
421.561	1366.17
421.769	1448.08
421.977	1462.42
422.185	1403.03
422.393	1521.81
422.601	1697.94
422.809	1577.11
423.017	1771.66
423.224	1769.62
423.432	1818.77
423.64	1779.86
423.848	2031.76
424.056	1910.93
424.263	2052.24
424.471	2046.09
424.679	2093.19
424.887	2121.87
425.094	2363.53
425.302	2422.92
425.51	2367.62
425.718	2482.31
425.925	2492.55
426.133	2676.87
426.341	2764.93
426.548	2852.99
426.756	2807.94
426.964	2875.52
427.171	3149.95
427.379	3231.87
427.586	3203.19
427.794	3342.46
428.001	3307.64
428.209	3545.2
428.417	3610.74
428.624	3795.06
428.832	3827.82
429.039	3747.95
429.247	3850.35
429.454	4167.79
429.662	4409.45
429.869	4149.36
430.076	4403.3
430.284	4317.29
430.491	4558.95
430.699	4673.64
430.906	4720.74
431.114	4745.31
431.321	4931.68
431.528	5177.44
431.736	5517.4
431.943	5675.09
432.15	5429.34
432.358	5589.08
432.565	6000.72
432.772	5683.28
432.979	6119.5
433.187	6201.42
433.394	6277.19
433.601	6686.79
433.808	6692.93
434.016	6828.1
434.223	6926.4
434.43	7409.72
434.637	7239.74
434.844	7630.9
435.052	7884.85
435.259	7641.14
435.466	7790.64
435.673	7899.19
435.88	8460.33
436.087	8882.21
436.294	8587.3
436.501	8538.15
436.708	8847.4
436.915	8976.42
437.122	9244.7
437.329	9369.63
437.537	9779.22
437.743	9828.37
437.95	9695.25
438.157	10197.01
438.364	10637.32
438.571	10700.81
438.778	10686.47
438.985	11593.72
439.192	11198.46
439.399	11587.58
439.606	11315.2
439.813	11972.6
440.02	12607.47
440.227	12328.94
440.433	12451.82
440.64	12718.06
440.847	12736.49
441.054	12826.6
441.261	13635.55
441.467	13723.61
441.674	13854.68
441.881	14356.43
442.088	14149.59
442.294	14104.53
442.501	14741.45
442.708	14757.83
442.914	15761.34
443.121	16183.22
443.328	15683.52
443.534	16973.74
443.741	16426.93
443.948	16265.14
444.154	17334.18
444.361	17287.07
444.568	17553.31
444.774	17328.03
444.981	17403.81
445.187	18139.03
445.394	18763.66
445.6	18612.11
445.807	20522.87
446.013	19621.76
446.22	19715.97
446.426	20586.35
446.633	20735.85
446.839	21485.41
447.046	20645.74
447.252	21610.34
447.459	21794.65
447.665	21675.87
447.871	22763.34
448.078	23510.85
448.284	22511.44
448.491	23338.82
448.697	24180.54
448.903	24606.52
449.11	24553.27
449.316	24039.23
449.522	24747.83
449.728	24983.34
449.935	25476.9
450.141	25407.27
450.347	25896.74
450.553	25093.93
450.76	25519.91
450.966	26347.29
451.172	25980.7
451.378	26554.13
451.584	26115.87
451.791	26855.18
451.997	26533.65
452.203	26971.92
452.409	27064.08
452.615	27066.13
452.821	26025.76
453.027	25653.03
453.233	27203.34
453.44	26148.64
453.646	26343.19
453.852	26543.89
454.058	26967.82
454.264	25949.98
454.47	26439.45
454.676	25761.57
454.882	26834.71
455.088	24244.02
455.294	24790.83
455.5	25036.59
455.705	25620.26
455.911	24411.96
456.117	24158.01
456.323	23371.59
456.529	22247.26
456.735	23340.87
456.941	22628.18
457.147	22112.09
457.352	21591.91
457.558	21489.51
457.764	21692.26
457.97	20860.78
458.176	20449.14
458.381	20744.05
458.587	19351.43
458.793	19789.69
458.999	18456.47
459.204	19783.55
459.41	19423.11
459.616	18126.74
459.821	18022.3
460.027	17848.22
460.233	17588.13
460.438	16719.79
460.644	17164.2
460.85	16041.91
461.055	15976.37
461.261	15964.09
461.466	14716.87
461.672	14350.29
461.878	15341.5
462.083	14243.79
462.289	14055.38
462.494	13893.59
462.7	13451.23
462.905	13029.35
463.111	13277.15
463.316	13418.46
463.522	12988.39
463.727	12982.24
463.932	13107.17
464.138	13139.94
464.343	12920.81
464.549	12558.32
464.754	12943.33
464.959	12883.94
465.165	12773.35
465.37	12369.9
465.575	11896.82
465.781	12384.24
465.986	12574.7
466.191	12122.1
466.397	11630.59
466.602	11245.57
