Data from USB4F104151__49__11-37-03-810.txt Node

Date: Fri Mar 14 11:37:03 EDT 2025
User: louis
Spectrometer: USB4F10415
Trigger mode: 4
Integration Time (sec): 2.000000E-2
Scans to average: 1
Electric dark correction enabled: true
Nonlinearity correction enabled: false
Boxcar width: 0
XAxis mode: Wavelengths
Number of Pixels in Spectrum: 3648
>>>>>Begin Spectral Data<<<<<
178.204	-32.26
178.424	-32.26
178.644	-32.26
178.864	-48.64
179.084	-28.16
179.304	25.09
179.524	-11.78
179.744	-26.11
179.964	53.76
180.184	12.8
180.404	20.99
180.624	-34.3
180.844	-1.54
181.064	-28.16
181.283	-13.82
181.503	12.8
181.723	-9.73
181.943	-24.06
182.163	-5.63
182.383	12.8
182.602	14.85
182.822	41.47
183.042	12.8
183.262	39.42
183.482	27.14
183.701	49.66
183.921	12.8
184.141	-1.54
184.361	100.86
184.58	-19.97
184.8	57.86
185.02	0.51
185.239	6.66
185.459	-9.73
185.679	25.09
185.898	-13.82
186.118	51.71
186.338	-3.58
186.557	23.04
186.777	14.85
186.997	10.75
187.216	-7.68
187.436	90.62
187.655	29.18
187.875	-3.58
188.095	84.48
188.314	27.14
188.534	-11.78
188.753	-77.31
188.973	-11.78
189.192	119.29
189.412	94.72
189.631	41.47
189.851	-9.73
190.07	-15.87
190.29	41.47
190.509	-42.5
190.729	-36.35
190.948	49.66
191.168	135.68
191.387	66.05
191.607	47.62
191.826	53.76
192.045	25.09
192.265	-13.82
192.484	127.49
192.704	94.72
192.923	6.66
193.142	8.7
193.362	55.81
193.581	57.86
193.8	88.57
194.02	90.62
194.239	-7.68
194.458	41.47
194.678	53.76
194.897	64
195.116	82.43
195.335	-17.92
195.555	84.48
195.774	88.57
195.993	70.14
196.212	53.76
196.432	14.85
196.651	82.43
196.87	0.51
197.089	49.66
197.308	100.86
197.528	25.09
197.747	-65.02
197.966	55.81
198.185	88.57
198.404	20.99
198.623	137.73
198.842	29.18
199.062	35.33
199.281	96.77
199.5	-40.45
199.719	64
199.938	98.81
200.157	64
200.376	8.7
200.595	35.33
200.814	123.39
201.033	61.95
201.252	109.05
201.471	53.76
201.69	10.75
201.909	51.71
202.128	31.23
202.347	37.38
202.566	4.61
202.785	-13.82
203.004	18.94
203.223	49.66
203.442	20.99
203.661	49.66
203.879	37.38
204.098	80.38
204.317	-22.02
204.536	-24.06
204.755	-5.63
204.974	12.8
205.193	16.9
205.411	125.44
205.63	12.8
205.849	-22.02
206.068	53.76
206.287	35.33
206.505	-7.68
206.724	96.77
206.943	45.57
207.162	-3.58
207.381	-3.58
207.599	33.28
207.818	47.62
208.037	37.38
208.255	55.81
208.474	2.56
208.693	-13.82
208.911	35.33
209.13	29.18
209.349	-48.64
209.567	18.94
209.786	78.33
210.005	33.28
210.223	16.9
210.442	4.61
210.661	121.34
210.879	-15.87
211.098	37.38
211.316	51.71
211.535	35.33
211.753	49.66
211.972	-3.58
212.191	39.42
212.409	78.33
212.628	86.53
212.846	12.8
213.065	29.18
213.283	57.86
213.502	16.9
213.72	-56.83
213.938	16.9
214.157	-54.78
214.375	70.14
214.594	74.24
214.812	72.19
215.031	51.71
215.249	53.76
215.467	33.28
215.686	20.99
215.904	14.85
216.122	59.9
216.341	14.85
216.559	-28.16
216.778	74.24
216.996	70.14
217.214	27.14
217.432	104.96
217.651	0.51
217.869	-1.54
218.087	10.75
218.306	-44.54
218.524	88.57
218.742	70.14
218.96	12.8
219.179	-28.16
219.397	53.76
219.615	37.38
219.833	70.14
220.051	64
220.27	86.53
220.488	-9.73
220.706	61.95
220.924	35.33
221.142	27.14
221.36	39.42
221.578	18.94
221.796	-9.73
222.015	29.18
222.233	84.48
222.451	8.7
222.669	23.04
222.887	90.62
223.105	6.66
223.323	33.28
223.541	-26.11
223.759	27.14
223.977	57.86
224.195	59.9
224.413	47.62
224.631	43.52
224.849	2.56
225.067	82.43
225.285	53.76
225.503	18.94
225.721	6.66
225.939	2.56
226.157	47.62
226.375	39.42
226.592	-11.78
226.81	37.38
227.028	2.56
227.246	68.09
227.464	70.14
227.682	20.99
227.9	49.66
228.117	37.38
228.335	18.94
228.553	57.86
228.771	29.18
228.989	-22.02
229.206	37.38
229.424	-56.83
229.642	18.94
229.86	27.14
230.077	51.71
230.295	16.9
230.513	-15.87
230.731	53.76
230.948	57.86
231.166	102.91
231.384	37.38
231.601	78.33
231.819	82.43
232.037	51.71
232.254	10.75
232.472	72.19
232.689	-15.87
232.907	20.99
233.125	53.76
233.342	-28.16
233.56	66.05
233.777	12.8
233.995	78.33
234.213	70.14
234.43	45.57
234.648	27.14
234.865	41.47
235.083	-15.87
235.3	-11.78
235.518	53.76
235.735	127.49
235.953	47.62
236.17	2.56
236.388	25.09
236.605	0.51
236.822	84.48
237.04	12.8
237.257	6.66
237.475	2.56
237.692	37.38
237.909	27.14
238.127	-36.35
238.344	43.52
238.562	29.18
238.779	2.56
238.996	18.94
239.214	72.19
239.431	18.94
239.648	0.51
239.865	23.04
240.083	61.95
240.3	0.51
240.517	57.86
240.735	8.7
240.952	90.62
241.169	68.09
241.386	29.18
241.603	86.53
241.821	31.23
242.038	121.34
242.255	27.14
242.472	2.56
242.689	-15.87
242.907	115.2
243.124	20.99
243.341	16.9
243.558	4.61
243.775	86.53
243.992	-38.4
244.209	20.99
244.426	23.04
244.643	90.62
244.86	33.28
245.078	27.14
245.295	53.76
245.512	-3.58
245.729	0.51
245.946	16.9
246.163	86.53
246.38	2.56
246.597	41.47
246.814	41.47
247.031	20.99
247.248	27.14
247.464	57.86
247.681	-9.73
247.898	25.09
248.115	82.43
248.332	31.23
248.549	-13.82
248.766	72.19
248.983	57.86
249.2	35.33
249.417	18.94
249.633	43.52
249.85	45.57
250.067	12.8
250.284	18.94
250.501	25.09
250.717	78.33
250.934	47.62
251.151	78.33
251.368	-9.73
251.585	37.38
251.801	82.43
252.018	14.85
252.235	2.56
252.451	8.7
252.668	51.71
252.885	33.28
253.102	78.33
253.318	-5.63
253.535	18.94
253.752	-28.16
253.968	86.53
254.185	-54.78
254.401	35.33
254.618	16.9
254.835	43.52
255.051	-26.11
255.268	51.71
255.484	107.01
255.701	66.05
255.917	57.86
256.134	10.75
256.351	70.14
256.567	-28.16
256.784	-48.64
257	16.9
257.217	18.94
257.433	74.24
257.65	12.8
257.866	45.57
258.082	-9.73
258.299	20.99
258.515	66.05
258.732	37.38
258.948	90.62
259.165	41.47
259.381	82.43
259.597	-32.26
259.814	61.95
260.03	-34.3
260.246	6.66
260.463	23.04
260.679	-36.35
260.895	53.76
261.112	135.68
261.328	6.66
261.544	-11.78
261.761	64
261.977	57.86
262.193	-11.78
262.409	76.29
262.626	12.8
262.842	61.95
263.058	-15.87
263.274	37.38
263.49	64
263.707	25.09
263.923	37.38
264.139	53.76
264.355	4.61
264.571	86.53
264.787	68.09
265.004	39.42
265.22	66.05
265.436	12.8
265.652	16.9
265.868	-36.35
266.084	45.57
266.3	59.9
266.516	64
266.732	20.99
266.948	-9.73
267.164	57.86
267.38	102.91
267.596	31.23
267.812	37.38
268.028	29.18
268.244	33.28
268.46	-22.02
268.676	29.18
268.892	27.14
269.108	53.76
269.324	76.29
269.54	12.8
269.756	43.52
269.972	68.09
270.188	14.85
270.403	10.75
270.619	49.66
270.835	10.75
271.051	4.61
271.267	55.81
271.483	45.57
271.698	37.38
271.914	113.15
272.13	111.1
272.346	66.05
272.562	20.99
272.777	59.9
272.993	18.94
273.209	20.99
273.425	0.51
273.64	43.52
273.856	33.28
274.072	37.38
274.287	29.18
274.503	4.61
274.719	31.23
274.934	27.14
275.15	25.09
275.366	-13.82
275.581	25.09
275.797	74.24
276.012	8.7
276.228	4.61
276.444	55.81
276.659	49.66
276.875	33.28
277.09	-5.63
277.306	55.81
277.521	37.38
277.737	23.04
277.952	33.28
278.168	4.61
278.383	119.29
278.599	90.62
278.814	107.01
279.03	86.53
279.245	72.19
279.461	82.43
279.676	33.28
279.892	70.14
280.107	45.57
280.322	-30.21
280.538	6.66
280.753	8.7
280.969	70.14
281.184	-7.68
281.399	90.62
281.615	23.04
281.83	4.61
282.045	33.28
282.26	51.71
282.476	35.33
282.691	-7.68
282.906	12.8
283.122	-1.54
283.337	-48.64
283.552	47.62
283.767	-13.82
283.983	-1.54
284.198	37.38
284.413	45.57
284.628	45.57
284.843	35.33
285.058	84.48
285.274	-13.82
285.489	86.53
285.704	90.62
285.919	-9.73
286.134	55.81
286.349	10.75
286.564	66.05
286.779	4.61
286.995	74.24
287.21	6.66
287.425	33.28
287.64	47.62
287.855	8.7
288.07	-67.07
288.285	98.81
288.5	100.86
288.715	43.52
288.93	70.14
289.145	-13.82
289.36	88.57
289.575	12.8
289.79	55.81
290.004	53.76
290.219	61.95
290.434	72.19
290.649	47.62
290.864	41.47
291.079	59.9
291.294	41.47
291.509	61.95
291.724	18.94
291.938	10.75
292.153	78.33
292.368	53.76
292.583	59.9
292.798	66.05
293.012	25.09
293.227	59.9
293.442	51.71
293.657	20.99
293.871	78.33
294.086	-52.74
294.301	70.14
294.516	2.56
294.73	74.24
294.945	-3.58
295.16	-5.63
295.374	4.61
295.589	14.85
295.804	-11.78
296.018	12.8
296.233	59.9
296.447	6.66
296.662	-62.98
296.877	55.81
297.091	70.14
297.306	33.28
297.52	-46.59
297.735	4.61
297.949	4.61
298.164	12.8
298.378	-17.92
298.593	74.24
298.807	57.86
299.022	12.8
299.236	84.48
299.451	10.75
299.665	4.61
299.88	-5.63
300.094	0.51
300.309	16.9
300.523	59.9
300.737	-7.68
300.952	-34.3
301.166	12.8
301.381	23.04
301.595	92.67
301.809	37.38
302.024	35.33
302.238	76.29
302.452	86.53
302.667	76.29
302.881	109.05
303.095	14.85
303.309	37.38
303.524	25.09
303.738	18.94
303.952	27.14
304.166	49.66
304.381	25.09
304.595	117.25
304.809	-13.82
305.023	59.9
305.237	-50.69
305.452	23.04
305.666	37.38
305.88	35.33
306.094	20.99
306.308	37.38
306.522	41.47
306.736	29.18
306.95	18.94
307.164	45.57
307.379	-5.63
307.593	27.14
307.807	61.95
308.021	57.86
308.235	-44.54
308.449	2.56
308.663	76.29
308.877	35.33
309.091	0.51
309.305	80.38
309.519	10.75
309.733	53.76
309.947	-30.21
310.161	68.09
310.374	115.2
310.588	27.14
310.802	-60.93
311.016	18.94
311.23	-11.78
311.444	39.42
311.658	-73.21
311.872	86.53
312.085	-15.87
312.299	37.38
312.513	98.81
312.727	8.7
312.941	8.7
313.154	20.99
313.368	-34.3
313.582	29.18
313.796	57.86
314.009	41.47
314.223	37.38
314.437	29.18
314.651	61.95
314.864	8.7
315.078	12.8
315.292	64
315.505	20.99
315.719	53.76
315.933	-9.73
316.146	57.86
316.36	2.56
316.573	33.28
316.787	6.66
317.001	20.99
317.214	2.56
317.428	16.9
317.641	-62.98
317.855	61.95
318.068	39.42
318.282	84.48
318.495	61.95
318.709	72.19
318.922	55.81
319.136	37.38
319.349	141.82
319.563	-17.92
319.776	12.8
319.99	-19.97
320.203	57.86
320.417	72.19
320.63	84.48
320.843	70.14
321.057	53.76
321.27	64
321.483	12.8
321.697	33.28
321.91	53.76
322.124	76.29
322.337	35.33
322.55	53.76
322.763	72.19
322.977	53.76
323.19	57.86
323.403	115.2
323.617	82.43
323.83	61.95
324.043	45.57
324.256	72.19
324.469	6.66
324.683	6.66
324.896	33.28
325.109	55.81
325.322	-28.16
325.535	-26.11
325.748	-58.88
325.962	45.57
326.175	31.23
326.388	0.51
326.601	35.33
326.814	96.77
327.027	88.57
327.24	57.86
327.453	20.99
327.666	39.42
327.879	86.53
328.092	80.38
328.305	-28.16
328.518	4.61
328.731	33.28
328.944	-3.58
329.157	16.9
329.37	-15.87
329.583	27.14
329.796	53.76
330.009	37.38
330.222	47.62
330.435	43.52
330.648	4.61
330.861	2.56
331.073	102.91
331.286	94.72
331.499	55.81
331.712	14.85
331.925	-103.93
332.138	8.7
332.35	39.42
332.563	-22.02
332.776	33.28
332.989	70.14
333.202	64
333.414	139.77
333.627	61.95
333.84	-28.16
334.053	20.99
334.265	10.75
334.478	37.38
334.691	43.52
334.903	51.71
335.116	74.24
335.329	8.7
335.541	16.9
335.754	68.09
335.966	29.18
336.179	18.94
336.392	53.76
336.604	23.04
336.817	41.47
337.029	76.29
337.242	-24.06
337.454	80.38
337.667	-7.68
337.88	70.14
338.092	41.47
338.305	98.81
338.517	8.7
338.729	55.81
338.942	72.19
339.154	137.73
339.367	35.33
339.579	31.23
339.792	6.66
340.004	107.01
340.217	45.57
340.429	125.44
340.641	4.61
340.854	76.29
341.066	68.09
341.278	49.66
341.491	25.09
341.703	92.67
341.915	4.61
342.128	119.29
342.34	68.09
342.552	57.86
342.764	29.18
342.977	35.33
343.189	8.7
343.401	47.62
343.613	-38.4
343.826	57.86
344.038	49.66
344.25	107.01
344.462	-19.97
344.674	35.33
344.886	39.42
345.099	-1.54
345.311	53.76
345.523	25.09
345.735	18.94
345.947	102.91
346.159	14.85
346.371	107.01
346.583	-13.82
346.795	53.76
347.007	90.62
347.219	113.15
347.431	43.52
347.643	64
347.855	61.95
348.067	41.47
348.279	-5.63
348.491	35.33
348.703	94.72
348.915	41.47
349.127	37.38
349.339	27.14
349.551	80.38
349.763	41.47
349.975	-48.64
350.187	39.42
350.399	57.86
350.61	107.01
350.822	57.86
351.034	33.28
351.246	43.52
351.458	4.61
351.669	18.94
351.881	29.18
352.093	76.29
352.305	27.14
352.517	43.52
352.728	4.61
352.94	29.18
353.152	16.9
353.363	39.42
353.575	66.05
353.787	29.18
353.999	41.47
354.21	49.66
354.422	-5.63
354.633	-32.26
354.845	10.75
355.057	100.86
355.268	84.48
355.48	41.47
355.692	4.61
355.903	86.53
356.115	16.9
356.326	94.72
356.538	8.7
356.749	-13.82
356.961	66.05
357.172	86.53
357.384	-11.78
357.595	-11.78
357.807	31.23
358.018	51.71
358.23	55.81
358.441	68.09
358.653	94.72
358.864	86.53
359.075	37.38
359.287	72.19
359.498	-3.58
359.709	12.8
359.921	47.62
360.132	86.53
360.344	53.76
360.555	-26.11
360.766	29.18
360.977	-38.4
361.189	72.19
361.4	12.8
361.611	111.1
361.823	-26.11
362.034	109.05
362.245	-1.54
362.456	29.18
362.667	14.85
362.879	78.33
363.09	45.57
363.301	57.86
363.512	-5.63
363.723	39.42
363.935	64
364.146	68.09
364.357	55.81
364.568	41.47
364.779	102.91
364.99	76.29
365.201	-5.63
365.412	35.33
365.623	84.48
365.834	82.43
366.045	-3.58
366.256	37.38
366.467	33.28
366.678	70.14
366.889	4.61
367.1	25.09
367.311	51.71
367.522	57.86
367.733	37.38
367.944	86.53
368.155	47.62
368.366	61.95
368.577	92.67
368.788	25.09
368.999	96.77
369.209	10.75
369.42	131.58
369.631	160.25
369.842	68.09
370.053	16.9
370.264	57.86
370.474	98.81
370.685	82.43
370.896	6.66
371.107	55.81
371.317	2.56
371.528	66.05
371.739	102.91
371.95	43.52
372.16	41.47
372.371	86.53
372.582	-3.58
372.792	82.43
373.003	-9.73
373.214	18.94
373.424	64
373.635	20.99
373.846	8.7
374.056	2.56
374.267	41.47
374.477	51.71
374.688	72.19
374.898	90.62
375.109	49.66
375.319	78.33
375.53	51.71
375.74	94.72
375.951	-7.68
376.161	-3.58
376.372	68.09
376.582	12.8
376.793	86.53
377.003	51.71
377.214	-3.58
377.424	41.47
377.635	27.14
377.845	37.38
378.055	98.81
378.266	45.57
378.476	12.8
378.686	84.48
378.897	61.95
379.107	72.19
379.317	33.28
379.528	49.66
379.738	61.95
379.948	10.75
380.158	82.43
380.369	45.57
380.579	33.28
380.789	102.91
380.999	53.76
381.21	78.33
381.42	141.82
381.63	-19.97
381.84	61.95
382.05	59.9
382.261	20.99
382.471	107.01
382.681	14.85
382.891	35.33
383.101	33.28
383.311	51.71
383.521	25.09
383.731	86.53
383.941	84.48
384.151	135.68
384.361	35.33
384.571	47.62
384.781	80.38
384.991	82.43
385.201	-7.68
385.411	96.77
385.621	64
385.831	57.86
386.041	61.95
386.251	37.38
386.461	109.05
386.671	-1.54
386.881	39.42
387.091	33.28
387.301	61.95
387.511	94.72
387.72	-34.3
387.93	25.09
388.14	23.04
388.35	137.73
388.56	107.01
388.769	49.66
388.979	47.62
389.189	76.29
389.399	88.57
389.609	68.09
389.818	117.25
390.028	141.82
390.238	84.48
390.447	47.62
390.657	80.38
390.867	27.14
391.076	0.51
391.286	37.38
391.496	25.09
391.705	78.33
391.915	76.29
392.125	125.44
392.334	76.29
392.544	66.05
392.753	90.62
392.963	90.62
393.172	59.9
393.382	53.76
393.591	31.23
393.801	80.38
394.01	90.62
394.22	102.91
394.429	121.34
394.639	92.67
394.848	37.38
395.058	76.29
395.267	117.25
395.477	4.61
395.686	78.33
395.895	156.16
396.105	72.19
396.314	119.29
396.524	111.1
396.733	94.72
396.942	72.19
397.152	86.53
397.361	39.42
397.57	53.76
397.78	78.33
397.989	72.19
398.198	125.44
398.407	102.91
398.617	20.99
398.826	86.53
399.035	107.01
399.244	133.63
399.453	82.43
399.663	117.25
399.872	158.21
400.081	55.81
400.29	168.45
400.499	64
400.708	70.14
400.917	76.29
401.127	66.05
401.336	182.78
401.545	141.82
401.754	72.19
401.963	180.73
402.172	78.33
402.381	64
402.59	137.73
402.799	158.21
403.008	102.91
403.217	160.25
403.426	100.86
403.635	139.77
403.844	88.57
404.053	135.68
404.262	78.33
404.471	117.25
404.68	119.29
404.888	88.57
405.097	141.82
405.306	164.35
405.515	123.39
405.724	125.44
405.933	125.44
406.142	119.29
406.35	258.56
406.559	33.28
406.768	131.58
406.977	170.49
407.185	92.67
407.394	166.4
407.603	201.21
407.812	182.78
408.02	141.82
408.229	201.21
408.438	102.91
408.646	184.83
408.855	166.4
409.064	217.6
409.272	150.01
409.481	276.99
409.69	305.66
409.898	223.74
410.107	244.22
410.315	262.65
410.524	305.66
410.733	209.4
410.941	291.32
411.15	297.47
411.358	293.37
411.567	334.33
411.775	365.05
411.984	330.23
412.192	363
412.401	322.04
412.609	352.76
412.818	385.53
413.026	360.95
413.234	463.35
413.443	463.35
413.651	449.02
413.86	430.59
414.068	479.74
414.276	455.16
414.485	479.74
414.693	483.83
414.901	608.76
415.11	537.08
415.318	532.98
415.526	559.61
415.734	592.37
415.943	539.13
416.151	680.44
416.359	616.95
416.567	696.82
416.776	715.25
416.984	831.99
417.192	737.78
417.4	778.74
417.608	705.01
417.817	834.04
418.025	864.75
418.233	877.04
418.441	864.75
418.649	842.23
418.857	1053.17
419.065	1040.88
419.273	1047.02
419.481	1077.74
419.689	997.87
419.897	1087.98
420.105	1178.09
420.313	1255.92
420.521	1251.82
420.729	1243.63
420.937	1370.6
421.145	1354.22
421.353	1462.76
421.561	1522.15
421.769	1524.2
421.977	1604.07
422.185	1540.58
422.393	1602.02
422.601	1855.97
422.809	1716.71
423.017	1763.81
423.224	1915.36
423.432	1962.47
423.64	1966.56
423.848	2085.34
424.056	2034.14
424.263	2146.78
424.471	2126.3
424.679	2214.37
424.887	2453.98
425.094	2484.7
425.302	2421.21
425.51	2462.17
425.718	2466.27
425.925	2572.76
426.133	2752.98
426.341	3031.51
426.548	2935.25
426.756	2990.55
426.964	2994.64
427.171	3070.42
427.379	3215.82
427.586	3326.41
427.794	3475.91
428.001	3645.9
428.209	3697.1
428.417	3656.14
428.624	4010.43
428.832	4008.39
429.039	3881.41
429.247	4065.73
429.454	4282.81
429.662	4567.48
429.869	4286.91
430.076	4528.57
430.284	4413.88
430.491	4590.01
430.699	4889.01
430.906	4778.42
431.114	4972.98
431.321	5171.63
431.528	5228.98
431.736	5689.77
431.943	5929.38
432.15	5538.22
432.358	5824.94
432.565	6072.74
432.772	6123.94
432.979	6359.45
433.187	6488.48
433.394	6527.39
433.601	6885.78
433.808	6973.85
434.016	6824.34
434.223	7186.83
434.43	7623.05
434.637	7457.17
434.844	7911.82
435.052	7983.49
435.259	8098.18
435.466	8169.86
435.673	8186.24
435.88	8782.2
436.087	9150.84
436.294	9136.5
436.501	8841.59
436.708	9247.09
436.915	9263.47
437.122	9748.84
437.329	9769.32
437.537	10064.23
437.743	10158.44
437.95	10424.67
438.157	10639.71
438.364	10953.05
438.571	10864.99
438.778	10932.57
438.985	12099.91
439.192	11671.89
439.399	12048.71
439.606	11665.74
439.813	12403.01
440.02	13230.39
440.227	12765.5
440.433	12794.17
440.64	13031.74
440.847	13062.46
441.054	13281.59
441.261	14397.73
441.467	14055.72
441.674	14502.18
441.881	14854.43
442.088	14905.63
442.294	14747.93
442.501	15112.47
442.708	15550.74
442.914	15962.38
443.121	16472.32
443.328	16275.72
443.534	17598.71
443.741	16894.21
443.948	16781.57
444.154	18043.12
444.361	18004.21
444.568	18061.55
444.774	17979.63
444.981	18170.09
445.187	18417.89
445.394	19445.98
445.6	19257.56
445.807	21121.21
446.013	20144.33
446.22	20705.48
446.426	21180.6
446.633	21315.77
446.839	22233.26
447.046	21276.86
447.252	22223.02
447.459	22495.4
447.665	22212.78
447.871	23380.12
448.078	24516.75
448.284	23191.71
448.491	23961.75
448.697	24780.93
448.903	25256.06
449.11	25249.92
449.316	25159.81
449.522	25372.8
449.728	25944.18
449.935	26398.83
450.141	26253.42
450.347	26937.44
450.553	25944.18
450.76	26302.57
450.966	27488.35
451.172	26867.81
451.378	27484.25
451.584	27002.98
451.791	27658.33
451.997	27977.81
452.203	28033.11
452.409	27947.09
452.615	27846.74
452.821	27078.75
453.027	26845.29
453.233	27891.8
453.44	27002.98
453.646	26912.87
453.852	27134.05
454.058	27672.67
454.264	26869.86
454.47	27379.81
454.676	26992.74
454.882	27654.23
455.088	25155.71
455.294	25886.84
455.5	26271.86
455.705	26433.64
455.911	25438.33
456.117	24623.24
456.323	24223.89
456.529	23124.13
456.735	24240.27
456.941	23642.26
457.147	23347.36
457.352	22450.35
457.558	22266.03
457.764	22337.71
457.97	21713.08
458.176	20992.19
458.381	21278.91
458.587	20099.28
458.793	20449.48
458.999	18987.23
459.204	20633.8
459.41	20062.41
459.616	18821.34
459.821	18735.33
460.027	18770.15
460.233	18170.09
460.438	17137.91
460.644	17611
460.85	16945.41
461.055	16541.96
461.261	16453.89
461.466	15085.85
461.672	14784.8
461.878	15776.02
462.083	14760.22
462.289	14489.89
462.494	14725.41
462.7	13570.35
462.905	13492.53
463.111	13740.33
463.316	13926.7
463.522	13680.94
463.727	13576.5
463.932	13541.68
464.138	13357.36
464.343	13369.65
464.549	13064.5
464.754	13740.33
464.959	13400.37
465.165	13447.47
465.37	12638.53
465.575	12462.4
465.781	12927.29
465.986	13203.77
466.191	12439.87
466.397	12357.96
466.602	11811.15
466.807	12419.39
467.012	12347.72
467.218	11915.59
467.423	11989.32
467.628	11841.87
467.833	12484.93
468.038	11903.31
468.244	11901.26
468.449	12101.96
468.654	11768.14
468.859	11518.29
