Data from USB4F104151__44__11-36-59-224.txt Node

Date: Fri Mar 14 11:36:59 EDT 2025
User: louis
Spectrometer: USB4F10415
Trigger mode: 4
Integration Time (sec): 2.000000E-2
Scans to average: 1
Electric dark correction enabled: true
Nonlinearity correction enabled: false
Boxcar width: 0
XAxis mode: Wavelengths
Number of Pixels in Spectrum: 3648
>>>>>Begin Spectral Data<<<<<
178.204	-44.88
178.424	-44.88
178.644	-44.88
178.864	-67.41
179.084	-38.74
179.304	-26.45
179.524	-8.02
179.744	0.17
179.964	47.27
180.184	53.42
180.404	24.75
180.624	-38.74
180.844	12.46
181.064	-73.56
181.283	-16.21
181.503	6.31
181.723	18.6
181.943	-44.88
182.163	53.42
182.383	4.27
182.602	51.37
182.822	90.28
183.042	-8.02
183.262	49.32
183.482	73.9
183.701	92.33
183.921	71.85
184.141	-12.12
184.361	51.37
184.58	55.47
184.8	47.27
185.02	-12.12
185.239	57.51
185.459	67.75
185.679	65.71
185.898	28.84
186.118	34.99
186.338	96.43
186.557	6.31
186.777	-40.79
186.997	67.75
187.216	30.89
187.436	37.03
187.655	51.37
187.875	28.84
188.095	43.18
188.314	59.56
188.534	67.75
188.753	22.7
188.973	4.27
189.192	77.99
189.412	106.67
189.631	8.36
189.851	6.31
190.07	8.36
190.29	16.55
190.509	4.27
190.729	43.18
190.948	104.62
191.168	69.8
191.387	59.56
191.607	43.18
191.826	34.99
192.045	-5.97
192.265	41.13
192.484	4.27
192.704	-38.74
192.923	-22.36
193.142	-1.88
193.362	90.28
193.581	49.32
193.8	98.47
194.02	2.22
194.239	-30.55
194.458	8.36
194.678	34.99
194.897	-30.55
195.116	2.22
195.335	73.9
195.555	63.66
195.774	96.43
195.993	18.6
196.212	59.56
196.432	84.14
196.651	49.32
196.87	-16.21
197.089	106.67
197.308	71.85
197.528	53.42
197.747	-1.88
197.966	-5.97
198.185	77.99
198.404	55.47
198.623	41.13
198.842	77.99
199.062	2.22
199.281	-14.17
199.5	41.13
199.719	0.17
199.938	63.66
200.157	-5.97
200.376	-46.93
200.595	75.95
200.814	32.94
201.033	80.04
201.252	100.52
201.471	-5.97
201.69	-5.97
201.909	16.55
202.128	14.51
202.347	67.75
202.566	16.55
202.785	8.36
203.004	-34.64
203.223	90.28
203.442	67.75
203.661	59.56
203.879	43.18
204.098	75.95
204.317	26.79
204.536	14.51
204.755	18.6
204.974	39.08
205.193	-3.93
205.411	69.8
205.63	39.08
205.849	125.1
206.068	20.65
206.287	-10.07
206.505	20.65
206.724	-30.55
206.943	41.13
207.162	-5.97
207.381	16.55
207.599	53.42
207.818	10.41
208.037	45.23
208.255	84.14
208.474	26.79
208.693	59.56
208.911	6.31
209.13	34.99
209.349	88.23
209.567	6.31
209.786	14.51
210.005	20.65
210.223	39.08
210.442	-5.97
210.661	41.13
210.879	26.79
211.098	53.42
211.316	14.51
211.535	98.47
211.753	82.09
211.972	14.51
212.191	43.18
212.409	26.79
212.628	26.79
212.846	57.51
213.065	12.46
213.283	59.56
213.502	53.42
213.72	73.9
213.938	67.75
214.157	16.55
214.375	34.99
214.594	80.04
214.812	2.22
215.031	102.57
215.249	-14.17
215.467	20.65
215.686	26.79
215.904	75.95
216.122	16.55
216.341	26.79
216.559	-12.12
216.778	28.84
216.996	-5.97
217.214	10.41
217.432	98.47
217.651	-1.88
217.869	-51.03
218.087	49.32
218.306	20.65
218.524	71.85
218.742	8.36
218.96	73.9
219.179	-1.88
219.397	18.6
219.615	84.14
219.833	65.71
220.051	49.32
220.27	65.71
220.488	18.6
220.706	65.71
220.924	18.6
221.142	22.7
221.36	26.79
221.578	61.61
221.796	41.13
222.015	26.79
222.233	14.51
222.451	57.51
222.669	8.36
222.887	75.95
223.105	-1.88
223.323	67.75
223.541	47.27
223.759	65.71
223.977	47.27
224.195	75.95
224.413	2.22
224.631	71.85
224.849	-22.36
225.067	77.99
225.285	16.55
225.503	32.94
225.721	-3.93
225.939	39.08
226.157	14.51
226.375	108.71
226.592	37.03
226.81	67.75
227.028	2.22
227.246	77.99
227.464	69.8
227.682	49.32
227.9	41.13
228.117	88.23
228.335	-24.4
228.553	-34.64
228.771	26.79
228.989	88.23
229.206	73.9
229.424	30.89
229.642	-22.36
229.86	45.23
230.077	26.79
230.295	37.03
230.513	16.55
230.731	67.75
230.948	43.18
231.166	12.46
231.384	12.46
231.601	125.1
231.819	92.33
232.037	51.37
232.254	57.51
232.472	86.19
232.689	-8.02
232.907	67.75
233.125	84.14
233.342	-55.12
233.56	-65.36
233.777	43.18
233.995	32.94
234.213	39.08
234.43	-34.64
234.648	49.32
234.865	65.71
235.083	71.85
235.3	55.47
235.518	-14.17
235.735	88.23
235.953	84.14
236.17	75.95
236.388	24.75
236.605	14.51
236.822	65.71
237.04	49.32
237.257	43.18
237.475	2.22
237.692	88.23
237.909	69.8
238.127	32.94
238.344	-12.12
238.562	43.18
238.779	6.31
238.996	45.23
239.214	4.27
239.431	71.85
239.648	-30.55
239.865	4.27
240.083	57.51
240.3	4.27
240.517	4.27
240.735	-1.88
240.952	22.7
241.169	65.71
241.386	14.51
241.603	51.37
241.821	14.51
242.038	73.9
242.255	-24.4
242.472	90.28
242.689	49.32
242.907	102.57
243.124	2.22
243.341	67.75
243.558	28.84
243.775	82.09
243.992	47.27
244.209	34.99
244.426	37.03
244.643	106.67
244.86	6.31
245.078	90.28
245.295	-53.08
245.512	6.31
245.729	24.75
245.946	43.18
246.163	53.42
246.38	51.37
246.597	10.41
246.814	73.9
247.031	18.6
247.248	80.04
247.464	18.6
247.681	10.41
247.898	47.27
248.115	-22.36
248.332	67.75
248.549	43.18
248.766	53.42
248.983	41.13
249.2	32.94
249.417	18.6
249.633	30.89
249.85	55.47
250.067	59.56
250.284	20.65
250.501	108.71
250.717	43.18
250.934	8.36
251.151	-5.97
251.368	28.84
251.585	41.13
251.801	32.94
252.018	16.55
252.235	26.79
252.451	8.36
252.668	53.42
252.885	67.75
253.102	69.8
253.318	28.84
253.535	18.6
253.752	43.18
253.968	49.32
254.185	-10.07
254.401	16.55
254.618	121
254.835	-18.26
255.051	94.38
255.268	41.13
255.484	84.14
255.701	4.27
255.917	82.09
256.134	12.46
256.351	37.03
256.567	-61.27
256.784	32.94
257	6.31
257.217	75.95
257.433	2.22
257.65	6.31
257.866	20.65
258.082	49.32
258.299	8.36
258.515	-20.31
258.732	10.41
258.948	26.79
259.165	39.08
259.381	24.75
259.597	116.9
259.814	73.9
260.03	43.18
260.246	90.28
260.463	22.7
260.679	10.41
260.895	20.65
261.112	-1.88
261.328	137.38
261.544	39.08
261.761	90.28
261.977	-24.4
262.193	-8.02
262.409	51.37
262.626	57.51
262.842	24.75
263.058	26.79
263.274	75.95
263.49	18.6
263.707	71.85
263.923	43.18
264.139	39.08
264.355	49.32
264.571	67.75
264.787	67.75
265.004	39.08
265.22	20.65
265.436	75.95
265.652	10.41
265.868	63.66
266.084	10.41
266.3	57.51
266.516	-61.27
266.732	57.51
266.948	32.94
267.164	32.94
267.38	55.47
267.596	73.9
267.812	-38.74
268.028	8.36
268.244	112.81
268.46	18.6
268.676	28.84
268.892	39.08
269.108	88.23
269.324	47.27
269.54	39.08
269.756	102.57
269.972	51.37
270.188	24.75
270.403	-59.22
270.619	86.19
270.835	69.8
271.051	90.28
271.267	67.75
271.483	12.46
271.698	26.79
271.914	57.51
272.13	-12.12
272.346	82.09
272.562	34.99
272.777	65.71
272.993	-22.36
273.209	47.27
273.425	43.18
273.64	14.51
273.856	-1.88
274.072	-28.5
274.287	34.99
274.503	-69.46
274.719	34.99
274.934	-18.26
275.15	-38.74
275.366	86.19
275.581	37.03
275.797	51.37
276.012	43.18
276.228	77.99
276.444	8.36
276.659	53.42
276.875	6.31
277.09	41.13
277.306	43.18
277.521	41.13
277.737	8.36
277.952	94.38
278.168	-34.64
278.383	-22.36
278.599	30.89
278.814	-44.88
279.03	22.7
279.245	47.27
279.461	-8.02
279.676	6.31
279.892	-53.08
280.107	10.41
280.322	51.37
280.538	43.18
280.753	-57.17
280.969	67.75
281.184	0.17
281.399	-5.97
281.615	41.13
281.83	57.51
282.045	-1.88
282.26	6.31
282.476	51.37
282.691	63.66
282.906	63.66
283.122	73.9
283.337	2.22
283.552	30.89
283.767	-16.21
283.983	73.9
284.198	-3.93
284.413	61.61
284.628	47.27
284.843	41.13
285.058	24.75
285.274	67.75
285.489	-5.97
285.704	-24.4
285.919	-1.88
286.134	55.47
286.349	0.17
286.564	116.9
286.779	73.9
286.995	47.27
287.21	47.27
287.425	53.42
287.64	59.56
287.855	45.23
288.07	-18.26
288.285	45.23
288.5	67.75
288.715	59.56
288.93	16.55
289.145	-30.55
289.36	65.71
289.575	53.42
289.79	-14.17
290.004	39.08
290.219	-10.07
290.434	2.22
290.649	6.31
290.864	-10.07
291.079	-22.36
291.294	10.41
291.509	55.47
291.724	8.36
291.938	47.27
292.153	-63.32
292.368	39.08
292.583	6.31
292.798	20.65
293.012	4.27
293.227	-16.21
293.442	14.51
293.657	108.71
293.871	77.99
294.086	53.42
294.301	75.95
294.516	41.13
294.73	75.95
294.945	63.66
295.16	77.99
295.374	73.9
295.589	108.71
295.804	-8.02
296.018	69.8
296.233	28.84
296.447	43.18
296.662	37.03
296.877	-32.6
297.091	75.95
297.306	2.22
297.52	-18.26
297.735	-1.88
297.949	43.18
298.164	22.7
298.378	34.99
298.593	-10.07
298.807	16.55
299.022	22.7
299.236	51.37
299.451	34.99
299.665	30.89
299.88	63.66
300.094	28.84
300.309	80.04
300.523	12.46
300.737	-18.26
300.952	43.18
301.166	43.18
301.381	51.37
301.595	86.19
301.809	-26.45
302.024	67.75
302.238	32.94
302.452	82.09
302.667	0.17
302.881	73.9
303.095	73.9
303.309	80.04
303.524	-16.21
303.738	24.75
303.952	69.8
304.166	47.27
304.381	24.75
304.595	24.75
304.809	-14.17
305.023	10.41
305.237	47.27
305.452	98.47
305.666	43.18
305.88	51.37
306.094	67.75
306.308	34.99
306.522	-22.36
306.736	-10.07
306.95	30.89
307.164	141.48
307.379	47.27
307.593	34.99
307.807	-1.88
308.021	14.51
308.235	71.85
308.449	55.47
308.663	16.55
308.877	84.14
309.091	57.51
309.305	75.95
309.519	-3.93
309.733	43.18
309.947	55.47
310.161	67.75
310.374	41.13
310.588	47.27
310.802	34.99
311.016	22.7
311.23	63.66
311.444	94.38
311.658	-22.36
311.872	59.56
312.085	18.6
312.299	20.65
312.513	37.03
312.727	65.71
312.941	24.75
313.154	8.36
313.368	106.67
313.582	57.51
313.796	49.32
314.009	-10.07
314.223	49.32
314.437	2.22
314.651	-14.17
314.864	14.51
315.078	-32.6
315.292	71.85
315.505	14.51
315.719	20.65
315.933	-12.12
316.146	4.27
316.36	8.36
316.573	137.38
316.787	53.42
317.001	18.6
317.214	43.18
317.428	45.23
317.641	-59.22
317.855	10.41
318.068	57.51
318.282	14.51
318.495	100.52
318.709	-3.93
318.922	45.23
319.136	28.84
319.349	14.51
319.563	2.22
319.776	22.7
319.99	12.46
320.203	2.22
320.417	41.13
320.63	0.17
320.843	75.95
321.057	80.04
321.27	96.43
321.483	14.51
321.697	26.79
321.91	18.6
322.124	-10.07
322.337	16.55
322.55	14.51
322.763	51.37
322.977	-26.45
323.19	39.08
323.403	26.79
323.617	34.99
323.83	32.94
324.043	14.51
324.256	34.99
324.469	34.99
324.683	47.27
324.896	6.31
325.109	18.6
325.322	30.89
325.535	47.27
325.748	22.7
325.962	-32.6
326.175	112.81
326.388	170.15
326.601	34.99
326.814	45.23
327.027	8.36
327.24	61.61
327.453	-14.17
327.666	71.85
327.879	65.71
328.092	51.37
328.305	131.24
328.518	34.99
328.731	10.41
328.944	90.28
329.157	63.66
329.37	-3.93
329.583	69.8
329.796	90.28
330.009	-1.88
330.222	47.27
330.435	24.75
330.648	47.27
330.861	-20.31
331.073	28.84
331.286	43.18
331.499	8.36
331.712	34.99
331.925	-40.79
332.138	26.79
332.35	131.24
332.563	24.75
332.776	82.09
332.989	6.31
333.202	104.62
333.414	2.22
333.627	63.66
333.84	10.41
334.053	94.38
334.265	63.66
334.478	18.6
334.691	30.89
334.903	-12.12
335.116	-14.17
335.329	-1.88
335.541	-8.02
335.754	92.33
335.966	-8.02
336.179	47.27
336.392	-46.93
336.604	39.08
336.817	73.9
337.029	51.37
337.242	73.9
337.454	67.75
337.667	20.65
337.88	82.09
338.092	59.56
338.305	100.52
338.517	-5.97
338.729	49.32
338.942	63.66
339.154	32.94
339.367	69.8
339.579	77.99
339.792	26.79
340.004	14.51
340.217	18.6
340.429	24.75
340.641	39.08
340.854	12.46
341.066	45.23
341.278	71.85
341.491	73.9
341.703	39.08
341.915	30.89
342.128	41.13
342.34	41.13
342.552	61.61
342.764	53.42
342.977	20.65
343.189	-5.97
343.401	80.04
343.613	-14.17
343.826	75.95
344.038	39.08
344.25	69.8
344.462	32.94
344.674	26.79
344.886	-18.26
345.099	24.75
345.311	41.13
345.523	67.75
345.735	18.6
345.947	0.17
346.159	84.14
346.371	34.99
346.583	8.36
346.795	69.8
347.007	47.27
347.219	-38.74
347.431	-8.02
347.643	39.08
347.855	-8.02
348.067	88.23
348.279	4.27
348.491	65.71
348.703	-14.17
348.915	69.8
349.127	75.95
349.339	75.95
349.551	-46.93
349.763	65.71
349.975	63.66
350.187	133.29
350.399	84.14
350.61	32.94
350.822	49.32
351.034	59.56
351.246	-14.17
351.458	82.09
351.669	147.62
351.881	65.71
352.093	96.43
352.305	30.89
352.517	24.75
352.728	106.67
352.94	43.18
353.152	41.13
353.363	4.27
353.575	-12.12
353.787	-42.84
353.999	129.19
354.21	32.94
354.422	57.51
354.633	-5.97
354.845	6.31
355.057	53.42
355.268	53.42
355.48	88.23
355.692	12.46
355.903	55.47
356.115	41.13
356.326	49.32
356.538	67.75
356.749	88.23
356.961	116.9
357.172	2.22
357.384	32.94
357.595	84.14
357.807	34.99
358.018	49.32
358.23	-22.36
358.441	110.76
358.653	67.75
358.864	75.95
359.075	96.43
359.287	39.08
359.498	0.17
359.709	67.75
359.921	-30.55
360.132	4.27
360.344	84.14
360.555	41.13
360.766	16.55
360.977	26.79
361.189	63.66
361.4	80.04
361.611	73.9
361.823	43.18
362.034	-18.26
362.245	-3.93
362.456	14.51
362.667	37.03
362.879	6.31
363.09	41.13
363.301	77.99
363.512	59.56
363.723	0.17
363.935	8.36
364.146	108.71
364.357	-5.97
364.568	84.14
364.779	34.99
364.99	-24.4
365.201	57.51
365.412	16.55
365.623	34.99
365.834	-24.4
366.045	73.9
366.256	100.52
366.467	32.94
366.678	123.05
366.889	63.66
367.1	37.03
367.311	-22.36
367.522	49.32
367.733	84.14
367.944	55.47
368.155	75.95
368.366	30.89
368.577	41.13
368.788	108.71
368.999	14.51
369.209	18.6
369.42	45.23
369.631	75.95
369.842	39.08
370.053	24.75
370.264	55.47
370.474	57.51
370.685	51.37
370.896	12.46
371.107	98.47
371.317	59.56
371.528	-14.17
371.739	65.71
371.95	2.22
372.16	73.9
372.371	57.51
372.582	217.26
372.792	-30.55
373.003	32.94
373.214	6.31
373.424	37.03
373.635	-36.69
373.846	77.99
374.056	92.33
374.267	84.14
374.477	71.85
374.688	20.65
374.898	24.75
375.109	28.84
375.319	59.56
375.53	65.71
375.74	28.84
375.951	-20.31
376.161	45.23
376.372	51.37
376.582	16.55
376.793	65.71
377.003	-5.97
377.214	4.27
377.424	59.56
377.635	61.61
377.845	104.62
378.055	125.1
378.266	57.51
378.476	112.81
378.686	75.95
378.897	43.18
379.107	131.24
379.317	88.23
379.528	49.32
379.738	77.99
379.948	43.18
380.158	14.51
380.369	57.51
380.579	12.46
380.789	125.1
380.999	59.56
381.21	22.7
381.42	57.51
381.63	8.36
381.84	61.61
382.05	63.66
382.261	96.43
382.471	80.04
382.681	45.23
382.891	84.14
383.101	37.03
383.311	26.79
383.521	57.51
383.731	98.47
383.941	20.65
384.151	8.36
384.361	67.75
384.571	98.47
384.781	30.89
384.991	67.75
385.201	118.95
385.411	-20.31
385.621	26.79
385.831	-5.97
386.041	73.9
386.251	-5.97
386.461	67.75
386.671	8.36
386.881	92.33
387.091	71.85
387.301	75.95
387.511	26.79
387.72	26.79
387.93	53.42
388.14	43.18
388.35	26.79
388.56	108.71
388.769	59.56
388.979	-10.07
389.189	32.94
389.399	96.43
389.609	80.04
389.818	69.8
390.028	49.32
390.238	18.6
390.447	30.89
390.657	57.51
390.867	41.13
391.076	8.36
391.286	98.47
391.496	18.6
391.705	51.37
391.915	133.29
392.125	94.38
392.334	57.51
392.544	51.37
392.753	88.23
392.963	57.51
393.172	-12.12
393.382	88.23
393.591	98.47
393.801	2.22
394.01	98.47
394.22	96.43
394.429	12.46
394.639	41.13
394.848	80.04
395.058	61.61
395.267	0.17
395.477	34.99
395.686	47.27
395.895	30.89
396.105	55.47
396.314	102.57
396.524	88.23
396.733	75.95
396.942	102.57
397.152	84.14
397.361	80.04
397.57	84.14
397.78	59.56
397.989	84.14
398.198	59.56
398.407	61.61
398.617	92.33
398.826	102.57
399.035	116.9
399.244	63.66
399.453	30.89
399.663	106.67
399.872	59.56
400.081	18.6
400.29	73.9
400.499	34.99
400.708	149.67
400.917	30.89
401.127	127.14
401.336	-48.98
401.545	135.34
401.754	133.29
401.963	127.14
402.172	32.94
402.381	82.09
402.59	123.05
402.799	88.23
403.008	106.67
403.217	129.19
403.426	121
403.635	110.76
403.844	129.19
404.053	86.19
404.262	67.75
404.471	231.59
404.68	170.15
404.888	84.14
405.097	92.33
405.306	106.67
405.515	108.71
405.724	114.86
405.933	143.53
406.142	174.25
406.35	114.86
406.559	145.58
406.768	118.95
406.977	153.77
407.185	149.67
407.394	102.57
407.603	149.67
407.812	211.11
408.02	166.06
408.229	143.53
408.438	143.53
408.646	161.96
408.855	180.39
409.064	229.54
409.272	170.15
409.481	268.45
409.69	188.58
409.898	247.97
410.107	164.01
410.315	225.45
410.524	235.69
410.733	254.12
410.941	297.13
411.15	239.78
411.358	268.45
411.567	329.89
411.775	207.02
411.984	237.74
412.192	346.28
412.401	317.61
412.609	317.61
412.818	317.61
413.026	321.7
413.234	374.95
413.443	354.47
413.651	348.33
413.86	393.38
414.068	465.06
414.276	422.05
414.485	409.76
414.693	362.66
414.901	436.39
415.11	465.06
415.318	409.76
415.526	487.59
415.734	534.69
415.943	530.59
416.151	555.17
416.359	538.79
416.567	608.42
416.776	587.94
416.984	612.51
417.192	714.91
417.4	653.47
417.608	671.9
417.817	659.62
418.025	743.58
418.233	782.49
418.441	698.53
418.649	850.08
418.857	874.65
419.065	903.32
419.273	888.99
419.481	893.09
419.689	979.1
419.897	991.39
420.105	1063.07
420.313	977.05
420.521	1169.56
420.729	1151.13
420.937	1155.23
421.145	1118.36
421.353	1187.99
421.561	1224.86
421.769	1271.96
421.977	1306.77
422.185	1302.68
422.393	1390.74
422.601	1566.87
422.809	1581.2
423.017	1431.7
423.224	1568.91
423.432	1695.89
423.64	1689.74
423.848	1775.76
424.056	1751.18
424.263	1927.31
424.471	1888.4
424.679	1869.97
424.887	1900.69
425.094	2023.56
425.302	2066.57
425.51	2070.67
425.718	2285.7
425.925	2279.56
426.133	2216.07
426.341	2443.4
426.548	2551.94
426.756	2513.03
426.964	2592.9
427.171	2744.45
427.379	2742.4
427.586	2842.75
427.794	2879.61
428.001	3143.8
428.209	3055.74
428.417	3090.56
428.624	3373.18
428.832	3467.38
429.039	3358.84
429.247	3399.8
429.454	3768.43
429.662	3831.92
429.869	3729.52
430.076	3917.93
430.284	3905.65
430.491	3864.69
430.699	4145.26
430.906	4298.86
431.114	4253.8
431.321	4321.38
431.528	4421.74
431.736	4671.59
431.943	5159
432.15	4982.88
432.358	5009.5
432.565	5034.08
432.772	5111.9
432.979	5439.58
433.187	5431.38
433.394	5380.18
433.601	5939.28
433.808	5865.55
434.016	5777.49
434.223	6209.61
434.43	6586.44
434.637	6461.51
434.844	6737.99
435.052	6975.55
435.259	6830.15
435.466	7077.95
435.673	6901.83
435.88	7276.6
436.087	7669.81
436.294	7821.36
436.501	7546.94
436.708	7821.36
436.915	7927.86
437.122	8548.39
437.329	8214.57
437.537	8249.39
437.743	8587.3
437.95	8542.25
438.157	9044
438.364	9353.24
438.571	9123.87
438.778	9377.82
438.985	10274.83
439.192	9852.95
439.399	10266.64
439.606	10192.91
439.813	10676.23
440.02	10989.57
440.227	11120.64
440.433	11026.43
440.64	11264
440.847	10999.81
441.054	11390.97
441.261	12294.13
441.467	12097.52
441.674	12582.89
441.881	12666.86
442.088	12482.54
442.294	12488.68
442.501	12767.21
442.708	13002.72
442.914	13600.73
443.121	14161.87
443.328	13776.86
443.534	14675.91
443.741	14426.06
443.948	14268.37
444.154	15427.52
444.361	15245.25
444.568	15472.57
444.774	15335.36
444.981	15515.58
445.187	15869.88
445.394	16619.44
445.6	16451.5
445.807	17774.49
446.013	17309.6
446.22	17436.58
446.426	18194.33
446.633	18110.36
446.839	19031.94
447.046	18079.64
447.252	19150.73
447.459	19001.22
447.665	19048.33
447.871	20156.28
448.078	20936.56
448.284	19894.14
448.491	20346.74
448.697	21131.11
448.903	21589.86
449.11	21788.51
449.316	21403.49
449.522	21761.89
449.728	22185.82
449.935	22282.07
450.141	22531.92
450.347	22978.38
450.553	22187.86
450.76	22404.95
450.966	22853.45
451.172	22763.34
451.378	23689.03
451.584	23205.7
451.791	23326.53
451.997	23517
452.203	23881.53
452.409	23977.79
452.615	23828.29
452.821	22824.78
453.027	22486.87
453.233	23830.34
453.44	22957.9
453.646	22990.67
453.852	23713.6
454.058	23506.76
454.264	22927.18
454.47	23283.53
454.676	22912.85
454.882	23633.73
455.088	21698.4
455.294	21829.47
455.5	22404.95
455.705	22454.1
455.911	21530.47
456.117	20997.99
456.323	20854.64
456.529	19545.98
456.735	20522.87
456.941	20359.03
457.147	19810.17
457.352	18960.27
457.558	19095.43
457.764	18941.83
457.97	18700.17
458.176	18204.56
458.381	18352.02
458.587	17403.81
458.793	17110.95
458.999	16537.52
459.204	17555.36
459.41	16893.86
459.616	15886.26
459.821	16027.57
460.027	16080.82
460.233	15640.51
460.438	15038.41
460.644	14968.77
460.85	14309.33
461.055	13973.46
461.261	14129.11
461.466	13019.11
461.672	12775.4
461.878	13631.45
462.083	12552.17
462.289	12470.25
462.494	12232.69
462.7	11495.42
462.905	11454.46
463.111	11999.22
463.316	11937.78
463.522	11804.66
463.727	11573.24
463.932	11450.36
464.138	11366.4
464.343	11472.89
464.549	11241.47
464.754	11509.76
464.959	11382.78
465.165	11251.71
465.37	10958.85
465.575	10665.99
465.781	11001.86
465.986	11266.05
466.191	10756.1
466.397	10364.94
466.602	9951.25
466.807	10618.89
467.012	10405.9
467.218	10469.39
467.423	10123.28
467.628	10412.04
467.833	10651.66
468.038	10205.2
468.244	9889.81
468.449	10197.01
468.654	9992.21
468.859	10041.36
