Data from USB4F104151__55__11-37-17-022.txt Node

Date: Fri Mar 14 11:37:17 EDT 2025
User: louis
Spectrometer: USB4F10415
Trigger mode: 4
Integration Time (sec): 2.000000E-2
Scans to average: 1
Electric dark correction enabled: true
Nonlinearity correction enabled: false
Boxcar width: 0
XAxis mode: Wavelengths
Number of Pixels in Spectrum: 3648
>>>>>Begin Spectral Data<<<<<
178.204	-29.35
178.424	-29.35
178.644	-29.35
178.864	-86.7
179.084	-92.84
179.304	-4.78
179.524	-6.83
179.744	-60.07
179.964	15.7
180.184	-25.26
180.404	11.61
180.624	27.99
180.844	77.14
181.064	-15.02
181.283	7.51
181.503	-21.16
181.723	-6.83
181.943	-4.78
182.163	60.76
182.383	27.99
182.602	58.71
182.822	36.18
183.042	-21.16
183.262	34.13
183.482	23.89
183.701	-15.02
183.921	44.37
184.141	17.75
184.361	27.99
184.58	-19.11
184.8	7.51
185.02	44.37
185.239	66.9
185.459	11.61
185.679	44.37
185.898	36.18
186.118	89.43
186.338	118.1
186.557	36.18
186.777	11.61
186.997	42.32
187.216	-12.97
187.436	120.15
187.655	11.61
187.875	34.13
188.095	62.8
188.314	62.8
188.534	-33.45
188.753	40.28
188.973	1.37
189.192	44.37
189.412	5.46
189.631	-8.87
189.851	56.66
190.07	19.8
190.29	54.61
190.509	-12.97
190.729	58.71
190.948	7.51
191.168	87.38
191.387	56.66
191.607	-33.45
191.826	-23.21
192.045	-21.16
192.265	40.28
192.484	-0.68
192.704	36.18
192.923	27.99
193.142	40.28
193.362	-37.55
193.581	50.52
193.8	32.08
194.02	64.85
194.239	19.8
194.458	97.62
194.678	-41.64
194.897	13.65
195.116	19.8
195.335	38.23
195.555	46.42
195.774	32.08
195.993	-4.78
196.212	3.41
196.432	32.08
196.651	32.08
196.87	15.7
197.089	36.18
197.308	38.23
197.528	32.08
197.747	-2.73
197.966	-27.31
198.185	103.76
198.404	-8.87
198.623	60.76
198.842	38.23
199.062	27.99
199.281	81.24
199.5	3.41
199.719	50.52
199.938	-0.68
200.157	42.32
200.376	-4.78
200.595	34.13
200.814	23.89
201.033	7.51
201.252	54.61
201.471	15.7
201.69	56.66
201.909	34.13
202.128	-29.35
202.347	7.51
202.566	44.37
202.785	-45.74
203.004	42.32
203.223	52.56
203.442	52.56
203.661	-12.97
203.879	52.56
204.098	60.76
204.317	-21.16
204.536	15.7
204.755	13.65
204.974	27.99
205.193	34.13
205.411	101.72
205.63	44.37
205.849	66.9
206.068	-53.93
206.287	52.56
206.505	-8.87
206.724	120.15
206.943	44.37
207.162	13.65
207.381	-12.97
207.599	-15.02
207.818	114
208.037	15.7
208.255	-12.97
208.474	103.76
208.693	68.95
208.911	66.9
209.13	19.8
209.349	54.61
209.567	30.04
209.786	-0.68
210.005	32.08
210.223	60.76
210.442	-10.92
210.661	68.95
210.879	-4.78
211.098	36.18
211.316	91.48
211.535	44.37
211.753	-68.27
211.972	23.89
212.191	42.32
212.409	103.76
212.628	21.85
212.846	-37.55
213.065	48.47
213.283	19.8
213.502	32.08
213.72	48.47
213.938	87.38
214.157	-19.11
214.375	66.9
214.594	44.37
214.812	52.56
215.031	40.28
215.249	27.99
215.467	-15.02
215.686	36.18
215.904	-12.97
216.122	-31.4
216.341	52.56
216.559	36.18
216.778	44.37
216.996	23.89
217.214	50.52
217.432	-4.78
217.651	-47.79
217.869	-17.07
218.087	44.37
218.306	-23.21
218.524	34.13
218.742	73.04
218.96	36.18
219.179	44.37
219.397	40.28
219.615	11.61
219.833	25.94
220.051	-27.31
220.27	75.09
220.488	34.13
220.706	36.18
220.924	15.7
221.142	7.51
221.36	-17.07
221.578	15.7
221.796	21.85
222.015	-2.73
222.233	38.23
222.451	91.48
222.669	36.18
222.887	48.47
223.105	25.94
223.323	30.04
223.541	52.56
223.759	38.23
223.977	3.41
224.195	87.38
224.413	91.48
224.631	9.56
224.849	19.8
225.067	64.85
225.285	3.41
225.503	40.28
225.721	-25.26
225.939	-25.26
226.157	3.41
226.375	27.99
226.592	13.65
226.81	73.04
227.028	17.75
227.246	44.37
227.464	40.28
227.682	-12.97
227.9	25.94
228.117	11.61
228.335	-12.97
228.553	-8.87
228.771	-0.68
228.989	30.04
229.206	75.09
229.424	44.37
229.642	36.18
229.86	38.23
230.077	19.8
230.295	1.37
230.513	-51.88
230.731	-12.97
230.948	44.37
231.166	23.89
231.384	40.28
231.601	85.33
231.819	68.95
232.037	-4.78
232.254	-12.97
232.472	34.13
232.689	62.8
232.907	60.76
233.125	50.52
233.342	42.32
233.56	-4.78
233.777	46.42
233.995	7.51
234.213	56.66
234.43	30.04
234.648	9.56
234.865	89.43
235.083	34.13
235.3	-4.78
235.518	32.08
235.735	27.99
235.953	34.13
236.17	50.52
236.388	48.47
236.605	48.47
236.822	64.85
237.04	66.9
237.257	3.41
237.475	75.09
237.692	11.61
237.909	-29.35
238.127	42.32
238.344	-25.26
238.562	46.42
238.779	-8.87
238.996	-25.26
239.214	-39.59
239.431	11.61
239.648	11.61
239.865	85.33
240.083	3.41
240.3	38.23
240.517	19.8
240.735	36.18
240.952	52.56
241.169	-4.78
241.386	66.9
241.603	7.51
241.821	11.61
242.038	48.47
242.255	-0.68
242.472	-12.97
242.689	52.56
242.907	40.28
243.124	21.85
243.341	5.46
243.558	25.94
243.775	5.46
243.992	19.8
244.209	97.62
244.426	60.76
244.643	56.66
244.86	15.7
245.078	81.24
245.295	9.56
245.512	21.85
245.729	-12.97
245.946	-58.03
246.163	56.66
246.38	34.13
246.597	44.37
246.814	68.95
247.031	79.19
247.248	44.37
247.464	-19.11
247.681	68.95
247.898	3.41
248.115	-17.07
248.332	-17.07
248.549	95.57
248.766	3.41
248.983	17.75
249.2	48.47
249.417	52.56
249.633	83.28
249.85	27.99
250.067	75.09
250.284	40.28
250.501	71
250.717	93.52
250.934	-23.21
251.151	56.66
251.368	36.18
251.585	58.71
251.801	42.32
252.018	71
252.235	60.76
252.451	13.65
252.668	58.71
252.885	52.56
253.102	-17.07
253.318	9.56
253.535	56.66
253.752	5.46
253.968	66.9
254.185	-6.83
254.401	27.99
254.618	111.96
254.835	-27.31
255.051	11.61
255.268	-29.35
255.484	-31.4
255.701	15.7
255.917	-0.68
256.134	48.47
256.351	54.61
256.567	-33.45
256.784	42.32
257	-6.83
257.217	60.76
257.433	-4.78
257.65	19.8
257.866	-0.68
258.082	-29.35
258.299	-2.73
258.515	32.08
258.732	32.08
258.948	15.7
259.165	-15.02
259.381	11.61
259.597	36.18
259.814	-4.78
260.03	-0.68
260.246	54.61
260.463	77.14
260.679	9.56
260.895	15.7
261.112	52.56
261.328	48.47
261.544	44.37
261.761	68.95
261.977	-0.68
262.193	23.89
262.409	62.8
262.626	95.57
262.842	-4.78
263.058	40.28
263.274	-35.5
263.49	25.94
263.707	124.24
263.923	60.76
264.139	3.41
264.355	15.7
264.571	48.47
264.787	66.9
265.004	46.42
265.22	44.37
265.436	83.28
265.652	34.13
265.868	36.18
266.084	44.37
266.3	21.85
266.516	7.51
266.732	19.8
266.948	3.41
267.164	75.09
267.38	68.95
267.596	107.86
267.812	81.24
268.028	79.19
268.244	44.37
268.46	1.37
268.676	1.37
268.892	23.89
269.108	3.41
269.324	11.61
269.54	32.08
269.756	23.89
269.972	79.19
270.188	64.85
270.403	5.46
270.619	64.85
270.835	-53.93
271.051	-4.78
271.267	32.08
271.483	-19.11
271.698	-6.83
271.914	23.89
272.13	-4.78
272.346	-33.45
272.562	-33.45
272.777	52.56
272.993	21.85
273.209	-2.73
273.425	21.85
273.64	-4.78
273.856	25.94
274.072	-21.16
274.287	-21.16
274.503	32.08
274.719	32.08
274.934	62.8
275.15	-21.16
275.366	1.37
275.581	36.18
275.797	7.51
276.012	-62.12
276.228	60.76
276.444	40.28
276.659	9.56
276.875	3.41
277.09	124.24
277.306	27.99
277.521	68.95
277.737	19.8
277.952	52.56
278.168	-41.64
278.383	-25.26
278.599	-45.74
278.814	42.32
279.03	79.19
279.245	25.94
279.461	75.09
279.676	91.48
279.892	36.18
280.107	11.61
280.322	34.13
280.538	44.37
280.753	-12.97
280.969	68.95
281.184	21.85
281.399	30.04
281.615	15.7
281.83	27.99
282.045	-21.16
282.26	62.8
282.476	-17.07
282.691	48.47
282.906	64.85
283.122	34.13
283.337	38.23
283.552	30.04
283.767	19.8
283.983	52.56
284.198	68.95
284.413	116.05
284.628	-29.35
284.843	1.37
285.058	-0.68
285.274	-12.97
285.489	38.23
285.704	11.61
285.919	-19.11
286.134	11.61
286.349	48.47
286.564	64.85
286.779	38.23
286.995	64.85
287.21	-0.68
287.425	9.56
287.64	5.46
287.855	23.89
288.07	-33.45
288.285	40.28
288.5	48.47
288.715	36.18
288.93	62.8
289.145	7.51
289.36	44.37
289.575	89.43
289.79	81.24
290.004	40.28
290.219	64.85
290.434	-21.16
290.649	-2.73
290.864	36.18
291.079	-64.17
291.294	93.52
291.509	83.28
291.724	-35.5
291.938	48.47
292.153	75.09
292.368	46.42
292.583	101.72
292.798	-49.83
293.012	71
293.227	52.56
293.442	-17.07
293.657	27.99
293.871	56.66
294.086	46.42
294.301	50.52
294.516	64.85
294.73	52.56
294.945	60.76
295.16	27.99
295.374	73.04
295.589	42.32
295.804	-37.55
296.018	36.18
296.233	66.9
296.447	79.19
296.662	34.13
296.877	15.7
297.091	-21.16
297.306	17.75
297.52	32.08
297.735	-4.78
297.949	7.51
298.164	116.05
298.378	36.18
298.593	25.94
298.807	-45.74
299.022	-8.87
299.236	3.41
299.451	15.7
299.665	36.18
299.88	3.41
300.094	-4.78
300.309	46.42
300.523	40.28
300.737	56.66
300.952	-0.68
301.166	42.32
301.381	-62.12
301.595	9.56
301.809	-4.78
302.024	36.18
302.238	44.37
302.452	15.7
302.667	38.23
302.881	32.08
303.095	83.28
303.309	23.89
303.524	-12.97
303.738	3.41
303.952	27.99
304.166	58.71
304.381	23.89
304.595	21.85
304.809	52.56
305.023	17.75
305.237	73.04
305.452	15.7
305.666	-10.92
305.88	40.28
306.094	15.7
306.308	-10.92
306.522	83.28
306.736	48.47
306.95	19.8
307.164	-6.83
307.379	1.37
307.593	23.89
307.807	64.85
308.021	52.56
308.235	-2.73
308.449	11.61
308.663	13.65
308.877	44.37
309.091	42.32
309.305	27.99
309.519	-4.78
309.733	21.85
309.947	5.46
310.161	27.99
310.374	21.85
310.588	42.32
310.802	54.61
311.016	44.37
311.23	32.08
311.444	7.51
311.658	-6.83
311.872	19.8
312.085	42.32
312.299	66.9
312.513	56.66
312.727	19.8
312.941	60.76
313.154	58.71
313.368	21.85
313.582	105.81
313.796	-60.07
314.009	17.75
314.223	48.47
314.437	9.56
314.651	-2.73
314.864	40.28
315.078	64.85
315.292	-21.16
315.505	40.28
315.719	17.75
315.933	71
316.146	15.7
316.36	-6.83
316.573	42.32
316.787	109.91
317.001	-0.68
317.214	27.99
317.428	23.89
317.641	73.04
317.855	40.28
318.068	17.75
318.282	93.52
318.495	-4.78
318.709	60.76
318.922	27.99
319.136	81.24
319.349	58.71
319.563	23.89
319.776	25.94
319.99	-17.07
320.203	73.04
320.417	15.7
320.63	-23.21
320.843	17.75
321.057	114
321.27	87.38
321.483	56.66
321.697	3.41
321.91	85.33
322.124	-0.68
322.337	64.85
322.55	64.85
322.763	48.47
322.977	42.32
323.19	71
323.403	17.75
323.617	27.99
323.83	95.57
324.043	5.46
324.256	19.8
324.469	-10.92
324.683	1.37
324.896	36.18
325.109	48.47
325.322	40.28
325.535	89.43
325.748	101.72
325.962	9.56
326.175	44.37
326.388	50.52
326.601	34.13
326.814	13.65
327.027	-21.16
327.24	32.08
327.453	75.09
327.666	52.56
327.879	-17.07
328.092	77.14
328.305	-8.87
328.518	5.46
328.731	27.99
328.944	109.91
329.157	64.85
329.37	-8.87
329.583	36.18
329.796	34.13
330.009	-70.31
330.222	79.19
330.435	15.7
330.648	66.9
330.861	7.51
331.073	66.9
331.286	-4.78
331.499	44.37
331.712	25.94
331.925	48.47
332.138	93.52
332.35	56.66
332.563	27.99
332.776	30.04
332.989	-39.59
333.202	52.56
333.414	-21.16
333.627	7.51
333.84	42.32
334.053	-43.69
334.265	48.47
334.478	68.95
334.691	54.61
334.903	23.89
335.116	5.46
335.329	58.71
335.541	-19.11
335.754	68.95
335.966	3.41
336.179	64.85
336.392	77.14
336.604	27.99
336.817	83.28
337.029	81.24
337.242	-0.68
337.454	46.42
337.667	44.37
337.88	79.19
338.092	34.13
338.305	87.38
338.517	-101.03
338.729	79.19
338.942	56.66
339.154	32.08
339.367	36.18
339.579	87.38
339.792	60.76
340.004	83.28
340.217	9.56
340.429	11.61
340.641	21.85
340.854	40.28
341.066	36.18
341.278	-0.68
341.491	48.47
341.703	19.8
341.915	38.23
342.128	-19.11
342.34	5.46
342.552	-12.97
342.764	1.37
342.977	118.1
343.189	44.37
343.401	13.65
343.613	27.99
343.826	-25.26
344.038	3.41
344.25	17.75
344.462	25.94
344.674	85.33
344.886	11.61
345.099	81.24
345.311	15.7
345.523	34.13
345.735	-12.97
345.947	150.87
346.159	19.8
346.371	52.56
346.583	11.61
346.795	48.47
347.007	-37.55
347.219	73.04
347.431	-8.87
347.643	71
347.855	15.7
348.067	64.85
348.279	15.7
348.491	54.61
348.703	9.56
348.915	60.76
349.127	50.52
349.339	-23.21
349.551	25.94
349.763	68.95
349.975	1.37
350.187	48.47
350.399	103.76
350.61	64.85
350.822	75.09
351.034	87.38
351.246	3.41
351.458	36.18
351.669	11.61
351.881	-0.68
352.093	66.9
352.305	126.29
352.517	101.72
352.728	46.42
352.94	42.32
353.152	34.13
353.363	7.51
353.575	36.18
353.787	122.2
353.999	11.61
354.21	64.85
354.422	85.33
354.633	48.47
354.845	75.09
355.057	48.47
355.268	-21.16
355.48	42.32
355.692	71
355.903	50.52
356.115	3.41
356.326	-25.26
356.538	42.32
356.749	-45.74
356.961	36.18
357.172	56.66
357.384	68.95
357.595	9.56
357.807	-15.02
358.018	62.8
358.23	-17.07
358.441	77.14
358.653	71
358.864	40.28
359.075	19.8
359.287	-4.78
359.498	58.71
359.709	-58.03
359.921	62.8
360.132	9.56
360.344	32.08
360.555	-19.11
360.766	40.28
360.977	34.13
361.189	95.57
361.4	44.37
361.611	23.89
361.823	75.09
362.034	-23.21
362.245	68.95
362.456	60.76
362.667	27.99
362.879	3.41
363.09	60.76
363.301	48.47
363.512	46.42
363.723	25.94
363.935	48.47
364.146	21.85
364.357	40.28
364.568	40.28
364.779	44.37
364.99	54.61
365.201	-19.11
365.412	75.09
365.623	-8.87
365.834	116.05
366.045	9.56
366.256	-12.97
366.467	58.71
366.678	58.71
366.889	-4.78
367.1	54.61
367.311	71
367.522	83.28
367.733	85.33
367.944	36.18
368.155	77.14
368.366	62.8
368.577	56.66
368.788	97.62
368.999	27.99
369.209	97.62
369.42	40.28
369.631	60.76
369.842	52.56
370.053	93.52
370.264	54.61
370.474	81.24
370.685	58.71
370.896	64.85
371.107	128.34
371.317	81.24
371.528	40.28
371.739	99.67
371.95	42.32
372.16	38.23
372.371	5.46
372.582	-23.21
372.792	89.43
373.003	81.24
373.214	21.85
373.424	54.61
373.635	15.7
373.846	93.52
374.056	-37.55
374.267	48.47
374.477	40.28
374.688	52.56
374.898	32.08
375.109	60.76
375.319	91.48
375.53	122.2
375.74	30.04
375.951	11.61
376.161	19.8
376.372	66.9
376.582	21.85
376.793	23.89
377.003	54.61
377.214	-0.68
377.424	44.37
377.635	48.47
377.845	97.62
378.055	77.14
378.266	-8.87
378.476	32.08
378.686	81.24
378.897	36.18
379.107	60.76
379.317	77.14
379.528	27.99
379.738	40.28
379.948	75.09
380.158	83.28
380.369	136.53
380.579	38.23
380.789	38.23
380.999	54.61
381.21	60.76
381.42	75.09
381.63	48.47
381.84	23.89
382.05	75.09
382.261	58.71
382.471	30.04
382.681	25.94
382.891	30.04
383.101	9.56
383.311	34.13
383.521	52.56
383.731	-0.68
383.941	111.96
384.151	30.04
384.361	60.76
384.571	103.76
384.781	109.91
384.991	118.1
385.201	124.24
385.411	13.65
385.621	71
385.831	44.37
386.041	81.24
386.251	52.56
386.461	109.91
386.671	11.61
386.881	-33.45
387.091	77.14
387.301	66.9
387.511	25.94
387.72	93.52
387.93	50.52
388.14	62.8
388.35	5.46
388.56	71
388.769	42.32
388.979	73.04
389.189	66.9
389.399	25.94
389.609	77.14
389.818	89.43
390.028	101.72
390.238	126.29
390.447	11.61
390.657	15.7
390.867	73.04
391.076	99.67
391.286	79.19
391.496	101.72
391.705	-2.73
391.915	-6.83
392.125	93.52
392.334	66.9
392.544	66.9
392.753	21.85
392.963	27.99
393.172	46.42
393.382	81.24
393.591	107.86
393.801	85.33
394.01	120.15
394.22	116.05
394.429	46.42
394.639	81.24
394.848	46.42
395.058	159.06
395.267	42.32
395.477	71
395.686	85.33
395.895	105.81
396.105	19.8
396.314	58.71
396.524	97.62
396.733	48.47
396.942	77.14
397.152	81.24
397.361	109.91
397.57	64.85
397.78	46.42
397.989	73.04
398.198	191.83
398.407	34.13
398.617	103.76
398.826	-8.87
399.035	34.13
399.244	91.48
399.453	118.1
399.663	83.28
399.872	66.9
400.081	128.34
400.29	99.67
400.499	44.37
400.708	116.05
400.917	101.72
401.127	118.1
401.336	167.25
401.545	169.3
401.754	64.85
401.963	128.34
402.172	97.62
402.381	89.43
402.59	77.14
402.799	150.87
403.008	124.24
403.217	36.18
403.426	87.38
403.635	85.33
403.844	126.29
404.053	97.62
404.262	118.1
404.471	130.39
404.68	105.81
404.888	185.68
405.097	140.63
405.306	111.96
405.515	126.29
405.724	75.09
405.933	171.35
406.142	175.44
406.35	77.14
406.559	142.68
406.768	150.87
406.977	150.87
407.185	220.5
407.394	187.73
407.603	150.87
407.812	238.93
408.02	197.97
408.229	144.72
408.438	214.35
408.646	146.77
408.855	165.2
409.064	238.93
409.272	218.45
409.481	240.98
409.69	249.17
409.898	220.5
410.107	234.83
410.315	236.88
410.524	269.65
410.733	261.46
410.941	357.71
411.15	296.27
411.358	314.7
411.567	382.29
411.775	316.75
411.984	337.23
412.192	443.73
412.401	370
412.609	417.1
412.818	382.29
413.026	449.87
413.234	359.76
413.443	402.77
413.651	451.92
413.86	376.14
414.068	544.08
414.276	558.41
414.485	511.31
414.693	501.07
414.901	562.51
415.11	621.9
415.318	509.26
415.526	650.57
415.734	683.34
415.943	656.72
416.151	669
416.359	638.28
416.567	757.07
416.776	664.91
416.984	773.45
417.192	892.23
417.4	795.98
417.608	789.83
417.817	845.13
418.025	867.66
418.233	992.58
418.441	927.05
418.649	945.48
418.857	1092.93
419.065	1058.12
419.273	1072.45
419.481	1066.31
419.689	1185.09
419.897	1350.98
420.105	1197.38
420.313	1236.29
420.521	1348.93
420.729	1436.99
420.937	1443.14
421.145	1477.95
421.353	1467.71
421.561	1576.25
421.769	1527.1
421.977	1678.65
422.185	1680.7
422.393	1785.15
422.601	1830.2
422.809	1895.74
423.017	1834.3
423.224	1963.32
423.432	2110.77
423.64	2030.9
423.848	2213.17
424.056	2166.07
424.263	2407.73
424.471	2334
424.679	2354.48
424.887	2497.84
425.094	2508.08
425.302	2587.95
425.51	2751.79
425.718	2719.02
425.925	2878.76
426.133	2952.49
426.341	3235.11
426.548	3220.77
426.756	3171.62
426.964	3247.4
427.171	3386.66
427.379	3519.78
427.586	3501.34
427.794	3777.82
428.001	3857.69
428.209	4056.34
428.417	4056.34
428.624	4308.24
428.832	4269.33
429.039	4271.38
429.247	4265.24
429.454	4672.78
429.662	5008.65
429.869	4693.26
430.076	5098.76
430.284	4855.05
430.491	5235.97
430.699	5199.11
430.906	5303.56
431.114	5473.54
431.321	5612.8
431.528	5752.06
431.736	6153.46
431.943	6384.88
432.15	6354.16
432.358	6147.32
432.565	6687.98
432.772	6667.5
432.979	7152.87
433.187	7195.88
433.394	7113.96
433.601	7650.53
433.808	7496.93
434.016	7494.88
434.223	7865.57
434.43	8449.24
434.637	8131.8
434.844	8715.47
435.052	8936.65
435.259	8738
435.466	8795.34
435.673	8850.64
435.88	9413.83
436.087	9577.67
436.294	9866.43
436.501	9620.67
436.708	9940.16
436.915	10173.63
437.122	10583.22
437.329	10570.93
437.537	10871.98
437.743	10951.85
437.95	10900.66
438.157	11560.1
438.364	11949.22
438.571	11777.19
438.778	11938.98
438.985	13085.84
439.192	12641.43
439.399	13038.73
439.606	12864.66
439.813	13372.55
440.02	14521.46
440.227	13831.3
440.433	13898.88
440.64	14480.5
440.847	14273.66
441.054	14374.01
441.261	15512.68
441.467	15211.63
441.674	15549.54
441.881	16165.98
442.088	16127.07
442.294	16159.84
442.501	16473.18
442.708	16794.71
442.914	17298.51
443.121	18275.39
443.328	17921.09
443.534	19010.61
443.741	18590.78
443.948	18170.94
444.154	19512.36
444.361	19391.53
444.568	19588.14
444.774	19428.4
444.981	19684.39
445.187	20354.08
445.394	21230.61
445.6	20831.26
445.807	23010.29
446.013	22055.94
446.22	22242.31
446.426	23192.56
446.633	23663.6
446.839	24374.24
447.046	23176.18
447.252	24466.4
447.459	24378.34
447.665	24642.53
447.871	25463.76
448.078	26719.17
448.284	25263.06
448.491	26168.26
448.697	26944.44
448.903	27593.65
449.11	27481.01
449.316	27085.75
449.522	27683.76
449.728	28568.48
449.935	28640.16
450.141	28591.01
450.347	29387.67
450.553	28281.77
450.76	28644.26
450.966	29535.12
451.172	29621.14
451.378	29870.99
451.584	29561.75
451.791	29932.43
451.997	30016.4
452.203	30258.06
452.409	30315.4
452.615	30401.41
452.821	29125.53
453.027	28926.88
453.233	30610.31
453.44	29090.71
453.646	29500.31
453.852	29809.55
454.058	30382.98
454.264	29053.85
454.47	29596.56
454.676	29383.57
454.882	30360.45
455.088	27544.5
455.294	27825.07
455.5	28265.38
455.705	28447.65
455.911	27298.74
456.117	26868.67
456.323	26313.67
456.529	25054.17
456.735	26430.4
456.941	25680.85
457.147	25402.32
457.352	24202.21
457.558	23901.16
457.764	24345.57
457.97	23970.79
458.176	23389.17
458.381	23598.06
458.587	22250.5
458.793	21892.1
458.999	20714.52
459.204	22393.86
459.41	21513.23
459.616	20323.36
459.821	20472.86
460.027	20161.57
460.233	19887.14
460.438	19000.37
460.644	19207.22
460.85	17923.14
461.055	18015.3
461.261	17706.06
461.466	16440.41
461.672	16051.3
461.878	17249.36
462.083	15973.47
462.289	15928.42
462.494	15707.24
462.7	15131.76
462.905	14507.13
463.111	15043.7
463.316	15000.69
463.522	14861.43
463.727	14918.77
463.932	14750.84
464.138	14736.5
464.343	14531.7
464.549	14144.64
464.754	14716.02
464.959	14503.03
465.165	14312.57
465.37	13743.24
465.575	13706.37
465.781	13925.5
465.986	14150.78
466.191	13886.59
466.397	13190.28
466.602	12866.7
466.807	13276.3
467.012	13300.87
467.218	13040.78
467.423	13122.7
467.628	12905.62
467.833	13345.93
468.038	13118.61
468.244	12848.27
468.449	13161.61
468.654	12881.04
468.859	12784.79
