Data from USB4F104151__47__11-37-02-803.txt Node

Date: Fri Mar 14 11:37:02 EDT 2025
User: louis
Spectrometer: USB4F10415
Trigger mode: 4
Integration Time (sec): 2.000000E-2
Scans to average: 1
Electric dark correction enabled: true
Nonlinearity correction enabled: false
Boxcar width: 0
XAxis mode: Wavelengths
Number of Pixels in Spectrum: 3648
>>>>>Begin Spectral Data<<<<<
178.204	-13.14
178.424	-13.14
178.644	-13.14
178.864	-56.15
179.084	-101.2
179.304	-58.2
179.524	-68.44
179.744	1.19
179.964	1.19
180.184	-31.57
180.404	5.29
180.624	70.83
180.844	62.63
181.064	29.87
181.283	25.77
181.503	-68.44
181.723	29.87
181.943	15.53
182.163	42.15
182.383	5.29
182.602	72.87
182.822	50.35
183.042	36.01
183.262	-31.57
183.482	-11.09
183.701	-39.76
183.921	44.2
184.141	-9.05
184.361	-45.91
184.58	79.02
184.8	81.07
185.02	-11.09
185.239	46.25
185.459	-37.72
185.679	95.4
185.898	-54.1
186.118	-2.9
186.338	9.39
186.557	-2.9
186.777	52.39
186.997	-47.96
187.216	15.53
187.436	97.45
187.655	44.2
187.875	15.53
188.095	54.44
188.314	38.06
188.534	42.15
188.753	-0.85
188.973	15.53
189.192	3.24
189.412	50.35
189.631	5.29
189.851	-25.43
190.07	62.63
190.29	31.91
190.509	-4.95
190.729	38.06
190.948	-7
191.168	136.36
191.387	5.29
191.607	13.48
191.826	5.29
192.045	-0.85
192.265	48.3
192.484	64.68
192.704	1.19
192.923	1.19
193.142	48.3
193.362	1.19
193.581	7.34
193.8	-4.95
194.02	27.82
194.239	56.49
194.458	15.53
194.678	62.63
194.897	15.53
195.116	5.29
195.335	11.43
195.555	-4.95
195.774	42.15
195.993	19.63
196.212	11.43
196.432	23.72
196.651	31.91
196.87	-56.15
197.089	7.34
197.308	50.35
197.528	-15.19
197.747	-15.19
197.966	38.06
198.185	23.72
198.404	-33.62
198.623	-27.48
198.842	46.25
199.062	17.58
199.281	29.87
199.5	66.73
199.719	85.16
199.938	42.15
200.157	52.39
200.376	58.54
200.595	46.25
200.814	33.96
201.033	33.96
201.252	36.01
201.471	48.3
201.69	89.26
201.909	-21.33
202.128	15.53
202.347	29.87
202.566	19.63
202.785	-2.9
203.004	38.06
203.223	85.16
203.442	11.43
203.661	-90.96
203.879	11.43
204.098	-15.19
204.317	31.91
204.536	13.48
204.755	36.01
204.974	-23.38
205.193	-64.34
205.411	81.07
205.63	101.55
205.849	50.35
206.068	15.53
206.287	21.67
206.505	1.19
206.724	44.2
206.943	-9.05
207.162	83.11
207.381	-37.72
207.599	23.72
207.818	70.83
208.037	105.64
208.255	21.67
208.474	33.96
208.693	83.11
208.911	21.67
209.13	105.64
209.349	70.83
209.567	52.39
209.786	66.73
210.005	99.5
210.223	-9.05
210.442	-72.53
210.661	46.25
210.879	3.24
211.098	7.34
211.316	58.54
211.535	50.35
211.753	50.35
211.972	-56.15
212.191	11.43
212.409	-43.86
212.628	15.53
212.846	-9.05
213.065	29.87
213.283	93.35
213.502	13.48
213.72	15.53
213.938	5.29
214.157	29.87
214.375	-23.38
214.594	25.77
214.812	-7
215.031	60.59
215.249	42.15
215.467	48.3
215.686	81.07
215.904	-15.19
216.122	33.96
216.341	66.73
216.559	-17.24
216.778	25.77
216.996	81.07
217.214	-15.19
217.432	76.97
217.651	-19.29
217.869	1.19
218.087	-70.48
218.306	-4.95
218.524	91.31
218.742	-60.24
218.96	7.34
219.179	50.35
219.397	-39.76
219.615	25.77
219.833	1.19
220.051	76.97
220.27	58.54
220.488	56.49
220.706	62.63
220.924	11.43
221.142	70.83
221.36	42.15
221.578	132.26
221.796	7.34
222.015	25.77
222.233	42.15
222.451	7.34
222.669	-50
222.887	52.39
223.105	25.77
223.323	89.26
223.541	74.92
223.759	33.96
223.977	40.11
224.195	21.67
224.413	74.92
224.631	5.29
224.849	33.96
225.067	25.77
225.285	15.53
225.503	56.49
225.721	-76.63
225.939	29.87
226.157	62.63
226.375	40.11
226.592	3.24
226.81	1.19
227.028	-4.95
227.246	54.44
227.464	3.24
227.682	5.29
227.9	17.58
228.117	46.25
228.335	-78.68
228.553	89.26
228.771	11.43
228.989	33.96
229.206	1.19
229.424	-39.76
229.642	5.29
229.86	3.24
230.077	9.39
230.295	25.77
230.513	-15.19
230.731	21.67
230.948	15.53
231.166	13.48
231.384	7.34
231.601	-31.57
231.819	46.25
232.037	107.69
232.254	-15.19
232.472	9.39
232.689	-35.67
232.907	21.67
233.125	19.63
233.342	9.39
233.56	50.35
233.777	9.39
233.995	21.67
234.213	81.07
234.43	-62.29
234.648	23.72
234.865	9.39
235.083	42.15
235.3	54.44
235.518	-37.72
235.735	11.43
235.953	42.15
236.17	1.19
236.388	-0.85
236.605	97.45
236.822	79.02
237.04	58.54
237.257	52.39
237.475	-19.29
237.692	5.29
237.909	29.87
238.127	-7
238.344	3.24
238.562	70.83
238.779	-9.05
238.996	-7
239.214	5.29
239.431	38.06
239.648	3.24
239.865	7.34
240.083	31.91
240.3	-15.19
240.517	23.72
240.735	33.96
240.952	-25.43
241.169	58.54
241.386	50.35
241.603	-15.19
241.821	15.53
242.038	83.11
242.255	7.34
242.472	50.35
242.689	111.78
242.907	111.78
243.124	11.43
243.341	-13.14
243.558	-33.62
243.775	27.82
243.992	-33.62
244.209	17.58
244.426	48.3
244.643	48.3
244.86	40.11
245.078	-33.62
245.295	15.53
245.512	21.67
245.729	-23.38
245.946	68.78
246.163	44.2
246.38	64.68
246.597	58.54
246.814	13.48
247.031	15.53
247.248	-19.29
247.464	58.54
247.681	97.45
247.898	42.15
248.115	46.25
248.332	13.48
248.549	23.72
248.766	5.29
248.983	13.48
249.2	-27.48
249.417	-7
249.633	5.29
249.85	83.11
250.067	36.01
250.284	36.01
250.501	-9.05
250.717	113.83
250.934	-54.1
251.151	48.3
251.368	3.24
251.585	27.82
251.801	21.67
252.018	-0.85
252.235	-15.19
252.451	76.97
252.668	-0.85
252.885	33.96
253.102	33.96
253.318	40.11
253.535	-25.43
253.752	1.19
253.968	74.92
254.185	-27.48
254.401	9.39
254.618	44.2
254.835	56.49
255.051	74.92
255.268	42.15
255.484	17.58
255.701	-2.9
255.917	56.49
256.134	-0.85
256.351	1.19
256.567	11.43
256.784	-0.85
257	29.87
257.217	42.15
257.433	21.67
257.65	21.67
257.866	5.29
258.082	-15.19
258.299	-11.09
258.515	46.25
258.732	13.48
258.948	21.67
259.165	-2.9
259.381	11.43
259.597	23.72
259.814	46.25
260.03	-4.95
260.246	-11.09
260.463	62.63
260.679	44.2
260.895	31.91
261.112	9.39
261.328	74.92
261.544	15.53
261.761	66.73
261.977	-31.57
262.193	1.19
262.409	15.53
262.626	29.87
262.842	-0.85
263.058	-19.29
263.274	58.54
263.49	11.43
263.707	-9.05
263.923	-11.09
264.139	3.24
264.355	87.21
264.571	74.92
264.787	83.11
265.004	33.96
265.22	29.87
265.436	64.68
265.652	-27.48
265.868	31.91
266.084	29.87
266.3	-39.76
266.516	-41.81
266.732	27.82
266.948	56.49
267.164	97.45
267.38	-31.57
267.596	31.91
267.812	7.34
268.028	33.96
268.244	54.44
268.46	44.2
268.676	-23.38
268.892	-13.14
269.108	-45.91
269.324	-33.62
269.54	3.24
269.756	-39.76
269.972	70.83
270.188	40.11
270.403	-2.9
270.619	66.73
270.835	-7
271.051	66.73
271.267	79.02
271.483	81.07
271.698	93.35
271.914	52.39
272.13	-2.9
272.346	1.19
272.562	76.97
272.777	70.83
272.993	9.39
273.209	62.63
273.425	9.39
273.64	27.82
273.856	-35.67
274.072	13.48
274.287	31.91
274.503	38.06
274.719	-74.58
274.934	33.96
275.15	25.77
275.366	-25.43
275.581	-25.43
275.797	3.24
276.012	-29.52
276.228	52.39
276.444	7.34
276.659	46.25
276.875	-17.24
277.09	31.91
277.306	-9.05
277.521	42.15
277.737	-54.1
277.952	36.01
278.168	62.63
278.383	50.35
278.599	17.58
278.814	54.44
279.03	-58.2
279.245	46.25
279.461	5.29
279.676	-19.29
279.892	-7
280.107	66.73
280.322	1.19
280.538	-13.14
280.753	-2.9
280.969	50.35
281.184	25.77
281.399	60.59
281.615	-2.9
281.83	29.87
282.045	58.54
282.26	36.01
282.476	-17.24
282.691	154.79
282.906	44.2
283.122	44.2
283.337	21.67
283.552	68.78
283.767	-27.48
283.983	58.54
284.198	93.35
284.413	54.44
284.628	-86.87
284.843	9.39
285.058	93.35
285.274	5.29
285.489	15.53
285.704	-0.85
285.919	-60.24
286.134	60.59
286.349	17.58
286.564	42.15
286.779	-7
286.995	-11.09
287.21	40.11
287.425	52.39
287.64	-19.29
287.855	23.72
288.07	-39.76
288.285	38.06
288.5	25.77
288.715	36.01
288.93	44.2
289.145	3.24
289.36	68.78
289.575	48.3
289.79	89.26
290.004	19.63
290.219	56.49
290.434	54.44
290.649	23.72
290.864	-2.9
291.079	-2.9
291.294	3.24
291.509	-13.14
291.724	13.48
291.938	5.29
292.153	25.77
292.368	46.25
292.583	33.96
292.798	-31.57
293.012	-17.24
293.227	38.06
293.442	15.53
293.657	9.39
293.871	74.92
294.086	-0.85
294.301	66.73
294.516	7.34
294.73	17.58
294.945	72.87
295.16	5.29
295.374	21.67
295.589	60.59
295.804	9.39
296.018	-82.77
296.233	17.58
296.447	54.44
296.662	5.29
296.877	58.54
297.091	62.63
297.306	25.77
297.52	1.19
297.735	64.68
297.949	-25.43
298.164	42.15
298.378	9.39
298.593	17.58
298.807	42.15
299.022	11.43
299.236	21.67
299.451	-54.1
299.665	74.92
299.88	21.67
300.094	31.91
300.309	33.96
300.523	46.25
300.737	44.2
300.952	21.67
301.166	50.35
301.381	31.91
301.595	132.26
301.809	-2.9
302.024	-0.85
302.238	-23.38
302.452	31.91
302.667	-11.09
302.881	13.48
303.095	17.58
303.309	33.96
303.524	11.43
303.738	17.58
303.952	-33.62
304.166	68.78
304.381	-0.85
304.595	87.21
304.809	40.11
305.023	33.96
305.237	-25.43
305.452	52.39
305.666	42.15
305.88	15.53
306.094	85.16
306.308	50.35
306.522	68.78
306.736	52.39
306.95	21.67
307.164	-9.05
307.379	-13.14
307.593	21.67
307.807	66.73
308.021	5.29
308.235	58.54
308.449	21.67
308.663	-64.34
308.877	17.58
309.091	-7
309.305	99.5
309.519	-19.29
309.733	11.43
309.947	42.15
310.161	66.73
310.374	66.73
310.588	33.96
310.802	-9.05
311.016	9.39
311.23	33.96
311.444	11.43
311.658	-66.39
311.872	38.06
312.085	31.91
312.299	3.24
312.513	29.87
312.727	64.68
312.941	11.43
313.154	70.83
313.368	64.68
313.582	31.91
313.796	29.87
314.009	58.54
314.223	31.91
314.437	48.3
314.651	19.63
314.864	115.88
315.078	-4.95
315.292	13.48
315.505	7.34
315.719	66.73
315.933	-9.05
316.146	56.49
316.36	13.48
316.573	72.87
316.787	-4.95
317.001	52.39
317.214	70.83
317.428	33.96
317.641	48.3
317.855	-11.09
318.068	54.44
318.282	17.58
318.495	-9.05
318.709	87.21
318.922	-35.67
319.136	19.63
319.349	-21.33
319.563	33.96
319.776	-19.29
319.99	29.87
320.203	1.19
320.417	31.91
320.63	107.69
320.843	21.67
321.057	54.44
321.27	54.44
321.483	58.54
321.697	72.87
321.91	56.49
322.124	5.29
322.337	5.29
322.55	-27.48
322.763	1.19
322.977	11.43
323.19	29.87
323.403	38.06
323.617	-15.19
323.83	79.02
324.043	-41.81
324.256	109.74
324.469	44.2
324.683	17.58
324.896	-9.05
325.109	46.25
325.322	11.43
325.535	38.06
325.748	11.43
325.962	-0.85
326.175	42.15
326.388	54.44
326.601	-50
326.814	42.15
327.027	11.43
327.24	54.44
327.453	17.58
327.666	40.11
327.879	83.11
328.092	66.73
328.305	-35.67
328.518	15.53
328.731	17.58
328.944	-21.33
329.157	40.11
329.37	5.29
329.583	1.19
329.796	17.58
330.009	17.58
330.222	31.91
330.435	97.45
330.648	33.96
330.861	17.58
331.073	3.24
331.286	33.96
331.499	89.26
331.712	21.67
331.925	46.25
332.138	85.16
332.35	46.25
332.563	-9.05
332.776	107.69
332.989	148.65
333.202	-17.24
333.414	48.3
333.627	107.69
333.84	40.11
334.053	33.96
334.265	-31.57
334.478	1.19
334.691	25.77
334.903	27.82
335.116	-43.86
335.329	21.67
335.541	-25.43
335.754	60.59
335.966	-19.29
336.179	5.29
336.392	27.82
336.604	40.11
336.817	-7
337.029	-0.85
337.242	25.77
337.454	58.54
337.667	9.39
337.88	66.73
338.092	54.44
338.305	54.44
338.517	70.83
338.729	56.49
338.942	54.44
339.154	-39.76
339.367	17.58
339.579	23.72
339.792	-27.48
340.004	15.53
340.217	-39.76
340.429	136.36
340.641	-39.76
340.854	-13.14
341.066	7.34
341.278	74.92
341.491	46.25
341.703	42.15
341.915	91.31
342.128	17.58
342.34	103.59
342.552	-27.48
342.764	-0.85
342.977	5.29
343.189	-2.9
343.401	17.58
343.613	-45.91
343.826	50.35
344.038	-0.85
344.25	25.77
344.462	13.48
344.674	91.31
344.886	89.26
345.099	-9.05
345.311	66.73
345.523	40.11
345.735	9.39
345.947	42.15
346.159	-0.85
346.371	36.01
346.583	-7
346.795	66.73
347.007	-11.09
347.219	23.72
347.431	-74.58
347.643	124.07
347.855	-60.24
348.067	72.87
348.279	21.67
348.491	36.01
348.703	-37.72
348.915	19.63
349.127	36.01
349.339	-9.05
349.551	81.07
349.763	29.87
349.975	-45.91
350.187	40.11
350.399	126.12
350.61	83.11
350.822	111.78
351.034	56.49
351.246	-33.62
351.458	3.24
351.669	13.48
351.881	81.07
352.093	-7
352.305	-0.85
352.517	-19.29
352.728	103.59
352.94	48.3
353.152	-4.95
353.363	21.67
353.575	103.59
353.787	1.19
353.999	-82.77
354.21	42.15
354.422	27.82
354.633	17.58
354.845	74.92
355.057	38.06
355.268	144.55
355.48	13.48
355.692	9.39
355.903	21.67
356.115	56.49
356.326	13.48
356.538	1.19
356.749	50.35
356.961	-4.95
357.172	79.02
357.384	76.97
357.595	46.25
357.807	68.78
358.018	9.39
358.23	13.48
358.441	122.02
358.653	72.87
358.864	70.83
359.075	23.72
359.287	79.02
359.498	25.77
359.709	21.67
359.921	-2.9
360.132	60.59
360.344	50.35
360.555	93.35
360.766	13.48
360.977	1.19
361.189	124.07
361.4	-37.72
361.611	29.87
361.823	13.48
362.034	83.11
362.245	-35.67
362.456	25.77
362.667	46.25
362.879	1.19
363.09	23.72
363.301	95.4
363.512	-7
363.723	17.58
363.935	15.53
364.146	103.59
364.357	85.16
364.568	46.25
364.779	-25.43
364.99	87.21
365.201	-11.09
365.412	42.15
365.623	25.77
365.834	44.2
366.045	-33.62
366.256	48.3
366.467	40.11
366.678	13.48
366.889	52.39
367.1	42.15
367.311	44.2
367.522	64.68
367.733	46.25
367.944	7.34
368.155	11.43
368.366	-2.9
368.577	-19.29
368.788	62.63
368.999	17.58
369.209	-52.05
369.42	122.02
369.631	101.55
369.842	13.48
370.053	113.83
370.264	70.83
370.474	-9.05
370.685	-2.9
370.896	101.55
371.107	72.87
371.317	58.54
371.528	-11.09
371.739	48.3
371.95	56.49
372.16	38.06
372.371	40.11
372.582	29.87
372.792	23.72
373.003	3.24
373.214	54.44
373.424	9.39
373.635	58.54
373.846	117.93
374.056	74.92
374.267	44.2
374.477	1.19
374.688	1.19
374.898	48.3
375.109	103.59
375.319	13.48
375.53	115.88
375.74	-2.9
375.951	36.01
376.161	46.25
376.372	87.21
376.582	-7
376.793	50.35
377.003	-39.76
377.214	-31.57
377.424	66.73
377.635	52.39
377.845	29.87
378.055	58.54
378.266	70.83
378.476	70.83
378.686	31.91
378.897	-4.95
379.107	44.2
379.317	52.39
379.528	58.54
379.738	81.07
379.948	33.96
380.158	-27.48
380.369	64.68
380.579	36.01
380.789	50.35
380.999	3.24
381.21	56.49
381.42	132.26
381.63	-31.57
381.84	83.11
382.05	33.96
382.261	33.96
382.471	87.21
382.681	7.34
382.891	74.92
383.101	85.16
383.311	-7
383.521	27.82
383.731	17.58
383.941	70.83
384.151	29.87
384.361	25.77
384.571	79.02
384.781	5.29
384.991	113.83
385.201	107.69
385.411	40.11
385.621	46.25
385.831	-31.57
386.041	64.68
386.251	83.11
386.461	83.11
386.671	48.3
386.881	7.34
387.091	19.63
387.301	72.87
387.511	31.91
387.72	76.97
387.93	111.78
388.14	25.77
388.35	87.21
388.56	27.82
388.769	5.29
388.979	-2.9
389.189	-7
389.399	33.96
389.609	105.64
389.818	40.11
390.028	29.87
390.238	64.68
390.447	15.53
390.657	124.07
390.867	46.25
391.076	113.83
391.286	99.5
391.496	66.73
391.705	1.19
391.915	68.78
392.125	44.2
392.334	27.82
392.544	56.49
392.753	83.11
392.963	48.3
393.172	85.16
393.382	48.3
393.591	29.87
393.801	87.21
394.01	33.96
394.22	81.07
394.429	62.63
394.639	42.15
394.848	87.21
395.058	54.44
395.267	91.31
395.477	11.43
395.686	29.87
395.895	70.83
396.105	85.16
396.314	60.59
396.524	9.39
396.733	-9.05
396.942	42.15
397.152	72.87
397.361	105.64
397.57	72.87
397.78	83.11
397.989	64.68
398.198	38.06
398.407	70.83
398.617	74.92
398.826	54.44
399.035	87.21
399.244	81.07
399.453	72.87
399.663	105.64
399.872	144.55
400.081	19.63
400.29	124.07
400.499	54.44
400.708	66.73
400.917	119.98
401.127	76.97
401.336	72.87
401.545	107.69
401.754	136.36
401.963	109.74
402.172	113.83
402.381	95.4
402.59	56.49
402.799	50.35
403.008	91.31
403.217	13.48
403.426	42.15
403.635	99.5
403.844	101.55
404.053	48.3
404.262	148.65
404.471	79.02
404.68	107.69
404.888	113.83
405.097	119.98
405.306	72.87
405.515	191.66
405.724	64.68
405.933	134.31
406.142	152.74
406.35	124.07
406.559	95.4
406.768	189.61
406.977	144.55
407.185	218.28
407.394	89.26
407.603	132.26
407.812	201.9
408.02	203.94
408.229	128.17
408.438	236.71
408.646	115.88
408.855	279.72
409.064	179.37
409.272	203.94
409.481	255.14
409.69	226.47
409.898	171.18
410.107	271.53
410.315	253.09
410.524	304.29
410.733	285.86
410.941	208.04
411.15	273.57
411.358	287.91
411.567	234.66
411.775	304.29
411.984	302.25
412.192	285.86
412.401	337.06
412.609	361.64
412.818	398.5
413.026	400.55
413.234	392.36
413.443	351.4
413.651	375.97
413.86	394.4
414.068	404.64
414.276	453.8
414.485	480.42
414.693	529.57
414.901	480.42
415.11	441.51
415.318	541.86
415.526	554.15
415.734	674.98
415.943	570.53
416.151	631.97
416.359	646.3
416.567	617.63
416.776	738.46
416.984	742.56
417.192	717.98
417.4	775.33
417.608	722.08
417.817	799.9
418.025	812.19
418.233	865.44
418.441	877.73
418.649	875.68
418.857	994.46
419.065	1029.27
419.273	1016.99
419.481	988.32
419.689	1078.43
419.897	1168.54
420.105	1152.15
420.313	1275.03
420.521	1217.69
420.729	1189.02
420.937	1246.36
421.145	1369.24
421.353	1348.76
421.561	1461.4
421.769	1500.31
421.977	1547.41
422.185	1528.98
422.393	1713.3
422.601	1799.31
422.809	1748.11
423.017	1629.33
423.224	1954.96
423.432	1852.56
423.64	1942.67
423.848	2116.75
424.056	2059.4
424.263	2198.67
424.471	2145.42
424.679	2155.66
424.887	2360.45
425.094	2321.54
425.302	2409.61
425.51	2489.48
425.718	2540.68
425.925	2585.73
426.133	2722.95
426.341	2823.3
426.548	2929.79
426.756	2983.04
426.964	3042.43
427.171	3325.05
427.379	3222.65
427.586	3359.86
427.794	3433.59
428.001	3425.4
428.209	3761.27
428.417	3523.7
428.624	3998.83
428.832	3873.9
429.039	4002.93
429.247	3845.23
429.454	4293.74
429.662	4691.04
429.869	4375.66
430.076	4617.32
430.284	4496.49
430.491	4703.33
430.699	4975.71
430.906	4879.46
431.114	4893.79
431.321	5225.56
431.528	5356.63
431.736	5516.37
431.943	5831.76
432.15	5760.08
432.358	5798.99
432.565	6014.03
432.772	6112.33
432.979	6231.12
433.187	6399.05
433.394	6421.58
433.601	6923.33
433.808	6970.43
434.016	6868.03
434.223	7234.62
434.43	7722.04
434.637	7562.3
434.844	7963.7
435.052	8047.66
435.259	8012.85
435.466	8152.11
435.673	8102.96
435.88	8590.38
436.087	9047.07
436.294	9102.37
436.501	8805.41
436.708	8725.54
436.915	9483.29
437.122	9669.66
437.329	9774.1
437.537	10009.62
437.743	10118.16
437.95	10044.43
438.157	10609.67
438.364	10857.48
438.571	10951.68
438.778	10986.5
438.985	12016.63
439.192	11531.26
439.399	11969.52
439.606	11621.37
439.813	12348.4
440.02	13007.84
440.227	12635.11
440.433	13034.47
440.64	13231.07
440.847	13171.68
441.054	13503.45
441.261	14326.74
441.467	14359.5
441.674	14216.15
441.881	14955.46
442.088	14787.53
442.294	14707.66
442.501	15250.37
442.708	15383.49
442.914	16079.8
443.121	16796.59
443.328	16139.19
443.534	17513.38
443.741	16716.72
443.948	16884.65
444.154	17912.73
444.361	17728.41
444.568	17943.45
444.774	17750.94
444.981	18131.86
445.187	18764.68
445.394	19383.17
445.6	19116.93
445.807	20976.49
446.013	19997.56
446.22	20403.06
446.426	21082.98
446.633	21508.96
446.839	22526.8
447.046	21037.93
447.252	22451.03
447.459	22621.01
447.665	22541.14
447.871	23522.12
448.078	24386.36
448.284	23200.58
448.491	23915.33
448.697	25295.66
448.903	25406.25
449.11	25420.58
449.316	24994.61
449.522	25193.26
449.728	26102.56
449.935	26276.63
450.141	26037.02
450.347	27038.48
450.553	25963.29
450.76	26440.47
450.966	26913.55
451.172	26682.13
451.378	27644.68
451.584	27263.75
451.791	27525.89
451.997	27675.4
452.203	28078.85
452.409	28023.55
452.615	27798.27
452.821	26913.55
453.027	26641.17
453.233	27960.06
453.44	27024.14
453.646	27423.5
453.852	27267.85
454.058	27771.65
454.264	26596.12
454.47	27335.43
454.676	26557.21
454.882	27486.98
455.088	25314.09
455.294	25496.36
455.5	26104.6
455.705	26321.69
455.911	24990.51
456.117	24654.64
456.323	24226.62
456.529	22795.09
456.735	23882.56
456.941	23399.24
457.147	23001.93
457.352	22467.41
457.558	22469.46
457.764	22319.96
457.97	21672.8
458.176	21410.66
458.381	21146.47
458.587	20331.38
458.793	20018.04
458.999	19344.26
459.204	20783.98
459.41	19983.23
459.616	18946.95
459.821	18490.26
460.027	18703.25
460.233	17994.65
460.438	17306.53
460.644	17712.03
460.85	16620.46
461.055	16485.3
461.261	16454.58
461.466	15322.05
461.672	14791.62
461.878	15784.89
462.083	14635.98
462.289	14556.11
462.494	14377.94
462.7	13865.94
462.905	13362.14
463.111	13886.42
463.316	13941.72
463.522	13552.6
463.727	13716.44
463.932	13642.71
464.138	13503.45
464.343	13495.26
464.549	13102.05
464.754	13511.64
464.959	13468.64
465.165	13251.55
465.37	12680.17
465.575	12706.79
465.781	13061.09
465.986	12833.77
466.191	12393.45
466.397	12344.3
466.602	11658.23
466.807	12284.91
467.012	12184.56
467.218	11981.81
467.423	11740.15
467.628	11918.32
467.833	12671.98
468.038	12012.53
468.244	11588.6
468.449	12188.66
468.654	11602.94
468.859	11592.7
