Data from USB4F104151__40__11-36-54-105.txt Node

Date: Fri Mar 14 11:36:54 EDT 2025
User: louis
Spectrometer: USB4F10415
Trigger mode: 4
Integration Time (sec): 2.000000E-2
Scans to average: 1
Electric dark correction enabled: true
Nonlinearity correction enabled: false
Boxcar width: 0
XAxis mode: Wavelengths
Number of Pixels in Spectrum: 3648
>>>>>Begin Spectral Data<<<<<
178.204	40.45
178.424	40.45
178.644	40.45
178.864	-61.95
179.084	-115.2
179.304	36.35
179.524	-31.23
179.744	-2.56
179.964	42.5
180.184	-29.18
180.404	17.92
180.624	-8.7
180.844	9.73
181.064	-57.86
181.283	9.73
181.503	-0.51
181.723	13.82
181.943	-72.19
182.163	9.73
182.383	-10.75
182.602	7.68
182.822	69.12
183.042	19.97
183.262	-29.18
183.482	67.07
183.701	-33.28
183.921	36.35
184.141	3.58
184.361	5.63
184.58	-31.23
184.8	22.02
185.02	26.11
185.239	22.02
185.459	19.97
185.679	67.07
185.898	-68.09
186.118	-33.28
186.338	1.54
186.557	15.87
186.777	-61.95
186.997	-0.51
187.216	17.92
187.436	42.5
187.655	46.59
187.875	24.06
188.095	-51.71
188.314	-4.61
188.534	36.35
188.753	-47.62
188.973	-10.75
189.192	3.58
189.412	-0.51
189.631	-29.18
189.851	-64
190.07	71.17
190.29	60.93
190.509	46.59
190.729	-78.33
190.948	-6.66
191.168	54.78
191.387	-2.56
191.607	-25.09
191.826	26.11
192.045	-23.04
192.265	48.64
192.484	-14.85
192.704	81.41
192.923	-35.33
193.142	34.3
193.362	-49.66
193.581	71.17
193.8	26.11
194.02	69.12
194.239	-18.94
194.458	22.02
194.678	32.26
194.897	5.63
195.116	22.02
195.335	65.02
195.555	24.06
195.774	-23.04
195.993	-23.04
196.212	-6.66
196.432	-31.23
196.651	54.78
196.87	-20.99
197.089	116.22
197.308	9.73
197.528	-12.8
197.747	40.45
197.966	38.4
198.185	54.78
198.404	-33.28
198.623	-55.81
198.842	13.82
199.062	-2.56
199.281	91.65
199.5	24.06
199.719	44.54
199.938	52.74
200.157	34.3
200.376	28.16
200.595	-10.75
200.814	-51.71
201.033	-12.8
201.252	40.45
201.471	30.21
201.69	19.97
201.909	67.07
202.128	-0.51
202.347	9.73
202.566	30.21
202.785	-29.18
203.004	17.92
203.223	91.65
203.442	34.3
203.661	34.3
203.879	-41.47
204.098	3.58
204.317	-66.05
204.536	34.3
204.755	26.11
204.974	26.11
205.193	1.54
205.411	34.3
205.63	-43.52
205.849	81.41
206.068	30.21
206.287	13.82
206.505	36.35
206.724	36.35
206.943	13.82
207.162	-4.61
207.381	3.58
207.599	38.4
207.818	38.4
208.037	3.58
208.255	1.54
208.474	1.54
208.693	-55.81
208.911	9.73
209.13	26.11
209.349	-80.38
209.567	28.16
209.786	83.45
210.005	-55.81
210.223	54.78
210.442	-27.14
210.661	48.64
210.879	34.3
211.098	32.26
211.316	15.87
211.535	87.55
211.753	9.73
211.972	17.92
212.191	1.54
212.409	-10.75
212.628	-45.57
212.846	105.98
213.065	30.21
213.283	48.64
213.502	-18.94
213.72	11.78
213.938	17.92
214.157	-2.56
214.375	-10.75
214.594	-61.95
214.812	58.88
215.031	22.02
215.249	48.64
215.467	46.59
215.686	-10.75
215.904	56.83
216.122	62.98
216.341	110.08
216.559	24.06
216.778	32.26
216.996	26.11
217.214	-20.99
217.432	1.54
217.651	-6.66
217.869	85.5
218.087	-16.9
218.306	22.02
218.524	-6.66
218.742	-16.9
218.96	-2.56
219.179	42.5
219.397	-0.51
219.615	17.92
219.833	7.68
220.051	-0.51
220.27	71.17
220.488	26.11
220.706	73.21
220.924	42.5
221.142	-18.94
221.36	112.13
221.578	46.59
221.796	-45.57
222.015	17.92
222.233	52.74
222.451	99.84
222.669	32.26
222.887	5.63
223.105	42.5
223.323	-53.76
223.541	-27.14
223.759	99.84
223.977	34.3
224.195	40.45
224.413	40.45
224.631	58.88
224.849	5.63
225.067	52.74
225.285	1.54
225.503	38.4
225.721	-27.14
225.939	54.78
226.157	-4.61
226.375	108.03
226.592	26.11
226.81	-27.14
227.028	38.4
227.246	-14.85
227.464	32.26
227.682	48.64
227.9	-61.95
228.117	62.98
228.335	-66.05
228.553	42.5
228.771	108.03
228.989	50.69
229.206	62.98
229.424	13.82
229.642	-10.75
229.86	65.02
230.077	-8.7
230.295	38.4
230.513	-14.85
230.731	5.63
230.948	89.6
231.166	46.59
231.384	19.97
231.601	13.82
231.819	97.79
232.037	-64
232.254	-14.85
232.472	56.83
232.689	38.4
232.907	81.41
233.125	26.11
233.342	-25.09
233.56	22.02
233.777	9.73
233.995	-27.14
234.213	58.88
234.43	-29.18
234.648	77.31
234.865	26.11
235.083	3.58
235.3	-2.56
235.518	40.45
235.735	118.27
235.953	30.21
236.17	-6.66
236.388	30.21
236.605	34.3
236.822	-23.04
237.04	48.64
237.257	-10.75
237.475	13.82
237.692	50.69
237.909	-6.66
238.127	1.54
238.344	-31.23
238.562	56.83
238.779	-41.47
238.996	50.69
239.214	62.98
239.431	75.26
239.648	-8.7
239.865	-43.52
240.083	9.73
240.3	15.87
240.517	85.5
240.735	-35.33
240.952	97.79
241.169	85.5
241.386	-4.61
241.603	83.45
241.821	73.21
242.038	-29.18
242.255	62.98
242.472	93.69
242.689	34.3
242.907	103.93
243.124	1.54
243.341	48.64
243.558	46.59
243.775	46.59
243.992	-18.94
244.209	26.11
244.426	99.84
244.643	15.87
244.86	-6.66
245.078	26.11
245.295	81.41
245.512	-2.56
245.729	67.07
245.946	13.82
246.163	1.54
246.38	56.83
246.597	34.3
246.814	50.69
247.031	-2.56
247.248	-41.47
247.464	46.59
247.681	75.26
247.898	-57.86
248.115	-6.66
248.332	-23.04
248.549	24.06
248.766	93.69
248.983	-12.8
249.2	-14.85
249.417	22.02
249.633	60.93
249.85	71.17
250.067	103.93
250.284	-6.66
250.501	34.3
250.717	17.92
250.934	26.11
251.151	-37.38
251.368	48.64
251.585	58.88
251.801	9.73
252.018	30.21
252.235	-8.7
252.451	1.54
252.668	30.21
252.885	11.78
253.102	-16.9
253.318	42.5
253.535	-6.66
253.752	26.11
253.968	-12.8
254.185	30.21
254.401	58.88
254.618	15.87
254.835	40.45
255.051	42.5
255.268	48.64
255.484	7.68
255.701	15.87
255.917	52.74
256.134	34.3
256.351	-2.56
256.567	9.73
256.784	-6.66
257	15.87
257.217	67.07
257.433	40.45
257.65	-25.09
257.866	38.4
258.082	97.79
258.299	5.63
258.515	89.6
258.732	-16.9
258.948	17.92
259.165	46.59
259.381	30.21
259.597	-14.85
259.814	30.21
260.03	-10.75
260.246	40.45
260.463	1.54
260.679	-18.94
260.895	32.26
261.112	54.78
261.328	-39.42
261.544	36.35
261.761	48.64
261.977	89.6
262.193	54.78
262.409	28.16
262.626	93.69
262.842	-2.56
263.058	9.73
263.274	62.98
263.49	-55.81
263.707	32.26
263.923	34.3
264.139	-39.42
264.355	-4.61
264.571	-64
264.787	-25.09
265.004	48.64
265.22	17.92
265.436	17.92
265.652	38.4
265.868	60.93
266.084	-27.14
266.3	36.35
266.516	-18.94
266.732	60.93
266.948	-8.7
267.164	46.59
267.38	-8.7
267.596	42.5
267.812	56.83
268.028	36.35
268.244	-18.94
268.46	7.68
268.676	32.26
268.892	5.63
269.108	44.54
269.324	87.55
269.54	26.11
269.756	17.92
269.972	7.68
270.188	-31.23
270.403	-53.76
270.619	99.84
270.835	-14.85
271.051	103.93
271.267	22.02
271.483	5.63
271.698	52.74
271.914	-8.7
272.13	17.92
272.346	65.02
272.562	62.98
272.777	79.36
272.993	79.36
273.209	19.97
273.425	-2.56
273.64	7.68
273.856	15.87
274.072	5.63
274.287	-23.04
274.503	62.98
274.719	13.82
274.934	17.92
275.15	-14.85
275.366	22.02
275.581	-12.8
275.797	-20.99
276.012	38.4
276.228	-12.8
276.444	7.68
276.659	34.3
276.875	-35.33
277.09	-23.04
277.306	26.11
277.521	28.16
277.737	-47.62
277.952	11.78
278.168	40.45
278.383	44.54
278.599	26.11
278.814	-27.14
279.03	1.54
279.245	71.17
279.461	-39.42
279.676	73.21
279.892	3.58
280.107	-2.56
280.322	-47.62
280.538	77.31
280.753	9.73
280.969	-14.85
281.184	79.36
281.399	79.36
281.615	-0.51
281.83	67.07
282.045	-49.66
282.26	46.59
282.476	62.98
282.691	40.45
282.906	17.92
283.122	38.4
283.337	54.78
283.552	26.11
283.767	19.97
283.983	56.83
284.198	-33.28
284.413	32.26
284.628	-31.23
284.843	22.02
285.058	91.65
285.274	32.26
285.489	9.73
285.704	-14.85
285.919	40.45
286.134	19.97
286.349	-27.14
286.564	-6.66
286.779	13.82
286.995	54.78
287.21	19.97
287.425	5.63
287.64	-31.23
287.855	38.4
288.07	-14.85
288.285	24.06
288.5	-23.04
288.715	40.45
288.93	40.45
289.145	54.78
289.36	58.88
289.575	24.06
289.79	50.69
290.004	38.4
290.219	40.45
290.434	17.92
290.649	26.11
290.864	34.3
291.079	-35.33
291.294	-4.61
291.509	28.16
291.724	50.69
291.938	38.4
292.153	-6.66
292.368	-8.7
292.583	-20.99
292.798	17.92
293.012	-20.99
293.227	-29.18
293.442	77.31
293.657	-12.8
293.871	15.87
294.086	-10.75
294.301	54.78
294.516	79.36
294.73	-6.66
294.945	40.45
295.16	73.21
295.374	50.69
295.589	62.98
295.804	11.78
296.018	54.78
296.233	56.83
296.447	56.83
296.662	30.21
296.877	71.17
297.091	-35.33
297.306	24.06
297.52	-8.7
297.735	42.5
297.949	38.4
298.164	28.16
298.378	38.4
298.593	60.93
298.807	71.17
299.022	101.89
299.236	91.65
299.451	36.35
299.665	-31.23
299.88	30.21
300.094	62.98
300.309	5.63
300.523	-25.09
300.737	87.55
300.952	-10.75
301.166	-66.05
301.381	-37.38
301.595	48.64
301.809	-14.85
302.024	34.3
302.238	22.02
302.452	32.26
302.667	-8.7
302.881	9.73
303.095	73.21
303.309	42.5
303.524	71.17
303.738	81.41
303.952	32.26
304.166	34.3
304.381	-43.52
304.595	3.58
304.809	50.69
305.023	97.79
305.237	58.88
305.452	-76.29
305.666	1.54
305.88	22.02
306.094	17.92
306.308	44.54
306.522	105.98
306.736	-14.85
306.95	-0.51
307.164	48.64
307.379	60.93
307.593	65.02
307.807	42.5
308.021	62.98
308.235	60.93
308.449	-4.61
308.663	50.69
308.877	13.82
309.091	34.3
309.305	-14.85
309.519	73.21
309.733	-31.23
309.947	-55.81
310.161	58.88
310.374	124.41
310.588	99.84
310.802	42.5
311.016	67.07
311.23	30.21
311.444	-23.04
311.658	60.93
311.872	91.65
312.085	-18.94
312.299	50.69
312.513	-70.14
312.727	71.17
312.941	-43.52
313.154	17.92
313.368	73.21
313.582	77.31
313.796	-14.85
314.009	5.63
314.223	42.5
314.437	15.87
314.651	34.3
314.864	3.58
315.078	34.3
315.292	95.74
315.505	-2.56
315.719	65.02
315.933	-2.56
316.146	-41.47
316.36	-27.14
316.573	9.73
316.787	87.55
317.001	26.11
317.214	48.64
317.428	32.26
317.641	58.88
317.855	67.07
318.068	34.3
318.282	38.4
318.495	30.21
318.709	58.88
318.922	1.54
319.136	58.88
319.349	44.54
319.563	22.02
319.776	91.65
319.99	71.17
320.203	30.21
320.417	38.4
320.63	58.88
320.843	-2.56
321.057	58.88
321.27	-2.56
321.483	44.54
321.697	38.4
321.91	-14.85
322.124	-41.47
322.337	-10.75
322.55	65.02
322.763	15.87
322.977	38.4
323.19	7.68
323.403	22.02
323.617	-49.66
323.83	50.69
324.043	-27.14
324.256	58.88
324.469	71.17
324.683	-4.61
324.896	13.82
325.109	13.82
325.322	17.92
325.535	32.26
325.748	30.21
325.962	17.92
326.175	-0.51
326.388	-4.61
326.601	5.63
326.814	36.35
327.027	91.65
327.24	89.6
327.453	91.65
327.666	17.92
327.879	34.3
328.092	71.17
328.305	17.92
328.518	28.16
328.731	58.88
328.944	15.87
329.157	-57.86
329.37	22.02
329.583	26.11
329.796	79.36
330.009	-29.18
330.222	34.3
330.435	26.11
330.648	24.06
330.861	22.02
331.073	17.92
331.286	-20.99
331.499	42.5
331.712	17.92
331.925	75.26
332.138	-41.47
332.35	7.68
332.563	1.54
332.776	-23.04
332.989	22.02
333.202	-0.51
333.414	81.41
333.627	50.69
333.84	50.69
334.053	73.21
334.265	48.64
334.478	-18.94
334.691	26.11
334.903	15.87
335.116	13.82
335.329	75.26
335.541	-76.29
335.754	-0.51
335.966	30.21
336.179	1.54
336.392	48.64
336.604	71.17
336.817	50.69
337.029	-4.61
337.242	42.5
337.454	105.98
337.667	-39.42
337.88	44.54
338.092	81.41
338.305	79.36
338.517	26.11
338.729	56.83
338.942	62.98
339.154	5.63
339.367	38.4
339.579	38.4
339.792	9.73
340.004	91.65
340.217	24.06
340.429	17.92
340.641	99.84
340.854	19.97
341.066	-37.38
341.278	62.98
341.491	62.98
341.703	50.69
341.915	34.3
342.128	93.69
342.34	67.07
342.552	60.93
342.764	9.73
342.977	30.21
343.189	101.89
343.401	-14.85
343.613	3.58
343.826	34.3
344.038	-16.9
344.25	-2.56
344.462	-23.04
344.674	44.54
344.886	114.17
345.099	34.3
345.311	62.98
345.523	81.41
345.735	24.06
345.947	-6.66
346.159	-16.9
346.371	15.87
346.583	42.5
346.795	34.3
347.007	5.63
347.219	26.11
347.431	-2.56
347.643	5.63
347.855	58.88
348.067	50.69
348.279	13.82
348.491	65.02
348.703	140.8
348.915	67.07
349.127	34.3
349.339	48.64
349.551	58.88
349.763	71.17
349.975	-23.04
350.187	60.93
350.399	54.78
350.61	56.83
350.822	75.26
351.034	13.82
351.246	3.58
351.458	75.26
351.669	9.73
351.881	32.26
352.093	140.8
352.305	34.3
352.517	1.54
352.728	87.55
352.94	15.87
353.152	75.26
353.363	30.21
353.575	9.73
353.787	79.36
353.999	42.5
354.21	81.41
354.422	77.31
354.633	40.45
354.845	44.54
355.057	7.68
355.268	19.97
355.48	42.5
355.692	32.26
355.903	38.4
356.115	24.06
356.326	5.63
356.538	116.22
356.749	110.08
356.961	19.97
357.172	-20.99
357.384	48.64
357.595	75.26
357.807	50.69
358.018	-23.04
358.23	34.3
358.441	56.83
358.653	54.78
358.864	5.63
359.075	75.26
359.287	-6.66
359.498	99.84
359.709	26.11
359.921	9.73
360.132	15.87
360.344	60.93
360.555	40.45
360.766	40.45
360.977	60.93
361.189	73.21
361.4	3.58
361.611	114.17
361.823	67.07
362.034	58.88
362.245	-35.33
362.456	-4.61
362.667	81.41
362.879	54.78
363.09	110.08
363.301	48.64
363.512	26.11
363.723	1.54
363.935	60.93
364.146	56.83
364.357	54.78
364.568	85.5
364.779	9.73
364.99	40.45
365.201	-18.94
365.412	56.83
365.623	48.64
365.834	30.21
366.045	91.65
366.256	46.59
366.467	30.21
366.678	-2.56
366.889	24.06
367.1	30.21
367.311	40.45
367.522	56.83
367.733	65.02
367.944	7.68
368.155	26.11
368.366	1.54
368.577	50.69
368.788	79.36
368.999	-10.75
369.209	65.02
369.42	56.83
369.631	15.87
369.842	65.02
370.053	93.69
370.264	87.55
370.474	140.8
370.685	93.69
370.896	24.06
371.107	26.11
371.317	-23.04
371.528	81.41
371.739	50.69
371.95	-12.8
372.16	95.74
372.371	-23.04
372.582	-2.56
372.792	52.74
373.003	67.07
373.214	-14.85
373.424	22.02
373.635	1.54
373.846	38.4
374.056	-8.7
374.267	30.21
374.477	15.87
374.688	5.63
374.898	13.82
375.109	69.12
375.319	22.02
375.53	89.6
375.74	40.45
375.951	7.68
376.161	56.83
376.372	-0.51
376.582	13.82
376.793	50.69
377.003	54.78
377.214	54.78
377.424	-4.61
377.635	132.61
377.845	48.64
378.055	71.17
378.266	52.74
378.476	75.26
378.686	42.5
378.897	79.36
379.107	26.11
379.317	44.54
379.528	58.88
379.738	124.41
379.948	3.58
380.158	34.3
380.369	62.98
380.579	46.59
380.789	71.17
380.999	9.73
381.21	56.83
381.42	65.02
381.63	-2.56
381.84	77.31
382.05	46.59
382.261	79.36
382.471	50.69
382.681	75.26
382.891	93.69
383.101	62.98
383.311	-2.56
383.521	56.83
383.731	48.64
383.941	60.93
384.151	177.66
384.361	83.45
384.571	71.17
384.781	40.45
384.991	1.54
385.201	42.5
385.411	50.69
385.621	114.17
385.831	7.68
386.041	42.5
386.251	52.74
386.461	50.69
386.671	56.83
386.881	87.55
387.091	1.54
387.301	48.64
387.511	46.59
387.72	44.54
387.93	60.93
388.14	87.55
388.35	79.36
388.56	50.69
388.769	95.74
388.979	67.07
389.189	83.45
389.399	11.78
389.609	48.64
389.818	112.13
390.028	-18.94
390.238	99.84
390.447	93.69
390.657	89.6
390.867	81.41
391.076	116.22
391.286	67.07
391.496	122.37
391.705	85.5
391.915	58.88
392.125	79.36
392.334	7.68
392.544	-25.09
392.753	67.07
392.963	19.97
393.172	79.36
393.382	58.88
393.591	22.02
393.801	71.17
394.01	101.89
394.22	58.88
394.429	134.65
394.639	81.41
394.848	17.92
395.058	108.03
395.267	95.74
395.477	24.06
395.686	103.93
395.895	77.31
396.105	67.07
396.314	44.54
396.524	65.02
396.733	122.37
396.942	116.22
397.152	46.59
397.361	128.51
397.57	75.26
397.78	93.69
397.989	116.22
398.198	134.65
398.407	128.51
398.617	99.84
398.826	114.17
399.035	161.28
399.244	136.7
399.453	108.03
399.663	75.26
399.872	122.37
400.081	95.74
400.29	101.89
400.499	40.45
400.708	163.33
400.917	85.5
401.127	91.65
401.336	146.94
401.545	181.76
401.754	187.9
401.963	124.41
402.172	122.37
402.381	87.55
402.59	169.47
402.799	167.42
403.008	222.72
403.217	181.76
403.426	165.37
403.635	146.94
403.844	126.46
404.053	148.99
404.262	151.04
404.471	144.89
404.68	126.46
404.888	157.18
405.097	181.76
405.306	148.99
405.515	126.46
405.724	181.76
405.933	189.95
406.142	134.65
406.35	189.95
406.559	108.03
406.768	187.9
406.977	228.86
407.185	192
407.394	177.66
407.603	165.37
407.812	189.95
408.02	263.68
408.229	249.34
408.438	321.02
408.646	265.72
408.855	247.29
409.064	265.72
409.272	257.53
409.481	275.96
409.69	284.16
409.898	386.55
410.107	337.4
410.315	302.59
410.524	284.16
410.733	335.35
410.941	312.83
411.15	409.08
411.358	390.65
411.567	380.41
411.775	417.27
411.984	517.62
412.192	427.51
412.401	476.66
412.609	640.5
412.818	497.14
413.026	544.25
413.234	562.68
413.443	570.87
413.651	642.55
413.86	591.35
414.068	720.37
414.276	714.23
414.485	777.72
414.693	736.76
414.901	808.44
415.11	736.76
415.318	769.52
415.526	855.54
415.734	847.35
415.943	894.45
416.151	857.59
416.359	859.63
416.567	1000.94
416.776	1025.52
416.984	1127.92
417.192	1035.76
417.4	1125.87
417.608	1066.48
417.817	1152.49
418.025	1154.54
418.233	1191.41
418.441	1328.62
418.649	1396.2
418.857	1469.93
419.065	1424.87
419.273	1424.87
419.481	1533.42
419.689	1590.76
419.897	1748.45
420.105	1695.21
420.313	1703.4
420.521	1871.33
420.729	1748.45
420.937	1902.05
421.145	1983.97
421.353	1971.68
421.561	2250.21
421.769	2160.1
421.977	2350.56
422.185	2340.32
422.393	2469.34
422.601	2543.07
422.809	2620.89
423.017	2590.17
423.224	2770.39
423.432	2852.31
423.64	2776.53
423.848	2921.94
424.056	2975.19
424.263	3235.28
424.471	3192.27
424.679	3214.8
424.887	3419.6
425.094	3507.66
425.302	3669.45
425.51	3810.76
425.718	3921.35
425.925	3964.36
426.133	4029.89
426.341	4195.78
426.548	4449.72
426.756	4431.29
426.964	4486.59
427.171	4644.28
427.379	4834.74
427.586	4797.88
427.794	5012.92
428.001	5324.21
428.209	5533.1
428.417	5471.66
428.624	5852.58
428.832	5811.62
429.039	5741.99
429.247	5842.34
429.454	6567.32
429.662	6819.22
429.869	6260.13
430.076	6825.37
430.284	6641.05
430.491	6897.05
430.699	7372.18
430.906	7275.92
431.114	7359.89
431.321	7669.13
431.528	8011.14
431.736	8170.88
431.943	8797.56
432.15	8355.2
432.358	8396.16
432.565	9223.54
432.772	8957.3
432.979	9500.02
433.187	9727.34
433.394	9592.17
433.601	10325.35
433.808	10202.47
434.016	10241.38
434.223	10743.13
434.43	11347.28
434.637	11130.2
434.844	11646.29
435.052	11785.55
435.259	11887.95
435.466	12129.61
435.673	11955.53
435.88	12741.95
436.087	13423.92
436.294	13477.17
436.501	12975.42
436.708	13520.18
436.915	13686.06
437.122	14320.93
437.329	14298.41
437.537	14662.94
437.743	15287.57
437.95	15090.97
438.157	15648.02
438.364	16260.36
438.571	16286.98
438.778	16422.15
438.985	17968.37
439.192	17229.05
439.399	17820.91
439.606	17483
439.813	18533.61
440.02	19422.42
440.227	19041.5
440.433	18887.9
440.64	19606.74
440.847	19563.73
441.054	19965.14
441.261	21372.09
441.467	21083.33
441.674	21503.16
441.881	22142.13
442.088	22068.4
442.294	22117.55
442.501	22473.9
442.708	23073.95
442.914	24022.16
443.121	24945.8
443.328	24056.98
443.534	25836.66
443.741	25388.16
443.948	25115.78
444.154	26664.04
444.361	26438.76
444.568	26694.76
444.774	26668.14
444.981	26879.08
445.187	27896.92
445.394	28927.05
445.6	28617.8
445.807	31714.33
446.013	29977.65
446.22	30663.72
446.426	31476.77
446.633	31888.41
446.839	33141.77
447.046	31929.37
447.252	33651.71
447.459	33850.36
447.665	33512.45
447.871	34997.23
448.078	36645.84
448.284	34796.53
448.491	35415.01
448.697	37311.43
448.903	37876.67
449.11	38187.96
449.316	37288.9
449.522	37563.33
449.728	38890.41
449.935	39185.32
450.141	39183.27
450.347	40012.7
450.553	38947.76
450.76	39332.78
450.966	40823.7
451.172	40049.56
451.378	40987.53
451.584	40240.03
451.791	41337.74
451.997	41315.21
452.203	42265.47
452.409	41745.28
452.615	41741.19
452.821	40485.78
453.027	39478.18
453.233	41921.41
453.44	40371.1
453.646	40889.23
453.852	40944.53
454.058	41540.49
454.264	40160.16
454.47	41200.52
454.676	40223.64
454.882	41581.45
455.088	38050.75
455.294	38364.09
455.5	38804.4
455.705	39537.57
455.911	37942.21
456.117	37301.19
456.323	36658.13
456.529	34673.65
456.735	36326.36
456.941	35527.65
457.147	34728.94
457.352	34006.01
457.558	33410.05
457.764	33627.13
457.97	32705.55
458.176	32093.21
458.381	32105.49
458.587	30839.85
458.793	30723.12
458.999	29109.32
459.204	31634.46
459.41	30245.94
459.616	28431.44
459.821	28517.45
460.027	28171.35
460.233	27225.18
460.438	26500.2
460.644	27128.93
460.85	25263.23
461.055	24859.78
461.261	24777.86
461.466	22887.59
461.672	22373.55
461.878	24181.9
462.083	22545.58
462.289	22174.89
462.494	21699.76
462.7	20757.7
462.905	20081.87
463.111	20839.62
463.316	21208.25
463.522	20217.04
463.727	20667.59
463.932	20548.81
464.138	20176.08
464.343	20243.66
464.549	19573.97
464.754	20430.02
464.959	20268.23
465.165	20325.58
465.37	19358.94
465.575	18533.61
465.781	19571.93
465.986	19623.12
466.191	19324.12
466.397	18705.63
466.602	17724.66
466.807	18566.37
467.012	18126.06
467.218	18072.81
467.423	17954.03
467.628	17970.41
467.833	18773.22
