Data from USB4F104151__27__11-36-42-925.txt Node

Date: Fri Mar 14 11:36:42 EDT 2025
User: louis
Spectrometer: USB4F10415
Trigger mode: 4
Integration Time (sec): 2.000000E-2
Scans to average: 1
Electric dark correction enabled: true
Nonlinearity correction enabled: false
Boxcar width: 0
XAxis mode: Wavelengths
Number of Pixels in Spectrum: 3648
>>>>>Begin Spectral Data<<<<<
178.204	-143.19
178.424	-143.19
178.644	-143.19
178.864	-87.89
179.084	39.08
179.304	-20.31
179.524	2.22
179.744	-8.02
179.964	45.23
180.184	67.75
180.404	4.27
180.624	-34.64
180.844	-22.36
181.064	-63.32
181.283	34.99
181.503	6.31
181.723	-12.12
181.943	-87.89
182.163	-24.4
182.383	10.41
182.602	-30.55
182.822	75.95
183.042	18.6
183.262	131.24
183.482	55.47
183.701	-18.26
183.921	-8.02
184.141	-18.26
184.361	90.28
184.58	10.41
184.8	82.09
185.02	-59.22
185.239	-10.07
185.459	30.89
185.679	14.51
185.898	49.32
186.118	55.47
186.338	-8.02
186.557	20.65
186.777	16.55
186.997	34.99
187.216	53.42
187.436	22.7
187.655	-5.97
187.875	104.62
188.095	41.13
188.314	16.55
188.534	84.14
188.753	18.6
188.973	-8.02
189.192	37.03
189.412	39.08
189.631	47.27
189.851	-18.26
190.07	-36.69
190.29	106.67
190.509	71.85
190.729	-36.69
190.948	82.09
191.168	118.95
191.387	80.04
191.607	32.94
191.826	24.75
192.045	20.65
192.265	69.8
192.484	41.13
192.704	39.08
192.923	-100.18
193.142	41.13
193.362	57.51
193.581	125.1
193.8	51.37
194.02	0.17
194.239	67.75
194.458	51.37
194.678	4.27
194.897	90.28
195.116	39.08
195.335	55.47
195.555	-5.97
195.774	26.79
195.993	-10.07
196.212	86.19
196.432	37.03
196.651	22.7
196.87	20.65
197.089	57.51
197.308	59.56
197.528	67.75
197.747	12.46
197.966	51.37
198.185	-14.17
198.404	-3.93
198.623	47.27
198.842	14.51
199.062	69.8
199.281	65.71
199.5	69.8
199.719	12.46
199.938	39.08
200.157	75.95
200.376	24.75
200.595	57.51
200.814	30.89
201.033	-8.02
201.252	45.23
201.471	20.65
201.69	-18.26
201.909	6.31
202.128	49.32
202.347	34.99
202.566	65.71
202.785	67.75
203.004	-32.6
203.223	45.23
203.442	2.22
203.661	-34.64
203.879	14.51
204.098	71.85
204.317	41.13
204.536	39.08
204.755	10.41
204.974	-28.5
205.193	139.43
205.411	43.18
205.63	-10.07
205.849	43.18
206.068	-10.07
206.287	82.09
206.505	77.99
206.724	51.37
206.943	34.99
207.162	51.37
207.381	26.79
207.599	-32.6
207.818	69.8
208.037	96.43
208.255	-46.93
208.474	26.79
208.693	8.36
208.911	28.84
209.13	2.22
209.349	0.17
209.567	-18.26
209.786	-10.07
210.005	37.03
210.223	84.14
210.442	6.31
210.661	45.23
210.879	63.66
211.098	61.61
211.316	-3.93
211.535	59.56
211.753	37.03
211.972	-87.89
212.191	34.99
212.409	34.99
212.628	69.8
212.846	22.7
213.065	63.66
213.283	53.42
213.502	10.41
213.72	-12.12
213.938	-38.74
214.157	6.31
214.375	55.47
214.594	8.36
214.812	65.71
215.031	12.46
215.249	16.55
215.467	69.8
215.686	14.51
215.904	75.95
216.122	10.41
216.341	67.75
216.559	-5.97
216.778	0.17
216.996	63.66
217.214	63.66
217.432	12.46
217.651	-30.55
217.869	30.89
218.087	14.51
218.306	92.33
218.524	20.65
218.742	43.18
218.96	63.66
219.179	16.55
219.397	30.89
219.615	106.67
219.833	22.7
220.051	10.41
220.27	75.95
220.488	4.27
220.706	8.36
220.924	-32.6
221.142	86.19
221.36	32.94
221.578	-8.02
221.796	2.22
222.015	-46.93
222.233	39.08
222.451	63.66
222.669	92.33
222.887	26.79
223.105	41.13
223.323	51.37
223.541	39.08
223.759	-14.17
223.977	-53.08
224.195	84.14
224.413	55.47
224.631	71.85
224.849	37.03
225.067	61.61
225.285	-1.88
225.503	2.22
225.721	30.89
225.939	84.14
226.157	59.56
226.375	63.66
226.592	-5.97
226.81	30.89
227.028	18.6
227.246	59.56
227.464	6.31
227.682	55.47
227.9	-12.12
228.117	0.17
228.335	39.08
228.553	14.51
228.771	53.42
228.989	-18.26
229.206	80.04
229.424	77.99
229.642	-34.64
229.86	16.55
230.077	59.56
230.295	47.27
230.513	26.79
230.731	-38.74
230.948	80.04
231.166	28.84
231.384	82.09
231.601	53.42
231.819	90.28
232.037	18.6
232.254	-30.55
232.472	14.51
232.689	-26.45
232.907	37.03
233.125	47.27
233.342	0.17
233.56	80.04
233.777	2.22
233.995	2.22
234.213	24.75
234.43	-28.5
234.648	12.46
234.865	-32.6
235.083	125.1
235.3	84.14
235.518	43.18
235.735	51.37
235.953	73.9
236.17	-14.17
236.388	49.32
236.605	-38.74
236.822	26.79
237.04	51.37
237.257	69.8
237.475	20.65
237.692	43.18
237.909	82.09
238.127	20.65
238.344	88.23
238.562	-1.88
238.779	-34.64
238.996	39.08
239.214	0.17
239.431	67.75
239.648	-5.97
239.865	71.85
240.083	61.61
240.3	77.99
240.517	59.56
240.735	-14.17
240.952	24.75
241.169	28.84
241.386	16.55
241.603	10.41
241.821	0.17
242.038	-8.02
242.255	34.99
242.472	34.99
242.689	39.08
242.907	-38.74
243.124	94.38
243.341	75.95
243.558	41.13
243.775	41.13
243.992	14.51
244.209	43.18
244.426	51.37
244.643	-16.21
244.86	-14.17
245.078	96.43
245.295	6.31
245.512	26.79
245.729	-14.17
245.946	-46.93
246.163	8.36
246.38	-12.12
246.597	61.61
246.814	92.33
247.031	-55.12
247.248	2.22
247.464	112.81
247.681	30.89
247.898	88.23
248.115	67.75
248.332	-1.88
248.549	88.23
248.766	80.04
248.983	12.46
249.2	80.04
249.417	71.85
249.633	30.89
249.85	61.61
250.067	-5.97
250.284	82.09
250.501	4.27
250.717	-59.22
250.934	80.04
251.151	30.89
251.368	43.18
251.585	43.18
251.801	18.6
252.018	-10.07
252.235	67.75
252.451	45.23
252.668	10.41
252.885	41.13
253.102	-5.97
253.318	-5.97
253.535	41.13
253.752	30.89
253.968	24.75
254.185	28.84
254.401	114.86
254.618	24.75
254.835	22.7
255.051	69.8
255.268	22.7
255.484	2.22
255.701	51.37
255.917	47.27
256.134	10.41
256.351	34.99
256.567	-28.5
256.784	41.13
257	10.41
257.217	4.27
257.433	37.03
257.65	0.17
257.866	20.65
258.082	55.47
258.299	-14.17
258.515	18.6
258.732	-8.02
258.948	75.95
259.165	121
259.381	49.32
259.597	69.8
259.814	-16.21
260.03	18.6
260.246	-55.12
260.463	-1.88
260.679	90.28
260.895	71.85
261.112	98.47
261.328	34.99
261.544	2.22
261.761	20.65
261.977	-32.6
262.193	-28.5
262.409	28.84
262.626	55.47
262.842	22.7
263.058	73.9
263.274	16.55
263.49	24.75
263.707	20.65
263.923	18.6
264.139	-30.55
264.355	32.94
264.571	16.55
264.787	-12.12
265.004	67.75
265.22	-28.5
265.436	26.79
265.652	-10.07
265.868	12.46
266.084	-14.17
266.3	18.6
266.516	71.85
266.732	90.28
266.948	73.9
267.164	41.13
267.38	133.29
267.596	22.7
267.812	53.42
268.028	-36.69
268.244	55.47
268.46	53.42
268.676	-48.98
268.892	8.36
269.108	-26.45
269.324	-51.03
269.54	30.89
269.756	75.95
269.972	4.27
270.188	39.08
270.403	67.75
270.619	10.41
270.835	49.32
271.051	84.14
271.267	14.51
271.483	-26.45
271.698	43.18
271.914	-3.93
272.13	-3.93
272.346	47.27
272.562	-18.26
272.777	34.99
272.993	22.7
273.209	-46.93
273.425	43.18
273.64	34.99
273.856	-3.93
274.072	41.13
274.287	-28.5
274.503	32.94
274.719	-12.12
274.934	30.89
275.15	-38.74
275.366	-22.36
275.581	-38.74
275.797	24.75
276.012	55.47
276.228	-12.12
276.444	18.6
276.659	47.27
276.875	-36.69
277.09	-10.07
277.306	106.67
277.521	30.89
277.737	10.41
277.952	18.6
278.168	14.51
278.383	67.75
278.599	84.14
278.814	22.7
279.03	-24.4
279.245	49.32
279.461	63.66
279.676	43.18
279.892	28.84
280.107	57.51
280.322	20.65
280.538	26.79
280.753	28.84
280.969	143.53
281.184	2.22
281.399	-10.07
281.615	-1.88
281.83	61.61
282.045	-16.21
282.26	-22.36
282.476	2.22
282.691	14.51
282.906	75.95
283.122	18.6
283.337	34.99
283.552	59.56
283.767	-28.5
283.983	49.32
284.198	18.6
284.413	24.75
284.628	-36.69
284.843	75.95
285.058	59.56
285.274	16.55
285.489	30.89
285.704	75.95
285.919	-69.46
286.134	-69.46
286.349	110.76
286.564	22.7
286.779	30.89
286.995	-10.07
287.21	20.65
287.425	26.79
287.64	10.41
287.855	75.95
288.07	-1.88
288.285	67.75
288.5	90.28
288.715	-5.97
288.93	18.6
289.145	37.03
289.36	108.71
289.575	-16.21
289.79	39.08
290.004	61.61
290.219	61.61
290.434	59.56
290.649	12.46
290.864	2.22
291.079	22.7
291.294	96.43
291.509	-5.97
291.724	-26.45
291.938	8.36
292.153	14.51
292.368	59.56
292.583	82.09
292.798	18.6
293.012	-14.17
293.227	143.53
293.442	55.47
293.657	32.94
293.871	86.19
294.086	26.79
294.301	88.23
294.516	-5.97
294.73	94.38
294.945	6.31
295.16	55.47
295.374	10.41
295.589	90.28
295.804	-14.17
296.018	-38.74
296.233	43.18
296.447	12.46
296.662	-14.17
296.877	-14.17
297.091	41.13
297.306	22.7
297.52	-1.88
297.735	34.99
297.949	14.51
298.164	45.23
298.378	26.79
298.593	63.66
298.807	34.99
299.022	75.95
299.236	2.22
299.451	67.75
299.665	57.51
299.88	67.75
300.094	14.51
300.309	22.7
300.523	37.03
300.737	18.6
300.952	30.89
301.166	22.7
301.381	49.32
301.595	61.61
301.809	82.09
302.024	75.95
302.238	0.17
302.452	39.08
302.667	67.75
302.881	80.04
303.095	51.37
303.309	69.8
303.524	0.17
303.738	8.36
303.952	-14.17
304.166	49.32
304.381	12.46
304.595	14.51
304.809	57.51
305.023	18.6
305.237	18.6
305.452	43.18
305.666	49.32
305.88	59.56
306.094	63.66
306.308	41.13
306.522	57.51
306.736	51.37
306.95	41.13
307.164	30.89
307.379	28.84
307.593	0.17
307.807	92.33
308.021	129.19
308.235	34.99
308.449	45.23
308.663	-55.12
308.877	96.43
309.091	61.61
309.305	12.46
309.519	26.79
309.733	96.43
309.947	84.14
310.161	-1.88
310.374	49.32
310.588	37.03
310.802	0.17
311.016	-14.17
311.23	-24.4
311.444	-51.03
311.658	75.95
311.872	116.9
312.085	-3.93
312.299	67.75
312.513	55.47
312.727	-16.21
312.941	67.75
313.154	20.65
313.368	92.33
313.582	47.27
313.796	-5.97
314.009	108.71
314.223	26.79
314.437	41.13
314.651	65.71
314.864	108.71
315.078	30.89
315.292	98.47
315.505	26.79
315.719	108.71
315.933	55.47
316.146	37.03
316.36	18.6
316.573	71.85
316.787	43.18
317.001	-5.97
317.214	-14.17
317.428	12.46
317.641	26.79
317.855	129.19
318.068	22.7
318.282	43.18
318.495	57.51
318.709	26.79
318.922	67.75
319.136	39.08
319.349	49.32
319.563	37.03
319.776	-8.02
319.99	14.51
320.203	39.08
320.417	49.32
320.63	41.13
320.843	114.86
321.057	123.05
321.27	-3.93
321.483	26.79
321.697	59.56
321.91	16.55
322.124	41.13
322.337	47.27
322.55	39.08
322.763	77.99
322.977	71.85
323.19	90.28
323.403	32.94
323.617	-18.26
323.83	-12.12
324.043	43.18
324.256	47.27
324.469	26.79
324.683	84.14
324.896	30.89
325.109	-3.93
325.322	34.99
325.535	73.9
325.748	32.94
325.962	-51.03
326.175	-69.46
326.388	-5.97
326.601	139.43
326.814	47.27
327.027	80.04
327.24	65.71
327.453	18.6
327.666	75.95
327.879	94.38
328.092	41.13
328.305	49.32
328.518	-10.07
328.731	45.23
328.944	8.36
329.157	84.14
329.37	39.08
329.583	57.51
329.796	82.09
330.009	4.27
330.222	-24.4
330.435	51.37
330.648	98.47
330.861	16.55
331.073	37.03
331.286	43.18
331.499	88.23
331.712	-65.36
331.925	75.95
332.138	30.89
332.35	10.41
332.563	49.32
332.776	37.03
332.989	-48.98
333.202	18.6
333.414	59.56
333.627	-26.45
333.84	6.31
334.053	32.94
334.265	-55.12
334.478	116.9
334.691	14.51
334.903	26.79
335.116	8.36
335.329	71.85
335.541	8.36
335.754	96.43
335.966	34.99
336.179	14.51
336.392	16.55
336.604	82.09
336.817	-26.45
337.029	-12.12
337.242	-3.93
337.454	127.14
337.667	96.43
337.88	61.61
338.092	55.47
338.305	49.32
338.517	47.27
338.729	22.7
338.942	55.47
339.154	51.37
339.367	26.79
339.579	49.32
339.792	67.75
340.004	106.67
340.217	73.9
340.429	-18.26
340.641	41.13
340.854	4.27
341.066	26.79
341.278	34.99
341.491	96.43
341.703	86.19
341.915	67.75
342.128	59.56
342.34	16.55
342.552	114.86
342.764	22.7
342.977	39.08
343.189	37.03
343.401	100.52
343.613	28.84
343.826	-24.4
344.038	-32.6
344.25	37.03
344.462	90.28
344.674	14.51
344.886	73.9
345.099	41.13
345.311	71.85
345.523	22.7
345.735	59.56
345.947	8.36
346.159	34.99
346.371	2.22
346.583	-65.36
346.795	18.6
347.007	-8.02
347.219	55.47
347.431	59.56
347.643	47.27
347.855	6.31
348.067	98.47
348.279	22.7
348.491	75.95
348.703	0.17
348.915	26.79
349.127	10.41
349.339	18.6
349.551	-5.97
349.763	75.95
349.975	6.31
350.187	43.18
350.399	-14.17
350.61	18.6
350.822	8.36
351.034	34.99
351.246	-28.5
351.458	77.99
351.669	6.31
351.881	53.42
352.093	63.66
352.305	75.95
352.517	-3.93
352.728	77.99
352.94	88.23
353.152	30.89
353.363	12.46
353.575	4.27
353.787	125.1
353.999	75.95
354.21	32.94
354.422	47.27
354.633	0.17
354.845	26.79
355.057	-8.02
355.268	34.99
355.48	90.28
355.692	-22.36
355.903	57.51
356.115	49.32
356.326	34.99
356.538	49.32
356.749	71.85
356.961	69.8
357.172	22.7
357.384	49.32
357.595	53.42
357.807	100.52
358.018	6.31
358.23	63.66
358.441	84.14
358.653	49.32
358.864	-59.22
359.075	65.71
359.287	65.71
359.498	98.47
359.709	12.46
359.921	65.71
360.132	49.32
360.344	57.51
360.555	10.41
360.766	2.22
360.977	30.89
361.189	75.95
361.4	94.38
361.611	-10.07
361.823	49.32
362.034	84.14
362.245	43.18
362.456	30.89
362.667	12.46
362.879	41.13
363.09	34.99
363.301	71.85
363.512	82.09
363.723	106.67
363.935	71.85
364.146	30.89
364.357	69.8
364.568	8.36
364.779	82.09
364.99	116.9
365.201	2.22
365.412	2.22
365.623	24.75
365.834	49.32
366.045	18.6
366.256	-28.5
366.467	32.94
366.678	41.13
366.889	24.75
367.1	-30.55
367.311	131.24
367.522	30.89
367.733	57.51
367.944	67.75
368.155	57.51
368.366	34.99
368.577	37.03
368.788	75.95
368.999	41.13
369.209	32.94
369.42	149.67
369.631	94.38
369.842	75.95
370.053	73.9
370.264	37.03
370.474	53.42
370.685	94.38
370.896	18.6
371.107	55.47
371.317	57.51
371.528	8.36
371.739	63.66
371.95	22.7
372.16	55.47
372.371	51.37
372.582	41.13
372.792	84.14
373.003	65.71
373.214	45.23
373.424	30.89
373.635	22.7
373.846	57.51
374.056	71.85
374.267	80.04
374.477	18.6
374.688	4.27
374.898	55.47
375.109	92.33
375.319	22.7
375.53	49.32
375.74	32.94
375.951	59.56
376.161	41.13
376.372	106.67
376.582	71.85
376.793	96.43
377.003	53.42
377.214	-5.97
377.424	65.71
377.635	39.08
377.845	34.99
378.055	88.23
378.266	-53.08
378.476	75.95
378.686	-36.69
378.897	0.17
379.107	92.33
379.317	88.23
379.528	45.23
379.738	49.32
379.948	43.18
380.158	71.85
380.369	75.95
380.579	41.13
380.789	55.47
380.999	43.18
381.21	90.28
381.42	77.99
381.63	73.9
381.84	102.57
382.05	75.95
382.261	121
382.471	30.89
382.681	-16.21
382.891	57.51
383.101	-1.88
383.311	2.22
383.521	59.56
383.731	114.86
383.941	59.56
384.151	63.66
384.361	12.46
384.571	37.03
384.781	39.08
384.991	100.52
385.201	84.14
385.411	2.22
385.621	32.94
385.831	-22.36
386.041	34.99
386.251	90.28
386.461	59.56
386.671	61.61
386.881	110.76
387.091	43.18
387.301	129.19
387.511	77.99
387.72	63.66
387.93	37.03
388.14	59.56
388.35	75.95
388.56	28.84
388.769	149.67
388.979	96.43
389.189	57.51
389.399	92.33
389.609	69.8
389.818	86.19
390.028	153.77
390.238	67.75
390.447	92.33
390.657	77.99
390.867	24.75
391.076	82.09
391.286	149.67
391.496	49.32
391.705	32.94
391.915	90.28
392.125	104.62
392.334	-8.02
392.544	133.29
392.753	28.84
392.963	63.66
393.172	51.37
393.382	125.1
393.591	104.62
393.801	39.08
394.01	164.01
394.22	129.19
394.429	84.14
394.639	116.9
394.848	71.85
395.058	121
395.267	61.61
395.477	114.86
395.686	90.28
395.895	100.52
396.105	141.48
396.314	53.42
396.524	129.19
396.733	166.06
396.942	18.6
397.152	37.03
397.361	118.95
397.57	106.67
397.78	82.09
397.989	125.1
398.198	112.81
398.407	121
398.617	100.52
398.826	26.79
399.035	32.94
399.244	69.8
399.453	166.06
399.663	143.53
399.872	137.38
400.081	170.15
400.29	186.54
400.499	151.72
400.708	180.39
400.917	10.41
401.127	108.71
401.336	125.1
401.545	153.77
401.754	114.86
401.963	100.52
402.172	110.76
402.381	125.1
402.59	102.57
402.799	200.87
403.008	114.86
403.217	108.71
403.426	209.06
403.635	104.62
403.844	213.16
404.053	90.28
404.262	96.43
404.471	170.15
404.68	184.49
404.888	147.62
405.097	202.92
405.306	153.77
405.515	149.67
405.724	149.67
405.933	223.4
406.142	114.86
406.35	237.74
406.559	133.29
406.768	204.97
406.977	221.35
407.185	221.35
407.394	118.95
407.603	215.21
407.812	256.17
408.02	219.3
408.229	202.92
408.438	231.59
408.646	290.98
408.855	182.44
409.064	268.45
409.272	270.5
409.481	245.93
409.69	346.28
409.898	336.04
410.107	352.42
410.315	280.74
410.524	333.99
410.733	286.89
410.941	411.81
411.15	422.05
411.358	311.46
411.567	411.81
411.775	393.38
411.984	389.28
412.192	442.53
412.401	395.43
412.609	450.72
412.818	463.01
413.026	524.45
413.234	465.06
413.443	555.17
413.651	518.31
413.86	596.13
414.068	616.61
414.276	622.75
414.485	628.9
414.693	575.65
414.901	704.67
415.11	704.67
415.318	762.02
415.526	719.01
415.734	786.59
415.943	737.44
416.151	835.74
416.359	829.6
416.567	805.02
416.776	932
416.984	1007.77
417.192	919.71
417.4	1026.2
417.608	1005.72
417.817	1058.97
418.025	1061.02
418.233	1202.33
418.441	1214.62
418.649	1222.81
418.857	1226.9
419.065	1329.3
419.273	1319.06
419.481	1366.17
419.689	1400.98
419.897	1515.67
420.105	1527.96
420.313	1599.63
420.521	1562.77
420.729	1661.07
420.937	1769.62
421.145	1755.28
421.353	1888.4
421.561	1898.64
421.769	2042
421.977	2207.88
422.185	2119.82
422.393	2203.79
422.601	2447.49
422.809	2300.04
423.017	2271.37
423.224	2349.19
423.432	2547.84
423.64	2496.64
423.848	2687.11
424.056	2566.28
424.263	2818.18
424.471	2889.85
424.679	2873.47
424.887	3022.97
425.094	3123.32
425.302	3176.57
425.51	3246.2
425.718	3451
425.925	3489.91
426.133	3608.69
426.341	3866.74
426.548	3965.04
426.756	3856.5
426.964	3967.09
427.171	4245.61
427.379	4235.37
427.586	4477.03
427.794	4558.95
428.001	4786.27
428.209	4950.11
428.417	4806.75
428.624	5085.28
428.832	5154.91
429.039	5193.82
429.247	5126.24
429.454	5621.84
429.662	6037.58
429.869	5544.02
430.076	6129.74
430.284	5873.75
430.491	6228.04
430.699	6506.57
430.906	6340.68
431.114	6694.98
431.321	6852.67
431.528	6985.79
431.736	7618.61
431.943	7698.49
432.15	7512.12
432.358	7647.29
432.565	8077.36
432.772	7989.3
432.979	8417.32
433.187	8652.84
433.394	8536.1
433.601	8966.18
433.808	9158.69
434.016	9218.08
434.223	9594.9
434.43	10006.55
434.637	9861.14
434.844	10565.64
435.052	10702.86
435.259	10539.02
435.466	10706.95
435.673	10627.08
435.88	11296.77
436.087	11847.67
436.294	11954.16
436.501	11380.73
436.708	11995.12
436.915	12287.98
437.122	12912.61
437.329	13017.06
437.537	13371.36
437.743	13389.79
437.95	13320.16
438.157	14170.07
438.364	14585.8
438.571	14467.02
438.778	14624.72
438.985	16017.33
439.192	15323.07
439.399	15849.4
439.606	15593.4
439.813	16435.12
440.02	17340.32
440.227	17125.29
440.433	17041.32
440.64	17518.5
440.847	17225.64
441.054	17645.47
441.261	18792.33
441.467	18812.81
441.674	19298.18
441.881	19781.5
442.088	20017.02
442.294	19640.19
442.501	20281.21
442.708	20397.94
442.914	21188.46
443.121	22196.06
443.328	21550.95
443.534	23107.4
443.741	22089.56
443.948	22204.25
444.154	23781.18
444.361	23807.81
444.568	23797.57
444.774	24225.59
444.981	24166.2
445.187	24741.68
445.394	26001.18
445.6	25485.09
445.807	28294.91
446.013	26935.06
446.22	27287.31
446.426	28391.16
446.633	28770.04
446.839	29581.03
447.046	28546.81
447.252	30172.89
447.459	30027.49
447.665	30039.78
447.871	31352.52
448.078	32759.48
448.284	31018.71
448.491	32071.36
448.697	32995
448.903	33769.13
449.11	33840.81
449.316	33478.32
449.522	33984.16
449.728	35057.3
449.935	35094.16
450.141	35020.44
450.347	35911.3
450.553	34811.54
450.76	34815.64
450.966	35997.32
451.172	36140.68
451.378	36638.33
451.584	36003.46
451.791	36925.05
451.997	36744.83
452.203	37371.5
452.409	37224.05
452.615	37258.87
452.821	35739.27
453.027	35391.12
453.233	37416.56
453.44	35720.84
453.646	36087.43
453.852	36765.31
454.058	37170.8
454.264	35706.51
454.47	36871.8
454.676	35647.11
454.882	36955.77
455.088	33588.91
455.294	34283.17
455.5	34676.38
455.705	35358.35
455.911	33726.12
456.117	33314.48
456.323	32405.18
456.529	31170.26
456.735	32190.14
456.941	31510.22
457.147	30711.51
457.352	29945.57
457.558	29765.35
457.764	29961.95
457.97	28698.36
458.176	28370.68
458.381	28651.25
458.587	27098.89
458.793	27139.85
458.999	25761.57
459.204	27518.73
459.41	26748.69
459.616	25016.11
459.821	24934.19
460.027	25231.15
460.233	24547.12
460.438	23172.94
460.644	23629.63
460.85	22241.11
461.055	22036.31
461.261	21978.97
461.466	20469.62
461.672	19914.62
461.878	21270.37
462.083	19548.03
462.289	19509.12
462.494	19085.19
462.7	18280.34
462.905	17967
463.111	18440.08
463.316	18608.01
463.522	17997.72
463.727	17991.58
463.932	18108.31
464.138	17948.57
464.343	18143.13
464.549	17694.62
464.754	18243.48
464.959	17938.33
465.165	18044.82
465.37	17141.67
465.575	16496.56
465.781	17274.79
465.986	17356.71
466.191	16586.67
466.397	16375.73
466.602	15542.21
466.807	16488.37
467.012	16281.52
467.218	16381.87
467.423	16203.7
467.628	16185.27
467.833	17047.46
