Data from USB4F104151__97__11-38-00-837.txt Node

Date: Fri Mar 14 11:38:00 EDT 2025
User: louis
Spectrometer: USB4F10415
Trigger mode: 4
Integration Time (sec): 2.000000E-2
Scans to average: 1
Electric dark correction enabled: true
Nonlinearity correction enabled: false
Boxcar width: 0
XAxis mode: Wavelengths
Number of Pixels in Spectrum: 3648
>>>>>Begin Spectral Data<<<<<
178.204	-21.16
178.424	-21.16
178.644	-21.16
178.864	-88.75
179.084	-31.4
179.304	-10.92
179.524	-37.55
179.744	-10.92
179.964	99.67
180.184	-12.97
180.404	-12.97
180.624	23.89
180.844	-25.26
181.064	-47.79
181.283	32.08
181.503	3.41
181.723	-0.68
181.943	23.89
182.163	34.13
182.383	73.04
182.602	44.37
182.822	21.84
183.042	15.7
183.262	-39.59
183.482	93.52
183.701	58.71
183.921	54.61
184.141	-25.26
184.361	64.85
184.58	19.8
184.8	60.76
185.02	-45.74
185.239	1.37
185.459	30.04
185.679	48.47
185.898	-45.74
186.118	27.99
186.338	34.13
186.557	25.94
186.777	83.28
186.997	23.89
187.216	89.43
187.436	132.44
187.655	17.75
187.875	50.52
188.095	30.04
188.314	89.43
188.534	64.85
188.753	38.23
188.973	87.38
189.192	109.91
189.412	126.29
189.631	-23.21
189.851	38.23
190.07	32.08
190.29	11.61
190.509	111.96
190.729	-19.11
190.948	40.28
191.168	159.06
191.387	114
191.607	3.41
191.826	42.32
192.045	25.94
192.265	60.76
192.484	62.8
192.704	60.76
192.923	75.09
193.142	48.47
193.362	19.8
193.581	81.24
193.8	107.86
194.02	103.76
194.239	85.33
194.458	79.19
194.678	68.95
194.897	81.24
195.116	11.61
195.335	93.52
195.555	58.71
195.774	23.89
195.993	44.37
196.212	85.33
196.432	-10.92
196.651	-37.55
196.87	64.85
197.089	116.05
197.308	34.13
197.528	66.9
197.747	19.8
197.966	93.52
198.185	50.52
198.404	46.42
198.623	-15.02
198.842	75.09
199.062	15.7
199.281	42.32
199.5	-15.02
199.719	48.47
199.938	15.7
200.157	54.61
200.376	42.32
200.595	85.33
200.814	36.18
201.033	30.04
201.252	71
201.471	44.37
201.69	17.75
201.909	73.04
202.128	23.89
202.347	19.8
202.566	79.19
202.785	30.04
203.004	66.9
203.223	99.67
203.442	42.32
203.661	17.75
203.879	-8.87
204.098	111.96
204.317	3.41
204.536	75.09
204.755	46.42
204.974	27.99
205.193	81.24
205.411	77.14
205.63	40.28
205.849	62.8
206.068	68.95
206.287	66.9
206.505	101.72
206.724	40.28
206.943	60.76
207.162	40.28
207.381	52.56
207.599	56.66
207.818	-21.16
208.037	91.48
208.255	13.65
208.474	114
208.693	32.08
208.911	77.14
209.13	66.9
209.349	114
209.567	44.37
209.786	66.9
210.005	77.14
210.223	38.23
210.442	11.61
210.661	93.52
210.879	-12.97
211.098	34.13
211.316	54.61
211.535	52.56
211.753	36.18
211.972	79.19
212.191	44.37
212.409	58.71
212.628	50.52
212.846	17.75
213.065	25.94
213.283	52.56
213.502	40.28
213.72	101.72
213.938	-29.35
214.157	40.28
214.375	66.9
214.594	1.37
214.812	30.04
215.031	34.13
215.249	46.42
215.467	1.37
215.686	9.56
215.904	83.28
216.122	97.62
216.341	52.56
216.559	13.65
216.778	62.8
216.996	30.04
217.214	11.61
217.432	-8.87
217.651	46.42
217.869	66.9
218.087	32.08
218.306	95.57
218.524	-15.02
218.742	13.65
218.96	56.66
219.179	-37.55
219.397	62.8
219.615	73.04
219.833	126.29
220.051	48.47
220.27	46.42
220.488	15.7
220.706	23.89
220.924	60.76
221.142	77.14
221.36	15.7
221.578	36.18
221.796	-2.73
222.015	36.18
222.233	99.67
222.451	73.04
222.669	99.67
222.887	60.76
223.105	21.84
223.323	60.76
223.541	9.56
223.759	71
223.977	-4.78
224.195	32.08
224.413	105.81
224.631	48.47
224.849	42.32
225.067	17.75
225.285	-41.64
225.503	60.76
225.721	-4.78
225.939	32.08
226.157	46.42
226.375	27.99
226.592	-31.4
226.81	19.8
227.028	15.7
227.246	85.33
227.464	54.61
227.682	-10.92
227.9	27.99
228.117	-62.12
228.335	9.56
228.553	85.33
228.771	114
228.989	71
229.206	83.28
229.424	30.04
229.642	52.56
229.86	124.24
230.077	73.04
230.295	-4.78
230.513	11.61
230.731	73.04
230.948	58.71
231.166	66.9
231.384	19.8
231.601	42.32
231.819	48.47
232.037	79.19
232.254	62.8
232.472	25.94
232.689	107.86
232.907	68.95
233.125	97.62
233.342	30.04
233.56	44.37
233.777	81.24
233.995	73.04
234.213	73.04
234.43	32.08
234.648	73.04
234.865	13.65
235.083	103.76
235.3	79.19
235.518	42.32
235.735	64.85
235.953	44.37
236.17	36.18
236.388	27.99
236.605	36.18
236.822	13.65
237.04	89.43
237.257	109.91
237.475	83.28
237.692	48.47
237.909	21.84
238.127	56.66
238.344	19.8
238.562	154.96
238.779	-10.92
238.996	-2.73
239.214	23.89
239.431	95.57
239.648	40.28
239.865	85.33
240.083	75.09
240.3	32.08
240.517	48.47
240.735	52.56
240.952	38.23
241.169	126.29
241.386	60.76
241.603	66.9
241.821	42.32
242.038	85.33
242.255	68.95
242.472	23.89
242.689	-15.02
242.907	27.99
243.124	56.66
243.341	25.94
243.558	62.8
243.775	46.42
243.992	42.32
244.209	9.56
244.426	19.8
244.643	50.52
244.86	3.41
245.078	71
245.295	87.38
245.512	56.66
245.729	27.99
245.946	103.76
246.163	105.81
246.38	111.96
246.597	50.52
246.814	-31.4
247.031	38.23
247.248	83.28
247.464	40.28
247.681	75.09
247.898	83.28
248.115	21.84
248.332	46.42
248.549	91.48
248.766	42.32
248.983	126.29
249.2	85.33
249.417	-2.73
249.633	46.42
249.85	89.43
250.067	48.47
250.284	68.95
250.501	68.95
250.717	130.39
250.934	34.13
251.151	-19.11
251.368	97.62
251.585	101.72
251.801	81.24
252.018	5.46
252.235	44.37
252.451	97.62
252.668	40.28
252.885	114
253.102	101.72
253.318	40.28
253.535	60.76
253.752	15.7
253.968	101.72
254.185	9.56
254.401	64.85
254.618	50.52
254.835	27.99
255.051	23.89
255.268	87.38
255.484	46.42
255.701	140.63
255.917	124.24
256.134	23.89
256.351	9.56
256.567	-21.16
256.784	3.41
257	-4.78
257.217	-43.69
257.433	-15.02
257.65	-6.83
257.866	13.65
258.082	52.56
258.299	103.76
258.515	42.32
258.732	52.56
258.948	-12.97
259.165	23.89
259.381	-4.78
259.597	105.81
259.814	85.33
260.03	46.42
260.246	23.89
260.463	23.89
260.679	58.71
260.895	58.71
261.112	48.47
261.328	46.42
261.544	73.04
261.761	128.34
261.977	114
262.193	-10.92
262.409	7.51
262.626	23.89
262.842	46.42
263.058	58.71
263.274	15.7
263.49	3.41
263.707	122.2
263.923	85.33
264.139	19.8
264.355	11.61
264.571	95.57
264.787	97.62
265.004	87.38
265.22	7.51
265.436	36.18
265.652	13.65
265.868	111.96
266.084	44.37
266.3	68.95
266.516	17.75
266.732	77.14
266.948	77.14
267.164	32.08
267.38	36.18
267.596	5.46
267.812	109.91
268.028	75.09
268.244	15.7
268.46	79.19
268.676	3.41
268.892	87.38
269.108	73.04
269.324	-8.87
269.54	42.32
269.756	60.76
269.972	13.65
270.188	50.52
270.403	44.37
270.619	21.84
270.835	87.38
271.051	77.14
271.267	32.08
271.483	60.76
271.698	-17.07
271.914	79.19
272.13	34.13
272.346	99.67
272.562	60.76
272.777	36.18
272.993	71
273.209	9.56
273.425	1.37
273.64	64.85
273.856	130.39
274.072	83.28
274.287	17.75
274.503	23.89
274.719	23.89
274.934	101.72
275.15	-33.45
275.366	60.76
275.581	81.24
275.797	-12.97
276.012	64.85
276.228	21.84
276.444	66.9
276.659	83.28
276.875	3.41
277.09	71
277.306	27.99
277.521	40.28
277.737	11.61
277.952	3.41
278.168	93.52
278.383	50.52
278.599	36.18
278.814	40.28
279.03	5.46
279.245	91.48
279.461	130.39
279.676	34.13
279.892	-31.4
280.107	103.76
280.322	36.18
280.538	23.89
280.753	17.75
280.969	71
281.184	46.42
281.399	56.66
281.615	25.94
281.83	-29.35
282.045	32.08
282.26	42.32
282.476	126.29
282.691	60.76
282.906	32.08
283.122	75.09
283.337	-2.73
283.552	73.04
283.767	75.09
283.983	-2.73
284.198	58.71
284.413	-23.21
284.628	-29.35
284.843	-27.31
285.058	126.29
285.274	52.56
285.489	50.52
285.704	126.29
285.919	11.61
286.134	77.14
286.349	50.52
286.564	40.28
286.779	44.37
286.995	-39.59
287.21	44.37
287.425	11.61
287.64	27.99
287.855	23.89
288.07	56.66
288.285	-0.68
288.5	62.8
288.715	17.75
288.93	23.89
289.145	32.08
289.36	73.04
289.575	30.04
289.79	87.38
290.004	71
290.219	25.94
290.434	15.7
290.649	-21.16
290.864	107.86
291.079	85.33
291.294	118.1
291.509	93.52
291.724	89.43
291.938	-31.4
292.153	44.37
292.368	52.56
292.583	60.76
292.798	11.61
293.012	48.47
293.227	11.61
293.442	30.04
293.657	60.76
293.871	62.8
294.086	44.37
294.301	111.96
294.516	42.32
294.73	42.32
294.945	34.13
295.16	44.37
295.374	66.9
295.589	68.95
295.804	36.18
296.018	97.62
296.233	64.85
296.447	42.32
296.662	40.28
296.877	52.56
297.091	97.62
297.306	68.95
297.52	-27.31
297.735	54.61
297.949	60.76
298.164	75.09
298.378	58.71
298.593	75.09
298.807	87.38
299.022	34.13
299.236	23.89
299.451	-0.68
299.665	3.41
299.88	11.61
300.094	-21.16
300.309	54.61
300.523	60.76
300.737	68.95
300.952	48.47
301.166	60.76
301.381	-29.35
301.595	17.75
301.809	79.19
302.024	30.04
302.238	38.23
302.452	81.24
302.667	21.84
302.881	101.72
303.095	77.14
303.309	13.65
303.524	60.76
303.738	36.18
303.952	71
304.166	93.52
304.381	11.61
304.595	73.04
304.809	44.37
305.023	85.33
305.237	68.95
305.452	32.08
305.666	83.28
305.88	54.61
306.094	85.33
306.308	56.66
306.522	105.81
306.736	40.28
306.95	79.19
307.164	13.65
307.379	19.8
307.593	52.56
307.807	56.66
308.021	62.8
308.235	-6.83
308.449	58.71
308.663	42.32
308.877	46.42
309.091	27.99
309.305	105.81
309.519	58.71
309.733	77.14
309.947	27.99
310.161	77.14
310.374	-8.87
310.588	126.29
310.802	38.23
311.016	52.56
311.23	58.71
311.444	1.37
311.658	30.04
311.872	44.37
312.085	15.7
312.299	68.95
312.513	11.61
312.727	48.47
312.941	107.86
313.154	83.28
313.368	13.65
313.582	-12.97
313.796	99.67
314.009	-15.02
314.223	40.28
314.437	-10.92
314.651	77.14
314.864	-37.55
315.078	81.24
315.292	83.28
315.505	-6.83
315.719	46.42
315.933	52.56
316.146	71
316.36	-68.27
316.573	130.39
316.787	85.33
317.001	71
317.214	50.52
317.428	50.52
317.641	25.94
317.855	56.66
318.068	11.61
318.282	-17.07
318.495	34.13
318.709	36.18
318.922	105.81
319.136	134.48
319.349	71
319.563	36.18
319.776	-47.79
319.99	25.94
320.203	25.94
320.417	91.48
320.63	32.08
320.843	91.48
321.057	36.18
321.27	99.67
321.483	56.66
321.697	81.24
321.91	81.24
322.124	46.42
322.337	30.04
322.55	-6.83
322.763	-33.45
322.977	124.24
323.19	42.32
323.403	32.08
323.617	40.28
323.83	42.32
324.043	128.34
324.256	124.24
324.469	73.04
324.683	75.09
324.896	1.37
325.109	75.09
325.322	13.65
325.535	60.76
325.748	27.99
325.962	50.52
326.175	-6.83
326.388	54.61
326.601	32.08
326.814	99.67
327.027	42.32
327.24	32.08
327.453	46.42
327.666	66.9
327.879	27.99
328.092	15.7
328.305	19.8
328.518	58.71
328.731	27.99
328.944	13.65
329.157	73.04
329.37	25.94
329.583	85.33
329.796	103.76
330.009	15.7
330.222	25.94
330.435	91.48
330.648	81.24
330.861	95.57
331.073	50.52
331.286	60.76
331.499	93.52
331.712	64.85
331.925	95.57
332.138	7.51
332.35	150.87
332.563	19.8
332.776	-2.73
332.989	19.8
333.202	30.04
333.414	27.99
333.627	68.95
333.84	99.67
334.053	54.61
334.265	68.95
334.478	11.61
334.691	40.28
334.903	89.43
335.116	-4.78
335.329	32.08
335.541	77.14
335.754	105.81
335.966	107.86
336.179	81.24
336.392	21.84
336.604	52.56
336.817	79.19
337.029	111.96
337.242	46.42
337.454	66.9
337.667	-12.97
337.88	99.67
338.092	118.1
338.305	64.85
338.517	30.04
338.729	11.61
338.942	19.8
339.154	-6.83
339.367	17.75
339.579	99.67
339.792	17.75
340.004	48.47
340.217	93.52
340.429	60.76
340.641	81.24
340.854	79.19
341.066	71
341.278	36.18
341.491	136.53
341.703	19.8
341.915	77.14
342.128	40.28
342.34	66.9
342.552	44.37
342.764	101.72
342.977	19.8
343.189	126.29
343.401	85.33
343.613	-12.97
343.826	25.94
344.038	44.37
344.25	58.71
344.462	36.18
344.674	54.61
344.886	68.95
345.099	34.13
345.311	75.09
345.523	77.14
345.735	32.08
345.947	56.66
346.159	19.8
346.371	89.43
346.583	109.91
346.795	11.61
347.007	58.71
347.219	27.99
347.431	7.51
347.643	91.48
347.855	77.14
348.067	27.99
348.279	25.94
348.491	83.28
348.703	3.41
348.915	50.52
349.127	68.95
349.339	101.72
349.551	66.9
349.763	128.34
349.975	75.09
350.187	30.04
350.399	85.33
350.61	56.66
350.822	11.61
351.034	101.72
351.246	50.52
351.458	52.56
351.669	11.61
351.881	99.67
352.093	68.95
352.305	52.56
352.517	13.65
352.728	105.81
352.94	40.28
353.152	97.62
353.363	27.99
353.575	58.71
353.787	142.68
353.999	99.67
354.21	30.04
354.422	64.85
354.633	68.95
354.845	81.24
355.057	71
355.268	99.67
355.48	64.85
355.692	46.42
355.903	17.75
356.115	79.19
356.326	58.71
356.538	75.09
356.749	91.48
356.961	56.66
357.172	68.95
357.384	81.24
357.595	109.91
357.807	75.09
358.018	25.94
358.23	157.01
358.441	71
358.653	48.47
358.864	32.08
359.075	44.37
359.287	73.04
359.498	73.04
359.709	75.09
359.921	99.67
360.132	42.32
360.344	105.81
360.555	46.42
360.766	7.51
360.977	32.08
361.189	68.95
361.4	40.28
361.611	66.9
361.823	126.29
362.034	64.85
362.245	17.75
362.456	44.37
362.667	75.09
362.879	15.7
363.09	38.23
363.301	111.96
363.512	107.86
363.723	120.15
363.935	40.28
364.146	71
364.357	54.61
364.568	44.37
364.779	17.75
364.99	77.14
365.201	30.04
365.412	79.19
365.623	68.95
365.834	60.76
366.045	66.9
366.256	27.99
366.467	75.09
366.678	89.43
366.889	56.66
367.1	54.61
367.311	66.9
367.522	50.52
367.733	91.48
367.944	87.38
368.155	109.91
368.366	85.33
368.577	83.28
368.788	58.71
368.999	99.67
369.209	21.84
369.42	58.71
369.631	130.39
369.842	107.86
370.053	64.85
370.264	60.76
370.474	75.09
370.685	38.23
370.896	19.8
371.107	11.61
371.317	48.47
371.528	56.66
371.739	64.85
371.95	62.8
372.16	120.15
372.371	40.28
372.582	-4.78
372.792	3.41
373.003	83.28
373.214	38.23
373.424	68.95
373.635	58.71
373.846	114
374.056	40.28
374.267	99.67
374.477	114
374.688	38.23
374.898	120.15
375.109	60.76
375.319	66.9
375.53	66.9
375.74	77.14
375.951	73.04
376.161	81.24
376.372	32.08
376.582	60.76
376.793	19.8
377.003	60.76
377.214	-4.78
377.424	116.05
377.635	130.39
377.845	62.8
378.055	66.9
378.266	5.46
378.476	73.04
378.686	91.48
378.897	101.72
379.107	120.15
379.317	99.67
379.528	7.51
379.738	93.52
379.948	79.19
380.158	105.81
380.369	3.41
380.579	38.23
380.789	13.65
380.999	140.63
381.21	64.85
381.42	81.24
381.63	46.42
381.84	120.15
382.05	75.09
382.261	120.15
382.471	109.91
382.681	62.8
382.891	77.14
383.101	54.61
383.311	9.56
383.521	77.14
383.731	75.09
383.941	101.72
384.151	71
384.361	75.09
384.571	32.08
384.781	60.76
384.991	165.2
385.201	189.78
385.411	34.13
385.621	42.32
385.831	107.86
386.041	64.85
386.251	68.95
386.461	46.42
386.671	97.62
386.881	15.7
387.091	89.43
387.301	91.48
387.511	111.96
387.72	109.91
387.93	32.08
388.14	60.76
388.35	66.9
388.56	97.62
388.769	44.37
388.979	99.67
389.189	83.28
389.399	95.57
389.609	97.62
389.818	68.95
390.028	81.24
390.238	124.24
390.447	89.43
390.657	109.91
390.867	77.14
391.076	87.38
391.286	77.14
391.496	105.81
391.705	87.38
391.915	124.24
392.125	126.29
392.334	101.72
392.544	73.04
392.753	40.28
392.963	105.81
393.172	46.42
393.382	42.32
393.591	95.57
393.801	36.18
394.01	167.25
394.22	75.09
394.429	109.91
394.639	56.66
394.848	146.77
395.058	111.96
395.267	73.04
395.477	140.63
395.686	101.72
395.895	50.52
396.105	73.04
396.314	40.28
396.524	132.44
396.733	87.38
396.942	126.29
397.152	167.25
397.361	179.54
397.57	52.56
397.78	107.86
397.989	116.05
398.198	171.35
398.407	114
398.617	152.91
398.826	97.62
399.035	157.01
399.244	122.2
399.453	87.38
399.663	130.39
399.872	136.53
400.081	105.81
400.29	191.83
400.499	105.81
400.708	161.11
400.917	114
401.127	124.24
401.336	89.43
401.545	122.2
401.754	150.87
401.963	187.73
402.172	183.63
402.381	66.9
402.59	95.57
402.799	191.83
403.008	140.63
403.217	202.07
403.426	165.2
403.635	111.96
403.844	189.78
404.053	163.15
404.262	163.15
404.471	232.79
404.68	109.91
404.888	97.62
405.097	224.59
405.306	154.96
405.515	165.2
405.724	179.54
405.933	247.12
406.142	157.01
406.35	224.59
406.559	159.06
406.768	208.21
406.977	228.69
407.185	185.68
407.394	251.22
407.603	171.35
407.812	165.2
408.02	259.41
408.229	275.79
408.438	243.03
408.646	226.64
408.855	304.46
409.064	240.98
409.272	220.5
409.481	273.75
409.69	298.32
409.898	226.64
410.107	347.47
410.315	290.13
410.524	388.43
410.733	378.19
410.941	359.76
411.15	421.2
411.358	359.76
411.567	363.86
411.775	322.9
411.984	349.52
412.192	431.44
412.401	439.63
412.609	427.34
412.818	425.29
413.026	468.3
413.234	474.45
413.443	486.73
413.651	494.93
413.86	544.08
414.068	644.43
414.276	585.04
414.485	613.71
414.693	634.19
414.901	695.63
415.11	703.82
415.318	634.19
415.526	589.13
415.734	763.21
415.943	765.26
416.151	789.83
416.359	746.83
416.567	703.82
416.776	838.98
416.984	931.14
417.192	916.81
417.4	961.86
417.608	826.7
417.817	951.62
418.025	1045.83
418.233	1092.93
418.441	1076.55
418.649	1127.75
418.857	1252.67
419.065	1187.14
419.273	1246.53
419.481	1181
419.689	1357.12
419.897	1420.61
420.105	1279.3
420.313	1482.05
420.521	1439.04
420.729	1568.06
420.937	1529.15
421.145	1658.17
421.353	1697.08
421.561	1754.43
421.769	1867.06
421.977	1948.98
422.185	1799.48
422.393	1971.51
422.601	2166.07
422.809	2114.87
423.017	2121.01
423.224	2309.43
423.432	2241.84
423.64	2325.81
423.848	2532.65
424.056	2563.37
424.263	2690.35
424.471	2710.83
424.679	2694.44
424.887	2837.8
425.094	2850.09
425.302	2995.5
425.51	3099.94
425.718	3198.24
425.925	3284.26
426.133	3169.57
426.341	3458.34
426.548	3472.67
426.756	3562.78
426.964	3681.57
427.171	3812.64
427.379	3947.8
427.586	4105.49
427.794	4082.97
428.001	4422.93
428.209	4564.24
428.417	4504.85
428.624	4807.95
428.832	4742.41
429.039	4660.49
429.247	4709.65
429.454	5131.53
429.662	5676.29
429.869	5258.5
430.076	5522.69
430.284	5369.09
430.491	5670.14
430.699	5975.29
430.906	5948.67
431.114	5950.71
431.321	6169.85
431.528	6554.87
431.736	6806.77
431.943	7195.88
432.15	6847.72
432.358	7029.99
432.565	7367.91
432.772	7318.76
432.979	7847.13
433.187	7965.92
433.394	7871.71
433.601	8379.61
433.808	8316.12
434.016	8232.15
434.223	8764.62
434.43	9129.16
434.637	9065.67
434.844	9782.46
435.052	9831.62
435.259	9587.91
435.466	9893.05
435.673	9860.29
435.88	10443.96
436.087	10996.91
436.294	11134.12
436.501	10525.88
436.708	10890.42
436.915	11285.67
437.122	11709.6
437.329	11924.64
437.537	11992.22
437.743	12293.27
437.95	12184.73
438.157	12717.2
438.364	13311.11
438.571	13157.52
438.778	13483.14
438.985	14642.29
439.192	14058.62
439.399	14595.19
439.606	14081.15
439.813	15113.33
440.02	15797.35
440.227	15549.54
440.433	15463.53
440.64	16077.92
440.847	15778.92
441.054	16608.34
441.261	17441.87
441.467	17192.01
441.674	17448.01
441.881	17990.72
442.088	18050.11
442.294	17943.62
442.501	18539.58
442.708	18824.25
442.914	19821.61
443.121	20384.8
443.328	19874.85
443.534	21130.26
443.741	20878.36
443.948	20429.85
444.154	21914.63
444.361	21816.33
444.568	22141.96
444.774	21976.07
444.981	22260.74
445.187	22957.05
445.394	23669.74
445.6	23522.29
445.807	25826.25
446.013	24744.92
446.22	25121.75
446.426	26227.65
446.633	26258.37
446.839	27104.18
447.046	26448.83
447.252	27581.36
447.459	27339.7
447.665	27194.29
447.871	28930.97
448.078	29899.66
448.284	28687.26
448.491	29744.02
448.697	30352.26
448.903	31167.35
449.11	31124.35
449.316	30604.16
449.522	31257.46
449.728	32379.75
449.935	32463.72
450.141	32217.96
450.347	33063.77
450.553	31841.14
450.76	32412.52
450.966	33561.43
451.172	33287
451.378	33975.12
451.584	33211.23
451.791	34302.79
451.997	34636.61
452.203	34653
452.409	34448.2
452.615	34155.34
452.821	33459.03
453.027	33055.58
453.233	34851.65
453.44	33260.38
453.646	33842
453.852	33776.47
454.058	34483.02
454.264	33088.35
454.47	34079.57
454.676	33387.35
454.882	34464.58
455.088	31638.39
455.294	31806.32
455.5	32691.04
455.705	32371.56
455.911	31161.21
456.117	30970.75
456.323	30493.57
456.529	28906.4
456.735	30061.45
456.941	29430.68
457.147	28752.8
457.352	27888.56
457.558	27603.89
457.764	27644.85
457.97	27263.93
458.176	26446.79
458.381	26561.47
458.587	25367.51
458.793	25232.34
458.999	24241.12
459.204	25756.62
459.41	25240.53
459.616	23176.18
459.821	23266.29
460.027	23030.77
460.233	22846.46
460.438	21527.56
460.644	22076.42
460.85	21185.55
461.055	20417.57
461.261	20694.04
461.466	19196.98
461.672	18402.36
461.878	19938.34
462.083	18502.72
462.289	18003.01
462.494	18084.93
462.7	17398.86
462.905	16675.93
463.111	17271.89
463.316	17335.37
463.522	17013.84
463.727	16878.68
463.932	17071.18
464.138	16786.52
464.343	16915.54
464.549	16194.65
464.754	16886.87
464.959	16870.48
465.165	16538.71
465.37	15899.75
465.575	15631.46
465.781	16182.37
465.986	16000.1
466.191	15570.02
466.397	15441
466.602	14761.08
466.807	15430.76
467.012	15121.52
467.218	15123.57
467.423	14851.19
467.628	15023.22
467.833	15344.75
468.038	14806.13
468.244	14781.56
