Data from USB4F104151__71__11-37-34-319.txt Node

Date: Fri Mar 14 11:37:34 EDT 2025
User: louis
Spectrometer: USB4F10415
Trigger mode: 4
Integration Time (sec): 2.000000E-2
Scans to average: 1
Electric dark correction enabled: true
Nonlinearity correction enabled: false
Boxcar width: 0
XAxis mode: Wavelengths
Number of Pixels in Spectrum: 3648
>>>>>Begin Spectral Data<<<<<
178.204	-131.58
178.424	-131.58
178.644	-131.58
178.864	-82.43
179.084	-92.67
179.304	-68.09
179.524	11.78
179.744	44.54
179.964	9.73
180.184	-18.94
180.404	-27.14
180.624	5.63
180.844	34.3
181.064	46.59
181.283	-72.19
181.503	-27.14
181.723	60.93
181.943	-23.04
182.163	-8.7
182.383	-8.7
182.602	13.82
182.822	42.5
183.042	13.82
183.262	-0.51
183.482	9.73
183.701	-66.05
183.921	-25.09
184.141	34.3
184.361	-35.33
184.58	13.82
184.8	-88.57
185.02	-45.57
185.239	-6.66
185.459	38.4
185.679	-6.66
185.898	-12.8
186.118	52.74
186.338	34.3
186.557	19.97
186.777	-29.18
186.997	22.02
187.216	-53.76
187.436	52.74
187.655	9.73
187.875	34.3
188.095	-18.94
188.314	58.88
188.534	60.93
188.753	-16.9
188.973	71.17
189.192	50.69
189.412	44.54
189.631	-6.66
189.851	-14.85
190.07	89.6
190.29	69.12
190.509	-57.86
190.729	22.02
190.948	19.97
191.168	75.26
191.387	87.55
191.607	42.5
191.826	34.3
192.045	-4.61
192.265	28.16
192.484	-6.66
192.704	-29.18
192.923	9.73
193.142	120.32
193.362	17.92
193.581	38.4
193.8	-2.56
194.02	40.45
194.239	50.69
194.458	46.59
194.678	38.4
194.897	1.54
195.116	9.73
195.335	-18.94
195.555	22.02
195.774	13.82
195.993	-16.9
196.212	24.06
196.432	-12.8
196.651	28.16
196.87	46.59
197.089	22.02
197.308	-10.75
197.528	50.69
197.747	-59.9
197.966	17.92
198.185	118.27
198.404	28.16
198.623	58.88
198.842	-12.8
199.062	44.54
199.281	50.69
199.5	1.54
199.719	24.06
199.938	67.07
200.157	79.36
200.376	5.63
200.595	15.87
200.814	-12.8
201.033	11.78
201.252	52.74
201.471	1.54
201.69	13.82
201.909	54.78
202.128	19.97
202.347	99.84
202.566	-4.61
202.785	58.88
203.004	-6.66
203.223	32.26
203.442	15.87
203.661	-18.94
203.879	71.17
204.098	75.26
204.317	7.68
204.536	-2.56
204.755	89.6
204.974	26.11
205.193	-35.33
205.411	83.45
205.63	11.78
205.849	34.3
206.068	9.73
206.287	17.92
206.505	13.82
206.724	3.58
206.943	75.26
207.162	-16.9
207.381	-31.23
207.599	-33.28
207.818	48.64
208.037	65.02
208.255	32.26
208.474	5.63
208.693	-4.61
208.911	-107.01
209.13	52.74
209.349	-0.51
209.567	77.31
209.786	28.16
210.005	46.59
210.223	48.64
210.442	1.54
210.661	17.92
210.879	-6.66
211.098	-23.04
211.316	17.92
211.535	11.78
211.753	-27.14
211.972	81.41
212.191	-10.75
212.409	38.4
212.628	-29.18
212.846	-51.71
213.065	-10.75
213.283	73.21
213.502	58.88
213.72	36.35
213.938	-35.33
214.157	73.21
214.375	19.97
214.594	-12.8
214.812	-20.99
215.031	-2.56
215.249	13.82
215.467	62.98
215.686	-0.51
215.904	-29.18
216.122	17.92
216.341	103.93
216.559	-49.66
216.778	30.21
216.996	-6.66
217.214	69.12
217.432	-23.04
217.651	11.78
217.869	-20.99
218.087	46.59
218.306	62.98
218.524	89.6
218.742	-0.51
218.96	5.63
219.179	22.02
219.397	22.02
219.615	54.78
219.833	54.78
220.051	13.82
220.27	62.98
220.488	87.55
220.706	19.97
220.924	46.59
221.142	-10.75
221.36	-12.8
221.578	54.78
221.796	-0.51
222.015	7.68
222.233	17.92
222.451	-0.51
222.669	30.21
222.887	22.02
223.105	1.54
223.323	-6.66
223.541	142.85
223.759	-20.99
223.977	28.16
224.195	62.98
224.413	17.92
224.631	26.11
224.849	77.31
225.067	50.69
225.285	-20.99
225.503	-2.56
225.721	-18.94
225.939	24.06
226.157	11.78
226.375	62.98
226.592	-31.23
226.81	3.58
227.028	42.5
227.246	73.21
227.464	22.02
227.682	-20.99
227.9	75.26
228.117	-2.56
228.335	7.68
228.553	22.02
228.771	5.63
228.989	-2.56
229.206	7.68
229.424	69.12
229.642	-10.75
229.86	-12.8
230.077	30.21
230.295	9.73
230.513	-10.75
230.731	105.98
230.948	52.74
231.166	40.45
231.384	-53.76
231.601	-51.71
231.819	22.02
232.037	-51.71
232.254	19.97
232.472	56.83
232.689	19.97
232.907	77.31
233.125	11.78
233.342	62.98
233.56	1.54
233.777	-25.09
233.995	69.12
234.213	26.11
234.43	24.06
234.648	19.97
234.865	71.17
235.083	103.93
235.3	-10.75
235.518	73.21
235.735	44.54
235.953	5.63
236.17	-27.14
236.388	58.88
236.605	15.87
236.822	81.41
237.04	38.4
237.257	30.21
237.475	30.21
237.692	67.07
237.909	19.97
238.127	17.92
238.344	34.3
238.562	46.59
238.779	44.54
238.996	-0.51
239.214	-47.62
239.431	48.64
239.648	32.26
239.865	42.5
240.083	42.5
240.3	87.55
240.517	36.35
240.735	22.02
240.952	-23.04
241.169	42.5
241.386	42.5
241.603	44.54
241.821	58.88
242.038	-0.51
242.255	-2.56
242.472	17.92
242.689	73.21
242.907	50.69
243.124	28.16
243.341	58.88
243.558	-18.94
243.775	-47.62
243.992	-29.18
244.209	-18.94
244.426	48.64
244.643	-59.9
244.86	-33.28
245.078	56.83
245.295	46.59
245.512	-8.7
245.729	-2.56
245.946	5.63
246.163	13.82
246.38	-25.09
246.597	11.78
246.814	81.41
247.031	26.11
247.248	30.21
247.464	11.78
247.681	93.69
247.898	79.36
248.115	91.65
248.332	-14.85
248.549	79.36
248.766	54.78
248.983	11.78
249.2	38.4
249.417	65.02
249.633	5.63
249.85	17.92
250.067	40.45
250.284	44.54
250.501	22.02
250.717	17.92
250.934	-33.28
251.151	30.21
251.368	3.58
251.585	-45.57
251.801	46.59
252.018	34.3
252.235	11.78
252.451	-0.51
252.668	22.02
252.885	-14.85
253.102	22.02
253.318	112.13
253.535	38.4
253.752	30.21
253.968	-0.51
254.185	-59.9
254.401	-10.75
254.618	24.06
254.835	-18.94
255.051	79.36
255.268	50.69
255.484	-12.8
255.701	5.63
255.917	62.98
256.134	9.73
256.351	5.63
256.567	-27.14
256.784	5.63
257	-16.9
257.217	62.98
257.433	99.84
257.65	101.89
257.866	-4.61
258.082	5.63
258.299	-6.66
258.515	67.07
258.732	-23.04
258.948	9.73
259.165	32.26
259.381	19.97
259.597	19.97
259.814	40.45
260.03	9.73
260.246	103.93
260.463	-0.51
260.679	22.02
260.895	46.59
261.112	-25.09
261.328	-4.61
261.544	22.02
261.761	71.17
261.977	17.92
262.193	-2.56
262.409	71.17
262.626	22.02
262.842	67.07
263.058	60.93
263.274	-27.14
263.49	3.58
263.707	22.02
263.923	13.82
264.139	-8.7
264.355	1.54
264.571	42.5
264.787	-29.18
265.004	103.93
265.22	-20.99
265.436	17.92
265.652	46.59
265.868	-0.51
266.084	15.87
266.3	24.06
266.516	-29.18
266.732	-16.9
266.948	-18.94
267.164	38.4
267.38	85.5
267.596	42.5
267.812	67.07
268.028	42.5
268.244	19.97
268.46	65.02
268.676	-16.9
268.892	73.21
269.108	-14.85
269.324	50.69
269.54	38.4
269.756	44.54
269.972	26.11
270.188	9.73
270.403	34.3
270.619	-6.66
270.835	30.21
271.051	5.63
271.267	11.78
271.483	-10.75
271.698	60.93
271.914	-47.62
272.13	30.21
272.346	-18.94
272.562	-31.23
272.777	-6.66
272.993	3.58
273.209	48.64
273.425	-10.75
273.64	-29.18
273.856	50.69
274.072	-0.51
274.287	54.78
274.503	3.58
274.719	52.74
274.934	7.68
275.15	11.78
275.366	5.63
275.581	48.64
275.797	46.59
276.012	38.4
276.228	-27.14
276.444	36.35
276.659	56.83
276.875	-55.81
277.09	58.88
277.306	19.97
277.521	15.87
277.737	32.26
277.952	67.07
278.168	3.58
278.383	36.35
278.599	17.92
278.814	13.82
279.03	9.73
279.245	54.78
279.461	108.03
279.676	5.63
279.892	11.78
280.107	36.35
280.322	13.82
280.538	44.54
280.753	13.82
280.969	46.59
281.184	58.88
281.399	34.3
281.615	-14.85
281.83	42.5
282.045	28.16
282.26	-10.75
282.476	17.92
282.691	62.98
282.906	60.93
283.122	56.83
283.337	-14.85
283.552	-0.51
283.767	-10.75
283.983	71.17
284.198	69.12
284.413	5.63
284.628	-31.23
284.843	-20.99
285.058	77.31
285.274	36.35
285.489	34.3
285.704	97.79
285.919	40.45
286.134	-4.61
286.349	44.54
286.564	36.35
286.779	1.54
286.995	28.16
287.21	-43.52
287.425	15.87
287.64	-4.61
287.855	7.68
288.07	-29.18
288.285	11.78
288.5	79.36
288.715	32.26
288.93	-27.14
289.145	-2.56
289.36	58.88
289.575	26.11
289.79	101.89
290.004	65.02
290.219	22.02
290.434	91.65
290.649	65.02
290.864	5.63
291.079	71.17
291.294	17.92
291.509	-12.8
291.724	26.11
291.938	62.98
292.153	-23.04
292.368	17.92
292.583	-18.94
292.798	28.16
293.012	30.21
293.227	-23.04
293.442	91.65
293.657	62.98
293.871	30.21
294.086	-35.33
294.301	69.12
294.516	87.55
294.73	58.88
294.945	-29.18
295.16	1.54
295.374	71.17
295.589	58.88
295.804	-6.66
296.018	-4.61
296.233	44.54
296.447	26.11
296.662	-12.8
296.877	15.87
297.091	3.58
297.306	42.5
297.52	-35.33
297.735	19.97
297.949	34.3
298.164	-72.19
298.378	38.4
298.593	69.12
298.807	-12.8
299.022	13.82
299.236	5.63
299.451	75.26
299.665	85.5
299.88	17.92
300.094	69.12
300.309	71.17
300.523	79.36
300.737	-8.7
300.952	-8.7
301.166	-4.61
301.381	22.02
301.595	52.74
301.809	34.3
302.024	-8.7
302.238	60.93
302.452	28.16
302.667	-4.61
302.881	-39.42
303.095	-33.28
303.309	38.4
303.524	81.41
303.738	-25.09
303.952	-4.61
304.166	65.02
304.381	-61.95
304.595	52.74
304.809	60.93
305.023	-2.56
305.237	1.54
305.452	-12.8
305.666	58.88
305.88	30.21
306.094	-16.9
306.308	22.02
306.522	77.31
306.736	-20.99
306.95	22.02
307.164	67.07
307.379	38.4
307.593	87.55
307.807	58.88
308.021	5.63
308.235	79.36
308.449	-10.75
308.663	67.07
308.877	17.92
309.091	13.82
309.305	60.93
309.519	52.74
309.733	19.97
309.947	58.88
310.161	71.17
310.374	85.5
310.588	-8.7
310.802	1.54
311.016	-0.51
311.23	103.93
311.444	32.26
311.658	50.69
311.872	22.02
312.085	75.26
312.299	101.89
312.513	77.31
312.727	-37.38
312.941	26.11
313.154	95.74
313.368	-33.28
313.582	62.98
313.796	46.59
314.009	-23.04
314.223	40.45
314.437	67.07
314.651	50.69
314.864	28.16
315.078	5.63
315.292	71.17
315.505	5.63
315.719	1.54
315.933	-10.75
316.146	83.45
316.36	48.64
316.573	38.4
316.787	17.92
317.001	17.92
317.214	54.78
317.428	-2.56
317.641	32.26
317.855	-2.56
318.068	81.41
318.282	34.3
318.495	60.93
318.709	89.6
318.922	-29.18
319.136	15.87
319.349	93.69
319.563	60.93
319.776	-20.99
319.99	3.58
320.203	71.17
320.417	-23.04
320.63	83.45
320.843	62.98
321.057	34.3
321.27	22.02
321.483	83.45
321.697	69.12
321.91	9.73
322.124	40.45
322.337	67.07
322.55	75.26
322.763	60.93
322.977	40.45
323.19	85.5
323.403	-31.23
323.617	22.02
323.83	24.06
324.043	-23.04
324.256	44.54
324.469	9.73
324.683	60.93
324.896	58.88
325.109	60.93
325.322	-14.85
325.535	-12.8
325.748	34.3
325.962	-10.75
326.175	36.35
326.388	-2.56
326.601	-4.61
326.814	44.54
327.027	48.64
327.24	40.45
327.453	28.16
327.666	-10.75
327.879	60.93
328.092	30.21
328.305	-12.8
328.518	22.02
328.731	77.31
328.944	95.74
329.157	28.16
329.37	28.16
329.583	54.78
329.796	36.35
330.009	15.87
330.222	42.5
330.435	26.11
330.648	44.54
330.861	-18.94
331.073	42.5
331.286	9.73
331.499	34.3
331.712	136.7
331.925	-45.57
332.138	26.11
332.35	54.78
332.563	-27.14
332.776	71.17
332.989	54.78
333.202	60.93
333.414	5.63
333.627	105.98
333.84	-2.56
334.053	17.92
334.265	22.02
334.478	60.93
334.691	24.06
334.903	-0.51
335.116	38.4
335.329	46.59
335.541	95.74
335.754	36.35
335.966	1.54
336.179	-20.99
336.392	48.64
336.604	93.69
336.817	-0.51
337.029	48.64
337.242	7.68
337.454	52.74
337.667	-8.7
337.88	44.54
338.092	40.45
338.305	58.88
338.517	1.54
338.729	132.61
338.942	77.31
339.154	34.3
339.367	-39.42
339.579	7.68
339.792	11.78
340.004	71.17
340.217	93.69
340.429	9.73
340.641	-10.75
340.854	26.11
341.066	56.83
341.278	99.84
341.491	73.21
341.703	-53.76
341.915	3.58
342.128	36.35
342.34	44.54
342.552	50.69
342.764	40.45
342.977	19.97
343.189	28.16
343.401	-10.75
343.613	-68.09
343.826	54.78
344.038	34.3
344.25	9.73
344.462	-14.85
344.674	110.08
344.886	60.93
345.099	44.54
345.311	13.82
345.523	28.16
345.735	-14.85
345.947	30.21
346.159	87.55
346.371	-12.8
346.583	50.69
346.795	79.36
347.007	112.13
347.219	65.02
347.431	28.16
347.643	52.74
347.855	-4.61
348.067	60.93
348.279	-31.23
348.491	50.69
348.703	85.5
348.915	-31.23
349.127	-18.94
349.339	48.64
349.551	-53.76
349.763	136.7
349.975	32.26
350.187	112.13
350.399	-29.18
350.61	89.6
350.822	85.5
351.034	85.5
351.246	-14.85
351.458	65.02
351.669	54.78
351.881	32.26
352.093	54.78
352.305	91.65
352.517	-6.66
352.728	67.07
352.94	62.98
353.152	22.02
353.363	32.26
353.575	40.45
353.787	-2.56
353.999	58.88
354.21	71.17
354.422	-14.85
354.633	-39.42
354.845	58.88
355.057	-37.38
355.268	110.08
355.48	91.65
355.692	13.82
355.903	11.78
356.115	-10.75
356.326	9.73
356.538	54.78
356.749	-2.56
356.961	81.41
357.172	75.26
357.384	13.82
357.595	28.16
357.807	120.32
358.018	19.97
358.23	22.02
358.441	71.17
358.653	69.12
358.864	110.08
359.075	77.31
359.287	69.12
359.498	28.16
359.709	3.58
359.921	40.45
360.132	54.78
360.344	38.4
360.555	62.98
360.766	17.92
360.977	46.59
361.189	5.63
361.4	36.35
361.611	73.21
361.823	22.02
362.034	-8.7
362.245	32.26
362.456	69.12
362.667	28.16
362.879	13.82
363.09	5.63
363.301	46.59
363.512	38.4
363.723	36.35
363.935	13.82
364.146	42.5
364.357	1.54
364.568	73.21
364.779	95.74
364.99	108.03
365.201	30.21
365.412	91.65
365.623	-2.56
365.834	58.88
366.045	-39.42
366.256	87.55
366.467	22.02
366.678	103.93
366.889	24.06
367.1	48.64
367.311	-59.9
367.522	56.83
367.733	-57.86
367.944	89.6
368.155	11.78
368.366	1.54
368.577	71.17
368.788	83.45
368.999	77.31
369.209	13.82
369.42	97.79
369.631	97.79
369.842	22.02
370.053	42.5
370.264	77.31
370.474	-2.56
370.685	157.18
370.896	26.11
371.107	95.74
371.317	110.08
371.528	-6.66
371.739	79.36
371.95	15.87
372.16	62.98
372.371	42.5
372.582	62.98
372.792	62.98
373.003	44.54
373.214	46.59
373.424	177.66
373.635	126.46
373.846	54.78
374.056	85.5
374.267	99.84
374.477	17.92
374.688	-8.7
374.898	56.83
375.109	101.89
375.319	71.17
375.53	112.13
375.74	13.82
375.951	75.26
376.161	38.4
376.372	17.92
376.582	28.16
376.793	81.41
377.003	13.82
377.214	50.69
377.424	-2.56
377.635	40.45
377.845	34.3
378.055	17.92
378.266	48.64
378.476	87.55
378.686	-8.7
378.897	9.73
379.107	103.93
379.317	30.21
379.528	56.83
379.738	42.5
379.948	26.11
380.158	91.65
380.369	52.74
380.579	83.45
380.789	85.5
380.999	3.58
381.21	13.82
381.42	132.61
381.63	126.46
381.84	108.03
382.05	120.32
382.261	91.65
382.471	83.45
382.681	46.59
382.891	-20.99
383.101	85.5
383.311	5.63
383.521	71.17
383.731	36.35
383.941	67.07
384.151	128.51
384.361	71.17
384.571	15.87
384.781	-18.94
384.991	44.54
385.201	71.17
385.411	87.55
385.621	136.7
385.831	30.21
386.041	101.89
386.251	67.07
386.461	83.45
386.671	48.64
386.881	46.59
387.091	116.22
387.301	62.98
387.511	26.11
387.72	36.35
387.93	114.17
388.14	-2.56
388.35	58.88
388.56	56.83
388.769	105.98
388.979	103.93
389.189	-2.56
389.399	71.17
389.609	32.26
389.818	30.21
390.028	58.88
390.238	38.4
390.447	30.21
390.657	60.93
390.867	54.78
391.076	46.59
391.286	73.21
391.496	128.51
391.705	65.02
391.915	87.55
392.125	126.46
392.334	105.98
392.544	58.88
392.753	58.88
392.963	48.64
393.172	85.5
393.382	91.65
393.591	136.7
393.801	108.03
394.01	85.5
394.22	81.41
394.429	75.26
394.639	132.61
394.848	144.89
395.058	120.32
395.267	126.46
395.477	120.32
395.686	67.07
395.895	56.83
396.105	161.28
396.314	97.79
396.524	85.5
396.733	1.54
396.942	122.37
397.152	122.37
397.361	136.7
397.57	136.7
397.78	110.08
397.989	175.61
398.198	93.69
398.407	132.61
398.617	122.37
398.826	122.37
399.035	122.37
399.244	165.37
399.453	103.93
399.663	99.84
399.872	167.42
400.081	108.03
400.29	148.99
400.499	67.07
400.708	177.66
400.917	93.69
401.127	60.93
401.336	83.45
401.545	165.37
401.754	144.89
401.963	128.51
402.172	95.74
402.381	112.13
402.59	144.89
402.799	132.61
403.008	202.24
403.217	140.8
403.426	153.09
403.635	77.31
403.844	99.84
404.053	202.24
404.262	183.81
404.471	212.48
404.68	97.79
404.888	136.7
405.097	140.8
405.306	247.29
405.515	116.22
405.724	212.48
405.933	163.33
406.142	212.48
406.35	292.35
406.559	171.52
406.768	204.28
406.977	247.29
407.185	202.24
407.394	171.52
407.603	230.91
407.812	216.57
408.02	275.96
408.229	232.96
408.438	314.88
408.646	220.67
408.855	202.24
409.064	271.87
409.272	257.53
409.481	286.2
409.69	386.55
409.898	333.31
410.107	341.5
410.315	390.65
410.524	325.12
410.733	435.71
410.941	380.41
411.15	423.42
411.358	404.99
411.567	517.62
411.775	398.84
411.984	464.38
412.192	495.1
412.401	429.56
412.609	562.68
412.818	550.39
413.026	521.72
413.234	560.63
413.443	585.21
413.651	624.12
413.86	620.02
414.068	689.65
414.276	654.84
414.485	693.75
414.693	736.76
414.901	779.76
415.11	816.63
415.318	765.43
415.526	779.76
415.734	845.3
415.943	894.45
416.151	984.56
416.359	982.51
416.567	912.88
416.776	947.7
416.984	998.9
417.192	1127.92
417.4	1127.92
417.608	1123.82
417.817	1113.58
418.025	1187.31
418.233	1256.94
418.441	1197.55
418.649	1414.63
418.857	1435.11
419.065	1521.13
419.273	1412.59
419.481	1517.03
419.689	1572.33
419.897	1676.77
420.105	1672.68
420.313	1717.73
420.521	1756.65
420.729	1904.1
420.937	1895.91
421.145	1932.77
421.353	2053.6
421.561	2110.94
421.769	2127.33
421.977	2307.55
422.185	2301.4
422.393	2422.24
422.601	2643.42
422.809	2563.54
423.017	2661.85
423.224	2758.1
423.432	2813.4
423.64	2975.19
423.848	3098.06
424.056	3034.58
424.263	3200.46
424.471	3282.38
424.679	3429.84
424.887	3573.19
425.094	3481.03
425.302	3638.73
425.51	3743.17
425.718	3898.82
425.925	4036.03
426.133	4031.94
426.341	4326.85
426.548	4498.88
426.756	4582.84
426.964	4525.5
427.171	4652.47
427.379	4951.48
427.586	5002.68
427.794	5213.62
428.001	5477.8
428.209	5629.35
428.417	5539.24
428.624	5928.36
428.832	5981.6
429.039	5924.26
429.247	5866.92
429.454	6430.11
429.662	6847.9
429.869	6446.49
430.076	6919.57
430.284	6645.15
430.491	6946.2
430.699	7372.18
430.906	7333.26
431.114	7503.25
431.321	7765.39
431.528	7921.03
431.736	8537.47
431.943	8840.57
432.15	8564.09
432.358	8725.88
432.565	9160.05
432.772	9260.4
432.979	9579.89
433.187	9749.87
433.394	9956.71
433.601	10446.18
433.808	10583.39
434.016	10507.62
434.223	10712.41
434.43	11574.61
434.637	11253.08
434.844	11742.54
435.052	12223.81
435.259	12203.33
435.466	12485.95
435.673	12191.05
435.88	12897.6
436.087	13616.43
436.294	13487.41
436.501	13321.52
436.708	13630.77
436.915	14089.51
437.122	14617.89
437.329	14529.83
437.537	15076.63
437.743	15316.25
437.95	15209.75
438.157	16119.05
438.364	16614.66
438.571	16325.89
438.778	16506.12
438.985	18377.96
439.192	17480.95
439.399	18115.82
439.606	17630.45
439.813	18595.04
440.02	19707.09
440.227	19367.13
440.433	19096.8
440.64	19836.11
440.847	19567.83
441.054	20339.91
441.261	21302.46
441.467	21091.52
441.674	21492.92
441.881	22564.01
442.088	22234.28
442.294	21912.75
442.501	22863.01
442.708	23186.59
442.914	23895.19
443.121	25037.95
443.328	24611.98
443.534	26309.74
443.741	25615.48
443.948	25130.11
444.154	27188.32
444.361	26969.19
444.568	27155.55
444.774	27165.79
444.981	26934.37
445.187	27794.52
445.394	29510.72
445.6	28861.51
445.807	31826.97
446.013	30426.16
446.22	31040.55
446.426	31759.39
446.633	32363.54
446.839	33522.69
447.046	31919.13
447.252	33895.42
447.459	34081.78
447.665	33790.97
447.871	34739.18
448.078	36561.87
448.284	34585.58
448.491	35705.82
448.697	37258.18
448.903	37919.68
449.11	38026.17
449.316	37313.48
449.522	37952.44
449.728	39050.16
449.935	39117.74
450.141	39230.38
450.347	40221.59
450.553	38964.14
450.76	39879.58
450.966	40747.92
451.172	40289.18
451.378	41276.3
451.584	40260.51
451.791	41259.91
451.997	41167.76
452.203	41563.01
452.409	41796.48
452.615	41683.84
452.821	40197.02
453.027	39543.72
453.233	41778.05
453.44	40113.05
453.646	40653.72
453.852	40489.88
454.058	41753.47
454.264	39828.38
454.47	40967.05
454.676	39934.88
454.882	41274.25
455.088	37678.02
455.294	38202.3
455.5	39056.3
455.705	39383.98
455.911	37600.19
456.117	36862.93
456.323	36289.49
456.529	34702.32
456.735	36031.45
456.941	34991.08
457.147	34503.67
457.352	33735.68
457.558	33041.42
457.764	33170.44
457.97	32543.76
458.176	32132.12
458.381	31542.3
458.587	30311.47
458.793	30374.96
458.999	28965.96
459.204	30954.54
459.41	29758.52
459.616	27991.12
459.821	27935.83
460.027	27935.83
460.233	26971.24
460.438	26086.51
460.644	26125.43
460.85	24886.4
461.055	24767.62
461.261	24863.88
461.466	22768.8
461.672	22420.65
461.878	23798.93
462.083	22052.02
462.289	22074.54
462.494	21535.93
462.7	20786.37
462.905	20065.49
463.111	20636.87
463.316	20536.52
463.522	20573.38
463.727	20364.49
463.932	20243.66
464.138	20284.62
464.343	20233.42
464.549	19719.38
464.754	20270.28
464.959	19961.04
465.165	20051.15
465.37	19311.83
465.575	18558.18
465.781	19535.06
465.986	19295.45
466.191	18834.66
466.397	18570.47
466.602	17394.93
466.807	18042.09
467.012	18144.49
467.218	17919.21
467.423	17839.34
