Data from USB4F104151__13__11-36-25-888.txt Node

Date: Fri Mar 14 11:36:25 EDT 2025
User: louis
Spectrometer: USB4F10415
Trigger mode: 4
Integration Time (sec): 2.000000E-2
Scans to average: 1
Electric dark correction enabled: true
Nonlinearity correction enabled: false
Boxcar width: 0
XAxis mode: Wavelengths
Number of Pixels in Spectrum: 3648
>>>>>Begin Spectral Data<<<<<
178.204	-58.71
178.424	-58.71
178.644	-58.71
178.864	-89.43
179.084	-48.47
179.304	35.5
179.524	-17.75
179.744	12.97
179.964	47.79
180.184	70.31
180.404	8.87
180.624	-44.37
180.844	-27.99
181.064	-7.51
181.283	-5.46
181.503	-85.33
181.723	12.97
181.943	-58.71
182.163	23.21
182.383	21.16
182.602	27.31
182.822	-27.99
183.042	37.55
183.262	-64.85
183.482	64.17
183.701	-5.46
183.921	33.45
184.141	10.92
184.361	-9.56
184.58	-1.37
184.8	10.92
185.02	-19.8
185.239	4.78
185.459	-11.61
185.679	-25.94
185.898	2.73
186.118	33.45
186.338	-5.46
186.557	39.59
186.777	31.4
186.997	-36.18
187.216	-9.56
187.436	49.83
187.655	68.27
187.875	25.26
188.095	-58.71
188.314	66.22
188.534	-1.37
188.753	8.87
188.973	0.68
189.192	17.07
189.412	-11.61
189.631	43.69
189.851	-17.75
190.07	33.45
190.29	-5.46
190.509	-83.28
190.729	19.11
190.948	74.41
191.168	-9.56
191.387	80.55
191.607	-34.13
191.826	-11.61
192.045	31.4
192.265	-13.65
192.484	10.92
192.704	35.5
192.923	35.5
193.142	17.07
193.362	19.11
193.581	-19.8
193.8	19.11
194.02	-15.7
194.239	-68.95
194.458	-30.04
194.678	35.5
194.897	-32.08
195.116	-71
195.335	53.93
195.555	-9.56
195.774	15.02
195.993	55.98
196.212	27.31
196.432	-1.37
196.651	-1.37
196.87	-25.94
197.089	103.08
197.308	43.69
197.528	43.69
197.747	-17.75
197.966	49.83
198.185	119.46
198.404	21.16
198.623	-5.46
198.842	15.02
199.062	27.31
199.281	19.11
199.5	-5.46
199.719	15.02
199.938	39.59
200.157	47.79
200.376	-5.46
200.595	43.69
200.814	39.59
201.033	10.92
201.252	70.31
201.471	43.69
201.69	66.22
201.909	47.79
202.128	-25.94
202.347	12.97
202.566	-50.52
202.785	-7.51
203.004	37.55
203.223	72.36
203.442	33.45
203.661	37.55
203.879	-17.75
204.098	31.4
204.317	-38.23
204.536	53.93
204.755	-30.04
204.974	12.97
205.193	27.31
205.411	-19.8
205.63	76.46
205.849	37.55
206.068	47.79
206.287	-15.7
206.505	-40.28
206.724	55.98
206.943	-50.52
207.162	51.88
207.381	-15.7
207.599	6.83
207.818	-38.23
208.037	-27.99
208.255	23.21
208.474	45.74
208.693	60.07
208.911	72.36
209.13	15.02
209.349	-13.65
209.567	-25.94
209.786	0.68
210.005	35.5
210.223	19.11
210.442	-27.99
210.661	-9.56
210.879	-3.41
211.098	-9.56
211.316	-34.13
211.535	-3.41
211.753	-17.75
211.972	27.31
212.191	60.07
212.409	-17.75
212.628	0.68
212.846	-25.94
213.065	41.64
213.283	37.55
213.502	-48.47
213.72	45.74
213.938	60.07
214.157	43.69
214.375	17.07
214.594	-3.41
214.812	39.59
215.031	27.31
215.249	23.21
215.467	-42.32
215.686	10.92
215.904	2.73
216.122	-3.41
216.341	-9.56
216.559	-5.46
216.778	64.17
216.996	25.26
217.214	-15.7
217.432	-25.94
217.651	53.93
217.869	10.92
218.087	2.73
218.306	94.89
218.524	25.26
218.742	39.59
218.96	41.64
219.179	45.74
219.397	60.07
219.615	76.46
219.833	47.79
220.051	-9.56
220.27	43.69
220.488	27.31
220.706	4.78
220.924	-30.04
221.142	-19.8
221.36	39.59
221.578	-9.56
221.796	27.31
222.015	15.02
222.233	23.21
222.451	72.36
222.669	-42.32
222.887	21.16
223.105	-64.85
223.323	0.68
223.541	72.36
223.759	-38.23
223.977	31.4
224.195	6.83
224.413	47.79
224.631	10.92
224.849	47.79
225.067	72.36
225.285	-75.09
225.503	-3.41
225.721	-21.84
225.939	-13.65
226.157	2.73
226.375	150.18
226.592	35.5
226.81	21.16
227.028	19.11
227.246	2.73
227.464	19.11
227.682	-3.41
227.9	-34.13
228.117	53.93
228.335	31.4
228.553	53.93
228.771	111.27
228.989	-1.37
229.206	43.69
229.424	-34.13
229.642	4.78
229.86	-9.56
230.077	55.98
230.295	-9.56
230.513	-19.8
230.731	49.83
230.948	21.16
231.166	98.99
231.384	-3.41
231.601	-25.94
231.819	37.55
232.037	49.83
232.254	-42.32
232.472	-34.13
232.689	-3.41
232.907	2.73
233.125	2.73
233.342	27.31
233.56	33.45
233.777	2.73
233.995	45.74
234.213	78.51
234.43	35.5
234.648	10.92
234.865	-5.46
235.083	72.36
235.3	27.31
235.518	-34.13
235.735	21.16
235.953	15.02
236.17	47.79
236.388	-91.48
236.605	127.66
236.822	19.11
237.04	19.11
237.257	-34.13
237.475	-60.76
237.692	-46.42
237.909	-5.46
238.127	-44.37
238.344	-5.46
238.562	10.92
238.779	2.73
238.996	62.12
239.214	-3.41
239.431	39.59
239.648	6.83
239.865	53.93
240.083	45.74
240.3	43.69
240.517	37.55
240.735	47.79
240.952	-32.08
241.169	39.59
241.386	-1.37
241.603	45.74
241.821	45.74
242.038	-19.8
242.255	55.98
242.472	6.83
242.689	43.69
242.907	55.98
243.124	-3.41
243.341	62.12
243.558	15.02
243.775	39.59
243.992	-30.04
244.209	6.83
244.426	53.93
244.643	-17.75
244.86	76.46
245.078	37.55
245.295	27.31
245.512	37.55
245.729	10.92
245.946	115.37
246.163	47.79
246.38	21.16
246.597	21.16
246.814	72.36
247.031	6.83
247.248	51.88
247.464	-5.46
247.681	8.87
247.898	0.68
248.115	53.93
248.332	-38.23
248.549	49.83
248.766	51.88
248.983	-34.13
249.2	31.4
249.417	45.74
249.633	-40.28
249.85	-23.89
250.067	-1.37
250.284	-17.75
250.501	-50.52
250.717	64.17
250.934	-46.42
251.151	19.11
251.368	49.83
251.585	-7.51
251.801	19.11
252.018	21.16
252.235	8.87
252.451	-19.8
252.668	-34.13
252.885	76.46
253.102	-27.99
253.318	-60.76
253.535	-50.52
253.752	6.83
253.968	15.02
254.185	27.31
254.401	4.78
254.618	-75.09
254.835	-13.65
255.051	78.51
255.268	-23.89
255.484	25.26
255.701	45.74
255.917	101.03
256.134	8.87
256.351	49.83
256.567	8.87
256.784	10.92
257	25.26
257.217	58.03
257.433	68.27
257.65	19.11
257.866	41.64
258.082	10.92
258.299	37.55
258.515	49.83
258.732	-5.46
258.948	0.68
259.165	55.98
259.381	-17.75
259.597	19.11
259.814	-17.75
260.03	12.97
260.246	41.64
260.463	-25.94
260.679	-15.7
260.895	21.16
261.112	70.31
261.328	86.7
261.544	10.92
261.761	27.31
261.977	31.4
262.193	2.73
262.409	49.83
262.626	47.79
262.842	45.74
263.058	-75.09
263.274	21.16
263.49	-11.61
263.707	-3.41
263.923	39.59
264.139	4.78
264.355	31.4
264.571	70.31
264.787	15.02
265.004	15.02
265.22	23.21
265.436	53.93
265.652	6.83
265.868	27.31
266.084	35.5
266.3	25.26
266.516	27.31
266.732	84.65
266.948	23.21
267.164	51.88
267.38	39.59
267.596	53.93
267.812	-25.94
268.028	2.73
268.244	4.78
268.46	33.45
268.676	62.12
268.892	-34.13
269.108	45.74
269.324	-32.08
269.54	92.84
269.756	39.59
269.972	-11.61
270.188	-1.37
270.403	-3.41
270.619	27.31
270.835	-7.51
271.051	-13.65
271.267	-3.41
271.483	-3.41
271.698	68.27
271.914	60.07
272.13	90.79
272.346	47.79
272.562	21.16
272.777	-11.61
272.993	-11.61
273.209	72.36
273.425	-42.32
273.64	15.02
273.856	82.6
274.072	-46.42
274.287	-15.7
274.503	10.92
274.719	-58.71
274.934	19.11
275.15	94.89
275.366	10.92
275.581	86.7
275.797	53.93
276.012	2.73
276.228	60.07
276.444	45.74
276.659	-21.84
276.875	8.87
277.09	66.22
277.306	-1.37
277.521	51.88
277.737	-89.43
277.952	58.03
278.168	-42.32
278.383	98.99
278.599	23.21
278.814	35.5
279.03	-1.37
279.245	-46.42
279.461	49.83
279.676	-11.61
279.892	31.4
280.107	-1.37
280.322	-13.65
280.538	-25.94
280.753	43.69
280.969	33.45
281.184	53.93
281.399	33.45
281.615	19.11
281.83	55.98
282.045	10.92
282.26	82.6
282.476	80.55
282.691	19.11
282.906	-1.37
283.122	15.02
283.337	84.65
283.552	35.5
283.767	47.79
283.983	4.78
284.198	-21.84
284.413	-1.37
284.628	39.59
284.843	-62.8
285.058	78.51
285.274	62.12
285.489	19.11
285.704	47.79
285.919	-1.37
286.134	-13.65
286.349	-50.52
286.564	72.36
286.779	-48.47
286.995	35.5
287.21	-11.61
287.425	15.02
287.64	12.97
287.855	-11.61
288.07	0.68
288.285	17.07
288.5	23.21
288.715	60.07
288.93	-48.47
289.145	-42.32
289.36	41.64
289.575	-11.61
289.79	70.31
290.004	55.98
290.219	27.31
290.434	27.31
290.649	10.92
290.864	29.35
291.079	-1.37
291.294	0.68
291.509	-38.23
291.724	15.02
291.938	23.21
292.153	10.92
292.368	51.88
292.583	8.87
292.798	-27.99
293.012	37.55
293.227	25.26
293.442	31.4
293.657	62.12
293.871	35.5
294.086	-15.7
294.301	27.31
294.516	-38.23
294.73	8.87
294.945	15.02
295.16	47.79
295.374	51.88
295.589	39.59
295.804	2.73
296.018	4.78
296.233	33.45
296.447	25.26
296.662	-40.28
296.877	55.98
297.091	-50.52
297.306	88.75
297.52	49.83
297.735	23.21
297.949	23.21
298.164	-32.08
298.378	23.21
298.593	25.26
298.807	-17.75
299.022	96.94
299.236	12.97
299.451	-11.61
299.665	43.69
299.88	29.35
300.094	-11.61
300.309	68.27
300.523	-1.37
300.737	-17.75
300.952	6.83
301.166	15.02
301.381	-42.32
301.595	6.83
301.809	53.93
302.024	19.11
302.238	43.69
302.452	37.55
302.667	29.35
302.881	39.59
303.095	21.16
303.309	6.83
303.524	31.4
303.738	4.78
303.952	35.5
304.166	35.5
304.381	84.65
304.595	15.02
304.809	25.26
305.023	39.59
305.237	-23.89
305.452	23.21
305.666	4.78
305.88	-17.75
306.094	68.27
306.308	-9.56
306.522	25.26
306.736	-27.99
306.95	37.55
307.164	55.98
307.379	-15.7
307.593	-32.08
307.807	37.55
308.021	2.73
308.235	0.68
308.449	39.59
308.663	25.26
308.877	-1.37
309.091	12.97
309.305	47.79
309.519	47.79
309.733	62.12
309.947	-50.52
310.161	-5.46
310.374	39.59
310.588	115.37
310.802	33.45
311.016	-7.51
311.23	-32.08
311.444	-9.56
311.658	21.16
311.872	47.79
312.085	55.98
312.299	45.74
312.513	60.07
312.727	51.88
312.941	-17.75
313.154	55.98
313.368	-54.61
313.582	49.83
313.796	-3.41
314.009	51.88
314.223	51.88
314.437	51.88
314.651	31.4
314.864	12.97
315.078	29.35
315.292	-15.7
315.505	-30.04
315.719	62.12
315.933	-17.75
316.146	51.88
316.36	55.98
316.573	60.07
316.787	-19.8
317.001	-17.75
317.214	76.46
317.428	111.27
317.641	70.31
317.855	-1.37
318.068	74.41
318.282	21.16
318.495	41.64
318.709	70.31
318.922	15.02
319.136	107.18
319.349	96.94
319.563	55.98
319.776	10.92
319.99	-7.51
320.203	-9.56
320.417	51.88
320.63	15.02
320.843	133.8
321.057	2.73
321.27	80.55
321.483	-23.89
321.697	60.07
321.91	-13.65
322.124	60.07
322.337	-23.89
322.55	72.36
322.763	12.97
322.977	-7.51
323.19	37.55
323.403	-21.84
323.617	35.5
323.83	31.4
324.043	31.4
324.256	19.11
324.469	10.92
324.683	10.92
324.896	62.12
325.109	-17.75
325.322	27.31
325.535	-5.46
325.748	51.88
325.962	70.31
326.175	6.83
326.388	55.98
326.601	27.31
326.814	39.59
327.027	62.12
327.24	31.4
327.453	2.73
327.666	70.31
327.879	72.36
328.092	17.07
328.305	-23.89
328.518	-40.28
328.731	-83.28
328.944	-23.89
329.157	-23.89
329.37	12.97
329.583	-1.37
329.796	23.21
330.009	-17.75
330.222	37.55
330.435	62.12
330.648	35.5
330.861	60.07
331.073	12.97
331.286	-25.94
331.499	-38.23
331.712	-7.51
331.925	49.83
332.138	66.22
332.35	15.02
332.563	31.4
332.776	12.97
332.989	-5.46
333.202	-1.37
333.414	43.69
333.627	21.16
333.84	-25.94
334.053	49.83
334.265	70.31
334.478	58.03
334.691	-52.56
334.903	80.55
335.116	6.83
335.329	45.74
335.541	86.7
335.754	17.07
335.966	-1.37
336.179	8.87
336.392	-9.56
336.604	64.17
336.817	23.21
337.029	49.83
337.242	8.87
337.454	-1.37
337.667	64.17
337.88	-42.32
338.092	8.87
338.305	49.83
338.517	45.74
338.729	66.22
338.942	-11.61
339.154	23.21
339.367	35.5
339.579	51.88
339.792	76.46
340.004	27.31
340.217	23.21
340.429	78.51
340.641	-44.37
340.854	-9.56
341.066	-1.37
341.278	17.07
341.491	92.84
341.703	51.88
341.915	47.79
342.128	15.02
342.34	72.36
342.552	-13.65
342.764	6.83
342.977	98.99
343.189	10.92
343.401	21.16
343.613	17.07
343.826	68.27
344.038	-17.75
344.25	62.12
344.462	31.4
344.674	129.7
344.886	-15.7
345.099	64.17
345.311	-11.61
345.523	19.11
345.735	-5.46
345.947	55.98
346.159	19.11
346.371	68.27
346.583	10.92
346.795	90.79
347.007	15.02
347.219	10.92
347.431	-36.18
347.643	6.83
347.855	-40.28
348.067	45.74
348.279	-19.8
348.491	-15.7
348.703	-11.61
348.915	90.79
349.127	-38.23
349.339	66.22
349.551	15.02
349.763	43.69
349.975	96.94
350.187	39.59
350.399	15.02
350.61	37.55
350.822	-3.41
351.034	39.59
351.246	-30.04
351.458	-17.75
351.669	82.6
351.881	45.74
352.093	137.9
352.305	64.17
352.517	47.79
352.728	27.31
352.94	86.7
353.152	45.74
353.363	98.99
353.575	23.21
353.787	45.74
353.999	37.55
354.21	96.94
354.422	105.13
354.633	55.98
354.845	10.92
355.057	15.02
355.268	43.69
355.48	55.98
355.692	17.07
355.903	37.55
356.115	0.68
356.326	-17.75
356.538	51.88
356.749	23.21
356.961	51.88
357.172	-34.13
357.384	-15.7
357.595	156.33
357.807	-1.37
358.018	29.35
358.23	-68.95
358.441	68.27
358.653	35.5
358.864	-11.61
359.075	-30.04
359.287	-73.04
359.498	-7.51
359.709	-54.61
359.921	39.59
360.132	8.87
360.344	-32.08
360.555	4.78
360.766	109.23
360.977	43.69
361.189	47.79
361.4	-50.52
361.611	15.02
361.823	55.98
362.034	15.02
362.245	-105.81
362.456	70.31
362.667	27.31
362.879	37.55
363.09	51.88
363.301	0.68
363.512	-1.37
363.723	35.5
363.935	6.83
364.146	58.03
364.357	-25.94
364.568	41.64
364.779	-1.37
364.99	35.5
365.201	70.31
365.412	144.04
365.623	47.79
365.834	31.4
366.045	70.31
366.256	-32.08
366.467	88.75
366.678	-42.32
366.889	10.92
367.1	-1.37
367.311	78.51
367.522	152.23
367.733	84.65
367.944	55.98
368.155	-58.71
368.366	43.69
368.577	-25.94
368.788	68.27
368.999	12.97
369.209	-36.18
369.42	47.79
369.631	45.74
369.842	29.35
370.053	64.17
370.264	31.4
370.474	72.36
370.685	82.6
370.896	0.68
371.107	17.07
371.317	82.6
371.528	12.97
371.739	-19.8
371.95	37.55
372.16	86.7
372.371	27.31
372.582	60.07
372.792	19.11
373.003	17.07
373.214	72.36
373.424	76.46
373.635	17.07
373.846	74.41
374.056	37.55
374.267	10.92
374.477	84.65
374.688	29.35
374.898	35.5
375.109	117.42
375.319	-1.37
375.53	31.4
375.74	-3.41
375.951	21.16
376.161	53.93
376.372	23.21
376.582	92.84
376.793	-11.61
377.003	-27.99
377.214	105.13
377.424	-21.84
377.635	51.88
377.845	64.17
378.055	60.07
378.266	105.13
378.476	12.97
378.686	68.27
378.897	45.74
379.107	12.97
379.317	49.83
379.528	17.07
379.738	84.65
379.948	-5.46
380.158	103.08
380.369	53.93
380.579	72.36
380.789	27.31
380.999	-21.84
381.21	55.98
381.42	41.64
381.63	33.45
381.84	8.87
382.05	62.12
382.261	51.88
382.471	4.78
382.681	23.21
382.891	82.6
383.101	113.32
383.311	2.73
383.521	4.78
383.731	58.03
383.941	82.6
384.151	27.31
384.361	53.93
384.571	45.74
384.781	-7.51
384.991	72.36
385.201	15.02
385.411	33.45
385.621	45.74
385.831	60.07
386.041	88.75
386.251	6.83
386.461	101.03
386.671	37.55
386.881	47.79
387.091	51.88
387.301	15.02
387.511	94.89
387.72	-1.37
387.93	45.74
388.14	-1.37
388.35	-21.84
388.56	45.74
388.769	-19.8
388.979	29.35
389.189	23.21
389.399	-5.46
389.609	74.41
389.818	94.89
390.028	62.12
390.238	70.31
390.447	19.11
390.657	111.27
390.867	51.88
391.076	66.22
391.286	58.03
391.496	21.16
391.705	35.5
391.915	23.21
392.125	53.93
392.334	84.65
392.544	58.03
392.753	15.02
392.963	60.07
393.172	47.79
393.382	4.78
393.591	76.46
393.801	41.64
394.01	74.41
394.22	80.55
394.429	17.07
394.639	111.27
394.848	90.79
395.058	74.41
395.267	76.46
395.477	160.42
395.686	86.7
395.895	125.61
396.105	51.88
396.314	62.12
396.524	117.42
396.733	51.88
396.942	129.7
397.152	88.75
397.361	72.36
397.57	31.4
397.78	90.79
397.989	109.23
398.198	70.31
398.407	37.55
398.617	64.17
398.826	107.18
399.035	168.62
399.244	103.08
399.453	66.22
399.663	111.27
399.872	70.31
400.081	127.66
400.29	141.99
400.499	86.7
400.708	80.55
400.917	86.7
401.127	96.94
401.336	62.12
401.545	178.86
401.754	84.65
401.963	125.61
402.172	115.37
402.381	146.09
402.59	111.27
402.799	137.9
403.008	131.75
403.217	96.94
403.426	121.51
403.635	10.92
403.844	39.59
404.053	127.66
404.262	101.03
404.471	180.9
404.68	150.18
404.888	174.76
405.097	125.61
405.306	137.9
405.515	174.76
405.724	158.38
405.933	203.43
406.142	176.81
406.35	129.7
406.559	195.24
406.768	162.47
406.977	158.38
407.185	137.9
407.394	166.57
407.603	217.77
407.812	178.86
408.02	309.93
408.229	203.43
408.438	268.97
408.646	244.39
408.855	172.71
409.064	262.82
409.272	209.58
409.481	268.97
409.69	316.07
409.898	252.58
410.107	303.78
410.315	311.97
410.524	299.69
410.733	334.5
410.941	324.26
411.15	297.64
411.358	234.15
411.567	346.79
411.775	406.18
411.984	393.89
412.192	367.27
412.401	416.42
412.609	467.62
412.818	486.05
413.026	449.19
413.234	553.63
413.443	449.19
413.651	578.21
413.86	576.16
414.068	602.79
414.276	621.22
414.485	588.45
414.693	664.22
414.901	678.56
415.11	653.98
415.318	727.71
415.526	694.94
415.734	723.62
415.943	766.62
416.151	752.29
416.359	715.42
416.567	905.88
416.776	901.79
416.984	965.28
417.192	852.64
417.4	909.98
417.608	973.47
417.817	1047.19
418.025	1036.95
418.233	1168.02
418.441	1032.86
418.649	1063.58
418.857	1151.64
419.065	1317.53
419.273	1323.67
419.481	1260.18
419.689	1391.25
419.897	1440.4
420.105	1407.64
420.313	1561.23
420.521	1501.84
420.729	1600.15
420.937	1565.33
421.145	1663.63
421.353	1776.27
421.561	1741.46
421.769	1850
421.977	1993.36
422.185	1931.92
422.393	2120.33
422.601	2245.26
422.809	2179.72
423.017	2144.91
423.224	2304.65
423.432	2417.29
423.64	2462.34
423.848	2546.31
424.056	2525.83
424.263	2767.49
424.471	2798.21
424.679	2769.54
424.887	3011.2
425.094	3134.07
425.302	3084.92
425.51	3205.75
425.718	3236.47
425.925	3193.47
426.133	3527.28
426.341	3453.56
426.548	3783.28
426.756	3789.42
426.964	3922.54
427.171	4051.56
427.379	4215.4
427.586	4160.11
427.794	4344.42
428.001	4485.73
428.209	4684.39
428.417	4577.89
428.624	4950.62
428.832	4924
429.039	4964.96
429.247	5053.02
429.454	5421.66
429.662	5612.12
429.869	5388.89
430.076	5816.91
430.284	5689.94
430.491	5925.46
430.699	6210.12
430.906	5978.7
431.114	6437.45
431.321	6462.02
431.528	6541.89
431.736	7064.13
431.943	7281.21
432.15	7043.65
432.358	7283.26
432.565	7567.93
432.772	7617.08
432.979	8036.91
433.187	8077.87
433.394	8235.56
433.601	8825.38
433.808	8722.98
434.016	8856.1
434.223	9060.9
434.43	9540.12
434.637	9421.34
434.844	10113.55
435.052	10209.81
435.259	10148.37
435.466	10279.44
435.673	10271.25
435.88	10760.71
436.087	11344.38
436.294	11280.89
436.501	11342.33
436.708	11344.38
436.915	11778.55
437.122	12284.4
437.329	12216.82
437.537	12745.19
437.743	12919.27
437.95	12628.46
438.157	13652.44
438.364	13775.32
438.571	13863.38
438.778	14062.04
438.985	15395.26
439.192	14559.69
439.399	14854.6
439.606	14594.51
439.813	15518.14
440.02	16689.58
440.227	16341.43
440.433	16064.95
440.64	16724.4
440.847	16589.23
441.054	16877.99
441.261	18252.18
441.467	18065.81
441.674	18137.49
441.881	18766.22
442.088	18999.69
442.294	18719.12
442.501	19313.03
442.708	19272.07
442.914	20322.68
443.121	21068.14
443.328	20449.65
443.534	22190.42
443.741	21621.09
443.948	20951.4
444.154	22616.4
444.361	22651.22
444.568	22708.56
444.774	22577.49
444.981	23128.39
445.187	23828.8
445.394	24705.33
445.6	24060.22
445.807	26747.15
446.013	25262.38
446.22	26059.04
446.426	26726.67
446.633	27242.76
446.839	28094.72
447.046	26808.59
447.252	27949.31
447.459	28680.44
447.665	28256.51
447.871	29579.5
448.078	30785.75
448.284	29309.16
448.491	30083.3
448.697	31027.41
448.903	31662.28
449.11	32168.13
449.316	31563.98
449.522	31774.92
449.728	32923.83
449.935	33265.84
450.141	33007.79
450.347	33966.24
450.553	32948.4
450.76	33188.02
450.966	34187.43
451.172	33968.29
451.378	34805.91
451.584	34228.38
451.791	34648.22
451.997	34746.52
452.203	35301.52
452.409	35418.25
452.615	35176.59
452.821	33546.41
453.027	33394.86
453.233	35006.61
453.44	33896.61
453.646	34392.22
453.852	34498.72
454.058	34924.69
454.264	33931.43
454.47	34621.59
454.676	33503.4
454.882	35010.71
455.088	31654.09
455.294	32176.32
455.5	33056.95
455.705	33116.34
455.911	31649.99
456.117	31191.25
456.323	30642.39
456.529	29413.61
456.735	30273.76
456.941	29389.03
457.147	29378.79
457.352	28037.37
457.558	27930.88
457.764	28117.25
457.97	27191.56
458.176	26814.74
458.381	26771.73
458.587	25151.79
458.793	25448.74
458.999	24135.99
459.204	25846.05
459.41	25342.25
459.616	23652.67
459.821	23699.78
460.027	23462.21
460.233	22683.98
460.438	21643.62
460.644	22327.64
460.85	21072.23
461.055	20427.12
461.261	20646.26
461.466	18946.44
461.672	18829.71
461.878	19951.99
462.083	18698.64
462.289	18289.04
462.494	17908.12
462.7	17418.66
462.905	16732.59
463.111	17396.13
463.316	17523.1
463.522	17068.45
463.727	17189.28
463.932	16982.44
464.138	16650.67
464.343	16828.84
464.549	16460.21
464.754	17213.86
464.959	16785.83
465.165	16777.64
465.37	16122.29
465.575	15307.2
465.781	16181.68
465.986	16478.64
466.191	15737.27
466.397	15325.63
466.602	14701
466.807	15227.33
467.012	15268.29
467.218	14973.38
