Data from USB4F104151__14__11-36-26-406.txt Node

Date: Fri Mar 14 11:36:26 EDT 2025
User: louis
Spectrometer: USB4F10415
Trigger mode: 4
Integration Time (sec): 2.000000E-2
Scans to average: 1
Electric dark correction enabled: true
Nonlinearity correction enabled: false
Boxcar width: 0
XAxis mode: Wavelengths
Number of Pixels in Spectrum: 3648
>>>>>Begin Spectral Data<<<<<
178.204	-42.67
178.424	-42.67
178.644	-42.67
178.864	-40.62
179.084	-40.62
179.304	-20.14
179.524	18.77
179.744	-54.95
179.964	39.25
180.184	92.5
180.404	-26.28
180.624	2.39
180.844	2.39
181.064	-50.86
181.283	37.2
181.503	-20.14
181.723	-20.14
181.943	14.68
182.163	63.83
182.383	33.11
182.602	31.06
182.822	106.84
183.042	20.82
183.262	43.35
183.482	2.39
183.701	-3.75
183.921	0.34
184.141	94.55
184.361	82.26
184.58	65.88
184.8	55.64
185.02	61.78
185.239	26.96
185.459	14.68
185.679	-36.52
185.898	4.44
186.118	-3.75
186.338	47.44
186.557	51.54
186.777	-71.34
186.997	-26.28
187.216	33.11
187.436	26.96
187.655	53.59
187.875	125.27
188.095	35.16
188.314	39.25
188.534	12.63
188.753	-67.24
188.973	8.53
189.192	72.02
189.412	10.58
189.631	39.25
189.851	121.17
190.07	26.96
190.29	33.11
190.509	-1.71
190.729	-20.14
190.948	49.49
191.168	-3.75
191.387	51.54
191.607	59.73
191.826	18.77
192.045	6.49
192.265	-9.9
192.484	26.96
192.704	102.74
192.923	31.06
193.142	37.2
193.362	78.16
193.581	33.11
193.8	-50.86
194.02	-3.75
194.239	51.54
194.458	47.44
194.678	149.84
194.897	53.59
195.116	53.59
195.335	110.93
195.555	49.49
195.774	55.64
195.993	69.97
196.212	26.96
196.432	2.39
196.651	-11.95
196.87	6.49
197.089	55.64
197.308	67.92
197.528	20.82
197.747	-59.05
197.966	88.4
198.185	84.31
198.404	88.4
198.623	82.26
198.842	20.82
199.062	20.82
199.281	-7.85
199.5	104.79
199.719	12.63
199.938	55.64
200.157	37.2
200.376	63.83
200.595	72.02
200.814	53.59
201.033	29.01
201.252	22.87
201.471	-22.19
201.69	8.53
201.909	16.73
202.128	22.87
202.347	67.92
202.566	37.2
202.785	43.35
203.004	74.07
203.223	102.74
203.442	24.92
203.661	141.65
203.879	47.44
204.098	123.22
204.317	86.36
204.536	84.31
204.755	6.49
204.974	-13.99
205.193	18.77
205.411	78.16
205.63	-18.09
205.849	-5.8
206.068	18.77
206.287	14.68
206.505	26.96
206.724	-9.9
206.943	39.25
207.162	45.4
207.381	16.73
207.599	-18.09
207.818	-9.9
208.037	45.4
208.255	39.25
208.474	2.39
208.693	-13.99
208.911	51.54
209.13	18.77
209.349	-9.9
209.567	162.13
209.786	39.25
210.005	-18.09
210.223	29.01
210.442	94.55
210.661	47.44
210.879	-20.14
211.098	29.01
211.316	31.06
211.535	69.97
211.753	-7.85
211.972	14.68
212.191	43.35
212.409	102.74
212.628	74.07
212.846	-40.62
213.065	20.82
213.283	6.49
213.502	8.53
213.72	16.73
213.938	6.49
214.157	51.54
214.375	14.68
214.594	24.92
214.812	45.4
215.031	6.49
215.249	47.44
215.467	88.4
215.686	41.3
215.904	123.22
216.122	55.64
216.341	55.64
216.559	35.16
216.778	61.78
216.996	84.31
217.214	24.92
217.432	18.77
217.651	8.53
217.869	47.44
218.087	4.44
218.306	82.26
218.524	53.59
218.742	43.35
218.96	39.25
219.179	43.35
219.397	-69.29
219.615	88.4
219.833	90.45
220.051	35.16
220.27	22.87
220.488	31.06
220.706	24.92
220.924	41.3
221.142	59.73
221.36	12.63
221.578	67.92
221.796	47.44
222.015	59.73
222.233	59.73
222.451	88.4
222.669	-13.99
222.887	76.12
223.105	98.64
223.323	22.87
223.541	18.77
223.759	31.06
223.977	57.68
224.195	57.68
224.413	53.59
224.631	39.25
224.849	-5.8
225.067	110.93
225.285	29.01
225.503	63.83
225.721	14.68
225.939	80.21
226.157	31.06
226.375	-5.8
226.592	29.01
226.81	-24.23
227.028	78.16
227.246	12.63
227.464	6.49
227.682	31.06
227.9	6.49
228.117	4.44
228.335	55.64
228.553	49.49
228.771	49.49
228.989	63.83
229.206	-7.85
229.424	2.39
229.642	18.77
229.86	22.87
230.077	110.93
230.295	69.97
230.513	96.6
230.731	57.68
230.948	31.06
231.166	14.68
231.384	12.63
231.601	59.73
231.819	51.54
232.037	45.4
232.254	-50.86
232.472	39.25
232.689	-26.28
232.907	72.02
233.125	12.63
233.342	-83.63
233.56	-3.75
233.777	31.06
233.995	-34.47
234.213	125.27
234.43	6.49
234.648	43.35
234.865	20.82
235.083	-11.95
235.3	65.88
235.518	35.16
235.735	78.16
235.953	-42.67
236.17	65.88
236.388	82.26
236.605	51.54
236.822	80.21
237.04	80.21
237.257	102.74
237.475	-30.38
237.692	92.5
237.909	78.16
238.127	18.77
238.344	-3.75
238.562	31.06
238.779	31.06
238.996	-11.95
239.214	4.44
239.431	4.44
239.648	35.16
239.865	149.84
240.083	51.54
240.3	92.5
240.517	22.87
240.735	47.44
240.952	31.06
241.169	61.78
241.386	65.88
241.603	33.11
241.821	6.49
242.038	78.16
242.255	86.36
242.472	31.06
242.689	67.92
242.907	123.22
243.124	78.16
243.341	78.16
243.558	18.77
243.775	6.49
243.992	-16.04
244.209	98.64
244.426	80.21
244.643	69.97
244.86	6.49
245.078	-36.52
245.295	69.97
245.512	8.53
245.729	-65.19
245.946	127.32
246.163	121.17
246.38	51.54
246.597	57.68
246.814	104.79
247.031	121.17
247.248	78.16
247.464	135.51
247.681	33.11
247.898	47.44
248.115	-30.38
248.332	47.44
248.549	41.3
248.766	20.82
248.983	12.63
249.2	4.44
249.417	72.02
249.633	12.63
249.85	104.79
250.067	2.39
250.284	55.64
250.501	29.01
250.717	84.31
250.934	41.3
251.151	80.21
251.368	67.92
251.585	6.49
251.801	84.31
252.018	-1.71
252.235	-30.38
252.451	57.68
252.668	45.4
252.885	82.26
253.102	57.68
253.318	86.36
253.535	26.96
253.752	59.73
253.968	47.44
254.185	-22.19
254.401	29.01
254.618	12.63
254.835	82.26
255.051	133.46
255.268	12.63
255.484	16.73
255.701	26.96
255.917	55.64
256.134	37.2
256.351	18.77
256.567	22.87
256.784	6.49
257	2.39
257.217	67.92
257.433	26.96
257.65	84.31
257.866	26.96
258.082	63.83
258.299	26.96
258.515	92.5
258.732	-1.71
258.948	8.53
259.165	26.96
259.381	22.87
259.597	-3.75
259.814	61.78
260.03	10.58
260.246	59.73
260.463	69.97
260.679	45.4
260.895	35.16
261.112	8.53
261.328	59.73
261.544	18.77
261.761	63.83
261.977	31.06
262.193	61.78
262.409	90.45
262.626	6.49
262.842	14.68
263.058	-42.67
263.274	10.58
263.49	88.4
263.707	24.92
263.923	76.12
264.139	14.68
264.355	41.3
264.571	117.08
264.787	45.4
265.004	57.68
265.22	90.45
265.436	-28.33
265.652	18.77
265.868	49.49
266.084	39.25
266.3	98.64
266.516	14.68
266.732	55.64
266.948	10.58
267.164	53.59
267.38	76.12
267.596	108.88
267.812	106.84
268.028	112.98
268.244	-26.28
268.46	59.73
268.676	61.78
268.892	-18.09
269.108	61.78
269.324	-1.71
269.54	-26.28
269.756	63.83
269.972	100.69
270.188	76.12
270.403	67.92
270.619	-46.76
270.835	55.64
271.051	0.34
271.267	63.83
271.483	43.35
271.698	51.54
271.914	65.88
272.13	67.92
272.346	35.16
272.562	125.27
272.777	51.54
272.993	26.96
273.209	86.36
273.425	55.64
273.64	53.59
273.856	61.78
274.072	59.73
274.287	35.16
274.503	72.02
274.719	-9.9
274.934	14.68
275.15	31.06
275.366	0.34
275.581	-34.47
275.797	29.01
276.012	-44.71
276.228	4.44
276.444	29.01
276.659	74.07
276.875	39.25
277.09	86.36
277.306	76.12
277.521	63.83
277.737	39.25
277.952	41.3
278.168	82.26
278.383	86.36
278.599	84.31
278.814	-9.9
279.03	22.87
279.245	94.55
279.461	-34.47
279.676	112.98
279.892	10.58
280.107	55.64
280.322	33.11
280.538	37.2
280.753	29.01
280.969	82.26
281.184	14.68
281.399	43.35
281.615	41.3
281.83	22.87
282.045	2.39
282.26	92.5
282.476	37.2
282.691	24.92
282.906	39.25
283.122	14.68
283.337	92.5
283.552	63.83
283.767	53.59
283.983	115.03
284.198	31.06
284.413	106.84
284.628	35.16
284.843	55.64
285.058	-5.8
285.274	104.79
285.489	8.53
285.704	63.83
285.919	45.4
286.134	43.35
286.349	-32.43
286.564	41.3
286.779	45.4
286.995	33.11
287.21	47.44
287.425	18.77
287.64	45.4
287.855	24.92
288.07	24.92
288.285	59.73
288.5	88.4
288.715	24.92
288.93	20.82
289.145	29.01
289.36	104.79
289.575	49.49
289.79	18.77
290.004	43.35
290.219	63.83
290.434	29.01
290.649	72.02
290.864	100.69
291.079	6.49
291.294	10.58
291.509	20.82
291.724	47.44
291.938	80.21
292.153	47.44
292.368	4.44
292.583	47.44
292.798	145.75
293.012	86.36
293.227	51.54
293.442	-20.14
293.657	78.16
293.871	90.45
294.086	26.96
294.301	96.6
294.516	35.16
294.73	0.34
294.945	53.59
295.16	108.88
295.374	26.96
295.589	45.4
295.804	12.63
296.018	24.92
296.233	35.16
296.447	47.44
296.662	22.87
296.877	2.39
297.091	104.79
297.306	121.17
297.52	76.12
297.735	8.53
297.949	22.87
298.164	59.73
298.378	12.63
298.593	8.53
298.807	43.35
299.022	22.87
299.236	29.01
299.451	69.97
299.665	88.4
299.88	8.53
300.094	72.02
300.309	37.2
300.523	-3.75
300.737	22.87
300.952	51.54
301.166	80.21
301.381	39.25
301.595	26.96
301.809	-11.95
302.024	-48.81
302.238	65.88
302.452	98.64
302.667	63.83
302.881	72.02
303.095	22.87
303.309	-34.47
303.524	22.87
303.738	8.53
303.952	31.06
304.166	31.06
304.381	-34.47
304.595	59.73
304.809	78.16
305.023	166.23
305.237	53.59
305.452	4.44
305.666	-18.09
305.88	88.4
306.094	67.92
306.308	63.83
306.522	35.16
306.736	72.02
306.95	33.11
307.164	47.44
307.379	47.44
307.593	72.02
307.807	76.12
308.021	49.49
308.235	47.44
308.449	45.4
308.663	-44.71
308.877	84.31
309.091	16.73
309.305	82.26
309.519	80.21
309.733	98.64
309.947	33.11
310.161	166.23
310.374	10.58
310.588	76.12
310.802	10.58
311.016	37.2
311.23	35.16
311.444	-18.09
311.658	69.97
311.872	98.64
312.085	88.4
312.299	92.5
312.513	37.2
312.727	69.97
312.941	102.74
313.154	63.83
313.368	72.02
313.582	104.79
313.796	35.16
314.009	51.54
314.223	24.92
314.437	61.78
314.651	10.58
314.864	20.82
315.078	-38.57
315.292	37.2
315.505	-3.75
315.719	55.64
315.933	26.96
316.146	63.83
316.36	100.69
316.573	67.92
316.787	88.4
317.001	59.73
317.214	39.25
317.428	67.92
317.641	4.44
317.855	18.77
318.068	86.36
318.282	63.83
318.495	6.49
318.709	33.11
318.922	12.63
319.136	84.31
319.349	55.64
319.563	33.11
319.776	94.55
319.99	41.3
320.203	0.34
320.417	31.06
320.63	-9.9
320.843	100.69
321.057	61.78
321.27	74.07
321.483	24.92
321.697	53.59
321.91	125.27
322.124	65.88
322.337	82.26
322.55	12.63
322.763	39.25
322.977	-5.8
323.19	31.06
323.403	55.64
323.617	39.25
323.83	10.58
324.043	-18.09
324.256	67.92
324.469	63.83
324.683	2.39
324.896	12.63
325.109	61.78
325.322	47.44
325.535	90.45
325.748	-42.67
325.962	43.35
326.175	94.55
326.388	22.87
326.601	63.83
326.814	51.54
327.027	37.2
327.24	129.36
327.453	29.01
327.666	125.27
327.879	29.01
328.092	22.87
328.305	72.02
328.518	29.01
328.731	14.68
328.944	37.2
329.157	74.07
329.37	10.58
329.583	110.93
329.796	8.53
330.009	69.97
330.222	35.16
330.435	55.64
330.648	-5.8
330.861	18.77
331.073	94.55
331.286	22.87
331.499	59.73
331.712	12.63
331.925	84.31
332.138	55.64
332.35	108.88
332.563	94.55
332.776	100.69
332.989	63.83
333.202	20.82
333.414	100.69
333.627	65.88
333.84	41.3
334.053	2.39
334.265	96.6
334.478	76.12
334.691	31.06
334.903	39.25
335.116	12.63
335.329	22.87
335.541	55.64
335.754	86.36
335.966	69.97
336.179	145.75
336.392	24.92
336.604	61.78
336.817	82.26
337.029	96.6
337.242	14.68
337.454	12.63
337.667	100.69
337.88	72.02
338.092	53.59
338.305	67.92
338.517	55.64
338.729	39.25
338.942	67.92
339.154	57.68
339.367	29.01
339.579	51.54
339.792	57.68
340.004	0.34
340.217	55.64
340.429	16.73
340.641	33.11
340.854	112.98
341.066	-20.14
341.278	88.4
341.491	24.92
341.703	53.59
341.915	22.87
342.128	14.68
342.34	47.44
342.552	-1.71
342.764	-3.75
342.977	29.01
343.189	33.11
343.401	133.46
343.613	47.44
343.826	49.49
344.038	18.77
344.25	69.97
344.462	6.49
344.674	63.83
344.886	82.26
345.099	8.53
345.311	45.4
345.523	26.96
345.735	-5.8
345.947	41.3
346.159	104.79
346.371	53.59
346.583	47.44
346.795	80.21
347.007	72.02
347.219	-9.9
347.431	43.35
347.643	86.36
347.855	-20.14
348.067	53.59
348.279	63.83
348.491	31.06
348.703	37.2
348.915	67.92
349.127	45.4
349.339	57.68
349.551	4.44
349.763	104.79
349.975	76.12
350.187	49.49
350.399	39.25
350.61	88.4
350.822	29.01
351.034	4.44
351.246	88.4
351.458	100.69
351.669	45.4
351.881	125.27
352.093	76.12
352.305	4.44
352.517	26.96
352.728	67.92
352.94	29.01
353.152	108.88
353.363	39.25
353.575	61.78
353.787	115.03
353.999	72.02
354.21	31.06
354.422	59.73
354.633	6.49
354.845	106.84
355.057	14.68
355.268	88.4
355.48	78.16
355.692	2.39
355.903	69.97
356.115	43.35
356.326	12.63
356.538	39.25
356.749	76.12
356.961	80.21
357.172	61.78
357.384	76.12
357.595	45.4
357.807	106.84
358.018	26.96
358.23	-5.8
358.441	76.12
358.653	55.64
358.864	49.49
359.075	78.16
359.287	78.16
359.498	135.51
359.709	29.01
359.921	108.88
360.132	43.35
360.344	53.59
360.555	166.23
360.766	-7.85
360.977	55.64
361.189	65.88
361.4	51.54
361.611	39.25
361.823	61.78
362.034	29.01
362.245	16.73
362.456	96.6
362.667	-18.09
362.879	43.35
363.09	18.77
363.301	18.77
363.512	41.3
363.723	67.92
363.935	84.31
364.146	80.21
364.357	106.84
364.568	41.3
364.779	100.69
364.99	121.17
365.201	14.68
365.412	80.21
365.623	26.96
365.834	112.98
366.045	26.96
366.256	74.07
366.467	39.25
366.678	-7.85
366.889	125.27
367.1	-20.14
367.311	12.63
367.522	61.78
367.733	72.02
367.944	162.13
368.155	82.26
368.366	61.78
368.577	80.21
368.788	45.4
368.999	129.36
369.209	45.4
369.42	55.64
369.631	67.92
369.842	31.06
370.053	16.73
370.264	98.64
370.474	45.4
370.685	12.63
370.896	69.97
371.107	31.06
371.317	96.6
371.528	47.44
371.739	65.88
371.95	43.35
372.16	18.77
372.371	22.87
372.582	110.93
372.792	57.68
373.003	43.35
373.214	57.68
373.424	47.44
373.635	45.4
373.846	59.73
374.056	86.36
374.267	16.73
374.477	43.35
374.688	63.83
374.898	104.79
375.109	104.79
375.319	86.36
375.53	51.54
375.74	20.82
375.951	67.92
376.161	55.64
376.372	100.69
376.582	49.49
376.793	112.98
377.003	72.02
377.214	47.44
377.424	104.79
377.635	129.36
377.845	115.03
378.055	96.6
378.266	35.16
378.476	84.31
378.686	69.97
378.897	69.97
379.107	51.54
379.317	121.17
379.528	74.07
379.738	14.68
379.948	10.58
380.158	76.12
380.369	29.01
380.579	84.31
380.789	20.82
380.999	47.44
381.21	84.31
381.42	102.74
381.63	-7.85
381.84	96.6
382.05	76.12
382.261	84.31
382.471	59.73
382.681	98.64
382.891	117.08
383.101	123.22
383.311	18.77
383.521	18.77
383.731	-9.9
383.941	186.71
384.151	82.26
384.361	41.3
384.571	61.78
384.781	80.21
384.991	125.27
385.201	143.7
385.411	53.59
385.621	65.88
385.831	31.06
386.041	16.73
386.251	55.64
386.461	65.88
386.671	88.4
386.881	39.25
387.091	55.64
387.301	74.07
387.511	76.12
387.72	158.03
387.93	37.2
388.14	37.2
388.35	100.69
388.56	72.02
388.769	39.25
388.979	33.11
389.189	6.49
389.399	2.39
389.609	108.88
389.818	80.21
390.028	100.69
390.238	39.25
390.447	41.3
390.657	65.88
390.867	51.54
391.076	20.82
391.286	112.98
391.496	78.16
391.705	61.78
391.915	76.12
392.125	90.45
392.334	29.01
392.544	14.68
392.753	55.64
392.963	51.54
393.172	98.64
393.382	39.25
393.591	119.12
393.801	84.31
394.01	98.64
394.22	104.79
394.429	117.08
394.639	12.63
394.848	141.65
395.058	141.65
395.267	69.97
395.477	92.5
395.686	164.18
395.895	117.08
396.105	123.22
396.314	145.75
396.524	115.03
396.733	-11.95
396.942	100.69
397.152	137.56
397.361	141.65
397.57	72.02
397.78	139.6
397.989	59.73
398.198	155.99
398.407	125.27
398.617	176.47
398.826	57.68
399.035	35.16
399.244	145.75
399.453	94.55
399.663	82.26
399.872	135.51
400.081	92.5
400.29	100.69
400.499	137.56
400.708	98.64
400.917	135.51
401.127	108.88
401.336	63.83
401.545	170.32
401.754	139.6
401.963	174.42
402.172	178.51
402.381	127.32
402.59	153.94
402.799	186.71
403.008	84.31
403.217	119.12
403.426	182.61
403.635	100.69
403.844	137.56
404.053	94.55
404.262	88.4
404.471	184.66
404.68	205.14
404.888	158.03
405.097	112.98
405.306	160.08
405.515	190.8
405.724	182.61
405.933	170.32
406.142	174.42
406.35	186.71
406.559	186.71
406.768	188.75
406.977	153.94
407.185	211.28
407.394	186.71
407.603	188.75
407.812	256.34
408.02	282.96
408.229	170.32
408.438	287.06
408.646	321.87
408.855	309.58
409.064	211.28
409.272	297.3
409.481	274.77
409.69	315.73
409.898	285.01
410.107	340.3
410.315	354.64
410.524	383.31
410.733	389.46
410.941	366.93
411.15	354.64
411.358	379.22
411.567	428.37
411.775	409.94
411.984	450.89
412.192	428.37
412.401	459.09
412.609	373.07
412.818	452.94
413.026	428.37
413.234	518.48
413.443	498
413.651	522.57
413.86	524.62
414.068	536.91
414.276	641.36
414.485	608.59
414.693	594.25
414.901	764.23
415.11	629.07
415.318	657.74
415.526	805.19
415.734	758.09
415.943	733.51
416.151	862.54
416.359	809.29
416.567	870.73
416.776	887.11
416.984	913.74
417.192	1009.99
417.4	1042.76
417.608	1009.99
417.817	1022.28
418.025	1057.09
418.233	1075.52
418.441	1169.73
418.649	1227.07
418.857	1345.86
419.065	1319.23
419.273	1268.03
419.481	1268.03
419.689	1403.2
419.897	1440.06
420.105	1536.32
420.313	1501.5
420.521	1636.67
420.729	1562.94
420.937	1636.67
421.145	1698.11
421.353	1849.66
421.561	1878.33
421.769	1900.86
421.977	1970.49
422.185	1937.72
422.393	2124.08
422.601	2210.1
422.809	2189.62
423.017	2242.87
423.224	2277.68
423.432	2390.32
423.64	2476.34
423.848	2679.08
424.056	2584.88
424.263	2789.67
424.471	2769.2
424.679	2685.23
424.887	3006.76
425.094	3021.1
425.302	3023.14
425.51	3246.37
425.718	3240.23
425.925	3234.08
426.133	3389.73
426.341	3549.47
426.548	3791.13
426.756	3838.23
426.964	3801.37
427.171	3918.11
427.379	4262.16
427.586	4186.39
427.794	4428.05
428.001	4665.61
428.209	4583.7
428.417	4675.85
428.624	4886.79
428.832	5052.68
429.039	5054.73
429.247	5060.87
429.454	5427.46
429.662	5806.33
429.869	5273.86
430.076	5869.82
430.284	5738.75
430.491	5904.64
430.699	6160.63
430.906	6127.86
431.114	6306.04
431.321	6551.79
431.528	6617.33
431.736	7067.88
431.943	7403.75
432.15	7055.59
432.358	7155.94
432.565	7506.15
432.772	7850.21
432.979	8024.28
433.187	8190.17
433.394	8204.5
433.601	8892.62
433.808	8880.33
434.016	8831.18
434.223	9128.14
434.43	9861.31
434.637	9347.27
434.844	10080.44
435.052	10197.18
435.259	10238.14
435.466	10250.42
435.673	10266.81
435.88	10985.65
436.087	11516.07
436.294	11364.52
436.501	11329.7
436.708	11540.65
436.915	11784.35
437.122	12249.24
437.329	12148.89
437.537	12519.57
437.743	13101.2
437.95	12773.52
438.157	13498.5
438.364	13783.17
438.571	13895.81
438.778	13924.48
438.985	15177.84
439.192	14581.88
439.399	14862.45
439.606	14708.85
439.813	15663.21
440.02	16451.67
440.227	16363.61
440.433	16033.89
440.64	16797.78
440.847	16437.34
441.054	17115.22
441.261	18094.15
441.467	17752.13
441.674	18268.22
441.881	18800.69
442.088	18933.81
442.294	18591.8
442.501	19068.98
442.708	19595.31
442.914	20258.85
443.121	21233.68
443.328	20467.74
443.534	22142.98
443.741	21555.21
443.948	20992.02
444.154	22685.69
444.361	22464.51
444.568	22642.68
444.774	22687.74
444.981	23056.37
445.187	23615.47
445.394	24684.51
445.6	24248.29
445.807	26820.54
446.013	25581.52
446.22	26154.95
446.426	26988.47
446.633	27199.41
446.839	27742.13
447.046	26888.12
447.252	28600.22
447.459	28377
447.665	28411.81
447.871	29865.87
448.078	30799.74
448.284	29642.64
448.491	29781.9
448.697	31117.18
448.903	32108.4
449.11	32020.33
449.316	31231.86
449.522	31967.09
449.728	32722.79
449.935	33343.32
450.141	32927.58
450.347	33974.09
450.553	32696.16
450.76	33367.9
450.966	34062.16
451.172	33763.15
451.378	34780.99
451.584	34103.12
451.791	34711.36
451.997	34844.48
452.203	35276.6
452.409	35321.66
452.615	34891.58
452.821	33881.94
453.027	33359.7
453.233	35004.22
453.44	33935.18
453.646	34348.87
453.852	34514.76
454.058	35084.09
454.264	34023.25
454.47	34256.71
454.676	33560.41
454.882	34860.87
455.088	31891.31
455.294	32522.09
455.5	32708.45
455.705	33079.13
455.911	31858.54
456.117	30922.62
456.323	30582.66
456.529	29364.12
456.735	30324.61
456.941	29280.15
457.147	28880.8
457.352	28168.1
457.558	28110.76
457.764	27889.58
457.97	27310
458.176	26681.28
458.381	26841.02
458.587	25485.26
458.793	25280.47
458.999	24311.78
459.204	25835.47
459.41	25278.42
459.616	23463.92
459.821	23310.32
460.027	23568.37
460.233	23066.61
460.438	21893.13
460.644	22159.36
460.85	20959.25
461.055	20627.48
461.261	20776.98
461.466	19413.04
461.672	18745.4
461.878	19920.93
462.083	18841.65
462.289	18223.17
462.494	18083.91
462.7	17295.44
462.905	16967.76
463.111	17473.61
463.316	17471.56
463.522	16914.52
463.727	17070.16
463.932	17201.23
464.138	17014.87
464.343	16961.62
464.549	16490.59
464.754	17066.06
464.959	16947.28
465.165	16746.58
465.37	15945.83
465.575	15331.44
465.781	16410.71
465.986	16238.69
466.191	15724.65
466.397	15345.77
466.602	14858.35
466.807	15151.21
467.012	15095.92
467.218	15069.3
467.423	15005.81
467.628	15104.11
467.833	15833.19
