Data from USB4F104151__45__11-36-59-643.txt Node

Date: Fri Mar 14 11:36:59 EDT 2025
User: louis
Spectrometer: USB4F10415
Trigger mode: 4
Integration Time (sec): 2.000000E-2
Scans to average: 1
Electric dark correction enabled: true
Nonlinearity correction enabled: false
Boxcar width: 0
XAxis mode: Wavelengths
Number of Pixels in Spectrum: 3648
>>>>>Begin Spectral Data<<<<<
178.204	-22.36
178.424	-22.36
178.644	-22.36
178.864	-57.17
179.084	-44.88
179.304	-38.74
179.524	16.55
179.744	75.95
179.964	16.55
180.184	32.94
180.404	-28.5
180.624	20.65
180.844	-12.12
181.064	-44.88
181.283	-36.69
181.503	-5.97
181.723	4.27
181.943	24.75
182.163	127.14
182.383	-30.55
182.602	41.13
182.822	77.99
183.042	55.47
183.262	77.99
183.482	20.65
183.701	-16.21
183.921	-44.88
184.141	32.94
184.361	82.09
184.58	45.23
184.8	-8.02
185.02	49.32
185.239	59.56
185.459	53.42
185.679	30.89
185.898	8.36
186.118	63.66
186.338	59.56
186.557	37.03
186.777	24.75
186.997	84.14
187.216	2.22
187.436	-10.07
187.655	24.75
187.875	37.03
188.095	22.7
188.314	32.94
188.534	30.89
188.753	8.36
188.973	28.84
189.192	82.09
189.412	-1.88
189.631	18.6
189.851	-1.88
190.07	84.14
190.29	28.84
190.509	67.75
190.729	-38.74
190.948	65.71
191.168	96.43
191.387	-20.31
191.607	59.56
191.826	2.22
192.045	4.27
192.265	116.9
192.484	39.08
192.704	41.13
192.923	18.6
193.142	71.85
193.362	-12.12
193.581	51.37
193.8	45.23
194.02	26.79
194.239	20.65
194.458	75.95
194.678	96.43
194.897	55.47
195.116	-8.02
195.335	-5.97
195.555	34.99
195.774	-38.74
195.993	20.65
196.212	32.94
196.432	61.61
196.651	-18.26
196.87	41.13
197.089	84.14
197.308	53.42
197.528	-24.4
197.747	-24.4
197.966	43.18
198.185	-12.12
198.404	63.66
198.623	34.99
198.842	37.03
199.062	37.03
199.281	43.18
199.5	-1.88
199.719	-10.07
199.938	28.84
200.157	41.13
200.376	84.14
200.595	34.99
200.814	57.51
201.033	10.41
201.252	0.17
201.471	-8.02
201.69	98.47
201.909	57.51
202.128	22.7
202.347	45.23
202.566	57.51
202.785	4.27
203.004	-32.6
203.223	137.38
203.442	-28.5
203.661	2.22
203.879	37.03
204.098	18.6
204.317	-5.97
204.536	-10.07
204.755	53.42
204.974	121
205.193	86.19
205.411	51.37
205.63	4.27
205.849	4.27
206.068	-38.74
206.287	45.23
206.505	0.17
206.724	-34.64
206.943	55.47
207.162	61.61
207.381	-36.69
207.599	61.61
207.818	-57.17
208.037	24.75
208.255	32.94
208.474	2.22
208.693	8.36
208.911	18.6
209.13	51.37
209.349	82.09
209.567	75.95
209.786	80.04
210.005	-8.02
210.223	45.23
210.442	-18.26
210.661	0.17
210.879	18.6
211.098	53.42
211.316	65.71
211.535	26.79
211.753	32.94
211.972	69.8
212.191	-10.07
212.409	12.46
212.628	37.03
212.846	32.94
213.065	61.61
213.283	20.65
213.502	51.37
213.72	-10.07
213.938	53.42
214.157	30.89
214.375	30.89
214.594	-16.21
214.812	45.23
215.031	-1.88
215.249	37.03
215.467	-1.88
215.686	28.84
215.904	45.23
216.122	8.36
216.341	65.71
216.559	53.42
216.778	73.9
216.996	110.76
217.214	-3.93
217.432	26.79
217.651	-104.28
217.869	49.32
218.087	41.13
218.306	-20.31
218.524	26.79
218.742	26.79
218.96	41.13
219.179	20.65
219.397	37.03
219.615	-20.31
219.833	20.65
220.051	18.6
220.27	65.71
220.488	0.17
220.706	26.79
220.924	20.65
221.142	28.84
221.36	8.36
221.578	-12.12
221.796	-22.36
222.015	-28.5
222.233	80.04
222.451	43.18
222.669	-3.93
222.887	49.32
223.105	-20.31
223.323	4.27
223.541	69.8
223.759	-3.93
223.977	14.51
224.195	32.94
224.413	69.8
224.631	-28.5
224.849	6.31
225.067	41.13
225.285	2.22
225.503	12.46
225.721	34.99
225.939	106.67
226.157	26.79
226.375	90.28
226.592	24.75
226.81	51.37
227.028	20.65
227.246	45.23
227.464	12.46
227.682	57.51
227.9	49.32
228.117	41.13
228.335	6.31
228.553	-14.17
228.771	22.7
228.989	10.41
229.206	75.95
229.424	73.9
229.642	10.41
229.86	53.42
230.077	-1.88
230.295	-46.93
230.513	80.04
230.731	-3.93
230.948	14.51
231.166	61.61
231.384	6.31
231.601	53.42
231.819	67.75
232.037	20.65
232.254	67.75
232.472	84.14
232.689	-12.12
232.907	67.75
233.125	-65.36
233.342	69.8
233.56	-1.88
233.777	53.42
233.995	26.79
234.213	82.09
234.43	53.42
234.648	-28.5
234.865	24.75
235.083	20.65
235.3	2.22
235.518	12.46
235.735	37.03
235.953	90.28
236.17	65.71
236.388	77.99
236.605	20.65
236.822	-8.02
237.04	-14.17
237.257	53.42
237.475	24.75
237.692	57.51
237.909	26.79
238.127	-40.79
238.344	47.27
238.562	73.9
238.779	28.84
238.996	30.89
239.214	22.7
239.431	114.86
239.648	53.42
239.865	10.41
240.083	34.99
240.3	24.75
240.517	-48.98
240.735	43.18
240.952	30.89
241.169	84.14
241.386	-8.02
241.603	43.18
241.821	37.03
242.038	43.18
242.255	94.38
242.472	-73.56
242.689	32.94
242.907	2.22
243.124	61.61
243.341	10.41
243.558	-8.02
243.775	16.55
243.992	-42.84
244.209	22.7
244.426	121
244.643	30.89
244.86	-20.31
245.078	28.84
245.295	47.27
245.512	4.27
245.729	4.27
245.946	102.57
246.163	30.89
246.38	-22.36
246.597	39.08
246.814	53.42
247.031	57.51
247.248	-14.17
247.464	12.46
247.681	104.62
247.898	90.28
248.115	75.95
248.332	-14.17
248.549	59.56
248.766	112.81
248.983	45.23
249.2	30.89
249.417	94.38
249.633	18.6
249.85	73.9
250.067	8.36
250.284	77.99
250.501	69.8
250.717	10.41
250.934	37.03
251.151	86.19
251.368	8.36
251.585	43.18
251.801	53.42
252.018	-3.93
252.235	86.19
252.451	65.71
252.668	20.65
252.885	110.76
253.102	61.61
253.318	22.7
253.535	84.14
253.752	0.17
253.968	0.17
254.185	41.13
254.401	-8.02
254.618	37.03
254.835	-8.02
255.051	28.84
255.268	32.94
255.484	41.13
255.701	0.17
255.917	135.34
256.134	-26.45
256.351	-36.69
256.567	-63.32
256.784	18.6
257	-10.07
257.217	53.42
257.433	98.47
257.65	32.94
257.866	28.84
258.082	-18.26
258.299	86.19
258.515	30.89
258.732	-44.88
258.948	-42.84
259.165	41.13
259.381	-32.6
259.597	53.42
259.814	16.55
260.03	37.03
260.246	-28.5
260.463	-28.5
260.679	51.37
260.895	57.51
261.112	34.99
261.328	16.55
261.544	49.32
261.761	16.55
261.977	-16.21
262.193	-8.02
262.409	-26.45
262.626	-3.93
262.842	28.84
263.058	-30.55
263.274	34.99
263.49	51.37
263.707	82.09
263.923	16.55
264.139	71.85
264.355	26.79
264.571	100.52
264.787	45.23
265.004	18.6
265.22	16.55
265.436	65.71
265.652	26.79
265.868	57.51
266.084	-32.6
266.3	24.75
266.516	-40.79
266.732	77.99
266.948	39.08
267.164	96.43
267.38	53.42
267.596	86.19
267.812	43.18
268.028	-30.55
268.244	2.22
268.46	30.89
268.676	18.6
268.892	-8.02
269.108	-94.04
269.324	53.42
269.54	6.31
269.756	16.55
269.972	-24.4
270.188	10.41
270.403	57.51
270.619	73.9
270.835	65.71
271.051	37.03
271.267	45.23
271.483	71.85
271.698	6.31
271.914	14.51
272.13	20.65
272.346	34.99
272.562	16.55
272.777	80.04
272.993	61.61
273.209	32.94
273.425	24.75
273.64	71.85
273.856	-22.36
274.072	-34.64
274.287	-8.02
274.503	2.22
274.719	69.8
274.934	18.6
275.15	6.31
275.366	12.46
275.581	32.94
275.797	-28.5
276.012	-12.12
276.228	20.65
276.444	57.51
276.659	37.03
276.875	12.46
277.09	69.8
277.306	8.36
277.521	26.79
277.737	18.6
277.952	88.23
278.168	65.71
278.383	88.23
278.599	41.13
278.814	12.46
279.03	14.51
279.245	65.71
279.461	-8.02
279.676	45.23
279.892	16.55
280.107	16.55
280.322	32.94
280.538	30.89
280.753	41.13
280.969	67.75
281.184	49.32
281.399	4.27
281.615	-3.93
281.83	73.9
282.045	47.27
282.26	4.27
282.476	8.36
282.691	61.61
282.906	14.51
283.122	-12.12
283.337	8.36
283.552	30.89
283.767	57.51
283.983	77.99
284.198	30.89
284.413	34.99
284.628	20.65
284.843	53.42
285.058	92.33
285.274	-3.93
285.489	37.03
285.704	10.41
285.919	12.46
286.134	26.79
286.349	12.46
286.564	-51.03
286.779	24.75
286.995	30.89
287.21	-40.79
287.425	26.79
287.64	8.36
287.855	80.04
288.07	-20.31
288.285	37.03
288.5	24.75
288.715	34.99
288.93	98.47
289.145	-16.21
289.36	4.27
289.575	28.84
289.79	14.51
290.004	106.67
290.219	-38.74
290.434	18.6
290.649	-53.08
290.864	12.46
291.079	28.84
291.294	41.13
291.509	28.84
291.724	84.14
291.938	12.46
292.153	77.99
292.368	69.8
292.583	22.7
292.798	4.27
293.012	32.94
293.227	67.75
293.442	43.18
293.657	24.75
293.871	53.42
294.086	77.99
294.301	49.32
294.516	4.27
294.73	26.79
294.945	-16.21
295.16	12.46
295.374	71.85
295.589	22.7
295.804	28.84
296.018	-8.02
296.233	49.32
296.447	47.27
296.662	61.61
296.877	30.89
297.091	86.19
297.306	116.9
297.52	45.23
297.735	-16.21
297.949	34.99
298.164	37.03
298.378	53.42
298.593	-28.5
298.807	-1.88
299.022	10.41
299.236	-8.02
299.451	22.7
299.665	47.27
299.88	65.71
300.094	45.23
300.309	30.89
300.523	26.79
300.737	82.09
300.952	47.27
301.166	24.75
301.381	-3.93
301.595	61.61
301.809	49.32
302.024	-28.5
302.238	75.95
302.452	49.32
302.667	39.08
302.881	94.38
303.095	39.08
303.309	71.85
303.524	30.89
303.738	55.47
303.952	0.17
304.166	4.27
304.381	69.8
304.595	51.37
304.809	41.13
305.023	37.03
305.237	28.84
305.452	49.32
305.666	-1.88
305.88	53.42
306.094	55.47
306.308	-28.5
306.522	67.75
306.736	30.89
306.95	-44.88
307.164	63.66
307.379	26.79
307.593	32.94
307.807	22.7
308.021	104.62
308.235	22.7
308.449	16.55
308.663	59.56
308.877	41.13
309.091	30.89
309.305	22.7
309.519	67.75
309.733	28.84
309.947	4.27
310.161	26.79
310.374	6.31
310.588	-12.12
310.802	37.03
311.016	16.55
311.23	22.7
311.444	18.6
311.658	53.42
311.872	28.84
312.085	69.8
312.299	110.76
312.513	39.08
312.727	37.03
312.941	14.51
313.154	20.65
313.368	28.84
313.582	34.99
313.796	100.52
314.009	45.23
314.223	53.42
314.437	30.89
314.651	118.95
314.864	20.65
315.078	16.55
315.292	-32.6
315.505	61.61
315.719	67.75
315.933	53.42
316.146	32.94
316.36	-1.88
316.573	51.37
316.787	6.31
317.001	131.24
317.214	-51.03
317.428	16.55
317.641	-1.88
317.855	61.61
318.068	8.36
318.282	82.09
318.495	82.09
318.709	77.99
318.922	28.84
319.136	63.66
319.349	12.46
319.563	6.31
319.776	4.27
319.99	41.13
320.203	20.65
320.417	45.23
320.63	32.94
320.843	-3.93
321.057	45.23
321.27	37.03
321.483	24.75
321.697	100.52
321.91	45.23
322.124	43.18
322.337	86.19
322.55	41.13
322.763	45.23
322.977	12.46
323.19	45.23
323.403	4.27
323.617	69.8
323.83	10.41
324.043	-3.93
324.256	24.75
324.469	10.41
324.683	43.18
324.896	2.22
325.109	61.61
325.322	-14.17
325.535	30.89
325.748	-55.12
325.962	41.13
326.175	-24.4
326.388	8.36
326.601	20.65
326.814	45.23
327.027	-46.93
327.24	43.18
327.453	-16.21
327.666	53.42
327.879	67.75
328.092	98.47
328.305	47.27
328.518	-16.21
328.731	67.75
328.944	82.09
329.157	14.51
329.37	-28.5
329.583	75.95
329.796	59.56
330.009	-28.5
330.222	63.66
330.435	34.99
330.648	51.37
330.861	-44.88
331.073	45.23
331.286	92.33
331.499	63.66
331.712	24.75
331.925	47.27
332.138	4.27
332.35	59.56
332.563	51.37
332.776	125.1
332.989	8.36
333.202	108.71
333.414	75.95
333.627	8.36
333.84	24.75
334.053	53.42
334.265	34.99
334.478	63.66
334.691	24.75
334.903	75.95
335.116	24.75
335.329	51.37
335.541	-8.02
335.754	65.71
335.966	43.18
336.179	-32.6
336.392	18.6
336.604	-28.5
336.817	-3.93
337.029	34.99
337.242	8.36
337.454	6.31
337.667	47.27
337.88	32.94
338.092	30.89
338.305	0.17
338.517	2.22
338.729	102.57
338.942	45.23
339.154	10.41
339.367	51.37
339.579	41.13
339.792	45.23
340.004	86.19
340.217	51.37
340.429	41.13
340.641	32.94
340.854	28.84
341.066	51.37
341.278	22.7
341.491	63.66
341.703	43.18
341.915	28.84
342.128	24.75
342.34	-8.02
342.552	26.79
342.764	75.95
342.977	0.17
343.189	84.14
343.401	118.95
343.613	30.89
343.826	18.6
344.038	65.71
344.25	-36.69
344.462	2.22
344.674	-10.07
344.886	32.94
345.099	43.18
345.311	-28.5
345.523	0.17
345.735	73.9
345.947	-34.64
346.159	-30.55
346.371	18.6
346.583	8.36
346.795	176.3
347.007	32.94
347.219	90.28
347.431	37.03
347.643	4.27
347.855	84.14
348.067	57.51
348.279	0.17
348.491	30.89
348.703	24.75
348.915	67.75
349.127	73.9
349.339	57.51
349.551	2.22
349.763	73.9
349.975	32.94
350.187	65.71
350.399	57.51
350.61	24.75
350.822	51.37
351.034	69.8
351.246	2.22
351.458	104.62
351.669	49.32
351.881	28.84
352.093	20.65
352.305	84.14
352.517	102.57
352.728	4.27
352.94	67.75
353.152	32.94
353.363	59.56
353.575	28.84
353.787	71.85
353.999	-22.36
354.21	20.65
354.422	45.23
354.633	-28.5
354.845	47.27
355.057	43.18
355.268	41.13
355.48	45.23
355.692	41.13
355.903	-42.84
356.115	30.89
356.326	43.18
356.538	65.71
356.749	-46.93
356.961	63.66
357.172	2.22
357.384	94.38
357.595	116.9
357.807	-30.55
358.018	18.6
358.23	8.36
358.441	88.23
358.653	41.13
358.864	22.7
359.075	-5.97
359.287	28.84
359.498	69.8
359.709	139.43
359.921	43.18
360.132	53.42
360.344	59.56
360.555	-3.93
360.766	96.43
360.977	-12.12
361.189	69.8
361.4	39.08
361.611	73.9
361.823	53.42
362.034	61.61
362.245	-77.65
362.456	6.31
362.667	75.95
362.879	12.46
363.09	-14.17
363.301	22.7
363.512	67.75
363.723	16.55
363.935	34.99
364.146	26.79
364.357	24.75
364.568	57.51
364.779	63.66
364.99	20.65
365.201	57.51
365.412	73.9
365.623	-77.65
365.834	88.23
366.045	-3.93
366.256	18.6
366.467	118.95
366.678	24.75
366.889	67.75
367.1	43.18
367.311	61.61
367.522	92.33
367.733	77.99
367.944	49.32
368.155	41.13
368.366	51.37
368.577	2.22
368.788	59.56
368.999	37.03
369.209	63.66
369.42	45.23
369.631	37.03
369.842	49.32
370.053	24.75
370.264	16.55
370.474	12.46
370.685	65.71
370.896	18.6
371.107	106.67
371.317	51.37
371.528	4.27
371.739	-5.97
371.95	59.56
372.16	34.99
372.371	-5.97
372.582	10.41
372.792	67.75
373.003	88.23
373.214	86.19
373.424	57.51
373.635	39.08
373.846	37.03
374.056	-36.69
374.267	133.29
374.477	65.71
374.688	-3.93
374.898	16.55
375.109	10.41
375.319	41.13
375.53	-5.97
375.74	0.17
375.951	59.56
376.161	41.13
376.372	10.41
376.582	41.13
376.793	80.04
377.003	-20.31
377.214	69.8
377.424	63.66
377.635	63.66
377.845	-18.26
378.055	69.8
378.266	34.99
378.476	14.51
378.686	37.03
378.897	67.75
379.107	34.99
379.317	51.37
379.528	75.95
379.738	71.85
379.948	12.46
380.158	80.04
380.369	45.23
380.579	110.76
380.789	-34.64
380.999	26.79
381.21	94.38
381.42	121
381.63	14.51
381.84	84.14
382.05	51.37
382.261	96.43
382.471	69.8
382.681	55.47
382.891	65.71
383.101	51.37
383.311	80.04
383.521	10.41
383.731	67.75
383.941	98.47
384.151	73.9
384.361	20.65
384.571	18.6
384.781	96.43
384.991	75.95
385.201	147.62
385.411	63.66
385.621	10.41
385.831	22.7
386.041	73.9
386.251	47.27
386.461	28.84
386.671	47.27
386.881	71.85
387.091	32.94
387.301	61.61
387.511	45.23
387.72	57.51
387.93	28.84
388.14	-28.5
388.35	28.84
388.56	26.79
388.769	24.75
388.979	86.19
389.189	-14.17
389.399	28.84
389.609	63.66
389.818	71.85
390.028	90.28
390.238	67.75
390.447	-34.64
390.657	6.31
390.867	-20.31
391.076	75.95
391.286	151.72
391.496	75.95
391.705	28.84
391.915	51.37
392.125	92.33
392.334	51.37
392.544	110.76
392.753	39.08
392.963	43.18
393.172	-14.17
393.382	-14.17
393.591	65.71
393.801	24.75
394.01	73.9
394.22	94.38
394.429	41.13
394.639	53.42
394.848	18.6
395.058	59.56
395.267	-40.79
395.477	77.99
395.686	106.67
395.895	102.57
396.105	57.51
396.314	49.32
396.524	92.33
396.733	0.17
396.942	77.99
397.152	110.76
397.361	88.23
397.57	73.9
397.78	86.19
397.989	24.75
398.198	116.9
398.407	104.62
398.617	8.36
398.826	61.61
399.035	82.09
399.244	116.9
399.453	118.95
399.663	61.61
399.872	80.04
400.081	6.31
400.29	131.24
400.499	47.27
400.708	143.53
400.917	86.19
401.127	67.75
401.336	100.52
401.545	94.38
401.754	157.86
401.963	71.85
402.172	69.8
402.381	69.8
402.59	43.18
402.799	47.27
403.008	90.28
403.217	75.95
403.426	164.01
403.635	112.81
403.844	108.71
404.053	100.52
404.262	127.14
404.471	155.82
404.68	102.57
404.888	96.43
405.097	73.9
405.306	77.99
405.515	96.43
405.724	139.43
405.933	102.57
406.142	149.67
406.35	161.96
406.559	106.67
406.768	166.06
406.977	135.34
407.185	108.71
407.394	164.01
407.603	151.72
407.812	166.06
408.02	168.1
408.229	125.1
408.438	135.34
408.646	133.29
408.855	106.67
409.064	219.3
409.272	166.06
409.481	239.78
409.69	184.49
409.898	184.49
410.107	250.02
410.315	168.1
410.524	192.68
410.733	276.65
410.941	241.83
411.15	282.79
411.358	282.79
411.567	299.17
411.775	286.89
411.984	245.93
412.192	223.4
412.401	297.13
412.609	327.85
412.818	258.21
413.026	237.74
413.234	348.33
413.443	385.19
413.651	307.37
413.86	366.76
414.068	354.47
414.276	463.01
414.485	374.95
414.693	450.72
414.901	485.54
415.11	508.07
415.318	446.63
415.526	495.78
415.734	551.07
415.943	532.64
416.151	495.78
416.359	585.89
416.567	583.84
416.776	503.97
416.984	655.52
417.192	610.47
417.4	618.66
417.608	589.99
417.817	805.02
418.025	737.44
418.233	762.02
418.441	721.06
418.649	729.25
418.857	755.87
419.065	854.17
419.273	841.89
419.481	891.04
419.689	886.94
419.897	1022.11
420.105	897.18
420.313	999.58
420.521	1130.65
420.729	1093.79
420.937	1073.31
421.145	1097.88
421.353	1231
421.561	1253.53
421.769	1314.97
421.977	1263.77
422.185	1392.79
422.393	1312.92
422.601	1536.15
422.809	1427.6
423.017	1515.67
423.224	1597.59
423.432	1577.11
423.64	1540.24
423.848	1876.11
424.056	1720.46
424.263	1851.53
424.471	1779.86
424.679	1845.39
424.887	2007.18
425.094	2029.71
425.302	2095.24
425.51	2117.77
425.718	2211.98
425.925	2183.31
426.133	2338.95
426.341	2414.73
426.548	2578.56
426.756	2586.76
426.964	2601.09
427.171	2754.69
427.379	2787.46
427.586	2738.3
427.794	2889.85
428.001	3076.22
428.209	3219.58
428.417	3129.47
428.624	3356.79
428.832	3541.11
429.039	3246.2
429.247	3375.22
429.454	3760.24
429.662	3954.8
429.869	3532.92
430.076	3915.89
430.284	3833.97
430.491	4022.38
430.699	4118.64
430.906	4128.88
431.114	4204.65
431.321	4341.86
431.528	4368.49
431.736	4806.75
431.943	5066.85
432.15	4851.81
432.358	4810.85
432.565	5199.96
432.772	5316.7
432.979	5451.86
433.187	5582.93
433.394	5589.08
433.601	5843.03
433.808	5976.14
434.016	5812.31
434.223	6084.69
434.43	6635.59
434.637	6230.09
434.844	6770.76
435.052	6969.41
435.259	6897.73
435.466	6918.21
435.673	6824
435.88	7594.04
436.087	7708.73
436.294	7704.63
436.501	7567.42
436.708	7614.52
436.915	7901.23
437.122	8337.45
437.329	8196.14
437.537	8540.2
437.743	8665.13
437.95	8609.83
438.157	9134.11
438.364	9281.57
438.571	9480.22
438.778	9381.92
438.985	10442.76
439.192	9734.17
439.399	10043.41
439.606	9846.8
439.813	10557.45
440.02	10909.7
440.227	10874.88
440.433	10788.87
440.64	11204.61
440.847	11239.42
441.054	11460.6
441.261	12062.71
441.467	12126.19
441.674	12300.27
441.881	12722.15
442.088	12773.35
442.294	12578.79
442.501	13082.6
442.708	13066.21
442.914	13504.48
443.121	14309.33
443.328	14118.87
443.534	14849.99
443.741	14362.58
443.948	14256.08
444.154	15124.42
444.361	15204.29
444.568	15200.19
444.774	15349.7
444.981	15503.29
445.187	15794.11
445.394	16529.33
445.6	16367.54
445.807	17932.19
446.013	17227.68
446.22	17532.83
446.426	18100.12
446.633	18413.46
446.839	18937.74
447.046	18071.45
447.252	19259.27
447.459	19240.84
447.665	19011.46
447.871	19939.19
448.078	20817.77
448.284	19621.76
448.491	20270.97
448.697	21243.75
448.903	21686.11
449.11	21432.16
449.316	21325.67
449.522	21350.24
449.728	22003.55
449.935	22064.99
450.141	22345.56
450.347	22675.28
450.553	22366.04
450.76	22294.36
450.966	22962
451.172	22716.24
451.378	23455.56
451.584	22992.72
451.791	23551.81
451.997	23209.8
452.203	24018.75
452.409	23863.1
452.615	23611.2
452.821	23099.21
453.027	22505.3
453.233	23990.08
453.44	23123.79
453.646	23387.97
453.852	23502.66
454.058	23693.12
454.264	22892.37
454.47	23439.17
454.676	22861.65
454.882	24012.6
455.088	21702.5
455.294	22024.03
455.5	22345.56
455.705	22529.87
455.911	21614.43
456.117	21208.94
456.323	20774.77
456.529	19664.77
456.735	20451.19
456.941	20064.12
457.147	19668.86
457.352	18847.63
457.558	19054.47
457.764	18958.22
457.97	18509.71
458.176	18278.29
458.381	17999.77
458.587	17293.22
458.793	17426.34
458.999	16179.12
459.204	17659.81
459.41	16891.82
459.616	15701.95
459.821	15951.8
460.027	15845.3
460.233	15585.21
460.438	14706.63
460.644	15126.47
460.85	14284.75
461.055	14016.47
461.261	13985.75
461.466	12726.25
461.672	12660.71
461.878	13436.89
462.083	12541.93
462.289	12431.34
462.494	12404.72
462.7	11640.83
462.905	11309.05
463.111	11939.83
463.316	11700.22
463.522	11651.06
463.727	11610.11
463.932	11476.99
464.138	11546.62
464.343	11532.28
464.549	11249.66
464.754	11620.35
464.959	11710.46
465.165	11118.59
465.37	10962.95
465.575	10420.24
465.781	11210.75
465.986	11143.17
466.191	10784.77
466.397	10635.27
466.602	10006.55
466.807	10358.8
467.012	10072.08
467.218	10260.49
467.423	10149.9
467.628	10266.64
467.833	10418.19
468.038	10197.01
468.244	9920.53
468.449	10514.44
468.654	9936.92
468.859	9918.48
