Data from USB4F104151__56__11-37-21-261.txt Node

Date: Fri Mar 14 11:37:21 EDT 2025
User: louis
Spectrometer: USB4F10415
Trigger mode: 4
Integration Time (sec): 2.000000E-2
Scans to average: 1
Electric dark correction enabled: true
Nonlinearity correction enabled: false
Boxcar width: 0
XAxis mode: Wavelengths
Number of Pixels in Spectrum: 3648
>>>>>Begin Spectral Data<<<<<
178.204	-69.46
178.424	-69.46
178.644	-69.46
178.864	8.36
179.084	-32.6
179.304	-59.22
179.524	-10.07
179.744	18.6
179.964	49.32
180.184	-44.88
180.404	41.13
180.624	8.36
180.844	-14.17
181.064	10.41
181.283	55.47
181.503	-40.79
181.723	-14.17
181.943	-24.4
182.163	61.61
182.383	63.66
182.602	49.32
182.822	-24.4
183.042	32.94
183.262	61.61
183.482	6.31
183.701	-3.93
183.921	8.36
184.141	28.84
184.361	49.32
184.58	-48.98
184.8	-36.69
185.02	61.61
185.239	90.28
185.459	32.94
185.679	-38.74
185.898	22.7
186.118	90.28
186.338	4.27
186.557	14.51
186.777	-24.4
186.997	10.41
187.216	49.32
187.436	28.84
187.655	67.75
187.875	88.23
188.095	63.66
188.314	34.99
188.534	73.9
188.753	41.13
188.973	61.61
189.192	43.18
189.412	-26.45
189.631	-1.88
189.851	49.32
190.07	8.36
190.29	-18.26
190.509	32.94
190.729	49.32
190.948	69.8
191.168	116.9
191.387	51.37
191.607	18.6
191.826	92.33
192.045	59.56
192.265	39.08
192.484	6.31
192.704	0.17
192.923	12.46
193.142	90.28
193.362	47.27
193.581	20.65
193.8	63.66
194.02	41.13
194.239	10.41
194.458	-12.12
194.678	26.79
194.897	-20.31
195.116	55.47
195.335	98.47
195.555	49.32
195.774	45.23
195.993	71.85
196.212	55.47
196.432	22.7
196.651	14.51
196.87	57.51
197.089	37.03
197.308	-3.93
197.528	51.37
197.747	-55.12
197.966	65.71
198.185	57.51
198.404	69.8
198.623	32.94
198.842	75.95
199.062	-1.88
199.281	4.27
199.5	51.37
199.719	75.95
199.938	-14.17
200.157	12.46
200.376	32.94
200.595	77.99
200.814	32.94
201.033	57.51
201.252	-32.6
201.471	98.47
201.69	61.61
201.909	53.42
202.128	53.42
202.347	14.51
202.566	6.31
202.785	53.42
203.004	-3.93
203.223	51.37
203.442	90.28
203.661	22.7
203.879	61.61
204.098	71.85
204.317	37.03
204.536	20.65
204.755	39.08
204.974	67.75
205.193	26.79
205.411	57.51
205.63	-1.88
205.849	24.75
206.068	34.99
206.287	37.03
206.505	22.7
206.724	73.9
206.943	6.31
207.162	73.9
207.381	73.9
207.599	45.23
207.818	63.66
208.037	30.89
208.255	86.19
208.474	0.17
208.693	121
208.911	34.99
209.13	-16.21
209.349	71.85
209.567	24.75
209.786	37.03
210.005	28.84
210.223	69.8
210.442	16.55
210.661	24.75
210.879	82.09
211.098	47.27
211.316	84.14
211.535	129.19
211.753	90.28
211.972	32.94
212.191	34.99
212.409	14.51
212.628	-38.74
212.846	-14.17
213.065	67.75
213.283	10.41
213.502	-18.26
213.72	57.51
213.938	-20.31
214.157	28.84
214.375	10.41
214.594	43.18
214.812	73.9
215.031	80.04
215.249	8.36
215.467	47.27
215.686	55.47
215.904	84.14
216.122	65.71
216.341	24.75
216.559	43.18
216.778	10.41
216.996	45.23
217.214	0.17
217.432	12.46
217.651	41.13
217.869	92.33
218.087	71.85
218.306	-5.97
218.524	88.23
218.742	4.27
218.96	8.36
219.179	-20.31
219.397	22.7
219.615	139.43
219.833	-10.07
220.051	22.7
220.27	71.85
220.488	28.84
220.706	41.13
220.924	41.13
221.142	94.38
221.36	-42.84
221.578	-5.97
221.796	-5.97
222.015	55.47
222.233	61.61
222.451	82.09
222.669	-40.79
222.887	98.47
223.105	90.28
223.323	90.28
223.541	30.89
223.759	69.8
223.977	49.32
224.195	45.23
224.413	43.18
224.631	-30.55
224.849	49.32
225.067	147.62
225.285	-10.07
225.503	65.71
225.721	-3.93
225.939	43.18
226.157	-3.93
226.375	118.95
226.592	-3.93
226.81	94.38
227.028	59.56
227.246	53.42
227.464	24.75
227.682	39.08
227.9	51.37
228.117	8.36
228.335	22.7
228.553	-24.4
228.771	106.67
228.989	24.75
229.206	53.42
229.424	37.03
229.642	-1.88
229.86	22.7
230.077	47.27
230.295	82.09
230.513	8.36
230.731	30.89
230.948	57.51
231.166	47.27
231.384	2.22
231.601	63.66
231.819	65.71
232.037	43.18
232.254	-79.7
232.472	16.55
232.689	22.7
232.907	86.19
233.125	-14.17
233.342	32.94
233.56	20.65
233.777	14.51
233.995	10.41
234.213	123.05
234.43	190.63
234.648	53.42
234.865	24.75
235.083	20.65
235.3	37.03
235.518	2.22
235.735	22.7
235.953	34.99
236.17	20.65
236.388	6.31
236.605	41.13
236.822	102.57
237.04	88.23
237.257	32.94
237.475	10.41
237.692	94.38
237.909	45.23
238.127	32.94
238.344	12.46
238.562	28.84
238.779	28.84
238.996	8.36
239.214	98.47
239.431	57.51
239.648	-55.12
239.865	-8.02
240.083	30.89
240.3	47.27
240.517	47.27
240.735	47.27
240.952	82.09
241.169	16.55
241.386	-3.93
241.603	24.75
241.821	43.18
242.038	49.32
242.255	123.05
242.472	28.84
242.689	57.51
242.907	45.23
243.124	-14.17
243.341	12.46
243.558	28.84
243.775	26.79
243.992	45.23
244.209	34.99
244.426	71.85
244.643	121
244.86	-26.45
245.078	53.42
245.295	6.31
245.512	75.95
245.729	-28.5
245.946	8.36
246.163	102.57
246.38	53.42
246.597	73.9
246.814	14.51
247.031	88.23
247.248	45.23
247.464	53.42
247.681	30.89
247.898	67.75
248.115	69.8
248.332	-12.12
248.549	16.55
248.766	-5.97
248.983	65.71
249.2	43.18
249.417	106.67
249.633	8.36
249.85	155.82
250.067	75.95
250.284	41.13
250.501	39.08
250.717	30.89
250.934	16.55
251.151	34.99
251.368	61.61
251.585	14.51
251.801	86.19
252.018	67.75
252.235	39.08
252.451	65.71
252.668	-5.97
252.885	88.23
253.102	51.37
253.318	69.8
253.535	-3.93
253.752	22.7
253.968	-30.55
254.185	18.6
254.401	-16.21
254.618	86.19
254.835	8.36
255.051	75.95
255.268	20.65
255.484	96.43
255.701	8.36
255.917	24.75
256.134	-1.88
256.351	4.27
256.567	86.19
256.784	71.85
257	32.94
257.217	71.85
257.433	41.13
257.65	-26.45
257.866	59.56
258.082	-24.4
258.299	14.51
258.515	82.09
258.732	49.32
258.948	-51.03
259.165	92.33
259.381	45.23
259.597	41.13
259.814	30.89
260.03	41.13
260.246	47.27
260.463	14.51
260.679	84.14
260.895	82.09
261.112	127.14
261.328	2.22
261.544	53.42
261.761	166.06
261.977	-48.98
262.193	24.75
262.409	84.14
262.626	16.55
262.842	16.55
263.058	49.32
263.274	-12.12
263.49	-16.21
263.707	94.38
263.923	16.55
264.139	49.32
264.355	49.32
264.571	73.9
264.787	8.36
265.004	22.7
265.22	32.94
265.436	8.36
265.652	8.36
265.868	84.14
266.084	57.51
266.3	106.67
266.516	47.27
266.732	92.33
266.948	69.8
267.164	12.46
267.38	18.6
267.596	112.81
267.812	32.94
268.028	30.89
268.244	43.18
268.46	57.51
268.676	65.71
268.892	82.09
269.108	16.55
269.324	24.75
269.54	-18.26
269.756	0.17
269.972	-3.93
270.188	-24.4
270.403	32.94
270.619	-18.26
270.835	22.7
271.051	-20.31
271.267	51.37
271.483	24.75
271.698	88.23
271.914	-5.97
272.13	49.32
272.346	34.99
272.562	34.99
272.777	30.89
272.993	63.66
273.209	-12.12
273.425	51.37
273.64	-26.45
273.856	-44.88
274.072	57.51
274.287	57.51
274.503	84.14
274.719	98.47
274.934	47.27
275.15	39.08
275.366	22.7
275.581	-24.4
275.797	65.71
276.012	53.42
276.228	49.32
276.444	0.17
276.659	47.27
276.875	10.41
277.09	73.9
277.306	94.38
277.521	137.38
277.737	30.89
277.952	8.36
278.168	6.31
278.383	75.95
278.599	30.89
278.814	71.85
279.03	28.84
279.245	43.18
279.461	63.66
279.676	116.9
279.892	49.32
280.107	57.51
280.322	6.31
280.538	80.04
280.753	-18.26
280.969	-5.97
281.184	69.8
281.399	41.13
281.615	8.36
281.83	43.18
282.045	32.94
282.26	-3.93
282.476	8.36
282.691	96.43
282.906	34.99
283.122	16.55
283.337	-32.6
283.552	67.75
283.767	0.17
283.983	32.94
284.198	34.99
284.413	88.23
284.628	-16.21
284.843	98.47
285.058	32.94
285.274	37.03
285.489	49.32
285.704	65.71
285.919	-3.93
286.134	106.67
286.349	26.79
286.564	-32.6
286.779	65.71
286.995	37.03
287.21	114.86
287.425	6.31
287.64	65.71
287.855	63.66
288.07	6.31
288.285	26.79
288.5	45.23
288.715	-3.93
288.93	28.84
289.145	110.76
289.36	24.75
289.575	16.55
289.79	53.42
290.004	55.47
290.219	37.03
290.434	63.66
290.649	26.79
290.864	24.75
291.079	22.7
291.294	32.94
291.509	-24.4
291.724	127.14
291.938	73.9
292.153	41.13
292.368	34.99
292.583	94.38
292.798	53.42
293.012	65.71
293.227	65.71
293.442	96.43
293.657	65.71
293.871	73.9
294.086	61.61
294.301	41.13
294.516	92.33
294.73	141.48
294.945	16.55
295.16	45.23
295.374	30.89
295.589	28.84
295.804	2.22
296.018	51.37
296.233	114.86
296.447	59.56
296.662	12.46
296.877	14.51
297.091	14.51
297.306	65.71
297.52	10.41
297.735	67.75
297.949	30.89
298.164	47.27
298.378	75.95
298.593	82.09
298.807	32.94
299.022	34.99
299.236	8.36
299.451	-32.6
299.665	32.94
299.88	32.94
300.094	24.75
300.309	43.18
300.523	-36.69
300.737	49.32
300.952	63.66
301.166	28.84
301.381	2.22
301.595	24.75
301.809	14.51
302.024	55.47
302.238	55.47
302.452	108.71
302.667	24.75
302.881	118.95
303.095	112.81
303.309	41.13
303.524	86.19
303.738	-14.17
303.952	-3.93
304.166	41.13
304.381	-16.21
304.595	94.38
304.809	92.33
305.023	106.67
305.237	-67.41
305.452	16.55
305.666	12.46
305.88	49.32
306.094	80.04
306.308	14.51
306.522	-3.93
306.736	32.94
306.95	-22.36
307.164	20.65
307.379	18.6
307.593	65.71
307.807	-3.93
308.021	4.27
308.235	12.46
308.449	32.94
308.663	-53.08
308.877	88.23
309.091	59.56
309.305	71.85
309.519	28.84
309.733	51.37
309.947	26.79
310.161	-12.12
310.374	51.37
310.588	125.1
310.802	-24.4
311.016	-8.02
311.23	20.65
311.444	12.46
311.658	-14.17
311.872	145.58
312.085	82.09
312.299	39.08
312.513	14.51
312.727	51.37
312.941	-28.5
313.154	90.28
313.368	6.31
313.582	-3.93
313.796	57.51
314.009	41.13
314.223	20.65
314.437	84.14
314.651	73.9
314.864	-1.88
315.078	22.7
315.292	14.51
315.505	20.65
315.719	32.94
315.933	41.13
316.146	-1.88
316.36	-20.31
316.573	22.7
316.787	73.9
317.001	118.95
317.214	73.9
317.428	43.18
317.641	86.19
317.855	18.6
318.068	41.13
318.282	57.51
318.495	82.09
318.709	4.27
318.922	80.04
319.136	10.41
319.349	12.46
319.563	28.84
319.776	34.99
319.99	65.71
320.203	28.84
320.417	55.47
320.63	71.85
320.843	47.27
321.057	-5.97
321.27	45.23
321.483	49.32
321.697	45.23
321.91	-8.02
322.124	41.13
322.337	6.31
322.55	98.47
322.763	77.99
322.977	47.27
323.19	41.13
323.403	69.8
323.617	71.85
323.83	43.18
324.043	6.31
324.256	92.33
324.469	26.79
324.683	4.27
324.896	18.6
325.109	37.03
325.322	82.09
325.535	96.43
325.748	45.23
325.962	14.51
326.175	26.79
326.388	49.32
326.601	172.2
326.814	-1.88
327.027	28.84
327.24	65.71
327.453	-57.17
327.666	32.94
327.879	24.75
328.092	59.56
328.305	114.86
328.518	6.31
328.731	28.84
328.944	28.84
329.157	90.28
329.37	28.84
329.583	24.75
329.796	123.05
330.009	55.47
330.222	-10.07
330.435	30.89
330.648	45.23
330.861	57.51
331.073	41.13
331.286	51.37
331.499	18.6
331.712	86.19
331.925	6.31
332.138	71.85
332.35	37.03
332.563	49.32
332.776	53.42
332.989	41.13
333.202	16.55
333.414	-8.02
333.627	34.99
333.84	61.61
334.053	61.61
334.265	77.99
334.478	28.84
334.691	63.66
334.903	26.79
335.116	24.75
335.329	86.19
335.541	37.03
335.754	69.8
335.966	80.04
336.179	77.99
336.392	59.56
336.604	18.6
336.817	63.66
337.029	88.23
337.242	77.99
337.454	26.79
337.667	10.41
337.88	88.23
338.092	37.03
338.305	108.71
338.517	61.61
338.729	65.71
338.942	133.29
339.154	16.55
339.367	-8.02
339.579	30.89
339.792	41.13
340.004	55.47
340.217	57.51
340.429	-16.21
340.641	10.41
340.854	65.71
341.066	22.7
341.278	84.14
341.491	63.66
341.703	51.37
341.915	86.19
342.128	51.37
342.34	-1.88
342.552	114.86
342.764	-40.79
342.977	18.6
343.189	49.32
343.401	34.99
343.613	30.89
343.826	61.61
344.038	37.03
344.25	86.19
344.462	16.55
344.674	90.28
344.886	51.37
345.099	96.43
345.311	77.99
345.523	94.38
345.735	-28.5
345.947	59.56
346.159	45.23
346.371	41.13
346.583	55.47
346.795	92.33
347.007	94.38
347.219	37.03
347.431	6.31
347.643	98.47
347.855	16.55
348.067	-18.26
348.279	-16.21
348.491	-24.4
348.703	84.14
348.915	-24.4
349.127	12.46
349.339	75.95
349.551	28.84
349.763	110.76
349.975	4.27
350.187	84.14
350.399	55.47
350.61	102.57
350.822	14.51
351.034	8.36
351.246	55.47
351.458	61.61
351.669	39.08
351.881	43.18
352.093	102.57
352.305	102.57
352.517	69.8
352.728	106.67
352.94	0.17
353.152	41.13
353.363	26.79
353.575	63.66
353.787	49.32
353.999	82.09
354.21	49.32
354.422	-12.12
354.633	63.66
354.845	22.7
355.057	69.8
355.268	82.09
355.48	-8.02
355.692	30.89
355.903	41.13
356.115	53.42
356.326	98.47
356.538	98.47
356.749	32.94
356.961	121
357.172	73.9
357.384	82.09
357.595	114.86
357.807	-18.26
358.018	49.32
358.23	77.99
358.441	98.47
358.653	20.65
358.864	26.79
359.075	65.71
359.287	106.67
359.498	63.66
359.709	30.89
359.921	28.84
360.132	84.14
360.344	51.37
360.555	100.52
360.766	37.03
360.977	-40.79
361.189	112.81
361.4	127.14
361.611	65.71
361.823	69.8
362.034	118.95
362.245	-1.88
362.456	59.56
362.667	-16.21
362.879	57.51
363.09	10.41
363.301	49.32
363.512	-40.79
363.723	-18.26
363.935	45.23
364.146	102.57
364.357	37.03
364.568	106.67
364.779	37.03
364.99	75.95
365.201	49.32
365.412	88.23
365.623	28.84
365.834	41.13
366.045	84.14
366.256	57.51
366.467	39.08
366.678	45.23
366.889	45.23
367.1	-10.07
367.311	43.18
367.522	43.18
367.733	77.99
367.944	84.14
368.155	47.27
368.366	49.32
368.577	14.51
368.788	110.76
368.999	59.56
369.209	14.51
369.42	69.8
369.631	88.23
369.842	28.84
370.053	20.65
370.264	112.81
370.474	37.03
370.685	57.51
370.896	14.51
371.107	123.05
371.317	43.18
371.528	28.84
371.739	80.04
371.95	118.95
372.16	69.8
372.371	59.56
372.582	53.42
372.792	47.27
373.003	-48.98
373.214	49.32
373.424	86.19
373.635	80.04
373.846	61.61
374.056	49.32
374.267	53.42
374.477	88.23
374.688	-57.17
374.898	-26.45
375.109	127.14
375.319	45.23
375.53	98.47
375.74	55.47
375.951	112.81
376.161	71.85
376.372	168.1
376.582	104.62
376.793	-32.6
377.003	59.56
377.214	90.28
377.424	0.17
377.635	49.32
377.845	20.65
378.055	65.71
378.266	22.7
378.476	39.08
378.686	69.8
378.897	133.29
379.107	22.7
379.317	26.79
379.528	86.19
379.738	180.39
379.948	80.04
380.158	92.33
380.369	73.9
380.579	45.23
380.789	16.55
380.999	-12.12
381.21	121
381.42	106.67
381.63	-3.93
381.84	153.77
382.05	71.85
382.261	75.95
382.471	65.71
382.681	67.75
382.891	45.23
383.101	98.47
383.311	51.37
383.521	57.51
383.731	67.75
383.941	77.99
384.151	26.79
384.361	127.14
384.571	69.8
384.781	69.8
384.991	112.81
385.201	108.71
385.411	69.8
385.621	28.84
385.831	14.51
386.041	100.52
386.251	45.23
386.461	106.67
386.671	32.94
386.881	65.71
387.091	61.61
387.301	118.95
387.511	30.89
387.72	127.14
387.93	26.79
388.14	32.94
388.35	77.99
388.56	86.19
388.769	12.46
388.979	73.9
389.189	131.24
389.399	53.42
389.609	75.95
389.818	63.66
390.028	106.67
390.238	28.84
390.447	86.19
390.657	102.57
390.867	82.09
391.076	71.85
391.286	77.99
391.496	65.71
391.705	90.28
391.915	80.04
392.125	104.62
392.334	69.8
392.544	94.38
392.753	84.14
392.963	51.37
393.172	108.71
393.382	57.51
393.591	73.9
393.801	30.89
394.01	86.19
394.22	20.65
394.429	59.56
394.639	82.09
394.848	49.32
395.058	92.33
395.267	114.86
395.477	131.24
395.686	100.52
395.895	53.42
396.105	82.09
396.314	94.38
396.524	137.38
396.733	80.04
396.942	217.26
397.152	125.1
397.361	82.09
397.57	28.84
397.78	77.99
397.989	104.62
398.198	141.48
398.407	147.62
398.617	121
398.826	77.99
399.035	164.01
399.244	106.67
399.453	170.15
399.663	114.86
399.872	137.38
400.081	114.86
400.29	157.86
400.499	114.86
400.708	96.43
400.917	131.24
401.127	114.86
401.336	157.86
401.545	110.76
401.754	184.49
401.963	116.9
402.172	147.62
402.381	118.95
402.59	147.62
402.799	155.82
403.008	229.54
403.217	112.81
403.426	127.14
403.635	186.54
403.844	131.24
404.053	157.86
404.262	215.21
404.471	139.43
404.68	196.78
404.888	233.64
405.097	90.28
405.306	143.53
405.515	204.97
405.724	137.38
405.933	229.54
406.142	155.82
406.35	223.4
406.559	168.1
406.768	204.97
406.977	256.17
407.185	295.08
407.394	290.98
407.603	180.39
407.812	196.78
408.02	229.54
408.229	260.26
408.438	233.64
408.646	139.43
408.855	243.88
409.064	256.17
409.272	239.78
409.481	270.5
409.69	266.41
409.898	401.57
410.107	293.03
410.315	336.04
410.524	340.13
410.733	336.04
410.941	323.75
411.15	407.72
411.358	483.49
411.567	417.96
411.775	323.75
411.984	368.81
412.192	430.24
412.401	411.81
412.609	434.34
412.818	538.79
413.026	508.07
413.234	620.71
413.443	471.2
413.651	596.13
413.86	639.14
414.068	583.84
414.276	559.27
414.485	692.38
414.693	678.05
414.901	692.38
415.11	612.51
415.318	825.5
415.526	737.44
415.734	723.1
415.943	827.55
416.151	839.84
416.359	915.61
416.567	964.76
416.776	917.66
416.984	989.34
417.192	1048.73
417.4	1011.87
417.608	1024.16
417.817	1052.83
418.025	1038.49
418.233	1208.47
418.441	1202.33
418.649	1292.44
418.857	1323.16
419.065	1384.6
419.273	1349.78
419.481	1360.02
419.689	1441.94
419.897	1499.28
420.105	1513.62
420.313	1648.79
420.521	1577.11
420.729	1796.24
420.937	1751.18
421.145	1736.85
421.353	1974.41
421.561	2076.81
421.769	2048.14
421.977	2166.92
422.185	2064.52
422.393	2234.5
422.601	2275.46
422.809	2316.42
423.017	2306.18
423.224	2527.36
423.432	2586.76
423.64	2646.15
423.848	2840.7
424.056	2785.41
424.263	2986.11
424.471	3035.26
424.679	3096.7
424.887	3102.84
425.094	3358.84
425.302	3238.01
425.51	3442.81
425.718	3586.16
425.925	3524.72
426.133	3686.51
426.341	3715.19
426.548	4071.53
426.756	3940.46
426.964	4190.31
427.171	4403.3
427.379	4452.45
427.586	4546.66
427.794	4579.43
428.001	4804.71
428.209	5025.89
428.417	5156.96
428.624	5458.01
428.832	5408.86
429.039	5238.87
429.247	5376.09
429.454	5970
429.662	6215.76
429.869	5957.71
430.076	6342.73
430.284	6164.56
430.491	6273.1
430.699	6811.71
430.906	6781
431.114	6740.04
431.321	7020.61
431.528	7155.77
431.736	7776.31
431.943	8214.57
432.15	7802.93
432.358	7868.47
432.565	8282.16
432.772	8423.47
432.979	8755.24
433.187	8792.1
433.394	8828.96
433.601	9484.31
433.808	9459.74
434.016	9289.76
434.223	9662.49
434.43	10690.57
434.637	10450.96
434.844	10829.83
435.052	11190.27
435.259	10950.66
435.466	10999.81
435.673	10811.4
435.88	11603.96
436.087	12210.16
436.294	12296.18
436.501	12015.6
436.708	12328.94
436.915	12795.88
437.122	13170.66
437.329	13420.51
437.537	13567.96
437.743	13891.54
437.95	13713.37
438.157	14647.24
438.364	14966.73
438.571	14884.81
438.778	15081.41
438.985	16514.99
439.192	15714.23
439.399	16451.5
439.606	16164.79
439.813	16883.63
440.02	17987.48
440.227	17649.57
440.433	17239.97
440.64	17889.18
440.847	17831.83
441.054	18317.2
441.261	19578.75
441.467	19244.93
441.674	19507.07
441.881	20455.28
442.088	20277.11
442.294	20291.45
442.501	20813.68
442.708	21180.26
442.914	21722.98
443.121	22632.27
443.328	22347.61
443.534	23877.44
443.741	23129.93
443.948	22918.99
444.154	24745.78
444.361	24172.35
444.568	24391.48
444.774	24448.82
444.981	24889.13
445.187	25376.55
445.394	26615.57
445.6	26224.41
445.807	28915.44
446.013	27660.04
446.22	27977.47
446.426	28798.71
446.633	29353.71
446.839	30199.52
447.046	28944.11
447.252	30539.48
447.459	30885.59
447.665	30451.42
447.871	32241.34
448.078	33095.35
448.284	31323.85
448.491	32425.66
448.697	34057.89
448.903	34203.3
449.11	34309.79
449.316	33664.68
449.522	34551.45
449.728	35438.22
449.935	35470.99
450.141	35677.83
450.347	36609.66
450.553	35456.65
450.76	35630.73
450.966	36873.85
451.172	36552.32
451.378	37299.83
451.584	36724.35
451.791	37484.14
451.997	37504.62
452.203	38096.49
452.409	37932.65
452.615	37766.76
452.821	36202.11
453.027	36042.37
453.233	38063.72
453.44	36609.66
453.646	36976.25
453.852	36984.44
454.058	37645.93
454.264	36200.07
454.47	37332.59
454.676	36484.73
454.882	38162.02
455.088	34485.92
455.294	35128.98
455.5	35286.67
455.705	35833.48
455.911	34188.96
456.117	33539.75
456.323	33269.42
456.529	31573.7
456.735	32837.3
456.941	31985.35
457.147	31166.16
457.352	30623.45
457.558	30226.14
457.764	30191.33
457.97	29527.78
458.176	29189.87
458.381	29130.48
458.587	27651.84
458.793	27787.01
458.999	26218.27
459.204	27901.7
459.41	27191.05
459.616	25370.41
459.821	25691.94
460.027	25349.93
460.233	24524.6
460.438	23615.3
460.644	24020.8
460.85	23031.63
461.055	22431.57
461.261	22339.41
461.466	20684.66
461.672	20125.56
461.878	21628.77
462.083	19980.15
462.289	20008.83
462.494	19478.4
462.7	18728.84
462.905	18096.02
463.111	19120.01
463.316	19019.66
463.522	18352.02
463.727	18499.47
463.932	18435.99
464.138	18227.09
464.343	18155.41
464.549	18001.82
464.754	18587.54
464.959	18032.54
465.165	18251.67
465.37	17395.62
465.575	17020.84
465.781	17528.74
465.986	17807.26
466.191	17022.89
466.397	16732.08
466.602	15910.84
466.807	16525.23
467.012	16439.22
467.218	16482.22
467.423	15959.99
467.628	16322.48
