Data from USB4F104151__86__11-37-51-277.txt Node

Date: Fri Mar 14 11:37:51 EDT 2025
User: louis
Spectrometer: USB4F10415
Trigger mode: 4
Integration Time (sec): 2.000000E-2
Scans to average: 1
Electric dark correction enabled: true
Nonlinearity correction enabled: false
Boxcar width: 0
XAxis mode: Wavelengths
Number of Pixels in Spectrum: 3648
>>>>>Begin Spectral Data<<<<<
178.204	-89.09
178.424	-89.09
178.644	-89.09
178.864	-103.42
179.084	-68.61
179.304	11.26
179.524	7.17
179.744	39.94
179.964	76.8
180.184	-66.56
180.404	-39.94
180.624	-5.12
180.844	17.41
181.064	-50.18
181.283	23.55
181.503	-7.17
181.723	-7.17
181.943	-54.27
182.163	105.47
182.383	-5.12
182.602	15.36
182.822	-11.26
183.042	27.65
183.262	27.65
183.482	46.08
183.701	5.12
183.921	-3.07
184.141	-33.79
184.361	48.13
184.58	74.75
184.8	9.22
185.02	44.03
185.239	113.66
185.459	-7.17
185.679	23.55
185.898	19.46
186.118	62.46
186.338	-39.94
186.557	82.94
186.777	93.18
186.997	76.8
187.216	27.65
187.436	-13.31
187.655	-23.55
187.875	37.89
188.095	-50.18
188.314	76.8
188.534	44.03
188.753	27.65
188.973	35.84
189.192	87.04
189.412	1.02
189.631	11.26
189.851	41.98
190.07	60.42
190.29	-72.7
190.509	-21.5
190.729	21.5
190.948	1.02
191.168	17.41
191.387	54.27
191.607	15.36
191.826	1.02
192.045	-37.89
192.265	-11.26
192.484	-31.74
192.704	-11.26
192.923	-29.7
193.142	113.66
193.362	-9.22
193.581	52.22
193.8	-25.6
194.02	41.98
194.239	11.26
194.458	25.6
194.678	11.26
194.897	27.65
195.116	-5.12
195.335	5.12
195.555	74.75
195.774	64.51
195.993	99.33
196.212	-3.07
196.432	62.46
196.651	-29.7
196.87	-27.65
197.089	7.17
197.308	-23.55
197.528	29.7
197.747	41.98
197.966	60.42
198.185	9.22
198.404	31.74
198.623	11.26
198.842	41.98
199.062	60.42
199.281	27.65
199.5	35.84
199.719	-23.55
199.938	82.94
200.157	87.04
200.376	62.46
200.595	25.6
200.814	39.94
201.033	-23.55
201.252	93.18
201.471	29.7
201.69	48.13
201.909	33.79
202.128	35.84
202.347	23.55
202.566	-56.32
202.785	-11.26
203.004	23.55
203.223	68.61
203.442	35.84
203.661	23.55
203.879	54.27
204.098	7.17
204.317	-70.65
204.536	62.46
204.755	82.94
204.974	-3.07
205.193	-21.5
205.411	58.37
205.63	5.12
205.849	68.61
206.068	11.26
206.287	52.22
206.505	19.46
206.724	-21.5
206.943	25.6
207.162	-37.89
207.381	97.28
207.599	17.41
207.818	-5.12
208.037	-27.65
208.255	56.32
208.474	-44.03
208.693	13.31
208.911	-50.18
209.13	97.28
209.349	5.12
209.567	39.94
209.786	64.51
210.005	33.79
210.223	72.7
210.442	7.17
210.661	-9.22
210.879	29.7
211.098	19.46
211.316	64.51
211.535	64.51
211.753	-41.98
211.972	5.12
212.191	21.5
212.409	25.6
212.628	15.36
212.846	58.37
213.065	74.75
213.283	5.12
213.502	19.46
213.72	41.98
213.938	35.84
214.157	11.26
214.375	33.79
214.594	-9.22
214.812	33.79
215.031	17.41
215.249	-19.46
215.467	-23.55
215.686	52.22
215.904	39.94
216.122	-5.12
216.341	52.22
216.559	46.08
216.778	3.07
216.996	66.56
217.214	-27.65
217.432	9.22
217.651	48.13
217.869	-29.7
218.087	-1.02
218.306	-23.55
218.524	5.12
218.742	1.02
218.96	-7.17
219.179	29.7
219.397	15.36
219.615	82.94
219.833	-82.94
220.051	3.07
220.27	54.27
220.488	19.46
220.706	-37.89
220.924	17.41
221.142	13.31
221.36	-44.03
221.578	-37.89
221.796	-95.23
222.015	39.94
222.233	39.94
222.451	25.6
222.669	-68.61
222.887	70.65
223.105	-5.12
223.323	27.65
223.541	-84.99
223.759	56.32
223.977	11.26
224.195	31.74
224.413	-7.17
224.631	-35.84
224.849	44.03
225.067	17.41
225.285	-1.02
225.503	62.46
225.721	35.84
225.939	-62.46
226.157	39.94
226.375	91.13
226.592	-13.31
226.81	19.46
227.028	60.42
227.246	27.65
227.464	62.46
227.682	50.18
227.9	-1.02
228.117	74.75
228.335	-39.94
228.553	37.89
228.771	25.6
228.989	29.7
229.206	54.27
229.424	3.07
229.642	-35.84
229.86	29.7
230.077	9.22
230.295	11.26
230.513	27.65
230.731	-31.74
230.948	52.22
231.166	7.17
231.384	-62.46
231.601	46.08
231.819	31.74
232.037	50.18
232.254	-46.08
232.472	46.08
232.689	-23.55
232.907	31.74
233.125	74.75
233.342	21.5
233.56	13.31
233.777	-37.89
233.995	3.07
234.213	1.02
234.43	41.98
234.648	13.31
234.865	39.94
235.083	19.46
235.3	11.26
235.518	13.31
235.735	107.52
235.953	91.13
236.17	64.51
236.388	50.18
236.605	-48.13
236.822	60.42
237.04	52.22
237.257	33.79
237.475	-29.7
237.692	74.75
237.909	64.51
238.127	-48.13
238.344	7.17
238.562	84.99
238.779	-29.7
238.996	68.61
239.214	-15.36
239.431	33.79
239.648	-7.17
239.865	48.13
240.083	60.42
240.3	-1.02
240.517	-33.79
240.735	15.36
240.952	1.02
241.169	80.89
241.386	39.94
241.603	44.03
241.821	31.74
242.038	7.17
242.255	-19.46
242.472	-46.08
242.689	68.61
242.907	103.42
243.124	29.7
243.341	99.33
243.558	-25.6
243.775	35.84
243.992	-13.31
244.209	44.03
244.426	-21.5
244.643	76.8
244.86	23.55
245.078	-11.26
245.295	-11.26
245.512	13.31
245.729	-23.55
245.946	54.27
246.163	27.65
246.38	21.5
246.597	80.89
246.814	-9.22
247.031	-13.31
247.248	11.26
247.464	3.07
247.681	-33.79
247.898	52.22
248.115	-17.41
248.332	-31.74
248.549	33.79
248.766	1.02
248.983	50.18
249.2	15.36
249.417	76.8
249.633	-1.02
249.85	15.36
250.067	89.09
250.284	44.03
250.501	41.98
250.717	23.55
250.934	44.03
251.151	-1.02
251.368	91.13
251.585	-17.41
251.801	-13.31
252.018	46.08
252.235	39.94
252.451	31.74
252.668	9.22
252.885	44.03
253.102	5.12
253.318	64.51
253.535	64.51
253.752	-13.31
253.968	-41.98
254.185	-11.26
254.401	7.17
254.618	9.22
254.835	27.65
255.051	21.5
255.268	87.04
255.484	101.37
255.701	70.65
255.917	3.07
256.134	35.84
256.351	19.46
256.567	109.57
256.784	-17.41
257	-15.36
257.217	91.13
257.433	-21.5
257.65	7.17
257.866	101.37
258.082	25.6
258.299	-7.17
258.515	82.94
258.732	-31.74
258.948	9.22
259.165	-5.12
259.381	-11.26
259.597	41.98
259.814	56.32
260.03	82.94
260.246	-13.31
260.463	50.18
260.679	9.22
260.895	68.61
261.112	39.94
261.328	3.07
261.544	29.7
261.761	-5.12
261.977	68.61
262.193	56.32
262.409	3.07
262.626	-31.74
262.842	72.7
263.058	39.94
263.274	41.98
263.49	33.79
263.707	37.89
263.923	60.42
264.139	5.12
264.355	-29.7
264.571	-7.17
264.787	-5.12
265.004	25.6
265.22	70.65
265.436	70.65
265.652	-13.31
265.868	93.18
266.084	11.26
266.3	84.99
266.516	37.89
266.732	115.71
266.948	31.74
267.164	-48.13
267.38	19.46
267.596	19.46
267.812	23.55
268.028	-31.74
268.244	-27.65
268.46	29.7
268.676	31.74
268.892	97.28
269.108	17.41
269.324	31.74
269.54	-13.31
269.756	-11.26
269.972	62.46
270.188	25.6
270.403	-11.26
270.619	101.37
270.835	11.26
271.051	9.22
271.267	76.8
271.483	35.84
271.698	52.22
271.914	82.94
272.13	1.02
272.346	41.98
272.562	33.79
272.777	52.22
272.993	21.5
273.209	-5.12
273.425	46.08
273.64	-44.03
273.856	17.41
274.072	91.13
274.287	-56.32
274.503	31.74
274.719	3.07
274.934	82.94
275.15	13.31
275.366	-46.08
275.581	-39.94
275.797	58.37
276.012	50.18
276.228	64.51
276.444	50.18
276.659	84.99
276.875	-37.89
277.09	9.22
277.306	-46.08
277.521	64.51
277.737	46.08
277.952	-17.41
278.168	76.8
278.383	19.46
278.599	52.22
278.814	84.99
279.03	44.03
279.245	33.79
279.461	9.22
279.676	-89.09
279.892	-17.41
280.107	-76.8
280.322	1.02
280.538	39.94
280.753	-5.12
280.969	39.94
281.184	74.75
281.399	-5.12
281.615	-9.22
281.83	29.7
282.045	39.94
282.26	-13.31
282.476	25.6
282.691	23.55
282.906	35.84
283.122	74.75
283.337	76.8
283.552	-13.31
283.767	80.89
283.983	99.33
284.198	9.22
284.413	52.22
284.628	-5.12
284.843	15.36
285.058	80.89
285.274	1.02
285.489	-72.7
285.704	89.09
285.919	33.79
286.134	23.55
286.349	7.17
286.564	-31.74
286.779	7.17
286.995	44.03
287.21	74.75
287.425	66.56
287.64	-19.46
287.855	5.12
288.07	68.61
288.285	115.71
288.5	80.89
288.715	21.5
288.93	19.46
289.145	-1.02
289.36	-11.26
289.575	11.26
289.79	-11.26
290.004	54.27
290.219	48.13
290.434	-25.6
290.649	3.07
290.864	27.65
291.079	78.85
291.294	25.6
291.509	82.94
291.724	23.55
291.938	-37.89
292.153	33.79
292.368	11.26
292.583	-25.6
292.798	29.7
293.012	-33.79
293.227	7.17
293.442	89.09
293.657	25.6
293.871	48.13
294.086	111.61
294.301	115.71
294.516	9.22
294.73	80.89
294.945	66.56
295.16	-3.07
295.374	58.37
295.589	84.99
295.804	-21.5
296.018	58.37
296.233	52.22
296.447	48.13
296.662	-27.65
296.877	27.65
297.091	84.99
297.306	97.28
297.52	5.12
297.735	3.07
297.949	23.55
298.164	60.42
298.378	-17.41
298.593	58.37
298.807	-21.5
299.022	58.37
299.236	35.84
299.451	74.75
299.665	82.94
299.88	50.18
300.094	35.84
300.309	-21.5
300.523	35.84
300.737	64.51
300.952	9.22
301.166	39.94
301.381	21.5
301.595	-41.98
301.809	-23.55
302.024	66.56
302.238	50.18
302.452	87.04
302.667	17.41
302.881	123.9
303.095	17.41
303.309	3.07
303.524	78.85
303.738	35.84
303.952	-23.55
304.166	50.18
304.381	-13.31
304.595	33.79
304.809	7.17
305.023	39.94
305.237	27.65
305.452	3.07
305.666	-9.22
305.88	60.42
306.094	52.22
306.308	93.18
306.522	76.8
306.736	3.07
306.95	89.09
307.164	25.6
307.379	-48.13
307.593	39.94
307.807	-9.22
308.021	9.22
308.235	52.22
308.449	-5.12
308.663	70.65
308.877	-5.12
309.091	74.75
309.305	99.33
309.519	-3.07
309.733	1.02
309.947	-31.74
310.161	91.13
310.374	37.89
310.588	52.22
310.802	-41.98
311.016	27.65
311.23	35.84
311.444	60.42
311.658	37.89
311.872	25.6
312.085	-25.6
312.299	62.46
312.513	19.46
312.727	3.07
312.941	-35.84
313.154	33.79
313.368	44.03
313.582	91.13
313.796	33.79
314.009	39.94
314.223	78.85
314.437	23.55
314.651	9.22
314.864	66.56
315.078	107.52
315.292	7.17
315.505	-15.36
315.719	105.47
315.933	101.37
316.146	39.94
316.36	5.12
316.573	84.99
316.787	48.13
317.001	19.46
317.214	-68.61
317.428	21.5
317.641	46.08
317.855	39.94
318.068	31.74
318.282	7.17
318.495	7.17
318.709	15.36
318.922	29.7
319.136	66.56
319.349	72.7
319.563	78.85
319.776	17.41
319.99	35.84
320.203	35.84
320.417	27.65
320.63	3.07
320.843	50.18
321.057	41.98
321.27	44.03
321.483	9.22
321.697	44.03
321.91	5.12
322.124	84.99
322.337	87.04
322.55	23.55
322.763	21.5
322.977	19.46
323.19	72.7
323.403	33.79
323.617	50.18
323.83	35.84
324.043	41.98
324.256	56.32
324.469	128
324.683	82.94
324.896	21.5
325.109	80.89
325.322	11.26
325.535	87.04
325.748	58.37
325.962	82.94
326.175	-19.46
326.388	99.33
326.601	39.94
326.814	46.08
327.027	1.02
327.24	54.27
327.453	68.61
327.666	68.61
327.879	23.55
328.092	17.41
328.305	-5.12
328.518	82.94
328.731	-3.07
328.944	58.37
329.157	48.13
329.37	25.6
329.583	-1.02
329.796	134.14
330.009	44.03
330.222	54.27
330.435	-5.12
330.648	31.74
330.861	44.03
331.073	29.7
331.286	35.84
331.499	52.22
331.712	-19.46
331.925	50.18
332.138	15.36
332.35	84.99
332.563	84.99
332.776	-46.08
332.989	31.74
333.202	70.65
333.414	44.03
333.627	23.55
333.84	-35.84
334.053	5.12
334.265	25.6
334.478	72.7
334.691	17.41
334.903	68.61
335.116	62.46
335.329	39.94
335.541	80.89
335.754	60.42
335.966	48.13
336.179	-1.02
336.392	7.17
336.604	48.13
336.817	-31.74
337.029	7.17
337.242	15.36
337.454	25.6
337.667	9.22
337.88	33.79
338.092	13.31
338.305	78.85
338.517	70.65
338.729	5.12
338.942	37.89
339.154	-7.17
339.367	37.89
339.579	23.55
339.792	-13.31
340.004	15.36
340.217	27.65
340.429	-19.46
340.641	-13.31
340.854	-23.55
341.066	23.55
341.278	80.89
341.491	58.37
341.703	46.08
341.915	-5.12
342.128	11.26
342.34	76.8
342.552	113.66
342.764	37.89
342.977	50.18
343.189	-11.26
343.401	50.18
343.613	72.7
343.826	41.98
344.038	29.7
344.25	44.03
344.462	-9.22
344.674	115.71
344.886	29.7
345.099	37.89
345.311	44.03
345.523	58.37
345.735	17.41
345.947	82.94
346.159	82.94
346.371	31.74
346.583	3.07
346.795	46.08
347.007	11.26
347.219	80.89
347.431	44.03
347.643	52.22
347.855	25.6
348.067	39.94
348.279	27.65
348.491	82.94
348.703	-17.41
348.915	99.33
349.127	1.02
349.339	39.94
349.551	25.6
349.763	1.02
349.975	5.12
350.187	84.99
350.399	68.61
350.61	33.79
350.822	68.61
351.034	25.6
351.246	27.65
351.458	27.65
351.669	60.42
351.881	39.94
352.093	17.41
352.305	68.61
352.517	15.36
352.728	39.94
352.94	64.51
353.152	91.13
353.363	21.5
353.575	76.8
353.787	76.8
353.999	-13.31
354.21	25.6
354.422	13.31
354.633	33.79
354.845	64.51
355.057	-17.41
355.268	64.51
355.48	64.51
355.692	52.22
355.903	-21.5
356.115	35.84
356.326	60.42
356.538	89.09
356.749	68.61
356.961	54.27
357.172	72.7
357.384	50.18
357.595	66.56
357.807	97.28
358.018	33.79
358.23	25.6
358.441	121.85
358.653	33.79
358.864	48.13
359.075	64.51
359.287	48.13
359.498	48.13
359.709	130.05
359.921	99.33
360.132	125.95
360.344	95.23
360.555	7.17
360.766	64.51
360.977	64.51
361.189	29.7
361.4	74.75
361.611	54.27
361.823	23.55
362.034	87.04
362.245	-64.51
362.456	41.98
362.667	-17.41
362.879	50.18
363.09	11.26
363.301	1.02
363.512	-1.02
363.723	-5.12
363.935	44.03
364.146	39.94
364.357	19.46
364.568	48.13
364.779	-11.26
364.99	60.42
365.201	-39.94
365.412	123.9
365.623	91.13
365.834	84.99
366.045	27.65
366.256	70.65
366.467	50.18
366.678	11.26
366.889	64.51
367.1	37.89
367.311	76.8
367.522	66.56
367.733	-21.5
367.944	91.13
368.155	25.6
368.366	25.6
368.577	68.61
368.788	41.98
368.999	72.7
369.209	39.94
369.42	78.85
369.631	109.57
369.842	70.65
370.053	80.89
370.264	41.98
370.474	23.55
370.685	74.75
370.896	82.94
371.107	68.61
371.317	23.55
371.528	-5.12
371.739	117.76
371.95	54.27
372.16	50.18
372.371	-37.89
372.582	72.7
372.792	84.99
373.003	95.23
373.214	64.51
373.424	64.51
373.635	1.02
373.846	-9.22
374.056	91.13
374.267	109.57
374.477	-7.17
374.688	-23.55
374.898	21.5
375.109	109.57
375.319	39.94
375.53	50.18
375.74	9.22
375.951	19.46
376.161	46.08
376.372	60.42
376.582	64.51
376.793	-21.5
377.003	80.89
377.214	27.65
377.424	48.13
377.635	-1.02
377.845	-41.98
378.055	123.9
378.266	25.6
378.476	58.37
378.686	64.51
378.897	48.13
379.107	93.18
379.317	35.84
379.528	-5.12
379.738	33.79
379.948	46.08
380.158	-25.6
380.369	80.89
380.579	105.47
380.789	101.37
380.999	29.7
381.21	64.51
381.42	111.61
381.63	7.17
381.84	52.22
382.05	11.26
382.261	56.32
382.471	35.84
382.681	5.12
382.891	76.8
383.101	87.04
383.311	64.51
383.521	60.42
383.731	27.65
383.941	134.14
384.151	39.94
384.361	89.09
384.571	93.18
384.781	91.13
384.991	93.18
385.201	105.47
385.411	89.09
385.621	19.46
385.831	64.51
386.041	113.66
386.251	48.13
386.461	103.42
386.671	56.32
386.881	80.89
387.091	117.76
387.301	109.57
387.511	62.46
387.72	70.65
387.93	35.84
388.14	-39.94
388.35	54.27
388.56	76.8
388.769	9.22
388.979	160.77
389.189	56.32
389.399	62.46
389.609	111.61
389.818	41.98
390.028	105.47
390.238	113.66
390.447	74.75
390.657	58.37
390.867	68.61
391.076	64.51
391.286	11.26
391.496	121.85
391.705	29.7
391.915	115.71
392.125	21.5
392.334	78.85
392.544	95.23
392.753	103.42
392.963	39.94
393.172	3.07
393.382	58.37
393.591	72.7
393.801	84.99
394.01	46.08
394.22	82.94
394.429	130.05
394.639	119.81
394.848	113.66
395.058	23.55
395.267	181.25
395.477	101.37
395.686	54.27
395.895	70.65
396.105	91.13
396.314	109.57
396.524	148.48
396.733	95.23
396.942	70.65
397.152	70.65
397.361	152.57
397.57	105.47
397.78	72.7
397.989	146.43
398.198	146.43
398.407	78.85
398.617	87.04
398.826	146.43
399.035	101.37
399.244	113.66
399.453	70.65
399.663	121.85
399.872	50.18
400.081	109.57
400.29	109.57
400.499	64.51
400.708	164.86
400.917	87.04
401.127	132.09
401.336	111.61
401.545	80.89
401.754	136.19
401.963	140.29
402.172	68.61
402.381	189.44
402.59	134.14
402.799	158.72
403.008	150.53
403.217	175.1
403.426	109.57
403.635	58.37
403.844	109.57
404.053	66.56
404.262	82.94
404.471	177.15
404.68	150.53
404.888	148.48
405.097	138.24
405.306	138.24
405.515	195.58
405.724	91.13
405.933	140.29
406.142	216.06
406.35	173.05
406.559	138.24
406.768	107.52
406.977	252.92
407.185	189.44
407.394	230.4
407.603	177.15
407.812	197.63
408.02	164.86
408.229	236.54
408.438	226.3
408.646	252.92
408.855	248.83
409.064	304.12
409.272	273.4
409.481	232.44
409.69	326.65
409.898	412.67
410.107	383.99
410.315	293.88
410.524	404.47
410.733	336.89
410.941	324.6
411.15	351.23
411.358	336.89
411.567	459.77
411.775	388.09
411.984	429.05
412.192	445.43
412.401	480.25
412.609	461.82
412.818	472.06
413.026	508.92
413.234	517.11
413.443	441.34
413.651	517.11
413.86	611.32
414.068	572.41
414.276	525.3
414.485	588.79
414.693	666.61
414.901	713.72
415.11	685.05
415.318	648.18
415.526	701.43
415.734	756.72
415.943	785.4
416.151	828.4
416.359	826.36
416.567	906.23
416.776	941.04
416.984	1057.78
417.192	1037.3
417.4	1002.48
417.608	1014.77
417.817	1004.53
418.025	1039.34
418.233	1248.24
418.441	1176.56
418.649	1194.99
418.857	1264.62
419.065	1307.63
419.273	1301.48
419.481	1270.76
419.689	1453.03
419.897	1416.17
420.105	1477.61
420.313	1491.95
420.521	1651.69
420.729	1682.41
420.937	1649.64
421.145	1680.36
421.353	1827.81
421.561	1958.88
421.769	1903.59
421.977	2110.43
422.185	2149.34
422.393	2165.73
422.601	2309.08
422.809	2300.89
423.017	2341.85
423.224	2417.63
423.432	2470.87
423.64	2655.19
423.848	2739.16
424.056	2632.66
424.263	2864.08
424.471	2896.85
424.679	2890.71
424.887	3013.59
425.094	3277.77
425.302	3109.84
425.51	3394.51
425.718	3414.99
425.925	3546.06
426.133	3574.73
426.341	3843.01
426.548	3881.92
426.756	4025.28
426.964	4078.53
427.171	4334.53
427.379	4238.27
427.586	4369.34
427.794	4508.6
428.001	4830.13
428.209	4967.35
428.417	5006.26
428.624	5204.91
428.832	5266.35
429.039	5213.1
429.247	5163.95
429.454	5745.58
429.662	6067.11
429.869	5874.6
430.076	6298.53
430.284	6054.82
430.491	6261.66
430.699	6683.55
430.906	6525.85
431.114	6900.63
431.321	7033.75
431.528	7021.46
431.736	7416.72
431.943	7824.26
432.15	7764.87
432.358	7787.4
432.565	8149.89
432.772	8076.16
432.979	8600.44
433.187	8655.74
433.394	8555.39
433.601	8995.7
433.808	9255.79
434.016	9057.14
434.223	9317.23
434.43	10294.11
434.637	9931.62
434.844	10802.01
435.052	10924.89
435.259	10789.72
435.466	10984.28
435.673	10812.25
435.88	11406.16
436.087	12176.2
436.294	12360.52
436.501	11885.39
436.708	11985.74
436.915	12507.97
437.122	13194.04
437.329	13110.07
437.537	13386.55
437.743	13599.54
437.95	13585.2
438.157	14306.09
438.364	14764.83
438.571	14758.69
438.778	14834.46
438.985	16206.6
439.192	15756.05
439.399	16192.26
439.606	15637.27
439.813	16691.97
440.02	17904.37
440.227	17130.23
440.433	16970.49
440.64	17824.5
440.847	17507.06
441.054	18324.2
441.261	19055.33
441.467	18938.59
441.674	19245.79
441.881	20048.59
442.088	19999.44
442.294	20011.73
442.501	20572.87
442.708	20906.69
442.914	21787.32
443.121	22235.82
443.328	21990.06
443.534	23454.36
443.741	22870.69
443.948	22649.51
444.154	24392.33
444.361	24277.65
444.568	24380.04
444.774	24480.39
444.981	24789.64
445.187	25612.92
445.394	26661.48
445.6	26239.6
445.807	28766.79
446.013	27478.62
446.22	27984.47
446.426	29053.51
446.633	29569.6
446.839	30421.55
447.046	29252.16
447.252	30808.62
447.459	31023.65
447.665	30859.82
447.871	32107.03
448.078	33405.44
448.284	31693.34
448.491	33022.47
448.697	34271.73
448.903	34748.91
449.11	34750.96
449.316	33985.02
449.522	34918.89
449.728	36155.86
449.935	36456.92
450.141	36231.64
450.347	37296.58
450.553	35697.12
450.76	36463.06
450.966	37663.17
451.172	36995.53
451.378	37538.24
451.584	37597.63
451.791	38058.43
451.997	38197.69
452.203	38533.56
452.409	38941.1
452.615	38259.13
452.821	37108.17
453.027	37114.31
453.233	38875.57
453.44	37233.1
453.646	37659.07
453.852	38031.8
454.058	38990.25
454.264	37437.89
454.47	38242.74
454.676	37155.27
454.882	38701.49
455.088	35422.69
455.294	35600.86
455.5	36426.2
455.705	36930
455.911	35258.85
456.117	34607.6
456.323	34202.1
456.529	32555.54
456.735	33989.11
456.941	33075.72
457.147	32424.47
457.352	31500.83
457.558	30884.39
457.764	31423.01
457.97	30732.84
458.176	30327.35
458.381	29991.48
458.587	28621.39
458.793	28430.93
458.999	26940
459.204	28942.92
459.41	28037.72
459.616	26305.13
459.821	26503.79
460.027	26022.51
460.233	25580.15
460.438	24570.51
460.644	24330.89
460.85	23837.33
461.055	23206.56
461.261	23202.46
461.466	21805.75
461.672	20763.33
461.878	22551.21
462.083	20964.03
462.289	20583.11
462.494	20478.66
462.7	19264.22
462.905	19036.89
463.111	19475.16
463.316	19284.7
463.522	18741.99
463.727	19360.47
463.932	19176.16
464.138	19129.05
464.343	18907.87
464.549	18279.15
464.754	18965.21
464.959	18744.03
465.165	18741.99
465.37	17875.7
465.575	17681.14
465.781	18170.6
465.986	18150.12
466.191	17621.75
466.397	17318.65
466.602	16472.84
466.807	17117.95
467.012	16904.96
467.218	17238.78
467.423	16628.48
467.628	16886.53
467.833	17550.07
