Data from USB4F104151__28__11-36-43-424.txt Node

Date: Fri Mar 14 11:36:43 EDT 2025
User: louis
Spectrometer: USB4F10415
Trigger mode: 4
Integration Time (sec): 2.000000E-2
Scans to average: 1
Electric dark correction enabled: true
Nonlinearity correction enabled: false
Boxcar width: 0
XAxis mode: Wavelengths
Number of Pixels in Spectrum: 3648
>>>>>Begin Spectral Data<<<<<
178.204	-155.47
178.424	-155.47
178.644	-155.47
178.864	-75.6
179.084	-63.32
179.304	-77.65
179.524	-28.5
179.744	-20.31
179.964	24.75
180.184	-3.93
180.404	-34.64
180.624	12.46
180.844	45.23
181.064	-32.6
181.283	16.55
181.503	16.55
181.723	82.09
181.943	-75.6
182.163	-57.17
182.383	6.31
182.602	28.84
182.822	-8.02
183.042	-65.36
183.262	-8.02
183.482	-26.45
183.701	-5.97
183.921	-12.12
184.141	4.27
184.361	0.17
184.58	-18.26
184.8	-32.6
185.02	-20.31
185.239	-28.5
185.459	57.51
185.679	10.41
185.898	-85.84
186.118	57.51
186.338	-24.4
186.557	14.51
186.777	75.95
186.997	-28.5
187.216	-32.6
187.436	18.6
187.655	-26.45
187.875	63.66
188.095	69.8
188.314	32.94
188.534	73.9
188.753	-5.97
188.973	12.46
189.192	-20.31
189.412	-14.17
189.631	30.89
189.851	-55.12
190.07	55.47
190.29	43.18
190.509	-36.69
190.729	-20.31
190.948	75.95
191.168	59.56
191.387	92.33
191.607	14.51
191.826	34.99
192.045	4.27
192.265	-3.93
192.484	-10.07
192.704	0.17
192.923	37.03
193.142	71.85
193.362	41.13
193.581	45.23
193.8	45.23
194.02	84.14
194.239	20.65
194.458	24.75
194.678	-26.45
194.897	-14.17
195.116	20.65
195.335	-8.02
195.555	4.27
195.774	-16.21
195.993	6.31
196.212	-8.02
196.432	-57.17
196.651	-14.17
196.87	-46.93
197.089	22.7
197.308	-65.36
197.528	2.22
197.747	-34.64
197.966	-8.02
198.185	57.51
198.404	57.51
198.623	49.32
198.842	-12.12
199.062	0.17
199.281	57.51
199.5	30.89
199.719	-53.08
199.938	30.89
200.157	32.94
200.376	-3.93
200.595	37.03
200.814	-1.88
201.033	-26.45
201.252	32.94
201.471	-3.93
201.69	32.94
201.909	12.46
202.128	30.89
202.347	0.17
202.566	32.94
202.785	-28.5
203.004	-65.36
203.223	16.55
203.442	-10.07
203.661	-26.45
203.879	41.13
204.098	4.27
204.317	-30.55
204.536	37.03
204.755	53.42
204.974	61.61
205.193	2.22
205.411	127.14
205.63	-18.26
205.849	43.18
206.068	24.75
206.287	-10.07
206.505	18.6
206.724	32.94
206.943	28.84
207.162	47.27
207.381	-1.88
207.599	39.08
207.818	30.89
208.037	-24.4
208.255	98.47
208.474	-8.02
208.693	-12.12
208.911	37.03
209.13	16.55
209.349	37.03
209.567	41.13
209.786	-32.6
210.005	-5.97
210.223	108.71
210.442	49.32
210.661	2.22
210.879	32.94
211.098	-16.21
211.316	-26.45
211.535	39.08
211.753	12.46
211.972	-8.02
212.191	-8.02
212.409	-18.26
212.628	-14.17
212.846	20.65
213.065	73.9
213.283	2.22
213.502	-28.5
213.72	45.23
213.938	32.94
214.157	-20.31
214.375	2.22
214.594	26.79
214.812	30.89
215.031	-32.6
215.249	-14.17
215.467	98.47
215.686	-34.64
215.904	8.36
216.122	-3.93
216.341	98.47
216.559	-3.93
216.778	37.03
216.996	-16.21
217.214	51.37
217.432	0.17
217.651	-8.02
217.869	-28.5
218.087	-63.32
218.306	53.42
218.524	88.23
218.742	37.03
218.96	-48.98
219.179	10.41
219.397	20.65
219.615	55.47
219.833	24.75
220.051	45.23
220.27	-3.93
220.488	16.55
220.706	-12.12
220.924	32.94
221.142	10.41
221.36	34.99
221.578	-28.5
221.796	-12.12
222.015	-28.5
222.233	32.94
222.451	45.23
222.669	55.47
222.887	2.22
223.105	-5.97
223.323	18.6
223.541	6.31
223.759	63.66
223.977	26.79
224.195	34.99
224.413	24.75
224.631	-24.4
224.849	37.03
225.067	-57.17
225.285	-12.12
225.503	12.46
225.721	45.23
225.939	-40.79
226.157	32.94
226.375	32.94
226.592	-36.69
226.81	-44.88
227.028	-20.31
227.246	39.08
227.464	41.13
227.682	32.94
227.9	26.79
228.117	-10.07
228.335	2.22
228.553	0.17
228.771	47.27
228.989	8.36
229.206	12.46
229.424	-16.21
229.642	6.31
229.86	73.9
230.077	59.56
230.295	4.27
230.513	8.36
230.731	55.47
230.948	41.13
231.166	98.47
231.384	32.94
231.601	-24.4
231.819	80.04
232.037	-1.88
232.254	26.79
232.472	22.7
232.689	24.75
232.907	-28.5
233.125	10.41
233.342	77.99
233.56	57.51
233.777	106.67
233.995	-57.17
234.213	34.99
234.43	51.37
234.648	-73.56
234.865	-1.88
235.083	16.55
235.3	-10.07
235.518	16.55
235.735	-36.69
235.953	-1.88
236.17	16.55
236.388	-12.12
236.605	20.65
236.822	-10.07
237.04	28.84
237.257	24.75
237.475	-42.84
237.692	-24.4
237.909	24.75
238.127	-32.6
238.344	-28.5
238.562	0.17
238.779	0.17
238.996	4.27
239.214	20.65
239.431	32.94
239.648	-34.64
239.865	-77.65
240.083	-40.79
240.3	2.22
240.517	43.18
240.735	6.31
240.952	73.9
241.169	-30.55
241.386	14.51
241.603	55.47
241.821	-8.02
242.038	86.19
242.255	12.46
242.472	-20.31
242.689	61.61
242.907	-20.31
243.124	-26.45
243.341	39.08
243.558	-81.75
243.775	-44.88
243.992	24.75
244.209	53.42
244.426	-10.07
244.643	-3.93
244.86	8.36
245.078	41.13
245.295	24.75
245.512	6.31
245.729	24.75
245.946	12.46
246.163	57.51
246.38	14.51
246.597	4.27
246.814	41.13
247.031	-3.93
247.248	57.51
247.464	41.13
247.681	8.36
247.898	26.79
248.115	12.46
248.332	-28.5
248.549	102.57
248.766	41.13
248.983	16.55
249.2	63.66
249.417	-30.55
249.633	4.27
249.85	-30.55
250.067	-8.02
250.284	65.71
250.501	12.46
250.717	77.99
250.934	-40.79
251.151	-10.07
251.368	59.56
251.585	8.36
251.801	-48.98
252.018	53.42
252.235	57.51
252.451	16.55
252.668	10.41
252.885	51.37
253.102	100.52
253.318	-12.12
253.535	-14.17
253.752	39.08
253.968	4.27
254.185	-51.03
254.401	24.75
254.618	57.51
254.835	-57.17
255.051	4.27
255.268	6.31
255.484	-53.08
255.701	49.32
255.917	43.18
256.134	37.03
256.351	16.55
256.567	-48.98
256.784	22.7
257	-8.02
257.217	53.42
257.433	-18.26
257.65	8.36
257.866	-20.31
258.082	-24.4
258.299	12.46
258.515	67.75
258.732	0.17
258.948	8.36
259.165	8.36
259.381	-30.55
259.597	-61.27
259.814	0.17
260.03	37.03
260.246	-22.36
260.463	-32.6
260.679	73.9
260.895	59.56
261.112	75.95
261.328	0.17
261.544	-34.64
261.761	-12.12
261.977	8.36
262.193	6.31
262.409	98.47
262.626	22.7
262.842	-38.74
263.058	-18.26
263.274	-34.64
263.49	55.47
263.707	16.55
263.923	41.13
264.139	59.56
264.355	47.27
264.571	12.46
264.787	-36.69
265.004	16.55
265.22	-3.93
265.436	-14.17
265.652	-34.64
265.868	49.32
266.084	0.17
266.3	20.65
266.516	-34.64
266.732	98.47
266.948	-3.93
267.164	71.85
267.38	-30.55
267.596	69.8
267.812	-18.26
268.028	-8.02
268.244	-20.31
268.46	24.75
268.676	49.32
268.892	2.22
269.108	20.65
269.324	-32.6
269.54	10.41
269.756	24.75
269.972	12.46
270.188	37.03
270.403	-28.5
270.619	28.84
270.835	51.37
271.051	30.89
271.267	-59.22
271.483	-18.26
271.698	96.43
271.914	39.08
272.13	8.36
272.346	28.84
272.562	-42.84
272.777	41.13
272.993	20.65
273.209	-48.98
273.425	57.51
273.64	-16.21
273.856	82.09
274.072	8.36
274.287	12.46
274.503	28.84
274.719	12.46
274.934	-30.55
275.15	6.31
275.366	37.03
275.581	-40.79
275.797	30.89
276.012	53.42
276.228	-69.46
276.444	-22.36
276.659	16.55
276.875	0.17
277.09	-44.88
277.306	43.18
277.521	53.42
277.737	37.03
277.952	59.56
278.168	20.65
278.383	24.75
278.599	-14.17
278.814	39.08
279.03	-12.12
279.245	-8.02
279.461	45.23
279.676	45.23
279.892	-40.79
280.107	-40.79
280.322	65.71
280.538	30.89
280.753	16.55
280.969	26.79
281.184	43.18
281.399	47.27
281.615	32.94
281.83	69.8
282.045	86.19
282.26	-20.31
282.476	69.8
282.691	41.13
282.906	22.7
283.122	30.89
283.337	-22.36
283.552	57.51
283.767	-16.21
283.983	65.71
284.198	-20.31
284.413	57.51
284.628	-16.21
284.843	2.22
285.058	45.23
285.274	71.85
285.489	22.7
285.704	-16.21
285.919	-55.12
286.134	-14.17
286.349	172.2
286.564	39.08
286.779	14.51
286.995	-44.88
287.21	-28.5
287.425	59.56
287.64	8.36
287.855	41.13
288.07	-28.5
288.285	28.84
288.5	-63.32
288.715	22.7
288.93	-40.79
289.145	14.51
289.36	-28.5
289.575	8.36
289.79	39.08
290.004	6.31
290.219	65.71
290.434	47.27
290.649	-5.97
290.864	2.22
291.079	20.65
291.294	30.89
291.509	24.75
291.724	0.17
291.938	8.36
292.153	116.9
292.368	-44.88
292.583	20.65
292.798	61.61
293.012	2.22
293.227	2.22
293.442	49.32
293.657	24.75
293.871	104.62
294.086	20.65
294.301	32.94
294.516	0.17
294.73	12.46
294.945	30.89
295.16	43.18
295.374	-18.26
295.589	41.13
295.804	61.61
296.018	34.99
296.233	18.6
296.447	59.56
296.662	-57.17
296.877	39.08
297.091	10.41
297.306	53.42
297.52	73.9
297.735	0.17
297.949	-8.02
298.164	16.55
298.378	32.94
298.593	65.71
298.807	65.71
299.022	49.32
299.236	10.41
299.451	28.84
299.665	24.75
299.88	6.31
300.094	-32.6
300.309	32.94
300.523	0.17
300.737	45.23
300.952	32.94
301.166	-65.36
301.381	65.71
301.595	34.99
301.809	41.13
302.024	63.66
302.238	-3.93
302.452	32.94
302.667	30.89
302.881	18.6
303.095	69.8
303.309	41.13
303.524	32.94
303.738	75.95
303.952	-1.88
304.166	32.94
304.381	30.89
304.595	30.89
304.809	-10.07
305.023	39.08
305.237	34.99
305.452	0.17
305.666	57.51
305.88	59.56
306.094	73.9
306.308	43.18
306.522	24.75
306.736	45.23
306.95	10.41
307.164	2.22
307.379	47.27
307.593	43.18
307.807	10.41
308.021	-16.21
308.235	88.23
308.449	37.03
308.663	16.55
308.877	51.37
309.091	41.13
309.305	75.95
309.519	-42.84
309.733	37.03
309.947	43.18
310.161	6.31
310.374	32.94
310.588	75.95
310.802	20.65
311.016	61.61
311.23	14.51
311.444	-3.93
311.658	102.57
311.872	24.75
312.085	28.84
312.299	102.57
312.513	37.03
312.727	12.46
312.941	6.31
313.154	80.04
313.368	49.32
313.582	69.8
313.796	-34.64
314.009	47.27
314.223	49.32
314.437	-22.36
314.651	47.27
314.864	69.8
315.078	-61.27
315.292	53.42
315.505	24.75
315.719	32.94
315.933	90.28
316.146	-12.12
316.36	0.17
316.573	14.51
316.787	22.7
317.001	45.23
317.214	20.65
317.428	51.37
317.641	57.51
317.855	30.89
318.068	-24.4
318.282	4.27
318.495	-5.97
318.709	37.03
318.922	-36.69
319.136	100.52
319.349	102.57
319.563	28.84
319.776	32.94
319.99	32.94
320.203	8.36
320.417	80.04
320.63	-32.6
320.843	39.08
321.057	37.03
321.27	65.71
321.483	49.32
321.697	-18.26
321.91	96.43
322.124	30.89
322.337	37.03
322.55	-14.17
322.763	0.17
322.977	51.37
323.19	98.47
323.403	-3.93
323.617	4.27
323.83	63.66
324.043	-18.26
324.256	77.99
324.469	2.22
324.683	4.27
324.896	53.42
325.109	73.9
325.322	14.51
325.535	41.13
325.748	-3.93
325.962	-1.88
326.175	82.09
326.388	-59.22
326.601	30.89
326.814	39.08
327.027	80.04
327.24	32.94
327.453	20.65
327.666	49.32
327.879	65.71
328.092	86.19
328.305	14.51
328.518	63.66
328.731	6.31
328.944	-1.88
329.157	39.08
329.37	26.79
329.583	41.13
329.796	84.14
330.009	-34.64
330.222	102.57
330.435	-14.17
330.648	77.99
330.861	53.42
331.073	28.84
331.286	55.47
331.499	34.99
331.712	-12.12
331.925	-1.88
332.138	73.9
332.35	53.42
332.563	-3.93
332.776	49.32
332.989	10.41
333.202	65.71
333.414	-57.17
333.627	73.9
333.84	30.89
334.053	151.72
334.265	55.47
334.478	24.75
334.691	-8.02
334.903	-36.69
335.116	30.89
335.329	-34.64
335.541	137.38
335.754	18.6
335.966	-24.4
336.179	53.42
336.392	30.89
336.604	-26.45
336.817	53.42
337.029	-59.22
337.242	0.17
337.454	102.57
337.667	22.7
337.88	57.51
338.092	-61.27
338.305	32.94
338.517	18.6
338.729	6.31
338.942	55.47
339.154	41.13
339.367	2.22
339.579	104.62
339.792	90.28
340.004	6.31
340.217	10.41
340.429	32.94
340.641	-20.31
340.854	8.36
341.066	69.8
341.278	-14.17
341.491	82.09
341.703	2.22
341.915	57.51
342.128	30.89
342.34	6.31
342.552	-22.36
342.764	-28.5
342.977	41.13
343.189	71.85
343.401	12.46
343.613	16.55
343.826	57.51
344.038	12.46
344.25	-1.88
344.462	6.31
344.674	45.23
344.886	28.84
345.099	100.52
345.311	24.75
345.523	69.8
345.735	-57.17
345.947	8.36
346.159	55.47
346.371	-3.93
346.583	-16.21
346.795	45.23
347.007	6.31
347.219	51.37
347.431	-1.88
347.643	61.61
347.855	-30.55
348.067	39.08
348.279	-1.88
348.491	84.14
348.703	16.55
348.915	55.47
349.127	-12.12
349.339	65.71
349.551	10.41
349.763	65.71
349.975	24.75
350.187	10.41
350.399	22.7
350.61	57.51
350.822	14.51
351.034	53.42
351.246	65.71
351.458	65.71
351.669	86.19
351.881	0.17
352.093	65.71
352.305	39.08
352.517	22.7
352.728	43.18
352.94	57.51
353.152	63.66
353.363	39.08
353.575	26.79
353.787	16.55
353.999	37.03
354.21	123.05
354.422	2.22
354.633	32.94
354.845	20.65
355.057	-44.88
355.268	18.6
355.48	22.7
355.692	-8.02
355.903	8.36
356.115	69.8
356.326	-46.93
356.538	90.28
356.749	26.79
356.961	194.73
357.172	77.99
357.384	30.89
357.595	-12.12
357.807	37.03
358.018	-36.69
358.23	-42.84
358.441	45.23
358.653	22.7
358.864	22.7
359.075	24.75
359.287	39.08
359.498	73.9
359.709	30.89
359.921	77.99
360.132	90.28
360.344	98.47
360.555	63.66
360.766	53.42
360.977	59.56
361.189	59.56
361.4	24.75
361.611	118.95
361.823	37.03
362.034	88.23
362.245	63.66
362.456	96.43
362.667	75.95
362.879	69.8
363.09	-40.79
363.301	82.09
363.512	-3.93
363.723	41.13
363.935	59.56
364.146	41.13
364.357	14.51
364.568	37.03
364.779	-20.31
364.99	61.61
365.201	41.13
365.412	94.38
365.623	4.27
365.834	-20.31
366.045	14.51
366.256	53.42
366.467	57.51
366.678	55.47
366.889	8.36
367.1	102.57
367.311	73.9
367.522	-51.03
367.733	-20.31
367.944	28.84
368.155	51.37
368.366	12.46
368.577	16.55
368.788	90.28
368.999	4.27
369.209	92.33
369.42	80.04
369.631	24.75
369.842	-1.88
370.053	34.99
370.264	20.65
370.474	61.61
370.685	65.71
370.896	57.51
371.107	-26.45
371.317	90.28
371.528	-10.07
371.739	28.84
371.95	30.89
372.16	22.7
372.371	14.51
372.582	73.9
372.792	4.27
373.003	43.18
373.214	110.76
373.424	98.47
373.635	47.27
373.846	39.08
374.056	16.55
374.267	43.18
374.477	96.43
374.688	53.42
374.898	67.75
375.109	6.31
375.319	30.89
375.53	125.1
375.74	49.32
375.951	-8.02
376.161	43.18
376.372	4.27
376.582	-8.02
376.793	41.13
377.003	28.84
377.214	57.51
377.424	2.22
377.635	45.23
377.845	24.75
378.055	16.55
378.266	49.32
378.476	63.66
378.686	75.95
378.897	14.51
379.107	88.23
379.317	28.84
379.528	51.37
379.738	34.99
379.948	32.94
380.158	24.75
380.369	-1.88
380.579	73.9
380.789	41.13
380.999	51.37
381.21	41.13
381.42	77.99
381.63	-28.5
381.84	18.6
382.05	6.31
382.261	28.84
382.471	65.71
382.681	67.75
382.891	49.32
383.101	51.37
383.311	-1.88
383.521	71.85
383.731	86.19
383.941	55.47
384.151	6.31
384.361	67.75
384.571	6.31
384.781	16.55
384.991	59.56
385.201	73.9
385.411	112.81
385.621	61.61
385.831	102.57
386.041	102.57
386.251	73.9
386.461	47.27
386.671	20.65
386.881	57.51
387.091	4.27
387.301	61.61
387.511	51.37
387.72	47.27
387.93	45.23
388.14	-42.84
388.35	65.71
388.56	26.79
388.769	84.14
388.979	-8.02
389.189	12.46
389.399	10.41
389.609	0.17
389.818	45.23
390.028	-18.26
390.238	90.28
390.447	102.57
390.657	-1.88
390.867	8.36
391.076	53.42
391.286	24.75
391.496	98.47
391.705	47.27
391.915	30.89
392.125	86.19
392.334	106.67
392.544	37.03
392.753	55.47
392.963	69.8
393.172	53.42
393.382	-20.31
393.591	47.27
393.801	53.42
394.01	102.57
394.22	61.61
394.429	61.61
394.639	55.47
394.848	96.43
395.058	49.32
395.267	28.84
395.477	80.04
395.686	110.76
395.895	69.8
396.105	155.82
396.314	73.9
396.524	-1.88
396.733	45.23
396.942	104.62
397.152	45.23
397.361	80.04
397.57	73.9
397.78	90.28
397.989	75.95
398.198	127.14
398.407	0.17
398.617	86.19
398.826	106.67
399.035	67.75
399.244	161.96
399.453	53.42
399.663	45.23
399.872	108.71
400.081	153.77
400.29	112.81
400.499	69.8
400.708	84.14
400.917	125.1
401.127	116.9
401.336	106.67
401.545	121
401.754	155.82
401.963	164.01
402.172	86.19
402.381	176.3
402.59	118.95
402.799	88.23
403.008	143.53
403.217	49.32
403.426	65.71
403.635	102.57
403.844	123.05
404.053	57.51
404.262	106.67
404.471	118.95
404.68	145.58
404.888	202.92
405.097	157.86
405.306	200.87
405.515	147.62
405.724	133.29
405.933	164.01
406.142	176.3
406.35	164.01
406.559	135.34
406.768	192.68
406.977	229.54
407.185	200.87
407.394	145.58
407.603	155.82
407.812	237.74
408.02	194.73
408.229	147.62
408.438	178.34
408.646	241.83
408.855	196.78
409.064	250.02
409.272	209.06
409.481	299.17
409.69	295.08
409.898	307.37
410.107	237.74
410.315	315.56
410.524	295.08
410.733	319.65
410.941	307.37
411.15	428.2
411.358	401.57
411.567	360.61
411.775	454.82
411.984	424.1
412.192	366.76
412.401	434.34
412.609	440.48
412.818	508.07
413.026	479.4
413.234	495.78
413.443	557.22
413.651	506.02
413.86	563.36
414.068	571.55
414.276	524.45
414.485	606.37
414.693	630.95
414.901	606.37
415.11	704.67
415.318	688.29
415.526	721.06
415.734	694.43
415.943	823.45
416.151	770.21
416.359	800.93
416.567	843.93
416.776	872.61
416.984	913.56
417.192	958.62
417.4	999.58
417.608	950.43
417.817	1028.25
418.025	1040.54
418.233	1161.37
418.441	1061.02
418.649	1179.8
418.857	1196.18
419.065	1130.65
419.273	1263.77
419.481	1327.25
419.689	1450.13
419.897	1376.41
420.105	1474.71
420.313	1579.15
420.521	1656.98
420.729	1530
420.937	1704.08
421.145	1765.52
421.353	1908.88
421.561	1874.06
421.769	1929.36
421.977	1988.75
422.185	2001.04
422.393	2070.67
422.601	2273.42
422.809	2297.99
423.017	2312.33
423.224	2427.01
423.432	2400.39
423.64	2474.12
423.848	2726.02
424.056	2580.61
424.263	2963.58
424.471	2898.05
424.679	2902.14
424.887	3043.45
425.094	3074.17
425.302	3178.62
425.51	3309.69
425.718	3360.89
425.925	3455.09
426.133	3547.25
426.341	3743.86
426.548	3870.83
426.756	3825.78
426.964	3989.61
427.171	4216.94
427.379	4319.34
427.586	4419.69
427.794	4472.93
428.001	4722.79
428.209	4935.78
428.417	4841.57
428.624	5259.35
428.832	5079.13
429.039	5134.43
429.247	5298.27
429.454	5595.22
429.662	6094.93
429.869	5742.68
430.076	6074.45
430.284	5816.4
430.491	6199.37
430.699	6594.63
430.906	6510.66
431.114	6559.81
431.321	6713.41
431.528	6940.74
431.736	7417.91
431.943	7589.94
432.15	7307.32
432.358	7649.33
432.565	8114.22
432.772	7934
432.979	8532.01
433.187	8724.52
433.394	8630.31
433.601	9265.18
433.808	9183.26
434.016	9289.76
434.223	9420.83
434.43	10223.63
434.637	9830.42
434.844	10436.62
435.052	10610.7
435.259	10821.64
435.466	10958.85
435.673	10655.75
435.88	11577.34
436.087	11841.53
436.294	12034.04
436.501	11775.99
436.708	11671.54
436.915	12101.62
437.122	12924.9
437.329	12673
437.537	13430.75
437.743	13385.69
437.95	13361.12
438.157	13899.73
438.364	14278.61
438.571	14653.39
438.778	14542.8
438.985	16007.09
439.192	15175.62
439.399	15757.24
439.606	15347.65
439.813	16373.68
440.02	17151.91
440.227	17004.46
440.433	16777.13
440.64	17545.12
440.847	17563.55
441.054	17768.35
441.261	19015.56
441.467	18696.08
441.674	19263.36
441.881	19638.14
442.088	19779.45
442.294	19793.79
442.501	20133.75
442.708	20338.55
442.914	20973.42
443.121	22155.1
443.328	21755.74
443.534	22990.67
443.741	22370.13
443.948	22081.37
444.154	24112.95
444.361	23539.52
444.568	24065.85
444.774	24004.41
444.981	24153.91
445.187	25081.64
445.394	25757.47
445.6	25843.49
445.807	27823.87
446.013	26736.4
446.22	27250.44
446.426	28665.59
446.633	28503.8
446.839	29409
447.046	28329.72
447.252	30109.41
447.459	30033.63
447.665	29927.14
447.871	30889.68
448.078	32556.73
448.284	30826.2
448.491	31930.05
448.697	33506.99
448.903	33410.73
449.11	33715.88
449.316	33195.7
449.522	33797.8
449.728	34518.68
449.935	34809.5
450.141	34895.51
450.347	35800.71
450.553	34518.68
450.76	34571.93
450.966	36060.8
451.172	35548.81
451.378	36750.97
451.584	36054.66
451.791	36703.87
451.997	36636.28
452.203	37074.55
452.409	37213.81
452.615	37430.9
452.821	35518.09
453.027	35421.84
453.233	37373.55
453.44	35944.07
453.646	36130.44
453.852	36202.11
454.058	36753.02
454.264	35720.84
454.47	36632.19
454.676	35663.5
454.882	36861.56
455.088	33867.43
455.294	34025.12
455.5	34862.74
455.705	34954.9
455.911	33814.18
456.117	32777.91
456.323	32556.73
456.529	30869.2
456.735	32122.56
456.941	31407.82
457.147	31067.86
457.352	30121.7
457.558	29773.54
457.764	29482.73
457.97	29077.23
458.176	28215.04
458.381	28393.21
458.587	26861.33
458.793	27256.59
458.999	25665.32
459.204	27766.53
459.41	26679.06
459.616	24794.93
459.821	25095.98
460.027	25028.4
460.233	24532.79
460.438	22970.19
460.644	23793.47
460.85	22480.72
461.055	21931.87
461.261	22151
461.466	20281.21
461.672	19742.59
461.878	21174.12
462.083	19926.91
462.289	19308.42
462.494	19267.46
462.7	18167.7
462.905	17784.73
463.111	18616.21
463.316	18722.7
463.522	18280.34
463.727	18218.9
463.932	17930.14
464.138	18061.21
464.343	18069.4
464.549	17616.8
464.754	18231.19
464.959	17926.04
465.165	17547.17
465.37	16779.18
465.575	16715.69
465.781	17362.85
465.986	17463.2
466.191	16775.08
466.397	16398.26
466.602	15663.04
466.807	16234.42
467.012	16375.73
467.218	16078.77
467.423	15914.94
467.628	16015.29
