Data from USB4F104151__60__11-37-23-041.txt Node

Date: Fri Mar 14 11:37:23 EDT 2025
User: louis
Spectrometer: USB4F10415
Trigger mode: 4
Integration Time (sec): 2.000000E-2
Scans to average: 1
Electric dark correction enabled: true
Nonlinearity correction enabled: false
Boxcar width: 0
XAxis mode: Wavelengths
Number of Pixels in Spectrum: 3648
>>>>>Begin Spectral Data<<<<<
178.204	-86.01
178.424	-86.01
178.644	-86.01
178.864	-53.25
179.084	-96.25
179.304	4.1
179.524	6.14
179.744	-32.77
179.964	-20.48
180.184	-81.92
180.404	71.68
180.624	26.62
180.844	-4.1
181.064	2.05
181.283	57.34
181.503	-8.19
181.723	-20.48
181.943	32.77
182.163	47.1
182.383	0
182.602	-28.67
182.822	-22.53
183.042	-4.1
183.262	32.77
183.482	-26.62
183.701	4.1
183.921	34.82
184.141	-28.67
184.361	4.1
184.58	96.25
184.8	20.48
185.02	45.06
185.239	6.14
185.459	8.19
185.679	-4.1
185.898	-75.77
186.118	116.73
186.338	8.19
186.557	51.2
186.777	57.34
186.997	2.05
187.216	28.67
187.436	-20.48
187.655	-2.05
187.875	24.58
188.095	53.25
188.314	63.49
188.534	73.73
188.753	-16.38
188.973	-4.1
189.192	69.63
189.412	-8.19
189.631	51.2
189.851	47.1
190.07	16.38
190.29	-24.58
190.509	8.19
190.729	-18.43
190.948	43.01
191.168	75.77
191.387	4.1
191.607	-6.14
191.826	-12.29
192.045	6.14
192.265	-6.14
192.484	-22.53
192.704	-2.05
192.923	12.29
193.142	120.83
193.362	-16.38
193.581	38.91
193.8	53.25
194.02	-22.53
194.239	-77.82
194.458	0
194.678	104.45
194.897	14.34
195.116	63.49
195.335	59.39
195.555	47.1
195.774	-4.1
195.993	53.25
196.212	6.14
196.432	-36.86
196.651	6.14
196.87	57.34
197.089	90.11
197.308	-4.1
197.528	49.15
197.747	20.48
197.966	-55.3
198.185	63.49
198.404	-26.62
198.623	90.11
198.842	16.38
199.062	-20.48
199.281	16.38
199.5	32.77
199.719	-22.53
199.938	36.86
200.157	55.3
200.376	-12.29
200.595	59.39
200.814	-40.96
201.033	-28.67
201.252	0
201.471	8.19
201.69	65.53
201.909	16.38
202.128	36.86
202.347	-6.14
202.566	-45.06
202.785	-2.05
203.004	-10.24
203.223	83.97
203.442	40.96
203.661	36.86
203.879	137.21
204.098	14.34
204.317	22.53
204.536	43.01
204.755	-4.1
204.974	79.87
205.193	-38.91
205.411	61.44
205.63	-26.62
205.849	45.06
206.068	51.2
206.287	16.38
206.505	12.29
206.724	16.38
206.943	18.43
207.162	67.58
207.381	18.43
207.599	-8.19
207.818	18.43
208.037	32.77
208.255	36.86
208.474	114.69
208.693	4.1
208.911	34.82
209.13	65.53
209.349	45.06
209.567	32.77
209.786	100.35
210.005	51.2
210.223	-22.53
210.442	24.58
210.661	63.49
210.879	57.34
211.098	-12.29
211.316	0
211.535	108.54
211.753	81.92
211.972	-4.1
212.191	28.67
212.409	28.67
212.628	53.25
212.846	-2.05
213.065	40.96
213.283	47.1
213.502	65.53
213.72	34.82
213.938	4.1
214.157	51.2
214.375	51.2
214.594	65.53
214.812	59.39
215.031	32.77
215.249	10.24
215.467	-100.35
215.686	-2.05
215.904	40.96
216.122	53.25
216.341	18.43
216.559	16.38
216.778	90.11
216.996	32.77
217.214	100.35
217.432	10.24
217.651	73.73
217.869	59.39
218.087	49.15
218.306	-12.29
218.524	71.68
218.742	6.14
218.96	-4.1
219.179	36.86
219.397	77.82
219.615	32.77
219.833	12.29
220.051	55.3
220.27	-6.14
220.488	120.83
220.706	12.29
220.924	-6.14
221.142	30.72
221.36	4.1
221.578	63.49
221.796	-22.53
222.015	65.53
222.233	-20.48
222.451	53.25
222.669	57.34
222.887	53.25
223.105	-10.24
223.323	2.05
223.541	77.82
223.759	20.48
223.977	20.48
224.195	34.82
224.413	-6.14
224.631	-28.67
224.849	-4.1
225.067	83.97
225.285	-32.77
225.503	86.01
225.721	61.44
225.939	20.48
226.157	16.38
226.375	108.54
226.592	36.86
226.81	-14.34
227.028	43.01
227.246	36.86
227.464	8.19
227.682	53.25
227.9	-8.19
228.117	55.3
228.335	34.82
228.553	16.38
228.771	90.11
228.989	14.34
229.206	30.72
229.424	4.1
229.642	20.48
229.86	51.2
230.077	69.63
230.295	22.53
230.513	32.77
230.731	59.39
230.948	75.77
231.166	12.29
231.384	8.19
231.601	45.06
231.819	-14.34
232.037	14.34
232.254	-14.34
232.472	-8.19
232.689	79.87
232.907	28.67
233.125	-71.68
233.342	24.58
233.56	-2.05
233.777	0
233.995	18.43
234.213	90.11
234.43	8.19
234.648	-43.01
234.865	34.82
235.083	81.92
235.3	4.1
235.518	22.53
235.735	59.39
235.953	28.67
236.17	49.15
236.388	14.34
236.605	-14.34
236.822	16.38
237.04	-4.1
237.257	20.48
237.475	-30.72
237.692	45.06
237.909	-20.48
238.127	-16.38
238.344	-4.1
238.562	12.29
238.779	0
238.996	28.67
239.214	-6.14
239.431	34.82
239.648	86.01
239.865	79.87
240.083	36.86
240.3	20.48
240.517	20.48
240.735	81.92
240.952	18.43
241.169	-26.62
241.386	18.43
241.603	47.1
241.821	-4.1
242.038	36.86
242.255	-47.1
242.472	-36.86
242.689	40.96
242.907	69.63
243.124	38.91
243.341	59.39
243.558	18.43
243.775	0
243.992	-28.67
244.209	32.77
244.426	65.53
244.643	53.25
244.86	40.96
245.078	65.53
245.295	-2.05
245.512	34.82
245.729	88.06
245.946	16.38
246.163	-38.91
246.38	-18.43
246.597	55.3
246.814	36.86
247.031	-6.14
247.248	83.97
247.464	79.87
247.681	22.53
247.898	18.43
248.115	61.44
248.332	-4.1
248.549	90.11
248.766	102.4
248.983	51.2
249.2	14.34
249.417	63.49
249.633	38.91
249.85	90.11
250.067	45.06
250.284	86.01
250.501	14.34
250.717	81.92
250.934	-40.96
251.151	8.19
251.368	24.58
251.585	45.06
251.801	28.67
252.018	79.87
252.235	26.62
252.451	20.48
252.668	98.3
252.885	53.25
253.102	-4.1
253.318	-34.82
253.535	18.43
253.752	12.29
253.968	61.44
254.185	-16.38
254.401	59.39
254.618	77.82
254.835	-32.77
255.051	55.3
255.268	86.01
255.484	18.43
255.701	-28.67
255.917	16.38
256.134	40.96
256.351	26.62
256.567	-14.34
256.784	45.06
257	8.19
257.217	110.59
257.433	-16.38
257.65	-12.29
257.866	10.24
258.082	67.58
258.299	2.05
258.515	71.68
258.732	-59.39
258.948	45.06
259.165	116.73
259.381	77.82
259.597	69.63
259.814	-43.01
260.03	75.77
260.246	14.34
260.463	43.01
260.679	20.48
260.895	24.58
261.112	0
261.328	12.29
261.544	83.97
261.761	49.15
261.977	28.67
262.193	-24.58
262.409	26.62
262.626	22.53
262.842	8.19
263.058	36.86
263.274	6.14
263.49	73.73
263.707	53.25
263.923	20.48
264.139	32.77
264.355	-51.2
264.571	100.35
264.787	102.4
265.004	49.15
265.22	81.92
265.436	51.2
265.652	10.24
265.868	6.14
266.084	32.77
266.3	-38.91
266.516	47.1
266.732	20.48
266.948	32.77
267.164	59.39
267.38	45.06
267.596	-28.67
267.812	98.3
268.028	55.3
268.244	0
268.46	100.35
268.676	26.62
268.892	18.43
269.108	10.24
269.324	-16.38
269.54	24.58
269.756	10.24
269.972	22.53
270.188	-10.24
270.403	-6.14
270.619	0
270.835	71.68
271.051	61.44
271.267	20.48
271.483	26.62
271.698	45.06
271.914	77.82
272.13	-10.24
272.346	-32.77
272.562	73.73
272.777	57.34
272.993	57.34
273.209	43.01
273.425	-45.06
273.64	94.21
273.856	90.11
274.072	49.15
274.287	20.48
274.503	90.11
274.719	73.73
274.934	-10.24
275.15	26.62
275.366	22.53
275.581	12.29
275.797	36.86
276.012	10.24
276.228	32.77
276.444	55.3
276.659	8.19
276.875	36.86
277.09	4.1
277.306	61.44
277.521	73.73
277.737	-55.3
277.952	59.39
278.168	24.58
278.383	55.3
278.599	-12.29
278.814	22.53
279.03	-32.77
279.245	98.3
279.461	-2.05
279.676	20.48
279.892	32.77
280.107	65.53
280.322	-28.67
280.538	106.49
280.753	0
280.969	20.48
281.184	-18.43
281.399	4.1
281.615	61.44
281.83	20.48
282.045	34.82
282.26	-22.53
282.476	-30.72
282.691	28.67
282.906	-8.19
283.122	92.16
283.337	-22.53
283.552	12.29
283.767	28.67
283.983	94.21
284.198	36.86
284.413	81.92
284.628	16.38
284.843	-24.58
285.058	20.48
285.274	49.15
285.489	-14.34
285.704	26.62
285.919	-36.86
286.134	55.3
286.349	-38.91
286.564	4.1
286.779	34.82
286.995	8.19
287.21	-55.3
287.425	22.53
287.64	-18.43
287.855	-18.43
288.07	-20.48
288.285	55.3
288.5	88.06
288.715	112.64
288.93	96.25
289.145	51.2
289.36	38.91
289.575	53.25
289.79	61.44
290.004	-10.24
290.219	22.53
290.434	0
290.649	-2.05
290.864	36.86
291.079	8.19
291.294	36.86
291.509	10.24
291.724	36.86
291.938	-47.1
292.153	45.06
292.368	32.77
292.583	38.91
292.798	18.43
293.012	67.58
293.227	32.77
293.442	92.16
293.657	18.43
293.871	30.72
294.086	47.1
294.301	12.29
294.516	77.82
294.73	-8.19
294.945	22.53
295.16	-12.29
295.374	71.68
295.589	20.48
295.804	96.25
296.018	45.06
296.233	53.25
296.447	45.06
296.662	18.43
296.877	92.16
297.091	8.19
297.306	-4.1
297.52	-57.34
297.735	30.72
297.949	22.53
298.164	16.38
298.378	59.39
298.593	-6.14
298.807	57.34
299.022	14.34
299.236	98.3
299.451	14.34
299.665	55.3
299.88	6.14
300.094	77.82
300.309	4.1
300.523	-20.48
300.737	59.39
300.952	38.91
301.166	32.77
301.381	8.19
301.595	102.4
301.809	34.82
302.024	147.45
302.238	34.82
302.452	45.06
302.667	57.34
302.881	104.45
303.095	-4.1
303.309	22.53
303.524	-20.48
303.738	40.96
303.952	-55.3
304.166	73.73
304.381	43.01
304.595	57.34
304.809	-12.29
305.023	24.58
305.237	-4.1
305.452	51.2
305.666	-8.19
305.88	100.35
306.094	86.01
306.308	34.82
306.522	8.19
306.736	45.06
306.95	16.38
307.164	28.67
307.379	34.82
307.593	112.64
307.807	26.62
308.021	59.39
308.235	0
308.449	-49.15
308.663	-8.19
308.877	81.92
309.091	8.19
309.305	-38.91
309.519	-2.05
309.733	112.64
309.947	2.05
310.161	45.06
310.374	45.06
310.588	28.67
310.802	28.67
311.016	20.48
311.23	28.67
311.444	114.69
311.658	8.19
311.872	-12.29
312.085	18.43
312.299	43.01
312.513	61.44
312.727	65.53
312.941	28.67
313.154	45.06
313.368	2.05
313.582	143.36
313.796	59.39
314.009	65.53
314.223	53.25
314.437	22.53
314.651	43.01
314.864	-20.48
315.078	38.91
315.292	-30.72
315.505	43.01
315.719	83.97
315.933	49.15
316.146	45.06
316.36	53.25
316.573	-75.77
316.787	24.58
317.001	45.06
317.214	10.24
317.428	28.67
317.641	28.67
317.855	26.62
318.068	-57.34
318.282	75.77
318.495	20.48
318.709	45.06
318.922	53.25
319.136	-8.19
319.349	26.62
319.563	-4.1
319.776	106.49
319.99	-47.1
320.203	24.58
320.417	86.01
320.63	47.1
320.843	81.92
321.057	18.43
321.27	36.86
321.483	-12.29
321.697	59.39
321.91	36.86
322.124	8.19
322.337	-20.48
322.55	-20.48
322.763	-12.29
322.977	43.01
323.19	-4.1
323.403	-14.34
323.617	32.77
323.83	104.45
324.043	40.96
324.256	18.43
324.469	36.86
324.683	6.14
324.896	36.86
325.109	108.54
325.322	-14.34
325.535	45.06
325.748	-4.1
325.962	71.68
326.175	53.25
326.388	104.45
326.601	51.2
326.814	-32.77
327.027	26.62
327.24	69.63
327.453	26.62
327.666	47.1
327.879	55.3
328.092	55.3
328.305	43.01
328.518	-28.67
328.731	40.96
328.944	36.86
329.157	53.25
329.37	59.39
329.583	10.24
329.796	-32.77
330.009	-8.19
330.222	81.92
330.435	36.86
330.648	18.43
330.861	4.1
331.073	71.68
331.286	20.48
331.499	47.1
331.712	28.67
331.925	65.53
332.138	20.48
332.35	67.58
332.563	10.24
332.776	-8.19
332.989	34.82
333.202	40.96
333.414	14.34
333.627	2.05
333.84	-12.29
334.053	51.2
334.265	20.48
334.478	51.2
334.691	28.67
334.903	86.01
335.116	100.35
335.329	-4.1
335.541	32.77
335.754	98.3
335.966	67.58
336.179	49.15
336.392	53.25
336.604	55.3
336.817	34.82
337.029	53.25
337.242	38.91
337.454	16.38
337.667	69.63
337.88	59.39
338.092	18.43
338.305	51.2
338.517	26.62
338.729	-4.1
338.942	-18.43
339.154	-4.1
339.367	83.97
339.579	34.82
339.792	34.82
340.004	22.53
340.217	-2.05
340.429	77.82
340.641	30.72
340.854	20.48
341.066	51.2
341.278	118.78
341.491	2.05
341.703	-16.38
341.915	86.01
342.128	88.06
342.34	36.86
342.552	51.2
342.764	51.2
342.977	6.14
343.189	32.77
343.401	126.97
343.613	16.38
343.826	20.48
344.038	-16.38
344.25	63.49
344.462	30.72
344.674	36.86
344.886	18.43
345.099	32.77
345.311	36.86
345.523	86.01
345.735	16.38
345.947	69.63
346.159	96.25
346.371	92.16
346.583	-14.34
346.795	139.26
347.007	32.77
347.219	34.82
347.431	14.34
347.643	65.53
347.855	20.48
348.067	92.16
348.279	-8.19
348.491	18.43
348.703	-2.05
348.915	47.1
349.127	-20.48
349.339	32.77
349.551	-18.43
349.763	28.67
349.975	43.01
350.187	-8.19
350.399	57.34
350.61	61.44
350.822	55.3
351.034	6.14
351.246	12.29
351.458	83.97
351.669	51.2
351.881	98.3
352.093	18.43
352.305	4.1
352.517	10.24
352.728	86.01
352.94	61.44
353.152	71.68
353.363	43.01
353.575	-36.86
353.787	65.53
353.999	40.96
354.21	-12.29
354.422	10.24
354.633	43.01
354.845	-22.53
355.057	36.86
355.268	36.86
355.48	65.53
355.692	30.72
355.903	77.82
356.115	0
356.326	45.06
356.538	26.62
356.749	59.39
356.961	77.82
357.172	26.62
357.384	0
357.595	45.06
357.807	30.72
358.018	0
358.23	-36.86
358.441	77.82
358.653	94.21
358.864	63.49
359.075	51.2
359.287	96.25
359.498	32.77
359.709	45.06
359.921	4.1
360.132	-12.29
360.344	36.86
360.555	159.74
360.766	106.49
360.977	6.14
361.189	88.06
361.4	-20.48
361.611	86.01
361.823	53.25
362.034	-8.19
362.245	4.1
362.456	67.58
362.667	55.3
362.879	32.77
363.09	133.12
363.301	108.54
363.512	59.39
363.723	49.15
363.935	69.63
364.146	63.49
364.357	71.68
364.568	77.82
364.779	-22.53
364.99	67.58
365.201	69.63
365.412	81.92
365.623	20.48
365.834	-4.1
366.045	-14.34
366.256	88.06
366.467	14.34
366.678	116.73
366.889	-4.1
367.1	49.15
367.311	73.73
367.522	-47.1
367.733	73.73
367.944	114.69
368.155	-8.19
368.366	-30.72
368.577	32.77
368.788	90.11
368.999	59.39
369.209	40.96
369.42	55.3
369.631	75.77
369.842	59.39
370.053	36.86
370.264	73.73
370.474	0
370.685	53.25
370.896	45.06
371.107	51.2
371.317	26.62
371.528	43.01
371.739	43.01
371.95	51.2
372.16	34.82
372.371	-4.1
372.582	49.15
372.792	77.82
373.003	61.44
373.214	-12.29
373.424	77.82
373.635	49.15
373.846	75.77
374.056	77.82
374.267	65.53
374.477	-12.29
374.688	69.63
374.898	43.01
375.109	26.62
375.319	-32.77
375.53	73.73
375.74	77.82
375.951	38.91
376.161	24.58
376.372	38.91
376.582	57.34
376.793	67.58
377.003	79.87
377.214	16.38
377.424	18.43
377.635	47.1
377.845	43.01
378.055	16.38
378.266	-18.43
378.476	2.05
378.686	55.3
378.897	81.92
379.107	34.82
379.317	32.77
379.528	36.86
379.738	49.15
379.948	-12.29
380.158	61.44
380.369	59.39
380.579	59.39
380.789	10.24
380.999	79.87
381.21	126.97
381.42	108.54
381.63	30.72
381.84	79.87
382.05	20.48
382.261	106.49
382.471	98.3
382.681	10.24
382.891	114.69
383.101	90.11
383.311	53.25
383.521	59.39
383.731	71.68
383.941	69.63
384.151	45.06
384.361	108.54
384.571	63.49
384.781	34.82
384.991	36.86
385.201	47.1
385.411	40.96
385.621	104.45
385.831	-45.06
386.041	67.58
386.251	65.53
386.461	38.91
386.671	81.92
386.881	69.63
387.091	55.3
387.301	94.21
387.511	104.45
387.72	55.3
387.93	149.5
388.14	65.53
388.35	90.11
388.56	49.15
388.769	59.39
388.979	24.58
389.189	67.58
389.399	116.73
389.609	38.91
389.818	51.2
390.028	59.39
390.238	120.83
390.447	71.68
390.657	112.64
390.867	83.97
391.076	67.58
391.286	114.69
391.496	57.34
391.705	61.44
391.915	102.4
392.125	114.69
392.334	28.67
392.544	43.01
392.753	49.15
392.963	53.25
393.172	141.31
393.382	55.3
393.591	102.4
393.801	81.92
394.01	137.21
394.22	40.96
394.429	47.1
394.639	77.82
394.848	96.25
395.058	40.96
395.267	131.07
395.477	69.63
395.686	124.93
395.895	96.25
396.105	79.87
396.314	118.78
396.524	96.25
396.733	61.44
396.942	176.13
397.152	102.4
397.361	155.65
397.57	65.53
397.78	104.45
397.989	96.25
398.198	67.58
398.407	47.1
398.617	83.97
398.826	100.35
399.035	124.93
399.244	122.88
399.453	110.59
399.663	102.4
399.872	161.79
400.081	110.59
400.29	167.93
400.499	83.97
400.708	133.12
400.917	114.69
401.127	106.49
401.336	153.6
401.545	114.69
401.754	98.3
401.963	90.11
402.172	161.79
402.381	131.07
402.59	131.07
402.799	106.49
403.008	94.21
403.217	141.31
403.426	176.13
403.635	161.79
403.844	143.36
404.053	217.08
404.262	139.26
404.471	172.03
404.68	116.73
404.888	182.27
405.097	126.97
405.306	122.88
405.515	188.41
405.724	217.08
405.933	208.89
406.142	223.23
406.35	215.04
406.559	202.75
406.768	145.41
406.977	210.94
407.185	258.04
407.394	204.8
407.603	208.89
407.812	276.48
408.02	266.24
408.229	286.72
408.438	227.32
408.646	245.76
408.855	225.28
409.064	212.99
409.272	200.7
409.481	237.56
409.69	360.44
409.898	241.66
410.107	274.43
410.315	360.44
410.524	266.24
410.733	368.63
410.941	438.27
411.15	376.83
411.358	385.02
411.567	438.27
411.775	458.74
411.984	360.44
412.192	401.4
412.401	466.94
412.609	454.65
412.818	542.71
413.026	485.37
413.234	569.34
413.443	544.76
413.651	514.04
413.86	610.29
414.068	534.52
414.276	600.05
414.485	737.27
414.693	731.12
414.901	700.41
415.11	729.08
415.318	677.88
415.526	794.61
415.734	817.14
415.943	804.85
416.151	800.76
416.359	856.05
416.567	884.72
416.776	1013.74
416.984	903.15
417.192	964.59
417.4	1032.18
417.608	1089.52
417.817	1081.33
418.025	1193.97
418.233	1214.45
418.441	1171.44
418.649	1204.21
418.857	1230.83
419.065	1333.23
419.273	1449.96
419.481	1429.48
419.689	1460.2
419.897	1531.88
420.105	1484.78
420.313	1595.37
420.521	1628.14
420.729	1699.81
420.937	1697.77
421.145	1845.22
421.353	1810.4
421.561	1927.14
421.769	2072.54
421.977	2131.94
422.185	2052.06
422.393	2244.57
422.601	2449.37
422.809	2256.86
423.017	2418.65
423.224	2512.86
423.432	2564.06
423.64	2656.22
423.848	2803.67
424.056	2822.1
424.263	2973.65
424.471	3043.28
424.679	3059.67
424.887	3133.39
425.094	3147.73
425.302	3350.48
425.51	3395.53
425.718	3608.52
425.925	3606.47
426.133	3614.66
426.341	3790.79
426.548	4167.62
426.756	4108.23
426.964	4075.46
427.171	4370.37
427.379	4474.81
427.586	4624.31
427.794	4773.82
428.001	4814.77
428.209	4972.47
428.417	4915.12
428.624	5330.86
428.832	5474.22
429.039	5371.82
429.247	5347.25
429.454	5861.29
429.662	6291.36
429.869	5783.46
430.076	6266.78
430.284	5982.12
430.491	6479.77
430.699	6647.71
430.906	6735.77
431.114	6870.94
431.321	7174.03
431.528	7171.99
431.736	7548.81
431.943	7989.13
432.15	7833.48
432.358	7929.73
432.565	8249.22
432.772	8245.12
432.979	8757.11
433.187	8865.66
433.394	8935.29
433.601	9502.58
433.808	9439.09
434.016	9322.35
434.223	9965.42
434.43	10260.32
434.637	10217.32
434.844	11091.8
435.052	11046.74
435.259	10930.01
435.466	11018.07
435.673	10983.26
435.88	11738.96
436.087	12371.78
436.294	12064.58
436.501	12330.82
436.708	12273.48
436.915	12656.45
437.122	13563.7
437.329	13342.52
437.537	13641.52
437.743	13862.7
437.95	13743.92
438.157	14589.73
438.364	14862.11
438.571	14886.68
438.778	14989.08
438.985	16686.85
439.192	15927.05
439.399	16181
439.606	15816.46
439.813	16885.5
440.02	17616.63
440.227	17829.62
440.433	17680.11
440.64	18056.94
440.847	17899.25
441.054	18364.14
441.261	19502.81
441.467	19054.3
441.674	19756.75
441.881	20461.26
442.088	20164.3
442.294	19748.56
442.501	20772.55
442.708	21227.2
442.914	22062.77
443.121	22974.11
443.328	22199.98
443.534	23879.32
443.741	22849.19
443.948	22750.88
444.154	24295.05
444.361	24333.96
444.568	24434.32
444.774	24698.5
444.981	24790.66
445.187	25437.82
445.394	26582.63
445.6	26191.47
445.807	28710.47
446.013	27625.05
446.22	27881.05
446.426	28784.2
446.633	29484.61
446.839	30178.87
447.046	29103.68
447.252	30764.59
447.459	30553.65
447.665	30774.83
447.871	31895.07
448.078	33392.13
448.284	31526.43
448.491	32613.9
448.697	33592.83
448.903	34645.49
449.11	34491.89
449.316	33986.04
449.522	34444.79
449.728	35597.79
449.935	35575.27
450.141	35915.23
450.347	36812.24
450.553	35130.86
450.76	35767.77
450.966	36812.24
451.172	36546
451.378	37498.31
451.584	36611.54
451.791	37633.47
451.997	37490.12
452.203	38290.87
452.409	38104.51
452.615	38258.1
452.821	36464.08
453.027	36099.55
453.233	37801.41
453.44	36605.39
453.646	37176.78
453.852	36888.01
454.058	37875.13
454.264	36255.19
454.47	37520.84
454.676	36380.12
454.882	37834.17
455.088	33992.19
455.294	35147.24
455.5	35458.53
455.705	35679.71
455.911	34043.38
456.117	33465.86
456.323	33119.75
456.529	31366.69
456.735	32863.75
456.941	31534.62
457.147	31315.49
457.352	30709.29
457.558	30393.9
457.764	30567.98
457.97	29699.64
458.176	28716.62
458.381	29275.71
458.587	27809.37
458.793	27367.01
458.999	26357.36
459.204	27788.89
459.41	27223.65
459.616	25456.25
459.821	25581.18
460.027	25306.75
460.233	24974.98
460.438	23807.64
460.644	23766.68
460.85	22841
461.055	22705.83
461.261	22570.66
461.466	20477.64
461.672	20303.56
461.878	21956.27
462.083	20162.25
462.289	19799.76
462.494	19480.28
462.7	18648.8
462.905	18020.08
463.111	18826.98
463.316	18892.51
463.522	18734.82
463.727	18751.2
463.932	18372.33
464.138	18028.27
464.343	18353.9
464.549	17809.14
464.754	18378.47
464.959	18046.7
465.165	18067.18
465.37	17338.1
465.575	16992
465.781	17704.69
465.986	17745.65
466.191	17006.33
466.397	16918.27
466.602	16008.97
466.807	16443.14
467.012	16541.44
467.218	16377.61
467.423	16178.95
467.628	16303.88
467.833	16756.48
468.038	16320.26
468.244	16039.69
468.449	16400.13
