Data from USB4F104151__36__11-36-52-345.txt Node

Date: Fri Mar 14 11:36:52 EDT 2025
User: louis
Spectrometer: USB4F10415
Trigger mode: 4
Integration Time (sec): 2.000000E-2
Scans to average: 1
Electric dark correction enabled: true
Nonlinearity correction enabled: false
Boxcar width: 0
XAxis mode: Wavelengths
Number of Pixels in Spectrum: 3648
>>>>>Begin Spectral Data<<<<<
178.204	-84.99
178.424	-84.99
178.644	-84.99
178.864	-52.22
179.084	-82.94
179.304	19.46
179.524	-27.65
179.744	23.55
179.964	35.84
180.184	-33.79
180.404	-11.26
180.624	-56.32
180.844	29.7
181.064	-9.22
181.283	-9.22
181.503	-1.02
181.723	39.94
181.943	-76.8
182.163	60.42
182.383	50.18
182.602	-13.31
182.822	58.37
183.042	46.08
183.262	41.98
183.482	58.37
183.701	13.31
183.921	-1.02
184.141	-7.17
184.361	99.33
184.58	-58.37
184.8	27.65
185.02	13.31
185.239	1.02
185.459	-41.98
185.679	66.56
185.898	-1.02
186.118	35.84
186.338	-50.18
186.557	46.08
186.777	1.02
186.997	-27.65
187.216	21.5
187.436	62.46
187.655	9.22
187.875	54.27
188.095	44.03
188.314	7.17
188.534	-27.65
188.753	58.37
188.973	-27.65
189.192	56.32
189.412	23.55
189.631	17.41
189.851	-39.94
190.07	64.51
190.29	-7.17
190.509	23.55
190.729	-46.08
190.948	35.84
191.168	97.28
191.387	-7.17
191.607	15.36
191.826	39.94
192.045	7.17
192.265	56.32
192.484	76.8
192.704	66.56
192.923	-89.09
193.142	-7.17
193.362	62.46
193.581	91.13
193.8	21.5
194.02	72.7
194.239	-31.74
194.458	70.65
194.678	41.98
194.897	72.7
195.116	23.55
195.335	48.13
195.555	-17.41
195.774	-21.5
195.993	31.74
196.212	3.07
196.432	25.6
196.651	29.7
196.87	107.52
197.089	58.37
197.308	93.18
197.528	9.22
197.747	-62.46
197.966	-13.31
198.185	46.08
198.404	-15.36
198.623	80.89
198.842	78.85
199.062	50.18
199.281	80.89
199.5	7.17
199.719	-21.5
199.938	-15.36
200.157	-19.46
200.376	7.17
200.595	-1.02
200.814	1.02
201.033	84.99
201.252	68.61
201.471	25.6
201.69	-19.46
201.909	23.55
202.128	95.23
202.347	-13.31
202.566	25.6
202.785	5.12
203.004	54.27
203.223	66.56
203.442	-54.27
203.661	95.23
203.879	-11.26
204.098	11.26
204.317	15.36
204.536	48.13
204.755	-87.04
204.974	29.7
205.193	35.84
205.411	-31.74
205.63	52.22
205.849	-13.31
206.068	50.18
206.287	62.46
206.505	101.37
206.724	70.65
206.943	-41.98
207.162	1.02
207.381	-64.51
207.599	1.02
207.818	-99.33
208.037	44.03
208.255	1.02
208.474	82.94
208.693	52.22
208.911	-44.03
209.13	52.22
209.349	60.42
209.567	105.47
209.786	95.23
210.005	25.6
210.223	78.85
210.442	-9.22
210.661	72.7
210.879	-27.65
211.098	35.84
211.316	5.12
211.535	31.74
211.753	11.26
211.972	27.65
212.191	-39.94
212.409	33.79
212.628	-21.5
212.846	41.98
213.065	-31.74
213.283	37.89
213.502	37.89
213.72	13.31
213.938	29.7
214.157	29.7
214.375	78.85
214.594	80.89
214.812	15.36
215.031	-41.98
215.249	68.61
215.467	-21.5
215.686	50.18
215.904	64.51
216.122	25.6
216.341	9.22
216.559	-17.41
216.778	5.12
216.996	76.8
217.214	9.22
217.432	15.36
217.651	-31.74
217.869	-1.02
218.087	50.18
218.306	-41.98
218.524	7.17
218.742	-23.55
218.96	-27.65
219.179	66.56
219.397	66.56
219.615	168.96
219.833	80.89
220.051	-9.22
220.27	82.94
220.488	46.08
220.706	13.31
220.924	7.17
221.142	23.55
221.36	25.6
221.578	168.96
221.796	35.84
222.015	66.56
222.233	39.94
222.451	80.89
222.669	33.79
222.887	3.07
223.105	-7.17
223.323	52.22
223.541	25.6
223.759	-11.26
223.977	-48.13
224.195	171.01
224.413	15.36
224.631	70.65
224.849	-15.36
225.067	66.56
225.285	21.5
225.503	13.31
225.721	-23.55
225.939	-9.22
226.157	-23.55
226.375	23.55
226.592	-1.02
226.81	-37.89
227.028	76.8
227.246	80.89
227.464	29.7
227.682	78.85
227.9	-9.22
228.117	21.5
228.335	19.46
228.553	91.13
228.771	15.36
228.989	68.61
229.206	-5.12
229.424	37.89
229.642	13.31
229.86	-1.02
230.077	46.08
230.295	-19.46
230.513	21.5
230.731	-44.03
230.948	27.65
231.166	17.41
231.384	44.03
231.601	-15.36
231.819	17.41
232.037	54.27
232.254	84.99
232.472	44.03
232.689	72.7
232.907	-1.02
233.125	-7.17
233.342	91.13
233.56	-39.94
233.777	27.65
233.995	39.94
234.213	70.65
234.43	115.71
234.648	58.37
234.865	56.32
235.083	-19.46
235.3	29.7
235.518	23.55
235.735	39.94
235.953	-9.22
236.17	3.07
236.388	52.22
236.605	23.55
236.822	29.7
237.04	39.94
237.257	-13.31
237.475	5.12
237.692	29.7
237.909	7.17
238.127	46.08
238.344	29.7
238.562	68.61
238.779	50.18
238.996	21.5
239.214	19.46
239.431	37.89
239.648	66.56
239.865	23.55
240.083	-9.22
240.3	35.84
240.517	9.22
240.735	48.13
240.952	-19.46
241.169	50.18
241.386	-13.31
241.603	-35.84
241.821	33.79
242.038	50.18
242.255	87.04
242.472	9.22
242.689	74.75
242.907	15.36
243.124	64.51
243.341	58.37
243.558	-33.79
243.775	48.13
243.992	33.79
244.209	21.5
244.426	-52.22
244.643	56.32
244.86	-1.02
245.078	58.37
245.295	62.46
245.512	41.98
245.729	60.42
245.946	-3.07
246.163	-97.28
246.38	50.18
246.597	-5.12
246.814	-19.46
247.031	-13.31
247.248	-1.02
247.464	19.46
247.681	-23.55
247.898	31.74
248.115	21.5
248.332	-7.17
248.549	23.55
248.766	33.79
248.983	31.74
249.2	-7.17
249.417	37.89
249.633	25.6
249.85	-27.65
250.067	3.07
250.284	48.13
250.501	107.52
250.717	78.85
250.934	-23.55
251.151	9.22
251.368	-35.84
251.585	19.46
251.801	-19.46
252.018	74.75
252.235	44.03
252.451	-72.7
252.668	15.36
252.885	31.74
253.102	54.27
253.318	25.6
253.535	15.36
253.752	29.7
253.968	3.07
254.185	7.17
254.401	46.08
254.618	50.18
254.835	-9.22
255.051	56.32
255.268	5.12
255.484	82.94
255.701	23.55
255.917	50.18
256.134	1.02
256.351	-11.26
256.567	64.51
256.784	64.51
257	17.41
257.217	50.18
257.433	74.75
257.65	44.03
257.866	66.56
258.082	-33.79
258.299	-17.41
258.515	-1.02
258.732	33.79
258.948	39.94
259.165	23.55
259.381	39.94
259.597	54.27
259.814	39.94
260.03	-3.07
260.246	52.22
260.463	-15.36
260.679	1.02
260.895	54.27
261.112	91.13
261.328	-44.03
261.544	1.02
261.761	78.85
261.977	11.26
262.193	-3.07
262.409	89.09
262.626	31.74
262.842	62.46
263.058	-25.6
263.274	29.7
263.49	91.13
263.707	64.51
263.923	-1.02
264.139	-1.02
264.355	17.41
264.571	-11.26
264.787	74.75
265.004	44.03
265.22	33.79
265.436	95.23
265.652	25.6
265.868	58.37
266.084	33.79
266.3	19.46
266.516	66.56
266.732	56.32
266.948	-1.02
267.164	-23.55
267.38	64.51
267.596	27.65
267.812	56.32
268.028	9.22
268.244	109.57
268.46	9.22
268.676	44.03
268.892	41.98
269.108	91.13
269.324	5.12
269.54	54.27
269.756	-23.55
269.972	-31.74
270.188	56.32
270.403	25.6
270.619	58.37
270.835	41.98
271.051	56.32
271.267	-25.6
271.483	93.18
271.698	58.37
271.914	66.56
272.13	23.55
272.346	-15.36
272.562	25.6
272.777	48.13
272.993	48.13
273.209	37.89
273.425	72.7
273.64	35.84
273.856	74.75
274.072	62.46
274.287	17.41
274.503	15.36
274.719	35.84
274.934	58.37
275.15	50.18
275.366	29.7
275.581	25.6
275.797	13.31
276.012	15.36
276.228	7.17
276.444	50.18
276.659	56.32
276.875	-50.18
277.09	56.32
277.306	44.03
277.521	9.22
277.737	-29.7
277.952	70.65
278.168	39.94
278.383	21.5
278.599	-37.89
278.814	54.27
279.03	56.32
279.245	31.74
279.461	33.79
279.676	-11.26
279.892	25.6
280.107	17.41
280.322	25.6
280.538	25.6
280.753	1.02
280.969	87.04
281.184	82.94
281.399	37.89
281.615	11.26
281.83	78.85
282.045	19.46
282.26	-13.31
282.476	17.41
282.691	50.18
282.906	-11.26
283.122	-15.36
283.337	-19.46
283.552	1.02
283.767	-39.94
283.983	39.94
284.198	29.7
284.413	41.98
284.628	-19.46
284.843	56.32
285.058	21.5
285.274	58.37
285.489	-19.46
285.704	-15.36
285.919	-1.02
286.134	-31.74
286.349	39.94
286.564	62.46
286.779	52.22
286.995	48.13
287.21	52.22
287.425	-3.07
287.64	-5.12
287.855	76.8
288.07	54.27
288.285	-11.26
288.5	-7.17
288.715	50.18
288.93	39.94
289.145	1.02
289.36	62.46
289.575	72.7
289.79	23.55
290.004	9.22
290.219	39.94
290.434	44.03
290.649	-44.03
290.864	27.65
291.079	62.46
291.294	74.75
291.509	48.13
291.724	5.12
291.938	25.6
292.153	46.08
292.368	54.27
292.583	-31.74
292.798	7.17
293.012	-1.02
293.227	7.17
293.442	23.55
293.657	-33.79
293.871	44.03
294.086	5.12
294.301	74.75
294.516	91.13
294.73	87.04
294.945	7.17
295.16	17.41
295.374	33.79
295.589	35.84
295.804	17.41
296.018	66.56
296.233	80.89
296.447	50.18
296.662	33.79
296.877	-7.17
297.091	-3.07
297.306	74.75
297.52	70.65
297.735	62.46
297.949	23.55
298.164	37.89
298.378	1.02
298.593	93.18
298.807	-13.31
299.022	89.09
299.236	27.65
299.451	-27.65
299.665	-46.08
299.88	-7.17
300.094	-23.55
300.309	23.55
300.523	91.13
300.737	-27.65
300.952	-11.26
301.166	70.65
301.381	56.32
301.595	15.36
301.809	-66.56
302.024	95.23
302.238	-1.02
302.452	35.84
302.667	41.98
302.881	33.79
303.095	80.89
303.309	5.12
303.524	7.17
303.738	-5.12
303.952	9.22
304.166	25.6
304.381	-3.07
304.595	23.55
304.809	-37.89
305.023	44.03
305.237	64.51
305.452	-11.26
305.666	31.74
305.88	56.32
306.094	66.56
306.308	48.13
306.522	-9.22
306.736	41.98
306.95	13.31
307.164	82.94
307.379	-44.03
307.593	23.55
307.807	-19.46
308.021	48.13
308.235	111.61
308.449	31.74
308.663	82.94
308.877	113.66
309.091	56.32
309.305	44.03
309.519	-9.22
309.733	17.41
309.947	46.08
310.161	97.28
310.374	87.04
310.588	70.65
310.802	66.56
311.016	66.56
311.23	41.98
311.444	-7.17
311.658	-60.42
311.872	62.46
312.085	46.08
312.299	17.41
312.513	64.51
312.727	-7.17
312.941	-9.22
313.154	7.17
313.368	46.08
313.582	31.74
313.796	3.07
314.009	93.18
314.223	64.51
314.437	25.6
314.651	-7.17
314.864	1.02
315.078	-23.55
315.292	7.17
315.505	15.36
315.719	150.53
315.933	50.18
316.146	84.99
316.36	29.7
316.573	95.23
316.787	62.46
317.001	-29.7
317.214	9.22
317.428	111.61
317.641	-23.55
317.855	-68.61
318.068	-15.36
318.282	91.13
318.495	72.7
318.709	33.79
318.922	74.75
319.136	-5.12
319.349	-33.79
319.563	3.07
319.776	9.22
319.99	9.22
320.203	17.41
320.417	25.6
320.63	7.17
320.843	9.22
321.057	21.5
321.27	7.17
321.483	72.7
321.697	25.6
321.91	66.56
322.124	7.17
322.337	52.22
322.55	17.41
322.763	78.85
322.977	52.22
323.19	-11.26
323.403	89.09
323.617	52.22
323.83	82.94
324.043	76.8
324.256	64.51
324.469	-17.41
324.683	-3.07
324.896	3.07
325.109	-3.07
325.322	-1.02
325.535	48.13
325.748	66.56
325.962	7.17
326.175	66.56
326.388	60.42
326.601	-35.84
326.814	74.75
327.027	29.7
327.24	68.61
327.453	-46.08
327.666	91.13
327.879	19.46
328.092	33.79
328.305	99.33
328.518	31.74
328.731	-25.6
328.944	64.51
329.157	33.79
329.37	48.13
329.583	48.13
329.796	68.61
330.009	25.6
330.222	17.41
330.435	33.79
330.648	29.7
330.861	52.22
331.073	9.22
331.286	64.51
331.499	-5.12
331.712	-31.74
331.925	19.46
332.138	41.98
332.35	68.61
332.563	33.79
332.776	58.37
332.989	-7.17
333.202	15.36
333.414	-21.5
333.627	-33.79
333.84	-31.74
334.053	23.55
334.265	60.42
334.478	78.85
334.691	25.6
334.903	5.12
335.116	48.13
335.329	-17.41
335.541	-9.22
335.754	35.84
335.966	33.79
336.179	-1.02
336.392	1.02
336.604	17.41
336.817	109.57
337.029	23.55
337.242	29.7
337.454	-7.17
337.667	82.94
337.88	19.46
338.092	29.7
338.305	52.22
338.517	60.42
338.729	-9.22
338.942	25.6
339.154	58.37
339.367	35.84
339.579	-1.02
339.792	41.98
340.004	103.42
340.217	27.65
340.429	-9.22
340.641	50.18
340.854	-17.41
341.066	37.89
341.278	50.18
341.491	44.03
341.703	74.75
341.915	48.13
342.128	-3.07
342.34	44.03
342.552	-9.22
342.764	41.98
342.977	60.42
343.189	39.94
343.401	74.75
343.613	1.02
343.826	37.89
344.038	9.22
344.25	54.27
344.462	15.36
344.674	23.55
344.886	89.09
345.099	107.52
345.311	109.57
345.523	-19.46
345.735	39.94
345.947	72.7
346.159	50.18
346.371	23.55
346.583	-7.17
346.795	148.48
347.007	15.36
347.219	7.17
347.431	-1.02
347.643	78.85
347.855	-19.46
348.067	31.74
348.279	-31.74
348.491	13.31
348.703	21.5
348.915	-3.07
349.127	68.61
349.339	33.79
349.551	-15.36
349.763	60.42
349.975	-25.6
350.187	52.22
350.399	99.33
350.61	76.8
350.822	31.74
351.034	29.7
351.246	-27.65
351.458	87.04
351.669	78.85
351.881	132.09
352.093	33.79
352.305	62.46
352.517	9.22
352.728	-9.22
352.94	91.13
353.152	23.55
353.363	41.98
353.575	19.46
353.787	66.56
353.999	58.37
354.21	54.27
354.422	13.31
354.633	72.7
354.845	84.99
355.057	1.02
355.268	76.8
355.48	56.32
355.692	-11.26
355.903	74.75
356.115	-1.02
356.326	9.22
356.538	84.99
356.749	66.56
356.961	50.18
357.172	11.26
357.384	-9.22
357.595	103.42
357.807	39.94
358.018	33.79
358.23	33.79
358.441	62.46
358.653	60.42
358.864	7.17
359.075	5.12
359.287	21.5
359.498	-37.89
359.709	52.22
359.921	17.41
360.132	74.75
360.344	58.37
360.555	5.12
360.766	80.89
360.977	50.18
361.189	-39.94
361.4	1.02
361.611	11.26
361.823	72.7
362.034	23.55
362.245	-23.55
362.456	60.42
362.667	41.98
362.879	17.41
363.09	74.75
363.301	-17.41
363.512	33.79
363.723	48.13
363.935	76.8
364.146	37.89
364.357	109.57
364.568	160.77
364.779	21.5
364.99	35.84
365.201	74.75
365.412	99.33
365.623	146.43
365.834	70.65
366.045	37.89
366.256	13.31
366.467	76.8
366.678	33.79
366.889	37.89
367.1	13.31
367.311	-5.12
367.522	25.6
367.733	60.42
367.944	89.09
368.155	19.46
368.366	37.89
368.577	39.94
368.788	13.31
368.999	25.6
369.209	23.55
369.42	58.37
369.631	113.66
369.842	46.08
370.053	82.94
370.264	-9.22
370.474	123.9
370.685	-15.36
370.896	58.37
371.107	70.65
371.317	35.84
371.528	33.79
371.739	78.85
371.95	15.36
372.16	123.9
372.371	74.75
372.582	-5.12
372.792	-54.27
373.003	41.98
373.214	56.32
373.424	99.33
373.635	21.5
373.846	64.51
374.056	33.79
374.267	46.08
374.477	64.51
374.688	31.74
374.898	15.36
375.109	46.08
375.319	15.36
375.53	17.41
375.74	58.37
375.951	60.42
376.161	101.37
376.372	1.02
376.582	29.7
376.793	111.61
377.003	46.08
377.214	74.75
377.424	25.6
377.635	5.12
377.845	-27.65
378.055	78.85
378.266	17.41
378.476	46.08
378.686	113.66
378.897	58.37
379.107	93.18
379.317	95.23
379.528	41.98
379.738	74.75
379.948	39.94
380.158	50.18
380.369	21.5
380.579	-33.79
380.789	109.57
380.999	31.74
381.21	29.7
381.42	123.9
381.63	27.65
381.84	21.5
382.05	58.37
382.261	87.04
382.471	19.46
382.681	-23.55
382.891	54.27
383.101	72.7
383.311	87.04
383.521	13.31
383.731	68.61
383.941	103.42
384.151	82.94
384.361	44.03
384.571	-9.22
384.781	76.8
384.991	87.04
385.201	68.61
385.411	64.51
385.621	125.95
385.831	64.51
386.041	70.65
386.251	17.41
386.461	50.18
386.671	93.18
386.881	93.18
387.091	68.61
387.301	117.76
387.511	62.46
387.72	58.37
387.93	50.18
388.14	134.14
388.35	97.28
388.56	60.42
388.769	78.85
388.979	33.79
389.189	-15.36
389.399	41.98
389.609	97.28
389.818	64.51
390.028	64.51
390.238	44.03
390.447	115.71
390.657	121.85
390.867	39.94
391.076	50.18
391.286	41.98
391.496	56.32
391.705	50.18
391.915	13.31
392.125	95.23
392.334	62.46
392.544	23.55
392.753	64.51
392.963	5.12
393.172	74.75
393.382	117.76
393.591	50.18
393.801	29.7
394.01	72.7
394.22	41.98
394.429	52.22
394.639	105.47
394.848	136.19
395.058	70.65
395.267	76.8
395.477	46.08
395.686	123.9
395.895	82.94
396.105	140.29
396.314	70.65
396.524	1.02
396.733	89.09
396.942	138.24
397.152	105.47
397.361	136.19
397.57	107.52
397.78	21.5
397.989	97.28
398.198	144.38
398.407	115.71
398.617	166.91
398.826	39.94
399.035	136.19
399.244	95.23
399.453	115.71
399.663	130.05
399.872	80.89
400.081	140.29
400.29	173.05
400.499	134.14
400.708	123.9
400.917	140.29
401.127	166.91
401.336	128
401.545	173.05
401.754	121.85
401.963	138.24
402.172	113.66
402.381	123.9
402.59	121.85
402.799	175.1
403.008	97.28
403.217	62.46
403.426	132.09
403.635	203.77
403.844	183.29
404.053	187.39
404.262	138.24
404.471	232.44
404.68	103.42
404.888	195.58
405.097	183.29
405.306	183.29
405.515	164.86
405.724	166.91
405.933	189.44
406.142	181.25
406.35	242.68
406.559	185.34
406.768	171.01
406.977	232.44
407.185	277.5
407.394	199.68
407.603	164.86
407.812	175.1
408.02	259.07
408.229	187.39
408.438	308.22
408.646	230.4
408.855	246.78
409.064	351.23
409.272	320.51
409.481	392.19
409.69	281.6
409.898	345.08
410.107	359.42
410.315	336.89
410.524	422.91
410.733	306.17
410.941	377.85
411.15	427
411.358	472.06
411.567	465.91
411.775	418.81
411.984	467.96
412.192	482.3
412.401	480.25
412.609	525.3
412.818	580.6
413.026	578.55
413.234	521.21
413.443	662.52
413.651	603.13
413.86	633.85
414.068	711.67
414.276	721.91
414.485	723.96
414.693	721.91
414.901	812.02
415.11	816.12
415.318	783.35
415.526	834.55
415.734	826.36
415.943	918.51
416.151	926.71
416.359	926.71
416.567	943.09
416.776	973.81
416.984	1045.49
417.192	1035.25
417.4	1113.07
417.608	1100.78
417.817	1203.18
418.025	1252.33
418.233	1254.38
418.441	1242.09
418.649	1303.53
418.857	1442.79
419.065	1352.68
419.273	1526.76
419.481	1465.32
419.689	1602.54
419.897	1647.59
420.105	1686.5
420.313	1760.23
420.521	1758.18
420.729	1831.91
420.937	1807.33
421.145	1936.35
421.353	2069.47
421.561	2087.9
421.769	2270.17
421.977	2431.96
422.185	2278.37
422.393	2415.58
422.601	2501.59
422.809	2587.61
423.017	2624.47
423.224	2665.43
423.432	2866.13
423.64	2773.97
423.848	3005.39
424.056	2927.57
424.263	3292.11
424.471	3091.41
424.679	3187.66
424.887	3513.29
425.094	3595.21
425.302	3398.6
425.51	3820.49
425.718	3693.51
425.925	3916.74
426.133	4023.23
426.341	4187.07
426.548	4326.33
426.756	4359.1
426.964	4400.06
427.171	4699.06
427.379	4821.94
427.586	4860.85
427.794	5047.22
428.001	5268.4
428.209	5446.57
428.417	5417.9
428.624	5890.98
428.832	5743.53
429.039	5903.27
429.247	5813.16
429.454	6357.92
429.662	6759.32
429.869	6427.55
430.076	6951.83
430.284	6566.81
430.491	6802.33
430.699	7314.32
430.906	7330.7
431.114	7469.97
431.321	7658.38
431.528	7801.74
431.736	8283.01
431.943	8627.07
432.15	8340.35
432.358	8567.68
432.565	9122.68
432.772	9001.85
432.979	9370.48
433.187	9782.12
433.394	9649
433.601	10136.42
433.808	10410.85
434.016	10208.1
434.223	10742.62
434.43	11256.66
434.637	11334.48
434.844	11885.39
435.052	11973.45
435.259	11811.66
435.466	12182.34
435.673	11963.21
435.88	12884.8
436.087	13333.3
436.294	13552.43
436.501	13329.2
436.708	13380.4
436.915	13888.3
437.122	14549.79
437.329	14476.07
437.537	14900
437.743	15246.1
437.95	14926.62
438.157	16096.01
438.364	16249.61
438.571	16220.94
438.778	16583.43
438.985	18137.84
439.192	17085.18
439.399	17996.53
439.606	17498.87
439.813	18526.95
440.02	19462.87
440.227	19151.58
440.433	18698.98
440.64	19675.86
440.847	19725.01
441.054	20067.02
441.261	21062.33
441.467	20830.91
441.674	21371.58
441.881	22168.24
442.088	22121.13
442.294	21953.2
442.501	22778.53
442.708	23151.26
442.914	23878.29
443.121	24922.76
443.328	24384.14
443.534	25961.08
443.741	25121.41
443.948	25055.87
444.154	26774.12
444.361	26792.55
444.568	26884.71
444.774	26696.3
444.981	26952.29
445.187	28011.09
445.394	29227.59
445.6	28731.98
445.807	31359.52
446.013	30358.06
446.22	30902.82
446.426	31855.13
446.633	31867.42
446.839	33239.56
447.046	31871.51
447.252	33741.31
447.459	33595.9
447.665	33868.28
447.871	35191.27
448.078	36692.43
448.284	34660.85
448.491	35817.95
448.697	37364.17
448.903	37994.94
449.11	37915.07
449.316	37624.26
449.522	38066.62
449.728	39041.45
449.935	39528.87
450.141	39238.06
450.347	40384.92
450.553	39233.96
450.76	39629.22
450.966	40540.57
451.172	40483.22
451.378	41552.26
451.584	40589.72
451.791	41595.27
451.997	41572.74
452.203	42058.11
452.409	41959.81
452.615	41939.33
452.821	40475.03
453.027	39971.23
453.233	42158.46
453.44	40819.09
453.646	41013.65
453.852	40972.69
454.058	42217.85
454.264	40225.18
454.47	41421.19
454.676	40300.95
454.882	41494.92
455.088	38187.45
455.294	38597.04
455.5	39580.07
455.705	39436.71
455.911	38199.74
456.117	37296.58
456.323	36841.93
456.529	35088.87
456.735	36235.74
456.941	35367.4
457.147	34867.69
457.352	34183.67
457.558	33489.41
457.764	33663.49
457.97	32883.21
458.176	32352.79
458.381	32184.85
458.587	30669.36
458.793	30566.96
458.999	29424.19
459.204	31081
459.41	30450.22
459.616	28437.07
459.821	28420.69
460.027	28334.67
460.233	27544.16
460.438	26563.18
460.644	26540.65
460.85	25399.93
461.055	24990.34
461.261	24621.7
461.466	23167.65
461.672	22246.06
461.878	24066.7
462.083	22497.96
462.289	22219.44
462.494	21938.87
462.7	20597.45
462.905	20161.23
463.111	20955.84
463.316	21183.16
463.522	20415.18
463.727	20728.52
463.932	20595.4
464.138	20103.89
464.343	20480.71
464.549	19780.31
464.754	20411.08
464.959	20495.05
465.165	20040.4
465.37	19331.8
465.575	18569.96
465.781	19565.27
465.986	19581.65
466.191	18991.84
466.397	18490.09
466.602	17593.08
466.807	18408.17
467.012	18408.17
467.218	18211.56
467.423	18105.07
467.628	18107.12
467.833	19036.89
