Data from USB4F104151__22__11-36-34-247.txt Node

Date: Fri Mar 14 11:36:34 EDT 2025
User: louis
Spectrometer: USB4F10415
Trigger mode: 4
Integration Time (sec): 2.000000E-2
Scans to average: 1
Electric dark correction enabled: true
Nonlinearity correction enabled: false
Boxcar width: 0
XAxis mode: Wavelengths
Number of Pixels in Spectrum: 3648
>>>>>Begin Spectral Data<<<<<
178.204	-66.73
178.424	-66.73
178.644	-66.73
178.864	4.95
179.084	-70.83
179.304	2.9
179.524	-27.82
179.744	11.09
179.964	-52.39
180.184	37.72
180.404	19.29
180.624	-50.35
180.844	7
181.064	-44.2
181.283	-23.72
181.503	60.24
181.723	60.24
181.943	23.38
182.163	-15.53
182.383	-9.39
182.602	19.29
182.822	-13.48
183.042	68.44
183.262	-13.48
183.482	11.09
183.701	-13.48
183.921	-50.35
184.141	45.91
184.361	56.15
184.58	66.39
184.8	-13.48
185.02	19.29
185.239	45.91
185.459	11.09
185.679	107.35
185.898	-29.87
186.118	105.3
186.338	56.15
186.557	-23.72
186.777	15.19
186.997	64.34
187.216	23.38
187.436	29.52
187.655	4.95
187.875	25.43
188.095	-7.34
188.314	39.76
188.534	-27.82
188.753	0.85
188.973	29.52
189.192	74.58
189.412	60.24
189.631	-5.29
189.851	119.64
190.07	129.88
190.29	7
190.509	-5.29
190.729	-1.19
190.948	11.09
191.168	80.72
191.387	56.15
191.607	-1.19
191.826	19.29
192.045	19.29
192.265	15.19
192.484	11.09
192.704	47.96
192.923	-1.19
193.142	62.29
193.362	66.39
193.581	50
193.8	39.76
194.02	115.54
194.239	66.39
194.458	7
194.678	-38.06
194.897	43.86
195.116	7
195.335	31.57
195.555	2.9
195.774	99.16
195.993	-48.3
196.212	35.67
196.432	43.86
196.651	43.86
196.87	-27.82
197.089	50
197.308	29.52
197.528	95.06
197.747	31.57
197.966	109.4
198.185	50
198.404	66.39
198.623	25.43
198.842	2.9
199.062	35.67
199.281	88.92
199.5	-15.53
199.719	56.15
199.938	-9.39
200.157	97.11
200.376	-27.82
200.595	74.58
200.814	-25.77
201.033	13.14
201.252	78.68
201.471	19.29
201.69	52.05
201.909	-25.77
202.128	68.44
202.347	70.48
202.566	23.38
202.785	74.58
203.004	-15.53
203.223	52.05
203.442	2.9
203.661	39.76
203.879	27.48
204.098	78.68
204.317	43.86
204.536	95.06
204.755	-17.58
204.974	-33.96
205.193	-33.96
205.411	125.78
205.63	41.81
205.849	11.09
206.068	68.44
206.287	-38.06
206.505	39.76
206.724	52.05
206.943	19.29
207.162	-83.11
207.381	45.91
207.599	23.38
207.818	-5.29
208.037	15.19
208.255	19.29
208.474	-17.58
208.693	37.72
208.911	-5.29
209.13	-46.25
209.349	78.68
209.567	-17.58
209.786	43.86
210.005	66.39
210.223	66.39
210.442	41.81
210.661	56.15
210.879	19.29
211.098	21.33
211.316	15.19
211.535	-5.29
211.753	-3.24
211.972	23.38
212.191	-21.67
212.409	109.4
212.628	-17.58
212.846	37.72
213.065	88.92
213.283	60.24
213.502	41.81
213.72	7
213.938	17.24
214.157	23.38
214.375	-42.15
214.594	-9.39
214.812	70.48
215.031	-3.24
215.249	4.95
215.467	4.95
215.686	-7.34
215.904	35.67
216.122	2.9
216.341	33.62
216.559	17.24
216.778	-11.43
216.996	-23.72
217.214	27.48
217.432	47.96
217.651	45.91
217.869	47.96
218.087	35.67
218.306	7
218.524	140.12
218.742	35.67
218.96	50
219.179	43.86
219.397	-9.39
219.615	156.5
219.833	74.58
220.051	27.48
220.27	45.91
220.488	31.57
220.706	31.57
220.924	-46.25
221.142	-9.39
221.36	9.05
221.578	-17.58
221.796	66.39
222.015	33.62
222.233	23.38
222.451	105.3
222.669	33.62
222.887	60.24
223.105	25.43
223.323	50
223.541	-54.44
223.759	29.52
223.977	-11.43
224.195	9.05
224.413	11.09
224.631	-27.82
224.849	41.81
225.067	9.05
225.285	0.85
225.503	101.2
225.721	19.29
225.939	17.24
226.157	-64.68
226.375	93.01
226.592	74.58
226.81	95.06
227.028	82.77
227.246	27.48
227.464	58.2
227.682	95.06
227.9	-29.87
228.117	29.52
228.335	50
228.553	45.91
228.771	39.76
228.989	76.63
229.206	27.48
229.424	25.43
229.642	70.48
229.86	0.85
230.077	-40.11
230.295	52.05
230.513	84.82
230.731	35.67
230.948	11.09
231.166	33.62
231.384	43.86
231.601	72.53
231.819	-27.82
232.037	60.24
232.254	-89.26
232.472	-68.78
232.689	103.25
232.907	21.33
233.125	-13.48
233.342	7
233.56	-15.53
233.777	86.87
233.995	60.24
234.213	45.91
234.43	84.82
234.648	25.43
234.865	-3.24
235.083	27.48
235.3	-13.48
235.518	29.52
235.735	37.72
235.953	31.57
236.17	19.29
236.388	52.05
236.605	-50.35
236.822	68.44
237.04	7
237.257	2.9
237.475	-25.77
237.692	43.86
237.909	54.1
238.127	-52.39
238.344	82.77
238.562	66.39
238.779	76.63
238.996	-3.24
239.214	-27.82
239.431	43.86
239.648	37.72
239.865	25.43
240.083	43.86
240.3	35.67
240.517	-60.59
240.735	33.62
240.952	39.76
241.169	60.24
241.386	27.48
241.603	52.05
241.821	-15.53
242.038	45.91
242.255	82.77
242.472	-29.87
242.689	95.06
242.907	82.77
243.124	72.53
243.341	25.43
243.558	33.62
243.775	84.82
243.992	27.48
244.209	27.48
244.426	109.4
244.643	64.34
244.86	70.48
245.078	9.05
245.295	21.33
245.512	90.96
245.729	47.96
245.946	101.2
246.163	66.39
246.38	50
246.597	-5.29
246.814	80.72
247.031	70.48
247.248	35.67
247.464	70.48
247.681	-1.19
247.898	39.76
248.115	70.48
248.332	41.81
248.549	41.81
248.766	82.77
248.983	74.58
249.2	-13.48
249.417	58.2
249.633	50
249.85	4.95
250.067	-13.48
250.284	11.09
250.501	62.29
250.717	-9.39
250.934	9.05
251.151	13.14
251.368	11.09
251.585	2.9
251.801	27.48
252.018	45.91
252.235	-5.29
252.451	-21.67
252.668	-58.54
252.885	-15.53
253.102	58.2
253.318	2.9
253.535	7
253.752	4.95
253.968	-50.35
254.185	43.86
254.401	7
254.618	88.92
254.835	13.14
255.051	37.72
255.268	-21.67
255.484	33.62
255.701	17.24
255.917	93.01
256.134	27.48
256.351	27.48
256.567	-1.19
256.784	117.59
257	-25.77
257.217	72.53
257.433	72.53
257.65	58.2
257.866	41.81
258.082	72.53
258.299	-42.15
258.515	11.09
258.732	31.57
258.948	13.14
259.165	84.82
259.381	58.2
259.597	72.53
259.814	-5.29
260.03	-25.77
260.246	-5.29
260.463	45.91
260.679	109.4
260.895	101.2
261.112	66.39
261.328	25.43
261.544	27.48
261.761	56.15
261.977	31.57
262.193	-5.29
262.409	93.01
262.626	17.24
262.842	56.15
263.058	-3.24
263.274	2.9
263.49	0.85
263.707	39.76
263.923	19.29
264.139	50
264.355	76.63
264.571	35.67
264.787	13.14
265.004	80.72
265.22	54.1
265.436	-23.72
265.652	-48.3
265.868	76.63
266.084	11.09
266.3	-21.67
266.516	-11.43
266.732	19.29
266.948	78.68
267.164	15.19
267.38	50
267.596	35.67
267.812	68.44
268.028	35.67
268.244	25.43
268.46	86.87
268.676	43.86
268.892	58.2
269.108	43.86
269.324	35.67
269.54	11.09
269.756	60.24
269.972	-7.34
270.188	150.36
270.403	35.67
270.619	-64.68
270.835	41.81
271.051	17.24
271.267	86.87
271.483	-52.39
271.698	-17.58
271.914	43.86
272.13	54.1
272.346	-1.19
272.562	-38.06
272.777	-1.19
272.993	68.44
273.209	113.49
273.425	56.15
273.64	-25.77
273.856	7
274.072	9.05
274.287	82.77
274.503	82.77
274.719	107.35
274.934	60.24
275.15	93.01
275.366	76.63
275.581	-21.67
275.797	43.86
276.012	13.14
276.228	90.96
276.444	27.48
276.659	31.57
276.875	58.2
277.09	74.58
277.306	19.29
277.521	84.82
277.737	23.38
277.952	23.38
278.168	-15.53
278.383	-9.39
278.599	13.14
278.814	4.95
279.03	17.24
279.245	45.91
279.461	50
279.676	-3.24
279.892	-17.58
280.107	-27.82
280.322	31.57
280.538	-11.43
280.753	33.62
280.969	7
281.184	58.2
281.399	37.72
281.615	21.33
281.83	74.58
282.045	66.39
282.26	35.67
282.476	-5.29
282.691	39.76
282.906	2.9
283.122	39.76
283.337	11.09
283.552	103.25
283.767	-46.25
283.983	60.24
284.198	39.76
284.413	-1.19
284.628	4.95
284.843	25.43
285.058	-17.58
285.274	60.24
285.489	50
285.704	25.43
285.919	-29.87
286.134	78.68
286.349	35.67
286.564	-23.72
286.779	76.63
286.995	56.15
287.21	4.95
287.425	-1.19
287.64	-50.35
287.855	58.2
288.07	-64.68
288.285	60.24
288.5	76.63
288.715	52.05
288.93	52.05
289.145	-23.72
289.36	74.58
289.575	21.33
289.79	-11.43
290.004	-58.54
290.219	45.91
290.434	23.38
290.649	7
290.864	82.77
291.079	90.96
291.294	39.76
291.509	4.95
291.724	-44.2
291.938	58.2
292.153	35.67
292.368	56.15
292.583	84.82
292.798	45.91
293.012	62.29
293.227	43.86
293.442	64.34
293.657	99.16
293.871	76.63
294.086	76.63
294.301	95.06
294.516	37.72
294.73	62.29
294.945	37.72
295.16	-52.39
295.374	68.44
295.589	138.07
295.804	4.95
296.018	31.57
296.233	90.96
296.447	23.38
296.662	-5.29
296.877	78.68
297.091	105.3
297.306	101.2
297.52	60.24
297.735	60.24
297.949	-21.67
298.164	9.05
298.378	35.67
298.593	19.29
298.807	7
299.022	125.78
299.236	35.67
299.451	17.24
299.665	35.67
299.88	64.34
300.094	0.85
300.309	56.15
300.523	109.4
300.737	31.57
300.952	23.38
301.166	29.52
301.381	33.62
301.595	74.58
301.809	-13.48
302.024	47.96
302.238	-33.96
302.452	19.29
302.667	11.09
302.881	52.05
303.095	-5.29
303.309	74.58
303.524	33.62
303.738	72.53
303.952	43.86
304.166	-13.48
304.381	27.48
304.595	-21.67
304.809	19.29
305.023	39.76
305.237	4.95
305.452	-42.15
305.666	88.92
305.88	64.34
306.094	9.05
306.308	74.58
306.522	0.85
306.736	43.86
306.95	64.34
307.164	37.72
307.379	103.25
307.593	88.92
307.807	11.09
308.021	88.92
308.235	-25.77
308.449	25.43
308.663	23.38
308.877	70.48
309.091	88.92
309.305	39.76
309.519	27.48
309.733	23.38
309.947	-3.24
310.161	82.77
310.374	-70.83
310.588	-13.48
310.802	7
311.016	19.29
311.23	80.72
311.444	60.24
311.658	19.29
311.872	-25.77
312.085	131.92
312.299	19.29
312.513	72.53
312.727	2.9
312.941	-21.67
313.154	82.77
313.368	-1.19
313.582	115.54
313.796	68.44
314.009	43.86
314.223	-9.39
314.437	60.24
314.651	74.58
314.864	37.72
315.078	35.67
315.292	-13.48
315.505	56.15
315.719	9.05
315.933	23.38
316.146	11.09
316.36	17.24
316.573	68.44
316.787	56.15
317.001	142.16
317.214	19.29
317.428	68.44
317.641	-15.53
317.855	19.29
318.068	17.24
318.282	82.77
318.495	35.67
318.709	33.62
318.922	52.05
319.136	101.2
319.349	-1.19
319.563	66.39
319.776	-19.63
319.99	35.67
320.203	31.57
320.417	39.76
320.63	72.53
320.843	58.2
321.057	60.24
321.27	93.01
321.483	35.67
321.697	-11.43
321.91	66.39
322.124	17.24
322.337	27.48
322.55	-42.15
322.763	33.62
322.977	43.86
323.19	45.91
323.403	60.24
323.617	74.58
323.83	60.24
324.043	64.34
324.256	54.1
324.469	-9.39
324.683	21.33
324.896	136.02
325.109	21.33
325.322	-31.91
325.535	39.76
325.748	50
325.962	0.85
326.175	117.59
326.388	45.91
326.601	33.62
326.814	0.85
327.027	56.15
327.24	76.63
327.453	-72.87
327.666	105.3
327.879	27.48
328.092	93.01
328.305	11.09
328.518	78.68
328.731	74.58
328.944	25.43
329.157	99.16
329.37	43.86
329.583	66.39
329.796	66.39
330.009	35.67
330.222	154.45
330.435	15.19
330.648	31.57
330.861	66.39
331.073	60.24
331.286	127.83
331.499	45.91
331.712	33.62
331.925	15.19
332.138	21.33
332.35	93.01
332.563	-19.63
332.776	117.59
332.989	72.53
333.202	74.58
333.414	33.62
333.627	25.43
333.84	-25.77
334.053	70.48
334.265	-5.29
334.478	101.2
334.691	52.05
334.903	82.77
335.116	60.24
335.329	-9.39
335.541	68.44
335.754	99.16
335.966	-15.53
336.179	60.24
336.392	-13.48
336.604	74.58
336.817	80.72
337.029	41.81
337.242	29.52
337.454	45.91
337.667	52.05
337.88	43.86
338.092	76.63
338.305	-29.87
338.517	-19.63
338.729	72.53
338.942	74.58
339.154	27.48
339.367	-23.72
339.579	52.05
339.792	23.38
340.004	152.4
340.217	52.05
340.429	27.48
340.641	17.24
340.854	84.82
341.066	-3.24
341.278	97.11
341.491	115.54
341.703	95.06
341.915	25.43
342.128	43.86
342.34	123.73
342.552	58.2
342.764	11.09
342.977	113.49
343.189	97.11
343.401	72.53
343.613	35.67
343.826	68.44
344.038	84.82
344.25	97.11
344.462	-13.48
344.674	72.53
344.886	39.76
345.099	103.25
345.311	66.39
345.523	27.48
345.735	23.38
345.947	47.96
346.159	45.91
346.371	56.15
346.583	29.52
346.795	60.24
347.007	41.81
347.219	78.68
347.431	7
347.643	62.29
347.855	56.15
348.067	113.49
348.279	25.43
348.491	45.91
348.703	99.16
348.915	41.81
349.127	19.29
349.339	52.05
349.551	7
349.763	43.86
349.975	80.72
350.187	39.76
350.399	68.44
350.61	54.1
350.822	29.52
351.034	52.05
351.246	62.29
351.458	93.01
351.669	76.63
351.881	19.29
352.093	150.36
352.305	191.31
352.517	56.15
352.728	35.67
352.94	2.9
353.152	-42.15
353.363	101.2
353.575	82.77
353.787	66.39
353.999	68.44
354.21	99.16
354.422	70.48
354.633	93.01
354.845	97.11
355.057	4.95
355.268	4.95
355.48	70.48
355.692	-1.19
355.903	47.96
356.115	80.72
356.326	23.38
356.538	103.25
356.749	105.3
356.961	15.19
357.172	25.43
357.384	2.9
357.595	62.29
357.807	15.19
358.018	76.63
358.23	17.24
358.441	88.92
358.653	35.67
358.864	-3.24
359.075	39.76
359.287	97.11
359.498	35.67
359.709	133.97
359.921	15.19
360.132	13.14
360.344	11.09
360.555	29.52
360.766	74.58
360.977	33.62
361.189	37.72
361.4	19.29
361.611	58.2
361.823	23.38
362.034	64.34
362.245	25.43
362.456	27.48
362.667	39.76
362.879	50
363.09	23.38
363.301	31.57
363.512	82.77
363.723	64.34
363.935	52.05
364.146	117.59
364.357	56.15
364.568	99.16
364.779	35.67
364.99	105.3
365.201	76.63
365.412	56.15
365.623	45.91
365.834	39.76
366.045	17.24
366.256	39.76
366.467	109.4
366.678	47.96
366.889	9.05
367.1	66.39
367.311	54.1
367.522	93.01
367.733	52.05
367.944	-31.91
368.155	-21.67
368.366	90.96
368.577	82.77
368.788	111.44
368.999	11.09
369.209	62.29
369.42	76.63
369.631	146.26
369.842	115.54
370.053	80.72
370.264	90.96
370.474	45.91
370.685	27.48
370.896	119.64
371.107	27.48
371.317	68.44
371.528	107.35
371.739	88.92
371.95	105.3
372.16	142.16
372.371	43.86
372.582	66.39
372.792	27.48
373.003	78.68
373.214	74.58
373.424	25.43
373.635	52.05
373.846	56.15
374.056	21.33
374.267	17.24
374.477	76.63
374.688	90.96
374.898	50
375.109	95.06
375.319	41.81
375.53	31.57
375.74	52.05
375.951	0.85
376.161	76.63
376.372	99.16
376.582	58.2
376.793	68.44
377.003	56.15
377.214	56.15
377.424	23.38
377.635	58.2
377.845	50
378.055	74.58
378.266	15.19
378.476	93.01
378.686	33.62
378.897	93.01
379.107	31.57
379.317	66.39
379.528	47.96
379.738	76.63
379.948	52.05
380.158	23.38
380.369	68.44
380.579	82.77
380.789	-7.34
380.999	99.16
381.21	97.11
381.42	101.2
381.63	39.76
381.84	29.52
382.05	60.24
382.261	43.86
382.471	-27.82
382.681	19.29
382.891	72.53
383.101	27.48
383.311	60.24
383.521	66.39
383.731	107.35
383.941	35.67
384.151	66.39
384.361	74.58
384.571	93.01
384.781	33.62
384.991	101.2
385.201	76.63
385.411	64.34
385.621	76.63
385.831	66.39
386.041	93.01
386.251	37.72
386.461	111.44
386.671	99.16
386.881	158.55
387.091	70.48
387.301	97.11
387.511	47.96
387.72	29.52
387.93	47.96
388.14	54.1
388.35	88.92
388.56	133.97
388.769	43.86
388.979	9.05
389.189	37.72
389.399	35.67
389.609	121.68
389.818	138.07
390.028	76.63
390.238	142.16
390.447	23.38
390.657	84.82
390.867	131.92
391.076	9.05
391.286	93.01
391.496	68.44
391.705	4.95
391.915	103.25
392.125	90.96
392.334	80.72
392.544	21.33
392.753	99.16
392.963	88.92
393.172	84.82
393.382	68.44
393.591	74.58
393.801	58.2
394.01	103.25
394.22	78.68
394.429	144.21
394.639	93.01
394.848	64.34
395.058	82.77
395.267	43.86
395.477	82.77
395.686	109.4
395.895	117.59
396.105	109.4
396.314	99.16
396.524	97.11
396.733	93.01
396.942	58.2
397.152	140.12
397.361	117.59
397.57	72.53
397.78	133.97
397.989	88.92
398.198	72.53
398.407	160.59
398.617	131.92
398.826	72.53
399.035	117.59
399.244	119.64
399.453	82.77
399.663	121.68
399.872	105.3
400.081	103.25
400.29	117.59
400.499	174.93
400.708	181.07
400.917	68.44
401.127	97.11
401.336	68.44
401.545	60.24
401.754	154.45
401.963	93.01
402.172	111.44
402.381	121.68
402.59	105.3
402.799	99.16
403.008	213.84
403.217	105.3
403.426	107.35
403.635	127.83
403.844	105.3
404.053	97.11
404.262	121.68
404.471	148.31
404.68	224.08
404.888	119.64
405.097	129.88
405.306	213.84
405.515	131.92
405.724	148.31
405.933	254.8
406.142	181.07
406.35	160.59
406.559	172.88
406.768	154.45
406.977	144.21
407.185	236.37
407.394	205.65
407.603	215.89
407.812	318.29
408.02	267.09
408.229	203.6
408.438	256.85
408.646	273.23
408.855	199.51
409.064	238.42
409.272	260.95
409.481	277.33
409.69	318.29
409.898	224.08
410.107	269.14
410.315	295.76
410.524	306
410.733	303.95
410.941	379.73
411.15	398.16
411.358	437.07
411.567	363.34
411.775	441.17
411.984	344.91
412.192	414.54
412.401	441.17
412.609	551.76
412.818	525.13
413.026	478.03
413.234	551.76
413.443	467.79
413.651	605
413.86	566.09
414.068	725.83
414.276	645.96
414.485	607.05
414.693	607.05
414.901	672.59
415.11	750.41
415.318	740.17
415.526	639.82
415.734	813.9
415.943	881.48
416.151	826.18
416.359	899.91
416.567	916.3
416.776	912.2
416.984	932.68
417.192	975.69
417.4	1012.55
417.608	1010.5
417.817	1055.56
418.025	1084.23
418.233	1131.33
418.441	1164.1
418.649	1305.41
418.857	1352.51
419.065	1377.09
419.273	1301.31
419.481	1471.29
419.689	1409.86
419.897	1536.83
420.105	1473.34
420.313	1604.41
420.521	1610.56
420.729	1686.33
420.937	1747.77
421.145	1829.69
421.353	1848.12
421.561	1952.57
421.769	1952.57
421.977	2077.49
422.185	2130.74
422.393	2132.79
422.601	2403.12
422.809	2419.5
423.017	2456.37
423.224	2378.55
423.432	2612.01
423.64	2532.14
423.848	2788.14
424.056	2761.52
424.263	2949.93
424.471	2925.35
424.679	2968.36
424.887	3173.16
425.094	3212.07
425.302	3275.56
425.51	3320.61
425.718	3459.87
425.925	3572.51
426.133	3547.94
426.341	3824.41
426.548	4098.84
426.756	4107.03
426.964	4098.84
427.171	4299.54
427.379	4309.78
427.586	4473.62
427.794	4612.88
428.001	4885.26
428.209	5135.11
428.417	5081.86
428.624	5309.19
428.832	5409.54
429.039	5362.44
429.247	5305.09
429.454	5974.78
429.662	6122.23
429.869	5853.95
430.076	6189.81
430.284	6210.29
430.491	6208.25
430.699	6757.1
430.906	6798.06
431.114	6718.19
431.321	6980.33
431.528	7015.15
431.736	7404.26
431.943	7848.67
432.15	7625.44
432.358	7836.38
432.565	8063.71
432.772	8170.2
432.979	8573.65
433.187	8778.45
433.394	8800.98
433.601	9392.84
433.808	9310.92
434.016	9288.39
434.223	9788.1
434.43	10322.62
434.637	10103.48
434.844	10873.52
435.052	10955.44
435.259	10889.9
435.466	11012.78
435.673	10773.17
435.88	11524.77
436.087	12137.12
436.294	12102.3
436.501	12026.53
436.708	12188.32
436.915	12610.2
437.122	12892.82
437.329	13443.72
437.537	13441.67
437.743	13896.32
437.95	13550.21
438.157	14183.04
438.364	14877.3
438.571	14813.81
438.778	14883.44
438.985	16194.14
439.192	15594.09
439.399	16286.3
439.606	15946.34
439.813	16910.93
440.02	17685.06
440.227	17205.84
440.433	17214.03
440.64	17904.2
440.847	17568.33
441.054	18289.21
441.261	19268.14
441.467	18993.72
441.674	19495.47
441.881	20144.67
442.088	20044.32
442.294	19569.19
442.501	20529.69
442.708	20951.57
442.914	21875.21
443.121	22532.61
443.328	21854.73
443.534	23560.69
443.741	23028.21
443.948	22622.72
444.154	24525.28
444.361	24244.71
444.568	24330.72
444.774	24357.35
444.981	24754.65
445.187	25287.12
445.394	26452.42
445.6	26014.15
445.807	28787.1
446.013	27232.69
446.22	27724.21
446.426	28961.18
446.633	29276.57
446.839	29845.9
447.046	28795.29
447.252	30411.14
447.459	30726.53
447.665	30398.85
447.871	31637.87
448.078	32842.08
448.284	31371.64
448.491	32364.9
448.697	33411.42
448.903	34388.3
449.11	34330.95
449.316	33536.34
449.522	34251.08
449.728	35445.05
449.935	35287.35
450.141	35348.79
450.347	36423.98
450.553	35279.16
450.76	35479.86
450.966	36507.94
451.172	36497.7
451.378	37128.48
451.584	36722.98
451.791	37230.88
451.997	37126.43
452.203	38134.03
452.409	37777.68
452.615	37806.36
452.821	35860.79
453.027	35760.44
453.233	37720.34
453.44	35965.23
453.646	36757.8
453.852	36790.56
454.058	37312.8
454.264	36225.32
454.47	37122.33
454.676	36116.78
454.882	37300.51
455.088	33919.31
455.294	34908.48
455.5	35197.24
455.705	35342.65
455.911	33771.86
456.117	33458.52
456.323	32954.72
456.529	31064.44
456.735	32799.07
456.941	31703.41
457.147	30871.93
457.352	30425.48
457.558	29796.75
457.764	29960.59
457.97	29342.1
458.176	28905.88
458.381	28809.63
458.587	27449.78
458.793	27287.99
458.999	26063.3
459.204	27740.59
459.41	27158.97
459.616	25465.3
459.821	25307.6
460.027	25197.01
460.233	24715.74
460.438	23511.53
460.644	23661.04
460.85	22561.28
461.055	22350.34
461.261	21975.56
461.466	20531.74
461.672	20038.18
461.878	21277.2
462.083	20142.63
462.289	19737.13
462.494	19339.82
462.7	18719.29
462.905	18029.12
463.111	18774.58
463.316	18887.22
463.522	18516.54
463.727	18594.36
463.932	18197.06
464.138	17969.73
464.343	18442.81
464.549	17691.21
464.754	18223.68
464.959	18082.37
465.165	17947.2
465.37	17246.8
465.575	16826.96
465.781	17467.98
465.986	17640.01
466.191	16933.46
466.397	16538.2
466.602	15616.62
466.807	16271.97
467.012	16415.32
467.218	15888.99
467.423	16034.4
467.628	16245.34
467.833	16761.43
468.038	16013.92
468.244	15653.48
468.449	16595.54
