Data from USB4F104151__67__11-37-30-741.txt Node

Date: Fri Mar 14 11:37:30 EDT 2025
User: louis
Spectrometer: USB4F10415
Trigger mode: 4
Integration Time (sec): 2.000000E-2
Scans to average: 1
Electric dark correction enabled: true
Nonlinearity correction enabled: false
Boxcar width: 0
XAxis mode: Wavelengths
Number of Pixels in Spectrum: 3648
>>>>>Begin Spectral Data<<<<<
178.204	-72.02
178.424	-72.02
178.644	-72.02
178.864	-69.97
179.084	-115.03
179.304	16.04
179.524	-63.83
179.744	-18.77
179.964	71.34
180.184	16.04
180.404	5.8
180.624	-2.39
180.844	20.14
181.064	-35.16
181.283	-22.87
181.503	-10.58
181.723	24.23
181.943	-43.35
182.163	28.33
182.383	5.8
182.602	28.33
182.822	7.85
183.042	69.29
183.262	69.29
183.482	81.58
183.701	54.95
183.921	65.19
184.141	26.28
184.361	9.9
184.58	18.09
184.8	-22.87
185.02	-4.44
185.239	46.76
185.459	30.38
185.679	20.14
185.898	7.85
186.118	42.67
186.338	-14.68
186.557	63.15
186.777	26.28
186.997	-22.87
187.216	116.39
187.436	97.96
187.655	61.1
187.875	11.95
188.095	54.95
188.314	13.99
188.534	24.23
188.753	93.87
188.973	140.97
189.192	85.67
189.412	89.77
189.631	38.57
189.851	-20.82
190.07	5.8
190.29	36.52
190.509	13.99
190.729	46.76
190.948	52.91
191.168	83.63
191.387	87.72
191.607	40.62
191.826	85.67
192.045	48.81
192.265	34.47
192.484	26.28
192.704	48.81
192.923	18.09
193.142	44.71
193.362	65.19
193.581	163.5
193.8	63.15
194.02	32.43
194.239	73.39
194.458	-24.92
194.678	-0.34
194.897	57
195.116	108.2
195.335	69.29
195.555	46.76
195.774	22.19
195.993	-4.44
196.212	-4.44
196.432	11.95
196.651	38.57
196.87	48.81
197.089	79.53
197.308	44.71
197.528	69.29
197.747	-57.68
197.966	52.91
198.185	5.8
198.404	9.9
198.623	61.1
198.842	85.67
199.062	40.62
199.281	-2.39
199.5	5.8
199.719	-18.77
199.938	97.96
200.157	57
200.376	95.91
200.595	20.14
200.814	65.19
201.033	44.71
201.252	97.96
201.471	22.19
201.69	52.91
201.909	-12.63
202.128	40.62
202.347	24.23
202.566	22.19
202.785	46.76
203.004	54.95
203.223	54.95
203.442	85.67
203.661	50.86
203.879	87.72
204.098	48.81
204.317	46.76
204.536	57
204.755	46.76
204.974	28.33
205.193	32.43
205.411	126.63
205.63	24.23
205.849	57
206.068	5.8
206.287	5.8
206.505	120.49
206.724	71.34
206.943	42.67
207.162	65.19
207.381	54.95
207.599	-59.73
207.818	128.68
208.037	22.19
208.255	61.1
208.474	32.43
208.693	-18.77
208.911	32.43
209.13	-16.73
209.349	18.09
209.567	54.95
209.786	81.58
210.005	136.87
210.223	71.34
210.442	-10.58
210.661	32.43
210.879	26.28
211.098	26.28
211.316	26.28
211.535	16.04
211.753	-0.34
211.972	20.14
212.191	30.38
212.409	9.9
212.628	91.82
212.846	44.71
213.065	38.57
213.283	54.95
213.502	-8.53
213.72	126.63
213.938	-4.44
214.157	57
214.375	112.3
214.594	57
214.812	-2.39
215.031	28.33
215.249	1.71
215.467	32.43
215.686	26.28
215.904	71.34
216.122	57
216.341	104.11
216.559	57
216.778	36.52
216.996	48.81
217.214	83.63
217.432	46.76
217.651	-33.11
217.869	114.34
218.087	95.91
218.306	-16.73
218.524	46.76
218.742	75.43
218.96	20.14
219.179	65.19
219.397	52.91
219.615	179.88
219.833	50.86
220.051	-10.58
220.27	67.24
220.488	97.96
220.706	36.52
220.924	-33.11
221.142	11.95
221.36	11.95
221.578	52.91
221.796	-14.68
222.015	22.19
222.233	52.91
222.451	83.63
222.669	20.14
222.887	57
223.105	11.95
223.323	42.67
223.541	16.04
223.759	67.24
223.977	89.77
224.195	57
224.413	44.71
224.631	65.19
224.849	40.62
225.067	71.34
225.285	-8.53
225.503	42.67
225.721	13.99
225.939	-10.58
226.157	63.15
226.375	71.34
226.592	11.95
226.81	79.53
227.028	85.67
227.246	65.19
227.464	-31.06
227.682	52.91
227.9	32.43
228.117	108.2
228.335	34.47
228.553	63.15
228.771	-4.44
228.989	140.97
229.206	20.14
229.424	77.48
229.642	36.52
229.86	7.85
230.077	57
230.295	13.99
230.513	44.71
230.731	93.87
230.948	54.95
231.166	59.05
231.384	63.15
231.601	42.67
231.819	40.62
232.037	5.8
232.254	32.43
232.472	54.95
232.689	-4.44
232.907	44.71
233.125	48.81
233.342	-12.63
233.56	85.67
233.777	69.29
233.995	16.04
234.213	118.44
234.43	73.39
234.648	87.72
234.865	81.58
235.083	120.49
235.3	48.81
235.518	7.85
235.735	44.71
235.953	24.23
236.17	-10.58
236.388	18.09
236.605	-16.73
236.822	83.63
237.04	40.62
237.257	30.38
237.475	30.38
237.692	1.71
237.909	16.04
238.127	46.76
238.344	71.34
238.562	71.34
238.779	-33.11
238.996	57
239.214	7.85
239.431	61.1
239.648	3.75
239.865	30.38
240.083	42.67
240.3	28.33
240.517	-20.82
240.735	38.57
240.952	48.81
241.169	20.14
241.386	3.75
241.603	20.14
241.821	52.91
242.038	114.34
242.255	71.34
242.472	65.19
242.689	-8.53
242.907	134.82
243.124	5.8
243.341	57
243.558	3.75
243.775	9.9
243.992	46.76
244.209	-26.96
244.426	71.34
244.643	104.11
244.86	-2.39
245.078	100.01
245.295	83.63
245.512	73.39
245.729	44.71
245.946	36.52
246.163	59.05
246.38	-6.49
246.597	-12.63
246.814	46.76
247.031	-24.92
247.248	65.19
247.464	48.81
247.681	95.91
247.898	13.99
248.115	7.85
248.332	73.39
248.549	-22.87
248.766	16.04
248.983	24.23
249.2	71.34
249.417	67.24
249.633	40.62
249.85	-14.68
250.067	3.75
250.284	32.43
250.501	48.81
250.717	46.76
250.934	-4.44
251.151	20.14
251.368	5.8
251.585	13.99
251.801	65.19
252.018	65.19
252.235	-0.34
252.451	9.9
252.668	32.43
252.885	-10.58
253.102	52.91
253.318	77.48
253.535	87.72
253.752	28.33
253.968	38.57
254.185	26.28
254.401	24.23
254.618	54.95
254.835	67.24
255.051	36.52
255.268	63.15
255.484	-22.87
255.701	20.14
255.917	22.19
256.134	9.9
256.351	116.39
256.567	73.39
256.784	13.99
257	26.28
257.217	3.75
257.433	38.57
257.65	67.24
257.866	87.72
258.082	28.33
258.299	13.99
258.515	22.19
258.732	32.43
258.948	50.86
259.165	63.15
259.381	24.23
259.597	30.38
259.814	52.91
260.03	28.33
260.246	20.14
260.463	85.67
260.679	79.53
260.895	-6.49
261.112	38.57
261.328	48.81
261.544	52.91
261.761	89.77
261.977	-12.63
262.193	36.52
262.409	34.47
262.626	73.39
262.842	24.23
263.058	30.38
263.274	106.15
263.49	59.05
263.707	11.95
263.923	50.86
264.139	108.2
264.355	46.76
264.571	77.48
264.787	79.53
265.004	85.67
265.22	48.81
265.436	16.04
265.652	54.95
265.868	77.48
266.084	-6.49
266.3	59.05
266.516	34.47
266.732	32.43
266.948	11.95
267.164	46.76
267.38	20.14
267.596	-57.68
267.812	91.82
268.028	46.76
268.244	7.85
268.46	114.34
268.676	42.67
268.892	61.1
269.108	24.23
269.324	-10.58
269.54	30.38
269.756	89.77
269.972	5.8
270.188	65.19
270.403	81.58
270.619	50.86
270.835	97.96
271.051	40.62
271.267	46.76
271.483	24.23
271.698	13.99
271.914	-0.34
272.13	87.72
272.346	26.28
272.562	136.87
272.777	-2.39
272.993	-16.73
273.209	79.53
273.425	104.11
273.64	-6.49
273.856	30.38
274.072	26.28
274.287	20.14
274.503	-0.34
274.719	57
274.934	11.95
275.15	106.15
275.366	36.52
275.581	16.04
275.797	-10.58
276.012	-16.73
276.228	108.2
276.444	73.39
276.659	59.05
276.875	85.67
277.09	48.81
277.306	130.73
277.521	77.48
277.737	18.09
277.952	61.1
278.168	32.43
278.383	134.82
278.599	77.48
278.814	112.3
279.03	26.28
279.245	73.39
279.461	46.76
279.676	46.76
279.892	73.39
280.107	24.23
280.322	63.15
280.538	87.72
280.753	36.52
280.969	128.68
281.184	65.19
281.399	40.62
281.615	77.48
281.83	128.68
282.045	-4.44
282.26	-0.34
282.476	73.39
282.691	52.91
282.906	22.19
283.122	65.19
283.337	48.81
283.552	16.04
283.767	57
283.983	87.72
284.198	40.62
284.413	20.14
284.628	20.14
284.843	40.62
285.058	-31.06
285.274	67.24
285.489	48.81
285.704	93.87
285.919	48.81
286.134	36.52
286.349	40.62
286.564	36.52
286.779	87.72
286.995	79.53
287.21	-35.16
287.425	65.19
287.64	1.71
287.855	30.38
288.07	42.67
288.285	-22.87
288.5	20.14
288.715	102.06
288.93	22.19
289.145	40.62
289.36	91.82
289.575	69.29
289.79	102.06
290.004	32.43
290.219	67.24
290.434	40.62
290.649	16.04
290.864	50.86
291.079	20.14
291.294	61.1
291.509	71.34
291.724	3.75
291.938	79.53
292.153	34.47
292.368	91.82
292.583	79.53
292.798	73.39
293.012	77.48
293.227	67.24
293.442	28.33
293.657	48.81
293.871	69.29
294.086	13.99
294.301	-47.44
294.516	65.19
294.73	24.23
294.945	77.48
295.16	89.77
295.374	42.67
295.589	52.91
295.804	57
296.018	44.71
296.233	3.75
296.447	65.19
296.662	-57.68
296.877	108.2
297.091	48.81
297.306	7.85
297.52	102.06
297.735	48.81
297.949	30.38
298.164	32.43
298.378	95.91
298.593	65.19
298.807	-12.63
299.022	18.09
299.236	93.87
299.451	44.71
299.665	20.14
299.88	48.81
300.094	110.25
300.309	63.15
300.523	87.72
300.737	57
300.952	-0.34
301.166	75.43
301.381	54.95
301.595	48.81
301.809	67.24
302.024	40.62
302.238	61.1
302.452	106.15
302.667	-31.06
302.881	46.76
303.095	3.75
303.309	54.95
303.524	73.39
303.738	22.19
303.952	20.14
304.166	93.87
304.381	-41.3
304.595	65.19
304.809	75.43
305.023	18.09
305.237	-12.63
305.452	89.77
305.666	77.48
305.88	18.09
306.094	81.58
306.308	50.86
306.522	40.62
306.736	63.15
306.95	22.19
307.164	38.57
307.379	-20.82
307.593	95.91
307.807	75.43
308.021	18.09
308.235	57
308.449	30.38
308.663	46.76
308.877	24.23
309.091	48.81
309.305	83.63
309.519	42.67
309.733	26.28
309.947	52.91
310.161	116.39
310.374	50.86
310.588	91.82
310.802	71.34
311.016	38.57
311.23	42.67
311.444	32.43
311.658	-20.82
311.872	52.91
312.085	32.43
312.299	57
312.513	32.43
312.727	95.91
312.941	65.19
313.154	108.2
313.368	36.52
313.582	42.67
313.796	112.3
314.009	18.09
314.223	18.09
314.437	104.11
314.651	20.14
314.864	28.33
315.078	22.19
315.292	85.67
315.505	-0.34
315.719	-39.25
315.933	48.81
316.146	-14.68
316.36	20.14
316.573	83.63
316.787	18.09
317.001	-12.63
317.214	-18.77
317.428	44.71
317.641	32.43
317.855	34.47
318.068	32.43
318.282	102.06
318.495	108.2
318.709	54.95
318.922	-12.63
319.136	-20.82
319.349	77.48
319.563	54.95
319.776	16.04
319.99	57
320.203	28.33
320.417	54.95
320.63	67.24
320.843	151.21
321.057	48.81
321.27	85.67
321.483	48.81
321.697	83.63
321.91	36.52
322.124	122.54
322.337	3.75
322.55	3.75
322.763	11.95
322.977	147.11
323.19	30.38
323.403	65.19
323.617	13.99
323.83	91.82
324.043	79.53
324.256	85.67
324.469	36.52
324.683	-4.44
324.896	-18.77
325.109	69.29
325.322	-29.01
325.535	63.15
325.748	95.91
325.962	126.63
326.175	112.3
326.388	89.77
326.601	57
326.814	-2.39
327.027	40.62
327.24	7.85
327.453	48.81
327.666	52.91
327.879	69.29
328.092	91.82
328.305	26.28
328.518	42.67
328.731	-8.53
328.944	36.52
329.157	110.25
329.37	57
329.583	69.29
329.796	97.96
330.009	65.19
330.222	75.43
330.435	38.57
330.648	40.62
330.861	20.14
331.073	42.67
331.286	79.53
331.499	118.44
331.712	38.57
331.925	63.15
332.138	106.15
332.35	120.49
332.563	16.04
332.776	57
332.989	22.19
333.202	13.99
333.414	81.58
333.627	97.96
333.84	65.19
334.053	85.67
334.265	13.99
334.478	93.87
334.691	32.43
334.903	97.96
335.116	24.23
335.329	63.15
335.541	40.62
335.754	73.39
335.966	13.99
336.179	46.76
336.392	85.67
336.604	24.23
336.817	100.01
337.029	118.44
337.242	57
337.454	85.67
337.667	7.85
337.88	171.69
338.092	54.95
338.305	57
338.517	59.05
338.729	48.81
338.942	38.57
339.154	46.76
339.367	57
339.579	9.9
339.792	63.15
340.004	143.02
340.217	81.58
340.429	100.01
340.641	44.71
340.854	61.1
341.066	100.01
341.278	130.73
341.491	44.71
341.703	44.71
341.915	-20.82
342.128	112.3
342.34	69.29
342.552	124.58
342.764	89.77
342.977	42.67
343.189	26.28
343.401	20.14
343.613	-2.39
343.826	130.73
344.038	24.23
344.25	-2.39
344.462	124.58
344.674	44.71
344.886	85.67
345.099	28.33
345.311	95.91
345.523	100.01
345.735	52.91
345.947	89.77
346.159	65.19
346.371	71.34
346.583	42.67
346.795	40.62
347.007	54.95
347.219	18.09
347.431	52.91
347.643	65.19
347.855	36.52
348.067	114.34
348.279	13.99
348.491	102.06
348.703	163.5
348.915	44.71
349.127	97.96
349.339	95.91
349.551	93.87
349.763	143.02
349.975	81.58
350.187	122.54
350.399	65.19
350.61	63.15
350.822	30.38
351.034	75.43
351.246	54.95
351.458	24.23
351.669	48.81
351.881	38.57
352.093	79.53
352.305	71.34
352.517	5.8
352.728	65.19
352.94	-96.6
353.152	24.23
353.363	67.24
353.575	77.48
353.787	77.48
353.999	112.3
354.21	91.82
354.422	89.77
354.633	46.76
354.845	63.15
355.057	110.25
355.268	24.23
355.48	16.04
355.692	155.3
355.903	11.95
356.115	13.99
356.326	67.24
356.538	73.39
356.749	36.52
356.961	-24.92
357.172	40.62
357.384	40.62
357.595	69.29
357.807	48.81
358.018	83.63
358.23	65.19
358.441	188.07
358.653	85.67
358.864	67.24
359.075	38.57
359.287	59.05
359.498	75.43
359.709	50.86
359.921	67.24
360.132	16.04
360.344	102.06
360.555	57
360.766	22.19
360.977	100.01
361.189	106.15
361.4	61.1
361.611	26.28
361.823	63.15
362.034	67.24
362.245	71.34
362.456	93.87
362.667	-12.63
362.879	75.43
363.09	75.43
363.301	85.67
363.512	40.62
363.723	40.62
363.935	83.63
364.146	48.81
364.357	97.96
364.568	128.68
364.779	-8.53
364.99	97.96
365.201	28.33
365.412	20.14
365.623	48.81
365.834	132.78
366.045	85.67
366.256	134.82
366.467	-35.16
366.678	77.48
366.889	85.67
367.1	85.67
367.311	13.99
367.522	91.82
367.733	91.82
367.944	67.24
368.155	116.39
368.366	114.34
368.577	73.39
368.788	57
368.999	112.3
369.209	24.23
369.42	124.58
369.631	63.15
369.842	145.06
370.053	95.91
370.264	-4.44
370.474	50.86
370.685	69.29
370.896	104.11
371.107	83.63
371.317	36.52
371.528	54.95
371.739	65.19
371.95	100.01
372.16	87.72
372.371	65.19
372.582	73.39
372.792	71.34
373.003	57
373.214	57
373.424	54.95
373.635	-8.53
373.846	130.73
374.056	71.34
374.267	93.87
374.477	110.25
374.688	57
374.898	38.57
375.109	112.3
375.319	130.73
375.53	63.15
375.74	52.91
375.951	16.04
376.161	46.76
376.372	157.35
376.582	52.91
376.793	112.3
377.003	120.49
377.214	71.34
377.424	48.81
377.635	24.23
377.845	59.05
378.055	28.33
378.266	52.91
378.476	79.53
378.686	57
378.897	116.39
379.107	93.87
379.317	102.06
379.528	95.91
379.738	93.87
379.948	-0.34
380.158	48.81
380.369	54.95
380.579	59.05
380.789	32.43
380.999	120.49
381.21	61.1
381.42	112.3
381.63	32.43
381.84	63.15
382.05	116.39
382.261	97.96
382.471	30.38
382.681	48.81
382.891	91.82
383.101	71.34
383.311	93.87
383.521	145.06
383.731	57
383.941	124.58
384.151	11.95
384.361	128.68
384.571	110.25
384.781	79.53
384.991	1.71
385.201	75.43
385.411	44.71
385.621	73.39
385.831	42.67
386.041	67.24
386.251	67.24
386.461	79.53
386.671	11.95
386.881	130.73
387.091	106.15
387.301	100.01
387.511	106.15
387.72	42.67
387.93	48.81
388.14	77.48
388.35	52.91
388.56	106.15
388.769	65.19
388.979	38.57
389.189	77.48
389.399	36.52
389.609	61.1
389.818	40.62
390.028	81.58
390.238	59.05
390.447	85.67
390.657	67.24
390.867	97.96
391.076	13.99
391.286	61.1
391.496	145.06
391.705	79.53
391.915	196.26
392.125	73.39
392.334	112.3
392.544	81.58
392.753	57
392.963	16.04
393.172	61.1
393.382	46.76
393.591	46.76
393.801	118.44
394.01	81.58
394.22	65.19
394.429	169.64
394.639	38.57
394.848	50.86
395.058	79.53
395.267	50.86
395.477	32.43
395.686	147.11
395.895	132.78
396.105	145.06
396.314	120.49
396.524	46.76
396.733	114.34
396.942	140.97
397.152	116.39
397.361	110.25
397.57	134.82
397.78	155.3
397.989	75.43
398.198	222.89
398.407	102.06
398.617	134.82
398.826	106.15
399.035	161.45
399.244	188.07
399.453	110.25
399.663	151.21
399.872	188.07
400.081	143.02
400.29	89.77
400.499	179.88
400.708	186.02
400.917	161.45
401.127	149.16
401.336	155.3
401.545	153.26
401.754	175.78
401.963	222.89
402.172	183.98
402.381	89.77
402.59	194.22
402.799	167.59
403.008	63.15
403.217	181.93
403.426	202.41
403.635	132.78
403.844	167.59
404.053	173.74
404.262	120.49
404.471	190.12
404.68	161.45
404.888	251.56
405.097	175.78
405.306	134.82
405.515	224.94
405.724	237.22
405.933	235.18
406.142	216.74
406.35	308.9
406.559	179.88
406.768	204.46
406.977	233.13
407.185	278.18
407.394	261.8
407.603	284.33
407.812	356.01
408.02	331.43
408.229	245.41
408.438	331.43
408.646	267.94
408.855	313
409.064	290.47
409.272	413.35
409.481	405.16
409.69	265.89
409.898	396.96
410.107	433.83
410.315	421.54
410.524	437.92
410.733	444.07
410.941	411.3
411.15	460.45
411.358	462.5
411.567	634.53
411.775	560.8
411.984	550.56
412.192	634.53
412.401	562.85
412.609	677.54
412.818	663.2
413.026	597.67
413.234	601.76
413.443	650.91
413.651	671.39
413.86	745.12
414.068	749.22
414.276	790.17
414.485	833.18
414.693	865.95
414.901	888.48
415.11	804.51
415.318	917.15
415.526	913.05
415.734	990.88
415.943	1050.27
416.151	1037.98
416.359	1117.85
416.567	1150.62
416.776	1158.81
416.984	1220.25
417.192	1181.34
417.4	1326.74
417.608	1298.07
417.817	1351.32
418.025	1373.85
418.233	1488.53
418.441	1586.83
418.649	1566.35
418.857	1715.86
419.065	1678.99
419.273	1689.23
419.481	1728.14
419.689	1791.63
419.897	1912.46
420.105	1932.94
420.313	2018.96
420.521	2039.44
420.729	2080.39
420.937	2152.07
421.145	2469.51
421.353	2324.1
421.561	2436.74
421.769	2481.8
421.977	2619.01
422.185	2592.39
422.393	2885.25
422.601	2924.16
422.809	2911.87
423.017	3053.18
423.224	3131
423.432	3219.07
423.64	3444.34
423.848	3509.88
424.056	3427.96
424.263	3702.39
424.471	3817.07
424.679	3751.54
424.887	3917.42
425.094	4101.74
425.302	3989.1
425.51	4122.22
425.718	4255.34
425.925	4462.18
426.133	4628.07
426.341	4777.57
426.548	5062.24
426.756	4879.97
426.964	5158.49
427.171	5291.61
427.379	5541.46
427.586	5563.99
427.794	5600.85
428.001	5895.76
428.209	6284.87
428.417	6254.16
428.624	6671.94
428.832	6573.64
429.039	6643.27
429.247	6567.49
429.454	7349.82
429.662	7831.09
429.869	7382.59
430.076	7794.23
430.284	7501.37
430.491	7990.83
430.699	8470.06
430.906	8300.08
431.114	8316.46
431.321	8625.7
431.528	8934.95
431.736	9524.76
431.943	9756.18
432.15	9530.91
432.358	9936.4
432.565	10173.97
432.772	10354.19
432.979	10620.42
433.187	10956.29
433.394	10862.08
433.601	11701.75
433.808	11765.24
434.016	11875.83
434.223	12111.35
434.43	12926.44
434.637	12418.54
434.844	13385.18
435.052	13782.49
435.259	13659.61
435.466	13970.9
435.673	13452.77
435.88	14468.56
436.087	15125.96
436.294	15345.09
436.501	14992.84
436.708	15113.67
436.915	15926.71
437.122	16276.91
437.329	16330.16
437.537	16827.82
437.743	17331.62
437.95	17061.29
438.157	17755.55
438.364	18482.58
438.571	18451.86
438.778	18476.43
438.985	20567.41
439.192	19436.93
439.399	20258.17
439.606	19639.68
439.813	20759.92
440.02	21902.68
440.227	21513.57
440.433	21542.24
440.64	22343
440.847	22054.23
441.054	22482.26
441.261	24358.2
441.467	23833.92
441.674	24229.18
441.881	25296.17
442.088	25220.39
442.294	24814.9
442.501	25531.69
442.708	26424.6
442.914	27088.14
443.121	28136.7
443.328	27503.88
443.534	29607.14
443.741	28419.32
443.948	28095.74
444.154	30182.62
444.361	30149.85
444.568	30471.39
444.774	30430.43
444.981	30491.87
445.187	31657.16
445.394	32588.99
445.6	32259.26
445.807	35390.61
446.013	33840.29
446.22	34587.8
446.426	35914.89
446.633	35871.88
446.839	37547.12
447.046	36043.91
447.252	38425.7
447.459	37700.72
447.665	37749.87
447.871	39511.12
448.078	41313.33
448.284	38986.84
448.491	40195.14
448.697	41720.88
448.903	42591.26
449.11	42355.75
449.316	42026.03
449.522	42632.22
449.728	43539.47
449.935	44008.46
450.141	43801.61
450.347	44938.24
450.553	43537.43
450.76	44049.42
450.966	45540.34
451.172	44663.81
451.378	46205.93
451.584	45093.88
451.791	46087.15
451.997	46255.08
452.203	47055.84
452.409	46990.3
452.615	46590.95
452.821	44395.53
453.027	44762.11
453.233	46945.25
453.44	45153.27
453.646	45839.34
453.852	45380.6
454.058	46582.76
454.264	44755.97
454.47	45605.87
454.676	44923.9
454.882	46044.14
455.088	42038.31
455.294	42738.72
455.5	43637.78
455.705	44016.65
455.911	42157.1
456.117	41378.87
456.323	40758.33
456.529	38710.36
456.735	40772.67
456.941	39423.06
457.147	38845.53
457.352	37907.56
457.558	37172.34
457.764	36795.51
457.97	36549.76
458.176	35701.9
458.381	35898.5
458.587	33721.51
458.793	33934.5
458.999	32128.19
459.204	34763.93
459.41	33871.01
459.616	31538.38
459.821	31739.08
460.027	31392.97
460.233	30842.07
460.438	29435.11
460.644	29627.62
460.85	28128.51
461.055	27723.01
461.261	28132.61
461.466	25607.46
461.672	25115.95
461.878	26514.71
462.083	25042.22
462.289	24814.9
462.494	24018.24
462.7	23131.47
462.905	22453.59
463.111	23184.71
463.316	23424.33
463.522	22832.46
463.727	22908.24
463.932	22824.27
464.138	22687.06
464.343	22547.79
464.549	22234.46
464.754	22654.29
464.959	22412.63
465.165	22316.37
465.37	21847.39
465.575	20997.48
465.781	21693.79
465.986	21622.11
466.191	20893.04
466.397	20645.23
466.602	19713.41
466.807	20596.08
467.012	20374.9
467.218	20417.91
467.423	19809.66
467.628	20041.08
467.833	20968.81
