Data from USB4F104151__5__11-36-17-829.txt Node

Date: Fri Mar 14 11:36:17 EDT 2025
User: louis
Spectrometer: USB4F10415
Trigger mode: 4
Integration Time (sec): 2.000000E-2
Scans to average: 1
Electric dark correction enabled: true
Nonlinearity correction enabled: false
Boxcar width: 0
XAxis mode: Wavelengths
Number of Pixels in Spectrum: 3648
>>>>>Begin Spectral Data<<<<<
178.204	-100.18
178.424	-100.18
178.644	-100.18
178.864	-22.36
179.084	-83.8
179.304	-40.79
179.524	84.14
179.744	-10.07
179.964	-1.88
180.184	39.08
180.404	-5.97
180.624	37.03
180.844	-18.26
181.064	-36.69
181.283	-53.08
181.503	6.31
181.723	0.17
181.943	22.7
182.163	-10.07
182.383	18.6
182.602	47.27
182.822	45.23
183.042	4.27
183.262	-36.69
183.482	16.55
183.701	41.13
183.921	12.46
184.141	12.46
184.361	24.75
184.58	-40.79
184.8	43.18
185.02	22.7
185.239	43.18
185.459	63.66
185.679	69.8
185.898	-20.31
186.118	71.85
186.338	39.08
186.557	10.41
186.777	24.75
186.997	14.51
187.216	6.31
187.436	59.56
187.655	45.23
187.875	49.32
188.095	2.22
188.314	121
188.534	14.51
188.753	18.6
188.973	-73.56
189.192	8.36
189.412	-18.26
189.631	92.33
189.851	16.55
190.07	63.66
190.29	-34.64
190.509	20.65
190.729	51.37
190.948	63.66
191.168	63.66
191.387	22.7
191.607	39.08
191.826	12.46
192.045	4.27
192.265	30.89
192.484	16.55
192.704	-18.26
192.923	-73.56
193.142	28.84
193.362	18.6
193.581	8.36
193.8	32.94
194.02	49.32
194.239	80.04
194.458	94.38
194.678	12.46
194.897	14.51
195.116	6.31
195.335	43.18
195.555	12.46
195.774	8.36
195.993	22.7
196.212	2.22
196.432	47.27
196.651	96.43
196.87	-32.6
197.089	45.23
197.308	86.19
197.528	-12.12
197.747	-20.31
197.966	-34.64
198.185	10.41
198.404	34.99
198.623	-63.32
198.842	45.23
199.062	45.23
199.281	47.27
199.5	61.61
199.719	18.6
199.938	0.17
200.157	6.31
200.376	18.6
200.595	-8.02
200.814	37.03
201.033	0.17
201.252	41.13
201.471	45.23
201.69	43.18
201.909	22.7
202.128	61.61
202.347	37.03
202.566	-14.17
202.785	-18.26
203.004	-18.26
203.223	71.85
203.442	-12.12
203.661	16.55
203.879	55.47
204.098	59.56
204.317	10.41
204.536	12.46
204.755	41.13
204.974	84.14
205.193	-28.5
205.411	71.85
205.63	37.03
205.849	6.31
206.068	24.75
206.287	59.56
206.505	32.94
206.724	22.7
206.943	-42.84
207.162	-18.26
207.381	45.23
207.599	-10.07
207.818	-12.12
208.037	-30.55
208.255	2.22
208.474	57.51
208.693	88.23
208.911	2.22
209.13	69.8
209.349	28.84
209.567	-22.36
209.786	0.17
210.005	43.18
210.223	43.18
210.442	94.38
210.661	73.9
210.879	0.17
211.098	-18.26
211.316	43.18
211.535	71.85
211.753	24.75
211.972	28.84
212.191	-34.64
212.409	-18.26
212.628	77.99
212.846	57.51
213.065	26.79
213.283	102.57
213.502	18.6
213.72	63.66
213.938	57.51
214.157	-8.02
214.375	49.32
214.594	26.79
214.812	4.27
215.031	41.13
215.249	26.79
215.467	37.03
215.686	6.31
215.904	-18.26
216.122	84.14
216.341	39.08
216.559	14.51
216.778	47.27
216.996	47.27
217.214	77.99
217.432	32.94
217.651	-18.26
217.869	39.08
218.087	8.36
218.306	6.31
218.524	116.9
218.742	30.89
218.96	71.85
219.179	-20.31
219.397	6.31
219.615	73.9
219.833	14.51
220.051	65.71
220.27	26.79
220.488	22.7
220.706	37.03
220.924	18.6
221.142	22.7
221.36	47.27
221.578	53.42
221.796	69.8
222.015	16.55
222.233	28.84
222.451	104.62
222.669	14.51
222.887	73.9
223.105	10.41
223.323	41.13
223.541	20.65
223.759	45.23
223.977	-59.22
224.195	4.27
224.413	92.33
224.631	20.65
224.849	59.56
225.067	0.17
225.285	61.61
225.503	-22.36
225.721	0.17
225.939	12.46
226.157	53.42
226.375	110.76
226.592	61.61
226.81	41.13
227.028	55.47
227.246	100.52
227.464	-85.84
227.682	88.23
227.9	-20.31
228.117	51.37
228.335	43.18
228.553	102.57
228.771	-24.4
228.989	-5.97
229.206	14.51
229.424	41.13
229.642	-8.02
229.86	86.19
230.077	55.47
230.295	53.42
230.513	71.85
230.731	32.94
230.948	59.56
231.166	37.03
231.384	37.03
231.601	-55.12
231.819	55.47
232.037	94.38
232.254	-63.32
232.472	20.65
232.689	6.31
232.907	-1.88
233.125	59.56
233.342	39.08
233.56	12.46
233.777	45.23
233.995	-44.88
234.213	65.71
234.43	28.84
234.648	45.23
234.865	22.7
235.083	28.84
235.3	98.47
235.518	57.51
235.735	14.51
235.953	75.95
236.17	-8.02
236.388	10.41
236.605	71.85
236.822	57.51
237.04	57.51
237.257	16.55
237.475	22.7
237.692	34.99
237.909	10.41
238.127	12.46
238.344	30.89
238.562	131.24
238.779	-57.17
238.996	73.9
239.214	37.03
239.431	-22.36
239.648	-8.02
239.865	20.65
240.083	53.42
240.3	32.94
240.517	-26.45
240.735	59.56
240.952	71.85
241.169	20.65
241.386	43.18
241.603	47.27
241.821	4.27
242.038	53.42
242.255	-34.64
242.472	43.18
242.689	104.62
242.907	30.89
243.124	37.03
243.341	-22.36
243.558	-12.12
243.775	-30.55
243.992	22.7
244.209	-14.17
244.426	73.9
244.643	118.95
244.86	-14.17
245.078	86.19
245.295	-1.88
245.512	22.7
245.729	-3.93
245.946	65.71
246.163	-34.64
246.38	47.27
246.597	47.27
246.814	102.57
247.031	14.51
247.248	75.95
247.464	-8.02
247.681	55.47
247.898	-8.02
248.115	59.56
248.332	-3.93
248.549	88.23
248.766	118.95
248.983	47.27
249.2	106.67
249.417	106.67
249.633	30.89
249.85	71.85
250.067	-10.07
250.284	51.37
250.501	43.18
250.717	114.86
250.934	55.47
251.151	43.18
251.368	26.79
251.585	-32.6
251.801	-10.07
252.018	41.13
252.235	34.99
252.451	26.79
252.668	26.79
252.885	86.19
253.102	20.65
253.318	0.17
253.535	-20.31
253.752	18.6
253.968	-12.12
254.185	37.03
254.401	18.6
254.618	65.71
254.835	-73.56
255.051	96.43
255.268	14.51
255.484	22.7
255.701	-34.64
255.917	-22.36
256.134	10.41
256.351	53.42
256.567	55.47
256.784	8.36
257	8.36
257.217	10.41
257.433	24.75
257.65	26.79
257.866	2.22
258.082	-10.07
258.299	16.55
258.515	34.99
258.732	2.22
258.948	47.27
259.165	12.46
259.381	61.61
259.597	84.14
259.814	22.7
260.03	12.46
260.246	18.6
260.463	59.56
260.679	82.09
260.895	-20.31
261.112	14.51
261.328	-26.45
261.544	41.13
261.761	69.8
261.977	12.46
262.193	71.85
262.409	-20.31
262.626	51.37
262.842	37.03
263.058	16.55
263.274	69.8
263.49	-32.6
263.707	6.31
263.923	-3.93
264.139	2.22
264.355	22.7
264.571	57.51
264.787	53.42
265.004	43.18
265.22	-24.4
265.436	18.6
265.652	-3.93
265.868	20.65
266.084	55.47
266.3	14.51
266.516	10.41
266.732	-5.97
266.948	63.66
267.164	28.84
267.38	30.89
267.596	28.84
267.812	96.43
268.028	65.71
268.244	39.08
268.46	-14.17
268.676	-30.55
268.892	-20.31
269.108	43.18
269.324	47.27
269.54	14.51
269.756	55.47
269.972	28.84
270.188	67.75
270.403	22.7
270.619	14.51
270.835	-18.26
271.051	37.03
271.267	-59.22
271.483	69.8
271.698	-18.26
271.914	32.94
272.13	55.47
272.346	-26.45
272.562	-28.5
272.777	-18.26
272.993	34.99
273.209	-46.93
273.425	-3.93
273.64	-1.88
273.856	51.37
274.072	37.03
274.287	8.36
274.503	102.57
274.719	-24.4
274.934	22.7
275.15	102.57
275.366	39.08
275.581	10.41
275.797	39.08
276.012	47.27
276.228	10.41
276.444	-28.5
276.659	4.27
276.875	84.14
277.09	92.33
277.306	55.47
277.521	86.19
277.737	-22.36
277.952	26.79
278.168	-24.4
278.383	6.31
278.599	2.22
278.814	86.19
279.03	30.89
279.245	57.51
279.461	90.28
279.676	10.41
279.892	71.85
280.107	39.08
280.322	39.08
280.538	14.51
280.753	30.89
280.969	20.65
281.184	22.7
281.399	26.79
281.615	-3.93
281.83	55.47
282.045	28.84
282.26	4.27
282.476	18.6
282.691	0.17
282.906	43.18
283.122	34.99
283.337	16.55
283.552	18.6
283.767	-1.88
283.983	18.6
284.198	-12.12
284.413	-30.55
284.628	-14.17
284.843	96.43
285.058	51.37
285.274	28.84
285.489	-51.03
285.704	55.47
285.919	49.32
286.134	12.46
286.349	47.27
286.564	14.51
286.779	16.55
286.995	-12.12
287.21	34.99
287.425	28.84
287.64	-14.17
287.855	41.13
288.07	10.41
288.285	-46.93
288.5	67.75
288.715	65.71
288.93	14.51
289.145	34.99
289.36	0.17
289.575	41.13
289.79	-42.84
290.004	18.6
290.219	6.31
290.434	125.1
290.649	-20.31
290.864	-1.88
291.079	22.7
291.294	8.36
291.509	41.13
291.724	-12.12
291.938	67.75
292.153	88.23
292.368	34.99
292.583	118.95
292.798	88.23
293.012	6.31
293.227	57.51
293.442	39.08
293.657	-55.12
293.871	67.75
294.086	86.19
294.301	94.38
294.516	8.36
294.73	75.95
294.945	-20.31
295.16	80.04
295.374	39.08
295.589	75.95
295.804	106.67
296.018	22.7
296.233	-42.84
296.447	6.31
296.662	94.38
296.877	26.79
297.091	53.42
297.306	26.79
297.52	22.7
297.735	10.41
297.949	-16.21
298.164	47.27
298.378	18.6
298.593	28.84
298.807	-8.02
299.022	-3.93
299.236	30.89
299.451	20.65
299.665	-20.31
299.88	92.33
300.094	86.19
300.309	12.46
300.523	14.51
300.737	8.36
300.952	-22.36
301.166	51.37
301.381	2.22
301.595	39.08
301.809	-3.93
302.024	71.85
302.238	24.75
302.452	63.66
302.667	24.75
302.881	4.27
303.095	55.47
303.309	61.61
303.524	55.47
303.738	32.94
303.952	0.17
304.166	51.37
304.381	-30.55
304.595	43.18
304.809	65.71
305.023	-20.31
305.237	26.79
305.452	22.7
305.666	-20.31
305.88	-18.26
306.094	0.17
306.308	-5.97
306.522	45.23
306.736	51.37
306.95	30.89
307.164	34.99
307.379	2.22
307.593	37.03
307.807	-1.88
308.021	28.84
308.235	43.18
308.449	-44.88
308.663	12.46
308.877	63.66
309.091	-46.93
309.305	92.33
309.519	6.31
309.733	61.61
309.947	20.65
310.161	-1.88
310.374	22.7
310.588	108.71
310.802	-46.93
311.016	8.36
311.23	47.27
311.444	-16.21
311.658	39.08
311.872	104.62
312.085	30.89
312.299	75.95
312.513	43.18
312.727	12.46
312.941	-5.97
313.154	53.42
313.368	-26.45
313.582	-3.93
313.796	39.08
314.009	-3.93
314.223	71.85
314.437	37.03
314.651	28.84
314.864	34.99
315.078	43.18
315.292	55.47
315.505	-20.31
315.719	-3.93
315.933	-8.02
316.146	22.7
316.36	-1.88
316.573	8.36
316.787	67.75
317.001	100.52
317.214	-28.5
317.428	43.18
317.641	88.23
317.855	32.94
318.068	-51.03
318.282	10.41
318.495	121
318.709	32.94
318.922	0.17
319.136	108.71
319.349	22.7
319.563	10.41
319.776	28.84
319.99	39.08
320.203	51.37
320.417	-28.5
320.63	34.99
320.843	98.47
321.057	32.94
321.27	20.65
321.483	24.75
321.697	84.14
321.91	94.38
322.124	65.71
322.337	39.08
322.55	80.04
322.763	2.22
322.977	80.04
323.19	57.51
323.403	53.42
323.617	-12.12
323.83	-1.88
324.043	22.7
324.256	55.47
324.469	2.22
324.683	10.41
324.896	-1.88
325.109	6.31
325.322	-26.45
325.535	65.71
325.748	71.85
325.962	55.47
326.175	61.61
326.388	82.09
326.601	43.18
326.814	63.66
327.027	32.94
327.24	127.14
327.453	41.13
327.666	63.66
327.879	57.51
328.092	39.08
328.305	18.6
328.518	88.23
328.731	28.84
328.944	8.36
329.157	-18.26
329.37	34.99
329.583	80.04
329.796	61.61
330.009	45.23
330.222	-8.02
330.435	24.75
330.648	6.31
330.861	14.51
331.073	0.17
331.286	82.09
331.499	63.66
331.712	51.37
331.925	-28.5
332.138	77.99
332.35	55.47
332.563	20.65
332.776	-38.74
332.989	88.23
333.202	26.79
333.414	32.94
333.627	30.89
333.84	26.79
334.053	30.89
334.265	-3.93
334.478	22.7
334.691	30.89
334.903	34.99
335.116	-28.5
335.329	-28.5
335.541	43.18
335.754	32.94
335.966	-14.17
336.179	45.23
336.392	-14.17
336.604	14.51
336.817	39.08
337.029	45.23
337.242	39.08
337.454	63.66
337.667	-10.07
337.88	75.95
338.092	69.8
338.305	67.75
338.517	8.36
338.729	47.27
338.942	-8.02
339.154	37.03
339.367	28.84
339.579	49.32
339.792	4.27
340.004	92.33
340.217	75.95
340.429	4.27
340.641	2.22
340.854	-5.97
341.066	-61.27
341.278	77.99
341.491	-32.6
341.703	75.95
341.915	24.75
342.128	71.85
342.34	112.81
342.552	49.32
342.764	-26.45
342.977	16.55
343.189	108.71
343.401	-20.31
343.613	-63.32
343.826	37.03
344.038	-14.17
344.25	39.08
344.462	-20.31
344.674	-26.45
344.886	6.31
345.099	73.9
345.311	-3.93
345.523	47.27
345.735	18.6
345.947	80.04
346.159	84.14
346.371	8.36
346.583	-26.45
346.795	53.42
347.007	100.52
347.219	0.17
347.431	18.6
347.643	14.51
347.855	-30.55
348.067	71.85
348.279	28.84
348.491	8.36
348.703	84.14
348.915	16.55
349.127	4.27
349.339	-1.88
349.551	-3.93
349.763	2.22
349.975	41.13
350.187	92.33
350.399	65.71
350.61	61.61
350.822	26.79
351.034	69.8
351.246	39.08
351.458	47.27
351.669	55.47
351.881	37.03
352.093	-20.31
352.305	22.7
352.517	20.65
352.728	47.27
352.94	57.51
353.152	92.33
353.363	22.7
353.575	18.6
353.787	127.14
353.999	57.51
354.21	16.55
354.422	-1.88
354.633	28.84
354.845	-40.79
355.057	34.99
355.268	43.18
355.48	6.31
355.692	-24.4
355.903	75.95
356.115	84.14
356.326	61.61
356.538	30.89
356.749	57.51
356.961	75.95
357.172	43.18
357.384	55.47
357.595	30.89
357.807	8.36
358.018	20.65
358.23	22.7
358.441	129.19
358.653	71.85
358.864	28.84
359.075	43.18
359.287	45.23
359.498	-75.6
359.709	41.13
359.921	12.46
360.132	-8.02
360.344	45.23
360.555	-26.45
360.766	30.89
360.977	-18.26
361.189	67.75
361.4	39.08
361.611	55.47
361.823	14.51
362.034	18.6
362.245	-5.97
362.456	47.27
362.667	45.23
362.879	26.79
363.09	-20.31
363.301	14.51
363.512	28.84
363.723	41.13
363.935	32.94
364.146	53.42
364.357	-1.88
364.568	-1.88
364.779	53.42
364.99	28.84
365.201	2.22
365.412	61.61
365.623	-28.5
365.834	55.47
366.045	-14.17
366.256	149.67
366.467	49.32
366.678	41.13
366.889	16.55
367.1	37.03
367.311	41.13
367.522	20.65
367.733	-14.17
367.944	37.03
368.155	39.08
368.366	49.32
368.577	65.71
368.788	-1.88
368.999	32.94
369.209	57.51
369.42	6.31
369.631	92.33
369.842	82.09
370.053	47.27
370.264	-12.12
370.474	71.85
370.685	8.36
370.896	96.43
371.107	30.89
371.317	32.94
371.528	71.85
371.739	45.23
371.95	30.89
372.16	20.65
372.371	-8.02
372.582	8.36
372.792	37.03
373.003	80.04
373.214	86.19
373.424	41.13
373.635	55.47
373.846	98.47
374.056	71.85
374.267	80.04
374.477	114.86
374.688	45.23
374.898	118.95
375.109	67.75
375.319	-26.45
375.53	22.7
375.74	67.75
375.951	30.89
376.161	47.27
376.372	67.75
376.582	55.47
376.793	14.51
377.003	-3.93
377.214	47.27
377.424	22.7
377.635	104.62
377.845	34.99
378.055	24.75
378.266	92.33
378.476	77.99
378.686	-46.93
378.897	63.66
379.107	53.42
379.317	47.27
379.528	47.27
379.738	32.94
379.948	32.94
380.158	41.13
380.369	37.03
380.579	114.86
380.789	59.56
380.999	116.9
381.21	71.85
381.42	141.48
381.63	6.31
381.84	57.51
382.05	28.84
382.261	65.71
382.471	39.08
382.681	61.61
382.891	141.48
383.101	30.89
383.311	45.23
383.521	88.23
383.731	47.27
383.941	55.47
384.151	92.33
384.361	63.66
384.571	69.8
384.781	39.08
384.991	94.38
385.201	18.6
385.411	10.41
385.621	14.51
385.831	-40.79
386.041	22.7
386.251	-24.4
386.461	141.48
386.671	30.89
386.881	51.37
387.091	45.23
387.301	106.67
387.511	4.27
387.72	59.56
387.93	30.89
388.14	14.51
388.35	108.71
388.56	80.04
388.769	71.85
388.979	94.38
389.189	51.37
389.399	24.75
389.609	88.23
389.818	-8.02
390.028	63.66
390.238	22.7
390.447	-16.21
390.657	127.14
390.867	16.55
391.076	22.7
391.286	145.58
391.496	104.62
391.705	12.46
391.915	57.51
392.125	30.89
392.334	59.56
392.544	73.9
392.753	51.37
392.963	34.99
393.172	43.18
393.382	41.13
393.591	92.33
393.801	45.23
394.01	84.14
394.22	61.61
394.429	63.66
394.639	49.32
394.848	45.23
395.058	22.7
395.267	55.47
395.477	-42.84
395.686	63.66
395.895	45.23
396.105	118.95
396.314	153.77
396.524	51.37
396.733	57.51
396.942	30.89
397.152	80.04
397.361	98.47
397.57	75.95
397.78	53.42
397.989	43.18
398.198	96.43
398.407	114.86
398.617	125.1
398.826	67.75
399.035	100.52
399.244	153.77
399.453	82.09
399.663	176.3
399.872	80.04
400.081	0.17
400.29	155.82
400.499	118.95
400.708	104.62
400.917	61.61
401.127	145.58
401.336	22.7
401.545	104.62
401.754	92.33
401.963	77.99
402.172	88.23
402.381	123.05
402.59	90.28
402.799	32.94
403.008	153.77
403.217	102.57
403.426	121
403.635	88.23
403.844	100.52
404.053	100.52
404.262	104.62
404.471	215.21
404.68	96.43
404.888	104.62
405.097	143.53
405.306	108.71
405.515	125.1
405.724	100.52
405.933	170.15
406.142	108.71
406.35	172.2
406.559	176.3
406.768	118.95
406.977	114.86
407.185	149.67
407.394	176.3
407.603	82.09
407.812	215.21
408.02	137.38
408.229	215.21
408.438	168.1
408.646	149.67
408.855	223.4
409.064	250.02
409.272	231.59
409.481	260.26
409.69	157.86
409.898	151.72
410.107	215.21
410.315	241.83
410.524	243.88
410.733	307.37
410.941	215.21
411.15	243.88
411.358	290.98
411.567	264.36
411.775	276.65
411.984	270.5
412.192	303.27
412.401	307.37
412.609	309.41
412.818	446.63
413.026	315.56
413.234	391.33
413.443	346.28
413.651	444.58
413.86	413.86
414.068	499.88
414.276	469.16
414.485	364.71
414.693	520.35
414.901	503.97
415.11	467.11
415.318	542.88
415.526	573.6
415.734	589.99
415.943	526.5
416.151	653.47
416.359	639.14
416.567	639.14
416.776	626.85
416.984	739.49
417.192	708.77
417.4	653.47
417.608	698.53
417.817	747.68
418.025	831.65
418.233	825.5
418.441	809.12
418.649	833.69
418.857	913.56
419.065	913.56
419.273	909.47
419.481	1015.96
419.689	1124.51
419.897	1085.59
420.105	1063.07
420.313	1179.8
420.521	1325.21
420.729	1169.56
420.937	1224.86
421.145	1357.97
421.353	1347.73
421.561	1458.32
421.769	1437.84
421.977	1530
422.185	1501.33
422.393	1581.2
422.601	1714.32
422.809	1607.83
423.017	1683.6
423.224	1767.57
423.432	1742.99
423.64	1886.35
423.848	1906.83
424.056	2046.09
424.263	2060.43
424.471	2068.62
424.679	2136.2
424.887	2297.99
425.094	2228.36
425.302	2273.42
425.51	2472.07
425.718	2455.69
425.925	2519.17
426.133	2668.67
426.341	2826.37
426.548	2850.94
426.756	2871.42
426.964	2982.01
427.171	3045.5
427.379	3102.84
427.586	3231.87
427.794	3356.79
428.001	3479.67
428.209	3635.32
428.417	3506.29
428.624	3874.93
428.832	3743.86
429.039	3776.63
429.247	3719.28
429.454	4044.91
429.662	4532.33
429.869	4188.27
430.076	4415.59
430.284	4270.19
430.491	4505.7
430.699	4821.09
430.906	4683.88
431.114	4804.71
431.321	4972.64
431.528	5140.57
431.736	5363.8
431.943	5589.08
432.15	5570.65
432.358	5511.25
432.565	5926.99
432.772	6002.77
432.979	6307.91
433.187	6275.15
433.394	6326.35
433.601	6819.91
433.808	6809.67
434.016	6539.33
434.223	7010.37
434.43	7438.39
434.637	7321.66
434.844	7737.4
435.052	7817.27
435.259	7950.39
435.466	7911.47
435.673	7727.16
435.88	8349.74
436.087	8689.7
436.294	8806.44
436.501	8532.01
436.708	8697.89
436.915	8945.7
437.122	9418.78
437.329	9555.99
437.537	9676.82
437.743	9957.39
437.95	9697.3
438.157	10266.64
438.364	10725.38
438.571	10700.81
438.778	10622.98
438.985	11802.61
439.192	11472.89
439.399	11550.71
439.606	11388.92
439.813	12001.27
440.02	12673
440.227	12529.64
440.433	12294.13
440.64	12621.8
440.847	12732.39
441.054	13174.75
441.261	13879.25
441.467	13881.3
441.674	14022.61
441.881	14563.28
442.088	14362.58
442.294	14186.45
442.501	14620.62
442.708	15085.51
442.914	15687.61
443.121	16236.47
443.328	15900.6
443.534	16924.58
443.741	16347.06
443.948	16121.78
444.154	17504.16
444.361	17373.09
444.568	17432.48
444.774	17313.7
444.981	17420.19
445.187	18155.41
445.394	18995.08
445.6	18761.61
445.807	20309.88
446.013	19695.49
446.22	19955.58
446.426	20785.01
446.633	20897.64
446.839	21829.47
447.046	20649.84
447.252	21751.65
447.459	21598.05
447.665	21665.63
447.871	22486.87
448.078	23568.2
448.284	22650.71
448.491	23392.07
448.697	24313.66
448.903	24618.8
449.11	24532.79
449.316	24014.65
449.522	24686.39
449.728	25278.25
449.935	25481
450.141	25593.64
450.347	26148.64
450.553	25331.5
450.76	25700.13
450.966	26386.2
451.172	26058.53
451.378	26619.67
451.584	26183.45
451.791	26963.73
451.997	26767.12
452.203	27320.07
452.409	27152.14
452.615	27184.91
452.821	25937.69
453.027	25763.62
453.233	27285.26
453.44	26132.25
453.646	26324.76
453.852	26470.17
454.058	27189
454.264	26074.91
454.47	26550.04
454.676	25818.91
454.882	26855.18
455.088	24467.25
455.294	24846.13
455.5	25044.78
455.705	25390.89
455.911	24561.46
456.117	24223.55
456.323	23830.34
456.529	22277.97
456.735	23359.3
456.941	22863.69
457.147	22339.41
457.352	21591.91
457.558	21524.32
457.764	21606.24
457.97	21127.02
458.176	20844.4
458.381	20559.73
458.587	19574.66
458.793	19840.89
458.999	18575.25
459.204	19875.71
459.41	19404.67
459.616	18050.97
459.821	18118.55
460.027	17786.78
460.233	17680.28
460.438	16809.9
460.644	17321.89
460.85	16271.28
461.055	15992.76
461.261	15900.6
461.466	14876.62
461.672	14129.11
461.878	15042.5
462.083	14344.14
462.289	13961.17
462.494	13785.05
462.7	13430.75
462.905	13015.01
463.111	13193.19
463.316	13297.63
463.522	13129.7
463.727	13066.21
463.932	13062.12
464.138	12908.52
464.343	13172.71
464.549	12607.47
464.754	13047.78
464.959	12933.09
465.165	12881.89
465.37	12292.08
465.575	11870.2
465.781	12648.43
465.986	12548.08
466.191	11988.98
466.397	11939.83
466.602	11317.25
466.807	11802.61
467.012	11657.21
467.218	11507.71
467.423	11331.58
467.628	11397.12
467.833	11849.72
468.038	11468.8
468.244	11165.7
468.449	11667.45
