Data from USB4F104151__16__11-36-29-367.txt Node

Date: Fri Mar 14 11:36:29 EDT 2025
User: louis
Spectrometer: USB4F10415
Trigger mode: 4
Integration Time (sec): 2.000000E-2
Scans to average: 1
Electric dark correction enabled: true
Nonlinearity correction enabled: false
Boxcar width: 0
XAxis mode: Wavelengths
Number of Pixels in Spectrum: 3648
>>>>>Begin Spectral Data<<<<<
178.204	-67.92
178.424	-67.92
178.644	-67.92
178.864	-141.65
179.084	-37.2
179.304	-41.3
179.524	-20.82
179.744	-20.82
179.964	-24.92
180.184	44.71
180.404	-14.68
180.624	28.33
180.844	-6.49
181.064	-8.53
181.283	9.9
181.503	48.81
181.723	5.8
181.943	-12.63
182.163	63.15
182.383	13.99
182.602	30.38
182.822	20.14
183.042	32.43
183.262	22.19
183.482	18.09
183.701	22.19
183.921	22.19
184.141	34.47
184.361	57
184.58	40.62
184.8	48.81
185.02	54.95
185.239	57
185.459	32.43
185.679	79.53
185.898	-0.34
186.118	34.47
186.338	32.43
186.557	28.33
186.777	112.3
186.997	5.8
187.216	30.38
187.436	28.33
187.655	85.67
187.875	11.95
188.095	7.85
188.314	57
188.534	61.1
188.753	-20.82
188.973	-20.82
189.192	24.23
189.412	44.71
189.631	9.9
189.851	-2.39
190.07	16.04
190.29	-4.44
190.509	24.23
190.729	20.14
190.948	44.71
191.168	143.02
191.387	61.1
191.607	5.8
191.826	24.23
192.045	-8.53
192.265	7.85
192.484	13.99
192.704	-4.44
192.923	34.47
193.142	28.33
193.362	36.52
193.581	-4.44
193.8	63.15
194.02	69.29
194.239	-37.2
194.458	46.76
194.678	-22.87
194.897	36.52
195.116	40.62
195.335	1.71
195.555	87.72
195.774	22.19
195.993	57
196.212	32.43
196.432	-22.87
196.651	7.85
196.87	-108.88
197.089	81.58
197.308	73.39
197.528	-0.34
197.747	-35.16
197.966	59.05
198.185	93.87
198.404	-10.58
198.623	63.15
198.842	30.38
199.062	34.47
199.281	28.33
199.5	-14.68
199.719	-29.01
199.938	-2.39
200.157	28.33
200.376	-26.96
200.595	9.9
200.814	11.95
201.033	-14.68
201.252	61.1
201.471	36.52
201.69	-14.68
201.909	42.67
202.128	63.15
202.347	-18.77
202.566	42.67
202.785	11.95
203.004	73.39
203.223	52.91
203.442	5.8
203.661	7.85
203.879	22.19
204.098	79.53
204.317	16.04
204.536	-12.63
204.755	16.04
204.974	32.43
205.193	-24.92
205.411	79.53
205.63	30.38
205.849	-47.44
206.068	-29.01
206.287	38.57
206.505	54.95
206.724	38.57
206.943	5.8
207.162	-8.53
207.381	36.52
207.599	-0.34
207.818	24.23
208.037	42.67
208.255	46.76
208.474	32.43
208.693	-0.34
208.911	-12.63
209.13	83.63
209.349	18.09
209.567	61.1
209.786	48.81
210.005	63.15
210.223	102.06
210.442	28.33
210.661	69.29
210.879	52.91
211.098	28.33
211.316	54.95
211.535	48.81
211.753	61.1
211.972	81.58
212.191	44.71
212.409	-8.53
212.628	11.95
212.846	-16.73
213.065	13.99
213.283	20.14
213.502	-2.39
213.72	40.62
213.938	22.19
214.157	61.1
214.375	44.71
214.594	-39.25
214.812	-26.96
215.031	-8.53
215.249	-47.44
215.467	63.15
215.686	106.15
215.904	122.54
216.122	30.38
216.341	54.95
216.559	57
216.778	48.81
216.996	24.23
217.214	34.47
217.432	22.19
217.651	-8.53
217.869	57
218.087	11.95
218.306	-31.06
218.524	22.19
218.742	3.75
218.96	93.87
219.179	81.58
219.397	54.95
219.615	71.34
219.833	61.1
220.051	63.15
220.27	7.85
220.488	36.52
220.706	3.75
220.924	11.95
221.142	42.67
221.36	32.43
221.578	5.8
221.796	32.43
222.015	61.1
222.233	-18.77
222.451	91.82
222.669	48.81
222.887	32.43
223.105	-63.83
223.323	28.33
223.541	-55.64
223.759	11.95
223.977	63.15
224.195	79.53
224.413	3.75
224.631	-35.16
224.849	5.8
225.067	38.57
225.285	7.85
225.503	7.85
225.721	-35.16
225.939	-33.11
226.157	77.48
226.375	40.62
226.592	-94.55
226.81	61.1
227.028	69.29
227.246	67.24
227.464	40.62
227.682	73.39
227.9	-10.58
228.117	9.9
228.335	67.24
228.553	30.38
228.771	7.85
228.989	61.1
229.206	7.85
229.424	44.71
229.642	57
229.86	-26.96
230.077	32.43
230.295	140.97
230.513	85.67
230.731	-26.96
230.948	13.99
231.166	54.95
231.384	-0.34
231.601	20.14
231.819	52.91
232.037	32.43
232.254	7.85
232.472	77.48
232.689	97.96
232.907	34.47
233.125	-22.87
233.342	52.91
233.56	16.04
233.777	11.95
233.995	-6.49
234.213	95.91
234.43	40.62
234.648	46.76
234.865	57
235.083	-26.96
235.3	32.43
235.518	50.86
235.735	32.43
235.953	13.99
236.17	-51.54
236.388	18.09
236.605	7.85
236.822	1.71
237.04	75.43
237.257	-8.53
237.475	-4.44
237.692	40.62
237.909	-26.96
238.127	30.38
238.344	61.1
238.562	16.04
238.779	-33.11
238.996	87.72
239.214	7.85
239.431	30.38
239.648	-6.49
239.865	67.24
240.083	32.43
240.3	5.8
240.517	26.28
240.735	40.62
240.952	54.95
241.169	11.95
241.386	63.15
241.603	83.63
241.821	-37.2
242.038	-2.39
242.255	48.81
242.472	63.15
242.689	46.76
242.907	-39.25
243.124	-10.58
243.341	36.52
243.558	30.38
243.775	-29.01
243.992	22.19
244.209	-2.39
244.426	83.63
244.643	69.29
244.86	42.67
245.078	59.05
245.295	91.82
245.512	69.29
245.729	83.63
245.946	3.75
246.163	5.8
246.38	24.23
246.597	9.9
246.814	-20.82
247.031	-24.92
247.248	65.19
247.464	30.38
247.681	13.99
247.898	30.38
248.115	69.29
248.332	38.57
248.549	95.91
248.766	95.91
248.983	-0.34
249.2	40.62
249.417	54.95
249.633	-35.16
249.85	65.19
250.067	50.86
250.284	-0.34
250.501	46.76
250.717	11.95
250.934	-35.16
251.151	-26.96
251.368	36.52
251.585	48.81
251.801	57
252.018	13.99
252.235	71.34
252.451	16.04
252.668	-26.96
252.885	83.63
253.102	-6.49
253.318	16.04
253.535	-4.44
253.752	-18.77
253.968	-4.44
254.185	20.14
254.401	18.09
254.618	-4.44
254.835	-8.53
255.051	97.96
255.268	42.67
255.484	-16.73
255.701	89.77
255.917	30.38
256.134	5.8
256.351	38.57
256.567	-10.58
256.784	63.15
257	-55.64
257.217	-2.39
257.433	57
257.65	42.67
257.866	-2.39
258.082	46.76
258.299	36.52
258.515	81.58
258.732	57
258.948	9.9
259.165	46.76
259.381	30.38
259.597	52.91
259.814	40.62
260.03	-26.96
260.246	71.34
260.463	28.33
260.679	50.86
260.895	34.47
261.112	32.43
261.328	-8.53
261.544	40.62
261.761	36.52
261.977	-16.73
262.193	16.04
262.409	-10.58
262.626	81.58
262.842	34.47
263.058	-16.73
263.274	7.85
263.49	71.34
263.707	95.91
263.923	11.95
264.139	-29.01
264.355	32.43
264.571	38.57
264.787	79.53
265.004	7.85
265.22	63.15
265.436	59.05
265.652	65.19
265.868	20.14
266.084	-20.82
266.3	77.48
266.516	104.11
266.732	59.05
266.948	-12.63
267.164	-26.96
267.38	34.47
267.596	32.43
267.812	77.48
268.028	-8.53
268.244	-14.68
268.46	-0.34
268.676	28.33
268.892	32.43
269.108	44.71
269.324	75.43
269.54	59.05
269.756	71.34
269.972	30.38
270.188	40.62
270.403	-33.11
270.619	54.95
270.835	87.72
271.051	-47.44
271.267	30.38
271.483	48.81
271.698	67.24
271.914	87.72
272.13	32.43
272.346	102.06
272.562	32.43
272.777	77.48
272.993	-16.73
273.209	34.47
273.425	63.15
273.64	9.9
273.856	81.58
274.072	59.05
274.287	-35.16
274.503	44.71
274.719	-4.44
274.934	-10.58
275.15	-57.68
275.366	16.04
275.581	-12.63
275.797	-0.34
276.012	11.95
276.228	-51.54
276.444	-20.82
276.659	7.85
276.875	57
277.09	-33.11
277.306	-61.78
277.521	48.81
277.737	57
277.952	95.91
278.168	-8.53
278.383	3.75
278.599	24.23
278.814	22.19
279.03	71.34
279.245	-8.53
279.461	-18.77
279.676	153.26
279.892	63.15
280.107	-16.73
280.322	7.85
280.538	65.19
280.753	32.43
280.969	-4.44
281.184	65.19
281.399	61.1
281.615	54.95
281.83	13.99
282.045	-49.49
282.26	-24.92
282.476	22.19
282.691	89.77
282.906	-0.34
283.122	69.29
283.337	54.95
283.552	-8.53
283.767	-0.34
283.983	38.57
284.198	-45.4
284.413	-16.73
284.628	5.8
284.843	102.06
285.058	-0.34
285.274	61.1
285.489	40.62
285.704	3.75
285.919	-16.73
286.134	-6.49
286.349	-26.96
286.564	16.04
286.779	65.19
286.995	46.76
287.21	-6.49
287.425	20.14
287.64	95.91
287.855	38.57
288.07	30.38
288.285	89.77
288.5	-20.82
288.715	38.57
288.93	22.19
289.145	-16.73
289.36	32.43
289.575	128.68
289.79	42.67
290.004	48.81
290.219	42.67
290.434	7.85
290.649	59.05
290.864	-0.34
291.079	63.15
291.294	-18.77
291.509	32.43
291.724	-8.53
291.938	26.28
292.153	22.19
292.368	85.67
292.583	-12.63
292.798	3.75
293.012	36.52
293.227	-4.44
293.442	-0.34
293.657	-37.2
293.871	-10.58
294.086	36.52
294.301	83.63
294.516	77.48
294.73	-14.68
294.945	28.33
295.16	26.28
295.374	126.63
295.589	20.14
295.804	16.04
296.018	42.67
296.233	-0.34
296.447	48.81
296.662	22.19
296.877	52.91
297.091	46.76
297.306	-10.58
297.52	5.8
297.735	61.1
297.949	36.52
298.164	65.19
298.378	81.58
298.593	-16.73
298.807	36.52
299.022	67.24
299.236	79.53
299.451	46.76
299.665	30.38
299.88	79.53
300.094	28.33
300.309	46.76
300.523	-18.77
300.737	26.28
300.952	28.33
301.166	-0.34
301.381	57
301.595	126.63
301.809	5.8
302.024	-67.92
302.238	54.95
302.452	7.85
302.667	-18.77
302.881	110.25
303.095	24.23
303.309	73.39
303.524	-2.39
303.738	36.52
303.952	54.95
304.166	134.82
304.381	11.95
304.595	50.86
304.809	9.9
305.023	-4.44
305.237	42.67
305.452	32.43
305.666	-8.53
305.88	-10.58
306.094	57
306.308	65.19
306.522	40.62
306.736	100.01
306.95	-18.77
307.164	26.28
307.379	54.95
307.593	44.71
307.807	85.67
308.021	77.48
308.235	26.28
308.449	-12.63
308.663	-0.34
308.877	130.73
309.091	5.8
309.305	93.87
309.519	-0.34
309.733	28.33
309.947	38.57
310.161	57
310.374	13.99
310.588	48.81
310.802	-29.01
311.016	63.15
311.23	22.19
311.444	102.06
311.658	73.39
311.872	16.04
312.085	16.04
312.299	65.19
312.513	40.62
312.727	71.34
312.941	-4.44
313.154	46.76
313.368	-8.53
313.582	-2.39
313.796	54.95
314.009	61.1
314.223	40.62
314.437	16.04
314.651	52.91
314.864	44.71
315.078	40.62
315.292	16.04
315.505	42.67
315.719	83.63
315.933	-31.06
316.146	11.95
316.36	30.38
316.573	28.33
316.787	11.95
317.001	34.47
317.214	-10.58
317.428	42.67
317.641	42.67
317.855	7.85
318.068	57
318.282	38.57
318.495	-2.39
318.709	89.77
318.922	40.62
319.136	114.34
319.349	81.58
319.563	44.71
319.776	-10.58
319.99	-33.11
320.203	91.82
320.417	1.71
320.63	22.19
320.843	50.86
321.057	75.43
321.27	110.25
321.483	57
321.697	-6.49
321.91	-35.16
322.124	42.67
322.337	22.19
322.55	67.24
322.763	-8.53
322.977	24.23
323.19	28.33
323.403	-8.53
323.617	97.96
323.83	48.81
324.043	7.85
324.256	32.43
324.469	42.67
324.683	48.81
324.896	-10.58
325.109	32.43
325.322	-6.49
325.535	69.29
325.748	-24.92
325.962	34.47
326.175	50.86
326.388	-0.34
326.601	44.71
326.814	-2.39
327.027	38.57
327.24	54.95
327.453	69.29
327.666	69.29
327.879	-6.49
328.092	85.67
328.305	-76.12
328.518	16.04
328.731	-16.73
328.944	-0.34
329.157	59.05
329.37	24.23
329.583	75.43
329.796	65.19
330.009	36.52
330.222	28.33
330.435	65.19
330.648	32.43
330.861	11.95
331.073	42.67
331.286	52.91
331.499	38.57
331.712	97.96
331.925	69.29
332.138	-6.49
332.35	44.71
332.563	-10.58
332.776	48.81
332.989	-18.77
333.202	42.67
333.414	11.95
333.627	24.23
333.84	-35.16
334.053	-18.77
334.265	36.52
334.478	-26.96
334.691	54.95
334.903	65.19
335.116	52.91
335.329	75.43
335.541	11.95
335.754	3.75
335.966	40.62
336.179	-10.58
336.392	22.19
336.604	79.53
336.817	-20.82
337.029	-24.92
337.242	42.67
337.454	65.19
337.667	-20.82
337.88	48.81
338.092	28.33
338.305	-31.06
338.517	54.95
338.729	44.71
338.942	32.43
339.154	91.82
339.367	-4.44
339.579	44.71
339.792	-12.63
340.004	50.86
340.217	48.81
340.429	40.62
340.641	-24.92
340.854	52.91
341.066	46.76
341.278	16.04
341.491	3.75
341.703	42.67
341.915	-4.44
342.128	24.23
342.34	40.62
342.552	-16.73
342.764	44.71
342.977	97.96
343.189	81.58
343.401	34.47
343.613	77.48
343.826	13.99
344.038	-16.73
344.25	63.15
344.462	44.71
344.674	63.15
344.886	-24.92
345.099	5.8
345.311	61.1
345.523	61.1
345.735	36.52
345.947	40.62
346.159	-12.63
346.371	48.81
346.583	79.53
346.795	7.85
347.007	40.62
347.219	50.86
347.431	-6.49
347.643	79.53
347.855	-37.2
348.067	71.34
348.279	57
348.491	97.96
348.703	42.67
348.915	34.47
349.127	13.99
349.339	91.82
349.551	30.38
349.763	20.14
349.975	40.62
350.187	97.96
350.399	22.19
350.61	71.34
350.822	1.71
351.034	9.9
351.246	30.38
351.458	32.43
351.669	-59.73
351.881	67.24
352.093	71.34
352.305	104.11
352.517	18.09
352.728	91.82
352.94	-33.11
353.152	28.33
353.363	20.14
353.575	59.05
353.787	77.48
353.999	40.62
354.21	118.44
354.422	52.91
354.633	73.39
354.845	32.43
355.057	-6.49
355.268	40.62
355.48	-4.44
355.692	69.29
355.903	83.63
356.115	42.67
356.326	36.52
356.538	83.63
356.749	24.23
356.961	59.05
357.172	5.8
357.384	16.04
357.595	20.14
357.807	-16.73
358.018	9.9
358.23	-12.63
358.441	132.78
358.653	30.38
358.864	32.43
359.075	79.53
359.287	54.95
359.498	59.05
359.709	32.43
359.921	5.8
360.132	20.14
360.344	95.91
360.555	85.67
360.766	65.19
360.977	75.43
361.189	11.95
361.4	91.82
361.611	-14.68
361.823	16.04
362.034	36.52
362.245	69.29
362.456	57
362.667	48.81
362.879	57
363.09	79.53
363.301	85.67
363.512	-39.25
363.723	44.71
363.935	20.14
364.146	24.23
364.357	61.1
364.568	57
364.779	-49.49
364.99	7.85
365.201	63.15
365.412	118.44
365.623	-4.44
365.834	112.3
366.045	50.86
366.256	73.39
366.467	46.76
366.678	16.04
366.889	28.33
367.1	22.19
367.311	30.38
367.522	22.19
367.733	77.48
367.944	89.77
368.155	83.63
368.366	61.1
368.577	63.15
368.788	9.9
368.999	32.43
369.209	46.76
369.42	100.01
369.631	120.49
369.842	147.11
370.053	52.91
370.264	71.34
370.474	7.85
370.685	-6.49
370.896	-12.63
371.107	124.58
371.317	42.67
371.528	22.19
371.739	77.48
371.95	42.67
372.16	63.15
372.371	-2.39
372.582	59.05
372.792	13.99
373.003	85.67
373.214	28.33
373.424	69.29
373.635	20.14
373.846	104.11
374.056	9.9
374.267	50.86
374.477	32.43
374.688	3.75
374.898	-0.34
375.109	24.23
375.319	73.39
375.53	110.25
375.74	16.04
375.951	85.67
376.161	22.19
376.372	48.81
376.582	3.75
376.793	48.81
377.003	30.38
377.214	81.58
377.424	42.67
377.635	30.38
377.845	-4.44
378.055	63.15
378.266	24.23
378.476	50.86
378.686	40.62
378.897	61.1
379.107	3.75
379.317	124.58
379.528	46.76
379.738	16.04
379.948	20.14
380.158	75.43
380.369	93.87
380.579	93.87
380.789	67.24
380.999	40.62
381.21	-16.73
381.42	67.24
381.63	28.33
381.84	48.81
382.05	95.91
382.261	9.9
382.471	71.34
382.681	89.77
382.891	128.68
383.101	-41.3
383.311	65.19
383.521	95.91
383.731	87.72
383.941	132.78
384.151	7.85
384.361	69.29
384.571	28.33
384.781	79.53
384.991	57
385.201	145.06
385.411	20.14
385.621	81.58
385.831	69.29
386.041	71.34
386.251	54.95
386.461	54.95
386.671	18.09
386.881	52.91
387.091	3.75
387.301	73.39
387.511	118.44
387.72	85.67
387.93	-6.49
388.14	102.06
388.35	63.15
388.56	122.54
388.769	89.77
388.979	61.1
389.189	79.53
389.399	61.1
389.609	52.91
389.818	28.33
390.028	44.71
390.238	91.82
390.447	77.48
390.657	59.05
390.867	22.19
391.076	122.54
391.286	-2.39
391.496	108.2
391.705	3.75
391.915	36.52
392.125	85.67
392.334	5.8
392.544	30.38
392.753	81.58
392.963	95.91
393.172	89.77
393.382	104.11
393.591	69.29
393.801	48.81
394.01	100.01
394.22	65.19
394.429	61.1
394.639	57
394.848	110.25
395.058	81.58
395.267	16.04
395.477	95.91
395.686	124.58
395.895	89.77
396.105	65.19
396.314	79.53
396.524	36.52
396.733	71.34
396.942	100.01
397.152	77.48
397.361	132.78
397.57	134.82
397.78	79.53
397.989	110.25
398.198	163.5
398.407	73.39
398.617	138.92
398.826	89.77
399.035	124.58
399.244	145.06
399.453	114.34
399.663	134.82
399.872	81.58
400.081	71.34
400.29	130.73
400.499	134.82
400.708	169.64
400.917	102.06
401.127	57
401.336	75.43
401.545	177.83
401.754	163.5
401.963	61.1
402.172	118.44
402.381	38.57
402.59	89.77
402.799	155.3
403.008	104.11
403.217	122.54
403.426	85.67
403.635	110.25
403.844	102.06
404.053	151.21
404.262	165.54
404.471	112.3
404.68	118.44
404.888	147.11
405.097	81.58
405.306	155.3
405.515	138.92
405.724	161.45
405.933	241.32
406.142	200.36
406.35	177.83
406.559	212.65
406.768	243.37
406.977	198.31
407.185	151.21
407.394	265.89
407.603	177.83
407.812	153.26
408.02	253.61
408.229	196.26
408.438	259.75
408.646	239.27
408.855	226.98
409.064	288.42
409.272	259.75
409.481	255.65
409.69	243.37
409.898	220.84
410.107	349.86
410.315	315.05
410.524	358.05
410.733	380.58
410.941	292.52
411.15	392.87
411.358	351.91
411.567	362.15
411.775	433.83
411.984	439.97
412.192	421.54
412.401	482.98
412.609	487.08
412.818	579.23
413.026	511.65
413.234	480.93
413.443	427.68
413.651	568.99
413.86	593.57
414.068	530.08
414.276	681.63
414.485	675.49
414.693	638.62
414.901	724.64
415.11	708.26
415.318	698.02
415.526	702.11
415.734	749.22
415.943	728.74
416.151	831.13
416.359	738.98
416.567	806.56
416.776	851.61
416.984	966.3
417.192	849.57
417.4	935.58
417.608	982.68
417.817	1072.79
418.025	1029.79
418.233	1093.27
418.441	1109.66
418.649	1144.47
418.857	1242.78
419.065	1334.93
419.273	1283.74
419.481	1408.66
419.689	1367.7
419.897	1488.53
420.105	1521.3
420.313	1568.4
420.521	1511.06
420.729	1519.25
420.937	1646.23
421.145	1658.51
421.353	1793.68
421.561	1826.45
421.769	1941.13
421.977	1980.04
422.185	1982.09
422.393	2068.11
422.601	2199.18
422.809	2252.42
423.017	2291.34
423.224	2363.01
423.432	2471.56
423.64	2463.37
423.848	2530.95
424.056	2541.19
424.263	2743.94
424.471	2860.67
424.679	2862.72
424.887	2907.77
425.094	3159.67
425.302	3108.48
425.51	3184.25
425.718	3280.5
425.925	3387
426.133	3505.78
426.341	3747.44
426.548	3720.82
426.756	3858.03
426.964	3896.94
427.171	4124.27
427.379	4273.77
427.586	4290.15
427.794	4472.42
428.001	4628.07
428.209	4832.86
428.417	4787.81
428.624	5111.39
428.832	5058.14
429.039	5000.8
429.247	5121.63
429.454	5494.36
429.662	6016.59
429.869	5334.62
430.076	6006.35
430.284	5848.66
430.491	6010.45
430.699	6420.04
430.906	6450.76
431.114	6284.87
431.321	6579.78
431.528	6934.08
431.736	7261.76
431.943	7493.18
432.15	7433.79
432.358	7540.28
432.565	7697.97
432.772	7919.15
432.979	8158.77
433.187	8463.91
433.394	8631.85
433.601	9059.87
433.808	8812.07
434.016	9002.53
434.223	9180.7
434.43	10003.99
434.637	9518.62
434.844	10257.93
435.052	10575.37
435.259	10298.89
435.466	10532.36
435.673	10264.08
435.88	11056.64
436.087	11675.13
436.294	11517.43
436.501	11380.22
436.708	11548.15
436.915	11961.84
437.122	12785.13
437.329	12635.63
437.537	13114.85
437.743	13051.36
437.95	13057.51
438.157	13653.47
438.364	14183.89
438.571	14144.98
438.778	14202.32
438.985	15482.3
439.192	14984.65
439.399	15422.91
439.606	15203.78
439.813	15736.25
440.02	16698.8
440.227	16477.62
440.433	16514.48
440.64	16870.83
440.847	16776.62
441.054	17436.06
441.261	18374.03
441.467	18138.52
441.674	18423.19
441.881	19307.91
442.088	19404.16
442.294	19000.71
442.501	19674.49
442.708	19869.05
442.914	20782.45
443.121	21884.25
443.328	21056.87
443.534	22609.23
443.741	21769.57
443.948	21753.18
444.154	22928.72
444.361	22955.34
444.568	23135.56
444.774	23147.85
444.981	23510.34
445.187	23962.94
445.394	25118
445.6	24816.94
445.807	27065.61
446.013	25662.76
446.22	26680.6
446.426	27274.51
446.633	27569.41
446.839	28667.13
447.046	27569.41
447.252	29113.58
447.459	29041.9
447.665	28962.03
447.871	29998.3
448.078	31493.32
448.284	29740.26
448.491	30866.64
448.697	32062.66
448.903	32677.05
449.11	32429.24
449.316	31935.68
449.522	32304.32
449.728	33268.91
449.935	33555.63
450.141	33545.39
450.347	34354.33
450.553	33557.67
450.76	33637.55
450.966	34950.29
451.172	34477.21
451.378	35404.94
451.584	34591.9
451.791	35325.07
451.997	35392.65
452.203	35851.4
452.409	35974.28
452.615	35816.58
452.821	34280.61
453.027	34315.42
453.233	36107.4
453.44	34604.19
453.646	35011.73
453.852	34882.71
454.058	35697.8
454.264	34538.65
454.47	35116.18
454.676	34174.11
454.882	35927.17
455.088	32490.68
455.294	32812.21
455.5	33045.68
455.705	33746.09
455.911	32107.71
456.117	31675.59
456.323	31339.72
456.529	29498.6
456.735	31026.39
456.941	30067.94
457.147	29443.31
457.352	28824.82
457.558	28474.62
457.764	28368.12
457.97	27567.37
458.176	27319.56
458.381	27387.14
458.587	25998.62
458.793	26158.36
458.999	24671.54
459.204	26258.71
459.41	25539.88
459.616	23893.31
459.821	24132.92
460.027	23811.39
460.233	23561.54
460.438	22218.07
460.644	22633.81
460.85	21720.42
461.055	21237.09
461.261	21286.25
461.466	19344.77
461.672	18926.99
461.878	20270.45
462.083	18851.21
462.289	18668.94
462.494	18253.2
462.7	17565.09
462.905	17325.47
463.111	17599.9
463.316	17816.99
463.522	17266.08
463.727	17456.54
463.932	17411.49
464.138	17059.24
464.343	17575.33
464.549	16960.94
464.754	17294.75
464.959	17194.4
465.165	17083.81
465.37	16424.37
465.575	16233.91
465.781	16405.94
465.986	16731.56
466.191	16170.42
466.397	15607.23
466.602	15037.89
466.807	15322.56
467.012	15463.87
467.218	15596.99
467.423	15195.59
467.628	15500.73
467.833	16176.56
468.038	15269.31
468.244	15085
