Data from USB4F104151__25__11-36-35-686.txt Node

Date: Fri Mar 14 11:36:35 EDT 2025
User: louis
Spectrometer: USB4F10415
Trigger mode: 4
Integration Time (sec): 2.000000E-2
Scans to average: 1
Electric dark correction enabled: true
Nonlinearity correction enabled: false
Boxcar width: 0
XAxis mode: Wavelengths
Number of Pixels in Spectrum: 3648
>>>>>Begin Spectral Data<<<<<
178.204	-29.87
178.424	-29.87
178.644	-29.87
178.864	-74.92
179.084	-60.59
179.304	-3.24
179.524	-64.68
179.744	-40.11
179.964	-11.43
180.184	37.72
180.404	72.53
180.624	-3.24
180.844	-5.29
181.064	23.38
181.283	-17.58
181.503	-46.25
181.723	58.2
181.943	-74.92
182.163	-9.39
182.383	-27.82
182.602	29.52
182.822	-36.01
183.042	-7.34
183.262	-27.82
183.482	35.67
183.701	35.67
183.921	101.2
184.141	47.96
184.361	21.33
184.58	2.9
184.8	29.52
185.02	-5.29
185.239	-68.78
185.459	-48.3
185.679	11.09
185.898	15.19
186.118	-58.54
186.338	70.48
186.557	7
186.777	21.33
186.997	23.38
187.216	-70.83
187.436	31.57
187.655	78.68
187.875	-1.19
188.095	4.95
188.314	-13.48
188.534	80.72
188.753	86.87
188.973	15.19
189.192	60.24
189.412	107.35
189.631	60.24
189.851	-42.15
190.07	93.01
190.29	-33.96
190.509	70.48
190.729	52.05
190.948	115.54
191.168	35.67
191.387	11.09
191.607	-19.63
191.826	4.95
192.045	72.53
192.265	37.72
192.484	56.15
192.704	-15.53
192.923	-31.91
193.142	7
193.362	82.77
193.581	80.72
193.8	-9.39
194.02	7
194.239	-33.96
194.458	54.1
194.678	29.52
194.897	35.67
195.116	29.52
195.335	23.38
195.555	-5.29
195.774	-25.77
195.993	39.76
196.212	35.67
196.432	4.95
196.651	33.62
196.87	39.76
197.089	31.57
197.308	78.68
197.528	-3.24
197.747	-29.87
197.966	37.72
198.185	72.53
198.404	-29.87
198.623	62.29
198.842	7
199.062	31.57
199.281	35.67
199.5	13.14
199.719	56.15
199.938	-5.29
200.157	31.57
200.376	-17.58
200.595	29.52
200.814	-3.24
201.033	60.24
201.252	84.82
201.471	4.95
201.69	76.63
201.909	47.96
202.128	2.9
202.347	-11.43
202.566	-25.77
202.785	35.67
203.004	54.1
203.223	97.11
203.442	-1.19
203.661	29.52
203.879	-13.48
204.098	21.33
204.317	-5.29
204.536	31.57
204.755	-3.24
204.974	41.81
205.193	31.57
205.411	39.76
205.63	-13.48
205.849	23.38
206.068	82.77
206.287	-36.01
206.505	9.05
206.724	21.33
206.943	37.72
207.162	15.19
207.381	-1.19
207.599	13.14
207.818	56.15
208.037	9.05
208.255	-5.29
208.474	33.62
208.693	21.33
208.911	29.52
209.13	45.91
209.349	-50.35
209.567	-17.58
209.786	56.15
210.005	13.14
210.223	47.96
210.442	15.19
210.661	64.34
210.879	35.67
211.098	-7.34
211.316	13.14
211.535	45.91
211.753	37.72
211.972	88.92
212.191	15.19
212.409	15.19
212.628	41.81
212.846	2.9
213.065	60.24
213.283	41.81
213.502	37.72
213.72	84.82
213.938	2.9
214.157	119.64
214.375	-1.19
214.594	43.86
214.812	64.34
215.031	68.44
215.249	39.76
215.467	45.91
215.686	9.05
215.904	23.38
216.122	23.38
216.341	74.58
216.559	60.24
216.778	97.11
216.996	31.57
217.214	39.76
217.432	4.95
217.651	43.86
217.869	11.09
218.087	-36.01
218.306	27.48
218.524	31.57
218.742	35.67
218.96	-23.72
219.179	60.24
219.397	47.96
219.615	54.1
219.833	13.14
220.051	-19.63
220.27	72.53
220.488	-25.77
220.706	127.83
220.924	-36.01
221.142	31.57
221.36	4.95
221.578	45.91
221.796	21.33
222.015	62.29
222.233	54.1
222.451	93.01
222.669	-72.87
222.887	4.95
223.105	27.48
223.323	-62.63
223.541	-9.39
223.759	66.39
223.977	31.57
224.195	11.09
224.413	2.9
224.631	-1.19
224.849	52.05
225.067	-29.87
225.285	7
225.503	74.58
225.721	31.57
225.939	50
226.157	-15.53
226.375	35.67
226.592	2.9
226.81	50
227.028	97.11
227.246	76.63
227.464	31.57
227.682	-13.48
227.9	62.29
228.117	7
228.335	35.67
228.553	52.05
228.771	47.96
228.989	33.62
229.206	97.11
229.424	25.43
229.642	17.24
229.86	70.48
230.077	60.24
230.295	-56.49
230.513	37.72
230.731	7
230.948	-19.63
231.166	47.96
231.384	19.29
231.601	19.29
231.819	25.43
232.037	31.57
232.254	-38.06
232.472	11.09
232.689	-17.58
232.907	39.76
233.125	47.96
233.342	9.05
233.56	47.96
233.777	-52.39
233.995	76.63
234.213	133.97
234.43	-9.39
234.648	4.95
234.865	-46.25
235.083	31.57
235.3	86.87
235.518	-7.34
235.735	4.95
235.953	68.44
236.17	-15.53
236.388	-13.48
236.605	0.85
236.822	29.52
237.04	52.05
237.257	103.25
237.475	47.96
237.692	-38.06
237.909	56.15
238.127	-3.24
238.344	21.33
238.562	33.62
238.779	-17.58
238.996	4.95
239.214	27.48
239.431	103.25
239.648	-9.39
239.865	33.62
240.083	25.43
240.3	37.72
240.517	2.9
240.735	88.92
240.952	21.33
241.169	27.48
241.386	105.3
241.603	27.48
241.821	52.05
242.038	103.25
242.255	-17.58
242.472	37.72
242.689	56.15
242.907	37.72
243.124	25.43
243.341	35.67
243.558	-29.87
243.775	60.24
243.992	0.85
244.209	13.14
244.426	54.1
244.643	31.57
244.86	-27.82
245.078	-9.39
245.295	107.35
245.512	13.14
245.729	45.91
245.946	68.44
246.163	7
246.38	84.82
246.597	-13.48
246.814	54.1
247.031	23.38
247.248	68.44
247.464	72.53
247.681	62.29
247.898	-33.96
248.115	43.86
248.332	45.91
248.549	62.29
248.766	56.15
248.983	64.34
249.2	7
249.417	-11.43
249.633	39.76
249.85	-25.77
250.067	15.19
250.284	99.16
250.501	68.44
250.717	2.9
250.934	37.72
251.151	-3.24
251.368	35.67
251.585	47.96
251.801	9.05
252.018	-21.67
252.235	43.86
252.451	39.76
252.668	39.76
252.885	68.44
253.102	80.72
253.318	0.85
253.535	70.48
253.752	-5.29
253.968	37.72
254.185	54.1
254.401	125.78
254.618	27.48
254.835	86.87
255.051	97.11
255.268	15.19
255.484	7
255.701	9.05
255.917	43.86
256.134	-13.48
256.351	13.14
256.567	11.09
256.784	41.81
257	-38.06
257.217	7
257.433	29.52
257.65	23.38
257.866	90.96
258.082	-21.67
258.299	-29.87
258.515	64.34
258.732	-48.3
258.948	-3.24
259.165	29.52
259.381	39.76
259.597	19.29
259.814	70.48
260.03	56.15
260.246	15.19
260.463	25.43
260.679	11.09
260.895	41.81
261.112	54.1
261.328	-11.43
261.544	9.05
261.761	56.15
261.977	-15.53
262.193	84.82
262.409	19.29
262.626	-25.77
262.842	68.44
263.058	-1.19
263.274	27.48
263.49	33.62
263.707	45.91
263.923	-19.63
264.139	7
264.355	-21.67
264.571	-1.19
264.787	31.57
265.004	136.02
265.22	-38.06
265.436	43.86
265.652	0.85
265.868	23.38
266.084	2.9
266.3	21.33
266.516	4.95
266.732	58.2
266.948	66.39
267.164	76.63
267.38	7
267.596	52.05
267.812	78.68
268.028	21.33
268.244	7
268.46	-3.24
268.676	90.96
268.892	15.19
269.108	86.87
269.324	33.62
269.54	23.38
269.756	64.34
269.972	-54.44
270.188	17.24
270.403	-3.24
270.619	15.19
270.835	37.72
271.051	72.53
271.267	11.09
271.483	-66.73
271.698	23.38
271.914	25.43
272.13	-50.35
272.346	45.91
272.562	37.72
272.777	54.1
272.993	-85.16
273.209	-74.92
273.425	72.53
273.64	27.48
273.856	-27.82
274.072	31.57
274.287	-31.91
274.503	72.53
274.719	76.63
274.934	31.57
275.15	-19.63
275.366	41.81
275.581	82.77
275.797	23.38
276.012	-17.58
276.228	45.91
276.444	35.67
276.659	76.63
276.875	7
277.09	-5.29
277.306	4.95
277.521	7
277.737	21.33
277.952	41.81
278.168	29.52
278.383	78.68
278.599	56.15
278.814	58.2
279.03	35.67
279.245	45.91
279.461	54.1
279.676	9.05
279.892	7
280.107	-21.67
280.322	25.43
280.538	21.33
280.753	-40.11
280.969	-5.29
281.184	13.14
281.399	35.67
281.615	-31.91
281.83	52.05
282.045	-42.15
282.26	66.39
282.476	-23.72
282.691	60.24
282.906	13.14
283.122	-3.24
283.337	39.76
283.552	35.67
283.767	-7.34
283.983	60.24
284.198	56.15
284.413	-5.29
284.628	37.72
284.843	15.19
285.058	7
285.274	-9.39
285.489	31.57
285.704	43.86
285.919	4.95
286.134	-13.48
286.349	58.2
286.564	39.76
286.779	82.77
286.995	35.67
287.21	21.33
287.425	64.34
287.64	64.34
287.855	45.91
288.07	23.38
288.285	101.2
288.5	97.11
288.715	11.09
288.93	29.52
289.145	62.29
289.36	25.43
289.575	84.82
289.79	101.2
290.004	7
290.219	101.2
290.434	39.76
290.649	37.72
290.864	76.63
291.079	95.06
291.294	0.85
291.509	-13.48
291.724	21.33
291.938	4.95
292.153	37.72
292.368	-21.67
292.583	45.91
292.798	-9.39
293.012	50
293.227	-1.19
293.442	15.19
293.657	56.15
293.871	64.34
294.086	27.48
294.301	60.24
294.516	15.19
294.73	-27.82
294.945	95.06
295.16	-36.01
295.374	43.86
295.589	68.44
295.804	31.57
296.018	9.05
296.233	131.92
296.447	-9.39
296.662	27.48
296.877	27.48
297.091	103.25
297.306	99.16
297.52	-1.19
297.735	17.24
297.949	37.72
298.164	66.39
298.378	39.76
298.593	95.06
298.807	-3.24
299.022	45.91
299.236	68.44
299.451	90.96
299.665	13.14
299.88	-23.72
300.094	52.05
300.309	43.86
300.523	82.77
300.737	33.62
300.952	-13.48
301.166	52.05
301.381	2.9
301.595	7
301.809	13.14
302.024	17.24
302.238	37.72
302.452	117.59
302.667	13.14
302.881	35.67
303.095	-7.34
303.309	-9.39
303.524	37.72
303.738	95.06
303.952	-7.34
304.166	33.62
304.381	13.14
304.595	43.86
304.809	4.95
305.023	43.86
305.237	-21.67
305.452	47.96
305.666	88.92
305.88	27.48
306.094	23.38
306.308	43.86
306.522	33.62
306.736	21.33
306.95	80.72
307.164	-19.63
307.379	31.57
307.593	50
307.807	31.57
308.021	97.11
308.235	13.14
308.449	-17.58
308.663	39.76
308.877	74.58
309.091	35.67
309.305	72.53
309.519	9.05
309.733	150.36
309.947	25.43
310.161	4.95
310.374	52.05
310.588	47.96
310.802	-1.19
311.016	4.95
311.23	23.38
311.444	15.19
311.658	-5.29
311.872	80.72
312.085	-15.53
312.299	78.68
312.513	62.29
312.727	58.2
312.941	-13.48
313.154	39.76
313.368	-1.19
313.582	-1.19
313.796	99.16
314.009	4.95
314.223	105.3
314.437	70.48
314.651	66.39
314.864	90.96
315.078	17.24
315.292	25.43
315.505	7
315.719	41.81
315.933	97.11
316.146	31.57
316.36	80.72
316.573	-7.34
316.787	-19.63
317.001	76.63
317.214	-33.96
317.428	15.19
317.641	78.68
317.855	33.62
318.068	70.48
318.282	31.57
318.495	19.29
318.709	39.76
318.922	56.15
319.136	23.38
319.349	15.19
319.563	4.95
319.776	19.29
319.99	23.38
320.203	35.67
320.417	15.19
320.63	39.76
320.843	101.2
321.057	52.05
321.27	35.67
321.483	43.86
321.697	43.86
321.91	35.67
322.124	62.29
322.337	-38.06
322.55	23.38
322.763	23.38
322.977	-19.63
323.19	31.57
323.403	43.86
323.617	23.38
323.83	129.88
324.043	35.67
324.256	-17.58
324.469	43.86
324.683	117.59
324.896	-27.82
325.109	-13.48
325.322	-33.96
325.535	-7.34
325.748	52.05
325.962	31.57
326.175	84.82
326.388	47.96
326.601	13.14
326.814	23.38
327.027	99.16
327.24	123.73
327.453	23.38
327.666	31.57
327.879	-11.43
328.092	64.34
328.305	62.29
328.518	62.29
328.731	62.29
328.944	39.76
329.157	-17.58
329.37	52.05
329.583	64.34
329.796	-19.63
330.009	15.19
330.222	68.44
330.435	39.76
330.648	39.76
330.861	78.68
331.073	54.1
331.286	47.96
331.499	78.68
331.712	56.15
331.925	43.86
332.138	-1.19
332.35	115.54
332.563	56.15
332.776	80.72
332.989	25.43
333.202	39.76
333.414	-13.48
333.627	76.63
333.84	47.96
334.053	21.33
334.265	54.1
334.478	17.24
334.691	60.24
334.903	41.81
335.116	84.82
335.329	9.05
335.541	97.11
335.754	121.68
335.966	60.24
336.179	58.2
336.392	35.67
336.604	27.48
336.817	76.63
337.029	60.24
337.242	-76.97
337.454	64.34
337.667	7
337.88	88.92
338.092	4.95
338.305	84.82
338.517	23.38
338.729	45.91
338.942	-1.19
339.154	13.14
339.367	90.96
339.579	64.34
339.792	23.38
340.004	35.67
340.217	64.34
340.429	33.62
340.641	15.19
340.854	-1.19
341.066	56.15
341.278	117.59
341.491	62.29
341.703	50
341.915	-11.43
342.128	58.2
342.34	47.96
342.552	93.01
342.764	86.87
342.977	37.72
343.189	70.48
343.401	37.72
343.613	-25.77
343.826	-7.34
344.038	105.3
344.25	35.67
344.462	41.81
344.674	56.15
344.886	45.91
345.099	95.06
345.311	29.52
345.523	47.96
345.735	68.44
345.947	-17.58
346.159	54.1
346.371	82.77
346.583	27.48
346.795	64.34
347.007	74.58
347.219	19.29
347.431	2.9
347.643	113.49
347.855	109.4
348.067	11.09
348.279	-3.24
348.491	64.34
348.703	101.2
348.915	62.29
349.127	52.05
349.339	68.44
349.551	60.24
349.763	60.24
349.975	31.57
350.187	115.54
350.399	95.06
350.61	105.3
350.822	127.83
351.034	35.67
351.246	66.39
351.458	31.57
351.669	95.06
351.881	39.76
352.093	13.14
352.305	105.3
352.517	68.44
352.728	21.33
352.94	-58.54
353.152	56.15
353.363	-19.63
353.575	39.76
353.787	66.39
353.999	41.81
354.21	41.81
354.422	13.14
354.633	33.62
354.845	47.96
355.057	7
355.268	115.54
355.48	78.68
355.692	9.05
355.903	4.95
356.115	58.2
356.326	47.96
356.538	39.76
356.749	109.4
356.961	58.2
357.172	47.96
357.384	4.95
357.595	72.53
357.807	82.77
358.018	11.09
358.23	58.2
358.441	56.15
358.653	76.63
358.864	47.96
359.075	21.33
359.287	93.01
359.498	78.68
359.709	60.24
359.921	29.52
360.132	11.09
360.344	-38.06
360.555	72.53
360.766	-40.11
360.977	-33.96
361.189	72.53
361.4	60.24
361.611	-1.19
361.823	37.72
362.034	-1.19
362.245	54.1
362.456	-3.24
362.667	29.52
362.879	64.34
363.09	56.15
363.301	84.82
363.512	66.39
363.723	17.24
363.935	-23.72
364.146	52.05
364.357	13.14
364.568	21.33
364.779	-9.39
364.99	60.24
365.201	23.38
365.412	31.57
365.623	95.06
365.834	21.33
366.045	58.2
366.256	31.57
366.467	35.67
366.678	43.86
366.889	50
367.1	39.76
367.311	74.58
367.522	35.67
367.733	21.33
367.944	37.72
368.155	19.29
368.366	90.96
368.577	80.72
368.788	72.53
368.999	21.33
369.209	-25.77
369.42	103.25
369.631	84.82
369.842	78.68
370.053	70.48
370.264	45.91
370.474	39.76
370.685	31.57
370.896	0.85
371.107	25.43
371.317	115.54
371.528	74.58
371.739	43.86
371.95	56.15
372.16	37.72
372.371	31.57
372.582	4.95
372.792	88.92
373.003	15.19
373.214	2.9
373.424	95.06
373.635	25.43
373.846	78.68
374.056	86.87
374.267	-31.91
374.477	70.48
374.688	43.86
374.898	27.48
375.109	70.48
375.319	17.24
375.53	47.96
375.74	70.48
375.951	25.43
376.161	52.05
376.372	95.06
376.582	4.95
376.793	23.38
377.003	107.35
377.214	37.72
377.424	54.1
377.635	-9.39
377.845	58.2
378.055	66.39
378.266	-23.72
378.476	-25.77
378.686	31.57
378.897	66.39
379.107	101.2
379.317	74.58
379.528	19.29
379.738	-38.06
379.948	11.09
380.158	138.07
380.369	60.24
380.579	50
380.789	103.25
380.999	119.64
381.21	47.96
381.42	72.53
381.63	47.96
381.84	84.82
382.05	33.62
382.261	7
382.471	62.29
382.681	23.38
382.891	101.2
383.101	50
383.311	-36.01
383.521	17.24
383.731	35.67
383.941	-25.77
384.151	47.96
384.361	88.92
384.571	86.87
384.781	35.67
384.991	54.1
385.201	39.76
385.411	23.38
385.621	88.92
385.831	52.05
386.041	54.1
386.251	37.72
386.461	86.87
386.671	127.83
386.881	74.58
387.091	4.95
387.301	54.1
387.511	72.53
387.72	68.44
387.93	41.81
388.14	93.01
388.35	105.3
388.56	52.05
388.769	78.68
388.979	131.92
389.189	88.92
389.399	78.68
389.609	21.33
389.818	80.72
390.028	64.34
390.238	97.11
390.447	80.72
390.657	68.44
390.867	111.44
391.076	93.01
391.286	35.67
391.496	136.02
391.705	2.9
391.915	111.44
392.125	15.19
392.334	64.34
392.544	56.15
392.753	56.15
392.963	45.91
393.172	119.64
393.382	39.76
393.591	84.82
393.801	101.2
394.01	72.53
394.22	146.26
394.429	54.1
394.639	11.09
394.848	129.88
395.058	41.81
395.267	88.92
395.477	88.92
395.686	125.78
395.895	56.15
396.105	117.59
396.314	90.96
396.524	125.78
396.733	72.53
396.942	181.07
397.152	174.93
397.361	105.3
397.57	47.96
397.78	148.31
397.989	185.17
398.198	72.53
398.407	35.67
398.617	80.72
398.826	111.44
399.035	168.79
399.244	121.68
399.453	152.4
399.663	103.25
399.872	146.26
400.081	133.97
400.29	133.97
400.499	82.77
400.708	133.97
400.917	152.4
401.127	101.2
401.336	64.34
401.545	54.1
401.754	82.77
401.963	144.21
402.172	95.06
402.381	156.5
402.59	121.68
402.799	68.44
403.008	68.44
403.217	97.11
403.426	179.03
403.635	176.98
403.844	115.54
404.053	176.98
404.262	150.36
404.471	195.41
404.68	150.36
404.888	138.07
405.097	144.21
405.306	166.74
405.515	136.02
405.724	133.97
405.933	187.22
406.142	123.73
406.35	195.41
406.559	252.75
406.768	181.07
406.977	250.71
407.185	156.5
407.394	234.32
407.603	187.22
407.812	150.36
408.02	203.6
408.229	256.85
408.438	228.18
408.646	262.99
408.855	314.19
409.064	250.71
409.272	203.6
409.481	326.48
409.69	273.23
409.898	291.66
410.107	297.81
410.315	375.63
410.524	297.81
410.733	285.52
410.941	402.26
411.15	416.59
411.358	359.25
411.567	430.93
411.775	457.55
411.984	385.87
412.192	408.4
412.401	449.36
412.609	463.69
412.818	480.08
413.026	502.61
413.234	553.8
413.443	557.9
413.651	578.38
413.86	590.67
414.068	496.46
414.276	668.49
414.485	639.82
414.693	658.25
414.901	613.2
415.11	748.36
415.318	772.94
415.526	729.93
415.734	768.84
415.943	772.94
416.151	830.28
416.359	906.06
416.567	858.95
416.776	965.45
416.984	985.93
417.192	1059.65
417.4	977.73
417.608	1035.08
417.817	1067.85
418.025	1110.85
418.233	1256.26
418.441	1137.48
418.649	1155.91
418.857	1321.79
419.065	1303.36
419.273	1348.42
419.481	1438.53
419.689	1375.04
419.897	1493.82
420.105	1555.26
420.313	1563.45
420.521	1633.08
420.729	1696.57
420.937	1694.52
421.145	1770.3
421.353	1923.9
421.561	1971
421.769	2009.91
421.977	2118.45
422.185	1981.24
422.393	2239.28
422.601	2306.87
422.809	2480.94
423.017	2396.98
423.224	2517.81
423.432	2583.34
423.64	2442.03
423.848	2730.8
424.056	2743.08
424.263	2906.92
424.471	2999.08
424.679	2943.78
424.887	3162.92
425.094	3228.45
425.302	3330.85
425.51	3394.34
425.718	3425.06
425.925	3560.22
426.133	3570.46
426.341	3828.51
426.548	4004.63
426.756	3975.96
426.964	4064.02
427.171	4254.48
427.379	4403.99
427.586	4512.53
427.794	4584.21
428.001	4754.19
428.209	4958.99
428.417	5051.14
428.624	5280.52
428.832	5268.23
429.039	5315.33
429.247	5344
429.454	5714.69
429.662	6220.53
429.869	5753.6
430.076	6398.71
430.284	6060.79
430.491	6249.21
430.699	6556.4
430.906	6759.15
431.114	6863.6
431.321	6687.47
431.528	7109.35
431.736	7664.35
431.943	7840.48
432.15	7658.21
432.358	7891.68
432.565	8227.54
432.772	8143.58
432.979	8674
433.187	8827.6
433.394	8841.93
433.601	9284.3
433.808	9398.98
434.016	9185.99
434.223	9804.48
434.43	10451.64
434.637	10056.38
434.844	10732.21
435.052	10980.01
435.259	11076.27
435.466	11086.51
435.673	10830.51
435.88	11508.39
436.087	12112.54
436.294	12470.94
436.501	11936.42
436.708	12063.39
436.915	12622.48
437.122	13159.05
437.329	13298.31
437.537	13611.65
437.743	13816.45
437.95	13781.64
438.157	14217.85
438.364	14797.43
438.571	15078
438.778	14770.8
438.985	16384.6
439.192	15766.12
439.399	16173.66
439.606	15909.47
439.813	16798.29
440.02	17601.1
440.227	17189.46
440.433	17443.4
440.64	17867.33
440.847	17994.31
441.054	18240.06
441.261	19368.49
441.467	19282.48
441.674	19472.94
441.881	20361.76
442.088	19884.58
442.294	19939.88
442.501	20560.41
442.708	20832.79
442.914	21817.86
443.121	22581.76
443.328	22024.71
443.534	23652.84
443.741	22897.14
443.948	22559.23
444.154	24371.68
444.361	24087.01
444.568	24285.67
444.774	24199.65
444.981	24537.57
445.187	25344.47
445.394	26339.78
445.6	26118.6
445.807	28410.28
446.013	27468.21
446.22	27888.04
446.426	28740
446.633	29020.57
446.839	30040.46
447.046	28670.37
447.252	30683.52
447.459	30534.02
447.665	30298.5
447.871	31431.03
448.078	33333.59
448.284	31371.64
448.491	32274.79
448.697	33614.16
448.903	34361.67
449.11	34308.43
449.316	33595.73
449.522	34451.78
449.728	35150.14
449.935	35356.99
450.141	35051.84
450.347	35821.87
450.553	35066.17
450.76	35848.5
450.966	36286.76
451.172	36278.57
451.378	37204.25
451.584	36352.3
451.791	36839.72
451.997	37177.63
452.203	37978.39
452.409	37959.95
452.615	38119.7
452.821	36206.89
453.027	36184.37
453.233	37859.6
453.44	36262.19
453.646	36733.22
453.852	36628.77
454.058	37503.26
454.264	36108.59
454.47	36847.91
454.676	36227.37
454.882	37486.87
455.088	34029.9
455.294	34625.86
455.5	35199.29
455.705	35608.89
455.911	33829.2
456.117	33239.39
456.323	33136.99
456.529	31523.19
456.735	32575.84
456.941	31533.43
457.147	31461.75
457.352	30341.51
457.558	29966.73
457.764	30146.95
457.97	29211.03
458.176	28938.65
458.381	28527.01
458.587	27271.61
458.793	27453.87
458.999	25813.45
459.204	27810.22
459.41	26921.4
459.616	25211.35
459.821	25582.03
460.027	25080.28
460.233	24865.24
460.438	23349.75
460.644	23933.42
460.85	22671.87
461.055	22477.31
461.261	22260.23
461.466	20548.12
461.672	19976.74
461.878	21459.47
462.083	20056.61
462.289	19751.46
462.494	19477.04
462.7	18729.53
462.905	17939.01
463.111	18608.7
463.316	18643.51
463.522	18373.18
463.727	18496.06
463.932	18444.86
464.138	18084.42
464.343	18442.81
464.549	17414.73
464.754	17953.35
464.959	17975.88
465.165	18010.69
465.37	17252.94
465.575	16734.81
465.781	17435.21
465.986	17541.71
466.191	16781.91
466.397	16630.36
466.602	15612.52
466.807	16335.45
467.012	16675.41
467.218	16208.48
467.423	15915.62
467.628	16157.28
467.833	16652.89
468.038	16116.32
468.244	15643.24
468.449	16403.04
468.654	15839.84
