Data from USB4F104151__76__11-37-38-799.txt Node

Date: Fri Mar 14 11:37:38 EDT 2025
User: louis
Spectrometer: USB4F10415
Trigger mode: 4
Integration Time (sec): 2.000000E-2
Scans to average: 1
Electric dark correction enabled: true
Nonlinearity correction enabled: false
Boxcar width: 0
XAxis mode: Wavelengths
Number of Pixels in Spectrum: 3648
>>>>>Begin Spectral Data<<<<<
178.204	-78.16
178.424	-78.16
178.644	-78.16
178.864	-98.64
179.084	-59.73
179.304	-67.92
179.524	5.8
179.744	67.24
179.964	36.52
180.184	-31.06
180.404	40.62
180.624	-63.83
180.844	-74.07
181.064	-29.01
181.283	42.67
181.503	46.76
181.723	26.28
181.943	-82.26
182.163	9.9
182.383	24.23
182.602	75.43
182.822	7.85
183.042	-16.73
183.262	13.99
183.482	13.99
183.701	46.76
183.921	-65.88
184.141	-12.63
184.361	57
184.58	-24.92
184.8	-33.11
185.02	65.19
185.239	-29.01
185.459	9.9
185.679	42.67
185.898	11.95
186.118	-29.01
186.338	-49.49
186.557	7.85
186.777	-51.54
186.997	-49.49
187.216	13.99
187.436	28.33
187.655	5.8
187.875	13.99
188.095	-2.39
188.314	3.75
188.534	63.15
188.753	-18.77
188.973	-74.07
189.192	7.85
189.412	40.62
189.631	26.28
189.851	57
190.07	-47.44
190.29	-20.82
190.509	79.53
190.729	40.62
190.948	40.62
191.168	116.39
191.387	-2.39
191.607	38.57
191.826	-4.44
192.045	-22.87
192.265	20.14
192.484	16.04
192.704	5.8
192.923	-26.96
193.142	-16.73
193.362	-45.4
193.581	61.1
193.8	26.28
194.02	26.28
194.239	11.95
194.458	75.43
194.678	9.9
194.897	20.14
195.116	26.28
195.335	28.33
195.555	-49.49
195.774	-8.53
195.993	13.99
196.212	-41.3
196.432	79.53
196.651	5.8
196.87	-43.35
197.089	97.96
197.308	-8.53
197.528	-20.82
197.747	-16.73
197.966	48.81
198.185	22.19
198.404	57
198.623	24.23
198.842	-29.01
199.062	30.38
199.281	11.95
199.5	-33.11
199.719	67.24
199.938	22.19
200.157	-2.39
200.376	67.24
200.595	46.76
200.814	69.29
201.033	44.71
201.252	7.85
201.471	30.38
201.69	9.9
201.909	5.8
202.128	-84.31
202.347	22.19
202.566	-12.63
202.785	11.95
203.004	-35.16
203.223	18.09
203.442	93.87
203.661	22.19
203.879	-37.2
204.098	13.99
204.317	-12.63
204.536	28.33
204.755	42.67
204.974	-4.44
205.193	-59.73
205.411	79.53
205.63	42.67
205.849	-33.11
206.068	32.43
206.287	-10.58
206.505	16.04
206.724	-53.59
206.943	79.53
207.162	-37.2
207.381	-33.11
207.599	-14.68
207.818	26.28
208.037	28.33
208.255	24.23
208.474	34.47
208.693	89.77
208.911	11.95
209.13	-16.73
209.349	28.33
209.567	48.81
209.786	40.62
210.005	7.85
210.223	143.02
210.442	-35.16
210.661	30.38
210.879	3.75
211.098	-39.25
211.316	11.95
211.535	40.62
211.753	30.38
211.972	40.62
212.191	40.62
212.409	16.04
212.628	34.47
212.846	-47.44
213.065	40.62
213.283	63.15
213.502	-55.64
213.72	30.38
213.938	11.95
214.157	-31.06
214.375	65.19
214.594	9.9
214.812	16.04
215.031	-53.59
215.249	9.9
215.467	-37.2
215.686	-39.25
215.904	9.9
216.122	-10.58
216.341	36.52
216.559	50.86
216.778	-33.11
216.996	40.62
217.214	-24.92
217.432	-26.96
217.651	-10.58
217.869	-47.44
218.087	36.52
218.306	-33.11
218.524	120.49
218.742	-63.83
218.96	26.28
219.179	48.81
219.397	3.75
219.615	71.34
219.833	52.91
220.051	50.86
220.27	42.67
220.488	-0.34
220.706	44.71
220.924	18.09
221.142	24.23
221.36	16.04
221.578	16.04
221.796	5.8
222.015	40.62
222.233	50.86
222.451	46.76
222.669	-33.11
222.887	16.04
223.105	-24.92
223.323	28.33
223.541	28.33
223.759	38.57
223.977	-22.87
224.195	28.33
224.413	48.81
224.631	106.15
224.849	-57.68
225.067	114.34
225.285	3.75
225.503	-37.2
225.721	18.09
225.939	5.8
226.157	24.23
226.375	63.15
226.592	13.99
226.81	52.91
227.028	-4.44
227.246	79.53
227.464	-16.73
227.682	69.29
227.9	52.91
228.117	30.38
228.335	-16.73
228.553	24.23
228.771	100.01
228.989	100.01
229.206	-82.26
229.424	5.8
229.642	-29.01
229.86	-41.3
230.077	81.58
230.295	30.38
230.513	57
230.731	36.52
230.948	28.33
231.166	50.86
231.384	28.33
231.601	-49.49
231.819	73.39
232.037	32.43
232.254	-4.44
232.472	-65.88
232.689	28.33
232.907	46.76
233.125	-4.44
233.342	26.28
233.56	26.28
233.777	30.38
233.995	-41.3
234.213	38.57
234.43	20.14
234.648	-37.2
234.865	-14.68
235.083	11.95
235.3	5.8
235.518	34.47
235.735	-41.3
235.953	7.85
236.17	3.75
236.388	-20.82
236.605	30.38
236.822	16.04
237.04	34.47
237.257	73.39
237.475	-6.49
237.692	-43.35
237.909	-2.39
238.127	9.9
238.344	42.67
238.562	-14.68
238.779	-12.63
238.996	-20.82
239.214	-2.39
239.431	22.19
239.648	-6.49
239.865	65.19
240.083	24.23
240.3	67.24
240.517	20.14
240.735	13.99
240.952	48.81
241.169	81.58
241.386	57
241.603	20.14
241.821	7.85
242.038	30.38
242.255	-8.53
242.472	-16.73
242.689	-2.39
242.907	28.33
243.124	16.04
243.341	40.62
243.558	20.14
243.775	13.99
243.992	16.04
244.209	81.58
244.426	65.19
244.643	-0.34
244.86	1.71
245.078	89.77
245.295	77.48
245.512	11.95
245.729	-24.92
245.946	102.06
246.163	40.62
246.38	16.04
246.597	-14.68
246.814	44.71
247.031	13.99
247.248	81.58
247.464	7.85
247.681	26.28
247.898	-65.88
248.115	-78.16
248.332	36.52
248.549	-24.92
248.766	132.78
248.983	-2.39
249.2	-39.25
249.417	54.95
249.633	102.06
249.85	-47.44
250.067	-8.53
250.284	-2.39
250.501	106.15
250.717	57
250.934	1.71
251.151	40.62
251.368	-18.77
251.585	46.76
251.801	-8.53
252.018	13.99
252.235	32.43
252.451	54.95
252.668	46.76
252.885	61.1
253.102	40.62
253.318	-14.68
253.535	34.47
253.752	-2.39
253.968	-35.16
254.185	-33.11
254.401	24.23
254.618	9.9
254.835	-0.34
255.051	32.43
255.268	46.76
255.484	-16.73
255.701	50.86
255.917	13.99
256.134	24.23
256.351	20.14
256.567	69.29
256.784	16.04
257	-53.59
257.217	-39.25
257.433	-0.34
257.65	7.85
257.866	3.75
258.082	11.95
258.299	48.81
258.515	-24.92
258.732	24.23
258.948	-18.77
259.165	40.62
259.381	-0.34
259.597	61.1
259.814	-10.58
260.03	-4.44
260.246	50.86
260.463	73.39
260.679	59.05
260.895	40.62
261.112	36.52
261.328	-18.77
261.544	26.28
261.761	26.28
261.977	54.95
262.193	-20.82
262.409	32.43
262.626	-47.44
262.842	61.1
263.058	-63.83
263.274	16.04
263.49	-4.44
263.707	52.91
263.923	-35.16
264.139	11.95
264.355	3.75
264.571	34.47
264.787	46.76
265.004	57
265.22	-51.54
265.436	-29.01
265.652	-43.35
265.868	-10.58
266.084	22.19
266.3	61.1
266.516	52.91
266.732	-26.96
266.948	7.85
267.164	97.96
267.38	16.04
267.596	-4.44
267.812	32.43
268.028	-35.16
268.244	-12.63
268.46	-16.73
268.676	26.28
268.892	1.71
269.108	-12.63
269.324	24.23
269.54	-6.49
269.756	44.71
269.972	-4.44
270.188	-20.82
270.403	22.19
270.619	-4.44
270.835	65.19
271.051	5.8
271.267	36.52
271.483	24.23
271.698	48.81
271.914	-16.73
272.13	36.52
272.346	-37.2
272.562	-20.82
272.777	5.8
272.993	16.04
273.209	26.28
273.425	79.53
273.64	50.86
273.856	-8.53
274.072	11.95
274.287	18.09
274.503	16.04
274.719	3.75
274.934	32.43
275.15	7.85
275.366	-35.16
275.581	16.04
275.797	104.11
276.012	20.14
276.228	13.99
276.444	-29.01
276.659	13.99
276.875	-2.39
277.09	114.34
277.306	11.95
277.521	16.04
277.737	-24.92
277.952	-33.11
278.168	11.95
278.383	-41.3
278.599	44.71
278.814	13.99
279.03	-37.2
279.245	48.81
279.461	7.85
279.676	42.67
279.892	40.62
280.107	26.28
280.322	30.38
280.538	-35.16
280.753	42.67
280.969	81.58
281.184	1.71
281.399	57
281.615	13.99
281.83	42.67
282.045	22.19
282.26	79.53
282.476	5.8
282.691	18.09
282.906	71.34
283.122	91.82
283.337	40.62
283.552	-47.44
283.767	-0.34
283.983	-45.4
284.198	61.1
284.413	-31.06
284.628	122.54
284.843	11.95
285.058	-0.34
285.274	-26.96
285.489	18.09
285.704	67.24
285.919	91.82
286.134	67.24
286.349	-31.06
286.564	16.04
286.779	24.23
286.995	-76.12
287.21	5.8
287.425	38.57
287.64	-14.68
287.855	11.95
288.07	-26.96
288.285	89.77
288.5	30.38
288.715	18.09
288.93	54.95
289.145	-63.83
289.36	130.73
289.575	-16.73
289.79	79.53
290.004	-4.44
290.219	1.71
290.434	24.23
290.649	7.85
290.864	48.81
291.079	-12.63
291.294	77.48
291.509	-4.44
291.724	48.81
291.938	-12.63
292.153	57
292.368	18.09
292.583	-2.39
292.798	13.99
293.012	63.15
293.227	42.67
293.442	-49.49
293.657	57
293.871	85.67
294.086	42.67
294.301	9.9
294.516	11.95
294.73	16.04
294.945	18.09
295.16	63.15
295.374	13.99
295.589	38.57
295.804	7.85
296.018	28.33
296.233	-4.44
296.447	59.05
296.662	-14.68
296.877	69.29
297.091	97.96
297.306	24.23
297.52	63.15
297.735	59.05
297.949	-10.58
298.164	48.81
298.378	-2.39
298.593	-43.35
298.807	-10.58
299.022	5.8
299.236	61.1
299.451	-29.01
299.665	-29.01
299.88	16.04
300.094	-10.58
300.309	100.01
300.523	28.33
300.737	-2.39
300.952	40.62
301.166	-55.64
301.381	-8.53
301.595	-26.96
301.809	44.71
302.024	48.81
302.238	18.09
302.452	44.71
302.667	108.2
302.881	1.71
303.095	16.04
303.309	97.96
303.524	3.75
303.738	16.04
303.952	-41.3
304.166	54.95
304.381	-0.34
304.595	65.19
304.809	40.62
305.023	50.86
305.237	108.2
305.452	11.95
305.666	40.62
305.88	44.71
306.094	30.38
306.308	59.05
306.522	9.9
306.736	48.81
306.95	63.15
307.164	40.62
307.379	-37.2
307.593	54.95
307.807	24.23
308.021	-2.39
308.235	42.67
308.449	22.19
308.663	75.43
308.877	13.99
309.091	9.9
309.305	38.57
309.519	-33.11
309.733	22.19
309.947	3.75
310.161	61.1
310.374	-20.82
310.588	126.63
310.802	52.91
311.016	9.9
311.23	54.95
311.444	-24.92
311.658	13.99
311.872	-78.16
312.085	32.43
312.299	54.95
312.513	-55.64
312.727	97.96
312.941	13.99
313.154	-10.58
313.368	-0.34
313.582	32.43
313.796	5.8
314.009	-6.49
314.223	61.1
314.437	69.29
314.651	-4.44
314.864	65.19
315.078	81.58
315.292	-24.92
315.505	-41.3
315.719	-0.34
315.933	61.1
316.146	-37.2
316.36	75.43
316.573	-37.2
316.787	91.82
317.001	77.48
317.214	67.24
317.428	-14.68
317.641	36.52
317.855	20.14
318.068	16.04
318.282	-2.39
318.495	57
318.709	54.95
318.922	13.99
319.136	13.99
319.349	44.71
319.563	7.85
319.776	65.19
319.99	3.75
320.203	30.38
320.417	30.38
320.63	16.04
320.843	61.1
321.057	-45.4
321.27	-4.44
321.483	36.52
321.697	38.57
321.91	46.76
322.124	52.91
322.337	-43.35
322.55	-4.44
322.763	-16.73
322.977	38.57
323.19	61.1
323.403	71.34
323.617	28.33
323.83	32.43
324.043	36.52
324.256	36.52
324.469	11.95
324.683	65.19
324.896	26.28
325.109	30.38
325.322	-8.53
325.535	104.11
325.748	24.23
325.962	32.43
326.175	44.71
326.388	89.77
326.601	-6.49
326.814	-33.11
327.027	54.95
327.24	22.19
327.453	-2.39
327.666	57
327.879	-8.53
328.092	65.19
328.305	-12.63
328.518	46.76
328.731	7.85
328.944	5.8
329.157	24.23
329.37	-8.53
329.583	-29.01
329.796	40.62
330.009	28.33
330.222	-10.58
330.435	28.33
330.648	77.48
330.861	48.81
331.073	-4.44
331.286	16.04
331.499	79.53
331.712	44.71
331.925	-2.39
332.138	20.14
332.35	67.24
332.563	34.47
332.776	118.44
332.989	57
333.202	20.14
333.414	-80.21
333.627	69.29
333.84	-14.68
334.053	36.52
334.265	48.81
334.478	22.19
334.691	3.75
334.903	-0.34
335.116	-14.68
335.329	7.85
335.541	32.43
335.754	114.34
335.966	7.85
336.179	46.76
336.392	-6.49
336.604	11.95
336.817	-2.39
337.029	18.09
337.242	38.57
337.454	50.86
337.667	-8.53
337.88	79.53
338.092	54.95
338.305	81.58
338.517	22.19
338.729	42.67
338.942	67.24
339.154	50.86
339.367	11.95
339.579	44.71
339.792	18.09
340.004	48.81
340.217	46.76
340.429	38.57
340.641	-26.96
340.854	-8.53
341.066	20.14
341.278	73.39
341.491	52.91
341.703	-14.68
341.915	-57.68
342.128	32.43
342.34	40.62
342.552	79.53
342.764	42.67
342.977	52.91
343.189	20.14
343.401	69.29
343.613	-6.49
343.826	28.33
344.038	-47.44
344.25	-4.44
344.462	114.34
344.674	63.15
344.886	38.57
345.099	52.91
345.311	-12.63
345.523	42.67
345.735	-8.53
345.947	36.52
346.159	81.58
346.371	18.09
346.583	-16.73
346.795	65.19
347.007	22.19
347.219	11.95
347.431	-31.06
347.643	52.91
347.855	-29.01
348.067	40.62
348.279	-18.77
348.491	-20.82
348.703	1.71
348.915	61.1
349.127	20.14
349.339	-26.96
349.551	5.8
349.763	83.63
349.975	38.57
350.187	30.38
350.399	40.62
350.61	-0.34
350.822	46.76
351.034	48.81
351.246	67.24
351.458	93.87
351.669	130.73
351.881	46.76
352.093	81.58
352.305	34.47
352.517	-4.44
352.728	36.52
352.94	-61.78
353.152	-18.77
353.363	28.33
353.575	-16.73
353.787	97.96
353.999	36.52
354.21	7.85
354.422	85.67
354.633	32.43
354.845	9.9
355.057	145.06
355.268	7.85
355.48	79.53
355.692	63.15
355.903	5.8
356.115	-31.06
356.326	13.99
356.538	128.68
356.749	32.43
356.961	52.91
357.172	-26.96
357.384	26.28
357.595	48.81
357.807	38.57
358.018	-12.63
358.23	34.47
358.441	38.57
358.653	87.72
358.864	30.38
359.075	52.91
359.287	122.54
359.498	22.19
359.709	54.95
359.921	52.91
360.132	-8.53
360.344	18.09
360.555	65.19
360.766	57
360.977	26.28
361.189	95.91
361.4	3.75
361.611	54.95
361.823	28.33
362.034	13.99
362.245	30.38
362.456	-8.53
362.667	-16.73
362.879	24.23
363.09	91.82
363.301	22.19
363.512	-14.68
363.723	-24.92
363.935	73.39
364.146	85.67
364.357	-6.49
364.568	38.57
364.779	-18.77
364.99	104.11
365.201	-31.06
365.412	79.53
365.623	7.85
365.834	7.85
366.045	-6.49
366.256	52.91
366.467	112.3
366.678	24.23
366.889	-8.53
367.1	28.33
367.311	122.54
367.522	50.86
367.733	65.19
367.944	-4.44
368.155	36.52
368.366	9.9
368.577	38.57
368.788	38.57
368.999	-12.63
369.209	46.76
369.42	57
369.631	116.39
369.842	61.1
370.053	-45.4
370.264	20.14
370.474	11.95
370.685	22.19
370.896	-18.77
371.107	18.09
371.317	61.1
371.528	-37.2
371.739	65.19
371.95	61.1
372.16	95.91
372.371	26.28
372.582	16.04
372.792	-22.87
373.003	106.15
373.214	32.43
373.424	-10.58
373.635	-33.11
373.846	95.91
374.056	77.48
374.267	18.09
374.477	48.81
374.688	-37.2
374.898	32.43
375.109	42.67
375.319	38.57
375.53	91.82
375.74	54.95
375.951	77.48
376.161	26.28
376.372	77.48
376.582	69.29
376.793	57
377.003	-4.44
377.214	36.52
377.424	24.23
377.635	69.29
377.845	24.23
378.055	24.23
378.266	34.47
378.476	-0.34
378.686	38.57
378.897	-14.68
379.107	11.95
379.317	59.05
379.528	89.77
379.738	61.1
379.948	-0.34
380.158	22.19
380.369	46.76
380.579	52.91
380.789	48.81
380.999	34.47
381.21	54.95
381.42	147.11
381.63	93.87
381.84	57
382.05	9.9
382.261	48.81
382.471	36.52
382.681	48.81
382.891	7.85
383.101	-33.11
383.311	-18.77
383.521	16.04
383.731	81.58
383.941	93.87
384.151	-29.01
384.361	-8.53
384.571	97.96
384.781	69.29
384.991	95.91
385.201	83.63
385.411	77.48
385.621	73.39
385.831	85.67
386.041	126.63
386.251	95.91
386.461	38.57
386.671	134.82
386.881	77.48
387.091	42.67
387.301	85.67
387.511	73.39
387.72	-2.39
387.93	79.53
388.14	9.9
388.35	102.06
388.56	40.62
388.769	20.14
388.979	145.06
389.189	11.95
389.399	40.62
389.609	73.39
389.818	59.05
390.028	83.63
390.238	9.9
390.447	67.24
390.657	87.72
390.867	18.09
391.076	-2.39
391.286	-8.53
391.496	124.58
391.705	85.67
391.915	155.3
392.125	73.39
392.334	-45.4
392.544	48.81
392.753	102.06
392.963	42.67
393.172	122.54
393.382	81.58
393.591	110.25
393.801	32.43
394.01	34.47
394.22	46.76
394.429	65.19
394.639	73.39
394.848	95.91
395.058	91.82
395.267	48.81
395.477	120.49
395.686	110.25
395.895	124.58
396.105	42.67
396.314	44.71
396.524	59.05
396.733	73.39
396.942	104.11
397.152	89.77
397.361	69.29
397.57	114.34
397.78	46.76
397.989	81.58
398.198	143.02
398.407	132.78
398.617	130.73
398.826	46.76
399.035	67.24
399.244	24.23
399.453	57
399.663	73.39
399.872	122.54
400.081	95.91
400.29	177.83
400.499	18.09
400.708	87.72
400.917	54.95
401.127	77.48
401.336	-0.34
401.545	83.63
401.754	75.43
401.963	108.2
402.172	136.87
402.381	145.06
402.59	124.58
402.799	153.26
403.008	81.58
403.217	81.58
403.426	192.17
403.635	177.83
403.844	183.98
404.053	75.43
404.262	147.11
404.471	171.69
404.68	147.11
404.888	93.87
405.097	169.64
405.306	138.92
405.515	104.11
405.724	116.39
405.933	175.78
406.142	108.2
406.35	169.64
406.559	181.93
406.768	147.11
406.977	202.41
407.185	229.03
407.394	153.26
407.603	175.78
407.812	204.46
408.02	206.5
408.229	186.02
408.438	222.89
408.646	245.41
408.855	251.56
409.064	257.7
409.272	274.09
409.481	308.9
409.69	243.37
409.898	280.23
410.107	333.48
410.315	417.44
410.524	269.99
410.733	306.85
410.941	388.77
411.15	364.2
411.358	384.68
411.567	425.64
411.775	374.44
411.984	429.73
412.192	384.68
412.401	425.64
412.609	474.79
412.818	460.45
413.026	532.13
413.234	554.66
413.443	523.94
413.651	546.47
413.86	585.38
414.068	628.39
414.276	671.39
414.485	667.3
414.693	597.67
414.901	695.97
415.11	761.5
415.318	716.45
415.526	781.98
415.734	728.74
415.943	822.94
416.151	888.48
416.359	947.87
416.567	931.48
416.776	882.33
416.984	915.1
417.192	980.64
417.4	1027.74
417.608	1064.6
417.817	1093.27
418.025	1121.95
418.233	1244.82
418.441	1222.3
418.649	1240.73
418.857	1250.97
419.065	1259.16
419.273	1334.93
419.481	1384.09
419.689	1552.02
419.897	1601.17
420.105	1502.87
420.313	1646.23
420.521	1740.43
420.729	1805.97
420.937	1797.78
421.145	1822.35
421.353	1898.13
421.561	1990.28
421.769	1982.09
421.977	2188.94
422.185	2094.73
422.393	2186.89
422.601	2467.46
422.809	2442.89
423.017	2426.5
423.224	2360.97
423.432	2596.48
423.64	2567.81
423.848	2797.18
424.056	2805.38
424.263	2913.92
424.471	2905.73
424.679	2961.02
424.887	3208.83
425.094	3391.09
425.302	3339.9
425.51	3473.01
425.718	3561.08
425.925	3686
426.133	3761.78
426.341	3858.03
426.548	4083.31
426.756	4007.53
426.964	4195.95
427.171	4572.77
427.379	4517.48
427.586	4521.57
427.794	4550.25
428.001	4839.01
428.209	5092.96
428.417	5047.9
428.624	5490.26
428.832	5525.08
429.039	5428.82
429.247	5434.97
429.454	5756.5
429.662	6174.28
429.869	5688.92
430.076	6227.53
430.284	6065.74
430.491	6391.37
430.699	6733.38
430.906	6684.23
431.114	6858.31
431.321	7116.35
431.528	7200.32
431.736	7806.52
431.943	8046.13
432.15	7808.56
432.358	7913.01
432.565	8478.25
432.772	8298.03
432.979	8752.68
433.187	8918.56
433.394	8949.28
433.601	9459.23
433.808	9698.84
434.016	9467.42
434.223	9786.9
434.43	10389
434.637	10452.49
434.844	10931.72
435.052	11343.36
435.259	11173.38
435.466	11159.04
435.673	10933.76
435.88	11779.57
436.087	12576.23
436.294	12539.37
436.501	12180.98
436.708	12340.72
436.915	12953.06
437.122	13389.28
437.329	13200.87
437.537	13702.62
437.743	14165.46
437.95	13747.67
438.157	14437.84
438.364	15154.63
438.571	15230.4
438.778	15029.7
438.985	16725.42
439.192	15996.34
439.399	16342.45
439.606	15928.76
439.813	16868.78
440.02	17905.05
440.227	17673.63
440.433	17483.17
440.64	18156.95
440.847	17917.34
441.054	18462.1
441.261	19699.07
441.467	19481.99
441.674	19922.3
441.881	20422
442.088	20473.2
442.294	20424.05
442.501	21024.11
442.708	21118.31
442.914	22054.23
443.121	22916.43
443.328	22545.75
443.534	24286.52
443.741	23174.47
443.948	22879.57
444.154	24732.98
444.361	24448.31
444.568	24931.63
444.774	24497.46
444.981	24767.79
445.187	25664.8
445.394	26531.09
445.6	26445.08
445.807	28943.6
446.013	27981.06
446.22	28251.39
446.426	29560.04
446.633	29508.84
446.839	30323.93
447.046	29162.73
447.252	30661.85
447.459	30905.56
447.665	31225.04
447.871	32339.13
448.078	33381.55
448.284	31751.37
448.491	32634.04
448.697	34004.13
448.903	34628.76
449.11	34768.02
449.316	34370.72
449.522	34493.6
449.728	35628.17
449.935	36390.02
450.141	35613.84
450.347	36660.35
450.553	35576.97
450.76	36316.29
450.966	37631.08
451.172	36953.21
451.378	37792.87
451.584	37203.06
451.791	37919.85
451.997	37551.21
452.203	38151.27
452.409	38376.55
452.615	38171.75
452.821	36435.07
453.027	36392.06
453.233	38528.09
453.44	37166.2
453.646	37235.83
453.852	37135.48
454.058	38149.22
454.264	36949.11
454.47	37813.35
454.676	37061.75
454.882	38042.73
455.088	34696.35
455.294	35175.57
455.5	35792.01
455.705	36273.28
455.911	34477.21
456.117	34276.51
456.323	34086.05
456.529	32302.27
456.735	33244.34
456.941	32277.69
457.147	31812.81
457.352	31194.32
457.558	30291.16
457.764	30829.78
457.97	30153.95
458.176	29439.21
458.381	29631.72
458.587	27905.28
458.793	27997.44
458.999	26250.52
459.204	28417.27
459.41	27313.42
459.616	26010.91
459.821	26127.64
460.027	25611.56
460.233	25287.98
460.438	23887.17
460.644	24188.22
460.85	23131.47
461.055	22707.54
461.261	22412.63
461.466	20936.04
461.672	20313.46
461.878	21908.83
462.083	20436.34
462.289	20147.58
462.494	19717.5
462.7	19051.91
462.905	18324.88
463.111	19166.6
463.316	19137.93
463.522	18412.95
463.727	18793.87
463.932	18795.92
464.138	18253.2
464.343	18621.84
464.549	17970.58
464.754	18693.52
464.959	18466.19
465.165	18111.89
465.37	17546.65
465.575	16938.41
465.781	17845.66
465.986	17780.12
466.191	17278.37
466.397	16911.78
466.602	16418.22
466.807	16891.3
467.012	16557.49
467.218	16801.19
467.423	16434.61
467.628	16686.51
