Data from USB4F104151__74__11-37-35-660.txt Node

Date: Fri Mar 14 11:37:35 EDT 2025
User: louis
Spectrometer: USB4F10415
Trigger mode: 4
Integration Time (sec): 2.000000E-2
Scans to average: 1
Electric dark correction enabled: true
Nonlinearity correction enabled: false
Boxcar width: 0
XAxis mode: Wavelengths
Number of Pixels in Spectrum: 3648
>>>>>Begin Spectral Data<<<<<
178.204	-50.86
178.424	-50.86
178.644	-50.86
178.864	-22.19
179.084	14.68
179.304	76.12
179.524	0.34
179.744	-13.99
179.964	43.35
180.184	-20.14
180.404	20.82
180.624	-9.9
180.844	-63.15
181.064	-32.43
181.283	4.44
181.503	-81.58
181.723	76.12
181.943	10.58
182.163	92.5
182.383	-54.95
182.602	4.44
182.822	-18.09
183.042	8.53
183.262	6.49
183.482	80.21
183.701	47.44
183.921	63.83
184.141	39.25
184.361	45.4
184.58	57.68
184.8	22.87
185.02	-24.23
185.239	-48.81
185.459	20.82
185.679	29.01
185.898	41.3
186.118	2.39
186.338	-16.04
186.557	72.02
186.777	41.3
186.997	49.49
187.216	33.11
187.436	43.35
187.655	84.31
187.875	22.87
188.095	53.59
188.314	82.26
188.534	-28.33
188.753	41.3
188.973	45.4
189.192	57.68
189.412	2.39
189.631	33.11
189.851	43.35
190.07	59.73
190.29	24.92
190.509	41.3
190.729	-16.04
190.948	90.45
191.168	104.79
191.387	74.07
191.607	-57
191.826	26.96
192.045	-42.67
192.265	-9.9
192.484	4.44
192.704	29.01
192.923	-13.99
193.142	94.55
193.362	53.59
193.581	22.87
193.8	98.64
194.02	-1.71
194.239	55.64
194.458	24.92
194.678	2.39
194.897	67.92
195.116	-26.28
195.335	78.16
195.555	22.87
195.774	39.25
195.993	88.4
196.212	-16.04
196.432	-1.71
196.651	29.01
196.87	29.01
197.089	86.36
197.308	4.44
197.528	149.84
197.747	69.97
197.966	-18.09
198.185	104.79
198.404	-1.71
198.623	72.02
198.842	84.31
199.062	108.88
199.281	35.16
199.5	37.2
199.719	65.88
199.938	-28.33
200.157	29.01
200.376	110.93
200.595	78.16
200.814	47.44
201.033	2.39
201.252	22.87
201.471	14.68
201.69	31.06
201.909	78.16
202.128	39.25
202.347	72.02
202.566	31.06
202.785	-1.71
203.004	33.11
203.223	43.35
203.442	69.97
203.661	31.06
203.879	-22.19
204.098	29.01
204.317	-50.86
204.536	22.87
204.755	10.58
204.974	72.02
205.193	47.44
205.411	84.31
205.63	57.68
205.849	-28.33
206.068	86.36
206.287	-30.38
206.505	31.06
206.724	57.68
206.943	6.49
207.162	26.96
207.381	59.73
207.599	33.11
207.818	18.77
208.037	16.73
208.255	-26.28
208.474	102.74
208.693	84.31
208.911	26.96
209.13	24.92
209.349	-13.99
209.567	12.63
209.786	59.73
210.005	26.96
210.223	-28.33
210.442	41.3
210.661	29.01
210.879	37.2
211.098	39.25
211.316	-28.33
211.535	65.88
211.753	-16.04
211.972	47.44
212.191	12.63
212.409	-40.62
212.628	47.44
212.846	53.59
213.065	35.16
213.283	35.16
213.502	-11.95
213.72	16.73
213.938	-73.39
214.157	-16.04
214.375	33.11
214.594	-18.09
214.812	-7.85
215.031	63.83
215.249	-22.19
215.467	57.68
215.686	47.44
215.904	24.92
216.122	-16.04
216.341	-9.9
216.559	-22.19
216.778	33.11
216.996	57.68
217.214	-18.09
217.432	43.35
217.651	-13.99
217.869	43.35
218.087	47.44
218.306	10.58
218.524	12.63
218.742	10.58
218.96	22.87
219.179	86.36
219.397	14.68
219.615	72.02
219.833	41.3
220.051	-13.99
220.27	24.92
220.488	86.36
220.706	106.84
220.924	41.3
221.142	37.2
221.36	33.11
221.578	82.26
221.796	24.92
222.015	-1.71
222.233	115.03
222.451	57.68
222.669	10.58
222.887	35.16
223.105	10.58
223.323	61.78
223.541	2.39
223.759	31.06
223.977	-13.99
224.195	51.54
224.413	90.45
224.631	-20.14
224.849	-34.47
225.067	55.64
225.285	-3.75
225.503	76.12
225.721	-30.38
225.939	96.6
226.157	76.12
226.375	31.06
226.592	0.34
226.81	67.92
227.028	74.07
227.246	67.92
227.464	41.3
227.682	45.4
227.9	26.96
228.117	18.77
228.335	-32.43
228.553	-40.62
228.771	33.11
228.989	84.31
229.206	-13.99
229.424	84.31
229.642	-3.75
229.86	43.35
230.077	90.45
230.295	12.63
230.513	57.68
230.731	121.17
230.948	74.07
231.166	-1.71
231.384	26.96
231.601	26.96
231.819	92.5
232.037	26.96
232.254	-3.75
232.472	39.25
232.689	-11.95
232.907	16.73
233.125	-24.23
233.342	63.83
233.56	41.3
233.777	2.39
233.995	-24.23
234.213	33.11
234.43	123.22
234.648	33.11
234.865	76.12
235.083	-44.71
235.3	76.12
235.518	22.87
235.735	49.49
235.953	37.2
236.17	53.59
236.388	37.2
236.605	45.4
236.822	-1.71
237.04	4.44
237.257	74.07
237.475	55.64
237.692	84.31
237.909	94.55
238.127	98.64
238.344	82.26
238.562	6.49
238.779	31.06
238.996	59.73
239.214	12.63
239.431	57.68
239.648	49.49
239.865	135.51
240.083	39.25
240.3	26.96
240.517	-59.05
240.735	59.73
240.952	47.44
241.169	24.92
241.386	41.3
241.603	74.07
241.821	24.92
242.038	22.87
242.255	76.12
242.472	35.16
242.689	90.45
242.907	29.01
243.124	37.2
243.341	59.73
243.558	-57
243.775	24.92
243.992	-22.19
244.209	12.63
244.426	61.78
244.643	18.77
244.86	84.31
245.078	59.73
245.295	-3.75
245.512	45.4
245.729	67.92
245.946	20.82
246.163	-22.19
246.38	14.68
246.597	69.97
246.814	92.5
247.031	-7.85
247.248	90.45
247.464	59.73
247.681	18.77
247.898	80.21
248.115	24.92
248.332	18.77
248.549	80.21
248.766	51.54
248.983	106.84
249.2	29.01
249.417	22.87
249.633	63.83
249.85	84.31
250.067	24.92
250.284	69.97
250.501	76.12
250.717	67.92
250.934	26.96
251.151	45.4
251.368	61.78
251.585	37.2
251.801	80.21
252.018	16.73
252.235	-5.8
252.451	-18.09
252.668	33.11
252.885	31.06
253.102	82.26
253.318	-1.71
253.535	31.06
253.752	26.96
253.968	-18.09
254.185	31.06
254.401	22.87
254.618	24.92
254.835	145.75
255.051	39.25
255.268	92.5
255.484	12.63
255.701	31.06
255.917	76.12
256.134	2.39
256.351	16.73
256.567	49.49
256.784	31.06
257	49.49
257.217	22.87
257.433	67.92
257.65	24.92
257.866	67.92
258.082	53.59
258.299	84.31
258.515	72.02
258.732	67.92
258.948	0.34
259.165	-5.8
259.381	74.07
259.597	100.69
259.814	35.16
260.03	-46.76
260.246	76.12
260.463	98.64
260.679	80.21
260.895	22.87
261.112	-13.99
261.328	59.73
261.544	76.12
261.761	69.97
261.977	84.31
262.193	72.02
262.409	67.92
262.626	84.31
262.842	-7.85
263.058	31.06
263.274	47.44
263.49	65.88
263.707	74.07
263.923	2.39
264.139	24.92
264.355	43.35
264.571	53.59
264.787	57.68
265.004	53.59
265.22	6.49
265.436	55.64
265.652	-28.33
265.868	43.35
266.084	22.87
266.3	33.11
266.516	18.77
266.732	43.35
266.948	-9.9
267.164	61.78
267.38	92.5
267.596	37.2
267.812	96.6
268.028	-9.9
268.244	74.07
268.46	33.11
268.676	-1.71
268.892	125.27
269.108	-5.8
269.324	2.39
269.54	-7.85
269.756	106.84
269.972	26.96
270.188	29.01
270.403	14.68
270.619	4.44
270.835	31.06
271.051	24.92
271.267	74.07
271.483	104.79
271.698	16.73
271.914	26.96
272.13	26.96
272.346	88.4
272.562	35.16
272.777	88.4
272.993	16.73
273.209	41.3
273.425	45.4
273.64	92.5
273.856	67.92
274.072	45.4
274.287	47.44
274.503	137.56
274.719	43.35
274.934	2.39
275.15	67.92
275.366	86.36
275.581	51.54
275.797	65.88
276.012	33.11
276.228	53.59
276.444	29.01
276.659	80.21
276.875	-1.71
277.09	29.01
277.306	78.16
277.521	39.25
277.737	76.12
277.952	45.4
278.168	67.92
278.383	-18.09
278.599	10.58
278.814	74.07
279.03	6.49
279.245	47.44
279.461	74.07
279.676	26.96
279.892	49.49
280.107	16.73
280.322	-13.99
280.538	31.06
280.753	35.16
280.969	78.16
281.184	6.49
281.399	69.97
281.615	26.96
281.83	-7.85
282.045	-3.75
282.26	41.3
282.476	108.88
282.691	92.5
282.906	-26.28
283.122	57.68
283.337	49.49
283.552	76.12
283.767	8.53
283.983	104.79
284.198	35.16
284.413	41.3
284.628	6.49
284.843	20.82
285.058	24.92
285.274	76.12
285.489	35.16
285.704	43.35
285.919	69.97
286.134	24.92
286.349	-22.19
286.564	55.64
286.779	20.82
286.995	82.26
287.21	-28.33
287.425	31.06
287.64	53.59
287.855	47.44
288.07	26.96
288.285	26.96
288.5	61.78
288.715	37.2
288.93	129.36
289.145	8.53
289.36	2.39
289.575	-65.19
289.79	31.06
290.004	-24.23
290.219	67.92
290.434	74.07
290.649	-1.71
290.864	29.01
291.079	2.39
291.294	45.4
291.509	59.73
291.724	-13.99
291.938	49.49
292.153	53.59
292.368	22.87
292.583	18.77
292.798	20.82
293.012	78.16
293.227	22.87
293.442	16.73
293.657	112.98
293.871	63.83
294.086	84.31
294.301	53.59
294.516	-16.04
294.73	12.63
294.945	45.4
295.16	12.63
295.374	69.97
295.589	115.03
295.804	82.26
296.018	37.2
296.233	59.73
296.447	-5.8
296.662	6.49
296.877	74.07
297.091	121.17
297.306	-20.14
297.52	14.68
297.735	110.93
297.949	57.68
298.164	53.59
298.378	53.59
298.593	51.54
298.807	16.73
299.022	39.25
299.236	143.7
299.451	67.92
299.665	31.06
299.88	-26.28
300.094	43.35
300.309	51.54
300.523	59.73
300.737	10.58
300.952	76.12
301.166	47.44
301.381	39.25
301.595	-20.14
301.809	8.53
302.024	-5.8
302.238	-32.43
302.452	39.25
302.667	-5.8
302.881	102.74
303.095	-3.75
303.309	59.73
303.524	76.12
303.738	24.92
303.952	74.07
304.166	20.82
304.381	-7.85
304.595	76.12
304.809	61.78
305.023	63.83
305.237	92.5
305.452	16.73
305.666	-28.33
305.88	59.73
306.094	61.78
306.308	51.54
306.522	76.12
306.736	78.16
306.95	86.36
307.164	4.44
307.379	-1.71
307.593	96.6
307.807	18.77
308.021	-5.8
308.235	24.92
308.449	26.96
308.663	88.4
308.877	119.12
309.091	67.92
309.305	33.11
309.519	-9.9
309.733	80.21
309.947	-42.67
310.161	35.16
310.374	-18.09
310.588	119.12
310.802	-50.86
311.016	43.35
311.23	24.92
311.444	59.73
311.658	47.44
311.872	18.77
312.085	84.31
312.299	41.3
312.513	49.49
312.727	49.49
312.941	35.16
313.154	76.12
313.368	61.78
313.582	35.16
313.796	22.87
314.009	45.4
314.223	39.25
314.437	65.88
314.651	49.49
314.864	57.68
315.078	108.88
315.292	55.64
315.505	-11.95
315.719	10.58
315.933	57.68
316.146	26.96
316.36	-5.8
316.573	67.92
316.787	49.49
317.001	41.3
317.214	24.92
317.428	100.69
317.641	86.36
317.855	35.16
318.068	10.58
318.282	104.79
318.495	102.74
318.709	55.64
318.922	86.36
319.136	76.12
319.349	20.82
319.563	57.68
319.776	41.3
319.99	41.3
320.203	22.87
320.417	35.16
320.63	53.59
320.843	67.92
321.057	61.78
321.27	82.26
321.483	20.82
321.697	67.92
321.91	37.2
322.124	49.49
322.337	18.77
322.55	2.39
322.763	76.12
322.977	61.78
323.19	61.78
323.403	41.3
323.617	43.35
323.83	69.97
324.043	39.25
324.256	65.88
324.469	45.4
324.683	78.16
324.896	125.27
325.109	31.06
325.322	-16.04
325.535	35.16
325.748	115.03
325.962	57.68
326.175	80.21
326.388	86.36
326.601	51.54
326.814	-5.8
327.027	22.87
327.24	92.5
327.453	63.83
327.666	2.39
327.879	33.11
328.092	102.74
328.305	18.77
328.518	26.96
328.731	-5.8
328.944	53.59
329.157	98.64
329.37	80.21
329.583	100.69
329.796	61.78
330.009	100.69
330.222	94.55
330.435	92.5
330.648	4.44
330.861	41.3
331.073	-1.71
331.286	31.06
331.499	88.4
331.712	-28.33
331.925	65.88
332.138	18.77
332.35	49.49
332.563	61.78
332.776	158.03
332.989	-22.19
333.202	0.34
333.414	0.34
333.627	37.2
333.84	47.44
334.053	24.92
334.265	53.59
334.478	-9.9
334.691	12.63
334.903	59.73
335.116	41.3
335.329	49.49
335.541	8.53
335.754	51.54
335.966	65.88
336.179	29.01
336.392	39.25
336.604	-7.85
336.817	41.3
337.029	49.49
337.242	90.45
337.454	24.92
337.667	47.44
337.88	-5.8
338.092	41.3
338.305	86.36
338.517	4.44
338.729	72.02
338.942	16.73
339.154	78.16
339.367	8.53
339.579	6.49
339.792	8.53
340.004	69.97
340.217	18.77
340.429	76.12
340.641	-20.14
340.854	6.49
341.066	69.97
341.278	43.35
341.491	141.65
341.703	100.69
341.915	14.68
342.128	59.73
342.34	59.73
342.552	53.59
342.764	35.16
342.977	123.22
343.189	22.87
343.401	14.68
343.613	59.73
343.826	39.25
344.038	63.83
344.25	63.83
344.462	51.54
344.674	82.26
344.886	96.6
345.099	82.26
345.311	139.6
345.523	53.59
345.735	51.54
345.947	88.4
346.159	14.68
346.371	51.54
346.583	31.06
346.795	53.59
347.007	24.92
347.219	18.77
347.431	-22.19
347.643	80.21
347.855	18.77
348.067	92.5
348.279	51.54
348.491	41.3
348.703	55.64
348.915	61.78
349.127	8.53
349.339	63.83
349.551	53.59
349.763	20.82
349.975	-1.71
350.187	90.45
350.399	39.25
350.61	8.53
350.822	10.58
351.034	78.16
351.246	4.44
351.458	67.92
351.669	65.88
351.881	10.58
352.093	76.12
352.305	125.27
352.517	84.31
352.728	57.68
352.94	72.02
353.152	35.16
353.363	12.63
353.575	26.96
353.787	74.07
353.999	20.82
354.21	108.88
354.422	22.87
354.633	86.36
354.845	-18.09
355.057	31.06
355.268	63.83
355.48	31.06
355.692	4.44
355.903	14.68
356.115	-18.09
356.326	51.54
356.538	39.25
356.749	69.97
356.961	80.21
357.172	2.39
357.384	61.78
357.595	88.4
357.807	61.78
358.018	-1.71
358.23	74.07
358.441	100.69
358.653	33.11
358.864	49.49
359.075	18.77
359.287	61.78
359.498	92.5
359.709	33.11
359.921	65.88
360.132	18.77
360.344	96.6
360.555	67.92
360.766	59.73
360.977	24.92
361.189	82.26
361.4	84.31
361.611	174.42
361.823	43.35
362.034	-7.85
362.245	43.35
362.456	55.64
362.667	6.49
362.879	45.4
363.09	80.21
363.301	22.87
363.512	55.64
363.723	92.5
363.935	96.6
364.146	115.03
364.357	55.64
364.568	112.98
364.779	55.64
364.99	84.31
365.201	39.25
365.412	92.5
365.623	0.34
365.834	43.35
366.045	88.4
366.256	90.45
366.467	10.58
366.678	67.92
366.889	43.35
367.1	106.84
367.311	88.4
367.522	84.31
367.733	39.25
367.944	100.69
368.155	41.3
368.366	63.83
368.577	76.12
368.788	127.32
368.999	90.45
369.209	43.35
369.42	2.39
369.631	86.36
369.842	65.88
370.053	110.93
370.264	16.73
370.474	-5.8
370.685	33.11
370.896	108.88
371.107	2.39
371.317	88.4
371.528	43.35
371.739	55.64
371.95	12.63
372.16	80.21
372.371	63.83
372.582	14.68
372.792	18.77
373.003	155.99
373.214	72.02
373.424	59.73
373.635	98.64
373.846	51.54
374.056	49.49
374.267	65.88
374.477	59.73
374.688	61.78
374.898	82.26
375.109	65.88
375.319	100.69
375.53	65.88
375.74	88.4
375.951	76.12
376.161	63.83
376.372	80.21
376.582	45.4
376.793	35.16
377.003	35.16
377.214	-3.75
377.424	78.16
377.635	106.84
377.845	61.78
378.055	63.83
378.266	63.83
378.476	16.73
378.686	24.92
378.897	96.6
379.107	125.27
379.317	59.73
379.528	47.44
379.738	74.07
379.948	112.98
380.158	67.92
380.369	76.12
380.579	106.84
380.789	16.73
380.999	67.92
381.21	82.26
381.42	160.08
381.63	57.68
381.84	78.16
382.05	61.78
382.261	55.64
382.471	137.56
382.681	74.07
382.891	45.4
383.101	74.07
383.311	43.35
383.521	53.59
383.731	59.73
383.941	47.44
384.151	22.87
384.361	29.01
384.571	98.64
384.781	43.35
384.991	63.83
385.201	35.16
385.411	47.44
385.621	10.58
385.831	61.78
386.041	51.54
386.251	-40.62
386.461	96.6
386.671	51.54
386.881	49.49
387.091	31.06
387.301	88.4
387.511	127.32
387.72	160.08
387.93	78.16
388.14	43.35
388.35	67.92
388.56	125.27
388.769	90.45
388.979	123.22
389.189	45.4
389.399	63.83
389.609	115.03
389.818	115.03
390.028	57.68
390.238	112.98
390.447	115.03
390.657	180.56
390.867	104.79
391.076	55.64
391.286	72.02
391.496	92.5
391.705	51.54
391.915	141.65
392.125	59.73
392.334	110.93
392.544	115.03
392.753	125.27
392.963	67.92
393.172	74.07
393.382	82.26
393.591	82.26
393.801	92.5
394.01	147.8
394.22	125.27
394.429	88.4
394.639	88.4
394.848	141.65
395.058	43.35
395.267	121.17
395.477	131.41
395.686	67.92
395.895	112.98
396.105	141.65
396.314	88.4
396.524	192.85
396.733	96.6
396.942	151.89
397.152	168.27
397.361	117.08
397.57	176.47
397.78	92.5
397.989	100.69
398.198	158.03
398.407	155.99
398.617	41.3
398.826	92.5
399.035	129.36
399.244	96.6
399.453	172.37
399.663	61.78
399.872	125.27
400.081	119.12
400.29	102.74
400.499	104.79
400.708	158.03
400.917	94.55
401.127	184.66
401.336	80.21
401.545	201.04
401.754	174.42
401.963	115.03
402.172	164.18
402.381	174.42
402.59	178.51
402.799	155.99
403.008	153.94
403.217	188.75
403.426	164.18
403.635	78.16
403.844	141.65
404.053	123.22
404.262	115.03
404.471	194.9
404.68	192.85
404.888	190.8
405.097	198.99
405.306	205.14
405.515	188.75
405.724	256.34
405.933	190.8
406.142	217.43
406.35	155.99
406.559	270.67
406.768	170.32
406.977	289.1
407.185	213.33
407.394	325.97
407.603	166.23
407.812	244.05
408.02	192.85
408.229	264.53
408.438	246.1
408.646	262.48
408.855	315.73
409.064	301.39
409.272	278.87
409.481	346.45
409.69	301.39
409.898	364.88
410.107	235.86
410.315	385.36
410.524	391.5
410.733	418.13
410.941	428.37
411.15	391.5
411.358	491.85
411.567	500.05
411.775	463.18
411.984	430.41
412.192	534.86
412.401	512.33
412.609	528.72
412.818	569.68
413.026	606.54
413.234	622.92
413.443	567.63
413.651	649.55
413.86	606.54
414.068	655.69
414.276	717.13
414.485	727.37
414.693	788.81
414.901	735.56
415.11	829.77
415.318	745.8
415.526	860.49
415.734	821.58
415.943	1018.18
416.151	952.65
416.359	1001.8
416.567	1098.05
416.776	1087.81
416.984	1145.16
417.192	1114.44
417.4	1079.62
417.608	1059.14
417.817	1173.83
418.025	1349.95
418.233	1364.29
418.441	1358.14
418.649	1382.72
418.857	1468.73
419.065	1521.98
419.273	1427.78
419.481	1534.27
419.689	1657.15
419.897	1814.84
420.105	1712.44
420.313	1841.47
420.521	1878.33
420.729	1894.71
420.937	1929.53
421.145	2040.12
421.353	2154.8
421.561	2177.33
421.769	2341.17
421.977	2308.4
422.185	2261.3
422.393	2591.02
422.601	2677.04
422.809	2621.74
423.017	2668.84
423.224	2599.21
423.432	2873.64
423.64	2990.38
423.848	3111.21
424.056	3184.93
424.263	3287.33
424.471	3242.28
424.679	3383.59
424.887	3463.46
425.094	3610.91
425.302	3672.35
425.51	3701.02
425.718	3901.72
425.925	3934.49
426.133	4057.37
426.341	4358.42
426.548	4503.82
426.756	4548.88
426.964	4507.92
427.171	4884.75
427.379	5064.97
427.586	5134.6
427.794	5200.13
428.001	5474.56
428.209	5810.43
428.417	5576.96
428.624	5941.5
428.832	6103.29
429.039	5796.09
429.247	6039.8
429.454	6523.12
429.662	6717.68
429.869	6543.6
430.076	7022.83
430.284	6809.84
430.491	6969.58
430.699	7334.12
430.906	7389.41
431.114	7567.59
431.321	7739.62
431.528	7876.83
431.736	8456.4
431.943	8870.09
432.15	8675.54
432.358	8798.42
432.565	9146.57
432.772	9285.83
432.979	9545.92
433.187	9771.2
433.394	9752.77
433.601	10539.19
433.808	10604.72
434.016	10354.87
434.223	10948.78
434.43	11493.54
434.637	11460.77
434.844	12079.26
435.052	12171.42
435.259	12183.71
435.466	12417.18
435.673	12300.44
435.88	13111.44
436.087	13680.77
436.294	13686.92
436.501	13338.76
436.708	13682.82
436.915	13901.95
437.122	14823.54
437.329	14534.78
437.537	15321.2
437.743	15102.06
437.95	15247.47
438.157	16009.31
438.364	16758.87
438.571	16539.74
438.778	16689.24
438.985	17991.75
439.192	17336.4
439.399	18055.23
439.606	17596.49
439.813	18466.88
440.02	19777.58
440.227	19404.85
440.433	19126.32
440.64	19537.96
440.847	19816.49
441.054	20224.03
441.261	21403.66
441.467	21207.06
441.674	21561.36
441.881	22392.83
442.088	22550.53
442.294	22153.22
442.501	22931.45
442.708	23240.69
442.914	24350.69
443.121	25184.21
443.328	24477.66
443.534	26304.45
443.741	25694.16
443.948	25151.45
444.154	27160.5
444.361	27047.86
444.568	27176.89
444.774	27031.48
444.981	27320.24
445.187	28202.92
445.394	29380.5
445.6	29046.68
445.807	31551.35
446.013	30576.51
446.22	31080.32
446.426	32030.57
446.633	32466.79
446.839	33318.74
447.046	32149.35
447.252	34025.29
447.459	33933.14
447.665	33709.91
447.871	35245.88
448.078	36888.35
448.284	34948.93
448.491	36028.21
448.697	37213.98
448.903	37654.29
449.11	38158.1
449.316	37426.97
449.522	38250.25
449.728	38942.47
449.935	39409.4
450.141	39261.95
450.347	40437.48
450.553	38768.39
450.76	39147.26
450.966	40449.77
451.172	40296.17
451.378	41012.96
451.584	40507.12
451.791	41344.73
451.997	41098.98
452.203	41778.9
452.409	42030.8
452.615	41379.55
452.821	40306.41
453.027	40046.32
453.233	42041.04
453.44	40537.83
453.646	40918.76
453.852	40470.25
454.058	41303.78
454.264	40310.51
454.47	40990.44
454.676	40027.89
454.882	41443.04
455.088	38082.32
455.294	38219.53
455.5	38561.54
455.705	39177.98
455.911	37617.43
456.117	37091.1
456.323	36470.57
456.529	34516.81
456.735	36007.73
456.941	35180.35
457.147	34516.81
457.352	33873.74
457.558	33513.3
457.764	33419.1
457.97	33095.52
458.176	31948.65
458.381	31612.79
458.587	30584.71
458.793	30230.41
458.999	28735.39
459.204	30963.58
459.41	30242.7
459.616	28207.01
459.821	28422.05
460.027	28170.15
460.233	27678.64
460.438	25798.6
460.644	26527.68
460.85	25364.43
461.055	24801.24
461.261	24600.54
461.466	22499.33
461.672	22175.75
461.878	23941.1
462.083	22296.58
462.289	21913.61
462.494	21377.04
462.7	20615.19
462.905	20148.26
463.111	20731.93
463.316	20822.04
463.522	20082.72
463.727	20484.12
463.932	20588.57
464.138	20097.06
464.343	20451.36
464.549	19945.51
464.754	20060.2
464.959	20101.15
465.165	20006.95
465.37	19118.13
465.575	18587.71
465.781	19626.03
465.986	19558.44
466.191	18581.56
466.397	18262.08
466.602	17205.33
466.807	18421.82
467.012	18079.81
467.218	18053.19
467.423	17817.67
467.628	18276.41
467.833	18784.31
