Data from USB4F104151__24__11-36-35-207.txt Node

Date: Fri Mar 14 11:36:35 EDT 2025
User: louis
Spectrometer: USB4F10415
Trigger mode: 4
Integration Time (sec): 2.000000E-2
Scans to average: 1
Electric dark correction enabled: true
Nonlinearity correction enabled: false
Boxcar width: 0
XAxis mode: Wavelengths
Number of Pixels in Spectrum: 3648
>>>>>Begin Spectral Data<<<<<
178.204	-47.96
178.424	-47.96
178.644	-47.96
178.864	-99.16
179.084	-72.53
179.304	-39.76
179.524	-25.43
179.744	-45.91
179.964	44.2
180.184	29.87
180.404	-25.43
180.624	74.92
180.844	-21.33
181.064	-58.2
181.283	44.2
181.503	-39.76
181.723	62.63
181.943	3.24
182.163	-39.76
182.383	5.29
182.602	40.11
182.822	27.82
183.042	-52.05
183.262	74.92
183.482	76.97
183.701	-19.29
183.921	-35.67
184.141	46.25
184.361	-13.14
184.58	17.58
184.8	44.2
185.02	23.72
185.239	36.01
185.459	-37.72
185.679	19.63
185.898	-50
186.118	29.87
186.338	19.63
186.557	52.39
186.777	-56.15
186.997	-39.76
187.216	-82.77
187.436	105.64
187.655	62.63
187.875	27.82
188.095	-17.24
188.314	40.11
188.534	83.11
188.753	-41.81
188.973	-9.05
189.192	-25.43
189.412	46.25
189.631	-41.81
189.851	23.72
190.07	40.11
190.29	36.01
190.509	111.78
190.729	-23.38
190.948	33.96
191.168	85.16
191.387	5.29
191.607	-11.09
191.826	-50
192.045	36.01
192.265	-27.48
192.484	-25.43
192.704	50.35
192.923	-21.33
193.142	31.91
193.362	-13.14
193.581	42.15
193.8	60.59
194.02	-4.95
194.239	3.24
194.458	7.34
194.678	19.63
194.897	46.25
195.116	-50
195.335	74.92
195.555	-29.52
195.774	33.96
195.993	27.82
196.212	1.19
196.432	-31.57
196.651	-45.91
196.87	9.39
197.089	52.39
197.308	-39.76
197.528	-13.14
197.747	19.63
197.966	-31.57
198.185	113.83
198.404	3.24
198.623	-56.15
198.842	-13.14
199.062	58.54
199.281	17.58
199.5	-70.48
199.719	-103.25
199.938	-43.86
200.157	-70.48
200.376	36.01
200.595	36.01
200.814	48.3
201.033	-37.72
201.252	-9.05
201.471	3.24
201.69	-56.15
201.909	-37.72
202.128	9.39
202.347	50.35
202.566	-66.39
202.785	-41.81
203.004	-45.91
203.223	36.01
203.442	31.91
203.661	7.34
203.879	-29.52
204.098	25.77
204.317	-21.33
204.536	11.43
204.755	-25.43
204.974	-0.85
205.193	-2.9
205.411	5.29
205.63	21.67
205.849	31.91
206.068	54.44
206.287	-15.19
206.505	83.11
206.724	-54.1
206.943	27.82
207.162	62.63
207.381	7.34
207.599	48.3
207.818	27.82
208.037	-19.29
208.255	-37.72
208.474	31.91
208.693	-45.91
208.911	-13.14
209.13	-19.29
209.349	-7
209.567	3.24
209.786	76.97
210.005	-50
210.223	31.91
210.442	11.43
210.661	11.43
210.879	68.78
211.098	5.29
211.316	42.15
211.535	38.06
211.753	-23.38
211.972	25.77
212.191	-39.76
212.409	-7
212.628	21.67
212.846	17.58
213.065	27.82
213.283	38.06
213.502	-31.57
213.72	3.24
213.938	27.82
214.157	-2.9
214.375	-21.33
214.594	40.11
214.812	15.53
215.031	105.64
215.249	-31.57
215.467	-23.38
215.686	-52.05
215.904	13.48
216.122	-17.24
216.341	-13.14
216.559	19.63
216.778	74.92
216.996	15.53
217.214	-31.57
217.432	-68.44
217.651	11.43
217.869	44.2
218.087	15.53
218.306	25.77
218.524	-13.14
218.742	-78.68
218.96	107.69
219.179	-21.33
219.397	-41.81
219.615	56.49
219.833	27.82
220.051	44.2
220.27	50.35
220.488	42.15
220.706	42.15
220.924	-13.14
221.142	-23.38
221.36	-19.29
221.578	17.58
221.796	-43.86
222.015	36.01
222.233	9.39
222.451	95.4
222.669	46.25
222.887	-15.19
223.105	-111.44
223.323	-58.2
223.541	3.24
223.759	-9.05
223.977	-37.72
224.195	11.43
224.413	56.49
224.631	48.3
224.849	17.58
225.067	74.92
225.285	-74.58
225.503	-9.05
225.721	-54.1
225.939	27.82
226.157	33.96
226.375	48.3
226.592	31.91
226.81	17.58
227.028	-123.73
227.246	19.63
227.464	9.39
227.682	-17.24
227.9	25.77
228.117	-45.91
228.335	-2.9
228.553	15.53
228.771	5.29
228.989	66.73
229.206	-21.33
229.424	44.2
229.642	1.19
229.86	33.96
230.077	11.43
230.295	33.96
230.513	64.68
230.731	11.43
230.948	54.44
231.166	-9.05
231.384	107.69
231.601	48.3
231.819	3.24
232.037	-13.14
232.254	-80.72
232.472	-4.95
232.689	-39.76
232.907	23.72
233.125	-4.95
233.342	-88.92
233.56	97.45
233.777	-25.43
233.995	-60.24
234.213	70.83
234.43	-4.95
234.648	15.53
234.865	-11.09
235.083	-0.85
235.3	-33.62
235.518	-13.14
235.735	36.01
235.953	25.77
236.17	-17.24
236.388	9.39
236.605	-7
236.822	95.4
237.04	19.63
237.257	36.01
237.475	-33.62
237.692	15.53
237.909	76.97
238.127	-29.52
238.344	-15.19
238.562	25.77
238.779	31.91
238.996	1.19
239.214	29.87
239.431	-33.62
239.648	36.01
239.865	-23.38
240.083	-21.33
240.3	-2.9
240.517	3.24
240.735	13.48
240.952	33.96
241.169	7.34
241.386	36.01
241.603	7.34
241.821	7.34
242.038	-33.62
242.255	-21.33
242.472	42.15
242.689	17.58
242.907	3.24
243.124	-47.96
243.341	-21.33
243.558	-4.95
243.775	-19.29
243.992	-64.34
244.209	-17.24
244.426	3.24
244.643	21.67
244.86	-0.85
245.078	27.82
245.295	27.82
245.512	50.35
245.729	-21.33
245.946	44.2
246.163	11.43
246.38	27.82
246.597	21.67
246.814	-25.43
247.031	1.19
247.248	44.2
247.464	25.77
247.681	15.53
247.898	-13.14
248.115	-43.86
248.332	-19.29
248.549	25.77
248.766	19.63
248.983	50.35
249.2	11.43
249.417	-29.52
249.633	-37.72
249.85	60.59
250.067	-29.52
250.284	40.11
250.501	66.73
250.717	48.3
250.934	5.29
251.151	15.53
251.368	46.25
251.585	52.39
251.801	-33.62
252.018	93.35
252.235	11.43
252.451	13.48
252.668	-4.95
252.885	46.25
253.102	46.25
253.318	9.39
253.535	-43.86
253.752	-13.14
253.968	25.77
254.185	9.39
254.401	15.53
254.618	40.11
254.835	60.59
255.051	54.44
255.268	31.91
255.484	25.77
255.701	-7
255.917	-21.33
256.134	60.59
256.351	48.3
256.567	-99.16
256.784	17.58
257	-23.38
257.217	23.72
257.433	-25.43
257.65	-23.38
257.866	11.43
258.082	27.82
258.299	-9.05
258.515	79.02
258.732	-56.15
258.948	-17.24
259.165	31.91
259.381	7.34
259.597	50.35
259.814	-17.24
260.03	44.2
260.246	7.34
260.463	11.43
260.679	3.24
260.895	-17.24
261.112	5.29
261.328	1.19
261.544	-41.81
261.761	25.77
261.977	11.43
262.193	44.2
262.409	70.83
262.626	9.39
262.842	-25.43
263.058	15.53
263.274	38.06
263.49	-2.9
263.707	40.11
263.923	76.97
264.139	-23.38
264.355	11.43
264.571	93.35
264.787	-4.95
265.004	-13.14
265.22	11.43
265.436	-9.05
265.652	25.77
265.868	-29.52
266.084	-39.76
266.3	9.39
266.516	17.58
266.732	-50
266.948	-25.43
267.164	7.34
267.38	-25.43
267.596	36.01
267.812	-4.95
268.028	-35.67
268.244	11.43
268.46	-13.14
268.676	25.77
268.892	-11.09
269.108	38.06
269.324	3.24
269.54	-7
269.756	21.67
269.972	1.19
270.188	-56.15
270.403	-41.81
270.619	15.53
270.835	50.35
271.051	40.11
271.267	3.24
271.483	48.3
271.698	48.3
271.914	-31.57
272.13	48.3
272.346	66.73
272.562	15.53
272.777	-7
272.993	3.24
273.209	11.43
273.425	-15.19
273.64	13.48
273.856	9.39
274.072	-33.62
274.287	-47.96
274.503	68.78
274.719	11.43
274.934	-78.68
275.15	-76.63
275.366	-15.19
275.581	50.35
275.797	15.53
276.012	13.48
276.228	5.29
276.444	52.39
276.659	58.54
276.875	-80.72
277.09	48.3
277.306	15.53
277.521	3.24
277.737	-29.52
277.952	-13.14
278.168	56.49
278.383	-54.1
278.599	66.73
278.814	33.96
279.03	-37.72
279.245	60.59
279.461	83.11
279.676	44.2
279.892	11.43
280.107	-13.14
280.322	11.43
280.538	15.53
280.753	62.63
280.969	-4.95
281.184	25.77
281.399	50.35
281.615	15.53
281.83	3.24
282.045	27.82
282.26	-41.81
282.476	58.54
282.691	68.78
282.906	19.63
283.122	60.59
283.337	11.43
283.552	58.54
283.767	29.87
283.983	-7
284.198	15.53
284.413	33.96
284.628	-62.29
284.843	1.19
285.058	38.06
285.274	-41.81
285.489	7.34
285.704	9.39
285.919	-23.38
286.134	-17.24
286.349	50.35
286.564	40.11
286.779	64.68
286.995	17.58
287.21	-64.34
287.425	-19.29
287.64	-68.44
287.855	60.59
288.07	7.34
288.285	58.54
288.5	-13.14
288.715	46.25
288.93	54.44
289.145	-31.57
289.36	-39.76
289.575	56.49
289.79	3.24
290.004	-9.05
290.219	-17.24
290.434	52.39
290.649	7.34
290.864	11.43
291.079	-11.09
291.294	27.82
291.509	54.44
291.724	-39.76
291.938	-13.14
292.153	-13.14
292.368	-43.86
292.583	42.15
292.798	-0.85
293.012	7.34
293.227	-35.67
293.442	13.48
293.657	13.48
293.871	-2.9
294.086	31.91
294.301	15.53
294.516	60.59
294.73	-7
294.945	-19.29
295.16	27.82
295.374	91.31
295.589	-54.1
295.804	-62.29
296.018	72.87
296.233	64.68
296.447	40.11
296.662	1.19
296.877	3.24
297.091	-19.29
297.306	9.39
297.52	58.54
297.735	-7
297.949	1.19
298.164	46.25
298.378	-21.33
298.593	-13.14
298.807	29.87
299.022	36.01
299.236	48.3
299.451	44.2
299.665	44.2
299.88	-45.91
300.094	3.24
300.309	7.34
300.523	-2.9
300.737	81.07
300.952	17.58
301.166	-54.1
301.381	25.77
301.595	-21.33
301.809	5.29
302.024	38.06
302.238	-15.19
302.452	74.92
302.667	21.67
302.881	25.77
303.095	-7
303.309	-76.63
303.524	-25.43
303.738	36.01
303.952	46.25
304.166	-11.09
304.381	-23.38
304.595	23.72
304.809	1.19
305.023	-23.38
305.237	17.58
305.452	19.63
305.666	29.87
305.88	66.73
306.094	29.87
306.308	9.39
306.522	-4.95
306.736	68.78
306.95	21.67
307.164	5.29
307.379	-33.62
307.593	42.15
307.807	-54.1
308.021	1.19
308.235	-31.57
308.449	-27.48
308.663	33.96
308.877	-7
309.091	42.15
309.305	-21.33
309.519	-50
309.733	46.25
309.947	-70.48
310.161	23.72
310.374	-27.48
310.588	-23.38
310.802	-37.72
311.016	19.63
311.23	-0.85
311.444	-33.62
311.658	60.59
311.872	3.24
312.085	-23.38
312.299	36.01
312.513	68.78
312.727	40.11
312.941	-50
313.154	44.2
313.368	11.43
313.582	-13.14
313.796	36.01
314.009	29.87
314.223	-31.57
314.437	-13.14
314.651	38.06
314.864	50.35
315.078	27.82
315.292	-90.96
315.505	-13.14
315.719	68.78
315.933	-2.9
316.146	11.43
316.36	15.53
316.573	33.96
316.787	76.97
317.001	33.96
317.214	-27.48
317.428	42.15
317.641	1.19
317.855	-7
318.068	44.2
318.282	-62.29
318.495	-2.9
318.709	46.25
318.922	-35.67
319.136	74.92
319.349	9.39
319.563	15.53
319.776	13.48
319.99	21.67
320.203	76.97
320.417	-21.33
320.63	76.97
320.843	-33.62
321.057	83.11
321.27	-4.95
321.483	-0.85
321.697	46.25
321.91	58.54
322.124	66.73
322.337	64.68
322.55	-2.9
322.763	25.77
322.977	25.77
323.19	27.82
323.403	3.24
323.617	52.39
323.83	40.11
324.043	-21.33
324.256	68.78
324.469	56.49
324.683	44.2
324.896	33.96
325.109	9.39
325.322	64.68
325.535	7.34
325.748	-45.91
325.962	-45.91
326.175	17.58
326.388	5.29
326.601	-2.9
326.814	17.58
327.027	-0.85
327.24	48.3
327.453	44.2
327.666	60.59
327.879	15.53
328.092	56.49
328.305	64.68
328.518	23.72
328.731	9.39
328.944	-78.68
329.157	-7
329.37	7.34
329.583	19.63
329.796	25.77
330.009	42.15
330.222	3.24
330.435	44.2
330.648	44.2
330.861	-4.95
331.073	7.34
331.286	21.67
331.499	-2.9
331.712	23.72
331.925	-23.38
332.138	11.43
332.35	66.73
332.563	9.39
332.776	9.39
332.989	-62.29
333.202	15.53
333.414	3.24
333.627	-4.95
333.84	52.39
334.053	7.34
334.265	21.67
334.478	-0.85
334.691	81.07
334.903	-17.24
335.116	17.58
335.329	19.63
335.541	93.35
335.754	33.96
335.966	3.24
336.179	-9.05
336.392	-4.95
336.604	29.87
336.817	3.24
337.029	-25.43
337.242	27.82
337.454	-4.95
337.667	11.43
337.88	27.82
338.092	64.68
338.305	46.25
338.517	-17.24
338.729	-13.14
338.942	83.11
339.154	31.91
339.367	13.48
339.579	101.55
339.792	-47.96
340.004	3.24
340.217	-23.38
340.429	48.3
340.641	9.39
340.854	70.83
341.066	-78.68
341.278	17.58
341.491	25.77
341.703	29.87
341.915	1.19
342.128	66.73
342.34	-13.14
342.552	17.58
342.764	13.48
342.977	44.2
343.189	50.35
343.401	5.29
343.613	-27.48
343.826	25.77
344.038	-7
344.25	9.39
344.462	-19.29
344.674	11.43
344.886	-35.67
345.099	-15.19
345.311	31.91
345.523	46.25
345.735	25.77
345.947	-13.14
346.159	36.01
346.371	-4.95
346.583	1.19
346.795	25.77
347.007	52.39
347.219	23.72
347.431	27.82
347.643	48.3
347.855	-11.09
348.067	60.59
348.279	-78.68
348.491	-19.29
348.703	109.74
348.915	19.63
349.127	66.73
349.339	33.96
349.551	11.43
349.763	48.3
349.975	7.34
350.187	58.54
350.399	81.07
350.61	89.26
350.822	1.19
351.034	70.83
351.246	19.63
351.458	13.48
351.669	-41.81
351.881	-25.43
352.093	97.45
352.305	56.49
352.517	27.82
352.728	66.73
352.94	36.01
353.152	17.58
353.363	1.19
353.575	109.74
353.787	-29.52
353.999	-25.43
354.21	-33.62
354.422	50.35
354.633	-13.14
354.845	46.25
355.057	50.35
355.268	13.48
355.48	-15.19
355.692	11.43
355.903	-52.05
356.115	-7
356.326	-72.53
356.538	-11.09
356.749	-35.67
356.961	-4.95
357.172	60.59
357.384	-21.33
357.595	-17.24
357.807	66.73
358.018	5.29
358.23	13.48
358.441	58.54
358.653	70.83
358.864	9.39
359.075	-37.72
359.287	-31.57
359.498	31.91
359.709	-13.14
359.921	44.2
360.132	58.54
360.344	31.91
360.555	68.78
360.766	50.35
360.977	3.24
361.189	58.54
361.4	36.01
361.611	87.21
361.823	17.58
362.034	74.92
362.245	-50
362.456	11.43
362.667	52.39
362.879	-35.67
363.09	9.39
363.301	25.77
363.512	23.72
363.723	13.48
363.935	19.63
364.146	-62.29
364.357	-33.62
364.568	97.45
364.779	-4.95
364.99	76.97
365.201	-7
365.412	1.19
365.623	-45.91
365.834	-29.52
366.045	-50
366.256	-29.52
366.467	13.48
366.678	64.68
366.889	60.59
367.1	-15.19
367.311	46.25
367.522	25.77
367.733	15.53
367.944	87.21
368.155	-9.05
368.366	66.73
368.577	31.91
368.788	81.07
368.999	38.06
369.209	38.06
369.42	13.48
369.631	81.07
369.842	44.2
370.053	42.15
370.264	56.49
370.474	-11.09
370.685	3.24
370.896	-17.24
371.107	79.02
371.317	46.25
371.528	23.72
371.739	76.97
371.95	44.2
372.16	36.01
372.371	-13.14
372.582	64.68
372.792	42.15
373.003	38.06
373.214	44.2
373.424	64.68
373.635	-17.24
373.846	56.49
374.056	-39.76
374.267	31.91
374.477	42.15
374.688	-7
374.898	11.43
375.109	40.11
375.319	38.06
375.53	50.35
375.74	36.01
375.951	17.58
376.161	-9.05
376.372	101.55
376.582	15.53
376.793	25.77
377.003	13.48
377.214	-15.19
377.424	-0.85
377.635	66.73
377.845	-19.29
378.055	62.63
378.266	25.77
378.476	38.06
378.686	31.91
378.897	-45.91
379.107	-2.9
379.317	60.59
379.528	-2.9
379.738	144.55
379.948	23.72
380.158	89.26
380.369	56.49
380.579	40.11
380.789	52.39
380.999	46.25
381.21	-72.53
381.42	52.39
381.63	-31.57
381.84	52.39
382.05	-17.24
382.261	109.74
382.471	42.15
382.681	13.48
382.891	-13.14
383.101	19.63
383.311	3.24
383.521	68.78
383.731	56.49
383.941	-23.38
384.151	9.39
384.361	13.48
384.571	-17.24
384.781	-17.24
384.991	-9.05
385.201	87.21
385.411	101.55
385.621	95.4
385.831	27.82
386.041	44.2
386.251	27.82
386.461	99.5
386.671	5.29
386.881	13.48
387.091	44.2
387.301	19.63
387.511	33.96
387.72	-21.33
387.93	85.16
388.14	52.39
388.35	-9.05
388.56	25.77
388.769	109.74
388.979	-21.33
389.189	68.78
389.399	5.29
389.609	72.87
389.818	-21.33
390.028	113.83
390.238	50.35
390.447	156.84
390.657	79.02
390.867	9.39
391.076	64.68
391.286	54.44
391.496	91.31
391.705	95.4
391.915	66.73
392.125	46.25
392.334	-11.09
392.544	5.29
392.753	70.83
392.963	74.92
393.172	13.48
393.382	33.96
393.591	154.79
393.801	38.06
394.01	33.96
394.22	46.25
394.429	70.83
394.639	13.48
394.848	29.87
395.058	54.44
395.267	91.31
395.477	7.34
395.686	31.91
395.895	60.59
396.105	107.69
396.314	115.88
396.524	33.96
396.733	42.15
396.942	48.3
397.152	187.56
397.361	140.46
397.57	105.64
397.78	36.01
397.989	81.07
398.198	150.7
398.407	50.35
398.617	76.97
398.826	56.49
399.035	38.06
399.244	66.73
399.453	70.83
399.663	124.07
399.872	132.26
400.081	27.82
400.29	66.73
400.499	150.7
400.708	81.07
400.917	33.96
401.127	87.21
401.336	-2.9
401.545	150.7
401.754	93.35
401.963	81.07
402.172	140.46
402.381	60.59
402.59	109.74
402.799	13.48
403.008	173.22
403.217	97.45
403.426	99.5
403.635	124.07
403.844	91.31
404.053	109.74
404.262	113.83
404.471	162.98
404.68	146.6
404.888	58.54
405.097	167.08
405.306	132.26
405.515	111.78
405.724	119.98
405.933	193.7
406.142	101.55
406.35	160.94
406.559	160.94
406.768	99.5
406.977	193.7
407.185	175.27
407.394	205.99
407.603	189.61
407.812	261.29
408.02	150.7
408.229	158.89
408.438	335.01
408.646	162.98
408.855	232.62
409.064	218.28
409.272	236.71
409.481	277.67
409.69	294.05
409.898	267.43
410.107	275.62
410.315	324.77
410.524	304.29
410.733	322.73
410.941	367.78
411.15	382.12
411.358	394.4
411.567	371.88
411.775	380.07
411.984	378.02
412.192	414.88
412.401	373.92
412.609	466.08
412.818	568.48
413.026	515.23
413.234	441.51
413.443	560.29
413.651	595.11
413.86	593.06
414.068	634.02
414.276	636.06
414.485	578.72
414.693	709.79
414.901	697.5
415.11	642.21
415.318	738.46
415.526	580.77
415.734	767.13
415.943	785.57
416.151	898.2
416.359	863.39
416.567	820.38
416.776	871.58
416.984	953.5
417.192	1137.82
417.4	986.27
417.608	1035.42
417.817	1064.09
418.025	1039.51
418.233	1281.18
418.441	1154.2
418.649	1336.47
418.857	1361.05
419.065	1307.8
419.273	1281.18
419.481	1289.37
419.689	1408.15
419.897	1518.74
420.105	1541.27
420.313	1676.43
420.521	1584.27
420.729	1625.23
420.937	1748.11
421.145	1752.21
421.353	1889.42
421.561	2032.78
421.769	1948.81
421.977	2079.88
422.185	2069.64
422.393	2194.57
422.601	2253.96
422.809	2323.59
423.017	2460.81
423.224	2387.08
423.432	2518.15
423.64	2485.38
423.848	2708.61
424.056	2696.32
424.263	2989.18
424.471	2980.99
424.679	2923.65
424.887	3083.39
425.094	3169.4
425.302	3259.51
425.51	3331.19
425.718	3558.52
425.925	3482.74
426.133	3685.49
426.341	3753.07
426.548	4041.84
426.756	4037.74
426.964	4041.84
427.171	4201.58
427.379	4361.32
427.586	4414.57
427.794	4664.42
428.001	4729.95
428.209	5090.4
428.417	4848.74
428.624	5291.1
428.832	5258.33
429.039	5364.82
429.247	5252.19
429.454	5782.61
429.662	6128.72
429.869	5712.98
430.076	6163.53
430.284	6036.56
430.491	6267.98
430.699	6726.72
430.906	6681.67
431.114	6749.25
431.321	6960.19
431.528	7033.92
431.736	7597.11
431.943	7932.98
432.15	7765.04
432.358	7666.74
432.565	8254.51
432.772	8277.04
432.979	8651.81
433.187	8690.73
433.394	8735.78
433.601	9456.67
433.808	9290.78
434.016	9489.43
434.223	9727
434.43	10443.79
434.637	10177.55
434.844	10787.85
435.052	11068.42
435.259	10798.09
435.466	10871.81
435.673	10849.29
435.88	11713.53
436.087	12307.44
436.294	12176.37
436.501	12030.96
436.708	12155.89
436.915	12651.5
437.122	13263.84
437.329	13116.39
437.537	13222.88
437.743	14031.83
437.95	13599.71
438.157	14300.11
438.364	14910.41
438.571	14902.22
438.778	14814.15
438.985	16415.66
439.192	15801.27
439.399	16024.5
439.606	15797.18
439.813	16561.07
440.02	17793.95
440.227	17501.09
440.433	16847.79
440.64	17951.64
440.847	17488.8
441.054	18168.73
441.261	19299.2
441.467	18992.01
441.674	19567.49
441.881	20120.44
442.088	20110.2
442.294	19671.93
442.501	20648.82
442.708	20640.62
442.914	21779.29
443.121	22598.48
443.328	22031.19
443.534	23530.31
443.741	22889.29
443.948	22653.78
444.154	24296.25
444.361	23821.12
444.568	24263.48
444.774	23991.1
444.981	24681.27
445.187	25228.07
445.394	26276.63
445.6	25760.55
445.807	28455.67
446.013	27226.89
446.22	27753.22
446.426	28801.78
446.633	29061.87
446.839	30202.59
447.046	28658.42
447.252	30769.88
447.459	30366.43
447.665	30589.66
447.871	31713.99
448.078	33043.12
448.284	31404.75
448.491	32189.12
448.697	33409.71
448.903	33809.06
449.11	34255.52
449.316	33698.47
449.522	33899.17
449.728	35310.22
449.935	35431.05
450.141	35367.57
450.347	36403.84
450.553	34837.14
450.76	35283.6
450.966	36725.37
451.172	36133.51
451.378	37292.66
451.584	36385.41
451.791	37376.62
451.997	36866.68
452.203	37577.33
452.409	38105.7
452.615	37485.17
452.821	36225.67
453.027	35627.66
453.233	37712.49
453.44	36360.83
453.646	37044.85
453.852	36612.73
454.058	37399.15
454.264	36326.02
454.47	37044.85
454.676	35861.13
454.882	37368.43
455.088	33788.58
455.294	34747.03
455.5	35277.46
455.705	35199.63
455.911	34138.79
456.117	33198.77
456.323	32998.07
456.529	31025.87
456.735	32598.71
456.941	31599.3
457.147	31419.08
457.352	30167.77
457.558	29995.74
457.764	29782.76
457.97	29608.68
458.176	28584.69
458.381	28635.89
458.587	27382.54
458.793	27497.22
458.999	25996.06
459.204	27720.45
459.41	27093.77
459.616	25350.95
459.821	25330.47
460.027	24750.9
460.233	24740.66
460.438	23507.78
460.644	23673.67
460.85	22879.05
461.055	22147.93
461.261	22152.02
461.466	20525.94
461.672	20097.91
461.878	21547.87
462.083	19999.61
462.289	19760
462.494	19368.84
462.7	18477.97
462.905	17931.16
463.111	18465.68
463.316	18654.09
463.522	18355.09
463.727	18264.98
463.932	18332.56
464.138	18201.49
464.343	18377.62
464.549	17683.36
464.754	18219.92
464.959	17884.06
465.165	18025.37
465.37	17079.21
465.575	16829.35
465.781	17697.69
465.986	17644.45
466.191	16864.17
466.397	16567.21
466.602	15729.59
466.807	16462.77
467.012	16403.38
467.218	16311.22
467.423	16040.89
