Data from USB4F104151__94__11-37-57-177.txt Node

Date: Fri Mar 14 11:37:57 EDT 2025
User: louis
Spectrometer: USB4F10415
Trigger mode: 4
Integration Time (sec): 2.000000E-2
Scans to average: 1
Electric dark correction enabled: true
Nonlinearity correction enabled: false
Boxcar width: 0
XAxis mode: Wavelengths
Number of Pixels in Spectrum: 3648
>>>>>Begin Spectral Data<<<<<
178.204	-31.74
178.424	-31.74
178.644	-31.74
178.864	-103.42
179.084	-41.98
179.304	21.5
179.524	27.65
179.744	3.07
179.964	13.31
180.184	-29.7
180.404	76.8
180.624	-27.65
180.844	29.7
181.064	-101.37
181.283	-25.6
181.503	-1.02
181.723	13.31
181.943	23.55
182.163	9.22
182.383	27.65
182.602	54.27
182.822	13.31
183.042	19.46
183.262	37.89
183.482	19.46
183.701	17.41
183.921	11.26
184.141	78.85
184.361	70.65
184.58	-19.46
184.8	-3.07
185.02	87.04
185.239	52.22
185.459	33.79
185.679	33.79
185.898	52.22
186.118	5.12
186.338	21.5
186.557	80.89
186.777	52.22
186.997	25.6
187.216	80.89
187.436	60.42
187.655	119.81
187.875	84.99
188.095	91.13
188.314	58.37
188.534	-1.02
188.753	19.46
188.973	60.42
189.192	115.71
189.412	-3.07
189.631	80.89
189.851	-25.6
190.07	58.37
190.29	48.13
190.509	41.98
190.729	15.36
190.948	78.85
191.168	76.8
191.387	54.27
191.607	76.8
191.826	68.61
192.045	33.79
192.265	60.42
192.484	-66.56
192.704	44.03
192.923	-35.84
193.142	160.77
193.362	37.89
193.581	64.51
193.8	5.12
194.02	74.75
194.239	-27.65
194.458	62.46
194.678	68.61
194.897	60.42
195.116	-1.02
195.335	101.37
195.555	74.75
195.774	46.08
195.993	78.85
196.212	7.17
196.432	3.07
196.651	97.28
196.87	46.08
197.089	93.18
197.308	31.74
197.528	52.22
197.747	11.26
197.966	97.28
198.185	48.13
198.404	21.5
198.623	-5.12
198.842	60.42
199.062	48.13
199.281	13.31
199.5	-3.07
199.719	19.46
199.938	-19.46
200.157	31.74
200.376	52.22
200.595	13.31
200.814	-9.22
201.033	29.7
201.252	41.98
201.471	-5.12
201.69	68.61
201.909	-3.07
202.128	11.26
202.347	-13.31
202.566	-5.12
202.785	27.65
203.004	31.74
203.223	48.13
203.442	60.42
203.661	68.61
203.879	31.74
204.098	107.52
204.317	-23.55
204.536	-23.55
204.755	35.84
204.974	25.6
205.193	95.23
205.411	52.22
205.63	9.22
205.849	54.27
206.068	-1.02
206.287	64.51
206.505	44.03
206.724	48.13
206.943	62.46
207.162	68.61
207.381	21.5
207.599	17.41
207.818	41.98
208.037	93.18
208.255	33.79
208.474	33.79
208.693	82.94
208.911	56.32
209.13	78.85
209.349	179.2
209.567	39.94
209.786	74.75
210.005	41.98
210.223	130.05
210.442	64.51
210.661	113.66
210.879	91.13
211.098	29.7
211.316	101.37
211.535	56.32
211.753	56.32
211.972	87.04
212.191	46.08
212.409	35.84
212.628	68.61
212.846	19.46
213.065	46.08
213.283	107.52
213.502	27.65
213.72	27.65
213.938	48.13
214.157	15.36
214.375	68.61
214.594	140.29
214.812	-17.41
215.031	46.08
215.249	3.07
215.467	84.99
215.686	5.12
215.904	148.48
216.122	5.12
216.341	76.8
216.559	23.55
216.778	62.46
216.996	60.42
217.214	74.75
217.432	-3.07
217.651	99.33
217.869	9.22
218.087	66.56
218.306	97.28
218.524	23.55
218.742	82.94
218.96	62.46
219.179	56.32
219.397	87.04
219.615	64.51
219.833	66.56
220.051	48.13
220.27	23.55
220.488	80.89
220.706	78.85
220.924	39.94
221.142	17.41
221.36	84.99
221.578	23.55
221.796	56.32
222.015	91.13
222.233	68.61
222.451	44.03
222.669	-1.02
222.887	68.61
223.105	-17.41
223.323	95.23
223.541	3.07
223.759	107.52
223.977	35.84
224.195	46.08
224.413	54.27
224.631	80.89
224.849	-15.36
225.067	-5.12
225.285	62.46
225.503	41.98
225.721	15.36
225.939	5.12
226.157	19.46
226.375	95.23
226.592	3.07
226.81	80.89
227.028	52.22
227.246	64.51
227.464	25.6
227.682	99.33
227.9	74.75
228.117	111.61
228.335	9.22
228.553	72.7
228.771	-5.12
228.989	11.26
229.206	134.14
229.424	37.89
229.642	17.41
229.86	48.13
230.077	33.79
230.295	15.36
230.513	-35.84
230.731	48.13
230.948	80.89
231.166	113.66
231.384	48.13
231.601	93.18
231.819	37.89
232.037	31.74
232.254	50.18
232.472	31.74
232.689	78.85
232.907	54.27
233.125	27.65
233.342	-35.84
233.56	119.81
233.777	78.85
233.995	107.52
234.213	41.98
234.43	52.22
234.648	46.08
234.865	21.5
235.083	62.46
235.3	105.47
235.518	89.09
235.735	41.98
235.953	121.85
236.17	62.46
236.388	113.66
236.605	82.94
236.822	54.27
237.04	19.46
237.257	68.61
237.475	35.84
237.692	60.42
237.909	64.51
238.127	31.74
238.344	84.99
238.562	62.46
238.779	31.74
238.996	93.18
239.214	9.22
239.431	25.6
239.648	27.65
239.865	-17.41
240.083	-3.07
240.3	-11.26
240.517	72.7
240.735	19.46
240.952	7.17
241.169	80.89
241.386	37.89
241.603	56.32
241.821	68.61
242.038	113.66
242.255	21.5
242.472	60.42
242.689	7.17
242.907	-13.31
243.124	48.13
243.341	52.22
243.558	-3.07
243.775	70.65
243.992	101.37
244.209	48.13
244.426	82.94
244.643	93.18
244.86	5.12
245.078	23.55
245.295	74.75
245.512	17.41
245.729	39.94
245.946	82.94
246.163	1.02
246.38	-3.07
246.597	-27.65
246.814	62.46
247.031	64.51
247.248	27.65
247.464	117.76
247.681	84.99
247.898	25.6
248.115	84.99
248.332	105.47
248.549	82.94
248.766	68.61
248.983	84.99
249.2	74.75
249.417	72.7
249.633	9.22
249.85	78.85
250.067	52.22
250.284	39.94
250.501	5.12
250.717	52.22
250.934	15.36
251.151	33.79
251.368	52.22
251.585	33.79
251.801	37.89
252.018	58.37
252.235	7.17
252.451	60.42
252.668	-25.6
252.885	15.36
253.102	84.99
253.318	15.36
253.535	7.17
253.752	21.5
253.968	68.61
254.185	27.65
254.401	-19.46
254.618	60.42
254.835	23.55
255.051	93.18
255.268	58.37
255.484	-9.22
255.701	89.09
255.917	-13.31
256.134	21.5
256.351	89.09
256.567	-3.07
256.784	48.13
257	23.55
257.217	-9.22
257.433	48.13
257.65	66.56
257.866	33.79
258.082	48.13
258.299	-17.41
258.515	25.6
258.732	11.26
258.948	60.42
259.165	-19.46
259.381	87.04
259.597	48.13
259.814	39.94
260.03	48.13
260.246	56.32
260.463	21.5
260.679	56.32
260.895	107.52
261.112	76.8
261.328	39.94
261.544	48.13
261.761	136.19
261.977	23.55
262.193	35.84
262.409	68.61
262.626	25.6
262.842	-11.26
263.058	-9.22
263.274	5.12
263.49	31.74
263.707	33.79
263.923	74.75
264.139	-17.41
264.355	48.13
264.571	46.08
264.787	37.89
265.004	121.85
265.22	7.17
265.436	27.65
265.652	-9.22
265.868	-3.07
266.084	41.98
266.3	35.84
266.516	76.8
266.732	80.89
266.948	37.89
267.164	74.75
267.38	84.99
267.596	29.7
267.812	19.46
268.028	56.32
268.244	44.03
268.46	52.22
268.676	1.02
268.892	-13.31
269.108	91.13
269.324	99.33
269.54	39.94
269.756	80.89
269.972	-29.7
270.188	31.74
270.403	48.13
270.619	41.98
270.835	91.13
271.051	70.65
271.267	-1.02
271.483	82.94
271.698	44.03
271.914	101.37
272.13	48.13
272.346	76.8
272.562	74.75
272.777	82.94
272.993	70.65
273.209	27.65
273.425	31.74
273.64	5.12
273.856	111.61
274.072	82.94
274.287	17.41
274.503	56.32
274.719	130.05
274.934	87.04
275.15	-33.79
275.366	25.6
275.581	11.26
275.797	66.56
276.012	64.51
276.228	72.7
276.444	21.5
276.659	74.75
276.875	52.22
277.09	1.02
277.306	56.32
277.521	91.13
277.737	62.46
277.952	-15.36
278.168	-5.12
278.383	44.03
278.599	27.65
278.814	5.12
279.03	95.23
279.245	134.14
279.461	31.74
279.676	80.89
279.892	64.51
280.107	19.46
280.322	56.32
280.538	54.27
280.753	91.13
280.969	68.61
281.184	33.79
281.399	37.89
281.615	54.27
281.83	78.85
282.045	21.5
282.26	29.7
282.476	121.85
282.691	58.37
282.906	3.07
283.122	-17.41
283.337	54.27
283.552	56.32
283.767	11.26
283.983	78.85
284.198	52.22
284.413	93.18
284.628	35.84
284.843	3.07
285.058	19.46
285.274	64.51
285.489	17.41
285.704	52.22
285.919	-33.79
286.134	15.36
286.349	39.94
286.564	35.84
286.779	162.81
286.995	44.03
287.21	7.17
287.425	84.99
287.64	54.27
287.855	78.85
288.07	74.75
288.285	7.17
288.5	33.79
288.715	105.47
288.93	39.94
289.145	35.84
289.36	52.22
289.575	80.89
289.79	29.7
290.004	54.27
290.219	15.36
290.434	31.74
290.649	66.56
290.864	35.84
291.079	62.46
291.294	68.61
291.509	11.26
291.724	97.28
291.938	11.26
292.153	31.74
292.368	31.74
292.583	41.98
292.798	52.22
293.012	46.08
293.227	19.46
293.442	48.13
293.657	115.71
293.871	111.61
294.086	5.12
294.301	89.09
294.516	19.46
294.73	-21.5
294.945	-1.02
295.16	56.32
295.374	21.5
295.589	60.42
295.804	-1.02
296.018	15.36
296.233	-17.41
296.447	72.7
296.662	101.37
296.877	72.7
297.091	23.55
297.306	52.22
297.52	37.89
297.735	164.86
297.949	35.84
298.164	35.84
298.378	-13.31
298.593	76.8
298.807	5.12
299.022	99.33
299.236	54.27
299.451	52.22
299.665	62.46
299.88	44.03
300.094	17.41
300.309	64.51
300.523	33.79
300.737	50.18
300.952	-23.55
301.166	27.65
301.381	-29.7
301.595	64.51
301.809	95.23
302.024	76.8
302.238	48.13
302.452	84.99
302.667	33.79
302.881	91.13
303.095	70.65
303.309	44.03
303.524	31.74
303.738	66.56
303.952	9.22
304.166	80.89
304.381	19.46
304.595	56.32
304.809	33.79
305.023	-5.12
305.237	84.99
305.452	-17.41
305.666	76.8
305.88	80.89
306.094	91.13
306.308	68.61
306.522	80.89
306.736	87.04
306.95	62.46
307.164	87.04
307.379	95.23
307.593	138.24
307.807	78.85
308.021	103.42
308.235	48.13
308.449	66.56
308.663	-1.02
308.877	78.85
309.091	-33.79
309.305	27.65
309.519	-5.12
309.733	70.65
309.947	62.46
310.161	64.51
310.374	11.26
310.588	89.09
310.802	54.27
311.016	82.94
311.23	-9.22
311.444	58.37
311.658	97.28
311.872	52.22
312.085	39.94
312.299	3.07
312.513	48.13
312.727	76.8
312.941	64.51
313.154	31.74
313.368	111.61
313.582	58.37
313.796	48.13
314.009	113.66
314.223	87.04
314.437	76.8
314.651	-7.17
314.864	56.32
315.078	62.46
315.292	72.7
315.505	23.55
315.719	60.42
315.933	13.31
316.146	99.33
316.36	17.41
316.573	62.46
316.787	101.37
317.001	148.48
317.214	35.84
317.428	29.7
317.641	111.61
317.855	17.41
318.068	31.74
318.282	162.81
318.495	62.46
318.709	60.42
318.922	80.89
319.136	37.89
319.349	87.04
319.563	89.09
319.776	82.94
319.99	60.42
320.203	68.61
320.417	60.42
320.63	29.7
320.843	82.94
321.057	46.08
321.27	52.22
321.483	39.94
321.697	91.13
321.91	54.27
322.124	39.94
322.337	60.42
322.55	31.74
322.763	15.36
322.977	-19.46
323.19	48.13
323.403	46.08
323.617	54.27
323.83	50.18
324.043	68.61
324.256	21.5
324.469	-70.65
324.683	84.99
324.896	-15.36
325.109	80.89
325.322	39.94
325.535	80.89
325.748	95.23
325.962	35.84
326.175	27.65
326.388	52.22
326.601	87.04
326.814	39.94
327.027	27.65
327.24	84.99
327.453	39.94
327.666	62.46
327.879	117.76
328.092	115.71
328.305	7.17
328.518	60.42
328.731	68.61
328.944	72.7
329.157	89.09
329.37	93.18
329.583	68.61
329.796	48.13
330.009	56.32
330.222	89.09
330.435	64.51
330.648	74.75
330.861	27.65
331.073	60.42
331.286	76.8
331.499	101.37
331.712	56.32
331.925	60.42
332.138	60.42
332.35	140.29
332.563	44.03
332.776	25.6
332.989	119.81
333.202	23.55
333.414	-7.17
333.627	19.46
333.84	97.28
334.053	95.23
334.265	21.5
334.478	58.37
334.691	37.89
334.903	7.17
335.116	66.56
335.329	89.09
335.541	48.13
335.754	9.22
335.966	-25.6
336.179	54.27
336.392	37.89
336.604	101.37
336.817	87.04
337.029	91.13
337.242	144.38
337.454	76.8
337.667	93.18
337.88	23.55
338.092	62.46
338.305	70.65
338.517	19.46
338.729	41.98
338.942	121.85
339.154	35.84
339.367	60.42
339.579	130.05
339.792	64.51
340.004	101.37
340.217	58.37
340.429	101.37
340.641	103.42
340.854	58.37
341.066	39.94
341.278	66.56
341.491	-13.31
341.703	11.26
341.915	64.51
342.128	25.6
342.34	101.37
342.552	99.33
342.764	119.81
342.977	109.57
343.189	37.89
343.401	84.99
343.613	76.8
343.826	64.51
344.038	35.84
344.25	72.7
344.462	35.84
344.674	62.46
344.886	31.74
345.099	33.79
345.311	33.79
345.523	48.13
345.735	15.36
345.947	99.33
346.159	117.76
346.371	109.57
346.583	23.55
346.795	76.8
347.007	60.42
347.219	89.09
347.431	19.46
347.643	54.27
347.855	41.98
348.067	35.84
348.279	64.51
348.491	21.5
348.703	140.29
348.915	91.13
349.127	17.41
349.339	80.89
349.551	46.08
349.763	5.12
349.975	19.46
350.187	74.75
350.399	-9.22
350.61	87.04
350.822	23.55
351.034	87.04
351.246	103.42
351.458	91.13
351.669	-11.26
351.881	68.61
352.093	93.18
352.305	103.42
352.517	50.18
352.728	80.89
352.94	31.74
353.152	39.94
353.363	44.03
353.575	121.85
353.787	89.09
353.999	-11.26
354.21	162.81
354.422	50.18
354.633	39.94
354.845	56.32
355.057	11.26
355.268	21.5
355.48	70.65
355.692	15.36
355.903	113.66
356.115	91.13
356.326	52.22
356.538	91.13
356.749	87.04
356.961	146.43
357.172	56.32
357.384	31.74
357.595	80.89
357.807	31.74
358.018	50.18
358.23	62.46
358.441	68.61
358.653	44.03
358.864	142.33
359.075	68.61
359.287	39.94
359.498	99.33
359.709	27.65
359.921	50.18
360.132	68.61
360.344	60.42
360.555	62.46
360.766	-5.12
360.977	101.37
361.189	115.71
361.4	64.51
361.611	93.18
361.823	27.65
362.034	107.52
362.245	154.62
362.456	48.13
362.667	107.52
362.879	46.08
363.09	70.65
363.301	99.33
363.512	7.17
363.723	70.65
363.935	23.55
364.146	70.65
364.357	23.55
364.568	72.7
364.779	60.42
364.99	76.8
365.201	95.23
365.412	66.56
365.623	21.5
365.834	105.47
366.045	72.7
366.256	7.17
366.467	80.89
366.678	103.42
366.889	111.61
367.1	64.51
367.311	113.66
367.522	74.75
367.733	101.37
367.944	111.61
368.155	-1.02
368.366	87.04
368.577	44.03
368.788	91.13
368.999	35.84
369.209	33.79
369.42	99.33
369.631	134.14
369.842	76.8
370.053	41.98
370.264	25.6
370.474	41.98
370.685	56.32
370.896	37.89
371.107	111.61
371.317	72.7
371.528	76.8
371.739	72.7
371.95	160.77
372.16	84.99
372.371	117.76
372.582	31.74
372.792	64.51
373.003	101.37
373.214	121.85
373.424	115.71
373.635	134.14
373.846	70.65
374.056	62.46
374.267	111.61
374.477	76.8
374.688	27.65
374.898	23.55
375.109	41.98
375.319	125.95
375.53	154.62
375.74	93.18
375.951	74.75
376.161	128
376.372	121.85
376.582	123.9
376.793	84.99
377.003	89.09
377.214	109.57
377.424	-1.02
377.635	107.52
377.845	78.85
378.055	91.13
378.266	-41.98
378.476	111.61
378.686	115.71
378.897	72.7
379.107	31.74
379.317	105.47
379.528	146.43
379.738	119.81
379.948	21.5
380.158	128
380.369	138.24
380.579	158.72
380.789	74.75
380.999	125.95
381.21	84.99
381.42	158.72
381.63	80.89
381.84	44.03
382.05	39.94
382.261	89.09
382.471	162.81
382.681	89.09
382.891	78.85
383.101	76.8
383.311	-25.6
383.521	27.65
383.731	136.19
383.941	97.28
384.151	66.56
384.361	84.99
384.571	134.14
384.781	185.34
384.991	64.51
385.201	130.05
385.411	48.13
385.621	72.7
385.831	13.31
386.041	150.53
386.251	80.89
386.461	101.37
386.671	56.32
386.881	142.33
387.091	87.04
387.301	119.81
387.511	25.6
387.72	121.85
387.93	113.66
388.14	113.66
388.35	93.18
388.56	56.32
388.769	152.57
388.979	138.24
389.189	101.37
389.399	66.56
389.609	185.34
389.818	113.66
390.028	41.98
390.238	121.85
390.447	78.85
390.657	121.85
390.867	19.46
391.076	80.89
391.286	195.58
391.496	78.85
391.705	113.66
391.915	121.85
392.125	84.99
392.334	48.13
392.544	142.33
392.753	60.42
392.963	95.23
393.172	121.85
393.382	41.98
393.591	185.34
393.801	146.43
394.01	140.29
394.22	168.96
394.429	101.37
394.639	80.89
394.848	140.29
395.058	72.7
395.267	115.71
395.477	60.42
395.686	128
395.895	103.42
396.105	171.01
396.314	166.91
396.524	113.66
396.733	123.9
396.942	128
397.152	140.29
397.361	125.95
397.57	138.24
397.78	78.85
397.989	97.28
398.198	119.81
398.407	128
398.617	179.2
398.826	158.72
399.035	99.33
399.244	41.98
399.453	183.29
399.663	123.9
399.872	179.2
400.081	93.18
400.29	130.05
400.499	84.99
400.708	164.86
400.917	123.9
401.127	123.9
401.336	183.29
401.545	146.43
401.754	142.33
401.963	185.34
402.172	136.19
402.381	146.43
402.59	195.58
402.799	164.86
403.008	173.05
403.217	232.44
403.426	156.67
403.635	105.47
403.844	179.2
404.053	220.16
404.262	218.11
404.471	199.68
404.68	211.96
404.888	207.87
405.097	160.77
405.306	187.39
405.515	171.01
405.724	154.62
405.933	187.39
406.142	203.77
406.35	232.44
406.559	226.3
406.768	238.59
406.977	250.88
407.185	226.3
407.394	277.5
407.603	265.21
407.812	265.21
408.02	310.27
408.229	297.98
408.438	281.6
408.646	252.92
408.855	259.07
409.064	236.54
409.272	373.75
409.481	347.13
409.69	355.32
409.898	322.56
410.107	439.29
410.315	470.01
410.524	400.38
410.733	498.68
410.941	414.71
411.15	443.39
411.358	414.71
411.567	418.81
411.775	472.06
411.984	525.3
412.192	543.74
412.401	580.6
412.609	586.74
412.818	572.41
413.026	588.79
413.234	631.8
413.443	625.65
413.651	613.37
413.86	613.37
414.068	715.77
414.276	758.77
414.485	754.68
414.693	816.12
414.901	883.7
415.11	881.65
415.318	848.88
415.526	842.74
415.734	918.51
415.943	965.62
416.151	1022.96
416.359	1055.73
416.567	953.33
416.776	1022.96
416.984	1096.69
417.192	1084.4
417.4	1182.7
417.608	1106.93
417.817	1278.96
418.025	1379.31
418.233	1352.68
418.441	1307.63
418.649	1395.69
418.857	1496.04
419.065	1637.35
419.273	1534.95
419.481	1629.16
419.689	1702.89
419.897	1719.27
420.105	1760.23
420.313	1709.03
420.521	1788.9
420.729	2046.94
420.937	1993.7
421.145	2163.68
421.353	2153.44
421.561	2259.93
421.769	2313.18
421.977	2319.32
422.185	2284.51
422.393	2603.99
422.601	2712.53
422.809	2589.66
423.017	2528.22
423.224	2720.73
423.432	2855.89
423.64	2937.81
423.848	3048.4
424.056	3001.3
424.263	3353.55
424.471	3298.25
424.679	3449.8
424.887	3662.79
425.094	3730.38
425.302	3826.63
425.51	3847.11
425.718	3996.61
425.925	4078.53
426.133	4103.11
426.341	4567.99
426.548	4651.96
426.756	4660.15
426.964	4707.26
427.171	5055.41
427.379	5082.03
427.586	5168.05
427.794	5215.15
428.001	5680.04
428.209	5764.01
428.417	5657.51
428.624	5925.8
428.832	6024.1
429.039	6056.87
429.247	6052.77
429.454	6652.83
429.662	7041.94
429.869	6615.96
430.076	7009.17
430.284	7023.51
430.491	7144.34
430.699	7537.55
430.906	7621.52
431.114	7682.95
431.321	7910.28
431.528	8055.69
431.736	8633.21
431.943	9091.96
432.15	8584.06
432.358	8932.22
432.565	9388.91
432.772	9253.75
432.979	9735.02
433.187	9993.06
433.394	9956.2
433.601	10586.97
433.808	10877.79
434.016	10668.89
434.223	10910.55
434.43	11768.65
434.637	11592.53
434.844	12319.56
435.052	12507.97
435.259	12452.67
435.466	12794.68
435.673	12604.22
435.88	13392.69
436.087	13839.15
436.294	13730.61
436.501	13703.98
436.708	13769.52
436.915	14322.47
437.122	14975.77
437.329	15006.49
437.537	15543.06
437.743	15667.98
437.95	15704.85
438.157	16497.41
438.364	17144.57
438.571	16839.42
438.778	16880.38
438.985	18504.42
439.192	17849.07
439.399	18559.72
439.606	17971.95
439.813	19094.24
440.02	20015.82
440.227	19952.34
440.433	19360.47
440.64	20210.38
440.847	20019.92
441.054	20613.83
441.261	21881.52
441.467	21490.36
441.674	22213.29
441.881	22850.21
442.088	23069.34
442.294	22692.52
442.501	23384.73
442.708	24021.65
442.914	24695.43
443.121	25975.41
443.328	24943.24
443.534	26890.85
443.741	26227.31
443.948	25684.6
444.154	27667.03
444.361	27333.21
444.568	27527.77
444.774	27832.92
444.981	27798.1
445.187	28844.62
445.394	29852.22
445.6	29932.09
445.807	32522.77
446.013	31334.95
446.22	31877.66
446.426	33366.53
446.633	33024.52
446.839	34517.49
447.046	32809.48
447.252	34851.31
447.459	34537.97
447.665	34728.43
447.871	36301.27
448.078	37702.08
448.284	35996.12
448.491	36925.9
448.697	38584.76
448.903	39088.56
449.11	39274.92
449.316	38617.52
449.522	39354.79
449.728	40337.82
449.935	40769.94
450.141	40550.81
450.347	41484.68
450.553	40292.76
450.76	40837.52
450.966	42021.25
451.172	41726.34
451.378	42822
451.584	41714.05
451.791	42578.29
451.997	42985.84
452.203	43254.12
452.409	43786.6
452.615	43032.94
452.821	41476.49
453.027	41132.43
453.233	43661.67
453.44	41712
453.646	42168.7
453.852	42365.31
454.058	43305.32
454.264	41607.56
454.47	42860.91
454.676	41566.6
454.882	43192.68
455.088	39221.67
455.294	40237.47
455.5	40452.5
455.705	40948.11
455.911	39225.77
456.117	38433.21
456.323	38158.78
456.529	36209.11
456.735	38046.14
456.941	36870.61
457.147	36155.86
457.352	35256.81
457.558	34710
457.764	34470.39
457.97	34284.02
458.176	33450.5
458.381	33442.31
458.587	31433.25
458.793	31619.61
458.999	30278.19
459.204	32399.89
459.41	31423.01
459.616	29553.21
459.821	29260.35
460.027	29270.59
460.233	28840.52
460.438	27470.43
460.644	27386.46
460.85	26282.61
461.055	25694.84
461.261	25717.37
461.466	24009.36
461.672	23126.69
461.878	24830.6
462.083	23333.53
462.289	22954.66
462.494	22739.62
462.7	21433.02
462.905	20925.12
463.111	21576.37
463.316	21789.36
463.522	21213.88
463.727	21021.38
463.932	21099.2
464.138	20984.51
464.343	21461.69
464.549	20529.86
464.754	21295.8
464.959	21062.33
465.165	20937.41
465.37	20013.77
465.575	19563.22
465.781	20280.01
465.986	20304.59
466.191	19661.52
466.397	19368.66
466.602	18434.79
466.807	19188.44
467.012	19069.66
467.218	18922.21
