Data from USB4F104151__95__11-37-57-676.txt Node

Date: Fri Mar 14 11:37:57 EDT 2025
User: louis
Spectrometer: USB4F10415
Trigger mode: 4
Integration Time (sec): 2.000000E-2
Scans to average: 1
Electric dark correction enabled: true
Nonlinearity correction enabled: false
Boxcar width: 0
XAxis mode: Wavelengths
Number of Pixels in Spectrum: 3648
>>>>>Begin Spectral Data<<<<<
178.204	-68.95
178.424	-68.95
178.644	-68.95
178.864	-42.32
179.084	-46.42
179.304	-124.24
179.524	-9.56
179.744	31.4
179.964	-38.23
180.184	31.4
180.404	10.92
180.624	-1.37
180.844	17.07
181.064	4.78
181.283	-1.37
181.503	12.97
181.723	66.22
181.943	-15.7
182.163	53.93
182.383	-42.32
182.602	68.27
182.822	29.35
183.042	17.07
183.262	45.74
183.482	10.92
183.701	21.16
183.921	23.21
184.141	-25.94
184.361	80.55
184.58	31.4
184.8	125.61
185.02	37.55
185.239	53.93
185.459	51.88
185.679	60.07
185.898	31.4
186.118	31.4
186.338	-30.04
186.557	82.6
186.777	29.35
186.997	-5.46
187.216	51.88
187.436	-1.37
187.655	21.16
187.875	125.61
188.095	64.17
188.314	101.03
188.534	2.73
188.753	37.55
188.973	23.21
189.192	45.74
189.412	39.59
189.631	55.98
189.851	92.84
190.07	72.36
190.29	6.83
190.509	21.16
190.729	29.35
190.948	49.83
191.168	107.18
191.387	105.13
191.607	64.17
191.826	-25.94
192.045	62.12
192.265	53.93
192.484	12.97
192.704	90.79
192.923	39.59
193.142	10.92
193.362	58.03
193.581	66.22
193.8	55.98
194.02	101.03
194.239	27.31
194.458	70.31
194.678	43.69
194.897	45.74
195.116	76.46
195.335	31.4
195.555	21.16
195.774	-44.37
195.993	-5.46
196.212	35.5
196.432	12.97
196.651	-44.37
196.87	2.73
197.089	58.03
197.308	43.69
197.528	-21.85
197.747	-73.04
197.966	31.4
198.185	-21.85
198.404	-17.75
198.623	84.65
198.842	-34.13
199.062	29.35
199.281	68.27
199.5	35.5
199.719	125.61
199.938	92.84
200.157	4.78
200.376	53.93
200.595	76.46
200.814	0.68
201.033	33.45
201.252	-27.99
201.471	41.64
201.69	60.07
201.909	27.31
202.128	78.51
202.347	31.4
202.566	76.46
202.785	53.93
203.004	43.69
203.223	17.07
203.442	17.07
203.661	10.92
203.879	31.4
204.098	33.45
204.317	-34.13
204.536	88.75
204.755	25.26
204.974	10.92
205.193	27.31
205.411	12.97
205.63	-38.23
205.849	10.92
206.068	55.98
206.287	4.78
206.505	82.6
206.724	-1.37
206.943	-32.08
207.162	96.94
207.381	4.78
207.599	76.46
207.818	-3.41
208.037	88.75
208.255	19.11
208.474	31.4
208.693	25.26
208.911	19.11
209.13	12.97
209.349	74.41
209.567	49.83
209.786	109.22
210.005	55.98
210.223	21.16
210.442	-3.41
210.661	80.55
210.879	58.03
211.098	-9.56
211.316	82.6
211.535	68.27
211.753	-1.37
211.972	10.92
212.191	-11.61
212.409	72.36
212.628	-32.08
212.846	55.98
213.065	66.22
213.283	43.69
213.502	-3.41
213.72	35.5
213.938	45.74
214.157	47.79
214.375	27.31
214.594	0.68
214.812	70.31
215.031	58.03
215.249	-30.04
215.467	90.79
215.686	15.02
215.904	72.36
216.122	55.98
216.341	72.36
216.559	29.35
216.778	68.27
216.996	60.07
217.214	43.69
217.432	21.16
217.651	-23.89
217.869	-56.66
218.087	47.79
218.306	-5.46
218.524	-7.51
218.742	68.27
218.96	109.22
219.179	-11.61
219.397	29.35
219.615	15.02
219.833	103.08
220.051	-25.94
220.27	4.78
220.488	6.83
220.706	43.69
220.924	60.07
221.142	0.68
221.36	21.16
221.578	49.83
221.796	-44.37
222.015	21.16
222.233	-50.52
222.451	2.73
222.669	68.27
222.887	33.45
223.105	29.35
223.323	-42.32
223.541	15.02
223.759	111.27
223.977	70.31
224.195	21.16
224.413	47.79
224.631	49.83
224.849	60.07
225.067	125.61
225.285	-1.37
225.503	17.07
225.721	37.55
225.939	55.98
226.157	94.89
226.375	70.31
226.592	8.87
226.81	43.69
227.028	105.13
227.246	105.13
227.464	6.83
227.682	60.07
227.9	47.79
228.117	121.51
228.335	8.87
228.553	10.92
228.771	58.03
228.989	39.59
229.206	27.31
229.424	121.51
229.642	6.83
229.86	51.88
230.077	88.75
230.295	51.88
230.513	6.83
230.731	25.26
230.948	35.5
231.166	15.02
231.384	31.4
231.601	82.6
231.819	37.55
232.037	47.79
232.254	31.4
232.472	64.17
232.689	51.88
232.907	58.03
233.125	82.6
233.342	58.03
233.56	47.79
233.777	37.55
233.995	6.83
234.213	43.69
234.43	70.31
234.648	31.4
234.865	-42.32
235.083	76.46
235.3	-25.94
235.518	45.74
235.735	103.08
235.953	47.79
236.17	6.83
236.388	43.69
236.605	12.97
236.822	53.93
237.04	53.93
237.257	62.12
237.475	49.83
237.692	88.75
237.909	47.79
238.127	45.74
238.344	55.98
238.562	27.31
238.779	-27.99
238.996	-23.89
239.214	10.92
239.431	41.64
239.648	31.4
239.865	23.21
240.083	92.84
240.3	0.68
240.517	-36.18
240.735	68.27
240.952	94.89
241.169	31.4
241.386	70.31
241.603	-9.56
241.821	58.03
242.038	68.27
242.255	51.88
242.472	-95.57
242.689	12.97
242.907	45.74
243.124	35.5
243.341	19.11
243.558	39.59
243.775	-68.95
243.992	17.07
244.209	62.12
244.426	-34.13
244.643	15.02
244.86	29.35
245.078	39.59
245.295	43.69
245.512	17.07
245.729	19.11
245.946	68.27
246.163	68.27
246.38	35.5
246.597	66.22
246.814	80.55
247.031	-23.89
247.248	4.78
247.464	70.31
247.681	137.9
247.898	78.51
248.115	51.88
248.332	2.73
248.549	72.36
248.766	4.78
248.983	53.93
249.2	135.85
249.417	55.98
249.633	37.55
249.85	64.17
250.067	72.36
250.284	96.94
250.501	47.79
250.717	88.75
250.934	49.83
251.151	35.5
251.368	6.83
251.585	80.55
251.801	37.55
252.018	82.6
252.235	17.07
252.451	-27.99
252.668	58.03
252.885	76.46
253.102	10.92
253.318	45.74
253.535	27.31
253.752	43.69
253.968	37.55
254.185	2.73
254.401	35.5
254.618	60.07
254.835	45.74
255.051	88.75
255.268	51.88
255.484	58.03
255.701	76.46
255.917	64.17
256.134	6.83
256.351	92.84
256.567	53.93
256.784	68.27
257	-38.23
257.217	55.98
257.433	43.69
257.65	39.59
257.866	88.75
258.082	6.83
258.299	-66.9
258.515	53.93
258.732	4.78
258.948	-32.08
259.165	15.02
259.381	25.26
259.597	0.68
259.814	45.74
260.03	10.92
260.246	23.21
260.463	76.46
260.679	53.93
260.895	15.02
261.112	51.88
261.328	-36.18
261.544	-5.46
261.761	33.45
261.977	33.45
262.193	41.64
262.409	41.64
262.626	135.85
262.842	47.79
263.058	49.83
263.274	47.79
263.49	23.21
263.707	90.79
263.923	39.59
264.139	76.46
264.355	98.99
264.571	84.65
264.787	23.21
265.004	23.21
265.22	96.94
265.436	4.78
265.652	17.07
265.868	55.98
266.084	-19.8
266.3	49.83
266.516	15.02
266.732	21.16
266.948	45.74
267.164	78.51
267.38	19.11
267.596	103.08
267.812	43.69
268.028	19.11
268.244	29.35
268.46	-9.56
268.676	68.27
268.892	35.5
269.108	39.59
269.324	33.45
269.54	-11.61
269.756	23.21
269.972	72.36
270.188	101.03
270.403	82.6
270.619	35.5
270.835	53.93
271.051	25.26
271.267	88.75
271.483	60.07
271.698	64.17
271.914	-3.41
272.13	74.41
272.346	105.13
272.562	47.79
272.777	12.97
272.993	10.92
273.209	55.98
273.425	35.5
273.64	27.31
273.856	78.51
274.072	94.89
274.287	37.55
274.503	98.99
274.719	64.17
274.934	55.98
275.15	15.02
275.366	41.64
275.581	64.17
275.797	53.93
276.012	-36.18
276.228	-30.04
276.444	53.93
276.659	82.6
276.875	121.51
277.09	-30.04
277.306	66.22
277.521	-27.99
277.737	2.73
277.952	103.08
278.168	43.69
278.383	47.79
278.599	25.26
278.814	15.02
279.03	19.11
279.245	121.51
279.461	55.98
279.676	80.55
279.892	39.59
280.107	-13.65
280.322	82.6
280.538	88.75
280.753	125.61
280.969	35.5
281.184	-23.89
281.399	-13.65
281.615	8.87
281.83	80.55
282.045	43.69
282.26	-25.94
282.476	72.36
282.691	113.32
282.906	35.5
283.122	154.28
283.337	123.56
283.552	119.46
283.767	37.55
283.983	43.69
284.198	33.45
284.413	-27.99
284.628	-34.13
284.843	70.31
285.058	15.02
285.274	17.07
285.489	60.07
285.704	58.03
285.919	-9.56
286.134	92.84
286.349	-5.46
286.564	-34.13
286.779	58.03
286.995	88.75
287.21	15.02
287.425	29.35
287.64	21.16
287.855	58.03
288.07	47.79
288.285	39.59
288.5	92.84
288.715	66.22
288.93	72.36
289.145	29.35
289.36	41.64
289.575	43.69
289.79	-44.37
290.004	66.22
290.219	45.74
290.434	62.12
290.649	60.07
290.864	31.4
291.079	58.03
291.294	37.55
291.509	60.07
291.724	37.55
291.938	17.07
292.153	70.31
292.368	23.21
292.583	86.7
292.798	72.36
293.012	39.59
293.227	64.17
293.442	17.07
293.657	80.55
293.871	66.22
294.086	35.5
294.301	98.99
294.516	29.35
294.73	6.83
294.945	19.11
295.16	37.55
295.374	47.79
295.589	41.64
295.804	49.83
296.018	-9.56
296.233	55.98
296.447	45.74
296.662	55.98
296.877	-30.04
297.091	76.46
297.306	33.45
297.52	12.97
297.735	213.67
297.949	64.17
298.164	78.51
298.378	109.22
298.593	66.22
298.807	-3.41
299.022	25.26
299.236	123.56
299.451	35.5
299.665	35.5
299.88	10.92
300.094	19.11
300.309	88.75
300.523	55.98
300.737	47.79
300.952	-58.71
301.166	60.07
301.381	29.35
301.595	-21.85
301.809	8.87
302.024	82.6
302.238	-34.13
302.452	27.31
302.667	-5.46
302.881	105.13
303.095	94.89
303.309	-23.89
303.524	86.7
303.738	-9.56
303.952	-25.94
304.166	23.21
304.381	-60.76
304.595	76.46
304.809	6.83
305.023	-3.41
305.237	68.27
305.452	76.46
305.666	2.73
305.88	96.94
306.094	55.98
306.308	121.51
306.522	60.07
306.736	74.41
306.95	6.83
307.164	82.6
307.379	72.36
307.593	35.5
307.807	82.6
308.021	27.31
308.235	41.64
308.449	78.51
308.663	35.5
308.877	27.31
309.091	47.79
309.305	82.6
309.519	33.45
309.733	70.31
309.947	64.17
310.161	88.75
310.374	-21.85
310.588	98.99
310.802	15.02
311.016	39.59
311.23	39.59
311.444	101.03
311.658	146.09
311.872	41.64
312.085	74.41
312.299	62.12
312.513	21.16
312.727	-5.46
312.941	29.35
313.154	86.7
313.368	35.5
313.582	37.55
313.796	72.36
314.009	82.6
314.223	17.07
314.437	117.42
314.651	-3.41
314.864	17.07
315.078	66.22
315.292	90.79
315.505	6.83
315.719	55.98
315.933	86.7
316.146	35.5
316.36	6.83
316.573	-5.46
316.787	113.32
317.001	103.08
317.214	58.03
317.428	55.98
317.641	12.97
317.855	82.6
318.068	19.11
318.282	12.97
318.495	105.13
318.709	64.17
318.922	129.7
319.136	68.27
319.349	88.75
319.563	111.27
319.776	51.88
319.99	123.56
320.203	64.17
320.417	72.36
320.63	62.12
320.843	39.59
321.057	64.17
321.27	64.17
321.483	49.83
321.697	146.09
321.91	-3.41
322.124	27.31
322.337	72.36
322.55	33.45
322.763	49.83
322.977	12.97
323.19	49.83
323.403	86.7
323.617	84.65
323.83	27.31
324.043	78.51
324.256	55.98
324.469	6.83
324.683	121.51
324.896	92.84
325.109	6.83
325.322	82.6
325.535	37.55
325.748	27.31
325.962	86.7
326.175	78.51
326.388	43.69
326.601	98.99
326.814	66.22
327.027	17.07
327.24	129.7
327.453	0.68
327.666	103.08
327.879	25.26
328.092	15.02
328.305	55.98
328.518	66.22
328.731	2.73
328.944	125.61
329.157	101.03
329.37	43.69
329.583	-17.75
329.796	94.89
330.009	27.31
330.222	49.83
330.435	82.6
330.648	17.07
330.861	47.79
331.073	33.45
331.286	27.31
331.499	53.93
331.712	90.79
331.925	64.17
332.138	49.83
332.35	27.31
332.563	19.11
332.776	47.79
332.989	74.41
333.202	64.17
333.414	47.79
333.627	-21.85
333.84	62.12
334.053	41.64
334.265	-21.85
334.478	58.03
334.691	90.79
334.903	25.26
335.116	27.31
335.329	62.12
335.541	43.69
335.754	70.31
335.966	-3.41
336.179	37.55
336.392	47.79
336.604	98.99
336.817	88.75
337.029	35.5
337.242	-1.37
337.454	39.59
337.667	131.75
337.88	39.59
338.092	33.45
338.305	41.64
338.517	39.59
338.729	82.6
338.942	-11.61
339.154	86.7
339.367	6.83
339.579	41.64
339.792	62.12
340.004	25.26
340.217	0.68
340.429	55.98
340.641	53.93
340.854	10.92
341.066	8.87
341.278	98.99
341.491	96.94
341.703	92.84
341.915	39.59
342.128	62.12
342.34	162.47
342.552	25.26
342.764	4.78
342.977	64.17
343.189	35.5
343.401	55.98
343.613	84.65
343.826	86.7
344.038	19.11
344.25	74.41
344.462	90.79
344.674	60.07
344.886	64.17
345.099	31.4
345.311	41.64
345.523	80.55
345.735	64.17
345.947	29.35
346.159	88.75
346.371	33.45
346.583	35.5
346.795	78.51
347.007	39.59
347.219	84.65
347.431	47.79
347.643	37.55
347.855	-13.65
348.067	125.61
348.279	-15.7
348.491	78.51
348.703	53.93
348.915	60.07
349.127	68.27
349.339	107.18
349.551	23.21
349.763	51.88
349.975	15.02
350.187	96.94
350.399	86.7
350.61	105.13
350.822	39.59
351.034	66.22
351.246	19.11
351.458	96.94
351.669	-1.37
351.881	168.62
352.093	23.21
352.305	8.87
352.517	43.69
352.728	64.17
352.94	60.07
353.152	39.59
353.363	2.73
353.575	43.69
353.787	68.27
353.999	35.5
354.21	33.45
354.422	41.64
354.633	39.59
354.845	6.83
355.057	2.73
355.268	62.12
355.48	58.03
355.692	41.64
355.903	6.83
356.115	19.11
356.326	68.27
356.538	76.46
356.749	19.11
356.961	45.74
357.172	39.59
357.384	-17.75
357.595	47.79
357.807	6.83
358.018	53.93
358.23	51.88
358.441	53.93
358.653	92.84
358.864	-11.61
359.075	60.07
359.287	129.7
359.498	53.93
359.709	21.16
359.921	-19.8
360.132	47.79
360.344	25.26
360.555	45.74
360.766	131.75
360.977	76.46
361.189	2.73
361.4	35.5
361.611	82.6
361.823	33.45
362.034	72.36
362.245	-19.8
362.456	119.46
362.667	58.03
362.879	76.46
363.09	137.9
363.301	2.73
363.512	45.74
363.723	92.84
363.935	64.17
364.146	23.21
364.357	68.27
364.568	49.83
364.779	31.4
364.99	51.88
365.201	96.94
365.412	68.27
365.623	82.6
365.834	47.79
366.045	23.21
366.256	45.74
366.467	39.59
366.678	41.64
366.889	103.08
367.1	70.31
367.311	19.11
367.522	39.59
367.733	29.35
367.944	8.87
368.155	-17.75
368.366	127.66
368.577	64.17
368.788	82.6
368.999	90.79
369.209	101.03
369.42	66.22
369.631	119.46
369.842	96.94
370.053	39.59
370.264	72.36
370.474	29.35
370.685	82.6
370.896	58.03
371.107	45.74
371.317	29.35
371.528	39.59
371.739	76.46
371.95	21.16
372.16	92.84
372.371	-13.65
372.582	37.55
372.792	2.73
373.003	84.65
373.214	109.22
373.424	39.59
373.635	105.13
373.846	35.5
374.056	55.98
374.267	47.79
374.477	92.84
374.688	33.45
374.898	117.42
375.109	29.35
375.319	109.22
375.53	156.33
375.74	58.03
375.951	25.26
376.161	35.5
376.372	37.55
376.582	66.22
376.793	17.07
377.003	60.07
377.214	88.75
377.424	103.08
377.635	117.42
377.845	45.74
378.055	109.22
378.266	68.27
378.476	55.98
378.686	109.22
378.897	27.31
379.107	86.7
379.317	51.88
379.528	39.59
379.738	64.17
379.948	76.46
380.158	12.97
380.369	125.61
380.579	98.99
380.789	47.79
380.999	82.6
381.21	125.61
381.42	96.94
381.63	12.97
381.84	84.65
382.05	47.79
382.261	72.36
382.471	78.51
382.681	76.46
382.891	141.99
383.101	101.03
383.311	12.97
383.521	92.84
383.731	66.22
383.941	103.08
384.151	80.55
384.361	60.07
384.571	-5.46
384.781	170.66
384.991	45.74
385.201	96.94
385.411	90.79
385.621	49.83
385.831	4.78
386.041	21.16
386.251	62.12
386.461	103.08
386.671	64.17
386.881	17.07
387.091	119.46
387.301	94.89
387.511	80.55
387.72	55.98
387.93	84.65
388.14	68.27
388.35	105.13
388.56	64.17
388.769	45.74
388.979	141.99
389.189	60.07
389.399	70.31
389.609	76.46
389.818	90.79
390.028	101.03
390.238	39.59
390.447	49.83
390.657	-1.37
390.867	27.31
391.076	98.99
391.286	45.74
391.496	111.27
391.705	17.07
391.915	164.52
392.125	137.9
392.334	121.51
392.544	76.46
392.753	98.99
392.963	96.94
393.172	115.37
393.382	125.61
393.591	98.99
393.801	90.79
394.01	80.55
394.22	60.07
394.429	117.42
394.639	164.52
394.848	109.22
395.058	55.98
395.267	105.13
395.477	88.75
395.686	31.4
395.895	74.41
396.105	105.13
396.314	111.27
396.524	123.56
396.733	127.66
396.942	41.64
397.152	82.6
397.361	70.31
397.57	92.84
397.78	150.18
397.989	94.89
398.198	152.23
398.407	96.94
398.617	162.47
398.826	150.18
399.035	113.32
399.244	105.13
399.453	55.98
399.663	96.94
399.872	78.51
400.081	137.9
400.29	94.89
400.499	68.27
400.708	135.85
400.917	125.61
401.127	180.9
401.336	131.75
401.545	152.23
401.754	125.61
401.963	150.18
402.172	125.61
402.381	111.27
402.59	195.24
402.799	131.75
403.008	127.66
403.217	176.81
403.426	170.66
403.635	111.27
403.844	135.85
404.053	133.8
404.262	146.09
404.471	234.15
404.68	268.97
404.888	228.01
405.097	92.84
405.306	182.95
405.515	250.53
405.724	189.1
405.933	211.62
406.142	244.39
406.35	152.23
406.559	209.58
406.768	230.06
406.977	260.77
407.185	281.25
407.394	162.47
407.603	273.06
407.812	228.01
408.02	240.29
408.229	311.97
408.438	273.06
408.646	287.4
408.855	285.35
409.064	305.83
409.272	297.64
409.481	318.12
409.69	287.4
409.898	326.31
410.107	365.22
410.315	371.36
410.524	385.7
410.733	379.56
410.941	441
411.15	363.17
411.358	467.62
411.567	410.28
411.775	422.56
411.984	432.8
412.192	465.57
412.401	559.78
412.609	510.63
412.818	641.7
413.026	555.68
413.234	594.59
413.443	596.64
413.651	707.23
413.86	623.27
414.068	719.52
414.276	737.95
414.485	699.04
414.693	740
414.901	797.34
415.11	860.83
415.318	899.74
415.526	866.97
415.734	858.78
415.943	959.13
416.151	963.23
416.359	981.66
416.567	955.04
416.776	1069.72
416.984	1116.83
417.192	1129.11
417.4	1196.7
417.608	1186.46
417.817	1137.31
418.025	1260.18
418.233	1368.73
418.441	1317.53
418.649	1495.7
418.857	1391.25
419.065	1557.14
419.273	1542.8
419.481	1667.73
419.689	1704.59
419.897	1637.01
420.105	1733.26
420.313	1813.13
420.521	1845.9
420.729	1944.2
420.937	1958.54
421.145	2054.8
421.353	2161.29
421.561	2341.51
421.769	2327.18
421.977	2441.86
422.185	2488.96
422.393	2491.01
422.601	2749.06
422.809	2577.03
423.017	2677.38
423.224	2833.02
423.432	2955.9
423.64	2978.43
423.848	3160.7
424.056	3156.6
424.263	3246.71
424.471	3326.58
424.679	3349.11
424.887	3609.2
425.094	3691.12
425.302	3711.6
425.51	3916.4
425.718	3914.35
425.925	4156.01
426.133	4203.11
426.341	4461.16
426.548	4516.45
426.756	4643.43
426.964	4606.56
427.171	4938.34
427.379	5106.27
427.586	5042.78
427.794	5225.05
428.001	5415.51
428.209	5718.61
428.417	5814.87
428.624	6003.28
428.832	6126.16
429.039	6072.91
429.247	6003.28
429.454	6662.72
429.662	7131.71
429.869	6562.37
430.076	7041.6
430.284	6758.98
430.491	7105.09
430.699	7539.26
430.906	7617.08
431.114	7440.95
431.321	8098.35
431.528	8112.69
431.736	8524.33
431.943	8903.2
432.15	8688.17
432.358	8923.68
432.565	9284.12
432.772	9499.16
432.979	9767.45
433.187	10064.4
433.394	10121.74
433.601	10598.92
433.808	10766.85
434.016	10676.74
434.223	11069.95
434.43	11450.88
434.637	11547.13
434.844	12073.46
435.052	12708.33
435.259	12495.34
435.466	12569.07
435.673	12288.5
435.88	13279.71
436.087	13828.57
436.294	13869.53
436.501	13527.52
436.708	14016.98
436.915	14520.78
437.122	14916.04
437.329	15063.49
437.537	15595.96
437.743	15731.13
437.95	15464.89
438.157	16165.3
438.364	16837.03
438.571	16845.23
438.778	17058.21
438.985	18545.04
439.192	18094.49
439.399	18364.82
439.606	17979.8
439.813	18936.2
440.02	20244.85
440.227	19767.68
440.433	19548.54
440.64	20482.42
440.847	20199.8
441.054	20605.3
441.261	21872.99
441.467	21854.56
441.674	22348.12
441.881	23218.5
442.088	23003.47
442.294	22452.56
442.501	23429.45
442.708	23896.38
442.914	24607.03
443.121	26149.15
443.328	25164.07
443.534	26784.02
443.741	26065.18
443.948	25680.16
444.154	27681.03
444.361	27537.67
444.568	27502.85
444.774	27982.08
444.981	28170.49
445.187	29034.74
445.394	30494.94
445.6	29669.61
445.807	32497.85
446.013	30984.4
446.22	31793.35
446.426	33116.34
446.633	33460.4
446.839	34627.74
447.046	33212.59
447.252	34513.05
447.459	35035.28
447.665	34887.83
447.871	36524.16
448.078	37595.25
448.284	35993.73
448.491	36993.14
448.697	38846.55
448.903	39028.82
449.11	39176.28
449.316	38660.19
449.522	39403.6
449.728	40046.66
449.935	40673.34
450.141	40468.55
450.347	41564.21
450.553	40218.69
450.76	40747.07
450.966	42237.99
451.172	42047.53
451.378	42819.61
451.584	41869.36
451.791	43116.57
451.997	42782.75
452.203	43290.65
452.409	43214.87
452.615	43331.61
452.821	41580.59
453.027	41545.78
453.233	43358.23
453.44	41709.61
453.646	42465.31
453.852	42471.46
454.058	43057.18
454.264	41678.89
454.47	42799.13
454.676	41699.37
454.882	42856.48
455.088	39577.68
455.294	39835.72
455.5	40407.11
455.705	40968.25
455.911	39247.96
456.117	38414.43
456.323	38289.51
456.529	36079.75
456.735	37793.9
456.941	36878.46
457.147	35852.42
457.352	35119.25
457.558	34984.08
457.764	34564.25
457.97	34021.54
458.176	33290.41
458.381	33349.81
458.587	31578.31
458.793	31463.63
458.999	30447.83
459.204	32469.18
459.41	31176.91
459.616	29556.97
459.821	29413.61
460.027	29384.94
460.233	28520.7
460.438	27105.55
460.644	27683.08
460.85	26276.12
461.055	25987.36
461.261	25985.31
461.466	23777.6
461.672	23146.83
461.878	24772.91
462.083	23482.69
462.289	22813.01
462.494	22800.72
462.7	21600.61
462.905	20664.69
463.111	21805.41
463.316	21715.3
463.522	21449.06
463.727	21188.97
463.932	21322.09
464.138	20928.88
464.343	21076.33
464.549	20285.81
464.754	21186.92
464.959	20947.31
465.165	20846.96
465.37	20199.8
465.575	19644.8
465.781	20386.16
465.986	20236.66
466.191	19618.18
466.397	19145.09
466.602	18336.15
466.807	18925.96
467.012	19151.24
467.218	18893.19
467.423	18581.9
467.628	18702.73
