Data from USB4F104151__26__12-17-11-644.txt Node

Date: Wed Feb 19 12:17:11 EST 2025
User: louis
Spectrometer: USB4F10415
Trigger mode: 4
Integration Time (sec): 2.250200E-1
Scans to average: 1
Electric dark correction enabled: true
Nonlinearity correction enabled: false
Boxcar width: 0
XAxis mode: Wavelengths
Number of Pixels in Spectrum: 3648
>>>>>Begin Spectral Data<<<<<
178.204	-806.9
178.424	-806.9
178.644	-806.9
178.864	-800.76
179.084	-821.24
179.304	124.93
179.524	100.35
179.744	-47.1
179.964	-174.08
180.184	129.02
180.404	143.36
180.624	-249.85
180.844	-92.16
181.064	2.05
181.283	231.42
181.503	-94.21
181.723	-73.73
181.943	-106.49
182.163	411.64
182.383	-196.61
182.602	-120.83
182.822	464.89
183.042	301.05
183.262	-215.04
183.482	-145.41
183.701	258.04
183.921	243.71
184.141	-159.74
184.361	-116.73
184.58	229.37
184.8	229.37
185.02	-262.14
185.239	-61.44
185.459	282.62
185.679	462.84
185.898	-241.66
186.118	-172.03
186.338	339.96
186.557	329.72
186.777	-233.47
186.997	-165.89
187.216	288.76
187.436	456.7
187.655	-116.73
187.875	-81.92
188.095	219.13
188.314	372.73
188.534	-24.58
188.753	-315.39
188.973	319.48
189.192	520.18
189.412	-169.98
189.631	-151.55
189.851	368.63
190.07	493.56
190.29	-159.74
190.509	-198.65
190.729	225.28
190.948	446.46
191.168	-69.63
191.387	-206.84
191.607	122.88
191.826	321.53
192.045	-83.97
192.265	-176.13
192.484	385.02
192.704	280.57
192.923	-141.31
193.142	-49.15
193.362	311.29
193.581	374.78
193.8	-90.11
194.02	-86.01
194.239	147.45
194.458	305.15
194.678	-106.49
194.897	-178.17
195.116	233.47
195.335	278.52
195.555	-112.64
195.774	-253.95
195.993	364.54
196.212	186.37
196.432	-124.93
196.651	-151.55
196.87	200.7
197.089	602.1
197.308	-118.78
197.528	-118.78
197.747	47.1
197.966	178.17
198.185	-20.48
198.404	-215.04
198.623	274.43
198.842	421.88
199.062	-90.11
199.281	-67.58
199.5	245.76
199.719	337.91
199.938	-174.08
200.157	-75.77
200.376	430.07
200.595	325.63
200.814	-75.77
201.033	-157.69
201.252	471.03
201.471	339.96
201.69	-167.93
201.909	-86.01
202.128	362.49
202.347	339.96
202.566	-59.39
202.785	-260.09
203.004	190.46
203.223	565.24
203.442	-112.64
203.661	-272.38
203.879	262.14
204.098	327.67
204.317	-210.94
204.536	22.53
204.755	358.39
204.974	307.2
205.193	-331.77
205.411	-65.54
205.63	450.55
205.849	258.04
206.068	-143.36
206.287	-280.57
206.505	425.98
206.724	178.17
206.943	-231.42
207.162	-157.69
207.381	247.8
207.599	290.81
207.818	-18.43
208.037	-262.14
208.255	167.93
208.474	331.77
208.693	-90.11
208.911	-141.31
209.13	358.39
209.349	313.34
209.567	16.38
209.786	-149.5
210.005	309.24
210.223	202.75
210.442	-319.48
210.661	-202.75
210.879	299
211.098	212.99
211.316	-147.45
211.535	-145.41
211.753	294.91
211.972	370.68
212.191	-118.78
212.409	-79.87
212.628	395.26
212.846	161.79
213.065	-270.33
213.283	-77.82
213.502	278.52
213.72	245.76
213.938	-169.98
214.157	-192.51
214.375	348.15
214.594	163.84
214.812	-8.19
215.031	-180.22
215.249	303.1
215.467	241.66
215.686	-2.05
215.904	-96.25
216.122	307.2
216.341	409.59
216.559	-4.1
216.778	-94.21
216.996	438.27
217.214	243.71
217.432	-176.13
217.651	-241.66
217.869	288.76
218.087	169.98
218.306	-204.8
218.524	-169.98
218.742	143.36
218.96	450.55
219.179	-231.42
219.397	-147.45
219.615	557.05
219.833	356.35
220.051	-217.08
220.27	-71.68
220.488	423.93
220.706	245.76
220.924	-249.85
221.142	-186.37
221.36	319.48
221.578	327.67
221.796	-182.27
222.015	-61.44
222.233	342.01
222.451	481.27
222.669	-83.97
222.887	6.14
223.105	153.6
223.323	178.17
223.541	-94.21
223.759	-75.77
223.977	264.19
224.195	446.46
224.413	-135.17
224.631	-172.03
224.849	315.39
225.067	438.27
225.285	-67.58
225.503	-86.01
225.721	-2.05
225.939	245.76
226.157	-102.4
226.375	6.14
226.592	243.71
226.81	215.04
227.028	43.01
227.246	-131.07
227.464	229.37
227.682	260.09
227.9	-73.73
228.117	-94.21
228.335	333.82
228.553	258.04
228.771	-194.56
228.989	-116.73
229.206	325.63
229.424	192.51
229.642	-77.82
229.86	-180.22
230.077	438.27
230.295	188.41
230.513	-59.39
230.731	-137.21
230.948	464.89
231.166	403.45
231.384	-77.82
231.601	-124.93
231.819	507.9
232.037	75.77
232.254	-92.16
232.472	-149.5
232.689	169.98
232.907	417.79
233.125	-229.37
233.342	-188.41
233.56	182.27
233.777	208.89
233.995	-92.16
234.213	-114.69
234.43	270.33
234.648	258.04
234.865	-118.78
235.083	-108.54
235.3	249.85
235.518	323.58
235.735	-104.45
235.953	-86.01
236.17	251.9
236.388	208.89
236.605	61.44
236.822	-77.82
237.04	352.25
237.257	208.89
237.475	-122.88
237.692	-151.55
237.909	311.29
238.127	153.6
238.344	14.34
238.562	-104.45
238.779	94.21
238.996	69.63
239.214	8.19
239.431	-116.73
239.648	143.36
239.865	292.86
240.083	-81.92
240.3	-114.69
240.517	212.99
240.735	202.75
240.952	69.63
241.169	-133.12
241.386	290.81
241.603	159.74
241.821	-161.79
242.038	-131.07
242.255	342.01
242.472	8.19
242.689	-108.54
242.907	-155.65
243.124	260.09
243.341	184.32
243.558	-104.45
243.775	-141.31
243.992	81.92
244.209	245.76
244.426	-61.44
244.643	-75.77
244.86	192.51
245.078	350.2
245.295	-120.83
245.512	-126.97
245.729	135.17
245.946	331.77
246.163	-83.97
246.38	-65.54
246.597	253.95
246.814	229.37
247.031	-75.77
247.248	-124.93
247.464	307.2
247.681	129.02
247.898	-30.72
248.115	-47.1
248.332	131.07
248.549	430.07
248.766	-12.29
248.983	-143.36
249.2	376.83
249.417	354.3
249.633	-77.82
249.85	16.38
250.067	190.46
250.284	126.97
250.501	-81.92
250.717	-114.69
250.934	43.01
251.151	210.94
251.368	-67.58
251.585	-106.49
251.801	186.37
252.018	53.25
252.235	-10.24
252.451	-147.45
252.668	202.75
252.885	352.25
253.102	-81.92
253.318	-118.78
253.535	169.98
253.752	116.73
253.968	-24.58
254.185	-151.55
254.401	249.85
254.618	198.65
254.835	-102.4
255.051	-79.87
255.268	296.96
255.484	276.48
255.701	-98.3
255.917	-20.48
256.134	112.64
256.351	229.37
256.567	-184.32
256.784	14.34
257	-26.62
257.217	380.92
257.433	57.34
257.65	-96.25
257.866	331.77
258.082	45.06
258.299	-151.55
258.515	-149.5
258.732	180.22
258.948	163.84
259.165	-77.82
259.381	-223.23
259.597	335.87
259.814	221.18
260.03	-133.12
260.246	-114.69
260.463	323.58
260.679	368.63
260.895	8.19
261.112	-22.53
261.328	206.84
261.544	178.17
261.761	-86.01
261.977	-122.88
262.193	129.02
262.409	321.53
262.626	20.48
262.842	-100.35
263.058	174.08
263.274	352.25
263.49	0
263.707	-217.08
263.923	360.44
264.139	28.67
264.355	26.62
264.571	-59.39
264.787	335.87
265.004	337.91
265.22	-8.19
265.436	-100.35
265.652	196.61
265.868	311.29
266.084	-122.88
266.3	-122.88
266.516	120.83
266.732	229.37
266.948	-38.91
267.164	-178.17
267.38	409.59
267.596	227.32
267.812	59.39
268.028	-26.62
268.244	141.31
268.46	227.32
268.676	-77.82
268.892	-4.1
269.108	-2.05
269.324	12.29
269.54	-141.31
269.756	-14.34
269.972	83.97
270.188	169.98
270.403	-131.07
270.619	-108.54
270.835	249.85
271.051	155.65
271.267	-47.1
271.483	-196.61
271.698	311.29
271.914	245.76
272.13	-49.15
272.346	-106.49
272.562	102.4
272.777	382.97
272.993	-2.05
273.209	-77.82
273.425	278.52
273.64	12.29
273.856	-102.4
274.072	-180.22
274.287	155.65
274.503	327.67
274.719	49.15
274.934	-167.93
275.15	79.87
275.366	174.08
275.581	-153.6
275.797	-108.54
276.012	233.47
276.228	61.44
276.444	-65.54
276.659	90.11
276.875	100.35
277.09	90.11
277.306	53.25
277.521	-40.96
277.737	167.93
277.952	206.84
278.168	-110.59
278.383	-32.77
278.599	135.17
278.814	264.19
279.03	-110.59
279.245	16.38
279.461	245.76
279.676	358.39
279.892	-20.48
280.107	-79.87
280.322	83.97
280.538	249.85
280.753	-86.01
280.969	-43.01
281.184	235.52
281.399	352.25
281.615	-30.72
281.83	65.53
282.045	40.96
282.26	98.3
282.476	-98.3
282.691	75.77
282.906	186.37
283.122	114.69
283.337	22.53
283.552	12.29
283.767	126.97
283.983	243.71
284.198	-24.58
284.413	-26.62
284.628	32.77
284.843	196.61
285.058	-96.25
285.274	-24.58
285.489	116.73
285.704	180.22
285.919	-94.21
286.134	18.43
286.349	151.55
286.564	151.55
286.779	75.77
286.995	-20.48
287.21	-45.06
287.425	258.04
287.64	-43.01
287.855	116.73
288.07	-34.82
288.285	325.63
288.5	-34.82
288.715	-51.2
288.93	233.47
289.145	53.25
289.36	8.19
289.575	-51.2
289.79	323.58
290.004	133.12
290.219	100.35
290.434	-102.4
290.649	75.77
290.864	161.79
291.079	16.38
291.294	-28.67
291.509	253.95
291.724	120.83
291.938	-14.34
292.153	-73.73
292.368	159.74
292.583	303.1
292.798	63.49
293.012	12.29
293.227	196.61
293.442	241.66
293.657	157.69
293.871	8.19
294.086	309.24
294.301	323.58
294.516	26.62
294.73	73.73
294.945	61.44
295.16	176.13
295.374	-14.34
295.589	141.31
295.804	202.75
296.018	98.3
296.233	-47.1
296.447	36.86
296.662	112.64
296.877	399.35
297.091	51.2
297.306	-24.58
297.52	165.89
297.735	253.95
297.949	45.06
298.164	-217.08
298.378	210.94
298.593	-8.19
298.807	-34.82
299.022	2.05
299.236	323.58
299.451	28.67
299.665	53.25
299.88	34.82
300.094	292.86
300.309	110.59
300.523	-12.29
300.737	18.43
300.952	278.52
301.166	217.08
301.381	-8.19
301.595	-75.77
301.809	110.59
302.024	169.98
302.238	-8.19
302.452	153.6
302.667	210.94
302.881	204.8
303.095	-6.14
303.309	122.88
303.524	137.21
303.738	110.59
303.952	49.15
304.166	2.05
304.381	-26.62
304.595	251.9
304.809	22.53
305.023	-61.44
305.237	57.34
305.452	51.2
305.666	-53.25
305.88	143.36
306.094	339.96
306.308	159.74
306.522	-79.87
306.736	94.21
306.95	290.81
307.164	53.25
307.379	73.73
307.593	71.68
307.807	325.63
308.021	276.48
308.235	137.21
308.449	-79.87
308.663	204.8
308.877	464.89
309.091	16.38
309.305	79.87
309.519	18.43
309.733	186.37
309.947	-77.82
310.161	-112.64
310.374	258.04
310.588	372.73
310.802	-133.12
311.016	73.73
311.23	223.23
311.444	22.53
311.658	-94.21
311.872	217.08
312.085	210.94
312.299	329.72
312.513	190.46
312.727	-65.54
312.941	79.87
313.154	217.08
313.368	28.67
313.582	26.62
313.796	227.32
314.009	157.69
314.223	94.21
314.437	88.06
314.651	262.14
314.864	106.49
315.078	20.48
315.292	-20.48
315.505	133.12
315.719	159.74
315.933	102.4
316.146	-61.44
316.36	2.05
316.573	274.43
316.787	219.13
317.001	67.58
317.214	59.39
317.428	233.47
317.641	-24.58
317.855	47.1
318.068	225.28
318.282	184.32
318.495	202.75
318.709	51.2
318.922	174.08
319.136	227.32
319.349	122.88
319.563	20.48
319.776	256
319.99	16.38
320.203	90.11
320.417	-24.58
320.63	180.22
320.843	241.66
321.057	-30.72
321.27	32.77
321.483	272.38
321.697	233.47
321.91	61.44
322.124	49.15
322.337	219.13
322.55	122.88
322.763	137.21
322.977	-139.26
323.19	112.64
323.403	112.64
323.617	43.01
323.83	258.04
324.043	106.49
324.256	204.8
324.469	-167.93
324.683	163.84
324.896	208.89
325.109	155.65
325.322	-118.78
325.535	30.72
325.748	329.72
325.962	163.84
326.175	114.69
326.388	-51.2
326.601	223.23
326.814	147.45
327.027	4.1
327.24	147.45
327.453	0
327.666	227.32
327.879	194.56
328.092	53.25
328.305	278.52
328.518	118.78
328.731	8.19
328.944	10.24
329.157	165.89
329.37	14.34
329.583	131.07
329.796	61.44
330.009	32.77
330.222	237.56
330.435	108.54
330.648	88.06
330.861	235.52
331.073	208.89
331.286	143.36
331.499	4.1
331.712	63.49
331.925	172.03
332.138	55.3
332.35	-26.62
332.563	139.26
332.776	323.58
332.989	0
333.202	-49.15
333.414	186.37
333.627	172.03
333.84	-4.1
334.053	120.83
334.265	75.77
334.478	86.01
334.691	-18.43
334.903	178.17
335.116	40.96
335.329	145.41
335.541	129.02
335.754	292.86
335.966	243.71
336.179	159.74
336.392	38.91
336.604	30.72
336.817	212.99
337.029	258.04
337.242	10.24
337.454	96.25
337.667	296.96
337.88	329.72
338.092	55.3
338.305	73.73
338.517	51.2
338.729	284.67
338.942	26.62
339.154	-129.02
339.367	-30.72
339.579	178.17
339.792	-55.3
340.004	18.43
340.217	223.23
340.429	208.89
340.641	-55.3
340.854	-79.87
341.066	155.65
341.278	331.77
341.491	221.18
341.703	-51.2
341.915	86.01
342.128	247.8
342.34	20.48
342.552	20.48
342.764	106.49
342.977	169.98
343.189	153.6
343.401	137.21
343.613	65.53
343.826	151.55
344.038	-2.05
344.25	131.07
344.462	120.83
344.674	202.75
344.886	-153.6
345.099	69.63
345.311	258.04
345.523	110.59
345.735	-120.83
345.947	86.01
346.159	227.32
346.371	262.14
346.583	16.38
346.795	112.64
347.007	65.53
347.219	206.84
347.431	45.06
347.643	147.45
347.855	108.54
348.067	339.96
348.279	-36.86
348.491	2.05
348.703	317.44
348.915	98.3
349.127	28.67
349.339	71.68
349.551	147.45
349.763	346.11
349.975	22.53
350.187	22.53
350.399	417.79
350.61	161.79
350.822	-10.24
351.034	40.96
351.246	327.67
351.458	262.14
351.669	22.53
351.881	-77.82
352.093	292.86
352.305	258.04
352.517	16.38
352.728	98.3
352.94	196.61
353.152	294.91
353.363	75.77
353.575	96.25
353.787	356.35
353.999	192.51
354.21	116.73
354.422	-59.39
354.633	131.07
354.845	264.19
355.057	176.13
355.268	14.34
355.48	378.87
355.692	6.14
355.903	112.64
356.115	-53.25
356.326	-8.19
356.538	368.63
356.749	8.19
356.961	73.73
357.172	225.28
357.384	104.45
357.595	278.52
357.807	-32.77
358.018	57.34
358.23	169.98
358.441	-2.05
358.653	16.38
358.864	135.17
359.075	71.68
359.287	38.91
359.498	73.73
359.709	278.52
359.921	241.66
360.132	43.01
360.344	22.53
360.555	94.21
360.766	206.84
360.977	-86.01
361.189	79.87
361.4	274.43
361.611	225.28
361.823	69.63
362.034	20.48
362.245	22.53
362.456	204.8
362.667	172.03
362.879	-43.01
363.09	256
363.301	235.52
363.512	100.35
363.723	-69.63
363.935	114.69
364.146	364.54
364.357	-20.48
364.568	6.14
364.779	88.06
364.99	315.39
365.201	-4.1
365.412	178.17
365.623	36.86
365.834	268.28
366.045	104.45
366.256	63.49
366.467	339.96
366.678	169.98
366.889	10.24
367.1	94.21
367.311	301.05
367.522	157.69
367.733	75.77
367.944	98.3
368.155	153.6
368.366	268.28
368.577	92.16
368.788	172.03
368.999	49.15
369.209	178.17
369.42	153.6
369.631	425.98
369.842	282.62
370.053	131.07
370.264	92.16
370.474	18.43
370.685	227.32
370.896	163.84
371.107	155.65
371.317	63.49
371.528	198.65
371.739	395.26
371.95	120.83
372.16	63.49
372.371	14.34
372.582	129.02
372.792	-6.14
373.003	114.69
373.214	221.18
373.424	184.32
373.635	-20.48
373.846	149.5
374.056	188.41
374.267	155.65
374.477	131.07
374.688	14.34
374.898	284.67
375.109	233.47
375.319	47.1
375.53	6.14
375.74	311.29
375.951	36.86
376.161	145.41
376.372	43.01
376.582	210.94
376.793	231.42
377.003	-49.15
377.214	-61.44
377.424	284.67
377.635	303.1
377.845	43.01
378.055	153.6
378.266	47.1
378.476	241.66
378.686	16.38
378.897	32.77
379.107	315.39
379.317	286.72
379.528	-24.58
379.738	104.45
379.948	108.54
380.158	251.9
380.369	79.87
380.579	149.5
380.789	165.89
380.999	106.49
381.21	149.5
381.42	200.7
381.63	151.55
381.84	327.67
382.05	34.82
382.261	147.45
382.471	391.16
382.681	112.64
382.891	180.22
383.101	126.97
383.311	40.96
383.521	100.35
383.731	0
383.941	135.17
384.151	268.28
384.361	98.3
384.571	2.05
384.781	94.21
384.991	317.44
385.201	348.15
385.411	124.93
385.621	102.4
385.831	284.67
386.041	235.52
386.251	124.93
386.461	153.6
386.671	247.8
386.881	282.62
387.091	59.39
387.301	98.3
387.511	208.89
387.72	163.84
387.93	112.64
388.14	-10.24
388.35	301.05
388.56	356.35
388.769	79.87
388.979	79.87
389.189	96.25
389.399	147.45
389.609	4.1
389.818	69.63
390.028	233.47
390.238	237.56
390.447	-24.58
390.657	100.35
390.867	204.8
391.076	32.77
391.286	-20.48
391.496	53.25
391.705	217.08
391.915	385.02
392.125	16.38
392.334	104.45
392.544	344.06
392.753	143.36
392.963	71.68
393.172	43.01
393.382	129.02
393.591	436.22
393.801	77.82
394.01	88.06
394.22	309.24
394.429	217.08
394.639	67.58
394.848	86.01
395.058	268.28
395.267	223.23
395.477	167.93
395.686	53.25
395.895	524.28
396.105	354.3
396.314	145.41
396.524	55.3
396.733	61.44
396.942	319.48
397.152	59.39
397.361	202.75
397.57	200.7
397.78	210.94
397.989	165.89
398.198	264.19
398.407	188.41
398.617	118.78
398.826	69.63
399.035	20.48
399.244	325.63
399.453	282.62
399.663	-77.82
399.872	12.29
400.081	210.94
400.29	356.35
400.499	-38.91
400.708	131.07
400.917	219.13
401.127	165.89
401.336	100.35
401.545	315.39
401.754	366.59
401.963	331.77
402.172	83.97
402.381	8.19
402.59	188.41
402.799	206.84
403.008	284.67
403.217	90.11
403.426	233.47
403.635	28.67
403.844	-26.62
404.053	63.49
404.262	149.5
404.471	409.59
404.68	65.53
404.888	53.25
405.097	114.69
405.306	202.75
405.515	147.45
405.724	12.29
405.933	327.67
406.142	219.13
406.35	83.97
406.559	169.98
406.768	196.61
406.977	552.95
407.185	38.91
407.394	153.6
407.603	114.69
407.812	260.09
408.02	157.69
408.229	114.69
408.438	266.24
408.646	94.21
408.855	-40.96
409.064	-20.48
409.272	223.23
409.481	253.95
409.69	36.86
409.898	-53.25
410.107	186.37
410.315	358.39
410.524	45.06
410.733	65.53
410.941	196.61
411.15	372.73
411.358	102.4
411.567	229.37
411.775	237.56
411.984	194.56
412.192	159.74
412.401	-20.48
412.609	458.74
412.818	350.2
413.026	145.41
413.234	12.29
413.443	235.52
413.651	110.59
413.86	-49.15
414.068	268.28
414.276	497.66
414.485	135.17
414.693	159.74
414.901	235.52
415.11	339.96
415.318	217.08
415.526	131.07
415.734	202.75
415.943	268.28
416.151	342.01
416.359	104.45
416.567	120.83
416.776	270.33
416.984	284.67
417.192	186.37
417.4	-2.05
417.608	178.17
417.817	81.92
418.025	167.93
418.233	167.93
418.441	55.3
418.649	116.73
418.857	180.22
419.065	147.45
419.273	169.98
419.481	303.1
419.689	161.79
419.897	45.06
420.105	110.59
420.313	360.44
420.521	145.41
420.729	165.89
420.937	192.51
421.145	71.68
421.353	135.17
421.561	186.37
421.769	337.91
421.977	159.74
422.185	126.97
422.393	92.16
422.601	268.28
422.809	286.72
423.017	118.78
423.224	34.82
423.432	360.44
423.64	196.61
423.848	57.34
424.056	83.97
424.263	401.4
424.471	227.32
424.679	210.94
424.887	79.87
425.094	382.97
425.302	327.67
425.51	55.3
425.718	114.69
425.925	315.39
426.133	159.74
426.341	241.66
426.548	104.45
426.756	155.65
426.964	292.86
427.171	135.17
427.379	129.02
427.586	284.67
427.794	356.35
428.001	225.28
428.209	198.65
428.417	425.98
428.624	315.39
428.832	159.74
429.039	118.78
429.247	241.66
429.454	280.57
429.662	206.84
429.869	176.13
430.076	385.02
430.284	319.48
430.491	196.61
430.699	258.04
430.906	497.66
431.114	346.11
431.321	288.76
431.528	229.37
431.736	354.3
431.943	321.53
432.15	260.09
432.358	212.99
432.565	665.59
432.772	86.01
432.979	288.76
433.187	258.04
433.394	522.23
433.601	319.48
433.808	260.09
434.016	374.78
434.223	321.53
434.43	364.54
434.637	290.81
434.844	333.82
435.052	456.7
435.259	481.27
435.466	315.39
435.673	317.44
435.88	542.71
436.087	559.1
436.294	557.05
436.501	397.31
436.708	454.65
436.915	509.94
437.122	462.84
437.329	299
437.537	407.55
437.743	548.86
437.95	487.42
438.157	489.46
438.364	606.2
438.571	591.86
438.778	346.11
438.985	575.48
439.192	686.07
439.399	694.26
439.606	503.8
439.813	632.82
440.02	899.06
440.227	940.02
440.433	649.21
440.64	587.77
440.847	710.65
441.054	671.73
441.261	733.17
441.467	571.38
441.674	741.36
441.881	888.82
442.088	677.88
442.294	720.88
442.501	995.31
442.708	978.93
442.914	700.41
443.121	776.18
443.328	1093.62
443.534	1167.34
443.741	786.42
443.948	802.8
444.154	1083.38
444.361	1337.32
444.568	1034.22
444.774	997.36
444.981	956.4
445.187	1400.81
445.394	1144.81
445.6	1005.55
445.807	1370.09
446.013	1265.64
446.22	1019.89
446.426	1234.93
446.633	1378.28
446.839	1587.18
447.046	1208.3
447.252	1480.68
447.459	1533.93
447.665	1509.35
447.871	1495.02
448.078	1873.89
448.284	1867.75
448.491	1814.5
448.697	1763.3
448.903	1910.75
449.11	1916.9
449.316	1890.28
449.522	1894.37
449.728	1945.57
449.935	2150.37
450.141	2156.51
450.347	2258.91
450.553	2162.65
450.76	2318.3
450.966	2529.24
451.172	2363.36
451.378	2457.56
451.584	2594.78
451.791	2904.02
451.997	2736.09
452.203	2654.17
452.409	3018.71
452.615	3028.95
452.821	2949.07
453.027	2811.86
453.233	3459.02
453.44	3180.5
453.646	3059.67
453.852	3266.51
454.058	3348.43
454.264	3481.55
454.47	3573.71
454.676	3495.88
454.882	3895.24
455.088	3719.11
455.294	3641.29
455.5	3807.17
455.705	3977.16
455.911	4038.59
456.117	3809.22
456.323	4032.45
456.529	4063.17
456.735	4143.04
456.941	4003.78
457.147	4075.46
457.352	4251.58
457.558	4177.86
457.764	4218.82
457.97	4108.23
458.176	4317.12
458.381	4409.28
458.587	4261.82
458.793	4356.03
458.999	4276.16
459.204	4628.41
459.41	4325.31
459.616	4362.17
459.821	4554.68
460.027	4304.83
460.233	4503.48
460.438	4239.3
460.644	4548.54
460.85	4224.96
461.055	4310.97
461.261	4306.88
461.466	3997.63
