Data from USB4F104151__25__12-17-02-194.txt Node

Date: Wed Feb 19 12:17:02 EST 2025
User: louis
Spectrometer: USB4F10415
Trigger mode: 4
Integration Time (sec): 2.250200E-1
Scans to average: 1
Electric dark correction enabled: true
Nonlinearity correction enabled: false
Boxcar width: 0
XAxis mode: Wavelengths
Number of Pixels in Spectrum: 3648
>>>>>Begin Spectral Data<<<<<
178.204	-823.11
178.424	-823.11
178.644	-823.11
178.864	-880.46
179.084	-776.01
179.304	129.19
179.524	125.1
179.744	-69.46
179.964	-208.72
180.184	260.26
180.404	211.11
180.624	-257.87
180.844	-102.23
181.064	123.05
181.283	168.1
181.503	-210.77
181.723	-167.76
181.943	-63.32
182.163	428.2
182.383	-149.33
182.602	-184.15
182.822	483.49
183.042	331.94
183.262	-223.06
183.482	-173.91
183.701	213.16
183.921	272.55
184.141	-235.35
184.361	-108.37
184.58	266.41
184.8	213.16
185.02	-186.19
185.239	-69.46
185.459	346.28
185.679	495.78
185.898	-309.07
186.118	-231.25
186.338	266.41
186.557	352.42
186.777	-171.86
186.997	-135
187.216	217.26
187.436	489.64
187.655	-104.28
187.875	6.31
188.095	164.01
188.314	424.1
188.534	6.31
188.753	-159.57
188.973	385.19
189.192	501.92
189.412	-253.78
189.631	-171.86
189.851	424.1
190.07	487.59
190.29	-87.89
190.509	-245.59
190.729	164.01
190.948	438.44
191.168	-96.08
191.387	-141.14
191.607	186.54
191.826	270.5
192.045	-214.87
192.265	-126.8
192.484	307.37
192.704	276.65
192.923	-239.44
193.142	-46.93
193.362	372.9
193.581	456.87
193.8	-87.89
194.02	-149.33
194.239	182.44
194.458	262.31
194.678	-112.47
194.897	-200.53
195.116	268.45
195.335	358.57
195.555	-116.56
195.774	-175.95
195.993	495.78
196.212	204.97
196.432	-59.22
196.651	-192.34
196.87	215.21
197.089	604.32
197.308	-118.61
197.528	-104.28
197.747	133.29
197.966	188.58
198.185	-42.84
198.404	-200.53
198.623	350.37
198.842	391.33
199.062	-34.64
199.281	-69.46
199.5	264.36
199.719	405.67
199.938	-194.39
200.157	-85.84
200.376	436.39
200.595	444.58
200.814	-116.56
201.033	-135
201.252	471.2
201.471	368.81
201.69	-130.9
201.909	-135
202.128	368.81
202.347	266.41
202.566	-48.98
202.785	-315.22
203.004	200.87
203.223	536.74
203.442	-167.76
203.661	-266.07
203.879	348.33
204.098	385.19
204.317	-225.11
204.536	39.08
204.755	336.04
204.974	319.65
205.193	-282.45
205.411	-73.56
205.63	407.72
205.849	272.55
206.068	-157.52
206.287	-171.86
206.505	405.67
206.724	176.3
206.943	-175.95
207.162	-184.15
207.381	207.02
207.599	127.14
207.818	-36.69
208.037	-241.49
208.255	270.5
208.474	391.33
208.693	-184.15
208.911	-233.3
209.13	303.27
209.349	377
209.567	-12.12
209.786	-143.19
210.005	430.24
210.223	223.4
210.442	-257.87
210.661	-259.92
210.879	325.8
211.098	252.07
211.316	-139.09
211.535	-178
211.753	311.46
211.972	297.13
212.191	-139.09
212.409	-126.8
212.628	340.13
212.846	166.06
213.065	-233.3
213.283	-20.31
213.502	211.11
213.72	290.98
213.938	-163.67
214.157	-155.47
214.375	323.75
214.594	266.41
214.812	-59.22
215.031	-75.6
215.249	280.74
215.467	284.84
215.686	-71.51
215.904	-204.63
216.122	235.69
216.341	467.11
216.559	-32.6
216.778	-55.12
216.996	426.15
217.214	243.88
217.432	-137.04
217.651	-196.43
217.869	338.09
218.087	217.26
218.306	-102.23
218.524	-233.3
218.742	157.86
218.96	358.57
219.179	-135
219.397	-204.63
219.615	518.31
219.833	368.81
220.051	-132.95
220.27	-108.37
220.488	381.09
220.706	252.07
220.924	-118.61
221.142	-210.77
221.36	241.83
221.578	229.54
221.796	-151.38
222.015	-53.08
222.233	331.94
222.451	463.01
222.669	-151.38
222.887	-14.17
223.105	186.54
223.323	149.67
223.541	-112.47
223.759	-69.46
223.977	286.89
224.195	413.86
224.413	-110.42
224.631	-128.85
224.849	241.83
225.067	536.74
225.285	-53.08
225.503	-118.61
225.721	-24.4
225.939	198.82
226.157	-75.6
226.375	112.81
226.592	196.78
226.81	250.02
227.028	12.46
227.246	-122.71
227.464	237.74
227.682	438.44
227.9	-75.6
228.117	-114.52
228.335	327.85
228.553	219.3
228.771	-214.87
228.989	-128.85
229.206	295.08
229.424	170.15
229.642	-100.18
229.86	-98.13
230.077	444.58
230.295	217.26
230.513	-81.75
230.731	-51.03
230.948	528.55
231.166	424.1
231.384	-18.26
231.601	-118.61
231.819	499.88
232.037	145.58
232.254	-145.24
232.472	-132.95
232.689	168.1
232.907	368.81
233.125	-161.62
233.342	-128.85
233.56	262.31
233.777	221.35
233.995	-184.15
234.213	-20.31
234.43	366.76
234.648	186.54
234.865	-200.53
235.083	-12.12
235.3	207.02
235.518	299.17
235.735	-36.69
235.953	-32.6
236.17	278.69
236.388	219.3
236.605	6.31
236.822	-63.32
237.04	293.03
237.257	262.31
237.475	-135
237.692	-135
237.909	333.99
238.127	204.97
238.344	2.22
238.562	-79.7
238.779	65.71
238.996	88.23
239.214	-48.98
239.431	-87.89
239.648	131.24
239.865	252.07
240.083	-81.75
240.3	-173.91
240.517	178.34
240.735	233.64
240.952	71.85
241.169	-239.44
241.386	268.45
241.603	135.34
241.821	-141.14
242.038	-108.37
242.255	413.86
242.472	157.86
242.689	65.71
242.907	-118.61
243.124	213.16
243.341	231.59
243.558	-83.8
243.775	-114.52
243.992	53.42
244.209	252.07
244.426	30.89
244.643	-44.88
244.86	225.45
245.078	370.85
245.295	-153.43
245.512	-53.08
245.729	194.73
245.946	305.32
246.163	-198.48
246.38	-139.09
246.597	260.26
246.814	200.87
247.031	-44.88
247.248	-180.05
247.464	424.1
247.681	264.36
247.898	-94.04
248.115	-59.22
248.332	143.53
248.549	434.34
248.766	80.04
248.983	-26.45
249.2	333.99
249.417	389.28
249.633	-57.17
249.85	6.31
250.067	114.86
250.284	280.74
250.501	-124.76
250.717	-65.36
250.934	53.42
251.151	256.17
251.368	39.08
251.585	-173.91
251.801	274.6
252.018	80.04
252.235	45.23
252.451	-122.71
252.668	168.1
252.885	405.67
253.102	-51.03
253.318	-69.46
253.535	88.23
253.752	149.67
253.968	-118.61
254.185	-216.91
254.401	270.5
254.618	331.94
254.835	-55.12
255.051	-130.9
255.268	231.59
255.484	194.73
255.701	-91.99
255.917	-91.99
256.134	45.23
256.351	284.84
256.567	-108.37
256.784	-16.21
257	2.22
257.217	401.57
257.433	24.75
257.65	-175.95
257.866	387.24
258.082	65.71
258.299	-149.33
258.515	-36.69
258.732	196.78
258.948	14.51
259.165	-34.64
259.381	-132.95
259.597	325.8
259.814	202.92
260.03	-159.57
260.246	-59.22
260.463	389.28
260.679	348.33
260.895	28.84
261.112	-14.17
261.328	229.54
261.544	137.38
261.761	-116.56
261.977	47.27
262.193	86.19
262.409	317.61
262.626	18.6
262.842	-126.8
263.058	106.67
263.274	290.98
263.49	0.17
263.707	-91.99
263.923	299.17
264.139	32.94
264.355	-20.31
264.571	-14.17
264.787	307.37
265.004	350.37
265.22	-36.69
265.436	-24.4
265.652	178.34
265.868	141.48
266.084	-112.47
266.3	-46.93
266.516	145.58
266.732	282.79
266.948	4.27
267.164	-147.28
267.38	319.65
267.596	338.09
267.812	24.75
268.028	-94.04
268.244	161.96
268.46	250.02
268.676	-61.27
268.892	-77.65
269.108	143.53
269.324	125.1
269.54	-149.33
269.756	-116.56
269.972	135.34
270.188	227.5
270.403	-79.7
270.619	-71.51
270.835	288.93
271.051	250.02
271.267	-65.36
271.483	-89.94
271.698	331.94
271.914	243.88
272.13	-28.5
272.346	-69.46
272.562	295.08
272.777	415.91
272.993	12.46
273.209	-114.52
273.425	321.7
273.64	16.55
273.856	-108.37
274.072	-196.43
274.287	209.06
274.503	305.32
274.719	47.27
274.934	-81.75
275.15	82.09
275.366	213.16
275.581	-137.04
275.797	-85.84
276.012	303.27
276.228	110.76
276.444	-28.5
276.659	143.53
276.875	172.2
277.09	188.58
277.306	-46.93
277.521	26.79
277.737	204.97
277.952	229.54
278.168	-18.26
278.383	-53.08
278.599	166.06
278.814	237.74
279.03	-42.84
279.245	28.84
279.461	147.62
279.676	217.26
279.892	-63.32
280.107	4.27
280.322	86.19
280.538	321.7
280.753	-36.69
280.969	-1.88
281.184	272.55
281.399	327.85
281.615	-18.26
281.83	110.76
282.045	41.13
282.26	110.76
282.476	-48.98
282.691	151.72
282.906	254.12
283.122	274.6
283.337	-14.17
283.552	118.95
283.767	196.78
283.983	264.36
284.198	20.65
284.413	-124.76
284.628	14.51
284.843	295.08
285.058	6.31
285.274	-124.76
285.489	129.19
285.704	252.07
285.919	-91.99
286.134	49.32
286.349	229.54
286.564	88.23
286.779	41.13
286.995	41.13
287.21	37.03
287.425	272.55
287.64	-26.45
287.855	94.38
288.07	55.47
288.285	252.07
288.5	77.99
288.715	26.79
288.93	264.36
289.145	88.23
289.36	-65.36
289.575	34.99
289.79	358.57
290.004	82.09
290.219	47.27
290.434	2.22
290.649	102.57
290.864	75.95
291.079	-116.56
291.294	49.32
291.509	307.37
291.724	112.81
291.938	12.46
292.153	28.84
292.368	159.91
292.583	225.45
292.798	20.65
293.012	30.89
293.227	252.07
293.442	118.95
293.657	24.75
293.871	20.65
294.086	270.5
294.301	303.27
294.516	176.3
294.73	133.29
294.945	157.86
295.16	180.39
295.374	47.27
295.589	106.67
295.804	166.06
296.018	139.43
296.233	39.08
296.447	77.99
296.662	129.19
296.877	293.03
297.091	4.27
297.306	14.51
297.52	129.19
297.735	143.53
297.949	100.52
298.164	-108.37
298.378	272.55
298.593	4.27
298.807	53.42
299.022	61.61
299.236	356.52
299.451	100.52
299.665	102.57
299.88	4.27
300.094	272.55
300.309	176.3
300.523	37.03
300.737	32.94
300.952	217.26
301.166	250.02
301.381	-28.5
301.595	-63.32
301.809	239.78
302.024	161.96
302.238	-5.97
302.452	112.81
302.667	260.26
302.881	315.56
303.095	80.04
303.309	28.84
303.524	145.58
303.738	168.1
303.952	-63.32
304.166	63.66
304.381	-130.9
304.595	223.4
304.809	6.31
305.023	28.84
305.237	106.67
305.452	170.15
305.666	-36.69
305.88	92.33
306.094	348.33
306.308	233.64
306.522	-44.88
306.736	90.28
306.95	340.13
307.164	141.48
307.379	53.42
307.593	153.77
307.807	317.61
308.021	227.5
308.235	137.38
308.449	-55.12
308.663	149.67
308.877	477.35
309.091	123.05
309.305	153.77
309.519	-40.79
309.733	309.41
309.947	-98.13
310.161	-38.74
310.374	243.88
310.588	366.76
310.802	-42.84
311.016	-34.64
311.23	239.78
311.444	116.9
311.658	75.95
311.872	221.35
312.085	342.18
312.299	377
312.513	278.69
312.727	-26.45
312.941	139.43
313.154	147.62
313.368	118.95
313.582	-14.17
313.796	174.25
314.009	159.91
314.223	133.29
314.437	75.95
314.651	331.94
314.864	129.19
315.078	65.71
315.292	-16.21
315.505	200.87
315.719	229.54
315.933	139.43
316.146	8.36
316.36	65.71
316.573	301.22
316.787	293.03
317.001	26.79
317.214	20.65
317.428	231.59
317.641	14.51
317.855	10.41
318.068	299.17
318.282	252.07
318.495	161.96
318.709	32.94
318.922	200.87
319.136	356.52
319.349	39.08
319.563	-22.36
319.776	260.26
319.99	-10.07
320.203	92.33
320.417	-40.79
320.63	237.74
320.843	305.32
321.057	112.81
321.27	26.79
321.483	299.17
321.697	348.33
321.91	6.31
322.124	26.79
322.337	233.64
322.55	47.27
322.763	-14.17
322.977	-10.07
323.19	61.61
323.403	172.2
323.617	55.47
323.83	166.06
324.043	192.68
324.256	161.96
324.469	-180.05
324.683	143.53
324.896	188.58
325.109	174.25
325.322	-104.28
325.535	164.01
325.748	397.48
325.962	157.86
326.175	82.09
326.388	-59.22
326.601	180.39
326.814	125.1
327.027	18.6
327.24	139.43
327.453	-14.17
327.666	223.4
327.879	196.78
328.092	69.8
328.305	221.35
328.518	176.3
328.731	-32.6
328.944	-30.55
329.157	295.08
329.37	116.9
329.583	125.1
329.796	39.08
330.009	47.27
330.222	299.17
330.435	143.53
330.648	133.29
330.861	252.07
331.073	192.68
331.286	180.39
331.499	57.51
331.712	155.82
331.925	137.38
332.138	47.27
332.35	28.84
332.563	174.25
332.776	290.98
332.989	-14.17
333.202	-12.12
333.414	153.77
333.627	168.1
333.84	-63.32
334.053	133.29
334.265	114.86
334.478	80.04
334.691	2.22
334.903	149.67
335.116	168.1
335.329	96.43
335.541	55.47
335.754	274.6
335.966	104.62
336.179	213.16
336.392	-18.26
336.604	135.34
336.817	190.63
337.029	219.3
337.242	55.47
337.454	121
337.667	229.54
337.88	344.23
338.092	104.62
338.305	180.39
338.517	145.58
338.729	266.41
338.942	98.47
339.154	-98.13
339.367	92.33
339.579	233.64
339.792	-12.12
340.004	86.19
340.217	139.43
340.429	221.35
340.641	-26.45
340.854	8.36
341.066	227.5
341.278	288.93
341.491	211.11
341.703	-22.36
341.915	102.57
342.128	317.61
342.34	45.23
342.552	-48.98
342.764	155.82
342.977	106.67
343.189	28.84
343.401	110.76
343.613	-36.69
343.826	127.14
344.038	22.7
344.25	88.23
344.462	112.81
344.674	176.3
344.886	-81.75
345.099	147.62
345.311	186.54
345.523	106.67
345.735	-73.56
345.947	69.8
346.159	241.83
346.371	170.15
346.583	86.19
346.795	131.24
347.007	96.43
347.219	254.12
347.431	71.85
347.643	215.21
347.855	184.49
348.067	338.09
348.279	-102.23
348.491	39.08
348.703	397.48
348.915	180.39
349.127	24.75
349.339	94.38
349.551	182.44
349.763	342.18
349.975	4.27
350.187	94.38
350.399	374.95
350.61	295.08
350.822	43.18
351.034	22.7
351.246	325.8
351.458	235.69
351.669	82.09
351.881	77.99
352.093	362.66
352.305	241.83
352.517	-3.93
352.728	125.1
352.94	192.68
353.152	325.8
353.363	-32.6
353.575	96.43
353.787	397.48
353.999	260.26
354.21	215.21
354.422	-53.08
354.633	233.64
354.845	282.79
355.057	121
355.268	65.71
355.48	346.28
355.692	47.27
355.903	86.19
356.115	-44.88
356.326	-75.6
356.538	346.28
356.749	51.37
356.961	209.06
357.172	221.35
357.384	18.6
357.595	170.15
357.807	37.03
358.018	112.81
358.23	247.97
358.441	14.51
358.653	37.03
358.864	116.9
359.075	32.94
359.287	12.46
359.498	104.62
359.709	260.26
359.921	284.84
360.132	174.25
360.344	-28.5
360.555	57.51
360.766	170.15
360.977	32.94
361.189	94.38
361.4	217.26
361.611	307.37
361.823	102.57
362.034	49.32
362.245	-10.07
362.456	178.34
362.667	143.53
362.879	-151.38
363.09	280.74
363.301	247.97
363.512	45.23
363.723	4.27
363.935	100.52
364.146	317.61
364.357	-20.31
364.568	22.7
364.779	84.14
364.99	309.41
365.201	4.27
365.412	155.82
365.623	45.23
365.834	219.3
366.045	100.52
366.256	94.38
366.467	215.21
366.678	141.48
366.889	47.27
367.1	8.36
367.311	301.22
367.522	118.95
367.733	37.03
367.944	82.09
368.155	247.97
368.366	284.84
368.577	149.67
368.788	184.49
368.999	192.68
369.209	180.39
369.42	65.71
369.631	350.37
369.842	323.75
370.053	159.91
370.264	84.14
370.474	34.99
370.685	307.37
370.896	172.2
371.107	141.48
371.317	39.08
371.528	192.68
371.739	344.23
371.95	71.85
372.16	75.95
372.371	6.31
372.582	168.1
372.792	59.56
373.003	184.49
373.214	211.11
373.424	227.5
373.635	24.75
373.846	211.11
374.056	270.5
374.267	252.07
374.477	75.95
374.688	37.03
374.898	307.37
375.109	196.78
375.319	151.72
375.53	30.89
375.74	266.41
375.951	88.23
376.161	96.43
376.372	125.1
376.582	178.34
376.793	211.11
377.003	-10.07
377.214	-28.5
377.424	258.21
377.635	221.35
377.845	34.99
378.055	135.34
378.266	63.66
378.476	200.87
378.686	151.72
378.897	22.7
379.107	362.66
379.317	209.06
379.528	-83.8
379.738	45.23
379.948	4.27
380.158	389.28
380.369	71.85
380.579	98.47
380.789	143.53
380.999	194.73
381.21	143.53
381.42	243.88
381.63	188.58
381.84	266.41
382.05	82.09
382.261	184.49
382.471	303.27
382.681	88.23
382.891	110.76
383.101	127.14
383.311	102.57
383.521	153.77
383.731	-24.4
383.941	159.91
384.151	217.26
384.361	157.86
384.571	49.32
384.781	90.28
384.991	307.37
385.201	444.58
385.411	239.78
385.621	80.04
385.831	229.54
386.041	237.74
386.251	129.19
386.461	157.86
386.671	211.11
386.881	266.41
387.091	67.75
387.301	164.01
387.511	182.44
387.72	168.1
387.93	133.29
388.14	47.27
388.35	147.62
388.56	258.21
388.769	69.8
388.979	69.8
389.189	129.19
389.399	217.26
389.609	-24.4
389.818	108.71
390.028	241.83
390.238	223.4
390.447	-8.02
390.657	157.86
390.867	188.58
391.076	86.19
391.286	69.8
391.496	30.89
391.705	237.74
391.915	342.18
392.125	94.38
392.334	94.38
392.544	415.91
392.753	141.48
392.963	47.27
393.172	127.14
393.382	198.82
393.591	440.48
393.801	86.19
394.01	71.85
394.22	239.78
394.429	221.35
394.639	82.09
394.848	69.8
395.058	233.64
395.267	186.54
395.477	151.72
395.686	77.99
395.895	538.79
396.105	358.57
396.314	116.9
396.524	172.2
396.733	121
396.942	266.41
397.152	28.84
397.361	176.3
397.57	190.63
397.78	188.58
397.989	161.96
398.198	256.17
398.407	110.76
398.617	213.16
398.826	-1.88
399.035	22.7
399.244	299.17
399.453	221.35
399.663	10.41
399.872	-59.22
400.081	88.23
400.29	323.75
400.499	63.66
400.708	102.57
400.917	196.78
401.127	77.99
401.336	37.03
401.545	329.89
401.754	311.46
401.963	252.07
402.172	98.47
402.381	-61.27
402.59	182.44
402.799	159.91
403.008	307.37
403.217	65.71
403.426	297.13
403.635	53.42
403.844	-48.98
404.053	-16.21
404.262	258.21
404.471	405.67
404.68	96.43
404.888	106.67
405.097	161.96
405.306	194.73
405.515	123.05
405.724	77.99
405.933	295.08
406.142	225.45
406.35	118.95
406.559	106.67
406.768	245.93
406.977	544.93
407.185	61.61
407.394	94.38
407.603	110.76
407.812	243.88
408.02	153.77
408.229	69.8
408.438	329.89
408.646	16.55
408.855	28.84
409.064	47.27
409.272	155.82
409.481	250.02
409.69	73.9
409.898	-46.93
410.107	235.69
410.315	280.74
410.524	12.46
410.733	39.08
410.941	250.02
411.15	307.37
411.358	174.25
411.567	215.21
411.775	229.54
411.984	211.11
412.192	188.58
412.401	61.61
412.609	448.68
412.818	352.42
413.026	118.95
413.234	51.37
413.443	239.78
413.651	129.19
413.86	-18.26
414.068	327.85
414.276	493.73
414.485	166.06
414.693	247.97
414.901	276.65
415.11	239.78
415.318	245.93
415.526	106.67
415.734	250.02
415.943	290.98
416.151	442.53
416.359	110.76
416.567	211.11
416.776	241.83
416.984	260.26
417.192	235.69
417.4	2.22
417.608	178.34
417.817	106.67
418.025	225.45
418.233	129.19
418.441	110.76
418.649	110.76
418.857	94.38
419.065	184.49
419.273	118.95
419.481	221.35
419.689	133.29
419.897	0.17
420.105	2.22
420.313	333.99
420.521	174.25
420.729	164.01
420.937	207.02
421.145	41.13
421.353	80.04
421.561	188.58
421.769	266.41
421.977	221.35
422.185	143.53
422.393	170.15
422.601	331.94
422.809	348.33
423.017	223.4
423.224	186.54
423.432	393.38
423.64	241.83
423.848	30.89
424.056	61.61
424.263	389.28
424.471	247.97
424.679	295.08
424.887	139.43
425.094	397.48
425.302	252.07
425.51	14.51
425.718	209.06
425.925	286.89
426.133	180.39
426.341	268.45
426.548	114.86
426.756	258.21
426.964	321.7
427.171	186.54
427.379	139.43
427.586	290.98
427.794	385.19
428.001	290.98
428.209	282.79
428.417	448.68
428.624	381.09
428.832	264.36
429.039	288.93
429.247	358.57
429.454	458.92
429.662	342.18
429.869	161.96
430.076	426.15
430.284	385.19
430.491	194.73
430.699	278.69
430.906	546.98
431.114	424.1
431.321	288.93
431.528	213.16
431.736	440.48
431.943	458.92
432.15	358.57
432.358	247.97
432.565	737.44
432.772	153.77
432.979	385.19
433.187	286.89
433.394	630.95
433.601	333.99
433.808	393.38
434.016	413.86
434.223	522.4
434.43	483.49
434.637	340.13
434.844	506.02
435.052	592.03
435.259	577.7
435.466	450.72
435.673	383.14
435.88	792.73
436.087	673.95
436.294	741.54
436.501	661.66
436.708	632.99
436.915	741.54
437.122	696.48
437.329	516.26
437.537	565.41
437.743	743.58
437.95	667.81
438.157	688.29
438.364	714.91
438.571	751.78
438.778	710.82
438.985	841.89
439.192	950.43
439.399	800.93
439.606	694.43
439.813	841.89
440.02	1132.7
440.227	1247.38
440.433	886.94
440.64	788.64
440.847	952.48
441.054	934.04
441.261	929.95
441.467	970.91
441.674	1032.35
441.881	1243.29
442.088	970.91
442.294	1124.51
442.501	1351.83
442.708	1323.16
442.914	1136.79
443.121	1142.94
443.328	1413.27
443.534	1679.51
443.741	1325.21
443.948	1278.1
444.154	1570.96
444.361	1759.38
444.568	1329.3
444.774	1493.14
444.981	1403.03
445.187	1781.9
445.394	1605.78
445.6	1638.55
445.807	1904.78
446.013	1884.3
446.22	1687.7
446.426	1929.36
446.633	2085
446.839	2330.76
447.046	1800.34
447.252	2117.77
447.459	2240.65
447.665	2134.15
447.871	2117.77
448.078	2613.38
448.284	2531.46
448.491	2766.98
448.697	2697.35
448.903	2658.43
449.11	2828.42
449.316	2814.08
449.522	2992.25
449.728	2977.92
449.935	3319.93
450.141	3129.47
450.347	3217.53
450.553	3178.62
450.76	3459.19
450.966	3588.21
451.172	3631.22
451.378	3698.8
451.584	3883.12
451.791	4108.4
451.997	4169.84
452.203	4094.06
452.409	4415.59
452.615	4296.81
452.821	4212.84
453.027	4139.12
453.233	5197.92
453.44	4552.81
453.646	4669.54
453.852	4796.51
454.058	4974.69
454.264	5208.16
454.47	5349.47
454.676	5374.04
454.882	5730.39
455.088	5443.67
455.294	5607.51
455.5	5711.96
455.705	6006.86
455.911	5789.78
456.117	5722.2
456.323	6090.83
456.529	5746.77
456.735	6209.61
456.941	6342.73
457.147	6238.28
457.352	6481.99
457.558	6172.75
457.764	6520.9
457.97	6309.96
458.176	6604.87
458.381	6649.93
458.587	6447.18
458.793	6469.7
458.999	6246.48
459.204	6895.68
459.41	6627.4
459.616	6303.82
459.821	6864.96
460.027	6352.97
460.233	6578.25
460.438	6361.16
460.644	6590.53
460.85	6430.79
461.055	6226
461.261	6328.39
461.466	5935.18
461.672	6025.29
