Data from USB4F104151__79__12-12-50-651.txt Node

Date: Fri Mar 14 12:12:50 EDT 2025
User: louis
Spectrometer: USB4F10415
Trigger mode: 4
Integration Time (sec): 5.000000E-2
Scans to average: 1
Electric dark correction enabled: true
Nonlinearity correction enabled: false
Boxcar width: 0
XAxis mode: Wavelengths
Number of Pixels in Spectrum: 3648
>>>>>Begin Spectral Data<<<<<
178.204	-234.66
178.424	-234.66
178.644	-234.66
178.864	-158.89
179.084	-167.08
179.304	15.19
179.524	11.09
179.744	-33.96
179.964	-27.82
180.184	35.67
180.404	-3.24
180.624	-19.63
180.844	-33.96
181.064	-74.92
181.283	66.39
181.503	23.38
181.723	41.81
181.943	-85.16
182.163	86.87
182.383	-33.96
182.602	0.85
182.822	88.92
183.042	64.34
183.262	-5.29
183.482	7
183.701	68.44
183.921	13.14
184.141	4.95
184.361	117.59
184.58	31.57
184.8	19.29
185.02	19.29
185.239	4.95
185.459	31.57
185.679	111.44
185.898	-15.53
186.118	138.07
186.338	15.19
186.557	88.92
186.777	-60.59
186.997	54.1
187.216	11.09
187.436	97.11
187.655	127.83
187.875	82.77
188.095	35.67
188.314	58.2
188.534	39.76
188.753	-46.25
188.973	148.31
189.192	84.82
189.412	97.11
189.631	115.54
189.851	-7.34
190.07	76.63
190.29	-7.34
190.509	113.49
190.729	72.53
190.948	66.39
191.168	170.83
191.387	113.49
191.607	39.76
191.826	64.34
192.045	-29.87
192.265	64.34
192.484	33.62
192.704	2.9
192.923	-9.39
193.142	101.2
193.362	-1.19
193.581	99.16
193.8	39.76
194.02	97.11
194.239	72.53
194.458	146.26
194.678	43.86
194.897	50
195.116	-1.19
195.335	27.48
195.555	60.24
195.774	43.86
195.993	90.96
196.212	15.19
196.432	19.29
196.651	72.53
196.87	9.05
197.089	164.69
197.308	86.87
197.528	31.57
197.747	-66.73
197.966	17.24
198.185	113.49
198.404	29.52
198.623	115.54
198.842	103.25
199.062	111.44
199.281	148.31
199.5	58.2
199.719	13.14
199.938	97.11
200.157	56.15
200.376	76.63
200.595	86.87
200.814	47.96
201.033	50
201.252	88.92
201.471	78.68
201.69	146.26
201.909	-1.19
202.128	11.09
202.347	35.67
202.566	-11.43
202.785	58.2
203.004	-23.72
203.223	99.16
203.442	27.48
203.661	80.72
203.879	-3.24
204.098	15.19
204.317	-9.39
204.536	119.64
204.755	41.81
204.974	66.39
205.193	62.29
205.411	121.68
205.63	90.96
205.849	74.58
206.068	45.91
206.287	-15.53
206.505	29.52
206.724	45.91
206.943	-19.63
207.162	88.92
207.381	90.96
207.599	50
207.818	19.29
208.037	86.87
208.255	15.19
208.474	-7.34
208.693	37.72
208.911	58.2
209.13	23.38
209.349	33.62
209.567	99.16
209.786	39.76
210.005	93.01
210.223	31.57
210.442	-33.96
210.661	39.76
210.879	-31.91
211.098	103.25
211.316	0.85
211.535	115.54
211.753	50
211.972	117.59
212.191	41.81
212.409	-13.48
212.628	47.96
212.846	-52.39
213.065	-25.77
213.283	93.01
213.502	23.38
213.72	27.48
213.938	41.81
214.157	80.72
214.375	72.53
214.594	43.86
214.812	72.53
215.031	-33.96
215.249	-27.82
215.467	64.34
215.686	125.78
215.904	58.2
216.122	84.82
216.341	68.44
216.559	66.39
216.778	138.07
216.996	68.44
217.214	47.96
217.432	-17.58
217.651	-7.34
217.869	9.05
218.087	4.95
218.306	-5.29
218.524	66.39
218.742	-25.77
218.96	41.81
219.179	-11.43
219.397	-7.34
219.615	189.27
219.833	88.92
220.051	-27.82
220.27	113.49
220.488	78.68
220.706	29.52
220.924	-9.39
221.142	31.57
221.36	9.05
221.578	68.44
221.796	80.72
222.015	41.81
222.233	25.43
222.451	166.74
222.669	11.09
222.887	23.38
223.105	-3.24
223.323	37.72
223.541	-44.2
223.759	29.52
223.977	11.09
224.195	117.59
224.413	66.39
224.631	105.3
224.849	62.29
225.067	127.83
225.285	56.15
225.503	68.44
225.721	-31.91
225.939	39.76
226.157	52.05
226.375	86.87
226.592	54.1
226.81	-25.77
227.028	60.24
227.246	127.83
227.464	47.96
227.682	25.43
227.9	-33.96
228.117	23.38
228.335	72.53
228.553	11.09
228.771	80.72
228.989	23.38
229.206	54.1
229.424	-9.39
229.642	-25.77
229.86	25.43
230.077	31.57
230.295	45.91
230.513	54.1
230.731	60.24
230.948	25.43
231.166	88.92
231.384	4.95
231.601	11.09
231.819	99.16
232.037	64.34
232.254	-36.01
232.472	-3.24
232.689	-105.64
232.907	2.9
233.125	7
233.342	15.19
233.56	-3.24
233.777	72.53
233.995	39.76
234.213	103.25
234.43	54.1
234.648	-7.34
234.865	33.62
235.083	29.52
235.3	97.11
235.518	15.19
235.735	62.29
235.953	105.3
236.17	35.67
236.388	66.39
236.605	-31.91
236.822	60.24
237.04	50
237.257	7
237.475	-5.29
237.692	2.9
237.909	13.14
238.127	93.01
238.344	50
238.562	-5.29
238.779	103.25
238.996	39.76
239.214	-70.83
239.431	82.77
239.648	37.72
239.865	33.62
240.083	-40.11
240.3	-33.96
240.517	27.48
240.735	21.33
240.952	56.15
241.169	109.4
241.386	66.39
241.603	-33.96
241.821	-72.87
242.038	25.43
242.255	35.67
242.472	-7.34
242.689	45.91
242.907	19.29
243.124	27.48
243.341	23.38
243.558	52.05
243.775	76.63
243.992	-50.35
244.209	43.86
244.426	95.06
244.643	56.15
244.86	56.15
245.078	31.57
245.295	-31.91
245.512	125.78
245.729	-46.25
245.946	15.19
246.163	-31.91
246.38	99.16
246.597	47.96
246.814	43.86
247.031	25.43
247.248	23.38
247.464	56.15
247.681	54.1
247.898	39.76
248.115	-42.15
248.332	-13.48
248.549	54.1
248.766	138.07
248.983	86.87
249.2	58.2
249.417	-15.53
249.633	-25.77
249.85	86.87
250.067	80.72
250.284	17.24
250.501	-13.48
250.717	80.72
250.934	-25.77
251.151	13.14
251.368	21.33
251.585	45.91
251.801	39.76
252.018	9.05
252.235	117.59
252.451	25.43
252.668	-36.01
252.885	95.06
253.102	4.95
253.318	-31.91
253.535	60.24
253.752	23.38
253.968	-7.34
254.185	-23.72
254.401	52.05
254.618	39.76
254.835	41.81
255.051	113.49
255.268	62.29
255.484	29.52
255.701	11.09
255.917	33.62
256.134	21.33
256.351	19.29
256.567	9.05
256.784	17.24
257	-31.91
257.217	88.92
257.433	146.26
257.65	41.81
257.866	160.59
258.082	-11.43
258.299	52.05
258.515	-72.87
258.732	25.43
258.948	-56.49
259.165	68.44
259.381	-1.19
259.597	39.76
259.814	2.9
260.03	-31.91
260.246	39.76
260.463	47.96
260.679	129.88
260.895	7
261.112	43.86
261.328	9.05
261.544	13.14
261.761	58.2
261.977	15.19
262.193	-3.24
262.409	35.67
262.626	58.2
262.842	84.82
263.058	4.95
263.274	74.58
263.49	21.33
263.707	56.15
263.923	103.25
264.139	-56.49
264.355	76.63
264.571	56.15
264.787	4.95
265.004	78.68
265.22	2.9
265.436	-33.96
265.652	-44.2
265.868	-15.53
266.084	-15.53
266.3	64.34
266.516	-36.01
266.732	23.38
266.948	86.87
267.164	39.76
267.38	70.48
267.596	72.53
267.812	72.53
268.028	4.95
268.244	-95.4
268.46	25.43
268.676	47.96
268.892	80.72
269.108	11.09
269.324	7
269.54	-31.91
269.756	43.86
269.972	-1.19
270.188	64.34
270.403	-17.58
270.619	78.68
270.835	23.38
271.051	11.09
271.267	15.19
271.483	-44.2
271.698	74.58
271.914	68.44
272.13	25.43
272.346	0.85
272.562	97.11
272.777	82.77
272.993	62.29
273.209	17.24
273.425	19.29
273.64	-23.72
273.856	152.4
274.072	31.57
274.287	-25.77
274.503	78.68
274.719	45.91
274.934	62.29
275.15	-1.19
275.366	76.63
275.581	-46.25
275.797	115.54
276.012	29.52
276.228	29.52
276.444	4.95
276.659	101.2
276.875	62.29
277.09	43.86
277.306	19.29
277.521	64.34
277.737	2.9
277.952	70.48
278.168	-7.34
278.383	52.05
278.599	70.48
278.814	88.92
279.03	0.85
279.245	101.2
279.461	52.05
279.676	25.43
279.892	-9.39
280.107	47.96
280.322	13.14
280.538	4.95
280.753	-56.49
280.969	62.29
281.184	-17.58
281.399	146.26
281.615	17.24
281.83	125.78
282.045	138.07
282.26	15.19
282.476	35.67
282.691	50
282.906	-7.34
283.122	80.72
283.337	-23.72
283.552	33.62
283.767	-38.06
283.983	78.68
284.198	54.1
284.413	11.09
284.628	29.52
284.843	-17.58
285.058	84.82
285.274	4.95
285.489	33.62
285.704	101.2
285.919	33.62
286.134	64.34
286.349	70.48
286.564	70.48
286.779	111.44
286.995	62.29
287.21	-17.58
287.425	117.59
287.64	-21.67
287.855	29.52
288.07	-27.82
288.285	33.62
288.5	43.86
288.715	70.48
288.93	58.2
289.145	39.76
289.36	27.48
289.575	-40.11
289.79	68.44
290.004	68.44
290.219	156.5
290.434	52.05
290.649	11.09
290.864	39.76
291.079	-17.58
291.294	23.38
291.509	47.96
291.724	31.57
291.938	70.48
292.153	88.92
292.368	37.72
292.583	11.09
292.798	76.63
293.012	52.05
293.227	33.62
293.442	72.53
293.657	88.92
293.871	84.82
294.086	25.43
294.301	90.96
294.516	103.25
294.73	-11.43
294.945	-60.59
295.16	31.57
295.374	119.64
295.589	72.53
295.804	21.33
296.018	66.39
296.233	199.51
296.447	101.2
296.662	-31.91
296.877	80.72
297.091	25.43
297.306	-17.58
297.52	52.05
297.735	52.05
297.949	111.44
298.164	9.05
298.378	54.1
298.593	-3.24
298.807	-1.19
299.022	121.68
299.236	84.82
299.451	68.44
299.665	-7.34
299.88	33.62
300.094	4.95
300.309	31.57
300.523	78.68
300.737	-38.06
300.952	31.57
301.166	43.86
301.381	35.67
301.595	19.29
301.809	47.96
302.024	86.87
302.238	-85.16
302.452	76.63
302.667	23.38
302.881	152.4
303.095	109.4
303.309	54.1
303.524	33.62
303.738	60.24
303.952	-19.63
304.166	88.92
304.381	-15.53
304.595	101.2
304.809	-36.01
305.023	97.11
305.237	-13.48
305.452	41.81
305.666	68.44
305.88	37.72
306.094	109.4
306.308	82.77
306.522	47.96
306.736	66.39
306.95	127.83
307.164	45.91
307.379	4.95
307.593	129.88
307.807	70.48
308.021	88.92
308.235	84.82
308.449	-56.49
308.663	62.29
308.877	119.64
309.091	29.52
309.305	66.39
309.519	0.85
309.733	138.07
309.947	-5.29
310.161	93.01
310.374	93.01
310.588	35.67
310.802	11.09
311.016	-5.29
311.23	86.87
311.444	-56.49
311.658	27.48
311.872	103.25
312.085	-9.39
312.299	138.07
312.513	64.34
312.727	39.76
312.941	0.85
313.154	66.39
313.368	0.85
313.582	50
313.796	-1.19
314.009	74.58
314.223	68.44
314.437	4.95
314.651	80.72
314.864	-1.19
315.078	17.24
315.292	-66.73
315.505	7
315.719	70.48
315.933	17.24
316.146	31.57
316.36	-9.39
316.573	82.77
316.787	117.59
317.001	68.44
317.214	4.95
317.428	-50.35
317.641	-15.53
317.855	-7.34
318.068	107.35
318.282	2.9
318.495	193.36
318.709	101.2
318.922	-13.48
319.136	88.92
319.349	56.15
319.563	-13.48
319.776	-31.91
319.99	-54.44
320.203	56.15
320.417	64.34
320.63	15.19
320.843	62.29
321.057	64.34
321.27	4.95
321.483	97.11
321.697	80.72
321.91	-1.19
322.124	54.1
322.337	13.14
322.55	41.81
322.763	80.72
322.977	47.96
323.19	50
323.403	-15.53
323.617	78.68
323.83	-9.39
324.043	13.14
324.256	133.97
324.469	0.85
324.683	66.39
324.896	54.1
325.109	68.44
325.322	9.05
325.535	105.3
325.748	15.19
325.962	68.44
326.175	-1.19
326.388	33.62
326.601	80.72
326.814	54.1
327.027	52.05
327.24	82.77
327.453	-25.77
327.666	88.92
327.879	47.96
328.092	80.72
328.305	-44.2
328.518	-56.49
328.731	-64.68
328.944	52.05
329.157	56.15
329.37	19.29
329.583	37.72
329.796	60.24
330.009	4.95
330.222	90.96
330.435	66.39
330.648	27.48
330.861	52.05
331.073	35.67
331.286	76.63
331.499	74.58
331.712	-29.87
331.925	4.95
332.138	0.85
332.35	62.29
332.563	43.86
332.776	90.96
332.989	-7.34
333.202	54.1
333.414	2.9
333.627	41.81
333.84	-11.43
334.053	-27.82
334.265	-42.15
334.478	-40.11
334.691	-83.11
334.903	13.14
335.116	9.05
335.329	0.85
335.541	86.87
335.754	140.12
335.966	37.72
336.179	13.14
336.392	72.53
336.604	15.19
336.817	78.68
337.029	123.73
337.242	29.52
337.454	50
337.667	4.95
337.88	129.88
338.092	80.72
338.305	39.76
338.517	9.05
338.729	29.52
338.942	133.97
339.154	45.91
339.367	-25.77
339.579	27.48
339.792	-23.72
340.004	9.05
340.217	62.29
340.429	-9.39
340.641	52.05
340.854	-44.2
341.066	29.52
341.278	45.91
341.491	179.03
341.703	21.33
341.915	52.05
342.128	11.09
342.34	41.81
342.552	-15.53
342.764	4.95
342.977	-11.43
343.189	56.15
343.401	43.86
343.613	-31.91
343.826	70.48
344.038	23.38
344.25	52.05
344.462	-40.11
344.674	19.29
344.886	4.95
345.099	17.24
345.311	25.43
345.523	-9.39
345.735	-64.68
345.947	4.95
346.159	56.15
346.371	-1.19
346.583	-74.92
346.795	105.3
347.007	50
347.219	99.16
347.431	60.24
347.643	90.96
347.855	78.68
348.067	90.96
348.279	37.72
348.491	60.24
348.703	43.86
348.915	13.14
349.127	76.63
349.339	31.57
349.551	-27.82
349.763	78.68
349.975	29.52
350.187	31.57
350.399	117.59
350.61	35.67
350.822	29.52
351.034	103.25
351.246	35.67
351.458	93.01
351.669	21.33
351.881	64.34
352.093	101.2
352.305	76.63
352.517	97.11
352.728	109.4
352.94	9.05
353.152	43.86
353.363	4.95
353.575	62.29
353.787	35.67
353.999	-48.3
354.21	152.4
354.422	-19.63
354.633	64.34
354.845	4.95
355.057	56.15
355.268	66.39
355.48	84.82
355.692	-19.63
355.903	4.95
356.115	25.43
356.326	-29.87
356.538	37.72
356.749	97.11
356.961	64.34
357.172	60.24
357.384	-29.87
357.595	148.31
357.807	9.05
358.018	4.95
358.23	13.14
358.441	138.07
358.653	76.63
358.864	-74.92
359.075	2.9
359.287	4.95
359.498	97.11
359.709	70.48
359.921	103.25
360.132	41.81
360.344	-11.43
360.555	-52.39
360.766	88.92
360.977	17.24
361.189	115.54
361.4	60.24
361.611	47.96
361.823	115.54
362.034	101.2
362.245	9.05
362.456	-13.48
362.667	21.33
362.879	-40.11
363.09	-33.96
363.301	103.25
363.512	7
363.723	-9.39
363.935	-3.24
364.146	58.2
364.357	35.67
364.568	72.53
364.779	66.39
364.99	162.64
365.201	-21.67
365.412	131.92
365.623	-7.34
365.834	45.91
366.045	45.91
366.256	13.14
366.467	31.57
366.678	-1.19
366.889	43.86
367.1	-5.29
367.311	103.25
367.522	15.19
367.733	33.62
367.944	39.76
368.155	35.67
368.366	129.88
368.577	144.21
368.788	86.87
368.999	4.95
369.209	31.57
369.42	183.12
369.631	138.07
369.842	76.63
370.053	9.05
370.264	107.35
370.474	-1.19
370.685	-5.29
370.896	58.2
371.107	37.72
371.317	-3.24
371.528	-1.19
371.739	58.2
371.95	56.15
372.16	41.81
372.371	52.05
372.582	29.52
372.792	43.86
373.003	90.96
373.214	33.62
373.424	47.96
373.635	-11.43
373.846	66.39
374.056	-15.53
374.267	35.67
374.477	-13.48
374.688	15.19
374.898	54.1
375.109	37.72
375.319	70.48
375.53	47.96
375.74	76.63
375.951	11.09
376.161	58.2
376.372	58.2
376.582	-72.87
376.793	45.91
377.003	-31.91
377.214	21.33
377.424	101.2
377.635	39.76
377.845	-15.53
378.055	60.24
378.266	-31.91
378.476	-7.34
378.686	2.9
378.897	23.38
379.107	97.11
379.317	84.82
379.528	0.85
379.738	37.72
379.948	-17.58
380.158	47.96
380.369	-54.44
380.579	43.86
380.789	74.58
380.999	56.15
381.21	103.25
381.42	88.92
381.63	-50.35
381.84	78.68
382.05	0.85
382.261	80.72
382.471	72.53
382.681	41.81
382.891	99.16
383.101	-25.77
383.311	-44.2
383.521	58.2
383.731	95.06
383.941	93.01
384.151	35.67
384.361	33.62
384.571	25.43
384.781	62.29
384.991	142.16
385.201	105.3
385.411	97.11
385.621	123.73
385.831	115.54
386.041	39.76
386.251	74.58
386.461	117.59
386.671	62.29
386.881	76.63
387.091	78.68
387.301	72.53
387.511	68.44
387.72	60.24
387.93	47.96
388.14	-11.43
388.35	105.3
388.56	62.29
388.769	62.29
388.979	47.96
389.189	-13.48
389.399	23.38
389.609	-13.48
389.818	111.44
390.028	60.24
390.238	45.91
390.447	47.96
390.657	45.91
390.867	52.05
391.076	7
391.286	119.64
391.496	7
391.705	-25.77
391.915	117.59
392.125	45.91
392.334	11.09
392.544	148.31
392.753	88.92
392.963	-33.96
393.172	52.05
393.382	-15.53
393.591	146.26
393.801	31.57
394.01	111.44
394.22	52.05
394.429	70.48
394.639	74.58
394.848	105.3
395.058	105.3
395.267	-5.29
395.477	27.48
395.686	23.38
395.895	199.51
396.105	142.16
396.314	33.62
396.524	64.34
396.733	17.24
396.942	183.12
397.152	52.05
397.361	140.12
397.57	74.58
397.78	76.63
397.989	60.24
398.198	170.83
398.407	37.72
398.617	82.77
398.826	25.43
399.035	54.1
399.244	37.72
399.453	154.45
399.663	82.77
399.872	90.96
400.081	70.48
400.29	113.49
400.499	15.19
400.708	121.68
400.917	156.5
401.127	-25.77
401.336	31.57
401.545	99.16
401.754	82.77
401.963	86.87
402.172	76.63
402.381	39.76
402.59	56.15
402.799	68.44
403.008	152.4
403.217	-1.19
403.426	172.88
403.635	31.57
403.844	179.03
404.053	76.63
404.262	66.39
404.471	111.44
404.68	105.3
404.888	80.72
405.097	146.26
405.306	168.79
405.515	138.07
405.724	127.83
405.933	76.63
406.142	117.59
406.35	113.49
406.559	21.33
406.768	156.5
406.977	217.94
407.185	150.36
407.394	183.12
407.603	74.58
407.812	179.03
408.02	166.74
408.229	131.92
408.438	174.93
408.646	84.82
408.855	93.01
409.064	101.2
409.272	160.59
409.481	156.5
409.69	222.03
409.898	242.51
410.107	242.51
410.315	246.61
410.524	193.36
410.733	203.6
410.941	170.83
411.15	250.71
411.358	242.51
411.567	248.66
411.775	164.69
411.984	181.07
412.192	289.62
412.401	285.52
412.609	346.96
412.818	279.38
413.026	312.14
413.234	285.52
413.443	338.77
413.651	312.14
413.86	412.5
414.068	326.48
414.276	482.13
414.485	351.06
414.693	502.61
414.901	430.93
415.11	342.86
415.318	402.26
415.526	531.28
415.734	414.54
415.943	535.37
416.151	494.41
416.359	463.69
416.567	473.93
416.776	506.7
416.984	578.38
417.192	762.7
417.4	576.33
417.608	625.48
417.817	516.94
418.025	602.96
418.233	643.92
418.441	588.62
418.649	629.58
418.857	709.45
419.065	678.73
419.273	713.55
419.481	764.75
419.689	779.08
419.897	811.85
420.105	768.84
420.313	899.91
420.521	885.58
420.729	1024.84
420.937	953.16
421.145	1002.31
421.353	1061.7
421.561	1090.37
421.769	1270.59
421.977	1188.68
422.185	1153.86
422.393	1262.4
422.601	1368.9
422.809	1389.38
423.017	1264.45
423.224	1319.75
423.432	1491.77
423.64	1442.62
423.848	1600.32
424.056	1516.35
424.263	1596.22
424.471	1616.7
424.679	1723.2
424.887	1684.28
425.094	1739.58
425.302	1813.31
425.51	1796.92
425.718	1921.85
425.925	2007.86
426.133	2071.35
426.341	2075.45
426.548	2288.43
426.756	2157.36
426.964	2255.67
427.171	2362.16
427.379	2409.26
427.586	2480.94
427.794	2482.99
428.001	2814.76
428.209	2630.45
428.417	2624.3
428.624	2945.83
428.832	2968.36
429.039	2777.9
429.247	2792.23
429.454	3210.02
429.662	3343.14
429.869	3175.2
430.076	3416.87
430.284	3277.6
430.491	3453.73
430.699	3638.05
430.906	3607.33
431.114	3646.24
431.321	3795.74
431.528	3820.32
431.736	4139.8
431.943	4399.89
432.15	4080.41
432.358	4203.29
432.565	4408.08
432.772	4330.26
432.979	4602.64
433.187	4619.02
433.394	4786.96
433.601	5118.73
433.808	5034.76
434.016	5059.34
434.223	5196.55
434.43	5501.7
434.637	5436.16
434.844	5851.9
435.052	5876.48
435.259	5722.88
435.466	6091.51
435.673	5905.15
435.88	6177.53
436.087	6611.7
436.294	6454
436.501	6306.55
436.708	6494.96
436.915	6748.91
437.122	7031.53
437.329	6920.94
437.537	7293.67
437.743	7287.53
437.95	7381.73
438.157	7525.09
438.364	7985.88
438.571	8106.71
438.778	7873.25
438.985	8772.3
439.192	8393.43
439.399	8620.75
439.606	8395.48
439.813	8874.7
440.02	9728.7
440.227	9253.58
440.433	9151.18
440.64	9513.67
440.847	9306.82
441.054	9747.14
441.261	10433.21
441.467	10140.35
441.674	10453.69
441.881	10826.42
442.088	10730.16
442.294	10537.65
442.501	10887.86
442.708	11092.65
442.914	11772.58
443.121	12098.2
443.328	11842.21
443.534	12507.8
443.741	11823.78
443.948	11913.89
444.154	12935.82
444.361	12933.78
444.568	12901.01
444.774	13015.69
444.981	12974.74
445.187	13521.54
445.394	14015.1
445.6	13853.31
445.807	15172.21
446.013	14541.43
446.22	14643.83
446.426	15321.71
446.633	15458.92
446.839	15936.1
447.046	15213.17
447.252	16228.96
447.459	15929.95
447.665	15936.1
447.871	16765.53
448.078	17369.68
448.284	16675.41
448.491	17222.22
448.697	17873.48
448.903	18133.57
449.11	18072.13
449.316	17807.94
449.522	18086.47
449.728	18895.41
449.935	18917.94
450.141	18741.82
450.347	19264.05
450.553	18733.62
450.76	19151.41
450.966	19608.11
451.172	19008.05
451.378	19802.66
451.584	19272.24
451.791	19909.16
451.997	19923.49
452.203	20159.01
452.409	20226.59
452.615	20185.63
452.821	19520.04
453.027	19378.73
453.233	20281.89
453.44	19489.32
453.646	19624.49
453.852	19978.79
454.058	19921.45
454.264	19259.95
454.47	19720.74
454.676	19411.5
454.882	20171.3
455.088	18340.41
455.294	18598.46
455.5	18684.47
455.705	18836.02
455.911	18387.52
456.117	17781.32
456.323	17373.77
456.529	16904.79
456.735	17324.62
456.941	16859.73
457.147	16732.76
457.352	16114.27
457.558	16237.15
457.764	16056.93
457.97	15913.57
458.176	15516.26
458.381	15264.36
458.587	14754.42
458.793	14531.19
458.999	13587.08
459.204	14940.79
459.41	14430.84
459.616	13488.78
459.821	13578.89
460.027	13503.11
460.233	13208.2
460.438	12735.12
460.644	12587.67
460.85	12014.24
461.055	12100.25
461.261	11819.68
461.466	10861.23
461.672	10795.7
461.878	11459.24
462.083	10576.56
462.289	10377.91
462.494	10255.03
462.7	9982.65
462.905	9341.64
463.111	9781.95
463.316	10011.32
463.522	9773.76
463.727	9718.47
463.932	9650.88
464.138	9566.92
464.343	9589.44
464.549	9153.23
464.754	9538.24
464.959	9581.25
465.165	9495.24
465.37	9083.59
465.575	8780.5
465.781	9175.75
465.986	9063.12
466.191	8991.44
466.397	8630.99
466.602	8291.03
466.807	8461.01
467.012	8645.33
467.218	8526.55
467.423	8608.47
467.628	8407.77
467.833	8958.67
468.038	8499.92
468.244	8139.48
